time division length width area intensity CMx CMy
0 0 54.0436 12.3789 669 70.2048 580.354 551.407
1 0 55.094 12.2699 676 70.8136 579.858 548.825
2 0 57.018 12.1716 694 71.438 579.935 547.597
3 0 60.0798 12.3669 743 70.782 579.56 547.686
4 0 62.0385 12.186 756 70.6984 579.462 545.989
5 0 64.056 12.5359 803 70.9352 580.194 546.753
6 0 68.0651 12.5468 854 71.0141 579.926 543.959
7 0 68.11 12.01 818 73.0355 579.62 542.742
8 0 71.1108 12.1219 862 73.2181 579.648 542.687
9 0 73.0527 12.2651 896 73.7221 580.008 540.585
10 0 76.2286 12.8823 982 73.0886 580.338 538.996
11 0 78.2308 12.4759 976 74.543 580.292 537.791
12 0 81.2334 12.7164 1033 74.1491 580.781 536.473
13 0 85.2211 12.3561 1053 74.7369 580.829 535.396
14 0 85.129 12.6161 1074 75.0726 580.361 532.8
15 0 90.3219 12.9869 1173 73.9829 581.719 532.673
16 1 46.1205 9.97387 460 74.0891 582.187 553.296
17 0 45.1366 10.5458 476 74.1261 582.021 553.971
18 0 48.1992 11.245 542 73.19 582.072 551.797
19 0 50.3002 11.7296 590 72.0475 581.819 551.664
20 0 51.0927 11.8217 604 72.6308 581.553 550.127
21 0 53.137 11.5739 615 72.6715 581.712 549.75
22 0 53.2496 11.4743 611 72.9427 581.453 548.928
23 0 56.1625 12.3392 693 71.2482 581.535 547.672
24 0 58.4167 11.5892 677 71.6056 581.448 548.452
25 0 61.3122 12.7707 783 70.1737 581.547 544.948
26 0 62.3266 11.9692 746 71.3834 581.35 544.816
27 0 64.248 12.0938 777 71.278 581.47 543.755
28 0 65.6381 12.1271 796 73.6847 581.291 541.529
29 0 67.3448 12.191 821 72.2972 581.356 539.642
30 0 71.4515 12.624 902 71.7073 581.14 538.905
31 1 39.2511 9.47745 372 73.1828 581.473 556.073
32 0 42.2655 11.1675 472 71.7648 581.112 553.852
33 0 44.245 10.148 449 73.9599 581.31 553.419
34 0 44.2598 10.2124 452 74.0642 581.6 553.4
35 0 45.1596 10.7397 485 74.3464 581.301 552.095
36 0 47.298 11.6073 549 72.5082 581.592 552.009
37 0 46.24 10.878 503 74.664 581.889 550.143
38 0 50.1737 12.0182 603 71.1095 581.69 548.476
39 0 50.0821 11.8605 594 73.6229 582.037 550.177
40 0 54.0786 12.6852 686 71.8411 582.101 549.175
41 0 53.0753 12.5859 668 73.0404 582.425 547.307
42 0 54.042 12.1017 654 74.026 581.645 547.795
43 0 56.1104 12.0833 678 73.736 581.636 546.417
44 0 58.1393 12.8141 745 72.4738 582.209 545.303
45 0 60.3665 12.9045 779 72.2221 582.802 545.388
46 0 60.2132 12.2897 740 73.8527 582.551 543.759
47 0 63.2477 12.2376 774 73.7494 582.983 541.605
48 0 65.335 12.9486 846 72.2317 582.963 541.963
49 0 68.4544 12.7676 874 71.9565 583.473 540.087
50 0 70.3646 13.0321 917 71.9117 583.218 539.521
51 0 73.3461 12.9796 952 71.7553 583.009 539.804
52 0 75.2528 13.1556 990 71.0505 583.411 536.936
53 1 37.3272 9.32295 348 71.5891 583.259 557.08
54 0 38.2013 8.71698 333 72.5345 582.318 555.97
55 0 38.2368 10.5134 402 64.6642 582.463 554.878
56 0 41.134 11.2316 462 62.4113 582.439 552.563
57 0 43.1992 11.4585 495 59.8364 582.768 552.188
58 0 43.1732 12.6699 547 59.0914 582.691 550.837
59 0 44.1894 11.5412 510 61.5392 583.582 551.429
60 0 47.2952 11.9251 564 62.6773 583.346 550.534
61 0 46.1774 11.1526 515 64.4155 583.082 549.452
62 0 49.2407 11.129 548 64.2135 583.162 549.109
63 0 51.0797 11.4723 586 63.9164 582.754 548.503
64 0 51.1047 11.6232 594 64.6229 582.673 547.025
65 0 53.0919 11.3953 605 64.9438 582.688 546.253
66 0 53.0661 11.9474 634 65.2303 582.948 546.847
67 0 55.1467 12.5846 694 63.9337 583.51 546.307
68 0 55.0232 11.1953 616 66.7127 583.83 545.524
69 0 59.1178 12.4159 734 63.9755 584.554 543.076
70 0 60.102 12.9447 778 63.9961 584.208 542.472
71 0 61.1235 11.8612 725 65.4317 584.197 542.659
72 0 63.1185 12.1993 770 65.2078 583.722 540.169
73 0 64.1419 11.9423 766 87.453 583.863 540.178
74 0 68.1184 12.3021 838 65.4535 584.895 539.169
75 0 68.2629 12.1149 827 66.6493 584.048 535.663
76 0 70.1919 12.1239 851 67.436 584.811 535.18
77 0 76.15 12.935 985 65.4863 584.526 533.686
78 0 75.2431 12.3466 929 67.4962 584.69 530.694
79 0 79.3179 12.2041 968 67.0899 584.454 531.354
80 0 80.1869 12.8824 1033 66.9245 584.818 526.846
81 1 45.0418 10.1461 457 67.2735 583.895 545.777
82 0 46.0448 9.23014 425 67.0047 584.134 546.009
83 0 47.0297 9.82358 462 67.7814 585.013 543.853
84 0 48.0143 10.726 515 66.2136 584.858 542.443
85 0 52.0683 11.8114 615 63.2407 586.033 541.558
86 0 53.0651 12.0418 639 62.7997 585.812 541.455
87 0 55.0566 12.6415 696 61.5086 585.838 541.088
88 0 55.054 11.9882 660 63.1955 585.948 538.603
89 0 58.0404 12.319 715 62.1259 586.713 538.569
90 0 58.0153 12.3588 717 61.9526 586.668 537.31
91 0 61.0357 13.5167 825 59.3879 587.732 535.575
92 0 62.0328 12.2677 761 60.6597 588.226 534.138
93 0 64.0399 13.0075 833 58.9712 588.337 534.026
94 0 65.0631 13.0642 850 58.2506 588.126 531.247
95 0 66.0614 13.2755 877 56.8746 588.283 529.932
96 0 70.0502 12.5767 881 56.6254 588.15 528.078
97 0 73.0397 12.8834 941 81.1445 588.416 527.495
98 0 75.0686 13.2146 992 55.8286 587.923 526.724
99 1 38.0245 9.52019 362 57.6961 586.975 545.243
100 0 40.0203 10.5946 424 58.566 587.024 545.04
101 0 40.0197 10.8447 434 58.6083 587.166 543.839
102 0 43.0692 11.9807 516 57.7364 587.316 543.151
103 0 42.01 11.2592 473 57.7844 587.512 542.228
104 0 46.0626 12.1574 560 57.375 588.761 540.939
105 0 46.0613 11.6801 538 58.868 588.552 539.965
106 0 48.0815 11.7093 563 58.3766 589.174 540.707
107 0 50.1432 10.9088 547 59.5137 589.002 539.583
108 0 51.1173 12.0703 617 58.6337 588.948 539.149
109 0 51.1262 11.1098 568 60.1092 589.401 537.401
110 0 53.0898 12.1116 643 58.9596 588.894 537.44
111 0 54.1187 12.14 657 58.9863 588.51 534.373
112 0 57.1027 12.6789 724 57.7541 588.207 534.203
113 0 57.0582 12.163 694 58.8026 587.986 534.363
114 0 61.1176 14.1203 863 55.3998 587.863 532.711
115 0 62.13 12.2807 763 57.9856 587.502 531.088
116 0 65.1541 12.8772 839 56.7175 587.679 531.304
117 0 69.1499 13.2177 914 56.2243 587.416 530.63
118 0 69.0931 13.3298 921 56.6308 587.913 529.206
119 0 71.2501 13.3053 948 56.8386 587.301 526.982
120 0 72.0964 13.0242 939 57.5974 587.409 527.793
121 0 75.0765 12.747 957 57.9739 587.579 525.11
122 0 77.1455 12.807 988 58.1842 586.925 524.004
123 1 42.0778 10.5281 443 57.8465 587.054 541.926
124 0 42.0715 10.5059 442 57.8846 587.115 541.672
125 0 41.1957 10.2923 424 59.0991 587.104 542.976
126 0 44.0907 9.8887 436 59.9037 587.261 543.089
127 0 48.0963 11.3106 544 58.1287 587.895 541.478
128 0 48.0557 11.882 571 57.7898 587.813 539.615
129 0 49.0711 11.8603 582 58.7457 587.892 539.242
130 0 53.0999 12.6366 671 57.3845 587.759 540.055
131 0 50.0293 11.953 598 59.8579 587.087 538.677
132 0 51.1229 11.756 601 60.7587 587.384 536.386
133 0 53.0696 11.777 625 60.9984 587.438 536.494
134 0 56.0817 12.0004 673 60.3655 587.158 535.881
135 0 60.1385 12.2052 734 59.3324 586.781 535.699
136 0 60.2168 12.4882 752 60.0625 586.896 534.285
137 0 63.0816 12.7137 802 59.485 586.565 534.796
138 0 63.1742 11.3812 719 62.2656 586.665 532.1
139 0 66.1904 11.4367 757 61.8045 586.606 531.675
140 0 69.3753 12.8864 894 60.1957 586.692 529.723
141 0 71.1119 12.6842 902 60.6951 586.335 529.715
142 0 72.1427 12.2258 882 62.3401 586.494 528.812
143 0 76.2552 12.2352 933 62.0932 586.258 525.723
144 0 78.2075 12.518 979 62.1542 586.14 525.704
145 0 82.4982 13.9397 1150 60.0287 586.037 524.188
146 0 82.2549 11.9507 983 63.5066 586.211 523.393
147 0 85.2732 12.114 1033 63.5692 586.265 520.998
148 0 87.3026 11.9355 1042 64.2946 585.685 520.187
149 1 48.2745 9.52884 460 64.487 586.141 540.654
150 0 50.3042 10.019 504 63.9742 586.427 540.867
151 0 53.2476 10.9113 581 62.1188 586 540.198
152 0 55.2254 11.5345 637 61.27 586.389 539.73
153 0 54.1786 11.8866 644 62.2034 586.561 538.446
154 0 54.1314 11.86 642 62.852 585.992 539.29
155 0 58.1102 11.874 690 62.3797 586.554 539.526
156 0 58.168 11.0542 643 64.9269 586.652 538.283
157 0 61.2544 12.3256 755 63.4265 586.762 536.891
158 0 62.1945 12.3644 769 64.1443 586.371 534.066
159 0 66.2976 12.1875 808 64.4839 586.224 533.915
160 0 67.4883 11.7057 790 65.3 586.492 534.747
161 0 70.3005 12.7311 895 64.3754 586.676 531.686
162 0 71.2755 12.3465 880 65.3443 585.875 529.941
163 0 75.3419 12.0252 906 66.1578 586.274 526.998
164 0 78.5097 12.0622 947 65.9451 586.586 526.126
165 1 44.3179 10.7857 478 63.795 584.946 545.655
166 0 45.1393 9.96915 450 64.74 585.529 544.491
167 0 44.1335 10.1963 450 66.1222 585.402 543.758
168 0 47.0893 11.5525 544 64.2684 586.454 542.415
169 0 50.1037 11.3165 567 65.0176 587.363 542.436
170 0 51.1868 11.3896 583 65.3671 587.492 539.593
171 0 51.1141 12.1297 620 64.3677 587.953 539.216
172 0 52.047 11.3167 589 65.9779 587.798 539.9
173 0 53.0701 11.7769 625 66.2544 587.877 538.245
174 0 54.0787 11.7606 636 66.3538 587.983 535.895
175 0 57.1131 11.4685 655 66.1542 587.647 536.362
176 0 60.1568 11.869 714 65.084 588.018 534.77
177 0 59.1828 11.5067 681 67.0426 588.216 533.624
178 0 62.1623 12.6765 788 64.7766 588.187 532.675
179 0 63.1216 11.8977 751 66.1478 588.383 532.855
180 0 66.2347 12.2292 810 66.0136 588.5 531.153
181 0 66.1516 12.3655 818 66.8105 588.899 528.592
182 0 68.1059 12.3191 839 66.671 588.895 529.085
183 0 68.2425 12.3677 844 67.2986 588.501 528.088
184 0 71.4436 12.7233 909 65.9835 588.655 527.897
185 0 72.3918 12.3357 893 66.8264 588.525 526.402
186 0 75.5346 11.412 862 67.5348 588.868 523.116
187 0 77.3445 11.9983 928 66.7263 588.642 522.766
188 0 81.3393 11.9745 974 66.2187 588.656 521.762
189 0 84.2175 12.159 1024 66.1064 588.658 519.284
190 1 45.0661 9.29745 419 67.8496 588.279 538.484
191 0 48.0221 9.45398 454 68.207 588.302 536.372
192 0 49.0119 9.07943 445 67.3551 588.64 537.575
193 0 51.0415 10.4229 532 64.7086 588.555 536.156
194 0 54.0914 11.1478 603 62.7844 588.547 535.849
195 0 54.0864 11.2228 607 62.1087 588.815 534.041
196 0 57.0246 11.2408 641 62.3136 589.273 535.027
197 0 58.1414 11.386 662 64.1631 590.405 532.742
198 0 59.1118 12.2987 727 63.5007 590.7 531.411
199 0 61.0814 12.0822 738 63.6816 590.435 530.257
200 0 62.0599 11.6017 720 64.3903 590.697 529.099
201 0 64.0474 12.5376 803 62.8306 590.645 529.339
202 0 66.0745 11.8351 782 64.3529 590.871 527.711
203 0 69.0957 12.186 842 63.8361 590.926 526.974
204 0 70.0495 12.277 860 63.8395 590.845 526.79
205 0 72.1713 12.5673 907 63.6505 590.918 525.193
206 0 75.0918 12.1318 911 64.652 590.974 523.697
207 0 77.0533 12.9391 997 63.9819 590.874 522.869
208 0 80.0546 12.5914 1008 64.7679 590.627 522.564
209 0 82.22 12.1503 999 65.9289 590.034 520.635
210 0 85.1818 12.5262 1067 65.8585 590.483 520.024
211 0 87.1844 12.5596 1095 66.0466 590.055 517.308
212 1 47.0535 10.6049 499 65.9118 590.263 539.818
213 0 49.0805 10.982 539 66.0482 590.28 537.306
214 0 49.0254 10.26 503 66.6541 589.533 538.139
215 0 51.0579 11.5751 591 64.2809 589.105 537.118
216 0 53.0298 11.3521 602 64.3439 588.718 536.575
217 0 54.0266 12.0681 652 64.0905 588.261 535.747
218 0 57.075 13.2457 756 61.9894 588.753 534.704
219 0 58.0437 12.0254 698 64.3926 588.52 534.202
220 0 58.0475 11.4045 662 65.6148 588.196 533.417
221 0 60.0409 11.1424 669 66.5202 588.598 532.096
222 0 63.0727 12.4777 787 64.4193 587.909 531.141
223 0 64.0719 12.5796 806 64.5261 588.359 530.871
224 0 67.0385 11.8887 797 65.3011 588.437 531.577
225 0 68.1043 12.3046 838 64.611 588.896 530.124
226 0 71.0574 12.4406 884 64.3326 588.559 529.267
227 0 71.1363 12.3284 877 65.195 588.13 528.948
228 0 74.1557 12.7704 947 64.5438 587.956 528.404
229 0 76.1498 12.7775 973 65.1069 588.45 526.476
230 0 77.184 13.0597 1008 65.001 588.283 525.802
231 0 81.1832 12.3425 1002 66.0699 588.189 524.081
232 0 83.0972 12.6358 1050 65.5295 588.087 522.829
233 0 86.1876 13.0993 1129 64.7086 588.07 521.274
234 0 90.3263 13.3405 1205 64.2141 587.833 519.944
235 0 92.3766 12.3841 1144 65.8068 588.038 517.282
236 1 50.0653 11.1055 556 64.3687 588.165 539.228
237 0 50.164 10.1866 511 65.5479 588.088 537.933
238 0 52.1117 9.95938 519 65.2852 587.911 538.266
239 0 54.161 10.8011 585 63.7932 588.246 538.762
240 0 55.3159 11.823 654 62.8303 587.963 535.401
241 0 58.2732 11.7035 682 62.3109 587.246 536.227
242 0 59.2305 11.6325 689 63.3454 587.734 535.951
243 0 61.2355 11.6436 713 63.352 587.853 535.15
244 0 61.1735 12.6035 771 62.5422 587.351 533.892
245 0 65.2001 11.9632 780 63.2205 587.504 534.279
246 0 65.1682 12.414 809 63.1014 587.307 533.378
247 0 68.1844 13.4048 914 61.7385 587.383 532.356
248 0 68.3296 12.3812 846 64.6017 586.974 531.186
249 0 71.2243 12.594 897 64.2096 586.8 531.302
250 0 72.0883 11.805 851 66.2103 586.969 527.229
251 0 78.2175 12.7721 999 63.9489 586.392 529.995
252 0 78.2201 12.3626 967 66.183 586.961 525.199
253 1 41.0375 9.77156 401 66.3267 587.209 546.12
254 0 45.1696 10.3167 466 65.8047 587.036 546.112
255 0 46.2641 10.6778 494 66.1053 586.919 546.223
256 0 47.1127 11.4831 541 66.1978 587.068 543.786
257 0 48.1432 11.4658 552 66.9819 586.924 543.295
258 0 49.0908 11.4685 563 67.3819 587.552 543.384
259 0 51.0736 12.4526 636 67.2186 587.288 541.682
260 0 52.1794 12.2846 641 67.7754 586.802 542.101
261 0 52.111 12.339 643 68.8787 587.033 541.288
262 0 54.2134 12.3032 667 69.913 586.502 539.163
263 0 56.4271 12.5117 706 69.2975 586.371 540.486
264 0 58.18 12.702 739 69.889 586.548 537.622
265 0 58.4248 11.7074 684 71.807 586.117 538.558
266 0 61.3054 13.0005 797 70.4542 586.188 535.79
267 0 63.3386 12.9463 820 70.289 586.472 536.165
268 0 63.3957 12.9189 819 71.2112 586.667 533.546
269 0 65.5151 13.0504 855 70.993 586.565 532.856
270 0 68.2781 14.0308 958 68.9916 586.712 534.169
271 0 71.3426 13.5964 970 69.2588 586.888 531.915
272 0 72.4369 13.1839 955 70.6942 586.614 529.902
273 0 73.479 13.3916 984 71.0163 586.316 527.903
274 0 75.4303 12.6474 954 71.9046 586.153 526.971
275 1 40.2607 10.1588 409 70.8851 585.817 545.472
276 0 43.2028 10.6243 459 71.9085 586.185 545.638
277 0 42.195 10.4041 439 72.139 585.797 545.146
278 0 44.1095 11.0407 487 70.9548 586.394 544.867
279 0 48.1157 11.6594 561 69.8111 587.121 544.308
280 0 49.0925 12.1607 597 69.9263 587.402 542.193
281 0 50.1774 12.1569 610 70.9475 587.913 541.805
282 0 52.1426 12.8302 669 69.2765 587.52 541.789
283 0 53.115 12.1435 645 70.3302 588.233 539.678
284 0 56.1907 13.0093 731 69.1724 588.453 537.562
285 0 56.1124 12.5641 705 69.8922 588.64 538.234
286 0 60.1528 12.7841 769 68.3459 588.675 538.715
287 0 60.2123 12.7549 768 69.6641 588.587 535.745
288 0 61.1996 12.7288 779 69.4673 588.863 534.234
289 0 63.2648 13.1353 831 69.16 589.005 534.297
290 0 67.4532 13.1054 884 67.9355 589.253 534.458
291 0 69.2764 13.41 929 67.5447 589.067 532.926
292 0 71.3206 13.7968 984 67.0498 589.093 530.017
293 0 72.1523 13.2636 957 68.2006 589.383 530.744
294 0 76.3244 13.1282 1002 68.008 589.286 528.468
295 0 78.1292 13.5545 1059 67.7913 589.483 526.108
296 0 81.1799 13.4393 1091 68.2658 589.196 523.674
297 0 84.1549 12.7978 1077 69.2284 590.024 523.949
298 0 87.0718 13.552 1180 67.5559 590.008 521.064
299 1 47.0323 10.8436 510 69.7549 589.392 538.39
300 0 50.0368 10.3524 518 70.3205 589.448 538.315
301 0 53.0743 11.2484 597 68.7806 589.94 536.399
302 0 55.1536 11.8034 651 68.6974 591.217 534.825
303 0 55.2067 11.5928 640 69.2125 590.884 534.966
304 0 57.1024 11.7683 672 69.2753 591.213 534.158
305 0 59.1095 12.0624 713 68.6466 591.017 533.578
306 0 61.038 12.2383 747 68.5971 589.992 531.589
307 0 61.0654 12.6258 771 68.4851 590.283 530.751
308 0 64.0424 12.4136 795 68.6088 590.423 529.621
309 0 68.0651 13.1786 897 66.3512 590.573 529.204
310 0 68.1558 12.4421 848 68.5578 590.481 527.415
311 0 71.1547 12.4377 885 68.1401 590.375 525.908
312 0 72.063 12.3503 890 68.6719 590.478 523.903
313 0 77.1047 13.4233 1035 66.5285 590.281 523.606
314 0 77.0753 12.7019 979 68.8417 590.045 520.814
315 0 80.0658 12.14 972 69.3354 590.056 521.754
316 1 44.05 10.2384 451 68.2949 589.636 539.162
317 0 44.0408 10.1497 447 68.8322 590.06 539.743
318 0 48.1379 11.1139 535 67.6617 589.531 537.422
319 0 50.1051 11.5357 578 67.0969 589.676 536.292
320 0 51.1578 11.8262 605 66.7025 589.944 535.972
321 0 52.0961 12.1314 632 67.932 590.372 534.359
322 0 54.1397 12.1537 658 67.8359 590.474 533.549
323 0 55.097 13.1223 723 66.6155 590.503 533.12
324 0 59.1103 11.7408 694 67.7983 590.311 533.336
325 0 58.0966 12.4276 722 67.9612 589.557 531.289
326 0 61.0687 12.1994 745 67.9826 589.012 529.985
327 0 63.0851 12.8874 813 66.7884 589.178 529.571
328 0 63.0645 12.178 768 68.1445 588.799 527.464
329 0 65.047 12.1451 790 68.1544 588.775 526.867
330 0 66.0757 12.4403 822 68.0572 588.341 525.307
331 0 68.0336 12.5379 853 67.4033 588.855 525.696
332 0 72.034 12.5496 904 67.4502 588.778 525.69
333 0 73.065 12.5094 914 67.453 588.653 524.118
334 0 76.0707 13.1588 1001 66.4336 588.572 522.659
335 0 78.0566 13.7849 1076 65.4349 588.795 521.137
336 0 81.0707 12.8776 1044 67.3611 588.409 520.228
337 0 83.0683 12.9532 1076 67.3885 588.155 520.056
338 0 85.1009 12.7613 1086 67.581 587.869 517.416
339 0 89.1183 12.8593 1146 67.3168 587.624 515.659
340 1 46.0129 10.3014 474 67.9241 587.665 537.816
341 0 48.0507 11.3006 543 66.6703 587.527 537.7
342 0 50.0746 12.2417 613 65.9135 588.124 537.175
343 0 53.1441 11.911 633 66.1359 587.548 535.368
344 0 52.0664 11.3509 591 68.1337 588.729 535.587
345 0 55.1038 12.5218 690 66.142 588.896 534.261
346 0 58.1279 12.2833 714 65.6849 588.734 534.074
347 0 59.0697 12.2228 722 66.874 588.843 532.06
348 0 57.0969 11.5768 661 69.0832 588.628 530.304
349 0 61.0803 12.4917 763 66.9135 588.537 529.957
350 0 65.0455 13.5751 883 65.2786 588.008 528.391
351 0 64.129 12.4125 796 68.3128 587.716 527.92
352 0 66.1047 12.223 808 68.453 587.975 526.121
353 0 72.0968 12.719 917 66.9357 587.55 526.742
354 0 71.3424 12.6853 905 68.442 587.688 525.666
355 0 74.2266 12.3002 913 68.5619 588.08 526.183
356 0 78.2797 13.043 1021 67.4035 588.18 524.655
357 0 80.3024 13.499 1084 67.072 587.7 522.488
358 0 82.2294 13.1826 1084 67.5378 588.913 521.004
359 0 84.3141 12.8093 1080 68.0102 588.248 520.359
360 0 89.2595 13.5784 1212 66.0602 588.374 519.646
361 0 89.2816 12.8246 1145 67.952 587.91 516.666
362 0 93.2647 13.467 1256 66.7922 587.934 515.87
363 0 94.2064 13.2581 1249 67.2082 588.139 514.428
364 0 98.2643 13.5655 1333 66.1995 587.24 513.081
365 1 54.2071 10.4599 567 67.358 587.517 536.173
366 0 55.1175 10.5955 584 66.976 587.969 536.039
367 0 55.0964 11.0715 610 66.0016 587.769 535.025
368 0 57.1237 11.6239 664 65.1581 587.992 532.636
369 0 60.0945 12.68 762 62.4383 588.096 533.1
370 0 60.0792 12.8664 773 62.194 587.833 532.475
371 0 63.0663 12.5106 789 62.2598 587.943 531.403
372 0 64.0779 12.7657 818 62.1809 588.32 530.331
373 0 65.0882 12.3832 806 62.8722 588.115 529.388
374 0 68.1086 13.2436 902 61.3869 588.278 527.635
375 0 72.1152 12.8683 928 61.8405 588.217 527.005
376 0 75.0818 13.5053 1014 60.8974 588.384 526.3
377 0 77.0565 13.6913 1055 60.0057 588.282 523.657
378 0 79.0532 12.8774 1018 61.553 588.774 521.927
379 0 80.3203 13.5956 1092 61.3059 589.043 521.064
380 0 84.1076 13.8394 1164 60.8892 589.145 519.183
381 0 86.2083 12.319 1062 63.8324 589.441 517.001
382 0 88.2645 13.4482 1187 62.6049 589.64 516.445
383 0 93.2197 14.085 1313 61.6474 589.205 515.935
384 0 97.2366 14.0174 1363 61.8936 589.319 514.458
385 0 99.3736 13.6253 1354 62.8545 589.328 513.136
386 0 102.312 14.3385 1467 61.9632 589.444 511.181
387 0 104.631 13.4091 1403 63.6949 590.408 510.298
388 0 105.509 13.6766 1443 64.0222 590.111 509.702
389 0 109.265 13.8837 1517 63.8088 590.465 507.225
390 0 112.308 14.487 1627 63.4511 590.611 504.617
391 0 119.395 13.6773 1633 64.1029 590.79 503.329
392 1 64.3478 11.0649 712 64.8132 590.691 531.563
393 0 66.184 11.1658 739 65.4303 591.157 529.181
394 0 69.3087 12.6535 877 63.3261 590.808 527.303
395 0 70.1653 12.6701 889 64.2925 590.937 525.639
396 0 73.1783 12.49 914 64.5339 591.382 524.257
397 0 75.1296 12.8844 968 63.6756 591.343 523.98
398 0 78.264 13.3267 1043 63.2694 591.11 521.074
399 0 82.3952 13.5566 1117 63.1092 591.18 519.7
400 0 83.1888 13.5235 1125 63.3351 590.94 518.787
401 0 87.2368 12.4833 1089 65.3728 590.827 517.118
402 0 88.297 13.5225 1194 64.4757 590.91 515.66
403 0 92.2421 13.3778 1234 64.1402 591.166 514.695
404 0 93.3342 13.532 1263 64.7466 591.166 512.365
405 0 98.4962 13.7467 1354 64.8117 591.461 511.516
406 0 102.261 14.1599 1448 64.3612 591.427 509.105
407 0 106.366 14.0834 1498 64.8758 591.278 508.631
408 1 57.1714 11.0545 632 66.8592 590.842 531.766
409 0 55.2011 11.1954 618 67.2492 591.071 531.209
410 0 60.2387 11.6204 700 66.3014 591.11 531.11
411 0 62.2038 12.4751 776 65.7874 591.774 529.567
412 0 62.237 12.6131 785 66.1185 591.655 528.987
413 0 65.2492 13.2109 862 65.2483 591.174 527.392
414 0 69.409 13.0819 908 64.7093 591.238 527.477
415 0 68.2484 12.9234 882 66.2132 591.697 525.44
416 0 71.2955 12.8339 915 66.5224 590.707 525.81
417 0 72.3295 13.3555 966 66.619 591.116 523.069
418 0 74.3086 13.0671 971 67.0443 591.068 523.436
419 0 76.2248 12.1614 927 68.6106 590.771 522.553
420 0 79.3541 13.6729 1085 66.5069 590.105 519.968
421 0 79.3112 13.3399 1058 67.8214 589.667 518.011
422 0 85.401 13.1966 1127 67.339 589.943 518.514
423 0 86.283 13.0848 1129 68.0496 589.59 518.479
424 0 90.2738 13.5366 1222 67.3159 589.466 516.374
425 0 92.3625 13.4795 1245 67.7719 589.267 515.249
426 1 50.1029 9.8597 494 68.2389 588.31 538.482
427 0 50.1115 10.5764 530 68.5887 588.615 537.258
428 0 48.0728 11.0457 531 68.5443 588.891 536.092
429 0 53.0614 11.9107 632 67.0475 588.07 535.965
430 0 53.1116 11.4853 610 68.4459 588.111 534.289
431 0 54.1015 12.0699 653 68.4104 588.24 532.72
432 0 55.1016 12.4679 687 67.1121 587.948 532.69
433 0 58.0912 13.4272 780 64.7731 587.995 532.31
434 0 59.1533 12.7296 753 66.2497 587.15 531.434
435 0 60.0945 12.7133 764 66.0654 587.732 531.304
436 0 64.1152 12.7895 820 65.4659 587.895 530.716
437 0 65.2529 12.7504 832 66.143 587.923 529.561
438 0 68.1064 12.8182 873 65.7171 587.569 529.964
439 0 70.1208 13.3912 939 66.0341 587.424 526.567
440 0 71.0654 13.1006 931 66.6348 587.998 528.258
441 0 75.0833 13.505 1014 65.8393 587.812 525.989
442 0 78.1866 12.662 990 67.396 587.629 526.313
443 0 81.1624 14.3047 1161 65.3144 587.245 523.736
444 0 80.3164 12.4632 1001 69.5465 587.506 522.002
445 0 85.1703 13.3967 1141 67.7511 587.892 522.784
446 0 86.2937 13.6511 1178 68.1757 587.497 520.791
447 1 44.0671 10.6656 470 69.0617 587.24 541.111
448 0 46.2484 10.4436 483 69.5921 586.642 540.89
449 0 47.1557 11.0273 520 69.6327 587.069 539.579
450 0 50.1066 11.4556 574 67.9181 587.024 539.685
451 0 52.2649 11.7096 612 67.7157 586.758 538.672
452 0 53.1787 12.1289 645 67.0961 587.119 537.981
453 0 54.1124 11.9936 649 67.9353 586.985 538.538
454 0 55.1793 11.7435 648 68.3056 586.77 537.009
455 0 58.3167 12.3807 722 67.1163 586.803 536.076
456 0 59.1883 12.9586 767 66.0365 586.709 534.892
457 0 60.1392 12.3713 744 67.5739 586.789 534.847
458 0 61.1407 12.5939 770 67.5506 586.748 533.935
459 0 64.154 12.4856 801 67.9501 587.542 531.64
460 0 66.181 13.04 863 67.1657 588.003 531.118
461 0 68.2421 12.9392 883 67.0781 587.335 532.345
462 0 71.3815 12.5102 893 67.4468 587.158 531.044
463 0 74.2547 13.1978 980 66.9082 587.204 529.42
464 0 77.2612 13.1631 1017 66.8437 586.935 528.159
465 0 77.2285 13.0263 1006 68.1143 587.096 527.322
466 1 42.2135 10.8496 458 68.1659 587.201 544.646
467 0 43.1812 11.116 480 67.6521 587.41 543.317
468 0 44.276 11.2025 496 68.3669 587.508 542.835
469 0 48.3631 12.2614 593 66.5008 587.145 542.28
470 0 48.3169 11.9834 579 68.0743 587.463 542.107
471 0 49.2502 12.1624 599 67.6511 586.826 541.833
472 0 51.1319 12.3602 632 67.8275 586.918 540.424
473 0 52.1537 11.6003 605 69.4066 587.068 538.855
474 0 54.0997 11.7746 637 68.9655 587.267 538.396
475 0 55.2425 11.3862 629 69.8029 587.21 538.49
476 0 57.2485 11.5462 661 69.3949 587.219 536.664
477 0 59.4894 12.893 767 67.4524 587.49 535.312
478 0 59.3646 12.4653 740 68.3162 587.426 537.616
479 0 61.3159 12.933 793 67.7554 587.828 534.733
480 0 63.148 12.732 804 68.3209 587.484 533.404
481 0 66.2637 13.3104 882 67.0465 587.557 532.498
482 0 66.4392 12.1916 810 69.1086 587.759 532.76
483 0 71.5722 12.6306 904 67.9513 587.621 531.192
484 0 72.6463 12.6503 919 68.593 587.392 529.293
485 1 39.1948 10.0013 392 70.148 587.283 546.265
486 0 39.1918 10.1297 397 69.6599 587.393 546.771
487 0 42.1691 10.3393 436 69.25 587.647 545.541
488 0 42.1257 11.5606 487 68.3984 587.593 545.039
489 0 44.255 11.027 488 69.623 587.332 544.416
490 0 45.1821 13.0804 591 66.7902 588.027 543.362
491 0 49.0329 13.1748 646 66.1858 588.181 541.557
492 0 48.1628 12.3747 596 68.3272 588.43 541.911
493 0 49.2599 12.7284 627 69.1722 588.163 540.751
494 0 50.2935 12.8247 645 68.3426 588.157 541.816
495 0 51.2675 12.8541 659 69.475 588.564 539.217
496 0 50.2012 12.8682 646 70.3638 588.223 537.666
497 0 54.2211 14.0536 762 67.2507 588.244 536.835
498 0 54.1881 12.9549 702 70.0199 588.425 537.521
499 0 57.1376 13.7388 785 68.1478 588.475 537.366
500 0 57.199 13.252 758 69.6187 588.245 536.16
501 0 58.2071 13.4348 782 69.3836 588.549 535.674
502 0 61.1769 13.1422 804 69.2562 588.553 534.786
503 0 63.1941 14.321 905 67.4254 588.338 532.582
504 0 66.1142 13.1288 868 68.8088 588.123 531.215
505 0 66.1721 13.1173 868 69.6947 587.934 530.592
506 0 69.2184 13.5802 940 68.4809 587.832 527.235
507 0 73.3983 13.8423 1016 67.5876 587.431 527.236
508 1 38.1056 11.3369 432 70.1343 586.986 544.782
509 0 40.0748 13.1754 528 67.6042 586.646 544.652
510 0 40.1282 11.0895 445 70.8854 586.769 543.719
511 0 42.0417 11.8216 497 69.8169 587.211 543.34
512 0 43.0217 12.5518 540 69.3167 587.346 542.331
513 0 46.0514 13.4849 621 67.2351 587.406 540.734
514 0 47.0715 13.4264 632 67.3386 587.495 541.342
515 0 49.1152 13.6414 670 67.1179 587.581 540.833
516 0 49.0572 13.1072 643 68.9425 587.4 539.575
517 0 53.0818 13.9219 739 65.3356 588.307 538.499
518 0 53.0457 13.9691 741 66.2537 588.642 536.802
519 0 57.0882 14.2236 812 64.1663 588.091 537.091
520 0 57.1087 13.5181 772 65.2306 588.228 537.158
521 0 57.1908 13.5511 775 66.231 588.627 536.502
522 0 59.1578 13.7936 816 65.9436 588.348 535.396
523 0 62.1088 14.2331 884 64.9876 589.109 533.743
524 0 64.1151 14.3648 921 64.4213 589.104 533.852
525 0 67.0917 14.0703 944 64.6451 588.803 533.56
526 0 66.1173 13.4458 889 66.1462 589.09 531.362
527 0 69.1774 13.7039 948 66.3333 588.782 530.198
528 0 71.1836 13.711 976 66.6906 588.603 527.588
529 0 75.3048 14.116 1063 65.8899 589.136 525.939
530 0 79.1789 14.4483 1144 65.0778 587.969 526.12
531 0 82.2641 14.1617 1165 65.4618 588.141 525.582
532 0 85.2231 13.3532 1138 67.1854 588.191 522.457
533 1 47.0342 10.7369 505 68.4772 588.141 540.651
534 0 47.1477 11.8564 559 68.0179 588.88 540.081
535 0 50.2221 12.2655 616 67.2955 588.055 539.526
536 0 50.2522 12.9945 653 68.147 589.266 537.162
537 0 54.1177 13.175 713 67.4081 588.523 536.935
538 0 55.2025 12.898 712 68.7289 588.758 536.537
539 0 55.2767 13.351 738 68.3401 588.604 535.234
540 0 59.1914 12.8228 759 68.4466 588.418 534.31
541 0 62.2828 13.8562 863 66.4878 589.085 531.444
542 0 63.0694 14.0322 885 66.9379 588.584 530.36
543 0 67.2319 13.0295 876 67.6747 589.132 530.978
544 0 68.1983 13.1528 897 68.0279 587.943 529.725
545 0 72.1503 14.3173 1033 66.1065 587.983 527.427
546 0 75.1955 13.6976 1030 66.7806 588.493 526.75
547 0 76.279 13.4244 1024 67.1719 588.07 526.048
548 0 79.2669 13.4482 1066 66.6004 588.241 526.428
549 0 83.1826 12.9955 1081 67.7697 587.935 522.286
550 0 85.2138 12.9674 1105 68.3131 587.796 520.168
551 0 89.2362 13.7948 1231 66.9724 587.944 520.389
552 1 49.1057 11.5262 566 67.9293 587.864 540.53
553 0 49.0586 11.578 568 68.7324 588.213 539.472
554 0 51.117 11.3465 580 69.1069 587.857 539.884
555 0 52.0812 12.4229 647 68.3447 587.937 537.068
556 0 54.0765 13.0926 708 67.6568 588.527 536.578
557 0 57.0936 12.6459 722 67.7784 588.589 536.839
558 0 57.0616 12.8282 732 68.0369 588.567 536.131
559 0 59.1184 13.2277 782 67.7199 588.303 533.482
560 0 63.0638 13.3674 843 67.1578 588.049 533.28
561 0 63.0732 12.541 791 69.4703 588.338 532.345
562 0 65.0754 13.154 856 67.6098 587.893 531.703
563 0 69.0269 13.1398 907 67.763 588.277 528.472
564 0 71.0986 12.9398 920 68.4772 587.69 527.925
565 0 71.0746 13.3662 950 68.7368 588.087 527.454
566 0 75.0856 13.105 984 69.0244 587.686 527.206
567 0 76.2523 13.4816 1028 69.3969 587.437 525.745
568 0 79.0646 13.6977 1083 69.0896 587.874 524.267
569 0 81.0405 14.0547 1139 69.3723 587.623 522.293
570 0 85.1299 14.3898 1225 68.3494 587.354 522.008
571 1 44.052 10.4422 460 73.3217 586.593 541.424
572 0 44.0198 10.5634 465 72.9914 586.447 542.529
573 0 47.0945 10.8505 511 71.3366 587.432 542.675
574 0 49.1946 10.9565 539 71.4137 586.794 540.083
575 0 50.0659 11.5648 579 70.2625 586.713 540.943
576 0 52.0587 11.3526 591 72.203 586.298 538.071
577 0 53.0351 13.2742 704 69.2784 586.359 537.036
578 0 54.0608 12.6524 684 69.9094 585.769 537.715
579 0 57.024 13.3803 763 69.2569 585.789 535.777
580 0 58.035 13.2334 768 70.4023 586.4 535.275
581 0 60.1495 13.5994 818 69.313 585.714 535.038
582 0 62.0593 12.8587 798 70.9148 585.431 533.559
583 0 63.0202 13.3132 839 70.0131 585.38 532.967
584 0 64.0577 13.8157 885 69.3175 585.354 532.373
585 0 69.0563 13.279 917 68.8571 585.314 531.186
586 0 70.0762 14.1988 995 67.4965 585.896 530.51
587 0 72.2277 14.1912 1025 67.518 585.161 527.962
588 0 74.2708 13.4373 998 68.4319 585.267 529.176
589 0 78.1321 13.4388 1050 68.2714 585.577 526.214
590 0 80.1792 13.1206 1052 68.8308 585.97 525.113
591 0 82.2332 13.5347 1113 68.0557 585.933 524.28
592 1 40.1416 11.2352 451 68.2705 585.809 546.215
593 0 42.1273 10.8718 458 69.3384 586.066 544.672
594 0 45.1428 12.0063 542 67.9834 585.928 543.513
595 0 46.1254 12.2492 565 67.2496 585.442 541.582
596 0 46.0334 12.5561 578 67.2768 584.96 542.232
597 0 49.0427 12.8663 631 66.4422 584.868 540.331
598 0 50.1083 13.2513 664 65.5452 585.248 540.087
599 0 51.0533 12.6534 646 66.469 585.003 539.607
600 0 52.0756 13.0195 678 65.8392 584.642 537.619
601 0 55.1149 12.3741 682 65.2097 585.314 538.941
602 0 57.1081 13.3081 760 63.5961 585.099 536.328
603 0 58.0582 12.1258 704 64.5909 585.085 536.96
604 0 61.1188 13.5637 829 62.5296 584.362 535.501
605 0 62.1346 12.827 797 63.3902 584.005 534.021
606 0 64.1071 13.0251 835 62.8395 584.874 533.944
607 0 66.0961 13.7224 907 61.7089 584.68 532.676
608 0 70.1193 12.8638 902 61.4867 584.796 532.987
609 0 72.1497 13.2502 956 61.7448 585.243 530.858
610 0 73.1489 12.4677 912 63.1524 585.076 529.393
611 0 77.1619 13.1282 1013 62.077 585.389 527.497
612 0 81.1984 13.6948 1112 61.9119 585.179 527.5
613 0 81.1608 13.0235 1057 63.2829 585.207 524.337
614 1 43.0623 11.3556 489 63.8528 585.374 544.838
615 0 44.0755 10.7543 474 63.9072 585.852 544.302
616 0 47.0674 12.0466 567 64.0847 585.425 541.829
617 0 46.1336 12.1603 561 65.5472 585.549 541.485
618 0 48.1044 12.3066 592 65.3125 585.233 539.426
619 0 52.2072 12.8143 669 63.435 584.712 539.248
620 0 52.1406 12.4088 647 64.7512 584.425 538.408
621 0 53.0637 12.8902 684 65.462 585.279 537.386
622 0 56.117 12.9729 728 65.4217 584.882 536.148
623 0 56.1982 12.2068 686 67.0816 585.364 537.12
624 0 60.1302 12.5894 757 66.5535 585.166 534.93
625 0 61.1695 13.5035 826 65.8814 585.387 534.799
626 0 63.2184 12.2116 772 67.9832 585.452 532.858
627 0 64.2044 12.7406 818 67.4743 585.612 531.267
628 0 69.0862 13.9246 962 64.7994 585.121 531.967
629 0 70.2158 12.8319 901 67.192 585.79 529.133
630 0 72.2316 13.6921 989 66.0971 585.572 529.21
631 0 76.1803 13.7568 1048 65.5697 585.591 526.246
632 0 79.2506 13.1103 1039 67.0385 585.576 524.949
633 0 82.2974 13.9859 1151 65.2415 587.156 524.124
634 0 86.2521 14.1678 1222 64.3273 586.191 523.274
635 1 48.0304 11.8467 569 67.8295 587.153 538.724
636 0 47.0406 12.2873 578 68.5346 586.637 539.14
637 0 50.0522 12.7867 640 66.8172 586.42 538.834
638 0 50.059 13.9236 697 65.6241 586.3 538.865
639 0 54.1653 13.108 710 66.2746 586.659 537.958
640 0 56.1319 13.8424 777 65.0631 586.423 537.277
641 0 56.1006 12.8519 721 67.4411 587.447 535.938
642 0 58.1458 13.7929 802 67.0673 587.527 533.939
643 0 58.1089 12.1668 707 69.7581 586.827 533.438
644 0 61.1244 12.7772 781 68.4149 586.845 532.138
645 0 63.1592 13.2681 838 67.7351 587.192 531.846
646 0 66.101 13.3281 881 67.2974 586.785 530.773
647 0 68.076 13.3821 911 67.1109 586.712 529.924
648 0 69.1025 13.7622 951 67.163 587.146 527.177
649 0 71.0865 13.4203 954 67.9193 587.454 525.98
650 0 73.1016 14.3225 1047 66.4202 587.715 525.757
651 0 74.1084 13.7231 1017 67.5349 587.533 524.77
652 0 78.1012 14.1227 1103 66.5113 587.398 522.998
653 0 80.1031 13.9071 1114 67.2352 587.748 522.039
654 0 83.0697 13.916 1156 67.0882 587.397 519.788
655 0 87.0955 14.2832 1244 66.5603 587.946 517.889
656 0 88.1102 14.4705 1275 66.2008 587.709 516.981
657 1 39.0178 10.7899 421 66.4893 587.599 541.259
658 0 38.0025 11.1045 422 66.8626 588.102 543.019
659 0 41.0679 11.4688 471 65.0255 587.975 541.677
660 0 42.0835 12.2376 515 64.2097 588.563 541.134
661 0 41.171 12.1688 501 65.3633 587.936 540.914
662 0 42.1049 11.7088 493 66.0304 588.475 540.519
663 0 45.1665 12.8192 579 63.9637 589.045 538.04
664 0 45.0599 12.672 571 65.6988 588.522 537.779
665 0 47.2077 12.498 590 65.5136 589.125 537.536
666 0 48.1356 12.8595 619 64.8611 588.666 536.961
667 0 50.1495 12.363 620 65.9016 589.253 536.224
668 0 49.1473 12.8796 633 66.466 590.156 535.687
669 0 52.109 11.8214 616 67.6299 589.495 535.023
670 0 54.1385 13.6871 741 64.8111 589.602 534.274
671 0 55.0874 12.5074 689 67.2424 590.379 532.37
672 0 57.1989 12.8499 735 66.619 590.189 532.98
673 0 58.2562 11.9644 697 68.34 590.265 532.347
674 0 60.1457 12.9685 780 67.0962 590.545 530.269
675 0 62.2034 12.2662 763 67.5727 590.891 530.644
676 0 63.1576 13.0942 827 66.9661 590.294 528.112
677 0 65.1421 12.8488 837 67.5317 590.827 527.956
678 0 67.2376 12.7607 858 66.9324 590.663 527.409
679 0 70.2623 13.6631 960 65.4604 590.776 526.606
680 0 71.1697 12.8285 913 67.2705 590.413 524.033
681 1 38.0618 11.2186 427 67.3185 590.145 541.548
682 0 40.1361 11.8098 474 67.6456 590.152 539.838
683 0 40.1171 11.3169 454 68.6079 590.991 540.586
684 0 41.1474 11.8598 488 68.8525 591.094 539.203
685 0 40.2372 12.6748 510 68.7824 590.867 538.571
686 0 46.0862 13.1059 604 66.2086 590.162 538.091
687 0 45.0928 12.9954 586 67.5614 591.102 536.981
688 0 46.0293 12.9917 598 68.0251 590.371 536.724
689 0 47.0974 12.7396 600 68.645 590.147 536.78
690 0 49.1152 13.0917 643 68.5226 590.362 535.672
691 0 51.3073 12.7857 656 68.5244 591.235 535.312
692 0 53.0783 13.7721 731 67.0219 590.371 534.776
693 0 56.1554 13.0709 734 67.9292 590.059 534.176
694 0 56.1554 13.0887 735 160.869 589.071 534.234
695 0 58.1064 14.7316 856 65.9334 589.866 531.609
696 0 57.1059 13.974 798 68.3521 589.713 531.489
697 0 59.0647 14.7635 872 67.0183 590.128 530.976
698 0 62.1004 15.1207 939 66.0895 590.064 528.38
699 0 63.0519 14.8291 935 66.7412 589.734 529.91
700 0 65.0663 14.3546 934 67.3972 590.627 528.664
701 0 69.1567 14.9805 1036 65.9122 589.743 528.208
702 0 70.0785 14.2126 996 67.5884 589.181 526.776
703 0 72.0719 14.2913 1030 67.5767 589.454 524.778
704 0 77.137 15.3493 1184 65.5659 589.002 524.297
705 0 79.1526 14.8195 1173 66.8517 588.443 521.884
706 0 79.1508 14.5166 1149 68.4352 588.667 522.762
707 0 83.2377 15.1374 1260 66.9778 588.51 519.439
708 1 42.2676 12.0423 509 71.2829 588.185 539.906
709 0 44.143 12.0744 533 70.364 588.505 540.621
710 0 46.2292 11.7891 545 70.4954 588.123 539.369
711 0 48.2319 12.6058 608 69.9194 588.367 538.183
712 0 51.2145 13.6094 697 68.7389 588.258 536.983
713 0 51.0882 13.5844 694 69.9813 588.617 534.843
714 0 52.1752 13.7805 719 69.8414 588.455 533.947
715 0 56.2973 13.7307 773 68.2911 588.573 534.437
716 0 55.3471 13.0269 721 70.5368 588.304 532.667
717 0 60.2927 13.6667 824 68.6456 588.066 531.166
718 0 63.2041 14.382 909 66.9824 588.268 531.059
719 0 62.3895 13.8645 865 68.8867 587.858 529.594
720 0 65.2972 14.166 925 68.1568 587.915 527.499
721 0 67.1397 14.373 965 68.3927 588.242 526.465
722 0 72.4788 14.4456 1047 67.149 588.343 525.1
723 0 73.2427 14.213 1041 68.1518 587.924 523.563
724 0 78.2802 14.8313 1161 66.4005 588.163 523.212
725 0 79.2089 14.1019 1117 68.4754 587.627 521.726
726 1 41.3047 10.9915 454 70.3789 587.242 540.139
727 0 41.3236 11.0349 456 70.7215 587.572 540.34
728 0 43.1871 12.1796 526 68.6749 587.086 539.812
729 0 47.2024 12.5205 591 67.0778 587.029 538.929
730 0 47.0535 12.0289 566 68.1696 586.295 538.18
731 0 49.0846 12.6516 621 67.5717 586.14 537.834
732 0 49.1066 12.0961 594 68.6667 585.756 537.5
733 0 51.2459 12.4498 638 68.1489 586.055 536.033
734 0 53.199 11.8799 632 68.7864 585.924 536.524
735 0 55.4009 12.7976 709 67.409 585.853 535.601
736 0 58.1659 12.791 744 66.4772 585.888 534.708
737 0 58.3989 12.6201 737 67.8548 586.037 532.365
738 0 61.3351 12.9779 796 66.5126 585.986 532.724
739 0 62.4198 12.9927 811 66.8718 586.037 531.755
740 0 64.3387 12.9316 832 67.863 585.796 530.429
741 0 66.2458 13.2688 879 67.3322 586.255 529.289
742 0 68.3827 13.2782 908 66.8689 586.35 529.355
743 0 71.2305 13.7722 981 66.4169 585.84 526.912
744 0 75.4073 13.9111 1049 65.2955 585.65 527.498
745 0 77.3162 13.2702 1026 67.3177 585.42 524.643
746 0 79.3592 13.1176 1041 67.2421 585.701 523.536
747 0 82.3456 12.6297 1040 67.6404 585.509 523.595
748 0 85.4044 13.5473 1157 65.7813 585.614 521.053
749 1 45.1976 9.6244 435 66.4368 585.241 542.692
750 0 46.1589 10.4639 483 65.677 585.375 541.484
751 0 47.1703 10.0487 474 66.9072 585.61 538.667
752 0 49.2579 11.5311 568 64.0651 584.968 539.803
753 0 48.261 11.4378 552 65.6812 584.98 538.953
754 0 51.2146 12.3402 632 64.0934 585.185 537.655
755 0 51.2989 12.3589 634 64.8659 585.017 538.308
756 0 53.1817 12.4667 663 64.3876 584.691 536.066
757 0 54.2336 12.1143 657 65.4627 584.813 536.444
758 0 56.2847 12.5789 708 64.3573 584.804 535.301
759 0 60.1974 13.6052 819 62.3797 584.276 535.9
760 0 61.1794 12.2263 748 64.0321 584.425 534.14
761 0 63.2522 12.8059 810 63.0568 584.968 532.832
762 0 67.2137 12.5123 841 63.3103 584.851 531.75
763 0 68.1525 13.1323 895 62.7698 584.715 531.536
764 0 70.1076 13.2083 926 62.6685 584.677 530.077
765 0 72.38 12.8489 930 63.6634 585.103 526.965
766 0 74.3365 12.7125 945 63.8995 585.806 526.444
767 0 76.2337 12.7109 969 63.9329 585.826 525.999
768 0 79.2104 12.1575 963 64.027 585.543 525.023
769 0 82.3928 12.404 1022 63.2877 585.475 522.581
770 0 86.21 12.458 1074 62.4199 585.706 523.441
771 0 86.2094 11.7505 1013 63.7285 585.369 521.272
772 1 50.0772 9.88473 495 62.8202 586.182 539.697
773 0 50.0502 10.7492 538 61.0074 586.208 541.08
774 0 53.1529 11.3634 604 60.2252 585.957 538.414
775 0 53.1228 12.0476 640 59.8797 585.68 538.87
776 0 55.0884 11.5814 638 59.8683 586.462 541.207
777 0 56.0432 11.7766 660 60.4258 586.024 537.656
778 0 60.0612 12.2209 734 58.7548 585.027 536.926
779 0 61.0353 11.9439 729 59.2181 584.783 535.486
780 0 58.0389 11.5784 672 61.4479 584.878 533.723
781 0 63.0295 11.3439 715 60.4615 585.131 534.09
782 0 64.1082 12.1669 780 59.6333 585.147 533.338
783 0 67.0956 11.1781 750 60.684 585.361 530.789
784 0 69.0448 12.0646 833 59.5054 585.643 530.036
785 0 70.0569 11.1338 780 61.3423 585.509 527.401
786 0 74.0728 12.5687 931 59.0913 586.02 527.678
787 0 74.0297 11.7656 871 61.2744 585.876 526.646
788 0 78.086 12.5887 983 60.3774 586.201 525.352
789 0 82.0669 12.8797 1057 59.6518 586.2 525.115
790 0 83.0943 12.1308 1008 61.7401 587.301 522.957
791 0 85.2765 11.8907 1014 62.5049 587.67 520.707
792 0 88.3418 13.5383 1196 60.8503 587.215 518.796
793 0 90.3018 11.8049 1066 63.8546 587.944 517.294
794 0 96.3964 12.6561 1220 62.4738 588.112 515.631
795 0 97.5386 12.3951 1209 63.4524 588.046 513.16
796 0 98.3279 12.2244 1202 64.109 588.142 511.897
797 0 102.32 13.1059 1341 63.0418 588.333 508.815
798 0 108.372 13.5736 1471 61.8178 587.969 507.893
799 0 112.26 12.6403 1419 63.1846 587.91 506.638
800 1 64.2384 10.2898 661 62.0545 588.528 532.372
801 0 66.1402 10.6138 702 62.5256 588.94 530.285
802 0 67.252 11.3305 762 62.4318 588.995 527.735
803 0 69.2045 12.2246 846 62.1619 589.349 526.507
804 0 73.1236 11.6925 855 62.3404 589.311 526.582
805 0 74.1699 11.2175 832 63.0721 589.502 524.135
806 0 78.2137 11.7626 920 61.6272 589.308 525.149
807 0 79.3091 11.8145 937 61.6841 589.33 524.174
808 0 83.1559 12.5186 1041 60.8367 589.787 521.801
809 0 85.2843 12.816 1093 60.4968 589.673 518.695
810 0 87.3069 11.534 1007 62.5094 589.933 518.558
811 0 90.1966 11.8741 1071 61.9944 589.754 516.334
812 0 92.1302 12.732 1173 61.7664 590.132 515.513
813 0 97.3033 13.2267 1287 60.4118 590.388 514.692
814 0 99.3628 12.4393 1236 61.8908 589.48 509.949
815 0 102.2 12.2603 1253 61.9082 589.985 509.625
816 0 105.355 12.2253 1288 61.5691 589.762 506.817
817 1 57.243 9.48588 543 61.8969 589.355 533.287
818 0 56.2485 9.65358 543 62.3554 588.727 533.239
819 0 61.0823 11.3453 693 60.3175 588.799 531.589
820 0 63.1625 12.7607 806 58.7829 589.919 530.542
821 0 63.0665 11.8764 749 60.4633 590.76 528.883
822 0 65.0312 11.8405 770 60.7299 590.101 528.801
823 0 65.0634 12.265 798 60.5338 589.762 528.808
824 0 68.0611 13.1353 894 59.4787 589.152 528.78
825 0 71.0816 12.352 878 60.0433 589.932 528.011
826 0 72.0963 12.4694 899 60.3882 589.848 525.207
827 0 74.0608 12.4762 924 60.6797 590.001 525.176
828 0 78.127 13.1069 1024 59.4131 589.872 523.674
829 0 77.0334 12.6309 973 61.2364 589.507 521.885
830 0 79.1018 12.1995 965 61.8259 589.653 520.943
831 0 82.1135 13.323 1094 60.0667 589.175 519.3
832 0 84.0549 12.4086 1043 61.7287 589.381 518.131
833 0 88.168 12.1813 1074 61.5326 589.267 516.452
834 0 90.0898 12.3876 1116 61.233 588.909 515.849
835 0 94.1275 13.333 1255 59.8821 588.744 511.084
836 1 51.1 9.64774 493 60.355 588.195 537.389
837 0 52.2327 10.4915 548 60.5237 590.303 529.781
838 0 53.2108 9.97918 531 61.4407 590.49 529.893
839 0 54.1385 11.8769 643 59.7543 589.345 527.518
840 0 57.0868 11.5789 661 60.3903 589.325 529.661
841 0 60.0346 11.9931 720 60.5 589.464 532.386
842 0 61.037 12.2713 749 60.4366 589.214 531.813
843 0 64.0359 12.4461 797 59.6374 589.571 529.749
844 0 63.0324 11.4386 721 60.2011 589.755 525.406
845 0 65.1259 11.8386 771 59.38 589.088 526.56
846 0 68.1367 12.0787 823 60.2515 588.814 525.797
847 0 70.0777 12.4291 871 59.3881 588.62 523.315
848 0 73.0698 12.9055 943 60.1198 588.135 523.631
849 0 77.1097 13.7207 1058 58.879 587.789 523.957
850 0 79.1496 12.5206 991 59.2119 587.771 521.197
851 0 81.0716 12.8035 1038 60.7418 587.779 521.008
852 0 84.1122 13.482 1134 59.6146 587.483 520.902
853 0 85.1851 13.277 1131 60.4633 587.542 518.117
854 0 89.1131 12.8039 1141 60.5662 588.133 516.666
855 0 92.0753 12.7722 1176 60.4456 588.308 516.337
856 1 48.051 10.9675 527 60.2163 588.478 537.913
857 0 50.0589 9.94829 498 61.1064 586.313 537.988
858 0 52.1915 10.8064 564 60.1862 587.163 537.496
859 0 54.1176 11.475 621 59.2206 586.755 535.878
860 0 56.1023 12.1564 682 57.5821 585.714 533.988
861 0 54.1857 11.2576 610 59.482 586.107 533.813
862 0 57.1047 12.3808 707 57.9844 586.263 531.604
863 0 58.1926 12.2696 714 57.7955 585.731 532.206
864 0 59.1307 12.1088 716 59.0168 585.689 531.006
865 0 62.2001 12.3794 770 58.3442 585.57 530.875
866 0 63.2053 11.9136 753 59.5246 585.598 529.499
867 0 65.1405 12.5728 819 58.0195 585.442 530.473
868 0 67.1842 12.9941 873 57.7056 585.332 529.42
869 0 68.2135 13.1059 894 58.5369 585.111 528.27
870 0 71.0897 12.5757 894 58.717 585.655 528.153
871 0 73.1372 12.4424 910 59.4286 585.549 525.767
872 0 74.0816 11.7708 872 60.7351 585.932 525.905
873 0 77.1276 12.2135 942 60.2155 585.569 523.744
874 0 79.1004 12.3767 979 60.5424 586.206 521.958
875 0 81.104 12.2189 991 60.4864 585.622 522.396
876 0 84.1495 11.9787 1008 61.4534 585.728 521.616
877 0 87.1375 12.1647 1060 61.4038 585.531 519.084
878 0 88.1333 12.1861 1074 61.9246 585.994 517.424
879 0 91.1897 11.7338 1070 62.3748 586.107 517.901
880 1 50.0278 10.9139 546 60.1941 585.782 540.147
881 0 50.0664 10.2064 511 61.7162 585.943 538.879
882 0 54.0783 11.7052 633 59.654 586.403 537.262
883 0 53.1215 11.0313 586 60.8942 586.505 537.974
884 0 53.0592 10.2338 543 62.2855 584.716 536.729
885 0 55.1037 11.1971 617 60.7812 584.64 535.78
886 0 57.0504 11.3233 646 60.5464 585.05 535.647
887 0 58.028 11.9597 694 60.1037 585.419 534.599
888 0 59.0714 12.7811 755 58.947 585.746 533.168
889 0 60.1053 11.7627 707 61.8373 585.624 533.215
890 0 64.1014 12.059 773 61.0103 585.675 531.592
891 0 64.059 11.9421 765 61.2431 585.86 530.912
892 0 67.129 12.6771 851 60.4418 585.739 529.328
893 0 71.0861 12.098 860 60.1151 586.228 527.612
894 0 71.142 11.7933 839 95.1716 585.955 525.331
895 0 74.2196 11.695 868 60.7823 586.931 525.517
896 0 74.199 12.6417 938 60.2068 587.295 524.161
897 0 79.1759 12.668 1003 59.325 587.387 521.362
898 0 81.2211 12.2259 993 59.4199 587.398 519.577
899 0 84.214 12.0764 1017 59.1475 587.943 520.439
900 0 84.1764 11.8561 998 60.3808 588.238 519.201
901 0 89.4144 12.1793 1089 59.7254 587.858 517.371
902 0 90.318 12.3121 1112 60.1457 588.296 514.03
903 0 95.3881 12.4544 1188 59.6456 588.035 512.981
904 1 50.2519 10.2484 515 61.3029 587.99 532.79
905 0 48.3244 10.5951 512 61.2539 587.564 532.285
906 0 51.2405 10.8898 558 61.1846 588.03 530.407
907 0 53.1906 11.4306 608 60.4013 588.4 532.711
908 0 53.1962 12.2377 651 59.7619 588.919 531.35
909 0 56.1913 12.4752 701 59.1327 588.738 530.738
910 0 57.1456 12.7044 726 59.6019 588.736 531.357
911 0 59.1738 11.931 706 60.9306 588.646 529.593
912 0 63.2283 13.1903 834 58.9005 588.436 528.101
913 0 65.1999 12.7914 834 59.5108 588.8 527.288
914 0 65.2083 12.3604 806 61.3672 588.658 525.995
915 0 70.2349 14.5654 1023 57.1906 589.323 523.818
916 0 69.2094 12.6283 874 61.4291 588.968 525.174
917 0 72.2761 13.1164 948 60.769 589.661 523.48
918 0 75.1577 13.159 989 60.998 589.402 518.211
919 0 79.1245 13.0807 1035 60.6821 589.903 516.656
920 0 80.1846 13.2569 1063 61.269 591.04 505.503
921 0 82.2316 12.8053 1053 61.6714 591.044 500.171
922 0 85.5702 13.673 1170 60.4342 591.479 495.945
923 0 87.3773 13.1041 1145 61.8463 591.209 497.836
924 1 47.2542 11.1948 529 62.8223 592.505 518.473
925 0 48.2661 10.4835 506 63.666 592.128 519.623
926 0 50.147 11.2868 566 63.0954 592.163 522.857
927 0 52.1607 11.6755 609 62.6601 592.261 525.049
928 0 52.2798 11.8784 621 62.8293 592.058 525.208
929 0 54.2482 12.4612 676 60.9127 592.604 517.361
930 0 55.4267 12.4308 689 61.3643 592.634 514.859
931 0 56.2596 12.1935 686 62.4242 592.49 517.327
932 0 57.1642 12.9801 742 62.1348 592.15 517.977
933 0 58.0662 12.8819 748 62.869 592.25 518.388
934 0 61.1129 12.8614 786 62.9733 591.621 520.514
935 0 63.1622 12.9666 819 62.8254 591.701 521.509
936 0 66.2771 13.0664 866 62.2552 591.538 523.687
937 0 67.1496 12.7923 859 63.1187 591.115 524.983
938 0 68.0559 13.1803 897 62.8651 591.226 526.861
939 0 72.1404 13.6262 983 61.6979 591.162 525.752
940 0 73.1015 13.3787 978 62.4611 590.672 525.441
941 0 76.2581 13.0871 998 62.7325 590.702 524.112
942 0 78.2338 12.8461 1005 63.005 590.206 523.12
943 0 80.1714 12.9223 1036 63.055 590.073 520.089
944 0 81.1837 13.0568 1060 63.1321 589.95 518.588
945 0 85.2119 13.1437 1120 61.9616 589.756 519.109
946 1 47.0884 10.5971 499 63.1944 589.655 537.379
947 0 48.0868 11.2297 540 63.3926 589.563 536.378
948 0 50.1874 10.8593 545 62.9339 589.406 537.169
949 0 52.0616 11.6785 608 62.0609 589.123 536.066
950 0 54.1054 12.2908 665 61.8752 588.592 535.314
951 0 55.1089 12.3573 681 61.511 588.376 533.981
952 0 56.1059 12.7972 718 61.2465 588.407 533.542
953 0 56.1166 12.5809 706 62.4008 588.501 533.259
954 0 58.08 12.6205 733 62.7121 588.386 531.618
955 0 59.0373 12.9579 765 62.7163 588.139 532.085
956 0 60.2172 12.704 765 63.5111 588.605 529.986
957 0 61.1145 12.9102 789 63.0507 588.762 531.616
958 0 64.0349 13.5707 869 61.9137 588.382 531.581
959 0 67.0932 13.0118 873 62.5006 588.804 529.113
960 0 69.1888 13.4848 933 61.9025 588.607 529.035
961 0 70.1141 14.4051 1010 60.803 588.033 527.729
962 0 72.079 13.4991 973 62.5488 588.405 526.503
963 0 75.0657 13.2684 996 63.1376 588.456 525.997
964 0 77.099 13.9431 1075 61.8912 588.181 523.567
965 0 80.0846 14.2849 1144 61.4082 587.9 523.36
966 0 80.104 13.857 1110 62.9991 588.104 520.565
967 0 86.1536 14.0447 1210 61.5901 588.142 520.901
968 0 88.1508 14.5546 1283 61.3328 587.966 519.641
969 1 47.0415 11.3517 534 63.8296 587.652 539.135
970 0 48.1674 10.9618 528 64.8807 587.756 537.04
971 0 50.2378 12.1422 610 63.3672 587.492 535.326
972 0 51.1875 11.5263 590 63.6169 588.029 534.946
973 0 53.1413 12.495 664 62.7545 588.261 534.399
974 0 53.1204 12.7258 676 63.0281 587.993 533.362
975 0 55.0771 12.8547 708 62.9379 587.544 532.349
976 0 56.0866 12.659 710 63.0211 587.431 533.283
977 0 59.0999 12.9103 763 62.5203 587.139 531.807
978 0 60.0693 12.136 729 63.6351 586.918 531.025
979 0 65.0383 12.5311 815 62.9092 586.763 529.508
980 0 67.0568 12.8548 862 62.1984 586.542 528.372
981 0 68.0611 11.9745 815 64.2 586.406 527.785
982 0 71.1271 13.5673 965 61.8798 586.459 526.563
983 0 74.0516 13.7202 1016 61.6929 586.26 525.012
984 1 42.019 9.3767 394 65.9924 585.952 541.378
985 0 43.0404 10.5947 456 64.3596 585.809 541.851
986 0 45.0555 11.4525 516 62.7364 585.998 543.727
987 0 48.0729 11.545 555 62.964 585.939 540.982
988 0 48.0553 12.2775 590 62.1017 585.854 540.8
989 0 50.0649 11.8246 592 62.7365 585.941 540.66
990 0 52.0555 12.8325 668 60.6243 586.123 540.175
991 0 51.0909 12.605 644 62.2469 585.983 538.899
992 0 54.064 12.7812 691 62.2677 585.812 537.56
993 0 56.1504 13.357 750 61.908 585.887 537.184
994 0 56.0297 12.1186 679 63.9617 586.162 536.978
995 0 58.0167 12.686 736 63.9783 585.857 534.811
996 0 60.0155 13.2133 793 63.2194 585.98 535.575
997 0 63.0808 13.2528 836 63.25 585.993 534.323
998 0 63.0558 12.1004 763 65.2346 585.379 533.769
999 0 63.0681 12.8908 813 64.8303 585.669 532.261
1000 0 66.0836 12.5598 830 67.088 586.083 530.642
1001 0 67.1245 13.2887 892 64.8352 586.035 531.806
1002 0 69.0594 12.511 864 66.4178 585.594 529.359
1003 0 75.0631 13.2955 998 63.7946 585.912 529.729
1004 0 75.0392 13.6329 1023 64.2151 585.935 527.496
1005 0 77.0976 12.5944 971 66.1329 585.696 526.011
1006 0 79.1061 12.8562 1017 65.1209 585.943 525.967
1007 0 82.1481 13.0861 1075 64.6363 586.084 523.762
1008 1 42.0229 10.7322 451 65.2572 586.089 543.889
1009 0 45.0402 9.81346 442 65.9208 586.07 543.016
1010 0 45.0622 10.6741 481 65.5094 586.017 543.435
1011 0 47.0731 11.4078 537 65.2831 585.642 542.253
1012 0 49.0494 11.6209 570 64.6579 585.905 540.607
1013 0 53.0786 12.9242 686 63.2289 585.78 541.181
1014 0 54.0566 12.4129 671 64.3756 585.475 538.845
1015 0 54.0817 12.3702 669 64.9985 585.67 538.685
1016 0 56.0675 12.4493 698 65.2493 585.771 537.246
1017 0 59.06 11.8862 702 65.3575 586.184 538.672
1018 0 60.0895 13.2469 796 63.4322 586.516 536.667
1019 0 62.0505 12.4898 775 64.7729 586.775 536.181
1020 0 63.126 12.4671 787 65.4079 586.396 535.54
1021 0 64.0558 12.4111 795 65.9409 586.24 534.493
1022 0 66.0371 12.6444 835 65.4132 586.134 532.793
1023 0 68.1763 13.1131 894 64.6734 586.438 531.207
1024 0 70.0414 12.5212 877 65.7309 586.423 529.497
1025 0 73.0796 12.6574 925 65.9762 587.728 528.474
1026 0 73.0618 13.2764 970 65.3784 587.681 527.045
1027 0 77.1108 13.1759 1016 64.5915 587.568 525.878
1028 0 78.0705 13.4366 1049 64.898 587.96 525.01
1029 0 83.0798 13.2042 1097 64.7265 587.902 523.105
1030 0 86.1214 14.4099 1241 62.8421 588.359 521.915
1031 0 87.1217 13.8427 1206 64.0597 588.066 519.115
1032 0 90.1167 13.3161 1200 64.6925 587.924 519.615
1033 0 93.077 13.795 1284 64.3154 588.174 516.816
1034 1 49.0307 10.1365 497 67.8471 588.926 538.708
1035 0 53.0255 10.5044 557 67.4847 588.196 536.84
1036 0 54.0366 11.8253 639 65.9374 588.452 535.984
1037 0 57.0933 11.9804 684 65.4518 588.719 535.823
1038 0 57.0407 13.131 749 63.9613 590.232 534.983
1039 0 59.122 12.8209 758 64.8668 590.095 533.95
1040 0 61.0491 12.4817 762 65.7388 590.47 532.631
1041 0 64.0556 12.7389 816 64.9853 591.138 532.567
1042 0 64.0653 12.8307 822 65.6119 590.939 531.661
1043 0 65.0272 12.564 817 66.6548 590.799 529.285
1044 0 70.0413 12.8924 903 65.4153 591.103 528.632
1045 0 71.0566 13.2711 943 65.5493 591.207 527.521
1046 0 72.0933 13.3022 959 65.9604 591.294 526.714
1047 0 77.1428 13.3 1026 64.3567 591.341 526.617
1048 0 76.107 13.0606 994 66.1781 591.235 524.769
1049 0 79.2816 13.3575 1059 66.0992 591.138 521.451
1050 0 81.2116 12.9046 1048 67.0811 591.695 521.646
1051 0 85.1536 13.2701 1130 66.1212 591.747 520.797
1052 0 87.1132 13.1668 1147 66.7454 591.906 519.005
1053 0 88.2323 13.1358 1159 67.8395 591.145 516.447
1054 0 91.3776 14.3361 1310 66.2221 591.418 515.208
1055 0 95.2637 13.4784 1284 67.94 591.579 515.03
1056 0 94.2764 14.0756 1327 67.9789 591.435 512.37
1057 0 97.3226 13.6659 1330 68.8707 591.444 512.614
1058 0 100.336 13.5544 1360 69.2324 591.65 512.099
1059 0 105.334 13.9651 1471 68.1366 590.952 508.872
1060 0 107.257 13.6121 1460 68.5747 590.62 508.958
1061 0 108.21 13.0487 1412 69.6678 590.956 506.599
1062 0 113.347 13.7718 1561 68.7303 590.805 504.573
1063 0 117.276 13.8562 1625 68.4886 590.57 502.484
1064 1 66.1966 11.0429 731 69.2654 590.579 531.114
1065 0 69.1999 11.1705 773 69.586 590.226 529.313
1066 0 72.1716 12.2347 883 69.0668 590.623 526.559
1067 0 74.1348 12.3424 915 69.129 590.68 526.683
1068 0 76.1637 13.471 1026 68.0234 590.411 525.004
1069 0 80.272 13.3172 1069 68.1254 590.464 523.899
1070 0 79.1216 13.0938 1036 69.2867 590.188 522.885
1071 0 84.1459 13.2627 1116 68.5385 590.426 521.888
1072 0 84.3521 13.0524 1101 69.8302 590.568 520.322
1073 0 88.0986 12.8606 1133 69.5861 590.116 520.463
1074 0 92.1509 13.6624 1259 68.7585 590.053 516.385
1075 0 95.1178 13.3203 1267 69.2573 589.644 516.254
1076 0 99.0941 13.4216 1330 68.5737 589.547 515.692
1077 0 101.14 13.8323 1399 68.5654 589.783 512.261
1078 0 102.143 13.2658 1355 69.7793 589.63 511.333
1079 0 108.196 13.4663 1457 69.2086 589.336 510.038
1080 0 108.13 12.7162 1375 71.3207 588.78 507.975
1081 1 58.1137 9.2233 536 71.8321 588.444 532.978
1082 0 62.1094 10.4332 648 69.3611 588.252 532.296
1083 0 65.1615 11.5099 750 68.2093 588.751 530.916
1084 0 68.0374 11.7582 800 68.3137 588.165 528.055
1085 0 69.0915 11.767 813 70.0283 590.122 527.296
1086 0 73.062 11.9624 874 68.3719 590.203 528.108
1087 0 75.2662 12.4359 936 68.2906 590.403 526.532
1088 0 78.113 11.9698 935 68.3925 589.768 529.324
1089 0 82.2852 12.8334 1056 67.267 589.538 522.205
1090 0 83.1871 12.7424 1060 68.7047 589.631 522.262
1091 0 86.3412 13.076 1129 67.3082 589.129 520.779
1092 0 88.1854 12.8253 1131 68.0973 589.598 519.89
1093 0 90.2844 12.9701 1171 68.0854 589.342 519.391
1094 0 94.2057 12.5682 1184 68.8539 589.063 514.628
1095 0 97.1837 12.6359 1228 68.8054 589.001 514.915
1096 0 101.305 12.7536 1292 68.5325 589.173 512.879
1097 0 103.345 12.7631 1319 69.1516 588.279 510.602
1098 0 105.239 12.6284 1329 69.1226 588.645 510.087
1099 1 55.0795 10.1853 561 69.6043 588.754 533.48
1100 0 58.2315 10.3724 604 68.2964 588.427 535.026
1101 0 58.0793 10.2618 596 68.6023 589.483 535.893
1102 0 64.0783 11.6576 747 66.3936 588.224 532.181
1103 0 62.0357 11.7674 730 65.563 588.667 532.567
1104 0 64.0995 11.6382 746 65.6381 589.247 529.609
1105 0 67.0884 11.1197 746 65.9102 588.84 529.582
1106 0 69.0943 11.5929 801 65.1635 588.931 529.774
1107 0 72.0779 11.5153 830 64.6386 589.119 529.82
1108 0 74.0839 12.5668 931 63.2449 589.06 526.646
1109 0 77.1077 12.4761 962 63.4054 589.103 526.441
1110 0 77.1228 11.8772 916 65.3504 589.431 523.878
1111 0 80.0553 12.4414 996 64.6285 588.647 522.094
1112 0 85.1815 13.7471 1171 61.6456 588.401 522.827
1113 0 87.1393 12.589 1097 63.9608 588.733 522.074
1114 0 88.2339 12.5235 1105 64.4697 588.436 520.875
1115 0 92.3425 12.1288 1120 64.6777 587.589 519.415
1116 1 52.2058 11.2631 588 63.7194 587.337 538.566
1117 0 53.1417 10.0298 533 65.0413 587.013 539.522
1118 0 55.1883 11.3792 628 63.586 586.879 538.763
1119 0 57.1352 12.5492 717 61.7964 587.548 536.828
1120 0 57.0952 11.2444 642 64.109 586.854 536.992
1121 0 58.1529 11.1602 649 65.0678 587.393 534.598
1122 0 62.1331 12.3284 766 63.6227 586.926 534.325
1123 0 63.1527 12.446 786 63.7252 587.047 533.352
1124 0 65.1684 12.7823 833 63.0312 587.307 534.103
1125 0 68.1819 13.1267 895 62.3341 587.404 533.453
1126 0 73.0722 14.2462 1041 59.2872 588.328 529.819
1127 0 72.1327 13.7247 990 61.7222 587.9 527.851
1128 0 75.11 15.484 1163 58.0224 588.003 527.043
1129 0 78.0946 14.9306 1166 58.9743 588.002 527.086
1130 0 75.0952 12.1712 914 65.3545 588.696 528.697
1131 0 79.0984 13.3125 1053 63.018 588.367 526.487
1132 0 82.1099 12.5929 1034 64.2031 588.384 525.747
1133 1 42.1087 9.2855 391 65.4552 588.317 545.363
1134 0 40.1081 9.25001 371 68.1914 588.396 543.278
1135 0 44.0441 10.4668 461 65.5445 588.879 543.388
1136 0 45.0772 10.2047 460 66.5152 588.57 541.667
1137 0 48.0913 11.4366 550 63.4618 588.32 542.84
1138 0 47.0685 10.6653 502 66.0916 588.681 526.661
1139 0 49.0705 12.2681 602 62.1794 587.777 518.935
1140 0 50.261 11.4602 576 63.7934 588.038 522.267
1141 0 52.223 12.8487 671 60.9881 588.288 522.158
1142 0 52.1616 11.752 613 65.2398 588.352 521.67
1143 0 55.2581 12.6678 700 63.6057 588.527 525.543
1144 0 56.2038 12.7572 717 63.7671 588.651 521.823
1145 0 58.2053 12.8682 749 63.7971 588.772 514.419
1146 0 59.2264 12.3256 730 65.3027 588.847 514.296
1147 0 61.3102 12.7874 784 64.4898 589.292 515.663
1148 0 60.1899 13.175 793 65.1955 589.458 516.436
1149 0 62.2068 13.3747 832 64.845 589.475 517.566
1150 0 65.1327 13.2959 866 64.4088 589.404 522.418
1151 0 66.3047 12.8498 852 65.6244 589.783 527.143
1152 0 67.1968 14.2566 958 63.6075 589.873 530.927
1153 0 70.2055 13.5744 953 63.5572 590.454 528.368
1154 0 72.3258 13.4945 976 63.584 590.45 528.538
1155 0 74.2633 13.5599 1007 62.4538 590.555 525.786
1156 0 75.2025 14.2415 1071 61.6797 590.669 522.979
1157 0 79.3659 14.1875 1126 61.3606 590.792 521.13
1158 0 78.1843 13.2379 1035 63.6097 591.033 521.481
1159 0 85.4564 15.2241 1301 60.3605 590.976 517.696
1160 0 86.3322 15.1855 1311 61.0503 591.576 514.07
1161 0 86.2956 13.0713 1128 65.4149 591.427 515.335
1162 0 91.3953 13.644 1247 64.1059 591.802 515.064
1163 0 91.4086 13.9484 1275 64.2118 591.602 513.724
1164 1 49.1668 11.044 543 66.3554 591.707 534.56
1165 0 53.1725 10.4377 555 67.7063 591.748 533.535
1166 0 52.1023 11.0744 577 67.9341 591.577 533.236
1167 0 55.0736 12.0929 666 66.0886 592.281 535.387
1168 0 56.0484 12.8639 721 66.4591 592.861 533.466
1169 0 59.0722 12.7471 753 66.9216 592.648 534.064
1170 0 60.1046 13.0772 786 66.8511 592.51 530.757
1171 0 61.0863 13.4728 823 67.192 592.99 530.865
1172 0 63.0368 12.7703 805 68.0385 593.43 531.591
1173 0 66.1394 13.5623 897 66.6622 593.541 529.046
1174 0 68.2696 13.8422 945 66.1175 593.559 527.855
1175 0 70.1197 13.7194 962 66.7869 593.599 528.061
1176 0 72.2075 13.7659 994 66.9155 593.93 526.577
1177 0 75.1368 13.1227 986 68.1826 593.664 526.165
1178 0 76.0273 13.7056 1042 68.2236 593.891 525.374
1179 0 78.2906 13.9225 1090 67.9404 593.928 523.137
1180 0 81.1924 13.6589 1109 67.8611 593.82 522.241
1181 0 80.146 13.1884 1057 69.5572 594.219 519.929
1182 0 83.2053 13.3165 1108 68.7148 593.674 518.569
1183 0 89.229 13.7063 1223 67.3573 593.102 516.877
1184 0 89.3015 13.1353 1173 69.2958 593.653 514.209
1185 1 48.0298 10.3269 496 69.5887 593.069 536.065
1186 0 50.0374 10.8719 544 68.0846 592.741 536.031
1187 0 53.0887 12.3567 656 67.1509 592.78 533.912
1188 0 51.1914 12.6388 647 68.3385 593.434 533.45
1189 0 54.0514 13.0801 707 67.9986 593.942 532.571
1190 0 56.056 12.1129 679 69.215 592.421 532.792
1191 0 58.0301 13.0277 756 67.414 593.003 531.66
1192 0 60.0387 12.9417 777 68.0721 592.685 531.591
1193 0 60.0439 13.0238 782 68.3811 592.705 530.299
1194 0 60.0544 12.7051 763 69.5321 592.788 530.35
1195 0 65.1324 12.7586 831 68.4152 591.929 527.911
1196 0 67.0884 12.1631 816 69.2108 591.583 527.142
1197 0 68.153 12.6333 861 68.9535 591.784 525.758
1198 0 71.1197 12.6969 903 68.8427 591.623 524.888
1199 0 73.0839 13.3819 978 67.8609 591.833 523.708
1200 0 75.2108 13.2694 998 68.5441 591.736 522.796
1201 0 78.2615 12.7393 997 69.2578 591.727 522.454
1202 0 81.1817 13.7593 1117 67.8774 591.241 519.844
1203 0 82.2394 12.7311 1047 70.0258 591.287 518.907
1204 0 84.1593 13.3437 1123 69.1825 591.021 518.5
1205 0 87.416 13.064 1142 69.7811 590.904 517.306
1206 0 91.2852 13.9891 1277 67.8575 590.825 516.895
1207 1 52.1785 12.2081 637 69.6499 590.97 534.895
1208 0 53.2229 12.6449 673 68.9941 590.813 536.672
1209 0 56.134 12.6661 711 68.647 591.101 534.707
1210 0 57.1171 12.2905 702 69.0769 590.514 533.913
1211 0 59.0479 12.7862 755 68.0808 591.628 535.681
1212 0 59.0941 13.0808 773 68.6106 591.472 532.58
1213 0 60.1158 13.3576 803 68.401 590.381 531.689
1214 0 62.1417 13.1152 815 69.2724 590.195 531.58
1215 0 65.1581 13.4442 876 68.1084 590.089 531.905
1216 0 66.1002 12.7685 844 69.628 589.662 530.225
1217 0 68.069 13.6626 930 68 589.411 530.304
1218 0 70.1686 13.1968 926 68.7916 589.503 528.997
1219 0 72.2064 12.9628 936 68.8654 589.456 527.895
1220 0 74.2765 13.7998 1025 68.0059 589.515 526.504
1221 0 78.2144 13.4886 1055 67.5649 590.309 526.415
1222 1 45.0777 11.8906 536 68.541 589.252 542.33
1223 0 45.1459 11.4074 515 67.6777 588.12 543.138
1224 0 48.1825 10.9583 528 68.7992 587.61 541.756
1225 0 48.1335 10.741 517 68.5803 587.478 541.182
1226 0 50.1605 12.5397 629 67.7218 587.55 538.706
1227 0 53.0813 13.0931 695 66.823 588.106 537.409
1228 0 52.0513 12.1803 634 69.5394 589.022 538.341
1229 0 56.0593 13.3073 746 66.5107 589.028 536.621
1230 0 55.049 12.3526 680 69.7662 589.028 536.165
1231 0 58.1565 12.6727 737 69.1221 588.966 534.118
1232 0 61.1223 13.3666 817 66.6622 588.57 534.728
1233 0 61.0275 13.5349 826 67.586 588.398 534.154
1234 0 63.0462 13.276 837 68.3297 588.639 533.145
1235 0 65.1013 13.9475 908 67.1773 588.054 531.586
1236 0 65.0459 14.0209 912 68.1206 588.242 531.667
1237 0 68.0584 13.3562 909 69.5259 588.16 529.396
1238 0 74.0134 15.7944 1169 63.9401 588.353 526.237
1239 0 74.064 15.9592 1182 64.8824 588.486 526.167
1240 0 75.1434 13.6672 1027 69.8014 587.914 527.888
1241 0 77.1508 15.3466 1184 66.913 588.443 524.997
1242 0 81.0733 16.1459 1309 64.5584 588.244 521.703
1243 0 82.1213 14.7708 1213 68.3603 588.212 524.365
1244 0 82.1664 12.9493 1064 73.2509 588.159 522.153
1245 0 84.1565 14.0809 1185 71.5451 588.107 522.579
1246 0 86.0869 14.3808 1238 72.4879 588.354 520.185
1247 0 90.0608 14.1349 1273 73.2537 587.806 519.8
1248 0 94.1097 14.3237 1348 73.7797 587.868 520.125
1249 1 49.1457 11.2116 551 77.8966 588.474 539.762
1250 0 51.0649 10.986 561 79.2531 588.175 537.264
1251 0 55.1271 12.4802 688 76.2355 588.449 537.446
1252 0 54.1649 11.5758 627 79.2456 588.836 536.145
1253 0 58.0728 13.397 778 75.2442 589.207 535.478
1254 0 60.0786 13.266 797 76.1292 589.108 536.552
1255 0 60.0832 12.982 780 77.4936 589.024 534.346
1256 0 61.0869 12.916 789 77.8048 589.24 534.284
1257 0 63.0271 13.3752 843 76.6773 588.881 533.817
1258 0 68.0742 13.5147 920 74.7978 589.447 532.32
1259 0 68.0584 13.415 913 76.2563 589.165 530.617
1260 0 71.104 13.2201 940 75.5521 589.652 528.829
1261 0 73.0763 13.698 1001 74.3976 589.816 527.599
1262 0 77.0833 13.5957 1048 73.7328 589.791 527.251
1263 0 79.1025 13.552 1072 73.4394 589.895 524.762
1264 0 82.147 13.8289 1136 72.8231 589.997 523.759
1265 0 82.1271 13.9053 1142 73.6208 589.75 523.69
1266 0 85.1175 13.6752 1164 73.4399 590.144 520.894
1267 0 88.0738 13.5341 1192 73.4631 590.457 519.36
1268 0 88.1153 13.698 1207 73.6288 590.405 516.775
1269 0 93.2399 14.5324 1355 71.7292 590.326 517.029
1270 0 98.1493 13.9379 1368 71.7756 590.308 515.999
1271 0 100.157 13.998 1402 72.214 590.705 513.652
1272 0 103.275 13.8078 1426 72.3689 590.867 512.199
1273 0 105.167 14.0824 1481 72.0999 591.031 509.839
1274 0 108.322 14.2815 1547 71.2864 591.578 508.751
1275 0 111.248 13.3215 1482 72.7524 591.891 507.602
1276 0 116.254 13.8576 1611 71.4041 591.93 504.873
1277 1 63.0375 11.6756 736 72.572 592.221 530.806
1278 0 65.0532 12.7742 831 70.5824 593.054 530.909
1279 0 68.1001 13.2158 900 69.68 592.839 529.788
1280 0 72.1082 13.1746 950 69.5947 593.035 528.294
1281 0 73.1311 13.1408 961 70.358 592.989 525.897
1282 0 76.0606 13.4367 1022 69.1223 593.695 524.966
1283 0 78.1048 12.7905 999 70.041 593.36 524.306
1284 0 81.0656 13.4582 1091 69.3721 593.667 521.593
1285 0 84.1226 13.6586 1149 68.8303 593.757 520.613
1286 0 87.1173 13.2121 1151 69.1173 593.677 519.637
1287 0 91.1814 13.8625 1264 67.7832 593.713 517.18
1288 0 94.2102 13.2682 1250 68.6312 593.927 516.035
1289 0 97.1515 14.1326 1373 67.5331 593.964 514.484
1290 0 98.1507 13.2653 1302 69.5614 594.179 514.339
1291 0 103.202 13.8563 1430 67.7392 594.002 512.024
1292 1 55.0348 12.3558 680 69.3118 593.443 535.131
1293 0 56.1139 11.94 670 70.4955 593.584 534.787
1294 0 56.0609 12.8253 719 69.9638 594.07 534.063
1295 0 59.1137 12.8227 758 70.2533 593.976 531.529
1296 0 60.1473 13.4337 808 70.3243 593.724 530.823
1297 0 63.1505 13.4282 848 69.4564 593.562 530.881
1298 0 65.1255 12.6832 826 70.2058 593.266 530.183
1299 0 66.1963 13.8981 920 68.6022 593.591 527.936
1300 0 70.0994 13.7947 967 68.0196 593.471 528.306
1301 0 72.1254 13.2547 956 68.6538 592.52 528.023
1302 0 74.0703 13.9732 1035 67.4145 592.532 526.027
1303 0 76.0835 13.2749 1010 68.3663 592.781 524.025
1304 0 79.1951 13.9403 1104 66.6694 593.383 522.637
1305 0 82.1072 14.2375 1169 65.9607 593.086 522.015
1306 0 86.1984 13.8634 1195 65.6611 592.654 521.37
1307 1 46.0861 11.2398 518 68.3514 593.28 538.071
1308 0 47.1187 11.8212 557 67.1508 592.334 538.49
1309 0 49.0165 12.1184 594 66.2912 592.879 539.005
1310 0 52.1637 13.4001 699 64.3748 592.167 536.601
1311 0 51.0401 12.9506 661 66.1785 592.602 536.121
1312 0 54.0603 13.6884 740 65.6351 592.505 535.4
1313 0 54.0173 13.1069 708 66.2825 592.168 534.261
1314 0 57.1093 13.8156 789 64.9937 591.923 532.967
1315 0 59.0606 13.4777 796 64.9209 591.317 531.476
1316 0 59.0413 13.4143 792 65.7184 591.275 528.814
1317 0 63.1657 14.0424 887 63.956 591.024 532.707
1318 0 63.048 13.8783 875 65.1771 591.056 530.515
1319 0 66.2145 13.8489 917 64.5802 591.107 530.246
1320 0 67.0288 13.8299 927 65.397 590.452 529.146
1321 0 69.1117 14.0786 973 65.5283 590.732 528.617
1322 0 69.124 13.4251 928 66.9052 590.334 529.154
1323 0 70.0604 13.4313 941 67.4973 590.146 527.963
1324 0 74.0718 14.2159 1053 64.849 590.209 526.399
1325 0 78.0837 14.2539 1113 64.5993 589.957 525.167
1326 0 77.0925 13.5162 1042 66.3292 590.101 524.904
1327 0 81.0617 13.7426 1114 65.7585 589.668 524.629
1328 0 86.1348 14.2683 1229 64.4825 589.674 521.647
1329 0 89.1022 14.0176 1249 64.3779 589.879 519.594
1330 0 92.152 14.5846 1344 64.183 589.402 517.347
1331 1 51.0448 11.9699 611 66.3879 589.576 538.47
1332 0 53.1204 10.5797 562 67.1157 589.488 539.121
1333 0 56.0585 11.2561 631 65.2235 589.029 538.114
1334 0 55.1781 12.215 674 68.2893 589.347 536.377
1335 0 59.1807 13.0448 772 67.2552 589.22 534.307
1336 0 59.223 13.2719 786 66.6489 589.149 533.191
1337 0 61.1996 13.4805 825 66.1952 589.35 532.076
1338 0 63.2544 13.6433 863 66.1194 589.33 531.272
1339 0 64.1697 12.8254 823 66.9927 588.968 532.514
1340 0 69.2274 13.6073 942 64.7197 589.67 530.626
1341 0 69.1913 13.6144 942 65.0191 590.166 529.691
1342 0 73.2222 13.7117 1004 63.502 590.494 528.531
1343 0 75.1809 13.3545 1004 63.9871 589.916 527.639
1344 0 77.2426 13.1793 1018 64.2407 589.798 525.816
1345 0 80.1119 13.556 1086 62.9273 589.975 524.422
1346 0 84.1288 14.8463 1249 61.1409 589.89 523.047
1347 0 85.2345 14.6185 1246 61.8844 589.359 521.599
1348 0 86.1823 13.7963 1189 63.4323 589.13 521.714
1349 0 89.1113 13.8478 1234 63.7601 588.955 518.263
1350 0 93.1555 13.397 1248 64.5016 588.544 518.196
1351 1 52.211 11.1088 580 65.8017 588.443 538.705
1352 0 56.2688 13.009 732 64.0546 588.045 538.563
1353 0 56.0695 12.5915 706 65.5751 588.422 538.225
1354 0 60.0849 13.2979 799 65.1852 587.992 535.617
1355 0 62.1191 13.1844 819 65.7314 587.833 534.772
1356 0 62.033 13.2349 821 66.2862 587.514 534.7
1357 0 63.1313 12.6086 796 68.2538 587.229 532.884
1358 0 67.1178 13.8711 931 65.4919 586.942 533.513
1359 0 65.1551 13.0918 853 68.1348 587.142 532.741
1360 0 68.2841 13.0338 890 69.2101 586.992 531.282
1361 0 70.1956 13.4339 943 68.8038 586.983 530.108
1362 0 73.1282 13.5652 992 68.5837 586.717 529.396
1363 0 76.1591 13.6162 1037 68.6239 586.662 528.325
1364 0 76.2646 13.5974 1037 69.5998 586.738 526.573
1365 0 80.2164 14.0121 1124 68.8363 586.673 526.165
1366 0 80.2164 13.9872 1122 171.304 585.671 526.184
1367 0 84.3256 13.6376 1150 70.3261 587.023 524.149
1368 0 85.3081 13.6798 1167 71.0891 586.94 523.347
1369 0 89.2731 13.9572 1246 70.5024 586.95 521.041
1370 0 93.1358 14.0977 1313 70.4417 587.462 519.986
1371 0 97.1045 14.2424 1383 69.6587 587.515 518.751
1372 0 99.3647 14.1096 1402 70.9715 588.019 516.578
1373 1 56.2546 11.5902 652 72.7285 588.117 538.017
1374 0 56.1679 11.1273 625 72.1488 587.654 539.43
1375 0 59.1921 11.9779 709 72.244 588.068 537.346
1376 0 59.3654 10.966 651 74.6252 588.015 536.545
1377 0 60.1646 12.4326 748 72.8155 588.189 533.457
1378 0 65.2427 12.7984 835 70.9126 588.363 532.994
1379 0 66.0907 13.4815 891 70.8103 587.343 532.607
1380 0 69.1564 13.0284 901 71.2131 587.17 531.296
1381 0 71.0932 12.772 908 71.2093 586.96 530.033
1382 0 73.0815 13.4781 985 67.0964 587.296 528.187
1383 0 76.0762 13.9334 1060 66.8142 587.292 527.744
1384 0 78.0921 13.7018 1070 70.1551 587.666 525.944
1385 0 81.2466 13.9575 1134 69.2478 587.61 524.816
1386 0 84.1651 14.3884 1211 68.6325 587.96 523.56
1387 0 85.1083 13.4417 1144 70.7946 588.114 521.516
1388 0 90.1448 13.8555 1249 69.1377 587.846 520.955
1389 0 92.0743 14.2494 1312 68.9184 588.072 519.26
1390 0 95.1235 13.6665 1300 69.8154 587.612 518.928
1391 0 97.3287 13.7781 1341 70.4079 587.547 515.786
1392 0 101.209 14.9788 1516 67.8516 588.113 514.629
1393 0 106.19 14.7943 1571 67.6913 587.859 515.259
1394 0 106.111 14.4188 1530 69.6863 587.459 511.358
1395 0 110.234 14.4783 1596 69.2657 587.325 511.245
1396 0 112.247 14.2454 1599 70.4509 587.855 507.381
1397 0 116.189 14.7088 1709 69.3885 587.099 505.408
1398 0 120.208 14.217 1709 69.739 587.39 504.503
1399 0 124.156 14.1837 1761 70.0409 588.094 500.668
1400 1 69.1404 11.5851 801 70.8202 587.889 530.543
1401 0 71.0787 12.0289 855 70.6819 589.393 529.782
1402 0 72.0372 12.5352 903 70.8095 588.966 526.485
1403 0 77.0408 13.084 1008 69.1587 589.846 525.453
1404 0 81.0968 13.564 1100 68.1236 590.458 524.192
1405 0 81.1424 13.2976 1079 69.6988 589.848 522.506
1406 0 84.1087 14.1602 1191 67.9513 590.455 519.545
1407 0 88.1188 13.6634 1204 68.4759 591.07 517.562
1408 0 90.1736 14.0618 1268 67.7476 591.312 515.964
1409 0 92.1129 14.1023 1299 67.6166 591.552 514.554
1410 0 94.0428 12.9515 1218 70.6199 591.68 510.881
1411 0 101.098 15.3119 1548 65.573 592.207 512.411
1412 0 102.119 14.111 1441 67.9299 592.16 508.703
1413 0 106.11 14.1174 1498 68.2296 592.877 507.985
1414 1 55.0133 10.0521 553 69.8445 592.906 532.919
1415 0 60.0487 10.3916 624 68.125 592.72 532.312
1416 0 61.0706 11.544 705 66.9177 593.176 529.116
1417 0 63.0546 10.6892 674 67.1217 592.375 526.859
1418 0 64.045 12.0853 774 65.0388 592.087 526.092
1419 0 65.0832 12.5071 814 66.3673 592.291 526.248
1420 0 70.078 12.215 856 65.5818 592.261 526.249
1421 0 69.0957 12.3162 851 65.9882 592.314 525.986
1422 0 73.0857 13.0532 954 64.8742 592.448 523.513
1423 0 75.0866 12.4523 935 65.3979 592.149 522.32
1424 0 76.0921 12.3403 939 65.8882 591.874 521.745
1425 0 79.1691 13.0733 1035 64.4126 592.041 520.052
1426 0 82.1143 13.1402 1079 64.519 592.009 517.158
1427 0 84.1705 12.7955 1077 65.3742 591.473 515.197
1428 0 87.0717 13.7358 1196 63.6455 591.671 515.867
1429 0 89.2168 12.9124 1152 64.1753 591.614 514.41
1430 0 94.1531 12.947 1219 63.9811 591.605 512.264
1431 0 97.1995 13.4774 1310 62.755 591.48 511.022
1432 0 98.1729 13.0688 1283 63.8161 591.199 509.745
1433 0 103.215 13.5058 1394 62.9075 591.337 508.827
1434 0 104.215 12.6373 1317 64.5581 591.14 506.841
1435 1 58.0302 10.6669 619 64.4233 591.213 531.309
1436 0 59.0249 10.3516 611 63.4403 589.944 531.917
1437 0 61.0494 10.7945 659 63.8862 590.143 529.835
1438 0 60.0336 10.8106 649 64.0524 590.401 530.002
1439 0 64.0922 11.9827 768 61.9948 590.464 528.673
1440 0 65.0868 11.7843 767 61.4498 590.935 526.919
1441 0 68.0621 12.2682 835 60.3246 590.564 525.143
1442 0 70.0402 12.0074 841 60.6849 590.788 526.342
1443 0 71.09 12.3787 880 60.2398 591.243 523.926
1444 0 74.0474 12.6 933 59.6677 590.554 523.123
1445 0 76.1206 13.1502 1001 59.1449 590.045 523.361
1446 0 79.0739 12.6843 1003 59.6919 590.189 521.512
1447 0 81.1023 12.3794 1004 60.0548 589.928 519.875
1448 0 84.1288 13.0395 1097 59.6272 590.333 517.452
1449 0 85.0267 13.09 1113 59.6541 589.931 516.913
1450 0 89.1088 12.6138 1124 59.9395 589.878 515.171
1451 0 91.0851 12.7793 1164 60.1229 589.92 513.617
1452 0 94.1047 13.655 1285 58.7549 589.949 512.364
1453 0 95.1252 12.6991 1208 60.2757 589.363 511.911
1454 0 99.053 13.1142 1299 59.6313 590.146 509.584
1455 0 101.079 13.2965 1344 59.5037 589.882 508.475
1456 0 104.101 12.5455 1306 60.5459 589.489 509.22
1457 0 108.171 13.2383 1432 60.3708 588.913 505.97
1458 1 61.1177 10.2916 629 61.0064 589.607 531.566
1459 0 65.0525 11.0065 716 59.1676 589.726 530.736
1460 0 65.0561 12.3432 803 58.4284 589.191 529.452
1461 0 67.0483 12.1852 817 59.5826 589.534 528.024
1462 0 67.0387 12.3362 827 59.6312 589.131 527.489
1463 0 70.1542 12.0164 843 59.6145 589.482 527.931
1464 0 71.1383 12.0751 859 59.9208 588.75 525.078
1465 0 74.1167 12.1025 897 59.8685 588.698 524.497
1466 0 77.0458 12.0318 927 59.8382 588.887 523.974
1467 0 79.058 12.3707 978 59.909 588.769 522.733
1468 0 81.1592 12.9622 1052 59.7177 588.558 520.082
1469 0 84.2352 13.7828 1161 58.4272 588.419 520.238
1470 0 85.1224 12.8051 1090 60.1367 588.683 519.166
1471 0 90.1518 12.7341 1148 59.8772 588.216 517.907
1472 0 89.1847 12.9058 1151 60.1851 588.228 516.226
1473 0 93.3059 13.0431 1217 59.9063 588.282 515.249
1474 0 98.2339 13.2744 1304 59.3604 588.297 516.289
1475 0 97.1125 12.9746 1260 60.6952 587.86 512.359
1476 0 101.146 12.7736 1292 61.1409 587.18 511.774
1477 0 104.281 13.5499 1413 60.2392 586.984 511.556
1478 0 110.154 13.9985 1542 58.7652 586.785 510.113
1479 0 112.455 14.0323 1578 59.263 587.254 507.144
1480 0 113.147 13.4781 1525 60.038 587.169 508.404
1481 0 118.388 13.8865 1644 59.1137 587.816 504.672
1482 1 67.1723 10.674 717 59.7992 587.872 532.199
1483 0 66.0523 9.00801 595 61.9378 588.708 530.894
1484 0 70.161 9.99131 701 60.4636 588.516 529.532
1485 0 73.2258 11.6899 856 58.4194 587.828 526.815
1486 0 75.1444 11.937 897 57.9933 587.018 527.79
1487 0 77.1717 11.9992 926 58.5745 587.076 527.078
1488 0 80.2589 13.1699 1057 57.3103 587.781 527.13
1489 0 81.2643 12.6255 1026 58.0536 586.981 525.521
1490 0 85.1718 12.058 1027 58.5686 586.939 525.049
1491 0 84.1981 12.8506 1082 58.22 586.822 522.312
1492 0 88.1351 12.6624 1116 58.3674 587.265 522.028
1493 0 91.1784 12.3713 1128 59.0027 587.833 519.767
1494 0 93.1149 12.7369 1186 58.5599 588.258 519.452
1495 0 95.239 13.2824 1265 58.2877 588.333 515.878
1496 0 99.2241 12.8396 1274 59.1554 588.32 516.006
1497 0 100.212 12.8527 1288 59.7748 588.533 514.397
1498 0 104.218 13.4142 1398 58.716 588.496 513.909
1499 0 107.245 13.7629 1476 59.6741 588.3 513.62
1500 0 107.224 13.5324 1451 60.1723 588.405 510.668
1501 0 112.322 13.6304 1531 60.3285 588.227 511.206
1502 0 113.131 13.2236 1496 61.619 588.15 510.118
1503 0 116.296 13.2335 1539 61.7953 588.552 507.424
1504 0 119.345 13.6662 1631 62.1551 588.213 503.259
1505 0 123.445 13.747 1697 61.9228 587.908 502.243
1506 0 126.197 13.3918 1690 62.6172 588.488 500.789
1507 0 130.234 13.3299 1736 62.7874 588.96 498.161
1508 1 76.0366 10.7448 817 62.4468 588.267 527.902
1509 0 77.1012 11.4395 882 62.9229 589.234 526.197
1510 0 79.1446 12.4077 982 60.7189 589.821 524.965
1511 0 82.1341 12.8205 1053 61.0247 590.036 524.469
1512 0 82.1323 12.3946 1018 62.6071 590.023 522.798
1513 0 86.0852 12.6386 1088 62.7693 590.432 520.046
1514 0 88.1393 13.1496 1159 62.9948 591.03 519.55
1515 0 93.2093 13.1425 1225 62.3886 591.014 518.633
1516 0 97.1781 13.1717 1280 62.5305 590.988 516.67
1517 0 98.162 13.2332 1299 62.7991 591.436 515.125
1518 0 102.14 12.9431 1322 63.5151 591.651 513.008
1519 0 104.202 13.09 1364 63.9238 591.748 509.402
1520 1 60.1906 10.5498 635 64.589 591.931 533.282
1521 0 63.1753 11.8717 750 63.9413 591.82 531.257
1522 0 65.181 11.7059 763 63.4954 592.176 532.063
1523 0 67.1766 12.6681 851 62.0693 592.387 531.081
1524 0 68.2442 12.5872 859 63.2771 592.972 527.024
1525 0 69.1944 12.2698 849 62.7032 593.273 526.213
1526 0 73.1427 12.6602 926 61.892 593.319 526.062
1527 0 75.2465 12.572 946 61.4989 593.086 525.656
1528 0 79.2707 13.2458 1050 59.9952 593.385 522.115
1529 0 81.389 12.3112 1002 61.507 593.37 520.948
1530 0 84.3542 12.7083 1072 61.1744 593.28 518.766
1531 0 86.2881 12.8291 1107 60.841 593.183 520.251
1532 0 88.2247 12.3888 1093 62.0082 592.804 517.124
1533 0 92.2765 13.1453 1213 61.0767 592.439 516.441
1534 0 94.2337 13.3816 1261 60.5734 593.542 516.418
1535 0 95.3787 13.2944 1268 60.5765 592.875 510.914
1536 0 100.21 13.9107 1394 61.1858 592.721 510.974
1537 0 102.238 13.6349 1394 62.1607 592.907 509.122
1538 0 105.162 12.9895 1366 63.4092 592.46 508.803
1539 0 108.302 13.5824 1471 62.2767 592.428 507.52
1540 0 112.322 13.7105 1540 61.6299 592.596 507.138
1541 0 116.256 13.4273 1561 63.3754 592.694 506.38
1542 1 61.2799 10.0522 616 65.0179 592.946 532.495
1543 0 65.1406 10.9148 711 63.6414 592.461 531.214
1544 0 67.1135 11.5178 773 63.1475 592.133 530.248
1545 0 68.1029 11.7763 802 63.8653 591.642 527.398
1546 0 69.0851 12.5208 865 63.5237 591.377 526.591
1547 0 72.1738 13.0103 939 62.2705 592.304 527.761
1548 0 75.2285 12.4288 935 63.5807 592.226 524.897
1549 0 77.0768 12.9611 999 63.048 592.441 523.09
1550 0 80.1078 13.0824 1048 62.4189 592.115 521.598
1551 0 81.0395 12.6605 1026 63.769 592.135 521.749
1552 0 84.087 12.9865 1092 63.1758 592.175 520.857
1553 0 86.1246 11.8549 1021 65.5426 591.218 519.436
1554 0 88.0947 13.0541 1150 63.967 590.927 518.257
1555 0 92.0356 13.636 1255 63.2343 590.286 517.375
1556 0 95.0812 13.6094 1294 63.5927 590.075 516.478
1557 0 97.1505 13.0931 1272 64.9332 589.772 515.035
1558 0 101.157 13.4345 1359 64.1258 589.326 514.825
1559 0 102.194 13.034 1332 65.5488 589.425 512.062
1560 0 107.213 13.9909 1500 64.1313 589.705 511.446
1561 0 109.107 13.4364 1466 65.7176 589.571 508.475
1562 0 113.195 13.6313 1543 65.1024 588.997 508.097
1563 0 117.103 14.039 1644 64.5128 589.114 506.607
1564 1 66.0723 11.2755 745 66.4161 589.726 529.317
1565 0 67.0676 11.138 747 66.5703 588.731 529.031
1566 0 70.1567 11.7451 824 65.5461 588.515 530.084
1567 0 72.2301 12.2664 886 65 589.089 525.935
1568 0 75.1766 12.6901 954 64.5692 589.258 525.404
1569 0 76.0639 12.9365 984 64.8018 588.333 526.474
1570 0 80.0875 13.6226 1091 63.7782 588.536 527.645
1571 0 81.0899 13.1336 1065 63.661 588.18 525.913
1572 0 85.0541 13.7912 1173 62.2873 588.28 526.758
1573 0 87.1303 12.6018 1098 64.1275 588.385 522.587
1574 0 92.1126 13.8743 1278 61.9961 588.408 520.918
1575 0 92.2164 12.9803 1197 63.6149 588.405 519.344
1576 0 95.1208 13.2043 1256 63.3304 588.408 518.028
1577 0 98.1245 13.7784 1352 62.3683 588.132 517.905
1578 0 102.208 13.6877 1399 62.5933 588.185 516.189
1579 0 104.192 14.0894 1468 62.5416 588.204 513.137
1580 0 106.131 14.1334 1500 62.5293 588.136 513.078
1581 0 111.093 13.2771 1475 63.8549 588.694 509.185
1582 1 59.0395 10.5014 620 66.1274 588.798 535.515
1583 0 62.0949 11.8045 733 64.4939 589.344 535.224
1584 0 64.0841 11.0324 707 64.8515 588.689 535.368
1585 0 65.1287 11.8534 772 64.5829 588.446 533.798
1586 0 68.1264 13.7245 935 62.2321 588.51 531.974
1587 0 70.1858 13.6495 958 62.9676 587.882 532.28
1588 0 72.1368 12.9476 934 64.1595 588.269 529.439
1589 0 73.1099 12.5154 915 64.9464 588.264 529.072
1590 0 76.2013 12.9394 986 63.8712 588.258 527.517
1591 0 77.1584 12.9992 1003 63.678 588.528 526.587
1592 0 80.4596 12.8263 1032 63.5882 588.764 524.599
1593 0 83.2093 13.8206 1150 62.46 588.205 524.37
1594 0 85.095 13.9961 1191 61.9757 588.423 524.112
1595 0 89.1152 13.4994 1203 62.315 588.459 520.411
1596 0 92.1828 14.1458 1304 61.4609 588.609 521.195
1597 0 95.1467 13.4844 1283 62.7046 588.606 518.03
1598 0 98.1346 13.9095 1365 62.074 588.751 516.836
1599 1 55.0443 11.5907 638 63.9937 589.227 537.492
1600 0 56.185 10.0917 567 64.7055 589.062 538.656
1601 0 58.1273 12.7307 740 62.9446 588.476 535.211
1602 0 60.1704 12.3649 744 63.6398 589.043 534.409
1603 0 61.1046 12.945 791 63.4728 589.196 532.594
1604 0 64.0611 12.7066 814 63.4988 589.967 532.381
1605 0 68.1761 14.1839 967 60.8449 590.225 532.26
1606 0 70.0392 13.4068 939 61.656 590.349 531.04
1607 0 70.1615 13.6827 960 62.4229 589.609 529.909
1608 0 74.0802 14.3493 1063 60.9774 589.561 527.919
1609 0 73.0995 13.338 975 63.4431 589.966 526.161
1610 0 76.1698 13.8375 1054 62.4478 590.029 524.228
1611 0 80.1241 13.9783 1120 61.9562 590.33 524.202
1612 0 81.1111 13.9685 1133 62.3477 589.942 524.198
1613 0 86.0514 14.5843 1255 61.0677 591.32 521.378
1614 0 86.1332 13.5256 1165 63.2652 591.458 520.395
1615 0 91.1449 14.3947 1312 61.737 591.63 517.504
1616 0 93.0531 14.4434 1344 62.0923 592.166 517.587
1617 0 96.0931 13.924 1338 63.6457 591.93 514.507
1618 0 100.082 14.9977 1501 61.7881 592.428 513.883
1619 0 103.267 14.2833 1475 62.9112 592.218 511.225
1620 1 59.104 11.962 707 65.1499 592.635 534.993
1621 0 59.118 12.0268 711 65.0295 593.013 534.736
1622 0 62.0423 11.7017 726 66.8264 593.579 532.095
1623 0 62.1204 12.025 747 66.2048 593.256 531.855
1624 0 65.0572 13.2499 862 64.8619 593.113 528.077
1625 0 66.0567 14.0485 928 64.5011 593.141 528.274
1626 0 69.0883 14.2137 982 63.9664 593.343 526.499
1627 0 72.046 13.6718 985 64.7909 593.776 522.95
1628 0 73.071 13.699 1001 64.5155 593.955 522.489
1629 0 74.0892 14.1991 1052 64.6559 594.484 521.777
1630 0 78.067 14.4235 1126 64.246 594.142 520.951
1631 0 80.1185 14.8031 1186 63.6872 593.917 519.345
1632 0 82.1506 14.7169 1209 64.2018 594.13 518.299
1633 0 86.1099 15.3525 1322 62.7723 594.207 517.373
1634 0 86.17 14.042 1210 65.9702 593.796 515.788
1635 0 90.1749 14.0726 1269 65.7076 593.864 515.463
1636 0 94.2384 14.2829 1346 65.4257 593.978 512.39
1637 0 96.2675 14.5013 1396 64.9721 594.287 510.614
1638 0 99.2562 14.4878 1438 65.201 594.23 509.563
1639 0 102.184 14.0629 1437 66.4969 594.173 506.439
1640 0 105.196 14.0689 1480 66.6838 593.849 505.71
1641 1 58.2252 11.8505 690 67.858 594.152 529.986
1642 0 59.2045 12.347 731 66.6813 593.637 528.837
1643 0 62.1913 13.2173 822 65.5401 594.054 529.265
1644 0 62.0837 13.7395 853 65.9871 593.913 527.192
1645 0 67.3271 14.333 965 63.3886 593.864 526.609
1646 0 68.2058 13.8551 945 64.3048 593.932 525.466
1647 0 70.3677 14.1258 994 64.168 593.989 525.107
1648 0 74.158 14.8467 1101 62.6866 593.665 524.08
1649 0 76.1526 13.8144 1052 64.4515 593.742 523.965
1650 0 78.2488 14.7606 1155 63.1472 593.841 521.316
1651 0 78.1119 13.9287 1088 65.0892 593.123 519.865
1652 0 83.1448 14.4326 1200 63.8758 593.209 519.124
1653 0 88.3468 16.0843 1421 60.6573 592.855 514.933
1654 0 90.1761 14.7157 1327 62.783 593.27 516.372
1655 0 94.2454 14.7806 1393 61.9282 592.681 515.793
1656 0 97.2493 14.5708 1417 62.4651 592.313 512.315
1657 0 100.43 14.1492 1421 62.8754 592.133 510.546
1658 1 55.2179 12.3873 684 63.905 592.652 532.354
1659 0 58.2863 11.8381 690 64.6203 591.964 531.365
1660 0 58.1379 12.6596 736 63.4891 591.685 531.913
1661 0 61.2374 12.7373 780 63.3179 591.672 530.722
1662 0 60.2673 13.6558 823 62.7959 592.117 528.214
1663 0 65.3898 14.3906 941 60.8555 591.706 528.216
1664 0 66.3324 14.1711 940 61.3074 592.048 526.643
1665 0 69.3411 13.8734 962 61.0468 591.546 527.673
1666 0 71.5604 13.8624 992 61.0736 591.385 526.746
1667 0 74.4339 14.926 1111 59.5914 591.221 525.292
1668 0 74.3869 13.4701 1002 60.5579 590.895 524.096
1669 0 78.3936 14.2359 1116 59.3459 591.159 522.374
1670 0 82.2436 13.8734 1141 59.518 591.067 521.655
1671 0 83.5186 14.392 1202 59 591.334 519.543
1672 0 86.4285 13.8496 1197 59.4185 591.023 516.196
1673 0 90.3882 13.5084 1221 59.5102 591.256 515.236
1674 0 93.6197 14.0248 1313 58.4356 590.826 515.905
1675 0 95.517 14.165 1353 58.8322 590.865 513.251
1676 0 100.784 14.1689 1428 58.2913 590.282 512.221
1677 0 101.599 14.134 1436 58.9882 590.891 510.46
1678 0 103.458 13.6577 1413 59.5867 590.638 510.282
1679 0 106.567 13.8223 1473 59.8703 590.148 505.25
1680 0 110.57 13.3852 1480 60.0541 590.191 504.47
1681 1 63.6613 10.603 675 58.9985 590.01 530.778
1682 0 64.3157 10.6039 682 58.9883 589.965 530.598
1683 0 66.3706 10.9536 727 59.458 589.536 529.155
1684 0 68.181 11.6308 793 57.1702 589.73 526.939
1685 0 70.3514 12.4091 873 56.3356 589.124 526.78
1686 0 72.4153 12.6631 917 56.8048 588.987 526.038
1687 0 75.3037 13.7842 1038 55.7669 588.769 525.236
1688 0 78.5104 11.4507 899 58.3749 588.85 524.502
1689 0 80.3534 12.2832 987 57.5795 588.656 523.611
1690 0 83.4279 12.1182 1011 57.4085 588.422 522.501
1691 0 85.6723 11.4389 980 58.3398 588.473 520.174
1692 0 88.3909 12.456 1101 56.8356 588.411 519.594
1693 0 92.4479 13.2832 1228 56.2093 587.908 517.144
1694 0 95.2994 13.3684 1274 56.1193 587.745 516.635
1695 0 97.2657 13.5916 1322 55.8691 587.949 515.902
1696 0 102.299 13.7538 1407 55.2075 587.67 513.909
1697 0 102.376 11.6727 1195 58.0619 587.346 512.899
1698 0 107.368 12.4897 1341 56.9142 587.28 509.679
1699 0 110.278 12.5138 1380 56.5891 587.08 510.857
1700 0 115.253 12.9889 1497 55.7188 587.31 505.392
1701 1 67.1903 9.54006 641 57.0998 586.48 529.438
1702 0 70.1916 10.9842 771 55.131 586.344 529.518
1703 0 70.1285 11.4362 802 55.1072 587.751 528.196
1704 0 72.0616 11.1155 801 55.7715 586.969 527.233
1705 0 76.2255 13.6962 1044 53.1264 586.656 524.765
1706 0 77.163 11.534 890 55.6438 586.502 525.194
1707 0 80.251 11.2647 904 56.0066 586.552 524.457
1708 0 84.0796 11.9292 1003 55.0219 586.804 521.73
1709 0 84.0947 11.4633 964 56.0405 586.814 520.588
1710 0 89.1704 11.9322 1064 55.2773 586.303 518.952
1711 0 91.179 12.0751 1101 55.3143 586.638 518.262
1712 0 94.2425 11.1521 1051 56.4738 586.572 512.392
1713 0 100.208 12.8632 1289 53.9325 586.545 516.149
1714 1 54.0465 10.0469 543 53.8619 586.175 536.65
1715 0 57.0898 10.7024 611 52.216 586.859 539.036
1716 0 55.1217 10.1775 561 54.5383 587.545 536.403
1717 0 58.0656 11.4698 666 53.4009 587.736 533.893
1718 0 61.0741 11.6089 709 52.6417 587.733 534.965
1719 0 62.1489 11.4564 712 53.2556 587.331 533.881
1720 0 62.0691 12.47 774 53.5917 587.558 532.382
1721 0 66.1461 12.1398 803 53.3711 587.691 530.756
1722 0 68.113 11.202 763 54.5505 587.623 529.033
1723 0 69.1243 11.1683 772 55.1088 587.85 529.146
1724 0 71.0555 12.6802 901 53.6548 589.251 530.31
1725 0 73.0557 12.4152 907 54.2988 589.314 527.921
1726 0 73.1616 12.4109 908 54.8899 589.206 526.146
1727 0 76.2869 12.9118 985 54.3421 589.159 524.895
1728 0 78.2544 12.1655 952 55.458 589.339 523.599
1729 0 79.1792 11.9476 946 55.777 589.377 521.087
1730 0 84.2149 12.5393 1056 55.2803 589.57 519.591
1731 0 87.3659 12.6594 1106 55.5054 590.043 520.301
1732 0 88.4731 12.727 1126 55.635 590.142 518.864
1733 0 90.3215 12.9537 1170 55.7248 591.075 517.696
1734 0 94.5024 12.7298 1203 56.8512 591.045 513.317
1735 0 97.2771 13.7648 1339 55.9559 590.81 512.442
1736 0 99.3257 13.2191 1313 57.5659 591.453 511.626
1737 0 102.481 14.0611 1441 56.5094 591.723 509.317
1738 0 102.209 12.9245 1321 57.8554 591.803 508.22
1739 0 107.297 13.3927 1437 57.0188 591.585 510.163
1740 0 108.222 13.2874 1438 57.8241 591.604 505.332
1741 0 112.211 13.2162 1483 58.5003 592.427 503.64
1742 0 116.177 14.0819 1636 56.2861 592.282 502.989
1743 0 118.169 13.523 1598 57.4499 592.199 500.844
1744 0 123.146 13.3906 1649 57.6155 592.246 498.584
1745 0 128.193 13.5733 1740 57.6822 592.763 496.803
1746 0 132.166 14.1942 1876 56.7825 593.068 495.399
1747 1 55.1991 10.5074 580 55.6517 593.636 532.155
1748 0 57.0281 11.1173 634 54.7413 594.38 531.568
1749 0 60.1164 11.9934 721 54.2552 594.617 529.105
1750 0 60.0542 11.6894 702 55.3818 595.811 528.244
1751 0 63.0663 12.0032 757 55.4927 595.841 526.733
1752 0 65.0802 12.2003 794 55.0869 595.892 526.296
1753 0 68.0711 11.7965 803 55.3039 595.787 524.817
1754 0 68.0414 11.5518 786 56.0356 595.555 525.445
1755 0 72.1177 12.9511 934 54.3512 595.436 522.469
1756 0 75.0991 13.1293 986 54.2434 595.008 521.253
1757 0 76.1048 12.4828 950 55.4905 593.912 522.686
1758 0 76.1048 12.4565 948 147.749 592.912 522.693
1759 0 79.1032 12.4521 985 56.9878 594.318 519.559
1760 0 82.2512 12.8874 1060 56.9481 594.051 518.054
1761 0 82.1484 13.1835 1083 57.2678 594.331 517.304
1762 0 85.1734 13.0205 1109 58.0658 593.994 515.819
1763 0 87.1349 13.7029 1194 57.7353 594.585 515.193
1764 0 89.37 13.6511 1220 58.1934 593.917 513.058
1765 0 91.1544 13.34 1216 58.7048 593.104 513.142
1766 0 95.185 12.9957 1237 58.7688 593.357 513.909
1767 1 49.0688 10.6993 525 58.861 593.011 533.726
1768 0 54.0736 11.5583 625 56.4608 593.067 535.309
1769 0 54.0477 12.3595 668 56.8623 593.054 532.21
1770 0 56.1124 12.2255 686 56.1924 592.776 532.598
1771 0 56.0943 12.996 729 56.5844 593.99 531.567
1772 0 57.0558 12.777 729 57.5885 593.859 529.809
1773 0 58.1 11.6695 678 59.6858 593.158 529.985
1774 0 60.0572 12.7545 766 57.9935 593.876 529.228
1775 0 63.0504 12.4662 786 57.8206 592.744 529.299
1776 0 65.0368 13.4539 875 57.4171 592.256 528.947
1777 0 66.0183 13.5568 895 58.0302 592.636 527.078
1778 0 69.0792 13.5786 938 58.2303 592.204 526.902
1779 0 69.0245 13.6618 943 58.9046 592.804 526.875
1780 0 72.0991 13.9946 1009 58.3221 592.087 525.206
1781 0 72.0423 12.923 931 60.8217 592.467 526.054
1782 0 75.0724 14.2796 1072 58.278 592.448 525.914
1783 0 76.1246 13.9114 1059 59.7016 591.982 521.989
1784 0 80.166 14.0958 1130 58.8442 591.292 522.303
1785 0 81.1334 13.5949 1103 59.2747 591.39 520.625
1786 0 85.1538 14.6911 1251 57.1159 591.153 520.265
1787 0 87.0609 14.2084 1237 57.4325 591.105 518.434
1788 0 90.1571 14.2751 1287 57.5563 590.35 516.218
1789 0 92.1259 14.2957 1317 57.7509 590.128 515.825
1790 0 94.2477 13.8995 1310 58.1137 590.271 515.29
1791 0 97.2027 14.4132 1401 57.6638 590.363 513.948
1792 0 100.178 13.8454 1387 58.2177 590.239 511.11
1793 0 104.153 14.3251 1492 57.6119 590.446 511.507
1794 0 105.139 14.1622 1489 57.9859 590.293 507.739
1795 0 110.166 14.3783 1584 57.4609 590.013 508.831
1796 0 112.159 13.57 1522 58.3535 589.93 507.278
1797 0 116.207 14.4483 1679 57.5861 589.821 505.182
1798 0 121.217 13.9089 1686 57.9567 589.788 502.569
1799 1 72.1237 12.3122 888 57.1881 589.825 529.037
1800 0 72.1535 12.8615 928 57.3728 589.981 529.958
1801 0 75.1499 13.3334 1002 57.484 589.975 526.792
1802 0 79.0884 13.7315 1086 56.5028 589.609 525.486
1803 0 81.0787 14.0357 1138 56.4684 589.561 524.403
1804 0 82.1386 13.3798 1099 57.6761 589.583 523.022
1805 0 85.0825 14.0569 1196 57.1187 589.755 521.88
1806 0 89.1546 14.7721 1317 55.6849 589.268 521.257
1807 0 90.0607 13.824 1245 57.5406 589.471 519.61
1808 0 95.0929 14.3123 1361 56.2821 589.4 517.781
1809 0 95.0563 13.3605 1270 57.5087 589.969 517.372
1810 0 102.3 14.2717 1460 55.9253 589.601 516.594
1811 0 101.172 13.4425 1360 57.5235 589.429 516.044
1812 0 104.13 13.4159 1397 57.8568 589.298 513.45
1813 0 107.138 14.3833 1541 56.3271 590.054 512.914
1814 0 111.156 14.2053 1579 56.9715 589.723 509.399
1815 0 113.122 13.5959 1538 57.7744 590.381 508.243
1816 0 117.24 13.7666 1614 57.6605 590.543 506.886
1817 0 122.157 14.2112 1736 57.1267 590.151 503.316
1818 0 126.249 13.616 1719 57.7755 590.394 502.173
1819 0 131.161 14.1734 1859 56.8623 589.978 501.431
1820 0 135.313 14.7806 2000 56.5865 590.135 496.418
1821 0 138.143 14.818 2047 57.0879 590.126 494.561
1822 0 141.105 14.4148 2034 57.6893 590.59 492.626
1823 0 144.189 14.3422 2068 58.1978 590.537 492.359
1824 0 148.189 13.4963 2000 59.5145 589.841 487.582
1825 1 86.1462 11.2599 970 58.9856 590.631 523.373
1826 0 86.2632 11.6852 1008 59.7946 590.057 521.439
1827 0 88.273 13.1071 1157 59.3284 590.442 518.564
1828 0 93.2341 13.9434 1300 58.0185 591.087 518.061
1829 0 97.2202 14.6369 1423 57.1989 591.464 515.576
1830 0 97.3729 13.6896 1333 58.6317 591.729 511.75
1831 0 102.218 13.794 1410 58.4816 591.565 511.452
1832 0 105.331 14.2883 1505 57.9502 591.513 510.922
1833 0 108.234 14.3948 1558 58.2683 591.8 505.741
1834 0 111.367 13.5858 1513 59.228 591.818 506.876
1835 0 114.251 13.8992 1588 59.614 591.931 507.348
1836 0 118.211 13.882 1641 59.6886 591.588 504.301
1837 0 124.188 14.7841 1836 58.11 591.898 503.105
1838 1 70.1271 11.4221 801 59.9588 592.628 528.975
1839 0 71.1479 11.6237 827 59.0641 593.254 529.137
1840 0 73.1282 12.4713 912 59.1129 593.378 525.777
1841 0 78.0415 13.5569 1058 58.156 593.624 523.123
1842 0 78.2178 12.4652 975 59.1938 594.125 522.885
1843 0 82.3105 13.2668 1092 58.1172 593.931 521.46
1844 0 84.1802 13.4117 1129 58.4269 593.798 518.362
1845 0 89.2663 14.0479 1254 57.756 594.203 517.294
1846 0 90.1008 12.9189 1164 59.7062 594.322 516.77
1847 0 93.2868 13.5067 1260 58.8786 593.587 514.188
1848 0 96.1943 12.8802 1239 59.8063 593.69 514.991
1849 0 101.346 14.4949 1469 57.5541 594.201 512.347
1850 0 102.151 14.3219 1463 58.8257 594.545 510.665
1851 0 107.162 14.4081 1544 58.1872 594.15 510.341
1852 0 110.315 14.3226 1580 58.7684 594.185 507.796
1853 0 114.104 13.9083 1587 58.6868 594.497 508.894
1854 1 59.4004 11.5151 684 58.9298 594.708 532.534
1855 0 63.1035 12.0437 760 58.7013 594.338 530.361
1856 0 66.3881 12.2763 815 57.3865 593.956 530.613
1857 0 68.2192 12.5478 856 58.5315 594.104 526.273
1858 0 68.2439 12.9975 887 58.2683 593.753 526.172
1859 0 73.2168 13.8356 1013 57.1323 593.574 522.57
1860 0 73.3438 13.2526 972 58.3385 593.786 523.521
1861 0 77.3726 13.9455 1079 57.0334 593.671 521.784
1862 0 79.5325 14.887 1184 56.1664 593.443 517.07
1863 0 81.4246 13.7919 1123 57.4452 593.147 518.725
1864 0 83.4826 14.0748 1175 57.6187 593.099 516.078
1865 0 87.5895 14.7164 1289 56.6486 592.794 514.202
1866 0 90.6013 14.3486 1300 57.1854 592.664 513.418
1867 0 92.8775 14.3738 1335 57.2187 592.62 512.554
1868 0 96.7854 15.1779 1469 56.5228 592.326 510.171
1869 0 96.7445 14.9259 1444 57.1814 592.343 511.075
1870 0 102.828 15.1709 1560 56.5808 592.759 510.568
1871 0 103.97 14.0617 1462 57.3386 592.238 508.175
1872 0 106.97 14.9668 1601 56.426 591.718 504.297
1873 0 110.817 15.0518 1668 56.2074 592.143 506.322
1874 0 112.811 14.839 1674 56.3841 591.746 503.235
1875 0 116.823 15.057 1759 56.2524 591.814 501.07
1876 0 120.757 15.5105 1873 55.2952 591.575 500.967
1877 1 67.3675 13.033 878 57.2084 591.479 525.319
1878 0 69.4488 13.5928 944 56.0667 592.171 525.113
1879 0 70.7535 13.328 943 57.123 592.303 524.002
1880 0 74.5651 14.4572 1078 55.3868 591.951 522.611
1881 0 77.7158 14.8876 1157 54.5108 591.885 522.352
1882 0 76.7407 13.9822 1073 56.5154 591.68 519.336
1883 0 79.4222 14.0893 1119 56.4826 591.639 517.717
1884 0 84.3586 15.6001 1316 54.3169 591.674 516.723
1885 0 86.3097 15.0968 1303 55.6876 591.645 516.523
1886 0 90.4301 14.7517 1334 55.6319 591.421 517.122
1887 0 90.5738 14.651 1327 57.3519 591.71 513.754
1888 0 93.6762 14.7529 1382 57.5058 591.342 513.306
1889 0 96.491 15.4729 1493 56.6417 591.382 513.786
1890 0 98.6569 14.819 1462 57.7373 591.341 511.441
1891 0 104.312 15.0222 1567 57.0498 591.488 511.5
1892 0 107.488 15.6575 1683 56.738 591.32 510.289
1893 0 107.762 14.6991 1584 58.7039 591.061 507.886
1894 0 110.57 15.0764 1667 58.5645 590.104 504.795
1895 0 110.32 13.7146 1513 61.0912 589.925 503.116
1896 0 119.615 15.4245 1845 57.8537 590.134 503.893
1897 0 122.434 15.2163 1863 58.6967 590.921 499.062
1898 0 126.637 14.8613 1882 59.0898 589.543 499.756
1899 0 129.558 14.7193 1907 59.8107 589.588 495.772
1900 0 134.502 14.5946 1963 59.8813 589.365 495.772
1901 0 137.404 14.3519 1972 60.4457 589.118 493.974
1902 0 143.539 15.9469 2289 58.3478 588.977 490.206
1903 0 147.296 14.5014 2136 60.5857 588.479 486.698
1904 0 154.611 15.5229 2400 58.8312 589.521 487.264
1905 0 161.608 16.0822 2599 57.99 589.077 482.958
1906 0 168.708 15.7195 2652 58.3888 588.907 478.235
1907 0 173.53 15.7725 2737 58.2627 588.639 475.93
1908 0 179.497 15.315 2749 58.9436 588.475 471.435
1909 0 185.514 16.0258 2973 58.0649 588.01 472.055
1910 0 193.654 16.7618 3246 56.9529 587.922 468.993
1911 0 199.622 15.1186 3018 59.4228 588.003 464.057
1912 0 203.675 16.271 3314 58.14 588.105 461.591
1913 0 212.603 16.9706 3608 57.1505 588.475 459.031
1914 0 217.75 16.1515 3517 58.3173 588.229 455.572
1915 0 226.608 16.416 3720 58.1656 588.15 449.716
1916 1 52.3598 9.93128 520 57.8019 588.967 535.567
1917 0 53.2706 10.212 544 57.6985 588.594 536.678
1918 0 56.2209 10.6544 599 57.0668 588.411 536.284
1919 0 59.26 11.9305 707 56.8883 588.361 533.662
1920 0 60.3952 13.1799 796 55.6545 589.403 531.156
1921 0 64.2942 13.0494 839 55.9917 588.439 531.569
1922 0 65.4225 13.023 852 56.5516 588.041 530.83
1923 0 64.4983 12.636 815 57.8945 587.948 527.935
1924 0 69.7319 12.6771 884 57.0362 587.824 527.514
1925 0 72.5507 13.0943 950 56.8116 587.296 525.677
1926 0 73.8505 13.243 978 56.3763 587.246 522.401
1927 0 75.568 12.3333 932 57.8294 587.784 524.033
1928 0 77.4764 11.9778 928 58.5356 587.867 522.541
1929 0 81.8082 13.7884 1128 56.1569 587.307 522.645
1930 0 83.5169 13.9612 1166 56.3233 587.9 521.804
1931 0 85.7421 13.4706 1155 57.4286 587.655 519.972
1932 0 88.8415 13.2596 1178 57.6868 587.502 516.372
1933 0 91.6718 13.3629 1225 57.6612 587.567 515.606
1934 1 51.676 12.0559 623 57.0915 588.119 537.355
1935 0 52.4949 11.6583 612 57.9755 587.871 536.337
1936 0 52.5548 10.6175 558 59.5358 588.045 533.633
1937 0 57.7711 11.736 678 57.9941 588.111 534.928
1938 0 56.8218 12.636 718 57.5167 588.311 534.567
1939 0 60.972 13.908 848 56.0177 588.547 532.02
1940 0 60.7044 13.5246 821 57.1011 588.788 532.301
1941 0 65.0731 13.4772 877 56.748 588.723 531.237
1942 0 66.9768 13.4823 903 56.371 588.494 527.85
1943 0 67.8941 13.8304 939 56.7796 588.674 527.914
1944 0 70.773 13.9036 984 56.6179 588.568 526.855
1945 0 72.8225 13.6908 997 55.2548 588.675 526.37
1946 0 74.6782 13.7523 1027 55.6203 589.094 523.59
1947 0 75.5381 14.774 1116 54.9919 588.788 522.79
1948 0 78.8538 14.4698 1141 55.1297 589.32 521.149
1949 0 80.6724 15.1601 1223 54.9141 588.891 519.102
1950 0 82.6395 14.3273 1184 56.0743 589.144 517.989
1951 0 84.7395 14.5859 1236 55.6796 589.339 517.135
1952 0 86.5941 14.5737 1262 56.3059 589.138 516.99
1953 0 87.6227 14.3342 1256 57.4315 590.177 514.943
1954 0 92.6379 14.9183 1382 56.2236 590.3 514.166
1955 0 93.7171 14.0743 1319 57.4867 590.662 511.177
1956 0 98.7016 14.7414 1455 56.1938 590.43 511.139
1957 0 100.681 14.1834 1428 57.2528 590.777 509.284
1958 0 105.789 15.0488 1592 55.9698 590.896 509.117
1959 0 105.644 15.1168 1597 56.6544 590.96 504.323
1960 0 109.055 14.048 1532 57.8858 591.409 504.476
1961 0 113.543 14.3822 1633 57.3062 591.35 501.898
1962 0 115.917 14.7002 1704 57.0029 590.762 501.208
1963 0 121.667 15.3287 1865 56.0456 591.202 502.249
1964 0 123.703 15.1897 1879 56.8574 590.952 497.194
1965 0 127.748 15.7655 2014 56.1286 591.11 496.176
1966 0 130.698 15.3254 2003 56.9056 591.607 492.367
1967 1 76.6465 11.964 917 59.1756 591.733 521.212
1968 0 78.6668 12.394 975 57.6021 592.167 520.889
1969 0 83.6296 12.7826 1069 58.0065 592.208 518.217
1970 0 85.6438 13.4978 1156 57.7958 592.509 515.707
1971 0 86.6476 14.1031 1222 57.617 592.665 512.196
1972 0 91.7538 15.5089 1423 55.3746 592.575 510.92
1973 0 95.9403 14.3318 1375 56.3564 592.619 511.807
1974 0 98.7401 14.8876 1470 55.8259 592.941 509.956
1975 0 100.866 14.5144 1464 56.3545 593.391 507.085
1976 0 103.801 13.8149 1434 57.1185 593.411 506.609
1977 0 106.981 13.9464 1492 57.1381 593.84 503.599
1978 0 110.539 14.8274 1639 56.1293 594.288 501.375
1979 0 111.642 14.233 1589 57.107 593.977 498.894
1980 0 116.799 14.3151 1672 56.8445 594.724 497.667
1981 0 122.218 14.9486 1827 55.6114 594.107 496.583
1982 0 124.038 14.7212 1826 56.3823 594.327 494.606
1983 0 127.895 15.0358 1923 55.9693 594.511 490.993
1984 0 132.922 15.3699 2043 55.9143 594.435 489.697
1985 0 137.979 15.1109 2085 56.1942 594.185 487.946
1986 0 138.861 14.7126 2043 57.07 594.165 487.013
1987 0 143.604 15.3617 2206 56.597 594.114 481.836
1988 0 150.968 15.3013 2310 56.4316 593.848 481.788
1989 0 155.047 14.7891 2293 57.0427 593.582 481.166
1990 0 160.579 15.6247 2509 56.6198 593.571 477.896
1991 0 164.954 14.8041 2442 57.6155 593.984 475.658
1992 0 168.794 15.0005 2532 57.8061 594.006 471.23
1993 0 177.895 16.0825 2861 56.4362 593.617 469.958
1994 0 182.024 15.3936 2802 57.3708 593.485 467.385
1995 0 186.967 14.9812 2801 58.6908 593.082 463.635
1996 0 194.851 16.2329 3163 57.1369 593.11 458.947
1997 0 199.763 15.5984 3116 58.1717 592.716 456.117
1998 0 205.85 14.9575 3079 59.0377 592.791 450.843
1999 0 213.78 15.0108 3209 59.0798 592.859 449.283
2000 1 161.717 12.93 2091 60.6083 592.951 479.712
2001 0 167.844 14.0667 2361 59.7823 592.604 475.762
2002 0 173.885 14.5154 2524 59.3185 592.221 469.782
2003 0 180.765 14.3224 2589 58.9216 591.525 469.129
2004 0 185.981 14.7004 2734 58.7334 591.409 465.94
2005 0 191.682 14.6753 2813 59.3782 591.396 461.825
2006 0 198.854 15.006 2984 59.0349 591.732 460.012
2007 0 206.737 14.7095 3041 59.5268 591.867 452.296
2008 0 212.009 13.7966 2925 60.4954 591.747 449.869
2009 0 220.944 14.5783 3221 59.4672 592.068 446.88
2010 1 57.1258 10.8532 620 56.8161 591.95 527.61
2011 0 59.7842 11.8091 706 54.898 592.001 528.408
2012 0 60.7338 12.2008 741 55.1457 592.013 527.073
2013 0 61.732 13.1374 811 54.5055 591.842 524.58
2014 0 65.9167 13.5171 891 54.0696 591.325 523.498
2015 0 65.5583 12.6147 827 55.7763 590.935 523.482
2016 0 67.7131 12.4348 842 56.2185 591.164 522.741
2017 0 68.7908 12.807 881 56.4132 591.163 521.168
2018 0 72.6773 13.099 952 55.5011 591.203 522.021
2019 0 73.7125 13.824 1019 54.9578 590.674 518.609
2020 0 75.6816 13.2397 1002 56.2136 590.898 517.415
2021 0 79.6218 13.2376 1054 55.7818 590.816 517.431
2022 0 82.4396 14.4227 1189 54.6964 590.971 515.065
2023 0 82.6404 13.2139 1092 56.6282 591.361 513.223
2024 0 88.4049 13.4269 1187 55.2148 591.149 515.339
2025 1 54.2499 9.47468 514 55.8735 591.267 533.681
2026 0 52.214 10.4187 544 56.3824 591.632 533.066
2027 0 57.1718 11.7715 673 54.0149 590.542 531.811
2028 0 55.1213 10.6492 587 55.7019 591.451 532.801
2029 0 57.2718 12.0129 688 55.2805 590.167 532.445
2030 0 59.1207 12.8043 757 54.4901 591.085 530.664
2031 0 60.1591 11.9516 719 55.8248 592.061 529.944
2032 0 61.2467 12.017 736 55.8084 591.56 531.02
2033 0 64.3054 13.1871 848 54.9139 590.903 530.6
2034 0 66.3793 12.293 816 56.1336 590.276 529.507
2035 0 67.4177 13.2606 894 55.8714 590.022 529.623
2036 0 69.5929 13.0761 910 56.0813 590.173 527.131
2037 0 71.4392 13.34 953 55.4911 589.957 527.002
2038 0 73.335 12.9133 947 56.4889 590.353 524.005
2039 0 75.4623 12.8408 969 56.4056 590.047 524.828
2040 0 76.3467 13.9364 1064 55.4981 589.944 523.756
2041 0 80.2381 13.7092 1100 55.5527 590.27 523.611
2042 0 82.2499 13.5927 1118 55.6547 590.027 520.503
2043 0 86.3908 14.145 1222 54.7586 589.08 520.065
2044 0 87.4856 13.7165 1200 55.7358 589.329 517.745
2045 0 88.2798 12.3924 1094 57.4424 588.934 515.548
2046 0 95.2315 13.3569 1272 55.6187 589.122 514.91
2047 0 96.3704 13.8943 1339 55.3966 589.758 512.555
2048 0 103.282 15.0268 1552 53.2088 589.546 512.288
2049 0 106.365 13.9426 1483 54.7795 589.529 510.836
2050 0 108.313 14.6612 1588 54.0844 589.98 507.999
2051 0 112.362 13.4655 1513 54.881 589.048 508.288
2052 1 66.1944 11.1037 735 54.9401 589.532 530.219
2053 0 66.2499 11.034 731 56.7934 590.222 527.008
2054 0 70.2883 12.1926 857 56.2299 589.816 527.751
2055 0 72.258 12.1232 876 56.4954 589.621 526.217
2056 0 73.1612 12.0556 882 57.068 589.243 525.759
2057 0 75.2095 12.8308 965 56.5658 588.97 523.702
2058 0 79.2933 12.561 996 56.1074 588.807 524.155
2059 0 82.3916 12.4527 1026 55.8899 588.985 523.76
2060 0 83.3495 13.5574 1130 54.8513 588.75 524.296
2061 0 87.4082 13.1795 1152 55.6146 588.943 519.31
2062 0 89.2487 12.7397 1137 55.7326 589.098 518.32
2063 0 93.3626 12.8317 1198 55.6912 588.816 516.607
2064 0 95.297 13.0434 1243 55.6066 588.682 515.265
2065 0 95.297 13.0434 1243 155.793 587.682 515.265
2066 0 101.349 12.1561 1232 57.1128 588.135 511.291
2067 0 105.364 12.6514 1333 56.3826 588.96 512.416
2068 0 111.42 13.7677 1534 54.8748 588.636 511.42
2069 0 110.394 13.6058 1502 56.3915 589.4 507.861
2070 0 116.271 14.191 1650 55.6642 588.915 507.07
2071 0 118.413 13.5881 1609 56.3971 589.658 504.301
2072 0 121.18 14.0369 1701 56.8207 589.831 504.822
2073 1 69.1085 9.23187 638 59.4953 590.227 528.516
2074 0 75.1894 12.1028 910 56.0253 590.304 527.23
2075 0 74.1124 11.523 854 58.1967 590.061 526.714
2076 0 77.1013 13.0607 1007 56.0755 590.026 525.219
2077 0 79.1858 11.5804 917 58.819 590.348 522.609
2078 0 80.1887 12.7699 1024 57.543 590.131 523.424
2079 0 84.0724 13.1672 1107 57.0533 590.158 520.947
2080 0 85.0934 12.88 1096 58.1414 590.292 520.287
2081 0 87.1644 12.746 1111 58.6355 590.496 518.375
2082 0 92.1556 13.8678 1278 57.1698 590.11 516.621
2083 0 94.2765 13.1846 1243 58.2591 591.043 517.52
2084 0 95.2657 13.3626 1273 59.117 591.36 512.727
2085 0 99.2941 13.0421 1295 59.8664 591.372 511.954
2086 0 103.231 14.6081 1508 57.3422 591.812 511.674
2087 0 104.216 14.0765 1467 58.9407 591.804 509.273
2088 0 107.354 13.721 1473 59.3415 592.237 508.041
2089 0 111.231 14.2406 1584 59.0158 592.283 508.334
2090 0 113.375 14.0419 1592 59.8411 592.724 503.883
2091 0 115.287 14.4942 1671 59.7289 592.84 501.071
2092 0 121.323 15.2815 1854 58.9682 593.028 500.324
2093 0 121.307 14.1624 1718 61.4255 593.072 498.406
2094 0 125.275 14.1209 1769 61.7456 593.041 494.765
2095 0 130.562 14.0623 1836 61.7495 593.204 494.089
2096 0 134.435 14.2225 1912 61.3196 593.127 492.478
2097 1 78.2442 11.3746 890 61.8708 593.249 520.637
2098 0 81.3751 11.2442 915 61.9847 593.108 520.197
2099 0 83.2454 11.7004 974 61.614 592.867 517.066
2100 0 83.2816 12.1516 1012 61.9249 592.936 516.742
2101 0 88.2069 13.1396 1159 59.9672 593.445 517.399
2102 0 91.1316 13.3433 1216 59.9227 593.633 516.351
2103 0 94.1906 13.2285 1246 60.0104 593.82 512.855
2104 0 96.1804 12.7573 1227 61.0285 594.13 512.713
2105 0 98.194 13.1678 1293 60.6837 594.283 509.86
2106 0 102.252 13.6232 1393 60.3754 594.707 508.621
2107 0 103.111 12.7727 1317 61.8162 594.52 505.811
2108 0 109.074 13.2204 1442 61.0229 594.584 504.293
2109 0 109.17 13.566 1481 61.2748 594.539 502.296
2110 0 115.111 14.03 1615 59.8266 594.684 501.072
2111 0 117.135 14.1034 1652 59.9237 594.667 499.134
2112 0 123.177 14.3127 1763 58.6217 594.674 499.972
2113 0 125.181 13.836 1732 59.9457 595.246 494.961
2114 0 127.136 13.513 1718 60.4616 594.633 492.033
2115 0 133.295 13.4363 1791 60.0123 594.802 493.176
2116 0 136.389 14.1287 1927 58.7385 594.504 489.756
2117 0 140.122 14.2519 1997 58.1337 594.414 487.819
2118 0 145.334 14.5183 2110 58.0825 594.319 484.51
2119 0 151.38 14.1828 2147 58.0321 593.9 484.489
2120 0 155.348 14.5029 2253 57.8118 593.621 480.113
2121 0 158.27 15.0123 2376 57.279 593.579 478.133
2122 0 165.453 15.1886 2513 56.885 593.37 475.484
2123 0 171.296 15.3244 2625 56.5726 592.95 474.157
2124 0 177.413 15.044 2669 56.985 592.821 471.258
2125 0 182.468 14.397 2627 57.3255 592.886 466.617
2126 0 187.387 15.4547 2896 56.2756 592.607 463.215
2127 0 192.39 14.4498 2780 57.523 592.279 462.108
2128 0 198.308 15.5112 3076 55.9932 592.26 460.573
2129 0 204.31 15.2758 3121 56.5146 592.295 454.561
2130 0 212.487 15.7657 3350 55.6546 592.245 451.69
2131 0 219.521 15.2514 3348 56.2392 591.926 448.79
2132 1 56.1014 9.76803 548 52.4945 591.447 530.912
2133 0 59.1164 10.7754 637 50.1915 590.019 531.765
2134 0 60.0245 11.0122 661 51.4493 590.531 529.165
2135 0 61.0768 10.9534 669 51.6951 591.631 531.688
2136 0 64.1766 12.8396 824 49.2888 591.541 531.007
2137 0 63.1996 10.9494 692 52.0997 590.952 530.189
2138 0 65.3139 11.5289 753 51.166 591.486 531.754
2139 0 68.0811 12.162 828 51.2283 591.26 529.036
2140 0 69.018 11.6926 807 52.1314 590.8 526.511
2141 0 71.1047 12.5449 892 51.3823 590.683 527.781
2142 0 73.1466 12.7279 931 51.783 590.103 525.786
2143 0 75.2771 11.823 890 53.0539 590.016 523.653
2144 0 79.1258 12.2337 968 52.595 590.494 522.843
2145 0 79.1354 11.6256 920 53.9326 590.197 523.967
2146 0 82.1486 11.9539 982 53.5631 590.235 520.738
2147 0 85.1502 12.3429 1051 53.4091 590.13 518.762
2148 0 87.1037 11.6872 1018 54.9931 590.84 518.177
2149 0 90.3281 13.0524 1179 52.9092 590.161 520.681
2150 0 89.1308 12.218 1089 54.7952 589.705 515.861
2151 0 91.1719 11.8787 1083 55.952 589.644 515.047
2152 0 97.248 11.9797 1165 56.0326 589.695 512.952
2153 1 58.0745 8.73017 507 54.8087 589.126 535.118
2154 0 62.0572 9.50735 590 54.322 589.424 531.636
2155 0 63.2496 11.1463 705 52.5972 589.786 530.074
2156 0 68.2555 12.0283 821 51.6297 590.374 529.574
2157 0 68.2176 11.9764 817 51.7479 590.483 530.726
2158 0 68.1688 12.2637 836 52.3146 591.24 529.359
2159 0 70.1321 11.5924 813 53.4674 590.07 528.121
2160 0 74.1709 12.3499 916 52.5862 589.962 528.285
2161 0 73.214 12.6342 925 53.0746 590.614 523.814
2162 0 76.0536 11.8601 902 53.7162 590.442 526.518
2163 0 77.126 12.9528 999 53.2973 589.714 525.099
2164 0 78.0799 13.2685 1036 53.166 590.05 525.668
2165 0 80.1039 12.1218 971 55.1236 589.142 524.614
2166 0 82.1171 12.5674 1032 54.2713 588.655 525.329
2167 0 85.1315 12.6275 1075 54.5423 588.712 522.833
2168 0 87.2467 13.1237 1145 54.2166 587.89 520.731
2169 0 86.1119 12.1238 1044 56.067 587.427 520.142
2170 0 90.0932 12.3983 1117 55.8442 587.588 517.351
2171 0 93.2533 13.9727 1303 53.2433 587.838 516.973
2172 0 95.2057 12.6568 1205 55.3793 587.53 515.216
2173 0 99.2602 13.3588 1326 54.7828 587.572 514.23
2174 0 102.315 14.1328 1446 53.7593 588.075 514.411
2175 0 106.403 13.759 1464 54.1462 587.321 510.889
2176 1 62.2399 10.8451 675 54.917 587.449 533.145
2177 0 64.0998 10.3744 665 55.5263 587.194 533.131
2178 0 67.1887 11.5198 774 54.5556 587.005 530.904
2179 0 68.1628 12.1767 830 54.0964 588.171 529.84
2180 0 70.1361 11.8627 832 54.4736 588.2 529.339
2181 0 72.0622 11.8092 851 54.5029 588.541 527.753
2182 0 73.0958 11.9159 871 54.884 588.354 526.176
2183 0 74.0757 12.2442 907 54.8026 588.452 526.646
2184 0 76.136 12.7798 973 54.3957 589.044 526.288
2185 0 78.0658 12.7713 997 54.7081 589.274 520.715
2186 0 80.189 11.9592 959 55.5214 589.223 520.624
2187 0 85.0908 13.5855 1156 53.5856 589.374 520.645
2188 0 86.2149 13.7331 1184 54.1858 589.506 518.877
2189 0 89.1956 14.115 1259 53.8952 589.774 517.386
2190 0 92.3441 13.6013 1256 54.6752 589.661 516.215
2191 0 95.2171 14.0941 1342 54.0574 589.455 516.534
2192 0 96.216 13.6152 1310 55.742 590.071 512.564
2193 0 100.282 14.6287 1467 53.9686 590.001 513.874
2194 0 104.396 14.0905 1471 54.862 590.54 511.547
2195 0 105.318 13.2741 1398 56.2904 590.757 508.914
2196 0 107.243 13.6979 1469 55.8952 590.973 506.325
2197 0 112.201 14.2245 1596 54.5833 591.623 507.487
2198 0 115.262 14.0897 1624 55.7968 591.28 502.935
2199 0 119.449 14.9687 1788 55.005 591.457 501.814
2200 0 120.263 14.884 1790 55.6626 591.579 499.963
2201 0 125.308 14.8913 1866 55.4073 591.633 497.339
2202 0 130.243 14.949 1947 55.2799 591.786 496.62
2203 0 133.261 13.6349 1817 56.8332 592.347 494.887
2204 1 80.1702 10.8769 872 56.8177 592.103 522.718
2205 0 79.0692 11.5342 912 56.7018 592.43 519.175
2206 0 83.2093 11.9458 994 55.1258 592.789 520.276
2207 0 85.1848 12.1501 1035 55.7159 593.115 518.412
2208 0 87.2117 12.5557 1095 55.7653 593.306 516.45
2209 0 88.2599 12.7804 1128 55.9007 593.418 514.913
2210 0 93.2665 12.4375 1160 56.3569 593.706 513.504
2211 0 98.2226 13.2149 1298 55.3005 593.509 512.399
2212 0 97.1855 12.6253 1227 56.4482 593.649 508.504
2213 0 103.296 13.4371 1388 55.0367 593.802 509.973
2214 0 105.315 12.5148 1318 56.6259 593.766 507.225
2215 0 105.267 13.613 1433 55.9888 594.048 505.477
2216 0 109.23 12.6614 1383 56.867 594.244 503.623
2217 0 114.481 13.2249 1514 55.8137 594.512 502.754
2218 0 116.35 12.7203 1480 56.075 594.603 501.118
2219 0 119.377 13.3192 1590 55.8377 594.712 499.098
2220 0 124.471 13.7462 1711 54.844 594.773 496.141
2221 0 126.346 12.8774 1627 55.8703 594.227 494.451
2222 0 131.377 12.5745 1652 56.0515 594.906 491.007
2223 0 135.332 12.8056 1733 56.1171 594.649 488.07
2224 1 77.3336 11.0301 853 55.5475 594.727 519.641
2225 0 84.3545 11.7362 990 54.8636 594.525 515.701
2226 0 84.4668 11.4838 970 55.9825 594.286 514.391
2227 0 88.4775 12.5682 1112 54.9982 594.583 511.566
2228 0 91.3952 12.7359 1164 54.9442 594.841 512.507
2229 0 95.3731 12.7919 1220 56.0189 594.73 509.866
2230 0 100.569 13.2049 1328 55.4736 594.585 509.079
2231 0 102.637 12.9876 1333 56.7809 594.528 505.235
2232 0 104.548 13.4962 1411 56.781 594.665 503.893
2233 0 109.502 13.6162 1491 56.1455 594.286 503.554
2234 0 113.433 13.7438 1559 56.306 594.525 499.418
2235 0 115.45 13.6509 1576 57.2944 594.099 498.273
2236 0 120.431 13.3271 1605 57.6511 594.218 499.202
2237 0 124.356 14.2011 1766 57.1087 593.763 495.635
2238 0 127.589 13.7865 1759 57.7646 593.998 493.632
2239 1 69.379 10.1616 705 59.6255 593.728 525.36
2240 0 72.2219 11.1462 805 59.0758 593.717 522.99
2241 0 74.2374 11.4902 853 58.7479 593.586 522.996
2242 0 76.1284 11.5988 883 59.4564 593.05 522.702
2243 0 78.2525 12.9836 1016 58.2451 593.098 519.427
2244 0 80.1946 13.355 1071 58.2988 594.434 517.823
2245 0 84.3233 13.3059 1122 58.557 594.102 516.227
2246 0 87.3167 14.476 1264 56.7334 593.774 517.305
2247 0 88.2083 13.4681 1188 58.4579 593.48 514.246
2248 0 93.2782 13.6152 1270 57.8953 593.736 513.922
2249 0 95.3465 13.6869 1305 58.3571 593.683 511.523
2250 0 96.2187 13.9474 1342 58.2027 593.384 511.499
2251 0 100.368 13.4904 1354 58.7836 593.01 510.447
2252 0 103.245 13.2404 1367 58.9078 592.831 509.676
2253 0 104.281 13.3294 1390 59.259 592.759 508.276
2254 0 107.33 13.575 1457 59.1613 592.845 506.141
2255 0 113.232 15.2519 1727 56.5182 592.624 502.433
2256 0 117.227 14.1094 1654 58.0193 592.317 502.979
2257 0 119.188 14.2128 1694 57.7763 592.246 502.253
2258 0 121.19 13.9781 1694 58.281 592.415 500.157
2259 0 126.218 14.2927 1804 57.3886 592.067 499.697
2260 1 71.2182 11.205 798 60.0602 591.987 525.49
2261 0 75.1156 12.5007 939 57.8051 591.823 525.675
2262 0 77.1172 12.7468 983 58.2665 591.834 523.928
2263 0 80.1048 13.1203 1051 57.6318 592.188 519.861
2264 0 82.1195 13.7604 1130 56.8832 592.775 520.64
2265 0 84.1362 14.0843 1185 56.6776 592.95 518.069
2266 0 85.0833 13.5749 1155 57.7247 592.484 516.041
2267 0 87.1167 12.9711 1130 58.1867 592.41 516.644
2268 0 90.2032 13.4031 1209 57.8834 592.118 515.888
2269 0 92.1862 13.2666 1223 58.0965 591.602 511.887
2270 0 97.1453 14.7717 1435 56.0885 591.666 513.379
2271 0 97.1034 13.326 1294 58.7403 591.362 512.009
2272 0 102.179 14.553 1487 57.0646 591.182 509.841
2273 0 104.223 14.0564 1465 57.9754 591.345 508.829
2274 0 106.104 14.4952 1538 57.7022 591.376 508.625
2275 0 109.123 13.9567 1523 58.5745 591.808 507.622
2276 0 113.141 14.6367 1656 57.7295 591.791 505.949
2277 0 117.084 14.2974 1674 57.954 591.692 505.688
2278 0 118.118 14.8834 1758 57.6234 591.354 502.055
2279 0 122.207 15.7356 1923 56.4566 591.109 503.53
2280 0 124.266 14.6782 1824 58.0998 590.522 498.594
2281 1 70.1499 11.8318 830 57.9687 590.742 528.237
2282 0 72.1295 12.436 897 58.2029 590.087 526.031
2283 0 75.1465 13.8662 1042 56.4175 590.212 527.293
2284 0 75.0575 13.3231 1000 57.79 591.041 523.966
2285 0 81.1784 14.6221 1187 55.8054 590.134 525.204
2286 0 82.0977 14.1295 1160 56.8224 590.477 524.01
2287 0 85.164 12.7401 1085 58.6765 590.269 522.947
2288 0 86.2517 14.1678 1222 57.6227 589.959 519.444
2289 0 90.2053 13.4249 1211 58.1437 589.896 520.37
2290 0 93.0684 14.484 1348 57.4852 589.463 516.52
2291 0 94.2466 14.653 1381 58.0355 589.713 515.164
2292 0 99.1495 15.1287 1500 56.7813 589.493 517.066
2293 0 100.232 14.8057 1484 57.7466 589.063 516.193
2294 0 103.211 13.8066 1425 59.2632 589.264 513.096
2295 0 103.195 12.7913 1320 61.2788 589.317 511.24
2296 0 108.104 13.783 1490 59.5906 589.195 511.564
2297 0 112.125 14.3322 1607 58.8395 589.448 508.74
2298 0 114.23 13.3503 1525 60.6911 589.482 508.776
2299 0 118.354 15.4029 1823 58.4652 589.613 505.569
2300 0 121.385 13.865 1683 60.2751 589.33 502.021
2301 0 128.348 14.3984 1848 59.1883 589.302 499.767
2302 0 130.509 13.7232 1791 59.8135 589.159 499.126
2303 0 135.806 14.3734 1952 59.2141 589.025 493.769
2304 0 141.429 14.304 2023 58.9768 589.363 494.756
2305 0 147.411 15.9961 2358 56.7807 589.166 491.162
2306 1 83.4012 10.9471 913 59.4469 589.533 524.772
2307 0 85.1437 11.1693 951 59.5184 589.101 522.992
2308 0 91.2828 12.6859 1158 58.0535 589.107 520.522
2309 0 91.2878 12.2579 1119 58.8409 589.677 519.077
2310 0 98.2052 12.6164 1239 57.912 589.892 517.003
2311 0 101.39 13.0979 1328 57.6574 590.228 516.281
2312 0 102.158 13.068 1335 58.6292 590.357 512.562
2313 0 104.172 13.2569 1381 58.7509 590.479 511.098
2314 0 108.265 14.0397 1520 57.7757 590.58 510.462
2315 0 112.25 14.04 1576 58.2405 590.675 508.6
2316 0 115.312 13.6499 1574 58.5769 590.555 506.503
2317 0 119.375 12.9257 1543 60.1996 591.16 501.734
2318 0 123.262 13.3375 1644 59.8978 591.124 502.536
2319 0 128.367 13.5471 1739 60.1075 590.91 499.072
2320 0 131.307 14.1729 1861 59.6556 591.03 493.498
2321 0 137.588 14.3908 1980 59.554 591.088 491.286
2322 0 140.612 13.6617 1921 61.013 591.221 489.931
2323 0 143.442 14.1729 2033 61.1515 591.365 486.972
2324 0 148.443 13.6752 2030 62.2626 591.425 486.136
2325 0 152.473 13.6877 2087 62.3445 591.874 483.954
2326 0 157.547 13.6214 2146 62.5494 592.223 483.141
2327 0 162.595 13.5798 2208 63.3764 591.923 479.723
2328 0 168.631 14.3272 2416 62.8754 592.037 473.774
2329 0 173.553 14.6929 2550 62.898 592.323 467.81
2330 0 180.642 15.2567 2756 61.5755 592.606 468.018
2331 0 183.768 14.3333 2634 63.8238 592.592 463.069
2332 0 191.573 14.9394 2862 62.8609 593 461.584
2333 1 150.731 12.6517 1907 64.828 593.304 485.999
2334 0 156.017 13.0755 2040 64.7676 593.45 480.391
2335 0 159.738 13.7663 2199 64.4079 593.272 477.312
2336 0 166.748 14.6568 2444 63.3191 593.169 474.753
2337 0 169.757 14.4737 2457 63.7643 593.369 470.74
2338 0 177.969 14.0698 2504 63.7344 593.254 468.367
2339 0 182.006 13.9666 2542 64.664 593.266 464.146
2340 0 188.796 14.0575 2654 64.3482 593.456 461.971
2341 0 194.712 14.8784 2897 63.5057 593.686 457.216
2342 0 199.653 14.5953 2914 63.6496 594.163 455.489
2343 0 207.016 14.3757 2976 63.7732 594.554 450.941
2344 0 214.957 15.1658 3260 62.7181 594.571 446.678
2345 0 223.856 14.9784 3353 62.6985 594.458 442.021
2346 0 232.14 14.543 3376 62.9132 594.329 440.87
2347 0 181.785 11.1725 2031 63.4584 595.063 478.303
2348 0 181.872 12.4318 2261 63.0451 594.584 470.862
2349 1 66.6884 12.9708 865 59.4092 594.262 521.442
2350 0 69.5461 12.4665 867 59.9746 594.451 521.689
2351 0 70.6431 13.6177 962 58.5707 594.696 517.904
2352 0 72.6213 12.8337 932 59.5805 595.278 516.585
2353 0 75.6357 13.2213 1000 58.751 595.195 516.88
2354 0 78.5585 12.8949 1013 59.4719 594.787 513.639
2355 0 81.6341 13.8178 1128 58.5904 594.759 515.09
2356 0 82.5178 13.185 1088 59.2197 594.484 512.995
2357 0 84.7685 13.6607 1158 58.3843 595.034 513.37
2358 0 85.6424 12.4821 1069 60.6296 594.999 510.501
2359 0 88.8287 13.6442 1212 59.08 593.983 511.408
2360 0 91.7369 14.2691 1309 58.9374 594.571 508.692
2361 0 95.8091 13.5895 1302 59.2527 594.386 508.899
2362 0 97.7429 13.7299 1342 59.0917 594.269 506.27
2363 0 101.369 13.7419 1393 58.6181 594.556 505.363
2364 0 101.672 14.2615 1450 58.4448 593.873 502.984
2365 0 105.381 13.4274 1415 59.3965 593.496 501.671
2366 0 109.492 13.6083 1490 58.553 593.393 499.532
2367 0 112.535 14.2 1598 57.878 593.384 499.713
2368 0 118.602 15.1768 1800 56.0294 592.969 495.797
2369 0 120.471 14.6177 1761 57.0483 593.322 495.06
2370 0 124.456 14.6959 1829 56.8147 592.961 492.605
2371 0 128.363 13.9293 1788 57.6096 593.225 489.194
2372 0 134.417 15.5337 2088 55.2773 592.67 490.07
2373 1 76.4163 12.7329 973 57.2097 592.421 516.628
2374 0 78.3015 11.5962 908 57.9108 592.345 516.26
2375 0 80.3041 13.4862 1083 56.4081 592.341 514.541
2376 0 82.3238 13.8963 1144 56.0385 592.632 512.928
2377 0 84.3548 12.8386 1083 57.3361 592.02 511.994
2378 0 87.4704 13.7532 1203 56.4007 592.273 511.135
2379 0 89.3395 14.3833 1285 55.1035 592.334 509.729
2380 0 93.2882 13.7424 1282 56.1076 592.075 508.75
2381 0 94.4247 14.3607 1356 56.1763 592.29 507.342
2382 0 94.3375 13.8757 1309 54.8304 592.082 506.574
2383 0 99.443 13.7667 1369 54.4018 592.324 505.863
2384 0 103.409 13.6932 1416 54.7648 592.635 505.521
2385 0 106.48 14.0214 1493 54.3449 592.338 504.986
2386 0 105.297 14.065 1481 55.3876 592.242 502
2387 0 109.367 13.4868 1475 56.2136 592.12 502.824
2388 0 114.424 14.2715 1633 55.6485 592.279 501.122
2389 0 117.309 14.0057 1643 55.8497 591.888 500.088
2390 0 119.149 14.4022 1716 55.7867 591.756 499.957
2391 0 124.148 14.9337 1854 55.1386 592.024 499.045
2392 0 127.193 13.8609 1763 56.1605 592.11 496.165
2393 0 131.299 14.2423 1870 55.577 591.761 494.449
2394 0 135.257 14.1139 1909 55.7061 591.745 490.556
2395 0 139.234 14.0698 1959 55.7586 591.084 490.768
2396 0 144.284 14.7487 2128 54.7641 591.319 487.527
2397 0 148.259 14.3735 2131 55.6476 591.595 484.051
2398 0 155.193 14.453 2243 54.9893 591.653 483.234
2399 0 158.205 14.0767 2227 55.5487 590.965 481.926
2400 1 89.1506 11.4413 1020 55.3676 591.292 516.565
2401 0 93.1043 12.5773 1171 54.7754 590.635 510.967
2402 0 98.2082 13.4001 1316 53.3678 590.786 512.165
2403 0 99.2471 13.1591 1306 54.1838 590.157 510.167
2404 0 101.176 12.7797 1293 54.5104 590.079 509.969
2405 0 107.204 14.0013 1501 53.0433 589.963 509.051
2406 0 109.133 13.2224 1443 53.8697 589.645 507.4
2407 0 113.169 13.9703 1581 53.4124 589.832 503.61
2408 0 116.155 13.1204 1524 54.5958 589.586 502.976
2409 0 120.24 14.0469 1689 53.0758 590.258 503.548
2410 0 121.283 13.9014 1686 54.1732 589.986 499.241
2411 0 124.189 13.4151 1666 55.0066 589.188 496.337
2412 0 132.257 14.124 1868 53.4914 589.864 497.117
2413 0 136.587 14.5914 1993 53.4476 589.364 495.685
2414 0 138.349 14.0948 1950 54.2851 589.37 490.785
2415 0 143.356 14.5023 2079 54.1419 589.43 487.709
2416 0 149.212 14.3621 2143 54.1339 589.379 488.046
2417 0 152.59 14.4898 2211 54.4889 589.206 485.415
2418 0 159.385 13.8595 2209 55.2698 589.273 482.389
2419 1 97.1249 10.6873 1038 53.9085 589.069 515.368
2420 0 100.158 11.4119 1143 54.266 589.506 510.987
2421 0 103.534 11.5518 1196 54.2709 590.018 508.838
2422 0 109.417 13.3617 1462 52.0732 589.997 510.544
2423 0 110.184 13.6227 1501 52.1799 589.254 510.474
2424 0 109.239 12.7885 1397 54.2591 589.12 504.121
2425 0 112.296 11.7546 1320 55.5515 589.212 505.392
2426 0 116.228 12.1055 1407 55.5643 588.854 502.276
2427 0 123.341 13.41 1654 53.9885 588.891 503.834
2428 0 126.209 13.3351 1683 54.1783 589.124 501.477
2429 0 130.271 13.0574 1701 54.291 589.068 499.173
2430 0 135.235 13.5099 1827 53.9239 588.986 493.334
2431 0 139.336 13.5213 1884 54.1874 589.494 492.085
2432 0 143.281 14.1609 2029 53.2543 589.488 494.401
2433 0 148.127 13.8868 2057 53.6096 589.688 489.61
2434 0 150.177 13.8836 2085 54.2695 589.909 484.926
2435 0 156.186 14.2138 2220 53.9203 589.864 483.79
2436 0 160.257 14.0836 2257 54.3226 590.237 481.097
2437 0 167.282 14.2334 2381 54.1478 590.277 481.811
2438 0 171.134 13.282 2273 55.8918 590.176 477.004
2439 0 175.298 13.7138 2404 55.7442 590.166 472.282
2440 0 183.371 14.7624 2707 54.8083 589.954 470.374
2441 0 188.278 13.9581 2628 55.8067 590.363 468.532
2442 0 194.403 15.4215 2998 54.4953 590.061 464.248
2443 0 199.549 13.9415 2782 57.1991 589.802 461.029
2444 0 206.59 14.4489 2985 57.2057 589.805 457.532
2445 0 214.521 14.8471 3185 57.0022 589.572 452.829
2446 0 220.577 14.6207 3225 57.3011 589.806 449.555
2447 0 227.763 15.1517 3451 56.7853 589.349 446.731
2448 0 233.572 15.2972 3573 57.016 589.906 442.225
2449 1 170.419 11.4013 1943 58.9907 590.553 480.587
2450 0 176.347 12.0274 2121 58.7685 590.632 477.046
2451 0 183.433 13.0893 2401 58.035 590.643 472.119
2452 0 187.447 14.8416 2782 56.4863 590.583 468.919
2453 0 193.586 14.2985 2768 57.5415 590.845 460.986
2454 0 202.532 13.6768 2770 57.6484 590.498 460.484
2455 0 209.514 14.2759 2991 56.0261 590.775 456.559
2456 0 215.413 13.755 2963 56.4965 590.634 451.096
2457 0 222.627 13.8662 3087 56.7609 591.038 448.031
2458 0 231.483 14.2775 3305 56.1976 591.136 441.185
2459 0 240.451 14.3314 3446 56.4495 591.137 440.833
2460 1 192.542 12.1532 2340 57.9359 591.914 462.6
2461 0 197.443 12.7277 2513 57.421 592.043 460.913
2462 0 203.635 13.7206 2794 56.99 592.243 457.928
2463 0 209.309 14.2373 2980 56.6755 592.318 455.276
2464 0 216.603 14.9259 3233 56.0854 592.598 451.184
2465 0 224.399 15.2006 3411 55.3864 592.97 447.661
2466 0 228.314 14.7122 3359 56.521 593.008 438.845
2467 0 235.344 15.1353 3562 56.1471 593.191 439.464
2468 0 243.705 15.0633 3671 55.678 593.518 432.576
2469 0 251.434 15.6224 3928 54.8427 593.81 430.818
2470 0 258.583 16.0567 4152 54.216 593.819 420.73
2471 0 266.545 16.2899 4342 54.3931 593.971 419.114
2472 0 274.512 16.4911 4527 54.0634 594.187 415.022
2473 0 283.704 15.9286 4519 54.5614 594.392 412.129
2474 1 73.2287 9.62738 705 50.7376 594.238 522.404
2475 0 76.3092 10.523 803 49.9103 594.512 522.159
2476 0 78.2421 10.6464 833 49.7131 594.864 521.655
2477 0 80.1656 11.2642 903 49.7951 593.477 519.781
2478 0 81.1984 11.0593 898 50.1837 593.708 517.987
2479 0 80.1242 9.75985 782 52.3785 593.54 516.417
2480 0 86.1932 10.9985 948 51.2131 593.307 516.84
2481 0 89.4118 11.1618 998 50.999 593.295 515.102
2482 0 91.1457 11.7394 1070 51.1972 593.551 513.484
2483 0 96.2065 12.8474 1236 50.339 593.961 512.167
2484 0 98.3117 12.0738 1187 52.0093 594.147 511.512
2485 0 98.5323 12.4629 1228 52.3681 594.055 508.546
2486 0 103.787 12.6701 1315 52.0935 593.998 507.61
2487 0 106.515 11.9607 1274 53.2496 594.138 503.833
2488 0 109.494 12.0554 1320 52.9886 593.832 503.477
2489 0 111.631 12.1382 1355 53.2362 593.759 502.348
2490 0 117.382 12.1739 1429 52.7068 593.272 496.852
2491 1 71.3299 9.47709 676 51.1494 593.373 525.365
2492 0 74.4792 10.6204 791 50.737 593.616 523.195
2493 0 75.3855 10.7713 812 51.3399 593.911 520.357
2494 0 75.5228 10.8444 819 51.6105 594.204 518.836
2495 0 77.7252 11.6822 908 51.4846 593.803 517.857
2496 0 79.481 11.4744 912 52.3114 593.63 517.98
2497 0 84.6705 13.5821 1150 49.7713 593.561 514.152
2498 0 82.4452 12.8449 1059 51.628 593.268 511.853
2499 0 84.5435 13.2476 1120 51.683 593.464 512.785
2500 0 86.6614 13.7547 1192 51.5713 593.325 511.992
2501 0 89.5852 13.4955 1209 52.3904 593.02 511.194
2502 0 91.5841 12.7205 1165 53.7339 592.579 511.278
2503 0 93.526 13.5898 1271 53.8773 592.667 508.405
2504 0 93.4746 13.5545 1267 53.8753 592.697 510.148
2505 0 96.4106 13.5255 1304 54.5675 592.557 507.093
2506 0 99.5005 13.206 1314 55.3151 592.139 506.362
2507 0 101.52 13.2093 1341 55.4154 592.169 504.857
2508 0 105.392 13.4355 1416 54.9562 592.227 504.73
2509 0 108.415 15.0717 1634 53.5612 592.2 502.854
2510 0 108.483 14.3064 1552 55.3067 592.309 500.626
2511 0 113.378 15.2498 1729 54.2348 592.242 498.045
2512 0 115.477 14.1153 1630 55.8288 592.225 498.709
2513 0 117.424 13.745 1614 56.8166 592.515 496.8
2514 0 120.422 13.6686 1646 57.3864 592.725 496.149
2515 0 126.666 15.7422 1994 54.173 592.627 492.94
2516 0 126.522 14.3216 1812 56.6512 592.656 492.565
2517 0 130.528 14.7784 1929 56.1379 591.964 490.72
2518 0 134.311 14.5781 1958 56.5312 591.232 489.931
2519 0 139.37 15.075 2101 55.1309 592.027 490.138
2520 0 142.244 14.44 2054 55.9805 591.446 491.684
2521 1 90.1647 11.0797 999 55.5796 591.747 517.999
2522 0 93.1334 12.6056 1174 54.2666 592.393 517.231
2523 0 94.2485 12.2124 1151 54.9826 591.798 516.031
2524 0 97.103 12.6052 1224 55.0359 591.704 513.442
2525 0 100.122 13.3337 1335 54.3139 591.875 512.231
2526 0 101.066 12.8035 1294 55.2249 591.414 509.335
2527 0 105.103 12.9682 1363 54.934 591.608 509.74
2528 0 108.232 12.5379 1357 55.7598 591.643 508.45
2529 0 111.275 12.8331 1428 55.2157 592.225 505.989
2530 0 114.223 13.3248 1522 55.1991 592.074 504.631
2531 0 118.277 14.3223 1694 54.3211 591.553 502.786
2532 0 121.331 14.0442 1704 54.9636 591.692 501.495
2533 0 124.486 13.367 1664 55.4531 591.203 497.725
2534 0 129.27 13.7077 1772 54.9955 590.993 496.235
2535 0 129.361 12.9096 1670 56.3976 590.973 494.678
2536 0 135.301 13.8801 1878 55.1262 591.045 490.656
2537 0 138.26 12.7658 1765 56.1275 590.712 491.404
2538 0 143.24 14.0953 2019 55.1768 591.302 488.39
2539 0 148.281 13.8858 2059 56.0544 590.895 487.66
2540 0 152.265 13.2992 2025 57.1437 591.218 482.938
2541 0 157.287 13.6756 2151 56.7476 591.341 481.914
2542 1 95.0877 10.8742 1034 55.7727 591.104 513.409
2543 0 97.1635 11.4858 1116 55.5072 590.954 512.206
2544 0 101.187 12.5312 1268 54.6191 590.427 510.787
2545 0 106.275 14.1519 1504 52.9555 590.221 511.011
2546 0 107.248 12.1028 1298 55.5254 590.361 507.426
2547 0 110.208 12.8938 1421 54.703 590.391 507.802
2548 0 113.335 12.6263 1431 54.7554 590.193 505.145
2549 0 115.269 11.8852 1370 55.8854 590.255 504.257
2550 0 118.138 13.2049 1560 54.5609 590.266 501.323
2551 0 124.227 12.6865 1576 54.4943 589.939 499.812
2552 0 125.263 11.903 1491 55.5788 590.031 498.618
2553 0 127.41 11.9064 1517 55.5129 590.04 493.839
2554 0 135.262 13.9433 1886 52.6257 590.259 495.445
2555 0 140.297 13.8421 1942 51.8028 590.06 495.284
2556 0 144.425 13.5988 1964 52.4664 590.183 492.084
2557 0 146.217 13.8561 2026 52.3633 590.329 488.529
2558 0 149.248 12.6836 1893 53.8125 590.158 486.559
2559 0 156.353 13.7701 2153 52.4696 590.214 483.4
2560 0 160.287 13.245 2123 53.2708 590.094 483.318
2561 0 165.227 14.5921 2411 52.2273 590.117 483.145
2562 0 169.309 13.9803 2367 53.0942 589.632 477.982
2563 0 177.354 14.9306 2648 52.1231 589.733 477.858
2564 0 181.306 13.7502 2493 53.6899 589.504 475.041
2565 0 185.358 14.9926 2779 53.1371 589.355 467.065
2566 0 191.193 14.1428 2704 54.784 589.499 469.114
2567 0 198.266 15.4288 3059 54.5499 589.299 467.608
2568 0 203.242 15.1839 3086 55.2916 589.451 460.448
2569 0 208.358 14.7631 3076 55.9477 589.548 455.759
2570 0 216.243 14.5716 3151 56.7388 589.45 455.238
2571 0 222.292 14.9398 3321 56.2186 589.663 454.417
2572 0 227.286 14.418 3277 57.2362 589.488 445.453
2573 0 230.287 15.5805 3588 55.9849 589.292 443.077
2574 1 58.0987 8.60604 500 53.784 588.792 535.94
2575 0 60.0636 11.8208 710 52.793 588.697 534
2576 0 62.1548 12.7424 792 52.0833 588.735 533.341
2577 0 63.1927 13.4509 850 51.6812 588.699 533.215
2578 0 65.1647 12.3226 803 52.3923 588.701 534.194
2579 0 67.18 12.8014 860 52.2977 588.766 532.88
2580 0 69.1173 12.3703 855 52.8515 588.568 531.991
2581 0 70.1466 12.1175 850 53.1259 588.799 529.559
2582 0 74.1945 13.4107 995 51.999 588.699 530.153
2583 0 77.1364 13.5085 1042 52.1027 588.933 528.466
2584 0 79.1673 12.2525 970 53.6526 589.096 527.345
2585 0 80.1739 13.4832 1081 52.3913 589.385 525.533
2586 0 81.1634 11.8526 962 55.5062 589.571 521.892
2587 0 83.1431 13.3866 1113 53.7574 589.266 524.096
2588 0 85.1575 12.9407 1102 54.6488 589.389 523.092
2589 0 87.1818 13.4776 1175 54.4247 589.36 519.112
2590 0 90.1941 13.0385 1176 54.8903 589.697 519.133
2591 0 92.1801 14.3849 1326 54.1591 589.98 514.914
2592 0 94.1866 13.1441 1238 55.6793 589.702 515.665
2593 0 97.1613 13.6474 1326 55.3673 589.91 514.035
2594 0 98.3432 14.246 1401 55.5125 590.088 511.273
2595 0 105.407 16.3461 1723 52.3825 590.289 506.378
2596 0 106.363 14.8924 1584 54.9306 590.321 508.271
2597 0 107.39 14.2657 1532 56.2213 590.346 509.179
2598 0 108.292 14.4148 1561 56.5125 590.923 506.901
2599 0 111.34 15.5559 1732 55.351 591.614 502.46
2600 0 116.435 16.5156 1923 54.3068 591.744 500.795
2601 0 118.424 15.4867 1834 56.0365 592.05 497.81
2602 0 121.561 16.0414 1950 55.6169 591.869 498.343
2603 0 126.329 15.3963 1945 55.7378 592.054 497.858
2604 1 76.2649 9.92593 757 58.7701 592.207 524.374
2605 0 79.3176 9.73302 772 58.1282 592.324 524.367
2606 0 81.21 10.516 854 58.26 592.218 521.532
2607 0 82.2656 12.4961 1028 56.7977 592.317 519.161
2608 0 86.33 13.1936 1139 56.3038 592.888 516.987
2609 0 88.248 13.1901 1164 56.6993 593.627 516.955
2610 0 91.3758 13.1763 1204 56.8779 593.717 516.273
2611 0 92.3305 12.8343 1185 57.6101 593.612 515.039
2612 0 95.2438 13.8382 1318 57.0933 593.654 513.015
2613 0 98.2819 12.8508 1263 58.2344 593.8 510.764
2614 0 101.294 14.0185 1420 56.9711 594.351 510.425
2615 0 106.245 13.8077 1467 57.6224 593.896 509.05
2616 0 108.221 13.6573 1478 58.4986 594.298 506.582
2617 0 109.152 13.2018 1441 59.0451 594.455 506.438
2618 0 112.268 12.8443 1442 59.8946 594.207 503.271
2619 0 115.159 13.3554 1538 59.8563 594.143 500.765
2620 0 121.171 13.8069 1673 58.8296 594.538 498.417
2621 0 124.22 13.8786 1724 58.8828 594.444 498.292
2622 0 126.324 13.8532 1750 59.5309 594.509 496.065
2623 1 77.0769 9.92515 765 59.0327 594.429 524.872
2624 0 79.1099 10.3148 816 60.0797 594.214 520.974
2625 0 82.1838 11.3769 935 58.6856 594.543 520.148
2626 0 83.2799 11.6595 971 58.4356 594.561 520.103
2627 0 86.2924 11.7971 1018 58.3811 594.142 517.747
2628 0 87.1396 11.889 1036 58.2654 594.457 516.213
2629 0 90.3331 13.3063 1202 57.079 594.289 512.502
2630 0 93.4059 13.0184 1216 57.2525 594.37 512.228
2631 0 97.3575 13.1063 1276 57.2328 594.329 510.165
2632 0 101.346 13.8437 1403 56.0385 594.28 509.747
2633 0 102.347 13.4054 1372 57.6334 594.374 505.134
2634 0 107.304 14.156 1519 55.8729 594.157 505.754
2635 0 108.355 13.4004 1452 56.9835 594.089 506.34
2636 0 112.222 13.7673 1545 56.699 593.772 503.3
2637 0 113.355 13.4621 1526 57.9102 593.91 500.657
2638 0 117.61 14.4376 1698 56.4706 594.499 499.59
2639 0 120.436 13.9078 1675 56.8496 594.278 497.427
2640 0 126.309 14.2982 1806 56.0941 593.901 496.385
2641 0 127.468 14.5527 1855 56.1687 593.557 494.371
2642 0 131.345 13.6206 1789 57.2186 593.57 491.649
2643 0 135.349 13.7866 1866 57.4732 593.504 487.189
2644 0 140.433 14.733 2069 56.5911 593.571 486.719
2645 0 144.358 14.2562 2058 57.2668 593.424 483.37
2646 0 147.26 13.7987 2032 57.8755 593.531 482.3
2647 0 152.386 14.8308 2260 57.0115 593.579 479.516
2648 1 85.2403 11.6377 992 57.0343 593.261 515.349
2649 0 88.2419 11.8084 1042 57.7994 593.331 513.38
2650 0 91.3684 11.9954 1096 54.6332 593.079 512.61
2651 0 94.3027 13.0537 1231 53.7441 593.49 509.767
2652 0 96.4534 12.9389 1248 54.3085 593.729 508.783
2653 0 100.39 13.9555 1401 53.4261 593.478 508.061
2654 0 102.561 13.5432 1389 54.3153 593.907 505.034
2655 0 106.544 13.478 1436 54.4464 593.575 504.356
2656 0 109.33 14.0309 1534 54.0169 593.199 502.976
2657 0 111.229 14.142 1573 53.8671 593.327 500.933
2658 0 115.249 13.7528 1585 54.2978 592.719 500.348
2659 0 118.308 14.3017 1692 53.724 592.691 496.892
2660 0 121.216 14.305 1734 53.9839 592.682 497.417
2661 0 125.334 14.0265 1758 54.5392 592.733 494.815
2662 0 128.326 14.2138 1824 54.6124 592.342 493.405
2663 0 133.395 13.119 1750 55.7989 592.501 491.567
2664 0 138.418 14.8535 2056 53.965 592.675 491.911
2665 0 141.457 14.6264 2069 54.5872 592.334 487.883
2666 0 146.402 14.2485 2086 55.3269 592.86 486.592
2667 0 152.339 15.0651 2295 54.4336 592.636 483.636
2668 0 155.232 14.8874 2311 54.9862 592.958 483.568
2669 1 70.121 11.1094 779 53.8922 592.856 525.764
2670 0 72.2072 11.4532 827 53.9867 593.011 525.669
2671 0 72.1213 12.9088 931 53.6294 592.622 523.875
2672 0 76.215 12.163 927 54.3625 593.371 522.32
2673 0 77.1468 12.5734 970 54.4423 592.414 520.486
2674 0 80.17 12.3612 991 55.2079 592.247 518.679
2675 0 83.1911 13.3548 1111 54.1782 592.221 518.298
2676 0 84.4685 13.1292 1109 55.1713 592.112 517.789
2677 0 86.1442 12.3166 1061 56.1263 592.28 516.951
2678 0 88.2725 12.5634 1109 56.0649 592.179 515.719
2679 0 91.2843 13.5401 1236 55.0947 592.197 515.892
2680 0 94.2884 14.0102 1321 55.0159 592.193 511.334
2681 0 97.4095 14.0541 1369 54.9671 591.744 511.695
2682 0 100.268 14.8702 1491 54.3092 591.946 509.541
2683 0 103.354 14.3681 1485 55.0633 591.146 507.823
2684 0 105.254 13.9852 1472 56.0944 591.199 506.238
2685 0 109.256 14.9832 1637 55.0348 591.125 505.608
2686 0 111.253 14.4626 1609 56.2554 591.459 505.68
2687 0 116.302 15.391 1790 55.224 591.443 504.717
2688 0 118.553 14.8203 1757 56.4132 591.049 500.288
2689 0 122.396 14.11 1727 57.1963 591.181 500.801
2690 0 125.261 14.8091 1855 57.0049 591.13 498.805
2691 0 129.34 14.3421 1855 57.5553 590.823 495.006
2692 1 75.1768 10.7613 809 57.9357 590.868 526.387
2693 0 75.2523 11.787 887 57.7024 590.732 524.837
2694 0 77.284 12.6676 979 57.1144 590.679 524.481
2695 0 81.3828 12.7791 1040 56.9952 589.967 517.212
2696 0 84.0933 14.6028 1228 55.1498 590.109 517.637
2697 0 86.338 12.9259 1116 56.3952 590.231 520.198
2698 0 89.2763 13.4414 1200 55.8517 589.888 519.825
2699 0 94.3837 12.322 1163 57.0482 589.624 517.642
2700 0 94.1839 14.2063 1338 55.7481 589.797 516.286
2701 0 96.3345 14.6365 1410 55.7426 589.591 514.173
2702 0 98.1868 13.6067 1336 57.1976 589.811 512.826
2703 0 98.303 13.3261 1310 58.1176 590.128 511.843
2704 0 104.335 13.7347 1433 56.9763 589.621 509.821
2705 0 107.412 14.1232 1517 56.526 589.515 506.395
2706 0 111.274 15.2686 1699 55.173 589.315 507.707
2707 0 109.201 13.0585 1426 59.0933 589.645 504.105
2708 0 114.45 14.0848 1612 57.5236 590.28 505.084
2709 0 119.252 15.0857 1799 55.841 590.067 503.842
2710 0 120.46 13.4319 1618 58.4098 590.024 500.824
2711 0 123.441 13.9257 1719 58.1094 590.112 499.111
2712 0 128.25 13.5283 1735 58.1049 590.051 499.463
2713 0 131.368 14.3718 1888 57.4921 589.694 494.47
2714 0 134.499 13.5614 1824 58.3109 589.62 493.766
2715 0 139.566 14.2298 1986 57.5634 589.722 492.105
2716 0 144.355 14.0418 2027 57.1283 589.634 489.21
2717 0 149.275 13.8737 2071 57.1622 589.611 488.223
2718 0 154.449 15.0665 2327 55.6867 589.717 485.079
2719 0 159.471 14.4979 2312 56.3746 589.322 484.191
2720 0 163.316 15.0139 2452 56.3989 589.538 480.407
2721 0 170.457 14.6019 2489 56.6983 589.585 478.447
2722 0 174.29 14.4587 2520 57.3115 589.76 473.936
2723 0 180.381 14.159 2554 57.9229 589.18 470.419
2724 0 184.525 14.345 2647 57.9131 589.456 468.302
2725 0 190.48 13.9752 2662 58.5556 589.628 465.692
2726 0 195.482 15.8736 3103 56.3026 589.743 459.344
2727 0 204.393 15.8518 3240 56.0213 589.564 462.38
2728 0 210.424 14.5041 3052 57.7274 589.811 457.992
2729 0 219.431 15.8045 3468 56.0842 589.888 450.948
2730 0 225.344 16.7522 3775 54.8792 590.174 452.402
2731 0 233.441 17.1221 3997 54.4498 590.324 440.642
