time division length width area intensity CMx CMy
0 0 63.1013 12.884 813 77.305 528.387 559.091
1 0 67.1498 13.522 908 97.4449 528.072 557.73
2 0 69.1137 13.3838 925 74.4951 528.457 556.282
3 0 72.1694 12.7062 917 75.3871 528.122 554.562
4 0 74.2703 12.9123 959 74.7696 528.014 554.042
5 0 76.1611 12.8675 980 76.3316 528.76 551.884
6 0 80.1708 13.4463 1078 75.7532 528.199 550.186
7 0 84.224 13.7847 1161 74.727 528.744 548.581
8 1 43.0828 11.2574 485 77.0021 528.388 568.264
9 0 45.1615 12.3557 558 75.5072 527.819 567.183
10 0 47.2133 11.8611 560 76.6607 528.455 566.634
11 0 50.1954 12.9095 648 75.0154 528.225 564.14
12 0 51.2137 12.4186 636 76.4701 528.291 564.607
13 0 51.219 13.4911 691 75.3936 528.767 562.32
14 0 54.3793 12.9093 702 75.3219 528.802 562.242
15 0 55.2375 13.4329 742 75.0404 528.757 561.313
16 0 56.1862 12.6722 712 76.6096 528.912 560.503
17 0 58.2134 12.5744 732 77.2199 528.731 558.676
18 0 59.2296 13.2704 786 75.6501 528.706 558.406
19 0 63.2438 13.4717 852 73.9789 528.423 556.795
20 0 63.1995 13.1805 833 74.958 528.405 555.94
21 0 66.1308 14.804 979 71.3973 528.618 555.008
22 0 69.174 13.8925 961 72.4849 528.746 553.52
23 0 71.0771 14.0833 1001 72.6593 528.669 552.464
24 1 37.1475 11.2255 417 75.4748 528.386 568.842
25 0 38.1151 11.7539 448 74.2121 528.268 568.877
26 0 40.1561 12.551 504 73.6667 528.575 565.522
27 0 42.292 12.6974 537 73.3985 528.369 565.361
28 0 44.133 12.5983 556 73.3489 527.86 566.173
29 0 44.1 13.6735 603 73.5572 527.635 563.668
30 0 46.0995 11.909 549 75.9144 527.96 565.55
31 0 48.0081 13.1436 631 73.7132 528.135 563.843
32 0 49.0206 13.1169 643 74.888 528.132 563.785
33 0 50.1689 12.8964 647 75.8686 528.748 564.779
34 0 50.1149 12.7108 637 76.7912 529.198 562.06
35 0 55.1407 13.6741 754 73.8886 529.121 561.586
36 0 57.1358 13.9142 795 73.4226 529.387 562.189
37 0 56.2318 13.4977 759 76.0369 529.267 559.101
38 0 57.0663 13.6333 778 76.0141 529.688 559.572
39 0 61.1238 13.399 819 75.486 529.714 559.276
40 0 62.1565 13.643 848 75.4198 529.489 557.529
41 0 62.0959 13.7368 853 75.973 530.116 556.208
42 0 66.1307 14.3806 951 73.1809 529.721 556.596
43 0 65.1907 13.6983 893 76.3583 529.969 554.226
44 0 69.2106 14.1741 981 74.3558 530.195 554.306
45 0 70.199 13.362 938 76.1791 530.92 552.229
46 0 75.2739 13.6435 1027 74.8929 531.108 550.53
47 0 79.3825 14.6002 1159 72.6454 530.878 549.487
48 0 81.2886 13.7658 1119 74.2913 531.106 548.075
49 1 40.1872 11.8446 476 74.6723 531.292 568.342
50 0 43.287 12.2207 529 73.4556 531.079 567.758
51 0 44.1362 12.1442 536 74.0037 531.006 566.675
52 0 47.235 12.5754 594 72.5101 530.877 565.825
53 0 46.1182 12.5764 580 74.1241 530.81 564.364
54 0 48.2267 13.167 635 72.8362 529.694 563.077
55 0 50.1276 13.4058 672 64.939 530.768 563.057
56 0 52.1111 12.5501 654 66.1468 530.777 563.994
57 0 52.2141 12.0849 631 66.6038 530.677 561.428
58 0 55.0586 13.0225 717 65.6541 530.792 559.432
59 0 58.0928 13.7539 799 64.8423 530.931 558.04
60 0 61.1645 13.4228 821 66.5043 530.904 558.099
61 0 60.1309 13.3043 800 67.955 530.696 556.755
62 0 63.2294 12.7789 808 68.9963 530.697 555.649
63 0 67.086 12.9833 871 67.6785 530.806 555.09
64 0 68.1878 13.1695 898 68.6403 530.62 552.684
65 0 72.2022 13.0882 945 68.5841 530.823 550.709
66 0 74.1357 13.4213 995 68.5206 530.881 549.802
67 1 37.0482 11.0127 408 70.1152 530.265 568.135
68 0 40.0225 10.9188 437 70.5263 530.769 565.986
69 0 42.0212 12.4699 524 68.5305 531.168 564.735
70 0 43.0972 12.8547 554 67.1841 531.139 564.265
71 0 43.1097 11.8999 513 68.8772 531.324 563.598
72 0 45.0782 12.9775 585 67.5368 531.462 562.556
73 0 46.1194 13.6385 629 67.4388 531.793 560.704
74 0 48.0821 12.5826 605 68.1322 532.147 561.694
75 0 51.0923 12.2915 628 68.2357 532.605 558.449
76 0 51.0669 12.8851 658 66.8419 532.125 558.378
77 0 53.1137 13.4617 715 66.3077 533.025 556.519
78 0 56.086 13.301 746 66.311 533.26 556.062
79 0 57.0593 13.6875 781 65.735 533.466 556.328
80 0 58.1722 13.2881 773 66.3221 533.868 553.889
81 0 59.1333 12.7509 754 67.2414 533.424 553.55
82 0 60.1493 13.1672 792 67.25 534.011 552.516
83 0 63.0961 13.5508 855 66.0363 534.722 551.234
84 0 65.1441 13.1708 858 67.049 534.768 549.098
85 0 68.1039 13.4941 919 65.8727 535.341 548.485
86 0 71.0955 13.4748 958 64.9739 535.27 546.065
87 0 72.0815 12.8188 924 65.1331 535.157 546.274
88 1 36.0416 11.015 397 65.0353 534.448 562.778
89 0 37.0829 11.3799 422 65.6114 534.412 562.796
90 0 38.0814 11.8693 452 65.9292 534.706 561.175
91 0 42.065 11.5298 485 66.8495 535.839 560.462
92 0 43.0662 13.5605 584 64.9435 536.25 559.183
93 0 44.0835 13.1115 578 66.0779 536.178 557.657
94 0 45.1804 13.1694 595 65.3849 535.96 555.513
95 0 48.0919 14.1812 682 60.6349 536.117 556.345
96 0 48.2177 13.128 633 62.0774 536.16 553.878
97 0 51.1642 12.7628 653 86.366 536.666 553.737
98 0 52.1697 12.9194 674 61.7077 535.794 551.461
99 0 54.146 12.928 700 61.9014 535.296 552.771
100 0 54.0687 13.076 707 65.3395 535.468 550.406
101 0 54.0687 13.039 705 156.455 535.465 550.426
102 0 57.0998 14.0981 805 68.4037 536.335 548.431
103 0 61.0569 13.6266 832 64.4772 536.431 547.63
104 0 63.1452 13.081 826 65.7276 536.287 545.915
105 0 65.2321 13.5669 885 68.4757 536.377 545.69
106 0 68.3562 13.927 952 68.4002 536.703 544
107 0 68.1622 13.3212 908 70.7544 536.726 542.834
108 0 71.2432 12.8574 916 71.5502 536.468 542.078
109 0 75.2638 13.7118 1032 70.938 536.015 539.955
110 0 78.1916 13.4797 1054 71.7818 535.754 539.524
111 0 80.2176 13.4135 1076 72.1115 535.972 537.749
112 0 81.4825 14.0766 1147 71 535.845 536.279
113 0 85.2733 13.8496 1181 71.6977 535.727 534.345
114 0 87.6052 13.9946 1226 71.7186 535.993 534.172
115 0 91.477 14.5829 1334 70.6612 535.935 532.795
116 0 94.3041 14.0079 1321 71.6185 536.332 530.505
117 0 96.3847 14.5978 1407 71.4989 536.099 529.625
118 1 48.128 12.8823 620 72.2161 536.061 553.302
119 0 50.0685 12.9822 650 72.8523 535.875 551.732
120 0 51.1987 13.555 694 72.5 536.012 550.836
121 0 54.052 13.117 709 72.6728 535.804 550.432
122 0 56.1181 13.5072 758 71.7335 535.872 549.583
123 0 58.0415 14.2656 828 71.2053 535.797 548.327
124 0 58.0891 13.4104 779 73.1605 535.644 547.531
125 0 63.109 13.8491 874 71.4222 535.533 546.657
126 0 62.0881 14.0285 871 71.9713 535.396 546.01
127 0 65.2478 13.6097 888 73.0079 535.566 544.073
128 0 68.0786 13.4991 919 72.6627 535.095 542.657
129 0 71.1625 14.1929 1010 71.7743 534.878 541.72
130 0 71.2034 14.0583 1001 72.6653 534.891 541.437
131 0 75.0708 14.2532 1070 72.3224 534.798 538.258
132 0 78.1755 13.879 1085 72.7226 534.822 537.3
133 0 80.2133 14.0126 1124 72.7384 534.566 537.345
134 0 84.3562 14.4625 1220 71.7139 534.297 535.197
135 0 84.1746 14.1135 1188 73.0244 534.666 534.447
136 0 88.1653 14.1666 1249 72.9808 534.428 533.367
137 0 91.2094 14.4612 1319 72.6497 534.299 531.845
138 0 95.1497 14.1882 1350 73.0926 534.43 529.955
139 0 98.0856 14.3446 1407 72.8742 534.337 526.805
140 1 50.0609 12.4249 622 72.5707 534.309 551.846
141 0 54.0701 11.6515 630 73.5175 534.044 550.302
142 0 54.1002 12.4768 675 72.9556 534.673 550.116
143 0 55.0936 12.3971 683 73.3324 534.163 549.237
144 0 57.0243 13.2224 754 72.6326 534.232 547.025
145 0 60.0476 13.3228 800 72.2675 534.145 545.566
146 0 63.049 13.5133 852 71.5258 534.469 544.975
147 0 65.1287 13.22 861 71.9431 534.373 544.166
148 0 66.1637 12.6958 840 73.131 533.852 543.85
149 0 70.1999 13.3334 936 71.7853 533.667 541.488
150 0 71.088 13.9123 989 71.6047 533.559 542.51
151 0 73.1733 14.1308 1034 71.058 533.96 540.612
152 0 75.1161 13.0065 977 73.5097 534.374 538.905
153 0 79.0638 13.3942 1059 72.3012 534.026 537.425
154 0 81.1461 13.679 1110 71.9622 534.068 536.556
155 0 85.1593 13.5276 1152 71.8359 534.275 534.209
156 0 89.1017 13.8045 1230 71.3325 534.203 532.123
157 0 90.0977 13.5409 1220 71.9303 534.143 533.18
158 1 49.0802 10.9617 538 72.7138 533.946 553.006
159 0 52.0465 11.605 604 71.8444 533.619 552.581
160 0 53.1683 11.868 631 72.4231 533.965 550.288
161 0 54.0901 13.1263 710 70.8197 533.497 549.775
162 0 58.1225 13.3855 778 69.7905 534.087 547.649
163 0 61.0935 13.1274 802 69.3279 534.273 546.887
164 0 62.3023 13.6431 850 69.0988 534.149 544.711
165 0 64.1717 12.9029 828 70.1413 533.825 544.965
166 0 65.1091 13.3622 870 69.9506 533.753 543.521
167 0 68.0503 13.4165 913 69.6199 534.457 542.92
168 0 71.2451 13.5308 964 69.4346 534.497 541.158
169 0 72.0884 13.5389 976 70.3904 535.054 540.088
170 0 77.0803 13.4535 1037 69.4282 535.159 538.727
171 0 78.0743 13.5 1054 69.7381 535.465 537.157
172 0 81.0906 13.5774 1101 70.3388 534.954 535.644
173 1 41.0639 10.0819 414 70.3937 534.889 556.321
174 0 43.0533 10.0109 431 71.3155 534.858 554.903
175 0 44.0392 11.5125 507 70.2939 534.864 552.933
176 0 48.0926 12.7047 611 67.0589 535.494 551.558
177 0 46.036 12.5554 578 69.3478 535.375 551.95
178 0 50.0568 12.326 617 69.0827 535.219 551.822
179 0 49.07 12.8184 629 70.1049 535.439 548.965
180 0 53.0688 12.9643 688 69.2355 535.629 548.23
181 0 53.1319 12.5913 669 71.2018 535.48 547.768
182 0 56.1777 13.1191 737 70.1384 535.802 546.258
183 0 58.0903 12.5838 731 71.0766 536.294 545.449
184 0 60.1972 12.7581 768 71.1901 535.973 544.069
185 0 61.0743 13.0333 796 71.1822 536.506 543.138
186 0 64.1008 12.7143 815 70.7865 536.854 542.621
187 0 66.2163 13.471 892 70.1457 536.64 539.952
188 0 67.1082 13.0089 873 71.307 536.67 539.985
189 0 71.1618 13.4904 960 69.901 536.77 537.644
190 0 73.0462 12.4989 913 72.5564 536.606 537.046
191 0 77.056 13.2501 1021 73.4104 536.763 536.148
192 0 79.1064 13.1216 1038 73.0857 537.176 535.071
193 1 41.0196 10.7997 443 70.7043 536.424 554.713
194 0 43.1076 11.4133 492 68.8354 536.24 554.268
195 0 44.2021 11.4474 506 70.7233 536.567 553.777
196 0 44.2427 12.1376 537 71.2011 537.073 553.432
197 0 46.1322 11.5971 535 73.6654 537.163 550.953
198 0 47.059 12.2187 575 72.0626 536.51 551.904
199 0 49.1361 12.0075 590 72.1 536.642 550.781
200 0 50.0871 11.7196 587 72.7291 537.174 551.191
201 0 51.0746 11.9825 612 72.433 537.252 548.912
202 0 53.0936 11.6775 620 73.1387 537.274 546.815
203 0 54.0991 12.3847 670 72.194 536.819 548.345
204 0 56.0586 13.2897 745 70.8389 536.893 546.307
205 0 57.0724 12.5455 716 71.9385 537.254 545.666
206 0 58.1717 11.8271 688 73.4564 537.512 543.535
207 0 62.131 12.8438 798 70.5038 537.585 543.851
208 0 64.1394 12.2702 787 71.9199 537.947 543.562
209 0 66.1146 13.0077 860 70.8407 537.538 540.787
210 0 68.0978 13.1135 893 70.7167 537.553 540.878
211 0 69.2131 12.7433 882 70.5544 537.621 539.51
212 0 74.1219 13.1 971 69.5901 537.271 537.219
213 1 38.0258 9.73025 370 68.673 537.286 557.376
214 0 39.064 9.90682 387 68.8217 537.307 556.941
215 0 38.0849 10.923 416 69.4808 537.457 554.909
216 0 41.044 10.7689 442 69.6923 536.905 554.552
217 0 41.1958 11.7973 486 70.7202 536.909 553.346
218 0 44.2193 12.0762 534 69.5936 537.09 553.034
219 0 46.2719 12.5346 580 68.3224 537.186 552.526
220 0 47.3391 12.5267 593 68.3137 536.791 552.182
221 0 47.2275 12.2598 579 69.8618 537.131 550.651
222 0 51.2804 12.5974 646 68.3406 536.375 550.328
223 0 53.0978 12.6182 670 68.8119 536.637 548.984
224 0 52.2023 12.4516 650 69.6646 536.632 548.168
225 0 55.3364 12.6318 699 69.3677 536.82 547.127
226 0 57.1441 12.2497 700 69.7871 536.667 547.669
227 0 58.1807 12.4268 723 69.7746 536.779 546.672
228 0 60.2821 13.2543 799 68.0426 537.036 546.325
229 0 62.1961 12.8465 799 69.1439 537.029 544.653
230 0 63.127 13.2273 835 68.3593 536.022 546.448
231 0 66.1511 12.6982 840 68.5345 536.45 545.181
232 0 64.1584 12.5627 806 70.3412 536.345 543.269
233 0 68.1008 12.4521 848 69.7075 536.45 542.518
234 0 68.0705 13.1775 897 69.1382 535.521 540.836
235 0 72.0879 12.6512 912 69.1053 535.349 540.184
236 0 73.0879 13.1759 963 68.5099 535.27 539.801
237 0 76.1466 13.3821 1019 68.1011 535.419 536.746
238 0 78.2027 12.6594 990 69.0859 535.557 535.326
239 0 81.1803 13.4639 1093 67.1427 535.258 535.577
240 0 86.3149 13.1148 1132 66.7438 535.245 533.038
241 0 86.2903 12.7824 1103 68.1985 535.343 533.396
242 0 90.2855 12.7706 1153 68.3981 535.056 531.263
243 0 93.2025 13.0361 1215 67.8955 535.06 529.819
244 1 51.0815 11.2957 577 67.6672 534.672 553.404
245 0 50.0881 10.9208 547 68.2212 534.446 553.033
246 0 52.0935 11.5945 604 69.0331 534.762 549.964
247 0 56.0698 12.3596 693 66.886 535.056 549.43
248 0 56.0768 11.6091 651 69.0507 534.7 548.171
249 0 58.2563 12.445 725 68.7972 535.23 547.211
250 0 58.1212 12.8008 744 68.7056 535.185 546.589
251 0 62.1877 12.6874 789 67.8517 535.103 546.783
252 0 66.1248 12.4764 825 67.4 535.512 546.139
253 0 66.1396 13.4564 890 66.773 535.301 542.927
254 0 69.0759 13.449 929 66.9139 535.271 542.789
255 0 70.0743 13.7283 962 66.9938 534.786 543.78
256 0 73.1245 13.5796 993 66.9295 535.072 541.465
257 0 75.1028 13.5548 1018 67.2043 535.275 539.998
258 0 78.1683 13.0104 1017 68.4159 535.138 538.985
259 0 82.1197 13.4925 1108 67.4955 534.664 538.519
260 0 84.2129 13.6915 1153 67.1813 534.84 538.303
261 0 86.2335 14.0665 1213 67.3594 534.623 535.809
262 0 90.1781 14.2829 1288 67.0722 534.247 531.875
263 0 92.2485 13.6696 1261 67.5805 534.418 535.399
264 1 47.0793 10.8753 512 68.9531 534.625 554.842
265 0 48.1155 10.6618 513 69.4542 534.493 553.52
266 0 50.1253 10.9725 550 69.3491 534.48 554.111
267 0 52.1416 11.488 599 69.1285 534.519 553.262
268 0 54.141 12.6891 687 66.9607 534.729 551.76
269 0 55.156 13.1808 727 66.9312 534.088 551.722
270 0 57.0767 12.8073 731 67.8687 534.409 551.502
271 0 59.1371 12.6317 747 68.3146 534.269 550.993
272 0 59.1548 12.611 746 68.378 534.607 550.287
273 0 63.1145 13.1824 832 67.0385 534.831 548.192
274 0 64.1276 12.8338 823 68.1774 535.102 546.275
275 0 66.2206 12.8812 853 67.8124 535.2 546.093
276 0 70.1014 13.6374 956 67.0659 535.143 544.646
277 0 71.1121 12.7545 907 68.5259 535.036 543.817
278 0 75.1212 13.0855 983 67.6144 535.363 542.29
279 0 77.1884 13.8622 1070 66.9925 535.463 539.536
280 0 78.1195 12.8777 1006 69.3807 535.053 539.174
281 0 83.1158 13.9324 1158 66.532 535.311 537.789
282 0 86.0769 13.4647 1159 67.2442 535.795 536.447
283 1 43.0785 10.6317 458 68.2402 534.956 556.319
284 0 46.0904 10.3492 477 67.761 535.495 556.205
285 0 48.0707 11.0462 531 67.9228 535.222 553.774
286 0 49.2706 11.9747 590 66.3237 536.173 553.017
287 0 51.1231 12.2645 627 65.8325 536.255 551.877
288 0 51.2178 11.8709 608 67.4375 536.775 551.286
289 0 53.1388 11.8934 632 67.8117 536.687 550.049
290 0 54.1074 12.5676 680 66.8382 536.301 549.718
291 0 55.1031 12.2316 674 67.6217 537.55 547.926
292 0 57.1806 12.0146 687 67.6477 537.718 547.671
293 0 59.23 12.2404 725 66.9766 537.839 546.695
294 0 63.2846 12.8309 812 65.3892 537.872 545.548
295 0 64.3499 12.5408 807 66.3854 537.887 543.128
296 0 66.1965 12.191 807 67.0793 537.77 541.781
297 0 68.3196 12.1049 827 67.2793 538.193 539.94
298 0 69.087 12.2889 849 67.4193 538.294 539.645
299 0 71.3796 12.7908 913 66.6506 538.398 538.266
300 0 75.4677 12.3099 929 67.0086 538.55 536.405
301 0 78.406 12.8944 1011 65.6944 538.851 535.802
302 0 81.3099 13.0243 1059 65.2521 539.446 533.921
303 1 40.2997 10.3227 416 67.9543 538.615 552.714
304 0 43.1762 11.1172 480 66.5583 539.135 551.821
305 0 43.1105 10.7166 462 66.5152 539.266 551.913
306 0 46.1313 10.5785 488 65.3955 539.107 549.982
307 0 48.2175 11.1785 539 65.1503 538.894 550.083
308 0 49.1868 11.8528 583 64.9057 538.937 547.949
309 0 49.0362 11.8484 581 64.9518 538.029 548.549
310 0 52.0901 12.6895 661 63.4781 538.12 547.637
311 0 52.1137 11.993 625 64.5984 538.322 547.88
312 0 54.085 12.7392 689 63.4369 537.985 545.853
313 0 56.0556 11.9346 669 63.9208 538.362 544.792
314 0 58.098 12.1691 707 63.0156 538.086 545.02
315 0 58.0548 12.5399 728 62.706 537.872 543.716
316 0 61.1119 13.3525 816 61.8603 537.725 541.972
317 0 63.0687 12.9541 817 62.1297 538.07 542.774
318 0 63.0805 12.7456 804 62.4652 537.848 541.466
319 0 65.0597 12.7729 831 62.9988 537.977 540.069
320 0 67.161 13.356 897 62.029 538.13 540.478
321 0 70.0853 12.9556 908 62.3722 538.2 537.773
322 0 72.1743 13.3289 962 62.211 537.941 537.991
323 0 74.2661 12.5764 934 63.0921 537.561 537.391
324 0 76.1432 13.2776 1011 62.9773 537.361 535.819
325 0 78.1482 13.2952 1039 63.001 536.875 534.854
326 0 80.2805 13.4902 1083 63.1247 536.886 533.528
327 1 41.145 10.621 437 64.0412 537.05 552.535
328 0 44.0947 11.8155 521 63.096 536.693 551.839
329 0 45.1525 11.5165 520 63.7365 536.35 550.933
330 0 47.1974 11.632 549 63.9927 536.477 550.215
331 0 47.1018 12.1864 574 63.5627 536.605 550.209
332 0 49.1456 13.1243 645 63.169 537.237 549.293
333 0 51.0681 12.7868 653 63.0413 536.838 548.91
334 0 51.1863 13.1285 672 63.5804 536.609 548.265
335 0 52.0706 12.944 674 64.1825 537.135 546.907
336 0 53.1512 12.8125 681 64.6373 536.476 545.656
337 0 55.0703 12.9108 711 64.2841 536.224 545.812
338 0 58.1678 13.186 767 63.3455 535.973 546.757
339 0 60.1598 13.5971 818 62.6724 536.055 543.791
340 0 62.1022 13.7515 854 62.5913 536.085 544.19
341 0 63.1313 13.163 831 64.0096 535.74 542.487
342 0 66.0575 13.4731 890 63.5921 535.581 542.615
343 0 68.2161 14.2928 975 62.1744 535.424 540.65
344 0 70.1169 13.178 924 64.4524 535.522 540.597
345 0 72.1147 13.4924 973 64.2035 535.406 539.444
346 0 74.0829 13.9033 1030 64.1806 535.836 537.339
347 0 78.2291 14.2913 1118 63.4902 536.068 537.49
348 0 78.1341 14.1552 1106 64.1944 536.325 534.573
349 0 82.0855 14.3509 1178 63.8404 535.797 534.048
350 0 85.1958 14.5547 1240 63.8565 535.465 532.903
351 1 48.138 11.467 552 65.7065 535.049 552.051
352 0 49.2273 11.6805 575 65.5652 535.028 551.334
353 0 51.0647 11.8085 603 65.2919 535.012 551.63
354 0 50.2026 12.8678 646 66.1517 534.896 549.489
355 0 54.1535 13.7018 742 63.5229 534.887 550.682
356 0 56.1485 13.3218 748 64.5334 535.912 548.417
357 0 57.1136 12.7991 731 65.4008 535.629 547.975
358 0 60.1244 12.9565 779 64.7047 536.162 546.513
359 0 60.2193 13.0689 787 64.8577 535.848 546.466
360 0 63.0839 14.0289 885 63.5706 535.706 545.345
361 0 65.1398 13.2791 865 65.0243 535.723 543.177
362 0 69.2185 13.4791 933 64.3376 535.408 543.029
363 0 70.089 14.0964 988 63.6872 535.911 541.101
364 0 73.1745 14.1853 1038 63.2987 535.501 540.298
365 0 74.1655 13.6721 1014 64.7032 535.761 539.098
366 0 79.1488 13.4936 1068 64.7481 536.158 537.192
367 1 39.1619 10.9035 427 65.2248 535.904 556.419
368 0 40.1111 10.3213 414 65.6739 535.957 556.312
369 0 42.1882 10.9272 461 64.8134 536.134 556.236
370 0 44.0943 11.4527 505 64.2574 536.677 554.588
371 0 46.1203 11.7302 541 63.2255 536.601 554.466
372 0 47.3119 12.2802 581 63.5095 537.275 552.985
373 0 48.1804 12.5155 603 63.0315 536.257 553.423
374 0 50.2158 12.3865 622 63.5273 536.256 551.842
375 0 51.2157 13.0624 669 62.9761 536.454 550.61
376 0 51.2553 12.6036 646 64.2693 536.663 549.519
377 0 55.2975 12.695 702 62.4601 536.514 548.121
378 0 57.1735 12.4708 713 62.3675 537.425 547.673
379 0 58.0996 12.4958 726 63.1846 536.526 546.149
380 0 59.1992 13.159 779 62.3761 537.347 546.462
381 0 61.2305 12.9674 794 63.3312 537.528 544.421
382 0 63.3026 13.5697 859 62.5739 537.397 544.679
383 0 67.1732 13.1898 886 62.816 537.546 542.97
384 0 66.1172 12.614 834 64.1331 537.704 541.861
385 0 70.1027 12.3248 864 64.4433 537.332 541.328
386 0 72.1138 13.243 955 63.3445 537.75 539.886
387 0 77.2627 12.9558 1001 63.042 538.247 537.06
388 1 43.1795 10.2595 443 63.4357 538.196 554.713
389 0 44.1805 11.4756 507 63.6686 538.353 552.383
390 0 46.1867 11.0205 509 63.4833 538.851 552.328
391 0 45.3434 10.9828 498 64.6084 539.213 551.259
392 0 48.0831 11.2306 540 62.8148 537.961 551.35
393 0 49.1169 12.0936 594 63.2407 538.027 549.296
394 0 52.108 11.3418 591 63.5093 538.604 549.108
395 0 52.1068 12.1289 632 63.769 538.873 548.285
396 0 53.0571 12.5337 665 63.6857 539.017 546.707
397 0 57.1671 12.4022 709 63.574 538.948 546.59
398 0 57.2756 12.8501 736 63.409 539.147 546.221
399 0 58.1804 12.6331 735 64.5755 539.256 544.66
400 0 60.175 12.4304 748 64.3623 539.313 543.742
401 0 62.2547 12.3525 769 65.0832 539.247 543.473
402 0 65.1164 13.5603 883 63.5934 539.374 541.015
403 0 66.172 13.0267 862 64.2053 539.615 542.118
404 0 69.1115 12.8633 889 65.0236 539.828 539.37
405 0 69.2882 12.5418 869 66.6168 539.785 538.093
406 0 73.1116 13.2947 972 65.1749 539.409 537.415
407 0 76.1027 13.3372 1015 65.0266 539.588 536.865
408 0 77.2248 13.5319 1045 65.2813 539.298 535.499
409 0 79.2646 13.0071 1031 66.6091 539.037 533.802
410 1 44.0848 10.5705 466 66.3863 538.672 552.558
411 0 45.2255 10.8346 490 67.9102 539.878 552.247
412 0 46.2364 10.814 500 67.694 540.052 552.17
413 0 46.3252 11.592 537 67.0912 539.695 550.723
414 0 49.2196 11.8449 583 66.6364 539.839 550.185
415 0 51.3243 12.158 624 67.1298 539.304 548.197
416 0 51.162 12.0011 614 68.7378 539.179 548.034
417 0 54.1386 12.782 692 67.396 539.081 547.439
418 0 55.119 12.0648 665 69.0692 538.417 545.913
419 0 56.1167 12.4027 696 68.8779 538.027 545.293
420 0 57.1386 12.9335 739 68.3667 537.794 544.372
421 0 59.1091 12.2485 724 69.2666 537.42 544.213
422 0 61.0847 12.409 758 69.4406 537.727 543.525
423 0 63.1013 11.5687 730 70.6082 538.226 544.116
424 0 64.0834 12.0156 770 69.9234 537.799 542.812
425 0 66.1972 12.8857 853 68.0809 537.579 541.331
426 0 69.3188 12.7238 882 68.3141 538.071 540.014
427 0 72.3023 12.6829 917 67.9782 537.913 539.197
428 0 72.2884 12.5608 908 68.978 537.735 537.466
429 0 77.3391 12.4905 966 68.1522 537.154 535.126
430 1 41.1639 10.9076 449 68.0245 535.978 554.993
431 0 44.1955 11.879 525 67.459 536.59 552.493
432 0 46.2005 11.7531 543 66.8674 536.024 552.02
433 0 48.1455 12.5868 606 66.132 535.85 550.363
434 0 50.1283 12.5478 629 65.4245 535.603 549.224
435 0 50.1949 13.0292 654 65.7783 535.606 549.624
436 0 53.1266 12.8373 682 65.5909 535.437 549.428
437 0 54.2397 13.3666 725 65.1476 536.168 548.434
438 0 54.1798 12.7723 692 66.8829 536.114 548.938
439 0 57.3144 13.2602 760 66.1842 535.997 547.77
440 0 58.1784 13.4586 783 65.8736 536.114 546.995
441 0 61.142 13.0189 796 66.2286 535.651 546.662
442 0 63.164 13.3937 846 65.7459 536.017 545.369
443 0 63.1029 13.3274 841 66.6801 535.879 544.277
444 0 66.1703 13.9489 923 64.9675 536.01 544.625
445 0 67.1536 13.7297 922 66.0629 536.534 542.946
446 0 70.2259 13.6987 962 65.4459 536.536 541.141
447 0 72.1587 13.1931 952 66.3435 536.086 542.088
448 0 75.2331 13.7041 1031 65.1018 535.925 538.344
449 0 78.2757 13.4525 1053 65.2061 535.904 539.851
450 1 43.1159 11.4111 492 66.4837 534.941 556.167
451 0 43.2605 10.3096 446 67.1143 535.02 555.832
452 0 46.2516 11.3726 526 64.5646 535.025 554.445
453 0 48.2023 11.7837 568 63.3803 534.692 554.514
454 0 48.0656 11.8796 571 63.9825 534.637 553.764
455 0 51.1914 12.3849 634 63.8155 535.039 552.957
456 0 54.2237 12.6882 688 63.4884 535.058 550.891
457 0 53.1182 12.5569 667 63.5532 535.232 551.39
458 0 55.1049 12.3401 680 63.9853 535.024 549.95
459 0 59.1177 12.9234 764 62.1924 536.115 549.647
460 0 58.0954 12.0319 699 64.2203 535.784 549.01
461 0 62.1838 13.3154 828 62.1944 535.847 545.924
462 0 64.1893 13.4602 864 61.7523 535.708 546.234
463 0 65.2426 12.4305 811 63.3514 535.488 546.165
464 0 69.2297 13.9824 968 60.4731 535.817 544.487
465 0 71.2105 13.9446 993 60.8953 536.126 542.783
466 0 71.1428 12.8896 917 62.8146 536.265 540.961
467 0 74.2054 12.5867 934 63.2131 535.88 539.669
468 0 78.4331 13.6677 1072 61.3778 535.532 540.535
469 0 80.3218 13.172 1058 62.5718 534.953 538.768
470 1 41.1957 11.1662 460 65.2891 535.08 557.143
471 0 41.1296 11.1598 459 66.0654 535.174 556.908
472 0 45.2224 11.5651 523 64.9407 535.176 556.358
473 0 46.2062 12.0547 557 64.7989 535.93 554.939
474 0 47.2127 13.1532 621 64.0419 536.253 554.478
475 0 49.2281 13.1835 649 64.1356 535.961 553.867
476 0 50.0634 12.7638 639 65.1111 534.966 553.808
477 0 50.1467 12.8224 643 66.0404 535.079 553.112
478 0 53.2575 13.1437 700 64.8071 535.133 552.114
479 0 56.278 12.7581 718 65.4805 535.539 550.078
480 0 55.2677 12.8647 711 66.5387 535.57 550.276
481 0 55.2677 12.8647 711 167.911 535.57 550.276
482 0 58.2742 13.5566 790 66.3114 536.116 548.244
483 0 60.2962 13.8151 833 66.0372 535.909 546.969
484 0 65.3513 12.8689 841 66.1558 536.231 546.83
485 0 67.5963 13.3143 900 65.56 536.189 544.431
486 0 70.4767 13.5931 958 65.3434 536.682 543.554
487 0 72.4277 13.8069 1000 64.883 536.707 544.572
488 0 74.2657 14.0172 1041 64.8309 536.258 540.666
489 0 75.2947 13.4272 1011 65.9891 536.535 539.988
490 0 79.2627 14.2438 1129 64.3995 536.613 538.5
491 0 80.3432 13.3926 1076 65.7825 536.235 536.867
492 0 84.3404 13.9316 1175 64.7966 536.786 535.881
493 0 85.2579 14.0163 1195 64.9933 536.705 533.831
494 1 43.1556 10.8676 469 66.6375 536.697 555.273
495 0 44.2028 11.9449 528 65.4508 536.775 553.35
496 0 46.1581 12.5222 578 64.8478 536.327 551.837
497 0 47.1937 12.6924 599 64.3155 536.474 551.97
498 0 48.1112 12.2009 587 65.5128 536.518 552.48
499 0 50.1087 13.1115 657 64.3394 536.685 550.461
500 0 51.2403 13.0756 670 64.6179 536.324 550.624
501 0 52.1788 12.8021 668 65.1512 536.569 548.817
502 0 54.1971 13.2849 720 63.8361 536.565 549.161
503 0 55.2466 12.8153 708 65.0297 536.696 546.66
504 0 57.3076 12.8081 734 64.8488 536.609 547.376
505 0 59.3184 13.8743 823 63.1409 536.199 546.496
506 0 61.5249 13.1166 807 64.1524 536.182 543.683
507 0 63.2262 13.3173 842 63.9181 536.008 542.736
508 0 64.4989 13.0855 844 64.6706 536.088 542.47
509 0 66.2898 12.5057 829 65.3052 536.081 541.861
510 0 69.3192 13.647 946 63.7368 536.127 540.86
511 0 70.2006 12.8204 900 65.33 536.306 540.833
512 0 75.3781 13.691 1032 63.0184 536.25 538.741
513 0 77.3738 12.7304 985 64.4701 536.145 537.752
514 0 80.4555 13.2371 1065 63.4948 536.424 536.493
515 1 41.25 11.7576 485 64.2062 536.103 555
516 0 40.3556 12.2412 494 64.6984 535.615 555.306
517 0 44.1586 11.0964 490 63.3347 536.206 554.914
518 0 45.1684 12.4866 564 62.7163 536.131 552.142
519 0 46.1435 12.5261 578 62.8754 535.235 553.05
520 0 47.16 13.6981 646 61.9412 536.02 550.995
521 0 49.0853 13.3849 657 62.5099 535.974 550.846
522 0 50.2794 13.0073 654 63.2187 535.933 549.656
523 0 52.2194 12.8305 670 63.3687 536.199 549.181
524 0 53.1333 12.3275 655 63.7969 536.646 549.279
525 0 55.2418 12.744 704 63.1193 537.128 547.706
526 0 54.2233 13.4813 731 63.7332 537.077 547.821
527 0 58.1269 13.5565 788 63.0622 537.142 545.997
528 0 59.1023 12.8083 757 63.7398 537.324 546.127
529 0 62.1226 13.8919 863 61.8575 537.19 544.403
530 0 64.2727 13.8784 892 61.7545 536.874 544.046
531 0 66.3497 13.9413 925 62.0097 536.8 542.312
532 0 68.1965 13.6957 934 62.6852 537.141 540.766
533 0 70.3094 14.0095 985 62.3594 537.115 539.127
534 0 73.2584 14.2646 1045 61.8124 537.404 538.79
535 0 77.404 14.4049 1115 61.1085 536.881 539.058
536 0 77.2757 14.2736 1103 62.2747 537.975 536.575
537 0 81.3593 14.565 1185 61.6456 537.619 535.077
538 0 83.1986 14.4954 1206 62 537.548 533.485
539 0 85.3711 13.8337 1181 63.254 537.301 532.887
540 0 88.2979 14.5643 1286 62.5482 536.708 530.578
541 1 44.2167 11.5341 510 65.3 536.553 551.455
542 0 48.2774 12.8632 621 63.2915 536.071 550.544
543 0 50.1261 13.2266 663 63.8296 536.78 549.842
544 0 51.1689 13.0939 670 64.297 535.999 549.76
545 0 54.0665 13.3724 723 63.5837 536.173 547.762
546 0 54.1361 13.7431 744 63.8763 536.348 547.048
547 0 55.1242 13.9866 771 63.227 535.912 546.27
548 0 59.2188 13.5092 800 63.4712 535.78 545.36
549 0 62.0765 13.5961 844 63.0367 535.835 545.056
550 0 64.1757 13.0423 837 64.4755 535.399 543.902
551 0 65.2214 13.8298 902 63.4279 535.315 542.912
552 0 66.1022 14.5381 961 63.2404 535.334 541.147
553 0 70.0888 13.9823 980 63.7694 535.495 541.15
554 0 70.1078 13.3651 937 65.3127 535.248 540.374
555 0 74.0995 14.3321 1062 63.9868 536.077 538.163
556 0 77.1455 13.7921 1064 65.3524 536.032 535.61
557 0 79.1242 13.8011 1092 65.0192 536.161 536.972
558 0 82.1807 13.884 1141 65.0149 535.726 533.046
559 0 85.1712 13.42 1143 65.6789 535.737 531.917
560 0 88.1268 14.082 1241 64.9283 536.045 531.266
561 1 47.1247 11.5438 544 65.5074 535.423 551.34
562 0 47.0836 12.5097 589 63.8812 535.238 550.805
563 0 49.0629 11.74 576 65.092 535.302 550.462
564 0 49.0455 12.7637 626 65.2332 535.497 548.912
565 0 53.0989 13.1076 696 64.5072 535.392 548.565
566 0 52.0584 12.4668 649 65.6656 535.655 547.672
567 0 55.0765 13.2725 731 64.5595 535.663 546.631
568 0 57.102 12.8367 733 65.4147 535.7 545.52
569 0 58.1328 12.437 723 66.3956 535.743 543.582
570 0 61.1361 12.7421 779 65.4429 535.32 544.507
571 0 64.081 12.9055 827 64.8875 535.212 544.27
572 0 67.1168 13.8564 930 63.7022 535.014 542.381
573 0 67.126 12.4542 836 66.8577 535.029 541.758
574 0 69.1084 13.6452 943 65.1135 534.682 540.958
575 0 74.0948 13.3613 990 65.3525 534.394 539.653
576 0 74.0681 13.6226 1009 66.666 534.161 538.619
577 0 76.0767 13.907 1058 66.7713 533.905 537.407
578 0 79.2292 13.442 1065 67.4207 533.603 536.861
579 0 81.0736 13.0992 1062 68.548 533.473 534.865
580 0 83.0887 13.612 1131 67.8974 533.569 534.05
581 0 89.1812 14.1734 1264 66.4866 533.248 532.831
582 0 91.0703 14.8457 1352 65.895 533.112 531.967
583 0 94.0958 13.6563 1285 67.7323 533.543 530.137
584 0 95.0758 13.0948 1245 69.5133 533.383 529.039
585 0 99.1623 13.614 1350 68.5244 533.453 529.265
586 0 102.176 13.2027 1349 69.1698 533.268 526.265
587 0 105.168 13.854 1457 68.5484 533.428 527.008
588 0 108.215 13.7134 1484 69.0303 533.119 524.687
589 0 113.249 14.1635 1604 68.1197 533.407 522.278
590 0 116.223 14.2657 1658 67.8565 532.899 519.721
591 1 65.1414 11.4674 747 68.6078 532.411 547.499
592 0 65.0837 10.7707 701 69.7646 532.031 546.767
593 0 70.0471 12.4059 869 68.6352 532.686 543.526
594 0 72.1665 12.8453 927 67.6354 532.858 542.052
595 0 74.1443 13.5142 1002 66.498 533.359 539.182
596 0 78.2491 13.2909 1040 65.7663 533.216 539.938
597 0 80.1267 13.2415 1061 66.2554 532.977 538.384
598 0 82.0602 12.5883 1033 67.1617 533.228 535.223
599 0 84.0909 12.8908 1084 66.678 532.863 534.379
600 0 90.1104 13.7942 1243 65.0442 532.391 533.351
601 0 92.2545 13.7771 1271 64.8222 532.525 533.541
602 0 94.1067 12.4858 1175 66.3396 532.328 531.58
603 0 100.084 14.0581 1407 64.049 532.467 529.189
604 0 101.322 13.2054 1338 66.216 532.317 526.825
605 0 104.101 13.5158 1407 65.7399 532.643 526.544
606 0 108.179 13.3944 1449 65.372 532.806 526.306
607 0 113.229 13.7951 1562 64.1837 533.09 521.929
608 1 59.0846 10.0872 596 65.8523 533.327 547.995
609 0 62.2584 11.0025 685 65.5971 533.206 548.187
610 0 66.2062 12.6574 838 64.7566 533.541 544.735
611 0 68.1902 12.2305 834 65.6763 533.442 544.603
612 0 71.1766 13.5719 966 65.4565 533.276 542.457
613 0 72.2122 12.7264 919 66.2448 532.627 542.668
614 0 75.0847 12.8788 967 67.0062 532.553 539.857
615 0 76.0976 12.6942 966 66.4679 532.772 539.365
616 0 78.2394 12.5512 982 68.4257 532.502 538.718
617 0 80.1585 12.1384 973 71.0257 532.359 536.213
618 0 85.1186 12.1478 1034 70.1025 532.66 535.798
619 0 87.0761 12.5752 1095 68.1461 532.757 534.614
620 0 91.1738 13.052 1190 66.8992 532.871 532.461
621 0 92.1802 12.3562 1139 68.6997 533.471 532.376
622 0 96.3211 13.3719 1288 67.448 533.467 530.513
623 0 99.3248 12.3232 1224 69.0417 533.763 527.989
624 1 53.1929 10.7909 574 67.8693 533.226 551.199
625 0 53.2394 10.2368 545 68.9872 533.881 551.239
626 0 57.3108 11.3417 650 67.1031 533.368 547.352
627 0 59.3134 11.4308 678 67.4027 534.044 546.618
628 0 59.2859 12.0939 717 66.4993 534.166 542.453
629 0 63.3717 11.8034 748 66.5321 534.098 541.43
630 0 65.2854 12.6675 827 63.821 533.804 541.903
631 0 64.1669 13.1376 843 63.6204 534.167 540.535
632 0 68.1607 12.3678 843 64.0558 534.251 538.466
633 0 71.2494 12.8703 917 63.0109 534.501 538.635
634 0 74.183 13.3184 988 62.7935 534.343 539.407
635 0 77.3097 13.0773 1011 63.2591 535.06 536.674
636 0 79.3829 12.32 978 64.9305 534.565 536.23
637 0 82.4145 12.7405 1050 63.7638 534.708 533.473
638 0 86.3643 13.281 1147 62.3679 534.495 533.609
639 0 87.5848 12.9589 1135 63.0194 534.729 530.517
640 0 91.5672 13.0505 1195 62.4092 534.761 529.479
641 0 92.3155 12.8039 1182 63.088 535.986 528.733
642 0 95.3582 13.465 1284 62.5389 535.749 528.768
643 0 97.5197 13.3101 1298 63.0162 535.408 523.656
644 0 100.638 13.1859 1327 62.4582 535.307 522.937
645 0 101.322 12.8897 1306 63.3798 535.48 522.053
646 0 105.359 13.1551 1386 62.6111 535.582 518.842
647 0 109.402 12.9065 1412 62.7181 535.678 518.001
648 1 57.1857 10.9468 626 62.4952 535.867 543.43
649 0 61.1915 10.557 646 62.404 536.303 542.212
650 0 64.1993 11.7758 756 61.2249 536.005 542.468
651 0 64.2678 12.5102 804 60.9963 535.917 539.317
652 0 65.3561 12.1335 793 62.5864 535.912 541.433
653 0 70.2498 12.7972 899 61.3448 536.259 540.715
654 0 71.4049 13.1223 937 60.4674 536.032 540.011
655 0 74.4309 12.5754 936 61.3365 536.474 538.947
656 0 76.359 13.2532 1012 61.0296 536.294 536.243
657 0 77.5583 13.4866 1046 61.0765 536.457 534.561
658 0 80.3376 13.4308 1079 60.5431 536.309 531.999
659 0 83.2469 12.5891 1048 62.0458 536.479 529.685
660 0 86.5043 13.1092 1134 60.9083 536.191 529.264
661 0 87.2035 12.8321 1119 61.5407 536.267 527.742
662 0 90.1673 13.475 1215 60.4798 536.743 526.978
663 0 94.601 13.0548 1235 60.715 536.749 525.096
664 1 49.0683 10.8217 531 60.1827 537.038 546.996
665 0 51.1037 9.92101 507 60.6805 536.984 546.469
666 0 51.1054 11.1143 568 59.9313 537.019 545.646
667 0 53.1212 10.2972 547 61.2084 537.492 543.81
668 0 55.0732 10.9127 601 60.3777 536.817 542.283
669 0 60.1084 12.0948 727 58.7662 537.77 545.246
670 0 61.1793 12.5859 770 58.9909 537.555 545.064
671 0 64.1969 12.0722 775 59.4658 538.12 542.361
672 0 63.1523 12.5253 791 59.2099 537.757 542.472
673 0 64.245 11.892 764 60.3691 537.809 541.298
674 0 67.2089 12.4835 839 59.6996 537.737 539.621
675 0 69.2085 13.062 904 58.4657 537.696 538.679
676 0 69.1865 12.1989 844 60.1576 538.32 537.68
677 0 72.1817 12.5794 908 59.8667 538.48 537.744
678 0 74.2061 13.1256 974 59.2598 538.597 535.477
679 0 78.1594 13.5364 1058 58.1531 538.956 536.284
680 0 79.159 13.0244 1031 59.6411 539.611 534.571
681 0 81.2123 13.1507 1068 59.7856 539.404 532.812
682 0 84.2143 13.9169 1172 58.686 538.746 531.902
683 0 90.2063 13.5135 1219 58.7006 539.471 530.774
684 0 89.2143 12.8006 1142 59.9623 539.095 529.798
685 0 93.2429 13.438 1253 59.2314 539.551 525.978
686 1 52.188 10.7304 560 60.6107 538.55 548.404
687 0 55.1923 10.708 591 59.7039 538.986 545.883
688 0 58.2448 10.3357 602 60.3355 538.535 545.364
689 0 55.1564 11.3496 626 60.4042 538.556 544.887
690 0 58.1779 11.5852 674 59.9585 538.478 544.11
691 0 60.2336 12.4349 749 59.2123 538.71 541.941
692 0 63.2004 12.6898 802 58.8953 538.002 541.647
693 0 63.0977 13.598 858 57.9172 538.357 542.679
694 0 65.1162 12.6389 823 59.3657 538.443 541.676
695 0 67.2377 12.8202 862 59.094 538.234 539.71
696 0 69.1445 13.3489 923 58.6219 538.531 538.829
697 0 71.1125 12.881 916 58.9738 538.227 537.816
698 0 74.1895 13.1555 976 58.333 538.133 536.775
699 0 76.1753 12.9045 983 58.7742 538.113 535.174
700 0 76.1352 12.8456 978 59.2751 538.004 534.498
701 0 80.1074 14.1934 1137 57.1381 537.373 535.11
702 0 82.1684 13.6914 1125 57.768 537.112 533.069
703 0 83.3169 12.3384 1028 60.1255 536.948 529.387
704 0 90.1719 13.7071 1236 57.7929 537.223 529.639
705 0 94.1472 13.6701 1287 57.8959 536.92 528.766
706 0 94.311 12.9465 1221 59.4848 536.981 527.473
707 1 50.1938 11.5751 581 59.3855 536.375 549.838
708 0 52.1742 11.2699 588 59.8129 536.099 548.366
709 0 53.0816 11.7555 624 59.1122 535.796 549
710 0 56.0796 12.3039 690 58.2304 535.257 547.726
711 0 57.1513 12.7031 726 57.8926 535.738 545.613
712 0 58.1851 12.1852 709 58.7052 536.069 545.571
713 0 60.2138 12.7712 769 58.0208 536.127 543.17
714 0 63.1181 13.4827 851 56.7979 536.677 543.85
715 0 63.143 12.6221 797 58.1644 536.496 542.355
716 0 67.103 13.1738 884 57.0102 536.683 542.643
717 0 66.1379 12.2623 811 58.4266 536.793 540.962
718 0 70.137 12.9604 909 57.7415 536.397 540.01
719 0 73.1517 13.1644 963 57.0353 536.39 540.451
720 0 74.0991 13.1581 975 57.6297 536.527 537.325
721 0 79.2209 13.2415 1049 57.511 535.864 535.947
722 0 80.1345 13.3026 1066 57.8743 535.907 533.653
723 0 83.2346 13.3839 1114 57.825 535.478 533.864
724 0 85.2605 12.9486 1104 58.3632 535.71 532.121
725 0 88.2004 13.5033 1191 58.6113 534.87 530.039
726 0 91.3872 13.6233 1245 58.3558 534.688 529.722
727 1 50.294 12.5065 629 57.3116 534.202 551.356
728 0 49.0315 11.0745 543 59.5304 534.219 552.722
729 0 52.2335 11.7166 612 59.0752 534.291 549.248
730 0 53.3099 12.2304 652 57.9003 534.219 549.508
731 0 55.0979 12.9043 711 57.0549 534.918 547.426
732 0 55.2478 13.5752 750 56.768 534.656 547.371
733 0 58.079 13.3439 775 56.9884 534.583 546.501
734 0 59.3482 13.8336 821 57.0548 534.446 545.017
735 0 62.1147 12.5413 779 58.6585 534.117 544.095
736 0 64.2821 13.5185 869 57.6709 533.961 544.053
737 0 66.3503 13.911 923 57.7096 533.729 542.347
738 0 67.2843 13.0342 877 59.4151 533.563 542.715
739 0 70.3771 13.7829 970 58.4835 533.753 540.125
740 0 72.4544 13.4153 972 59.2737 533.663 540.847
741 0 74.3242 13.2528 985 61.0335 533.426 539.943
742 0 76.2954 13.5133 1031 61.0427 533.811 537.103
743 0 79.3712 14.5015 1151 59.9592 534.038 535.379
744 0 84.2614 14.004 1180 60.1093 533.88 536.299
745 0 87.304 14.2147 1241 60.7164 533.764 533.969
746 0 90.2645 14.0033 1264 60.7318 534.075 533.717
747 1 44.1645 11.9553 528 63.8826 533.725 553.492
748 0 45.0775 12.179 549 64.0474 533.459 553.237
749 0 47.2406 12.6798 599 64.788 533.376 551.546
750 0 48.0894 13.5373 651 64.1935 533.398 552.137
751 0 50.0491 13.5667 679 63.7923 533.191 551.163
752 0 52.1928 13.8142 721 64.0236 532.871 550.682
753 0 55.5108 13.583 754 64.9735 533.261 548.814
754 0 54.1338 14.0023 758 65.4235 532.715 547.711
755 0 58.2616 14.3147 834 63.8753 533.135 547.934
756 0 59.3323 13.9385 827 65.5345 532.489 546.924
757 0 62.1967 14.1808 882 65.1814 532.942 546.068
758 0 63.2667 13.9252 881 66.3428 532.867 545.982
759 0 66.1819 14.7472 976 65.4057 533.142 543.039
760 0 68.2285 14.4661 987 66.2958 532.96 542.196
761 0 72.1272 14.6408 1056 65.8655 532.931 541.757
762 0 75.304 14.2489 1073 66.0941 532.814 541.266
763 0 76.2834 13.9873 1067 67.6673 533.02 539.715
764 0 79.1313 14.8361 1174 66.4983 532.929 537.529
765 0 82.0902 13.607 1117 69.2632 532.864 536.111
766 0 85.1371 14.7879 1259 67.5496 533.336 535.061
767 0 87.4765 14.1409 1237 68.8731 532.978 534.949
768 0 90.1864 14.3037 1290 68.8535 532.722 533.984
769 0 94.3682 13.9878 1320 68.6871 533.156 533.143
770 1 48.019 11.6829 561 71.1248 532.736 552.13
771 0 49.0648 11.658 572 70.7063 532.645 552.474
772 0 50.065 12.7634 639 70.0955 532.532 552.045
773 0 52.0236 12.7634 664 70.6009 531.651 549.693
774 0 55.105 13.3382 735 69.1374 532.878 548.396
775 0 59.0627 13.1894 779 68.9974 532.906 549.607
776 0 61.188 13.7609 842 68.3397 532.753 548.574
777 0 63.0811 14.3942 908 67.7907 533.229 546.361
778 0 64.0705 13.532 867 69.8028 532.595 545.734
779 0 66.1194 13.4303 888 70.0259 532.868 544.557
780 0 70.1083 13.1226 920 70.462 533.076 543.107
781 0 73.1296 14.0709 1029 69.0087 532.409 542.029
782 0 73.0489 13.5663 991 71.1181 533.064 539.386
783 0 76.0478 12.742 969 72.4014 533.348 538.223
784 0 80.1371 13.5019 1082 71.2523 533.346 537.882
785 1 41.0093 11.7778 483 73.5569 533.234 556.116
786 0 44.103 11.3825 502 73.6215 533.108 556.878
787 0 47.1689 11.7874 556 74.6169 533.252 555.779
788 0 46.1348 12.4418 574 74.507 533.493 555.423
789 0 49.1085 12.5029 614 73.7785 533.583 553.782
790 0 49.2265 12.798 630 74.4746 534.183 553.551
791 0 52.2616 13.0306 681 73.9662 534.01 551.22
792 0 55.2151 13.2935 734 72.752 534.136 551.732
793 0 55.2271 12.2585 677 75.8656 533.446 549.814
794 0 57.1118 12.852 734 74.3079 534.21 549.241
795 0 59.1874 13.2123 782 74.0307 533.917 547.751
796 0 60.2056 12.9722 781 74.2753 533.883 546.26
797 0 61.2718 13.2198 810 73.7716 534.191 545.784
798 0 64.2327 13.0775 840 73.4643 534.505 544.949
799 0 66.1914 13.3099 881 72.7866 534.638 544.723
800 0 68.251 13.3624 912 73.0789 535.271 542.318
801 0 70.162 12.7989 898 73.3073 535.356 541.061
802 1 38.1574 11.505 439 71.7882 535.203 557.376
803 0 39.0375 11.1431 435 73.5287 535.133 555.549
804 0 41.1999 11.2622 464 72.9763 534.843 554.597
805 0 41.1433 11.3263 466 73.7124 534.906 556.105
806 0 44.2485 11.7518 520 71.8769 535.35 553.865
807 0 45.3008 12.2514 555 70.0396 535.427 554.625
808 0 45.2073 12.9183 584 69.399 535.563 552.092
809 0 49.1876 13.0521 642 67.6542 535.313 552.43
810 0 50.206 12.9267 649 68.5871 536.006 551.074
811 0 50.1323 13.6838 686 67.2624 536.089 550.985
812 0 53.2991 13.6775 729 66.4143 536.283 548.778
813 0 53.0824 13.6015 722 66.9737 536.781 545.956
814 0 57.1225 14.3901 822 64.6971 537.119 546.471
815 0 57.1971 12.7454 729 66.7888 538.37 544.579
816 0 57.0932 13.0313 744 66.6613 537.972 543.603
817 0 60.1081 13.4757 810 65.5543 537.999 543.77
818 0 62.1758 14.266 887 64.3033 537.9 542.758
819 0 63.315 13.7408 870 65.092 537.592 541.066
820 0 65.1702 12.92 842 66.1639 537.667 540.98
821 0 69.127 14.5819 1008 63.6667 537.108 538.954
822 0 71.1722 15.1042 1075 62.9544 537.515 538.528
823 0 71.2488 13.8529 987 65.3374 536.28 536.44
824 0 75.1792 14.512 1091 63.8772 536.9 535.159
825 0 76.1096 14.2032 1081 64.9889 536.743 535.505
826 0 79.1789 13.9431 1104 65.5281 536.784 534.603
827 0 82.1534 14.3999 1183 64.2451 536.471 532.962
828 0 85.2274 13.5872 1158 65.2159 537.434 530.045
829 1 45.1552 11.6709 527 66.3074 537.317 552.235
830 0 45.0539 12.0078 541 67.6118 537.664 550.889
831 0 47.0466 13.1359 618 66.1311 537.303 548.816
832 0 48.1463 12.9397 623 67.0819 538.265 549.008
833 0 51.1274 13.7109 701 65.4494 538.106 547.893
834 0 51.1021 13.6002 695 66.3137 537.633 547.604
835 0 54.2455 14.674 796 64.9334 537.819 546.977
836 0 57.387 13.4525 772 66.1334 537.514 544.773
837 0 57.2247 13.578 777 66.2304 537.407 544.582
838 0 59.1861 14.767 874 64.532 537.63 545.739
839 0 60.1579 13.2651 798 67.6441 536.791 543.526
840 0 63.0917 13.9797 882 66.8889 536.95 541.442
841 0 66.1986 14.3205 948 65.4842 537.043 540.338
842 0 67.242 14.5891 981 65.8002 536.339 540.834
843 0 70.1731 14.4642 1015 66.3537 537.16 538.381
844 0 73.2963 13.9434 1022 66.6125 537.429 538.109
845 0 76.2406 14.1395 1078 66.9759 536.915 535.144
846 0 78.1637 14.4696 1131 66.8824 536.721 534.09
847 0 81.104 13.8341 1122 68.0027 536.323 533.923
848 0 82.1749 13.958 1147 68.5327 536.207 532.974
849 1 40.1248 12.486 501 70.6387 536.327 552.062
850 0 42.2785 12.1811 515 70.8097 535.932 552.6
851 0 43.1613 12.2795 530 71.2887 536.202 552.115
852 0 44.0898 12.7921 564 71.6046 535.924 549.771
853 0 47.0941 12.1884 574 72.6028 535.444 549.216
854 0 51.0879 13.5844 694 69.6196 535.912 548.934
855 0 50.1415 13.3024 667 71.8651 536.063 547.97
856 0 52.0882 13.6307 710 70.8056 536.007 547.377
857 0 53.1362 13.7571 731 71.212 536.435 546.501
858 0 57.0831 14.365 820 69.3817 536.485 547.266
859 0 61.1151 14.0391 858 69.0804 535.95 546.072
860 0 61.1877 14.1532 866 69.7771 535.326 543.411
861 0 62.0229 14.3334 889 70.4319 535.136 543.155
862 0 64.2299 14.1834 911 70.4479 534.698 543.426
863 0 67.1102 14.7072 987 70.1185 535.144 540.745
864 0 67.1935 13.9001 934 72.5193 535.184 539.975
865 0 71.3103 14.0793 1004 71.5508 535.094 540.243
866 0 73.0677 14.5892 1066 71.1088 534.821 538.949
867 0 77.0664 14.1826 1093 71.3833 535.186 538.236
868 0 80.1024 14.2443 1141 71.1148 534.294 537.844
869 0 82.234 14.5439 1196 71.8411 534.52 535.556
870 0 83.0741 14.0838 1170 73.5479 534.046 533.197
871 0 86.1461 14.7192 1268 72.3691 533.839 531.767
872 0 89.1082 13.9606 1244 73.3842 533.678 528.199
873 0 91.0444 14.2128 1294 73.2303 533.679 526.832
874 0 94.1107 14.2811 1344 73.0149 534.089 526.231
875 1 49.0508 11.3148 555 73.3153 534.103 548.823
876 0 50.1895 11.7156 588 73.4252 533.588 550.697
877 0 51.1768 11.4114 584 73.8442 533.55 549.724
878 0 53.0556 12.6848 673 72.9049 534.003 547.785
879 0 55.2902 13.2754 734 72.9155 533.251 549.139
880 0 58.1646 13.5306 787 72.2618 532.853 547.734
881 0 59.1731 13.3507 790 72.3595 532.415 546.652
882 0 61.2853 12.4826 765 73.6092 532.301 545.724
883 0 63.1851 13.136 830 72.4759 532.694 544.79
884 0 66.3244 12.9213 857 71.3349 532.522 545.947
885 0 68.1319 12.2263 833 72.3133 532.691 544.417
886 0 69.17 12.9247 894 71.9676 532.944 542.587
887 0 72.2236 12.6828 916 71.7849 533.606 541.467
888 0 76.108 12.7845 973 72.3011 533.641 538.615
889 0 79.1899 12.6026 998 71.7164 533.787 537.255
890 0 82.1436 12.2955 1010 72.0584 534.209 537.105
891 1 46.1586 10.6156 490 67.9735 533.527 556.32
892 0 47.1039 10.445 492 68.6768 533.787 553.963
893 0 48.1448 11.4446 551 72.1525 534.094 553.637
894 0 51.1986 12.0902 619 69.4006 533.919 552.27
895 0 51.1732 12.3307 631 65.9398 535.036 551.967
896 0 51.2254 11.1468 571 69.1804 535.28 550.254
897 0 53.1652 12.4518 662 66.7749 535.767 549.346
898 0 53.1914 12.314 655 67.9191 535.345 547.418
899 0 56.2772 12.0653 679 67.6878 535.973 547.109
900 0 59.3802 11.6537 692 67.4451 536.475 547.405
901 0 61.3076 11.6788 716 67.6411 536.256 546.932
902 0 61.2292 11.9714 733 68.296 536.889 543.678
903 0 62.2522 12.0317 749 67.781 537.123 542.956
904 0 66.2138 12.2784 813 67.6212 537.223 541.282
905 0 68.2826 12.375 845 67.0071 537.089 540.986
906 0 69.2779 12.0385 834 68.018 537.406 539.663
907 0 72.3507 12.6329 914 67.1269 537.12 537.394
908 1 37.2643 9.3387 348 68.842 536.583 555.879
909 0 39.2565 9.9092 389 68.0257 536.581 554.972
910 0 40.446 9.98862 404 67.1634 536.921 554.876
911 0 42.0862 10.2409 431 67.3179 535.775 553.615
912 0 44.0563 10.8044 476 66.9034 536.116 552.571
913 0 44.2761 10.954 485 67.7814 538.219 552.928
914 0 44.4155 10.9647 487 67.7372 537.901 551.579
915 0 45.3194 11.7168 531 64.3315 538.292 550.42
916 0 48.2577 11.4593 553 66.3888 537.678 551.718
917 0 51.3768 11.6784 600 65.4767 538.05 549.482
918 0 50.2594 11.8386 595 66.4605 537.966 548.768
919 0 52.3798 11.3212 593 66.6172 537.74 548.246
920 0 54.3618 11.3499 617 65.8541 537.919 547.951
921 0 57.2983 12.2691 703 64.3243 538.174 546.259
922 0 57.473 11.5532 664 65.4352 538.27 546.02
923 0 59.3299 11.6299 690 65.5826 538.568 544.078
924 0 60.4166 12.0497 728 65.1703 538.813 543.569
925 0 62.3037 11.6526 726 65.2493 538.416 543.43
926 0 65.446 11.9488 782 64.8197 538.671 540.812
927 0 65.362 12.4384 813 63.9545 537.995 542.834
928 0 68.2763 12.7863 873 63.8855 538.655 541.995
929 0 69.4626 12.1792 846 64.747 538.04 541.496
930 0 71.3961 12.0315 859 64.4657 539.024 540.217
931 0 75.3321 12.3453 930 64.1323 538.467 538.808
932 0 77.4494 12.7696 989 64.2841 538.332 536.792
933 1 40.2028 10.248 412 64.0728 537.743 555.638
934 0 40.0777 9.75606 391 66.0281 537.647 554.105
935 0 41.0242 10.1403 416 65.4135 537.882 554.058
936 0 42.0961 10.6898 450 65.4756 537.573 553.551
937 0 45.0251 11.6157 523 64.3518 537.459 553.042
938 0 45.1036 12.2607 553 64.7215 537.788 551.295
939 0 48.2295 12.1502 586 64.3396 537.517 552.032
940 0 48.2212 11.9864 578 65.2889 537.633 551.877
941 0 49.0786 12.3272 605 65.914 536.945 551.393
942 0 50.0725 12.0425 603 67.6866 537.106 548.978
943 0 51.1553 12.7064 650 66.72 537.12 548.838
944 0 53.2312 13.0187 693 66.2063 537.061 549.315
945 0 54.2516 13.2899 721 66.4494 536.675 548.875
946 0 56.3061 12.4853 703 68.3983 536.666 548.186
947 0 57.1635 13.6101 778 67.3316 536.743 547.328
948 0 59.1994 12.9224 765 68.1765 536.531 547.12
949 0 60.3153 13.0647 788 68.25 536.027 546.326
950 0 62.191 13.9731 869 67.3257 536.209 544.013
951 0 63.3706 13.4605 853 67.9437 535.884 543.503
952 0 66.4844 13.9582 928 67.2629 535.433 542.033
953 0 67.2943 12.9877 874 69.8307 535.629 540.38
954 0 70.3851 12.9147 909 69.7382 535.6 539.11
955 1 37.3143 10.7466 401 68.8479 534.968 557.294
956 0 38.4476 10.8719 418 69.1053 535.167 557.292
957 0 40.2439 10.9333 440 69.0864 535.364 554.245
958 0 41.391 11.4276 473 67.8837 535.998 555.558
959 0 41.3415 12.167 503 68.5984 536.256 552.821
960 0 44.0214 13.5843 598 64.811 535.664 553.207
961 0 45.1328 12.5186 565 67.0053 535.627 554.359
962 0 44.1621 12.4768 551 68.1978 535.461 554.203
963 0 46.0503 12.7687 588 67.9796 535.711 551.748
964 0 47.136 13.3019 627 67.0718 535.325 552.869
965 0 49.0735 12.4507 611 67.9133 535.484 551.36
966 0 51.1198 12.637 646 67.1238 535.305 551.006
967 0 52.1247 13.7555 717 65.8884 535.848 549.661
968 0 55.1534 13.7979 761 64.9777 535.445 550.238
969 0 56.1719 12.7822 718 66.5014 535.128 549.46
970 0 55.1361 13.4032 739 66.4696 535.041 547.334
971 0 57.1047 13.449 768 66.4271 535.293 547.062
972 0 59.1744 13.08 774 66.0866 535.96 546.092
973 0 62.0806 13.7241 852 64.3779 535.84 545.641
974 0 63.2005 13.56 857 64.7923 535.397 544.908
975 0 65.1728 13.2724 865 65.252 535.342 543.914
976 0 67.238 14.1884 954 63.6803 534.565 542.59
977 0 69.1669 12.6361 874 65.7643 534.497 542.525
978 0 71.2138 13.3963 954 64.2453 534.375 542.389
979 0 73.1528 12.7541 933 64.8156 533.969 539.618
980 0 76.2908 12.9898 991 64.6014 534.232 539.129
981 0 78.203 14.0532 1099 63.1183 533.911 535.912
982 1 42.1578 11.0774 467 65.182 533.493 554.531
983 0 46.0823 12.6947 585 62.9487 533.95 553.012
984 0 46.1066 12.5362 578 63.3356 533.434 553.019
985 0 49.0847 12.4886 613 63.7569 534.01 553.098
986 0 48.1054 13.0547 628 64.0239 534.361 551.47
987 0 51.0656 12.6308 645 64.1318 534.553 551.248
988 0 51.0894 12.8402 656 64.0457 534.242 550.858
989 0 53.0973 13.3528 709 63.5162 533.987 550.591
990 0 56.0746 13.4464 754 62.9934 534.381 548.926
991 0 55.1233 13.5333 746 63.6622 533.578 548.45
992 0 60.0943 13.8449 832 62.0889 533.466 548.337
993 0 60.0575 13.0542 784 64.4388 533.598 546.376
994 0 61.0734 13.7212 838 63.6456 534.115 545.85
995 0 63.0812 13.5064 852 63.6667 534.167 545.415
996 0 68.137 14.4268 983 61.6185 533.778 545.061
997 0 68.0643 13.3697 910 63.1637 533.697 544.926
998 0 70.1835 13.023 914 64.5853 533.336 542.213
999 0 74.1296 14.043 1041 62.4947 533.429 540.805
1000 0 75.0922 14.0627 1056 62.7348 533.808 540.881
1001 0 79.1755 14.411 1141 61.7169 533.706 539.252
1002 1 40.019 11.6445 466 64.088 533.388 558.94
1003 0 41.0492 11.9856 492 61.8272 533.022 558.496
1004 0 42.024 12.6832 533 61.5816 533.169 557.816
1005 0 45.0523 12.2968 554 61.9585 532.919 556.922
1006 0 46.1336 13.0491 602 61.902 533.563 554.42
1007 0 46.1099 13.7498 634 61.0662 533.144 554.473
1008 0 47.1264 12.8378 605 62.5587 533.607 555.618
1009 0 47.0678 13.6186 641 62.6225 533.916 553.413
1010 0 51.0492 13.5751 693 62.0144 533.784 553.009
1011 0 51.062 13.9634 713 61.7504 533.769 553.216
1012 0 53.0567 13.2877 705 64.0979 533.716 551.604
1013 0 55.0885 14.4132 794 62.3929 533.831 551.38
1014 0 55.0525 13.0239 717 64.3529 534.117 551.577
1015 0 58.0473 13.6096 790 62.7861 533.499 549.199
1016 0 60.0663 13.9013 835 62.3737 534.261 549.301
1017 0 61.0679 14.0172 856 62.854 534.507 547.168
1018 0 64.0885 13.1069 840 63.2179 535.044 546.783
1019 0 66.0707 13.0164 860 63.1977 535.274 545.857
1020 0 69.0617 13.7269 948 62.7331 534.766 544.249
1021 0 71.0882 14.5312 1033 61.424 534.836 542.832
1022 0 73.0262 13.9128 1016 61.9803 534.626 541.36
1023 0 76.1829 13.5857 1035 62.9807 534.705 540.067
1024 0 77.1529 13.9074 1073 62.972 535.023 540.943
1025 1 40.0523 10.7859 432 65.0139 534.595 558.676
1026 0 43.0666 11.1223 479 64.5992 534.597 557.595
1027 0 43.0576 12.5646 541 63.3845 535.348 556.05
1028 0 47.2278 12.8949 609 62.7323 535.57 555.062
1029 0 47.1832 12.5044 590 63.4356 535.712 555.334
1030 0 48.2747 13.3818 646 62.8669 535.703 554.803
1031 0 49.1371 13.3911 658 62.7538 535.518 552.944
1032 0 50.2368 13.0382 655 63.174 535.876 552.64
1033 0 51.1376 13.1215 671 62.8107 535.903 551.948
1034 0 55.1129 13.4996 744 61.6801 536.062 549.716
1035 0 56.141 13.9648 784 61.7653 536.171 549.481
1036 0 59.0977 13.2831 785 62.2089 536.325 549.278
1037 0 61.1577 13.2445 810 63.1963 536.001 547.628
1038 0 64.2012 13.7848 885 61.7232 536.872 547.263
1039 0 64.1084 13.9295 893 62.4177 537.213 545.15
1040 0 67.1321 14.181 952 61.6733 537.791 543.472
1041 0 70.1844 12.9231 907 63.3936 538.59 543.376
1042 0 71.1513 13.8578 986 62.3641 538.372 542.183
1043 0 74.2921 13.2181 982 63.3666 538.763 540.15
1044 0 78.5192 14.0093 1100 61.87 538.433 539.351
1045 1 41.1743 11.4635 472 63.8157 538.771 556.888
1046 0 44.1989 10.7921 477 65.0629 538.289 557.39
1047 0 44.214 11.9193 527 63.4194 538.909 555.275
1048 0 46.1242 12.8349 592 62.2534 538.684 555.318
1049 0 47.1502 12.8313 605 63.395 538.684 553.729
1050 0 49.2018 12.6012 620 63.5387 538.923 552.895
1051 0 52.2063 12.872 672 62.7917 538.722 552.326
1052 0 53.3726 12.9467 691 63.6758 539.411 551.509
1053 0 55.1892 12.5206 691 64.508 538.737 550.715
1054 0 55.2459 12.9783 717 64.265 539.127 551.183
1055 0 56.2611 13.0819 736 64.8274 539.178 550.219
1056 0 58.1712 13.5634 789 64.0634 539.355 548.2
1057 0 62.3228 13.1733 821 64.1998 539.303 547.124
1058 0 64.1357 13.1596 844 64.9194 539.284 546.153
1059 0 66.1811 12.9191 855 65.6339 538.959 544.988
1060 0 67.205 13.124 882 65.2834 538.747 543.15
1061 0 68.225 13.5727 926 64.8369 538.829 543.23
1062 0 71.2574 13.9354 993 64.4411 539.075 541.095
1063 0 74.2999 13.4186 997 65.9739 538.477 540.482
1064 0 77.2226 13.9078 1074 65.1387 539.244 539.945
1065 1 38.1322 10.8307 413 67.6465 539.257 558.69
1066 0 38.0145 11.2063 426 66.4577 539.347 559.944
1067 0 39.0696 11.7483 459 66.5643 539.403 559.303
1068 0 42.0909 11.8315 498 67.0924 538.795 557.335
1069 0 41.03 11.6988 480 68.2062 538.494 556.7
1070 0 44.0725 12.8652 567 66.127 537.386 555.557
1071 0 44.0336 12.1952 537 67.2682 537.222 554.199
1072 0 46.0349 12.1647 560 68.0304 537.371 553.004
1073 0 47.0967 12.3151 580 67.5966 537.229 552.857
1074 0 48.0543 12.5899 605 67.8347 537.055 552.926
1075 0 50.1198 12.1708 610 68.1246 536.539 552.397
1076 0 51.1651 12.4499 637 69.2684 536.636 550.997
1077 0 54.1522 12.8342 695 67.859 537.213 549.809
1078 0 53.1306 13.0621 694 68.5231 537.895 548.818
1079 0 57.139 12.8809 736 67.909 537.408 549.878
1080 0 59.1157 13.2452 783 67.8736 537.201 547.091
1081 0 58.121 13.1794 766 69.1997 536.843 547.414
1082 0 61.163 13.9463 853 67.3482 536.926 545.209
1083 0 62.1456 13.5971 845 68.9811 536.878 546.12
1084 0 66.153 13.0304 862 69.4954 536.486 544.807
1085 0 67.1244 14.0336 942 69.2463 536.941 543.581
1086 0 70.1356 13.9872 981 69.1957 536.783 543.223
1087 0 72.1487 14.0543 1014 69.3846 536.54 540.873
1088 0 74.121 13.5049 1001 70.7692 537.172 539.612
1089 1 37.0724 10.6818 396 72.4116 536.035 558.79
1090 0 39.093 10.3088 403 73.263 535.953 557.417
1091 0 39.0956 11.1266 435 72.8 535.885 558.513
1092 0 41.0159 10.8007 443 72.6614 537.65 558.596
1093 0 43.0106 11.9971 516 72.062 537.657 557.589
1094 0 44.0916 12.4514 549 71.4572 537.514 556.392
1095 0 46.179 13.2311 611 70.6268 536.506 553.997
1096 0 48.1951 11.9929 578 71.8599 536.417 552.997
1097 0 49.0944 12.7102 624 71.1026 535.736 551.635
1098 0 52.2454 12.671 662 70.5045 535.869 551.187
1099 0 51.2383 12.6858 650 71.4138 536.212 550.212
1100 0 54.2158 13.0774 709 70.4401 536.434 549.151
1101 0 55.2697 13.027 720 70.8306 536.368 549.047
1102 0 58.179 12.5819 732 70.7637 536.191 548.749
1103 0 58.1595 13.2223 769 70.4109 535.791 547.191
1104 0 61.1253 13.1206 802 70.0374 536.072 546.254
1105 0 63.2763 13.6386 863 68.5724 535.778 545.832
1106 0 63.1839 13.0255 823 69.921 535.542 545.288
1107 0 67.118 12.5898 845 69.6438 536.109 545.595
1108 0 70.1389 12.8459 901 68.7936 535.585 542.584
1109 0 73.1089 13.1995 965 67.772 535.501 541.952
1110 0 73.1028 12.5303 916 69.2052 535.414 540.67
1111 0 77.2022 13.4841 1041 66.8309 534.923 538.004
1112 0 81.1222 13.1653 1068 66.5712 534.949 538.587
1113 0 81.1619 13.356 1084 66.8459 535.725 537.412
1114 1 43.1184 10.2972 444 67.0158 535.723 556.777
1115 0 45.0812 10.5587 476 66.1513 535.193 556.977
1116 0 46.0391 10.7952 497 67.0101 535.076 555.028
1117 0 49.0602 11.7815 578 65.0657 535.637 555.289
1118 0 49.1935 11.5259 567 66.2416 535.404 554.43
1119 0 52.1183 11.685 609 65.3465 535.388 554.046
1120 0 52.0793 12.2697 639 65.6369 535.296 552.258
1121 0 54.1911 12.4375 674 65.7834 535.405 549.991
1122 0 56.1244 12.6861 712 65.4874 535.31 549.434
1123 0 58.1994 12.8867 750 65.2747 534.965 548.209
1124 0 59.1628 12.6262 747 65.6412 535.118 549.925
1125 0 60.1284 12.3403 742 65.938 535.325 548.051
1126 0 63.0586 12.4329 784 65 535.31 546.619
1127 0 66.2233 12.9713 859 64.1094 534.931 548.168
1128 0 67.2791 12.4853 840 64.8667 534.868 546.087
1129 0 68.1786 12.1299 827 65.8247 535.17 544.985
1130 0 73.4404 13.3033 977 63.8854 535.005 542.15
1131 0 73.2873 12.8945 945 65.3746 535.348 540.826
1132 0 76.5126 12.6123 965 65.2622 535.103 540.625
1133 0 79.6957 12.7736 1018 65.4558 535.085 537.667
1134 1 40.4253 10.8595 439 66.3394 535.191 558.339
1135 0 43.3651 10.8843 472 66.214 534.941 556.665
1136 0 43.4174 10.5257 457 67.0306 535.337 556.018
1137 0 44.1724 10.8892 481 67.5052 536.027 555.85
1138 0 47.2443 11.7686 556 66.3507 536.353 555.367
1139 0 47.1706 12.3594 583 65.4425 535.78 554.599
1140 0 51.0814 12.5682 642 64.1978 535.801 554.724
1141 0 50.1492 13.061 655 65.1908 536.453 553.834
1142 0 53.0901 12.9591 688 66.6599 536.892 552.206
1143 0 56.1527 12.6441 710 66.3099 536.728 551.365
1144 0 56.1151 12.7951 718 66.7228 536.386 551.029
1145 0 59.1006 13.5701 802 65.3978 536.683 549.677
1146 0 58.1506 13.8434 805 66.1118 537.066 548.784
1147 0 61.0794 13.5561 828 66.4553 537.135 548.041
1148 0 62.1314 13.8095 858 66.7832 537.351 547.225
1149 0 65.1394 13.9086 906 66.4249 537.696 545.924
1150 0 65.2259 13.0163 849 68.2167 537.943 544.75
1151 0 68.3257 12.7185 869 68.183 538.052 545.281
1152 0 70.1996 13.3192 935 68.1668 538.29 542.103
1153 0 72.1929 13.0899 945 67.5915 538.428 540.858
1154 0 77.3338 14.0689 1088 65.7417 537.748 538.547
1155 1 40.2155 10.1702 409 68.5697 536.655 556.763
1156 0 41.0845 10.4419 429 68.634 537.189 555.538
1157 0 40.0504 10.6116 425 68.8329 537.72 555.285
1158 0 42.1094 10.5202 443 68.0226 538.117 555.307
1159 0 44.0523 11.9631 527 66.2827 538.302 553.581
1160 0 46.0433 11.3372 522 66.749 538.979 552.368
1161 0 46.0522 11.8561 546 66.9432 539.5 552.222
1162 0 49.1826 12.2604 603 66.9055 539.245 552.093
1163 0 50.2033 13.047 655 65.3191 539.392 551.606
1164 0 51.0408 12.9504 661 66.3086 540.047 550.557
1165 0 53.1591 13.0928 696 65.342 540.395 550.625
1166 0 54.1815 12.5135 678 67.0162 540.031 549.13
1167 0 54.0809 13.036 705 67.0624 540.407 549.345
1168 0 56.1626 12.6241 709 67.8942 540.934 547.944
1169 0 59.0542 13.3606 789 66.3511 540.222 547.588
1170 0 59.1744 13.7221 812 67.0308 539.994 546.511
1171 0 61.0897 13.1937 806 68.33 540.104 545.295
1172 0 63.1685 13.741 868 66.9113 540.294 544.714
1173 0 64.1279 12.8493 824 68.5121 540.262 544.188
1174 0 68.3593 14.0581 961 65.8179 540.637 543.457
1175 0 70.2099 12.7902 898 68.1058 541.01 541.601
1176 0 74.1276 13.2879 985 66.598 540.793 540.283
1177 0 75.2966 13.8386 1042 65.8618 540.761 538.015
1178 1 38.1128 9.62931 367 68.6322 540.714 559.136
1179 0 41.0835 10.9776 451 67.1818 541.353 556.297
1180 0 42.0865 11.5952 488 65.9857 541.211 555.967
1181 0 43.035 11.572 498 66.4277 541.371 553.853
1182 0 46.2677 12.2115 565 64.446 541.09 554.25
1183 0 46.1454 12.3956 572 64.5927 540.374 553.458
1184 0 48.2074 12.6951 612 64.2075 541.281 551.753
1185 0 52.1998 13.1418 686 62.9198 541.092 550.446
1186 0 50.2072 12.2891 617 65.248 540.862 550.35
1187 0 54.2823 12.5087 679 64.081 541.278 549.118
1188 0 56.2134 12.6838 713 63.9453 540.986 547.849
1189 0 58.4467 12.7638 746 63.4303 540.694 547.298
1190 0 58.3994 12.3631 722 64.6136 539.835 548.46
1191 0 59.1488 12.1558 719 65.7705 540.296 546.599
1192 0 61.3274 12.2621 752 66.016 539.948 545.67
1193 0 64.4436 12.0415 776 65.8209 539.838 543.537
1194 0 65.2313 12.7699 833 65.6291 539.814 544.334
1195 0 69.4197 13.4832 936 63.9156 539.141 542.156
1196 1 34.1813 10.5321 360 67.2694 539.292 559.014
1197 0 35.0948 10.4574 367 68.0082 539.248 557.39
1198 0 38.2785 10.7894 413 67.9467 538.985 556.516
1199 0 40.4686 10.8479 439 69.0433 539.569 555.262
1200 0 40.2724 11.2236 452 68.2367 539.356 554.845
1201 0 42.2184 12.1274 512 67.5781 538.773 554.213
1202 0 44.3184 12.3425 547 67.1188 538.797 553.234
1203 0 46.3334 12.6259 585 67.0821 538.65 553.81
1204 0 48.4635 12.5662 609 67.509 538.678 552.489
1205 0 49.2474 12.8738 634 69.4748 538.511 552.435
1206 0 50.4384 12.887 650 69.92 538.057 550.065
1207 0 51.3181 13.0558 670 70.8 538.176 549.967
1208 0 53.3835 13.3749 714 70.2983 538.137 548.445
1209 0 55.5153 12.5551 697 71.8293 537.93 547.717
1210 0 57.3548 12.9545 743 70.3742 537.579 546.346
1211 0 59.6154 14.2245 848 68.3632 537.855 543.886
1212 0 59.4879 13.6162 810 70.4457 538.081 543.209
1213 0 60.344 13.5888 820 70.9939 537.411 543.622
1214 0 65.6127 13.7169 900 70.1789 537.476 543.239
1215 0 66.6061 13.5873 905 70.5547 537.304 542.287
1216 0 68.6814 13.9922 961 70.0604 537.06 540.554
1217 0 68.6224 13.873 952 71.7059 536.687 537.237
1218 0 72.5729 13.0903 950 72.4947 536.814 540.341
1219 0 74.6491 13.6907 1022 71.4883 536.277 537.165
1220 0 75.7632 13.6082 1031 71.3637 536.084 536.32
1221 0 79.2837 13.9877 1109 69.6186 536.185 535.516
1222 1 41.2142 11.4281 471 72.5817 535.552 552.435
1223 0 43.4228 10.7777 468 72.8397 535.863 550.949
1224 0 46.2729 11.7563 544 71.0055 535.21 550.496
1225 0 47.1902 11.8881 561 70.6702 535.613 548.988
1226 0 48.444 12.0139 582 71.6753 535.706 548.893
1227 0 50.3485 12.5724 633 71.0916 535.498 548.145
1228 0 52.2678 12.302 643 71.028 535.165 549.594
1229 0 51.1247 13.3204 681 69.8003 535.244 548.081
1230 0 53.1324 12.6665 673 70.5661 535.627 548.733
1231 0 54.1507 12.9454 701 70.5963 535.351 547.702
1232 0 56.1806 13.0828 735 69.9333 534.703 547.427
1233 0 58.3517 13.4529 785 69.1312 534.804 546.918
1234 0 59.3184 12.8965 765 69.9163 535.38 545.974
1235 0 62.2711 13.2325 824 68.7488 535.343 544.602
1236 0 63.4007 13.4383 852 69.1209 535.135 544.076
1237 0 64.3301 13.4152 863 69.2514 535.324 542.634
1238 0 67.2165 13.0028 874 69.3856 535.538 541.88
1239 0 69.2653 13.5566 939 68.8488 535.015 540.471
1240 0 70.1264 13.3046 933 69.7642 535.081 538.965
1241 0 74.2473 13.7783 1023 68.086 535.236 539.395
1242 0 74.2473 13.7918 1024 173.105 536.242 539.371
1243 0 78.1906 13.8508 1083 67.4377 535.03 536.662
1244 0 82.2044 13.5638 1115 67.8269 535.506 534.849
1245 1 44.2206 11.1939 495 67.2727 535.648 554.754
1246 0 47.0652 11.091 522 67.6245 535.502 555.136
1247 0 47.0469 11.1166 523 67.7323 534.585 553.715
1248 0 48.0645 11.4014 548 70.5876 535.383 551.905
1249 0 50.0594 12.4053 621 68.4042 535.118 552.169
1250 0 51.0437 12.6558 646 68.9009 535.152 550.331
1251 0 54.0952 12.8662 696 68.7083 535.783 549.829
1252 0 55.1263 12.9158 712 69.6152 535.768 550.076
1253 0 58.1629 13.2043 768 69.056 535.548 550.694
1254 0 59.1978 13.362 791 69.7269 535.929 547.124
1255 0 61.1511 13.2132 808 69.3651 535.85 546.884
1256 0 63.2747 13.1174 830 69.6325 535.993 545.853
1257 0 64.1688 13.6047 873 69.1649 536.108 545.418
1258 0 66.2053 14.2134 941 68.9267 536.329 542.529
1259 0 70.236 13.4262 943 69.8282 536.725 544.056
1260 0 72.1836 13.5626 979 69.5853 537.156 541.619
1261 0 73.1245 13.8531 1013 69.8351 537.086 539.774
1262 0 76.1353 14.1984 1081 68.9898 537.124 539.251
1263 0 78.2098 14.0392 1098 69.5064 537.558 536.818
1264 0 81.1774 14.1295 1147 69.4595 537.621 535.65
1265 0 83.2295 14.0095 1166 69.8739 537.954 534.432
1266 1 43.073 10.6795 460 70.6848 538.004 554.978
1267 0 43.1001 10.6728 460 71.4413 537.978 554.339
1268 0 47.1872 11.0623 522 70.5383 538.05 552.808
1269 0 47.099 11.6138 547 71.0969 538.316 550.878
1270 0 51.0642 11.8087 603 69.728 538.357 550.773
1271 0 51.0538 12.6337 645 69.2403 538.58 550.056
1272 0 52.0985 12.7451 664 70.2515 538.62 550.622
1273 0 54.2349 12.704 689 69.9565 538.56 550
1274 0 58.1117 13.9903 813 67.5203 539.253 547.098
1275 0 59.1667 13.3352 789 68.3257 539.608 547.34
1276 0 60.2223 13.4336 809 68.6613 539.79 546.073
1277 0 62.1219 13.6184 846 68.4161 540.008 544.457
1278 0 65.2724 13.053 852 68.2946 540.121 544.034
1279 0 68.1461 12.9281 881 68.3644 539.978 542.502
1280 0 68.1399 12.7091 866 69.8476 539.716 541.126
1281 0 72.2062 13.8631 1001 67.7443 539.823 539.449
1282 0 75.1203 13.4584 1011 68.1464 540.588 537.199
1283 0 76.1373 13.0028 990 68.7283 540.699 538.084
1284 0 78.1308 14.143 1105 67.5792 540.976 536.078
1285 0 82.1806 13.665 1123 67.6322 541.428 534.102
1286 1 41.0448 11.2073 460 69.7935 540.491 554.122
1287 0 44.1009 11.315 499 68.0641 540.046 554.645
1288 0 47.0428 10.8199 509 68.558 540.878 553.652
1289 0 47.0428 10.8199 509 172.34 541.872 553.719
1290 0 48.0742 11.8359 569 69.2144 540.54 550.721
1291 0 51.2815 12.4411 638 67.6536 542.143 550.05
1292 0 53.1377 12.7781 679 66.9219 542.292 548.51
1293 0 52.1413 13.3483 696 67.1221 542.185 547.356
1294 0 55.1877 13.0464 720 66.4944 542.131 546.626
1295 0 58.192 13.0087 757 66.9392 541.995 546.095
1296 0 58.3495 13.025 760 67.5763 541.442 544.479
1297 0 62.0688 13.4045 832 66.5048 541.431 543.96
1298 0 63.0777 13.0157 821 66.7345 542.049 543.888
1299 0 65.1441 12.9098 841 66.9049 541.692 543.945
1300 0 67.1055 13.1435 882 67.2857 541.907 541.09
1301 0 68.144 13.2367 902 67.5067 540.755 540.507
1302 0 71.2273 13.7307 978 66.6718 541.011 538.718
1303 0 74.2758 13.8672 1030 66.9039 540.975 537.473
1304 0 76.2042 12.8077 976 68.3279 541.557 536.678
1305 0 78.3198 13.5853 1064 67.3393 540.631 535.387
1306 0 81.3559 13.8773 1129 66.8282 540.565 535.585
1307 0 84.2578 14.0521 1184 66.9426 540.566 532.907
1308 0 84.3407 12.8645 1085 69.3355 540.508 531.386
1309 0 89.1922 13.129 1171 68.889 540.562 530.827
1310 1 45.0696 11.449 516 70.1899 540.521 551.748
1311 0 49.1485 11.6382 572 69.1364 540.629 550.22
1312 0 49.1164 12.2973 604 70.3874 540.636 548.95
1313 0 50.0854 12.319 617 68.7861 540.109 547.878
1314 0 53.1805 12.843 683 68.5227 539.53 549.168
1315 0 55.3396 12.2697 679 68.5744 539.464 548.271
1316 0 57.151 12.0558 689 69.0116 538.547 546.312
1317 0 58.1217 13.0588 759 68.1252 539.281 548.182
1318 0 61.1258 13.3168 814 67.4373 538.964 546.955
1319 0 61.2236 12.9035 790 68.6139 538.887 546.304
1320 0 65.4322 13.0211 852 67.1315 538.381 543.912
1321 0 66.2503 12.6188 836 68.1926 538.055 543.386
1322 0 66.4478 12.5211 832 68.0625 538.315 543.034
1323 0 72.49 12.9949 942 66.1837 538.093 540.959
1324 0 72.3779 12.6972 919 65.9271 537.75 539.28
1325 0 76.4707 13.0115 995 64.3397 537.455 539.059
1326 0 79.5481 13.6395 1085 62.7954 537.567 536.971
1327 0 81.5873 13.1148 1070 63.9093 537.625 534.981
1328 0 82.5854 13.6707 1129 62.8893 537.25 532.211
1329 1 45.4726 11.0396 502 64.8088 537.251 552.131
1330 0 47.3714 10.6604 505 64.798 537.505 552.483
1331 0 49.2855 11.6667 575 63.16 537.532 552.558
1332 0 50.2743 12.6506 636 61.7547 537.656 551.467
1333 0 52.2049 13.5428 707 60.0085 537.082 550.547
1334 0 51.1705 12.9958 665 63.2857 537.203 550.337
1335 0 52.2201 12.8112 669 63.4365 536.978 548.577
1336 0 52.2592 12.2466 640 64.1453 536.978 547.845
1337 0 55.2419 12.0018 663 63.5053 537.095 546.237
1338 0 57.3741 13.4033 769 61.0845 536.821 544.743
1339 0 58.4052 12.3105 719 62.2782 537.003 543.994
1340 0 61.3216 13.1438 806 60.6191 537.133 543.453
1341 0 64.5014 12.8059 826 60.4927 537.488 543.492
1342 0 63.479 12.7759 811 60.6794 537.533 541.427
1343 0 66.4229 12.6914 843 60.4709 537.523 539.604
1344 0 69.6098 13.001 905 59.4398 537.243 538.39
1345 0 70.5913 13.1036 925 59.0249 537.618 537.935
1346 0 73.5268 13.3693 983 58.6826 537.249 536.294
1347 0 77.4652 13.6577 1058 58.3781 536.771 535.382
1348 0 77.5332 12.73 987 60.1307 537.018 534.032
1349 0 82.6242 13.3859 1106 59.2414 536.858 532.422
1350 0 82.4494 12.5653 1036 60.8919 536.412 532.52
1351 1 45.497 11.4074 519 61.3911 535.233 551.21
1352 0 44.2591 10.9582 485 63.0289 535.27 550.938
1353 0 47.4108 10.9258 518 63.0019 535.282 550.386
1354 0 47.3046 11.0983 525 63.3486 534.844 550.756
1355 0 49.2822 11.2211 553 63.3273 534.579 550.354
1356 0 53.0578 12.2131 648 62.284 535.429 549.566
1357 0 54.0652 12.2815 664 62.3268 534.979 547.714
1358 0 53.2562 12.5995 671 62.4724 534.496 547.046
1359 0 59.2534 12.6238 748 62.1043 535.254 546.615
1360 0 61.0601 12.9708 792 61.9318 535.342 545.437
1361 0 62.1403 12.6649 787 62.6722 535.135 544.841
1362 0 63.2392 12.9825 821 62.7028 535.05 544.833
1363 0 63.159 12.5715 794 64.2128 535.062 544.304
1364 0 66.2032 12.7335 843 63.554 535.004 544.216
1365 0 69.2155 12.2949 851 64.7121 535.247 543.09
1366 0 70.2215 12.8878 905 64.1989 535.215 541.318
1367 0 74.1456 13.5679 1006 62.6938 534.323 539.672
1368 0 76.2052 13.5949 1036 63.1708 534.914 538.814
1369 0 77.1858 13.3444 1030 64.2437 534.82 538.046
1370 0 79.183 13.8035 1093 63.8646 535.279 536.834
1371 0 82.1218 13.687 1124 64.0311 535.079 535.673
1372 0 84.1393 13.0736 1100 65.7364 535.333 534.684
1373 0 89.0996 14.0292 1250 64.2792 535.598 532.451
1374 0 90.1244 13.5701 1223 64.9428 535.8 531.799
1375 0 95.1648 13.3243 1268 65.5789 535.702 529.754
1376 0 98.1937 14.064 1381 64.7205 534.998 530.314
1377 0 102.153 13.8029 1410 64.8752 535.367 528.023
1378 1 51.0595 11.4181 583 66.1732 535.298 554.556
1379 0 53.0828 11.6234 617 66.7601 535.1 553.444
1380 0 53.2791 11.9371 636 66.4308 533.668 552.016
1381 0 56.2734 12.6525 712 65.6657 533.9 549.479
1382 0 57.3473 12.8166 735 63.5007 533.822 547.888
1383 0 56.36 12.5444 707 64.0071 534.471 546.027
1384 0 61.1365 12.3821 757 65.3369 535.379 547.876
1385 0 63.2498 14.3084 905 62.0066 535.333 547.528
1386 0 62.1463 13.082 813 66.8241 535.014 545.915
1387 0 65.2073 12.4833 814 65.4521 536.036 546.278
1388 0 69.3147 12.8256 889 64.5084 535.674 545.207
1389 0 70.1883 13.1361 922 64.4761 535 544.568
1390 0 72.3856 13.6491 988 63.6468 534.961 540.805
1391 0 76.3092 13.6681 1043 63.2426 535.119 540.161
1392 0 79.4442 13.5693 1078 62.923 535.227 539.703
1393 0 80.3586 13.2655 1066 64.06 535.294 536.237
1394 0 83.3656 13.6627 1139 63.6137 535.465 536.39
1395 0 84.7008 13.8605 1174 63.2317 535.91 535.315
1396 0 87.727 13.4394 1179 63.9686 535.797 533.366
1397 0 91.678 14.3 1311 62.7605 535.992 531.748
1398 0 92.6489 14.2689 1322 62.7179 535.995 531.298
1399 0 95.834 14.066 1348 63.0467 536.144 527.799
1400 0 99.84 14.3029 1428 62.3641 536.06 526.631
1401 1 49.4693 10.9967 544 65.8309 535.726 548.91
1402 0 51.4002 12.5875 647 63.9954 536.162 548.573
1403 0 54.4531 12.9837 707 62.6874 536.669 546.793
1404 0 55.2377 12.7449 704 62.1051 537.325 546.591
1405 0 58.5563 13.3376 781 60.8425 537.521 546.152
1406 0 58.3347 12.8054 747 62.7764 537.959 545.285
1407 0 60.7146 13.6376 828 61.3684 538.446 543.861
1408 0 60.4909 13.5723 821 62.2144 538.28 541.85
1409 0 65.5351 13.8552 908 60.3216 538.447 542.051
1410 0 65.5699 13.0243 854 62.0796 538.816 541.283
1411 0 68.3668 13.7347 939 60.8158 538.821 540.601
1412 0 71.5097 13.3409 954 61.282 539.203 538.621
1413 0 74.2445 13.1458 976 61.1691 539.143 536.596
1414 0 75.3357 13.2606 999 61.1672 539.466 535.974
1415 0 77.3429 13.2139 1022 61.1566 539.04 534.853
1416 1 41.2441 10.45 431 60.8422 539.065 551.807
1417 0 40.2169 10.0952 406 61.7291 539.094 551.14
1418 0 44.2867 11.132 493 60.0892 539.586 550.507
1419 0 45.1597 10.8061 488 60.0943 538.902 550.027
1420 0 46.072 12.0464 555 59.2036 539.477 548.427
1421 0 49.3163 11.3147 558 60.1971 540.685 550.523
1422 0 49.2358 11.8816 585 60.265 540.696 549.708
1423 0 51.3422 11.8031 606 60.4373 540.403 550.223
1424 0 51.3233 11.9244 612 60.3056 540.113 548.113
1425 0 53.363 12.2182 652 60.6012 540.012 546.551
1426 0 57.2402 12.1243 694 59.2334 539.903 547.895
1427 0 58.2782 12.8522 749 59.0067 539.35 546.306
1428 0 59.2969 13.0024 771 58.7185 539.459 545.818
1429 0 60.2265 13.0009 783 58.7778 539.886 545.263
1430 0 64.2898 13.4547 865 57.3526 539.929 544.088
1431 0 65.2836 12.3461 806 59.098 539.478 543.065
1432 0 66.2458 13.3292 883 58.376 539.736 541.454
1433 0 68.3144 12.3986 847 59.5124 539.648 541.163
1434 0 71.0932 12.6172 897 59.874 539.793 538.566
1435 0 74.1306 13.1525 975 59.8913 539.881 537.29
1436 0 77.1457 12.9495 999 60.012 539.46 536.608
1437 0 79.1119 13.1586 1041 60.049 538.984 535.624
1438 0 80.3967 12.8488 1033 60.698 538.571 534.189
1439 0 85.342 13.1237 1120 60.2027 538.11 531.603
1440 0 90.2467 13.5407 1222 58.162 537.643 530.839
1441 0 89.3471 12.457 1113 60.2049 537.738 528.645
1442 0 95.5058 13.863 1324 57.7387 537.606 528.378
1443 1 51.4325 10.9464 563 59.6092 537.853 549.41
1444 0 54.4054 11.1202 605 58.8033 537.755 548.268
1445 0 53.3495 11.3591 606 60.0446 537.551 547.269
1446 0 55.3541 12.5555 695 57.7338 537.691 547.38
1447 0 57.309 12.0574 691 56.9103 537.618 546.792
1448 0 58.1807 11.3783 662 58.5514 538.606 545.689
1449 0 61.2029 12.5974 771 56.5603 538.239 544.765
1450 0 61.2029 12.5974 771 152.339 538.239 544.765
1451 0 63.199 12.6426 799 56.821 537.812 543.658
1452 0 65.1957 11.8106 770 57.8961 537.986 542.864
1453 0 68.194 11.7606 802 58.0536 537.353 541.678
1454 0 69.2444 12.5642 870 56.8621 537.653 541.531
1455 0 69.2444 12.6508 876 150.836 538.667 541.515
1456 0 74.1573 11.9476 886 57.5666 537.218 537.679
1457 0 76.1637 12.6176 961 57.1769 537.546 536.923
1458 0 79.1197 12.1082 958 57.6848 537.495 535.289
1459 0 81.1329 12.9541 1051 56.8677 537.366 534.51
1460 0 85.1631 12.8929 1098 56.5009 537.354 534.225
1461 0 86.235 12.9646 1118 57.0555 536.523 533.261
1462 0 90.279 13.0484 1178 56.8022 535.977 531.293
1463 0 93.3701 12.5522 1172 57.0068 535.801 530.929
1464 1 47.0773 10.281 484 59.3182 535.963 552.725
1465 0 50.0732 9.7058 486 59.1481 535.245 552.996
1466 0 50.1763 10.2239 513 58.5322 535.511 551.113
1467 0 54.2663 11.0013 597 57.2848 535.255 549.606
1468 0 55.1635 11.7469 648 56.7515 534.929 549.806
1469 0 56.1879 12.9565 728 55.0302 535.383 549.86
1470 0 58.1205 13.1623 765 55.8601 534.99 548.924
1471 0 57.3298 14.1113 809 56.4227 534.608 549.739
1472 0 57.103 13.5369 773 58.2354 534.648 548.781
1473 0 59.1594 12.7114 752 58.9269 534.479 548.387
1474 0 61.0571 13.3318 814 57.9988 534.209 548.662
1475 0 64.1446 13.3137 854 57.6148 534.019 547.566
1476 0 65.1668 13.4578 877 57.6089 533.709 545.747
1477 0 66.1114 13.4016 886 57.8284 533.119 546.156
1478 0 69.2247 13.7957 955 57.0272 533.651 544.137
1479 0 70.2597 13.9909 983 57.3469 533.358 541.984
1480 0 74.3812 13.7131 1020 57.0725 534.667 542.399
1481 0 75.2644 12.9676 976 58.8627 534.265 541.03
1482 0 78.5135 13.5009 1060 57.8585 533.911 541.408
1483 0 80.3985 13.8809 1116 58.009 534.484 537.952
1484 0 84.3819 14.0314 1184 57.5456 534.269 536.384
1485 0 88.4985 15.311 1355 55.3624 534.111 531.969
1486 0 90.4143 14.1681 1281 57.7244 534.753 531.019
1487 1 48.3976 9.66991 468 61.5107 534.071 554.051
1488 0 48.292 10.9542 529 60.2779 533.955 552.348
1489 0 51.2878 11.5817 594 59.7744 533.783 551.438
1490 0 52.2808 10.9218 571 61.1243 533.592 549.853
1491 0 54.2153 12.0999 656 59.843 534.364 550.45
1492 0 60.1964 12.7915 770 57.5623 534.412 550.865
1493 0 59.2724 13.4633 798 58.4599 534.417 547.322
1494 0 59.2724 13.4633 798 165.88 534.417 547.322
1495 0 61.216 13.1665 806 59.2903 534.605 546.929
1496 0 64.2433 12.9508 832 60.0457 534.579 545.995
1497 0 67.2316 13.2527 891 59.6914 534.676 543.675
1498 0 70.2302 12.8435 902 59.7217 534.663 543.527
1499 0 71.1811 12.686 903 61.3123 534.388 541.662
1500 0 74.2204 13.5407 1005 60.0637 534.53 542.668
1501 0 75.2503 13.2757 999 61.6156 534.678 540.532
1502 0 76.4486 13.5123 1033 61.3437 534.699 538.237
1503 0 79.2282 12.6218 1000 62.435 534.816 537.573
1504 0 82.2323 13.4375 1105 61.2742 534.882 535.656
1505 0 86.3852 13.6482 1179 60.9584 534.861 535.025
1506 0 90.4689 12.6452 1144 61.8121 535.112 534.654
1507 1 47.295 10.1914 482 61.4066 534.716 552.452
1508 0 49.2515 9.66468 476 61.3361 534.666 553.941
1509 0 50.1993 10.538 529 60.9263 534.873 551.966
1510 0 50.1018 10.9178 547 59.9781 535.09 551.057
1511 0 53.0518 12.0825 641 58.4103 535.32 550.365
1512 0 53.1606 12.0766 642 58.6402 536.69 550.302
1513 0 54.2232 11.1391 604 60.3791 536.77 549.321
1514 0 56.1429 12.0763 678 59.233 537.178 548.757
1515 0 58.2481 11.3824 663 59.9819 536.882 548.888
1516 0 61.2683 11.6863 716 59.2109 537.434 546.756
1517 0 63.2935 12.0866 765 58.5477 537.553 546.737
1518 0 63.254 12.2048 772 58.5466 538.326 546.832
1519 0 65.3061 12.8166 837 57.8973 538.124 543.158
1520 0 67.3199 11.9875 807 58.6865 538.99 541.66
1521 0 70.2421 12.5281 880 58.1341 538.968 540.208
1522 0 70.2294 12.1459 853 61.1254 539.179 540.741
1523 0 75.2593 12.2908 925 58.5222 539.251 540.125
1524 0 75.2182 12.3773 931 58.9796 539.627 538.927
1525 0 77.3037 12.2245 945 59.0899 539.723 536.745
1526 0 80.176 12.5723 1008 58.5734 539.299 536.801
1527 0 85.4102 12.0829 1032 58.8324 539.979 533.014
1528 0 87.2808 11.9729 1045 59.6871 540.146 532.983
1529 1 46.2898 10.9311 506 57.8379 539.549 553.482
1530 0 48.2716 10.6481 514 58.3658 539.492 552.13
1531 0 48.0649 11.4637 551 58.3103 538.708 550.554
1532 0 49.0579 11.1909 549 58.9727 538.661 550.796
1533 0 51.0293 12.483 637 57.7111 538.499 548.035
1534 0 53.0243 11.6362 617 58.893 538.642 548.188
1535 0 53.0433 12.1033 642 58.8505 538.593 547.76
1536 0 55.0483 12.1711 670 59.0657 538.443 546.77
1537 0 56.0184 11.2642 631 60.794 538.556 546.376
1538 0 60.0735 11.8022 709 59.9027 537.742 545.075
1539 0 60.0634 11.954 718 60.7521 538.057 543.659
1540 0 62.0894 12.2404 760 60.4934 538.179 541.176
1541 0 66.0473 12.0822 798 60.3747 538.249 543.02
1542 0 65.0905 12.3828 806 60.6774 537.661 541.736
1543 0 67.058 12.8098 859 60.2526 538.31 539.52
1544 0 68.1704 12.146 828 61.244 538.529 539.941
1545 0 72.099 12.6077 909 60.648 538.631 538.541
1546 0 73.2239 12.9056 945 60.2974 538.248 538.902
1547 0 75.1602 13.0122 978 60.6871 538.172 536.831
1548 0 78.1351 12.5296 979 61.7375 538.12 535.934
1549 0 82.2407 12.8768 1059 60.9934 537.956 535.003
1550 0 85.4436 13.5411 1157 60.0147 537.924 533.794
1551 1 45.0839 9.44904 426 62.4272 537.754 555.134
1552 0 42.1632 10.1747 429 62.8415 537.988 554.564
1553 0 46.089 10.6533 491 62.1853 536.809 554.32
1554 0 47.0827 10.9382 515 62.468 536.083 553.953
1555 0 49.0739 10.8815 534 62.9101 536.401 552.455
1556 0 51.1013 11.8392 605 61.805 536.215 550.696
1557 0 53.1823 11.47 610 62.777 536.062 549.885
1558 0 53.2942 11.7461 626 63.3562 536.415 549.871
1559 0 55.1971 11.5948 640 64.5922 536.708 547.684
1560 0 57.2231 12.46 713 63.5596 536.234 546.976
1561 0 59.1338 12.7 751 63.3728 536.381 545.64
1562 0 60.217 13.3185 802 62.9439 536.099 545.663
1563 0 62.2476 13.1089 816 63.5674 536.192 544.091
1564 0 64.2609 12.4181 798 64.7544 536.375 544.193
1565 0 63.2399 12.5554 794 65.6839 535.55 543.116
1566 0 68.2005 12.9911 886 64.2088 535.463 541.985
1567 0 69.2459 13.4593 932 63.8047 534.964 541.358
1568 0 70.134 12.633 886 65.6907 534.824 540.814
1569 0 72.1845 12.9391 934 65.4176 535.162 538.944
1570 0 73.1165 12.8562 940 65.5351 534.882 537.489
1571 0 78.2835 12.8252 1004 64.6315 535.179 537.017
1572 0 79.1307 13.0417 1032 64.0572 535.051 534.685
1573 0 82.1764 13.1911 1084 63.5101 535.111 533.677
1574 0 84.169 12.9501 1090 64.7138 535.879 531.494
1575 0 88.1489 13.1142 1156 64.3123 535.793 532.386
1576 0 90.1445 13.1456 1185 64.4321 535.725 531.529
1577 1 49.1028 10.1624 499 65.998 535.142 550.285
1578 0 52.06 10.3342 538 65.3197 534.686 549.459
1579 0 53.092 10.8303 575 64.7635 533.911 548.108
1580 0 54.2185 11.1217 603 65.5937 533.959 547.914
1581 0 56.1703 12.5511 705 64.3106 534.431 547.938
1582 0 58.156 12.9823 755 63.4623 534.154 546.893
1583 0 59.1671 13.1154 776 63.4794 534.293 546.385
1584 0 61.14 12.4959 764 64.1073 533.933 546.914
1585 0 62.2311 12.4536 775 64.5716 534.263 545.055
1586 0 65.2749 12.7001 829 63.3124 534.543 543.877
1587 0 68.1543 12.369 843 63.0047 534.413 544.558
1588 0 70.2373 12.9134 907 63.3385 533.641 542.378
1589 0 72.1873 12.6338 912 63.6623 533.289 540.795
1590 0 74.1699 12.6197 936 62.9338 533.571 540.068
1591 0 78.1169 12.7117 993 62.3253 534.352 538.485
1592 1 40.041 9.24052 370 65.5243 533.922 556.351
1593 0 42.0244 10.018 421 63.7933 534.261 555.378
1594 0 45.0776 9.98277 450 62.7133 534.309 553.022
1595 0 48.106 10.851 522 60.6284 536.092 553.54
1596 0 47.0357 11.0767 521 61.501 536.549 553.175
1597 0 49.0336 12.522 614 59.8534 536.614 551.586
1598 0 50.0581 11.4866 575 61.1496 536.772 550.833
1599 0 51.0434 12.5384 640 60.0625 536.427 550.02
1600 0 55.0698 12.2935 677 59.5037 536.505 548.384
1601 0 56.016 12.193 683 60.0454 536.433 547.426
1602 0 56.1063 12.3516 693 60.0635 536.6 546.59
1603 0 59.155 12.9998 769 58.7126 535.746 546.493
1604 0 60.1509 12.7014 764 59.0864 535.882 544.76
1605 0 63.1026 13.2483 836 58.2907 536.356 545.496
1606 0 67.2984 13.7448 925 56.5589 535.941 544.342
1607 0 66.1516 13.3481 883 58.5153 536.459 542.784
1608 0 68.2721 13.3437 911 58.3315 536.244 543.73
1609 0 70.1933 12.8075 899 58.6763 536.265 541.603
1610 0 71.1568 13.4492 957 58.5841 536.204 539.928
1611 0 73.2123 13.3721 979 58.4934 537.195 538.691
1612 0 78.0914 13.4842 1053 57.9544 537.122 537.381
1613 0 78.2235 13.5509 1060 58.3519 537.649 537.046
1614 0 81.2084 13.4469 1092 58.8645 537.699 536.48
1615 0 84.2041 12.8854 1085 59.3972 537.818 533.869
1616 0 87.2652 13.3959 1169 58.6997 538.879 531.993
1617 0 90.2252 12.3358 1113 60.5588 539.442 530.262
1618 0 95.3318 13.0701 1246 59.6846 539.945 528.03
1619 1 50.2078 11.0142 553 60.7649 539.94 548.823
1620 0 52.023 10.5722 550 60.7073 540.224 548.32
1621 0 56.0821 12.0003 673 59.4027 540.793 546.761
1622 0 55.0442 12.4809 687 59.6652 540.377 545.017
1623 0 58.1962 13.2826 773 57.8797 539.539 544.03
1624 0 59.1458 12.8834 762 58.5709 539.714 544.345
1625 0 62.1687 13.399 833 57.1909 539.738 543.677
1626 0 63.1929 12.7704 807 58.254 539.701 542.129
1627 0 63.2085 12.8622 813 58.6507 539.48 541.28
1628 0 66.1575 12.7121 841 58.4649 539.716 541.067
1629 0 69.1116 12.1253 838 59.5191 540.677 539.811
1630 0 72.0748 13.1252 946 57.7643 540.572 537.619
1631 0 73.2687 13.2116 968 57.9432 540.599 535.327
1632 0 75.2156 13.8003 1038 57.1272 541.763 535.161
1633 0 77.0786 13.0905 1009 57.888 541.451 534.662
1634 0 80.1261 13.9905 1121 57.1659 541.539 532.556
1635 0 83.2263 12.8085 1066 58.5901 541.625 530.223
1636 0 86.0905 12.9166 1112 58.6844 541.813 529.93
1637 0 89.148 13.3037 1186 58.3921 541.539 528.542
1638 0 92.0864 13.7045 1262 57.9723 541.602 526.881
1639 1 49.0649 10.7001 525 59.6095 540.848 549.248
1640 0 51.2896 10.7429 551 60.0127 539.492 546.82
1641 0 51.1486 10.4011 532 59.5056 539.812 548.838
1642 0 55.0383 11.1014 611 58.6858 540.784 545.74
1643 0 54.0787 11.021 596 59.7802 541.854 546.032
1644 0 58.0527 11.2656 654 59.7446 541.757 543.508
1645 0 59.1858 12.1313 718 59.5655 539.862 542.166
1646 0 60.225 12.968 781 58.5992 540.023 541.731
1647 0 62.3515 13.1513 820 58.7098 539.946 542.7
1648 0 61.2411 12.1977 747 61.6104 539.683 540.893
1649 0 64.2935 13.4384 864 60.0231 539.755 540.872
1650 0 65.2339 12.9534 845 61.4959 539.611 540.385
1651 0 67.2191 12.6303 849 62.0883 539.099 539.385
1652 0 69.1521 13.7089 948 60.9093 539.386 538.028
1653 0 70.0703 13.1154 919 61.8063 538.872 537.974
1654 0 73.1106 12.953 947 61.9155 539.088 535.85
1655 0 74.0699 13.3658 990 61.6495 538.626 535.926
1656 0 77.1021 14.1241 1089 60.7511 538.489 534.761
1657 0 78.21 12.8628 1006 62.2654 538.467 533.837
1658 0 81.1273 12.9673 1052 62.307 539.488 530.753
1659 0 84.2303 14.0923 1187 60.2881 538.726 529.277
1660 0 86.2655 13.5628 1170 61.4889 538.36 527.368
1661 0 90.2891 13.0802 1181 61.619 538.569 528.079
1662 0 93.255 13.8759 1294 60.6244 538.294 525.471
1663 1 51.1546 10.3217 528 62.839 537.388 546.625
1664 0 52.0646 10.3717 540 62.5481 537.196 547.531
1665 0 53.0382 10.5584 560 62.3429 537.361 547.38
1666 0 54.0994 10.6286 575 62.433 537.214 545.35
1667 0 58.0799 11.1398 647 60.3771 537.385 544.433
1668 0 59.1107 12.3159 728 59.8544 537.926 544.407
1669 0 60.1392 13.1362 790 58.4861 538.059 543.528
1670 0 60.158 13.5809 817 58.4676 537.832 541.978
1671 0 63.0883 12.6489 798 58.7469 538.015 542.313
1672 0 66.1918 12.8717 852 57.9167 537.911 541.543
1673 0 69.3322 13.4714 934 57.2944 536.772 541.394
1674 0 70.2644 13.378 940 57.2691 536.783 540.717
1675 0 69.123 12.8756 890 59.336 536.279 539.353
1676 0 74.0841 14.0111 1038 57.2958 536.639 537.506
1677 0 73.1668 13.4077 981 59.2813 536.274 537.398
1678 0 78.1817 13.9803 1093 58.1747 536.349 536.536
1679 0 79.1829 14.4728 1146 57.6169 536.204 536.307
1680 0 82.0934 13.0948 1075 59.7023 536.802 533.678
1681 0 85.1815 13.7354 1170 58.5769 536.925 533.089
1682 0 85.1623 13.8441 1179 59.7167 537 531.489
1683 0 87.2826 14.2755 1246 59.7327 536.716 532.348
1684 0 92.2722 14.6957 1356 57.9329 537.794 528.67
1685 0 92.3747 14.4087 1331 59.0165 537.191 528.832
1686 0 96.1604 14.4134 1386 58.8947 536.906 526.868
1687 1 55.1016 11.2156 618 59.9693 536.838 549.879
1688 0 54.0538 11.6735 631 60.5404 536.994 549.125
1689 0 55.1256 12.1903 672 60.2827 536.812 547.607
1690 0 57.168 12.2096 698 60.2106 536.116 546.383
1691 0 59.2935 13.2898 788 59.481 535.336 546.553
1692 0 61.2853 12.4989 766 60.8995 535.266 546.919
1693 0 62.2348 12.6939 790 61.5886 534.639 546.842
1694 0 64.3176 12.827 825 61.3455 535.245 545.261
1695 0 65.1833 13.9146 907 60.9846 535.065 544.674
1696 0 66.2341 12.939 857 62.6721 534.912 544.127
1697 0 69.3004 13.6796 948 61.9873 535.266 542.653
1698 0 71.3485 13.5952 970 61.6608 535.269 540.957
1699 0 74.2283 13.7818 1023 61.6022 535.279 540.361
1700 0 77.3618 13.2753 1027 62.4547 535.472 537.691
1701 0 80.3465 13.6285 1095 61.8621 534.867 538.801
1702 0 84.2992 13.6775 1153 61.7589 534.605 536.167
1703 0 86.1783 13.3328 1149 62.3229 534.06 533.867
1704 0 87.3054 13.344 1165 63.1476 533.816 532.647
1705 0 91.2177 13.9666 1274 62.0086 534.1 534.326
1706 0 92.4706 13.626 1260 63.3111 533.267 530.988
1707 1 51.2849 11.1339 571 62.8511 533.298 553.746
1708 0 51.2515 9.83386 504 65.5317 533.81 551.163
1709 0 53.2546 11.7361 625 63.1072 533.717 550.574
1710 0 53.2305 12.3238 656 63.9634 533.546 550.093
1711 0 56.1692 11.9104 669 63.6592 534.206 550.535
1712 0 57.1899 12.4148 710 63.1521 534.168 547.875
1713 0 60.1568 11.9521 719 63.3741 533.242 548.339
1714 0 63.0855 12.7129 802 61.7506 533.53 545.617
1715 0 64.1965 12.6954 815 62.2282 533.877 545.999
1716 0 66.0771 12.9848 858 62.169 533.988 546.136
1717 0 69.0658 12.698 877 62.2075 534.734 545.005
1718 0 71.115 12.8946 917 61.8484 535.182 541.89
1719 0 73.1199 12.8146 937 62.3202 534.707 541.046
1720 0 74.2412 12.6749 941 63.2795 534.515 540.606
1721 0 76.1967 13.242 1009 63.226 535.45 537.99
1722 0 80.3354 13.6553 1097 62.2653 535.046 537.997
1723 0 82.3204 13.1924 1086 63.7965 535.614 535.625
1724 0 84.3965 13.4721 1137 63.3676 535.857 534.798
1725 0 87.3404 13.8424 1209 63.0447 536 533.374
1726 1 51.3062 11.2267 576 64.2118 535.312 552.644
1727 0 50.1202 11.1133 557 65.1867 535.07 552.907
1728 0 54.1563 11.9838 649 64.074 535.843 551.305
1729 0 56.3432 12.2819 692 63.2312 536.228 551.142
1730 0 56.2169 12.1316 682 63.7522 536.031 549.922
1731 0 60.2518 12.7465 768 62.3711 536.285 548.267
1732 0 59.1768 12.4711 738 63.3889 536.557 547.085
1733 0 62.1712 12.6908 789 62.6654 536.73 545.634
1734 0 61.2 12.9248 791 63.4349 537.76 544.373
1735 0 66.1859 12.752 844 62.3424 538.065 544.992
1736 0 68.2843 13.3266 910 63.0582 538.255 542.964
1737 0 67.2739 12.8727 866 64.7436 538.094 540.986
1738 0 70.2783 12.792 899 63.9844 538.691 540.832
1739 0 74.1574 13.7545 1020 62.1843 538.763 538.325
1740 0 76.2188 12.8577 980 63.1857 538.686 537.289
1741 0 78.3516 13.784 1080 62.3148 539.38 535.742
1742 0 81.1173 14.0784 1142 60.8345 538.799 535.236
1743 0 82.1399 13.55 1113 61.7718 539.27 532.094
1744 0 86.205 13.3403 1150 61.2809 539.802 531.387
1745 1 50.0685 10.0462 503 61.495 539.787 551.915
1746 0 48.0559 11.112 534 62.367 539.479 548.946
1747 0 51.0407 11.2655 575 61.3113 540.579 547.96
1748 0 52.0187 12.2072 635 60.2567 540.526 548.414
1749 0 54.0977 12.6253 683 59.41 540.223 548.083
1750 0 54.1476 12.5767 681 59.6226 541.674 546.872
1751 0 57.2224 12.8621 736 59.663 542.064 546.287
1752 0 59.3655 12.9368 768 59.8672 542.47 544.249
1753 0 60.3522 13.1893 796 59.6533 542.411 542.026
1754 0 60.1537 13.2328 796 59.8656 542.045 542.526
1755 0 63.273 13.3074 842 58.8254 541.806 542.707
1756 0 65.1801 12.6879 827 60.5175 541.904 541.732
1757 0 68.2916 12.7541 871 59.9001 541.769 540.971
1758 0 70.1806 13.3513 937 59.1099 541.95 538.55
1759 0 72.2426 12.9702 937 60.2689 542.178 538.177
1760 0 74.1489 13.6887 1015 59.8522 541.892 538.204
1761 0 77.3357 14.2108 1099 58.8899 541.82 536.573
1762 0 77.2942 13.1705 1018 60.6346 541.332 535.251
1763 0 81.2804 13.029 1059 61.1483 541.32 532.731
1764 0 83.3708 13.9257 1161 60.2119 540.521 532.858
1765 1 45.2943 11.061 501 61.6587 540.074 551.21
1766 0 45.3143 11.7843 534 60.736 540.313 551.457
1767 0 47.2524 11.1952 529 61.6333 540.123 549.448
1768 0 48.1501 11.2149 540 61.9741 540.613 548.398
1769 0 52.1122 11.3409 591 60.5499 540.354 549.679
1770 0 53.1026 12.9184 686 58.363 540.857 548.029
1771 0 51.2073 12.6545 648 60.3148 541.204 547.806
1772 0 55.3452 12.7924 708 60.2444 541.321 547.13
1773 0 55.2229 13.5451 748 60.0882 540.846 546.417
1774 0 57.2794 12.7445 730 60.4959 540.493 545.862
1775 0 58.3463 13.4713 786 59.7392 540.533 544.648
1776 0 60.2042 12.3579 744 62.3925 539.886 543.591
1777 0 63.256 14.3069 905 59.1359 540.013 544.08
1778 0 65.0798 14.3362 933 60.1994 539.814 541.902
1779 0 66.1559 14.2542 943 60.7826 540.649 542.637
1780 0 68.2322 13.7472 938 61.2846 540.176 540.553
1781 0 69.143 13.3347 922 61.833 539.736 540.396
1782 0 70.159 13.7972 968 61.6973 540.085 537.912
1783 0 73.1752 14.1031 1032 61.312 539.815 538.215
1784 0 76.153 13.5911 1035 61.5662 539.616 537.031
1785 0 78.166 14.2517 1114 60.9246 539.119 536.549
1786 0 80.3581 13.9625 1122 61.1025 539.169 535.046
1787 0 83.1654 13.4551 1119 62.092 538.971 533.755
1788 0 85.3199 13.8772 1184 61.6647 538.535 531.968
1789 0 89.0936 14.4567 1288 60.6095 538.268 531.172
1790 0 92.2998 14.0954 1301 61.163 538.148 528.782
1791 1 50.2332 11.6258 584 62.2911 538.079 550.601
1792 0 54.1856 11.1838 606 61.698 537.908 550.294
1793 0 53.1561 11.4756 610 62.8148 538.239 549.293
1794 0 56.1783 12.8341 721 60.344 538.148 546.709
1795 0 57.3169 13.2073 757 59.9894 537.79 547.198
1796 0 59.2616 13.297 788 59.0901 538.071 547.307
1797 0 61.1403 13.3627 817 59.492 537.187 544.043
1798 0 63.1644 13.3461 843 59.0297 537.063 544.386
1799 0 66.1118 13.0385 862 58.8956 537.099 544.648
1800 0 69.1882 12.849 889 58.9753 536.956 543.498
1801 0 70.2382 12.6854 891 59.5062 536.745 539.534
1802 0 74.187 13.3042 987 58.0588 536.892 539.605
1803 0 75.1619 12.6793 953 58.8153 536.769 538.491
1804 0 77.1445 13.2479 1022 58.684 536.993 537.267
1805 0 81.0414 13.7954 1118 57.4741 537.022 535.945
1806 0 83.0607 12.834 1066 58.4484 536.643 535.466
1807 0 87.1665 13.6291 1188 57.1448 536.481 532.249
1808 0 89.1845 13.2086 1178 57.7275 536.751 530.183
1809 0 93.1736 13.7056 1277 56.1057 537.108 530.804
1810 0 95.154 13.4309 1278 56.7214 536.903 528.722
1811 0 98.1133 13.3723 1312 56.6829 537.456 529.354
1812 0 100.18 12.4576 1248 57.6218 536.92 527.598
1813 1 57.1452 11.777 673 56.9153 536.975 547.593
1814 0 59.2235 11.7183 694 56.5 537.579 547.473
1815 0 62.1452 10.926 679 57.5081 537.857 547.252
1816 0 63.1187 11.6764 737 56.8304 537.872 546.719
1817 0 65.1096 12.502 814 55.8133 537.705 544.373
1818 0 68.1573 12.9553 883 54.9706 537.826 541.23
1819 0 70.0573 12.7753 895 55.5654 537.444 540.787
1820 0 73.0819 13.1496 961 54.9168 538.258 539.984
1821 0 73.1803 12.763 934 56.1991 537.526 538.588
1822 0 77.2234 12.7811 987 55.381 537.483 536.685
1823 0 79.1762 12.8827 1020 55.8647 537.524 536.166
1824 0 82.0986 12.9966 1067 55.7132 537.414 533.627
1825 0 85.2784 13.5321 1154 55.5485 537.711 533.619
1826 0 86.2051 13.2939 1146 55.8682 537.931 532.402
1827 0 88.2104 13.6265 1202 56.1082 538.008 531.638
1828 0 93.2396 13.4278 1252 56.3011 538.146 529.252
1829 0 95.4392 13.7889 1316 55.8951 538.123 526.372
1830 0 99.3866 13.3318 1325 55.88 538.786 526.643
1831 0 101.297 13.5246 1370 56.4226 539.004 524.552
1832 0 106.254 13.5147 1436 56.2911 538.935 523.004
1833 0 107.566 13.6846 1472 55.7969 539.243 517.924
1834 1 56.2317 11.1859 629 55.5199 539.078 544.785
1835 0 56.4 10.7092 604 56.3758 538.717 544.952
1836 0 58.2124 10.4102 606 56.8564 538.792 544.02
1837 0 59.3201 12.0195 713 55.6746 539.142 541.952
1838 0 62.3336 12.6737 790 55.0734 539.462 542.416
1839 0 65.0997 12.6268 822 55.3273 539.095 543.373
1840 0 65.2334 12.5089 816 55.3971 539.418 541.218
1841 0 69.1183 12.9633 896 55.1105 540.36 539.132
1842 0 72.1275 13.6564 985 54.1675 540.439 537.811
1843 0 73.135 13.2768 971 55.3223 541.03 536.767
1844 0 76.2135 12.8061 976 55.5656 541.253 536.778
1845 0 76.4266 13.3461 1020 55.8196 540.812 536.18
1846 0 80.2592 13.7928 1107 55.6793 541.101 533.037
1847 0 84.2774 13.0403 1099 55.6424 541.49 531.833
1848 0 86.2868 13.7101 1183 55.585 541.264 529.839
1849 0 89.2389 13.2566 1183 55.6568 541.231 528.581
1850 0 94.2391 14.1873 1337 54.3844 541.376 527.586
1851 0 96.3175 13.6943 1319 55.1501 541.527 526.788
1852 0 98.2418 13.2632 1303 55.2579 541.841 525.337
1853 0 100.092 13.5475 1356 55.2987 541.815 522.664
1854 0 105.297 13.9985 1474 53.9986 541.999 520.142
1855 1 60.2965 10.7469 648 54.6019 541.491 542.676
1856 0 60.254 11.103 669 54.7937 541.58 540.952
1857 0 63.375 11.5819 734 53.688 541.627 540.5
1858 0 64.2321 12.3147 791 53.7851 541.468 538.755
1859 0 66.1526 12.7584 844 53.0071 541.914 538.536
1860 0 69.298 12.2226 847 53.6718 541.936 539.107
1861 0 70.2127 12.8609 903 53.2237 541.98 538.029
1862 0 72.3532 12.7154 920 53.7978 541.262 534.766
1863 0 75.6292 12.5877 952 53.3897 541.222 535.811
1864 0 76.6544 12.9021 989 53.2275 540.735 534.229
1865 0 80.3144 13.6464 1096 52.3029 539.995 532.764
1866 0 84.5208 13.6771 1156 52.051 539.55 531.686
1867 0 86.5029 13.8377 1197 52.4954 539.743 529.119
1868 0 89.6356 13.0528 1170 53.359 539.943 528.865
1869 0 89.5682 12.8505 1151 54.0295 539.547 525.078
1870 0 93.6246 12.9667 1214 53.5437 540.224 525.932
1871 0 97.6061 12.8066 1250 53.2272 539.939 522.7
1872 1 54.3691 11.7898 641 52.1529 539.257 544.293
1873 0 54.3608 10.4119 566 54.1166 539.507 544.896
1874 0 55.4741 11.3927 632 53.25 539.267 545.222
1875 0 58.1458 12.0215 699 52.5951 540.193 544.116
1876 0 60.1205 13.3066 800 51.6788 540.357 543.391
1877 0 62.1562 12.4686 775 52.2052 540.217 543.41
1878 0 62.092 13.0452 810 52.8086 540.343 541.458
1879 0 65.17 13.5031 880 52.2114 539.877 541.86
1880 0 67.1315 12.4532 836 53.3313 538.663 540.689
1881 0 69.2355 13.418 929 52.5834 539.428 539.344
1882 0 71.1855 13.3595 951 53.1788 539.063 538.646
1883 0 72.2416 13.095 946 53.723 538.704 538.807
1884 0 74.1813 13.4266 996 54.3624 538.483 537.894
1885 0 76.4179 13.9758 1068 54.7041 538.182 536.13
1886 0 77.2011 13.29 1026 55.8567 538.15 536.693
1887 0 81.3799 13.0376 1061 56.4486 537.977 534.906
1888 0 82.6185 13.6047 1124 56.0374 537.335 533.73
1889 0 86.4552 13.0819 1131 56.7834 537.469 530.538
1890 0 89.4276 13.5081 1208 56.1068 536.445 531.469
1891 0 90.3746 14.119 1276 56.5063 536.967 528.154
1892 0 94.2883 13.7769 1299 57.1209 537.165 527.948
1893 0 97.5192 13.0538 1273 58.2749 537.573 526.355
1894 0 99.163 13.8661 1375 57.7862 537.662 524.272
1895 1 58.2993 10.7034 624 58.2228 536.952 547.803
1896 0 57.3183 11.4798 658 57.9012 536.742 548.032
1897 0 60.1206 12.3918 745 57.2188 537.362 547.097
1898 0 60.1299 13.0384 784 57.5829 536.997 546.75
1899 0 63.0794 13.8397 873 55.9977 536.962 545.85
1900 0 63.1449 13.4928 852 56.8838 536.635 545.651
1901 0 65.0983 13.7945 898 56.7428 536.393 544.268
1902 0 68.1185 13.2563 903 57.227 536.498 543.102
1903 0 69.0858 14.1997 981 57.0347 536.054 543.696
1904 0 71.111 13.3032 946 58.1924 536.04 541.895
1905 0 73.2404 13.326 976 58.083 535.639 542.953
1906 0 76.2496 13.482 1028 57.8268 535.173 540.346
1907 0 78.1338 13.5025 1055 57.855 535.445 539.264
1908 0 82.3748 14.6525 1207 56.5012 536.164 537.865
1909 0 85.2577 14.2861 1218 56.9023 535.576 537.118
1910 0 87.2693 14.6214 1276 56.7649 535.274 535.466
1911 1 49.2721 10.7769 531 58.6629 536.089 555.249
1912 0 49.1971 11.2812 555 58.9207 536.043 554.204
1913 0 50.2231 11.0905 557 58.6697 535.607 554.553
1914 0 52.235 11.7929 616 59.1607 535.26 552.583
1915 0 52.2657 12.3791 647 58.3416 534.949 550.777
1916 0 56.1672 13.4064 753 57.5046 535.381 550.762
1917 0 56.018 12.496 700 59.6857 535.746 550.101
1918 0 59.2482 12.6586 750 58.8827 534.225 550.236
1919 0 60.1723 13.3949 806 58.995 534.318 548.464
1920 0 60.2102 12.6058 759 60.7062 535.935 547.439
1921 0 63.2435 12.3965 784 61.4528 535.389 545.612
1922 0 63.1572 12.9835 820 61.5463 535.477 544.987
1923 0 66.2117 13.1548 871 61.0712 534.859 545.269
1924 0 68.1449 13.1778 898 61.1203 534.802 543.37
1925 0 71.2127 13.4527 958 60.6743 534.1 543.969
1926 0 74.1059 13.4537 997 60.348 534.163 542.606
1927 0 76.1075 13.2181 1006 61.3976 534.447 541.062
1928 0 79.1317 14.0399 1111 60.2718 534.142 540.316
1929 0 80.1718 13.0969 1050 61.8076 533.928 539.027
1930 0 84.1683 13.2829 1118 60.9767 534.233 538.104
1931 0 87.1465 13.724 1196 61.2709 534.614 535.666
1932 1 43.0602 11.5652 498 62.3273 534.653 557.735
1933 0 47.1838 11.1479 526 62.9886 534.314 556.165
1934 0 47.0938 10.9993 518 63.0212 534.699 555.031
1935 0 49.0681 12.0649 592 62.3986 534.483 554.166
1936 0 51.1351 12.8679 658 61.0775 534.809 554.027
1937 0 52.3883 13.0945 686 60.8499 534.943 551.646
1938 0 54.2434 13.8634 752 60.0106 534.967 551.931
1939 0 55.2369 12.9261 714 61.4552 534.682 551.036
1940 0 57.1087 12.4499 711 61.7595 535.122 550.599
1941 0 57.3103 13.5403 776 61.4227 535.028 550.211
1942 0 60.5072 12.6762 767 61.6206 535.611 549.282
1943 0 61.1877 13.6302 834 61.6055 535.881 546.842
1944 0 63.1411 13.9687 882 59.3662 535.954 546.508
1945 0 63.2581 14.1958 898 59.7528 535.931 545.282
1946 0 67.1529 14.7574 991 58.6155 536.53 543.463
1947 0 68.2901 14.702 1004 59.1723 535.999 541.93
1948 0 72.3672 13.9566 1010 58.9307 536.028 541.768
1949 0 72.2577 14.1023 1019 59.7743 535.902 539.775
1950 0 75.3488 14.413 1086 59.2855 536.01 537.545
1951 0 78.4795 13.494 1059 60.3541 536.45 536.38
1952 0 81.8043 14.4369 1181 58.4945 536.623 537.424
1953 0 82.4843 13.9663 1152 60.3559 537.005 533.597
1954 0 87.3275 14.5086 1267 59.0931 536.806 532.736
1955 1 46.3475 11.1549 517 60.5861 537.176 552.853
1956 0 48.2996 11.6771 564 59.5638 537.704 551.516
1957 0 49.3826 12.2715 606 59.6782 537.881 549.15
1958 0 53.5288 13.3012 712 57.9143 537.51 547.663
1959 0 54.4773 13.8223 753 57.2417 537.764 548.037
1960 0 55.3898 13.3418 739 58.2517 537.836 545.628
1961 0 56.313 12.7857 720 58.9875 537.849 545.872
1962 0 58.229 14.0651 819 57.3407 537.564 543.912
1963 0 60.3098 12.9166 779 58.4249 537.757 543.733
1964 0 62.4938 13.1693 823 58.1434 537.774 542.474
1965 0 65.4316 14.1828 928 57.3341 537.571 539.884
1966 0 65.3055 13.2148 863 58.4762 537.885 540.006
1967 0 68.1711 13.2607 904 58.2456 538.133 539.438
1968 1 37.225 11.632 433 58.6212 538.965 553.725
1969 0 40.2886 11.2439 453 58.4614 538.812 554.962
1970 0 38.2502 10.8235 414 60.2174 539.391 553.993
1971 0 40.0611 11.2079 449 59.7795 539.35 554.557
1972 0 42.3127 12.5731 532 57.4887 539.158 554.164
1973 0 43.1168 12.9648 559 57.6583 539.676 551.683
1974 0 44.083 12.6806 559 58.1306 539.886 552.56
1975 0 45.1054 13.3465 602 57.9385 540.734 550.209
1976 0 46.1545 12.8915 595 58.9966 540.518 549.072
1977 0 49.1491 13.2861 653 58.1853 540.139 549.435
1978 0 48.0778 13.3741 643 58.7449 540.519 549.07
1979 0 51.1165 13.3616 683 58.6032 540.401 547.813
1980 0 53.2445 13.0154 693 58.3939 540.391 547.237
1981 0 54.0989 13.5678 734 58.5817 540.809 545.207
1982 0 54.2993 13.0204 707 59.9222 541.102 545.784
1983 0 56.5172 13.0226 736 59.8451 541.198 544.553
1984 0 59.4369 13.2914 790 59.5165 541.361 544.115
1985 0 60.4071 14.3692 868 58.6705 541.028 541.486
1986 0 60.3398 12.7776 771 60.5837 541.38 542.497
1987 0 62.3546 13.5195 843 60.3321 540.962 540.936
1988 0 66.1462 14.09 932 59.0815 540.714 540.991
1989 0 68.3136 13.9504 953 59.3778 540.284 539.13
1990 0 68.2508 13.7288 937 60.0085 540.464 536.954
1991 0 73.3498 13.6197 999 59.8549 540.785 536.076
1992 0 73.3334 13.1045 961 60.2799 541.008 536.774
1993 0 78.3799 13.9449 1093 58.9945 540.135 535.355
1994 0 80.1906 14.478 1161 58.6236 539.642 534.165
1995 0 82.327 14.0294 1155 59.3307 539.602 533.019
1996 0 84.3087 13.4743 1136 60.0132 539.484 532.133
1997 0 87.2557 13.2255 1154 60.1101 539.075 531.185
1998 0 90.165 13.8413 1248 59.637 539.531 528.738
1999 1 50.1649 12.0802 606 60.7195 539.297 547.949
2000 0 51.1016 11.9761 612 61.9853 540.225 545.824
2001 0 55.1933 12.5378 692 60.8815 539.818 544.578
2002 0 56.1174 12.7946 718 60.0947 539.042 545.918
2003 0 59.1077 14.076 832 58.4964 538.986 545.405
2004 0 58.0627 13.8299 803 59.2877 539.293 543.836
2005 0 60.0988 13.6442 820 60.1122 538.568 542.845
2006 0 63.0902 14.0909 889 59.6479 538.569 540.613
2007 0 64.0903 13.6838 877 60.5006 538.727 539.193
2008 0 67.1237 13.9444 936 59.4904 538.453 538.098
2009 0 69.108 14.0939 974 59.1211 538.171 537.37
2010 0 71.0825 14.1385 1005 59.0468 538.932 535.899
2011 0 75.1081 13.8467 1040 58.4558 539.09 536.414
2012 0 76.094 13.7199 1044 59.3515 538.735 533.436
2013 0 81.1092 13.7222 1113 58.3594 538.996 533.529
2014 0 82.082 13.3647 1097 59.2343 538.505 530.586
2015 0 84.1209 13.1121 1103 59.4388 537.937 528.539
2016 0 88.2022 13.4691 1188 58.7618 537.524 527.423
2017 1 46.1057 10.5193 485 58.4515 536.856 549.913
2018 0 48.0501 10.4683 503 58.3201 536.984 550.235
2019 0 49.0644 11.169 548 58.2044 537.79 548.19
2020 0 52.1126 11.4752 598 56.7241 537.756 548.263
2021 0 52.1192 11.8574 618 57.5275 538.194 546.396
2022 0 54.1477 12.0965 655 56.8153 538.29 547.902
2023 0 55.0648 12.3672 681 56.9075 538.023 546.767
2024 0 57.1808 12.5741 719 56.3366 537.844 546.809
2025 0 59.2581 12.8084 759 56.4585 537.498 545.034
2026 0 61.1311 12.5141 765 56.102 537.214 543.724
2027 0 64.167 13.0285 836 55.4749 536.727 542.111
2028 0 65.1313 12.897 840 55.6607 537.251 543.318
2029 0 68.1619 13.2772 905 55.7392 536.937 539.361
2030 0 69.165 12.9256 894 56.1879 536.988 539.124
2031 0 72.3202 12.9286 935 56.231 537.05 539.149
2032 0 73.1019 13.105 958 56.5313 538.099 537.713
2033 0 77.1837 13.3059 1027 55.9883 537.54 536.395
2034 0 79.1208 13.0813 1035 56.8531 537.313 534.191
2035 0 81.1458 13.5928 1103 56.9583 537.246 533.006
2036 0 85.121 12.8758 1096 57.8431 537.373 531.02
2037 0 88.1826 13.1659 1161 57.4996 537.832 531.199
2038 1 47.1701 10.6635 503 57.6938 538.66 551.559
2039 0 49.1745 10.2899 506 57.4447 538.474 551.771
2040 0 53.1266 10.5973 563 57.357 538.41 551.554
2041 0 53.0864 11.2835 599 57.7513 537.718 550.369
2042 0 56.0701 11.8423 664 57.0467 537.509 549.631
2043 0 59.1789 12.8086 758 55.7612 537.095 547.966
2044 0 58.2444 11.881 692 57.6156 536.659 547.6
2045 0 61.2612 12.5855 771 57.0623 536.213 548.366
2046 0 63.3334 11.9368 756 57.6495 536.774 546.708
2047 0 66.1186 12.402 820 56.7439 536.537 546.356
2048 0 68.349 12.9336 884 56.5814 536.83 544.46
2049 0 69.295 12.3818 858 57.9848 535.458 543.678
2050 0 70.2971 12.9877 913 58.126 535.548 541.517
2051 0 74.409 13.1839 981 57.8654 535.295 539.74
2052 0 76.5442 13.0774 1001 58.2987 536.182 540.767
2053 0 78.5501 12.578 988 59.2773 535.557 538.764
2054 0 79.3453 12.6662 1005 61.9015 535.53 538.627
2055 0 82.3716 13.2084 1088 61.5138 535.551 536.71
2056 0 86.3121 13.3237 1150 61.2713 535.17 536.026
2057 0 89.4397 13.8753 1241 61.1547 535.44 534.81
2058 0 91.349 13.3554 1220 62.127 534.993 532.636
2059 0 94.3863 13.0739 1234 62.5194 535.293 532.053
2060 0 97.5053 13.066 1274 62.8705 535.13 529.046
2061 0 101.247 13.8079 1398 62.0279 535.19 528.081
2062 0 104.343 14.4331 1506 61.2503 535.074 525.408
2063 1 58.4694 9.98813 584 62.8973 534.308 551.057
2064 0 60.3747 10.5342 636 62.6226 534.252 549.665
2065 0 61.268 10.7723 660 63.2182 535.133 549.283
2066 0 64.2909 11.5724 744 62.6237 535.433 546.388
2067 0 65.2409 12.4309 811 63.1332 536.223 544.546
2068 0 68.2883 11.9347 815 63.0785 535.833 545.958
2069 0 70.4369 12.3373 869 62.3959 536.02 543.333
2070 0 74.4309 12.9247 962 61.0665 535.558 541.548
2071 0 75.4671 12.3763 934 62.4786 535.637 541.106
2072 0 76.4123 12.0661 922 64.7419 536.099 538.898
2073 0 80.2404 12.6744 1017 64.0049 536.489 537.65
2074 0 83.4363 12.8242 1070 63.8626 536.548 536.594
2075 0 85.3534 12.8993 1101 63.8129 536.06 535.233
2076 0 88.4919 13.1198 1161 64.1516 536.695 533.913
2077 0 91.4155 12.7331 1164 65.2414 536.2 532.756
2078 1 49.2563 9.94797 490 66.0061 536.635 554.869
2079 0 50.3174 10.4338 525 64.7867 536.67 553.604
2080 0 51.1663 11.1011 568 65.0528 536.604 551.687
2081 0 53.1956 11.4859 611 63.9722 536.083 552.486
2082 0 54.2822 12.1403 659 64.5706 536.926 549.528
2083 0 55.2235 11.5712 639 64.8357 536.883 550.948
2084 0 57.1938 11.6796 668 64.9506 537.855 549.954
2085 0 59.2517 12.3372 731 64.1929 537.16 549.083
2086 0 60.2932 11.9582 721 64.1207 537.68 547.821
2087 0 60.3313 12.0999 730 65.4082 537.814 546.826
2088 0 62.293 13.0994 816 64.4596 537.93 545.017
2089 0 62.3421 12.7522 795 65.7522 538.094 543.989
2090 0 65.5023 13.2667 869 64.9114 538.028 543.305
2091 0 67.4446 13.537 913 64.1588 538.442 541.272
2092 0 70.2894 13.2026 928 64.5291 538.857 540.843
2093 0 72.5548 13.0246 945 64.3079 539.776 539.079
2094 0 72.5296 12.9878 942 64.8429 539.792 538.285
2095 0 75.511 13.3755 1010 64.3931 539.85 536.97
2096 0 78.4458 13.9332 1093 63.5343 539.376 535.712
2097 0 81.8264 13.2964 1088 64.1204 539.412 534.808
2098 0 82.5534 13.5912 1122 64.3806 539.602 533.241
2099 0 85.8562 13.674 1174 64.1312 539.276 531.11
2100 0 90.8916 13.5546 1232 64.2248 539.268 529.166
2101 1 47.5858 11.2008 533 66.0769 538.957 551.105
2102 0 46.4388 11.2406 522 66.3927 539.057 550.289
2103 0 49.4004 11.842 585 66.2906 540.009 549.186
2104 0 51.5697 11.9256 615 65.6569 540.359 549.382
2105 0 51.5279 12.731 656 65.0122 540.857 548.349
2106 0 54.2356 13.0173 706 64.8031 541.306 547.902
2107 0 54.232 13.4054 727 64.8666 541.217 547.209
2108 0 55.3008 12.9474 716 66.75 541.397 546.109
2109 0 58.2314 12.6908 739 66.5399 541.198 545.913
2110 0 59.3255 13.6366 809 65.2015 541.279 544.311
2111 0 61.3442 13.2205 811 65.8323 541.51 544.506
2112 0 62.4191 13.105 818 66.3961 541.071 543.633
2113 0 66.3896 14.0384 932 64.4871 541.492 542.466
2114 0 65.2859 12.9124 843 67.3488 541.541 541.265
2115 0 70.2744 13.4046 942 65.7686 541.183 539.433
2116 0 70.5082 13.8565 977 65.4278 541.144 538.391
2117 0 73.5484 13.9228 1024 65.1895 540.846 537.606
2118 0 73.4973 13.7828 1013 65.85 540.698 537.415
2119 0 76.4419 14.2854 1092 64.9524 540.244 535.516
2120 0 79.4682 13.1751 1047 66.3773 540.295 535.288
2121 0 80.4314 13.3654 1075 66.467 540.24 532.153
2122 0 84.5819 13.5845 1149 65.4003 540.142 531.194
2123 0 89.5592 14.1359 1266 64.2101 540.196 530.269
2124 0 90.3391 14.5452 1314 64.2732 539.828 527.499
2125 0 92.6579 13.7603 1275 64.44 539.682 526.331
2126 0 94.4837 13.8754 1311 64.0923 539.589 524.698
2127 0 97.3496 12.7068 1237 65.6386 539.172 523.266
2128 0 103.475 13.8584 1434 63.2455 538.881 521.161
2129 1 53.6575 10.6229 570 64.1333 538.372 544.796
2130 0 54.082 11.538 624 63.1218 538.495 544.03
2131 0 56.0962 11.1416 625 63.4224 538.29 544.014
2132 0 56.0837 12.624 708 62.2966 538.549 543.552
2133 0 61.1789 12.6024 771 62.6291 538.182 543.667
2134 0 61.2735 13.6437 836 62.4019 537.486 542.841
2135 0 61.2376 13.3251 816 63.5135 537.674 542.699
2136 0 65.286 13.0962 855 62.6947 537.54 543.339
2137 0 67.1622 13.2068 887 62.8388 538.18 542.263
2138 0 68.3983 13.6699 935 62.6866 538.065 540.806
2139 0 72.3276 13.7707 996 62.501 537.665 540.049
2140 0 71.2983 13.0298 929 64.437 537.288 539.179
2141 0 75.3151 13.6095 1025 63.562 537.142 536.931
2142 0 77.3841 13.7884 1067 63.8276 537.128 536.461
2143 0 80.4338 13.8872 1117 63.7037 537.189 534.371
2144 0 83.3679 14.0342 1170 63.2402 537.297 535.022
2145 0 85.5176 13.4943 1154 63.6334 536.964 533.354
2146 0 88.3053 13.4307 1186 64.1231 536.673 531.786
2147 1 48.4506 10.7739 522 64.977 536.898 552.72
2148 0 49.449 11.4664 567 65.2293 537.034 550.61
2149 0 52.3093 11.9099 623 64.2568 536.835 550.106
2150 0 54.337 12.0728 656 64.0366 536.814 548.968
2151 0 56.369 12.1698 686 64.8192 536.741 548.192
2152 0 56.2432 12.9616 729 64.6639 537.176 548.069
2153 0 58.3436 12.2721 716 64.7626 537.739 547.962
2154 0 62.3694 13.2597 827 63.0955 537.767 545.866
2155 0 62.2995 13.7401 856 63.0456 537.421 546.202
2156 0 62.307 13.2248 824 64.4248 537.386 544.649
2157 0 64.2658 13.7554 884 63.3314 537.214 542.785
2158 0 65.2937 12.6965 829 65.0856 537.018 543.103
2159 0 65.2937 12.6505 826 171.168 536.992 543.201
2160 0 72.5354 13.7726 999 62.972 536.269 540.145
2161 0 73.5484 12.9167 950 64.1989 536.174 538.355
2162 0 75.4701 14.1646 1069 62.6567 535.944 537.384
2163 0 77.536 13.7871 1069 63.4088 535.713 536.37
2164 0 81.4823 13.3649 1089 63.7805 535.573 534.708
2165 0 84.4429 14.0095 1183 62.8233 535.814 534.62
2166 0 87.7098 14.0349 1231 63.0853 535.945 533.657
2167 0 89.428 14.0784 1259 63.3852 535.824 533.632
2168 0 92.3401 13.7643 1271 63.9583 535.825 531.218
2169 0 95.2726 14.1699 1350 63.6563 535.559 529.148
2170 0 97.5109 14.8394 1447 62.7775 535.274 528.829
2171 1 57.1622 11.2662 644 64.3307 535.036 550.564
2172 0 59.3048 12.2419 726 64.6019 535.179 547.857
2173 0 60.2293 12.7181 766 63.9164 534.5 547.258
2174 0 62.1826 12.801 796 63.9975 534.83 545.638
2175 0 65.2865 13.8313 903 61.9402 534.551 544.726
2176 0 66.3165 13.3753 887 62.7227 534.392 542.892
2177 0 69.2209 13.233 916 62.9924 534.57 542.415
2178 0 72.3966 14.4758 1048 60.7595 535.591 542.045
2179 0 75.5016 14.0394 1060 61.2717 535.871 541.197
2180 0 77.3347 13.2929 1028 62.1566 535.611 538.804
2181 0 79.4244 13.2957 1056 62.4716 535.34 537.548
2182 0 81.8106 13.7268 1123 61.7979 535.122 536.83
2183 0 82.3764 13.2441 1091 62.8084 535.375 534.923
2184 0 84.4012 13.1396 1109 63.3039 535.439 532.83
2185 0 88.3228 13.2469 1170 62.8077 535.623 531.968
2186 0 93.3736 13.7619 1285 62.2296 535.659 529.384
2187 0 94.5246 13.1289 1241 63.4408 536.135 528.881
2188 0 96.3607 13.9683 1346 63.1107 535.989 527.833
2189 0 100.39 14.4137 1447 62.4457 536.674 526.918
2190 0 103.502 14.0384 1453 62.5816 536.147 525.28
2191 0 107.394 14.4049 1547 62.3478 536.45 523.953
2192 0 108.269 14.2238 1540 63.6753 536.303 522.173
2193 0 112.286 14.3651 1613 63.5003 536.785 519.758
2194 0 113.28 13.3034 1507 65.4028 537.025 518.077
2195 0 118.293 13.9991 1656 64.2373 537.211 515.965
2196 0 124.465 14.6467 1823 62.5842 537.744 513.211
2197 0 126.39 14.7954 1870 62.5139 538.295 511.363
2198 0 129.464 14.251 1845 63.7024 538.224 508.42
2199 0 135.335 14.6895 1988 62.8602 538.406 506.459
2200 0 139.337 13.9087 1938 63.7699 538.678 504.412
2201 0 144.276 14.2851 2061 63.1315 539.11 500.074
2202 0 151.401 15.1452 2293 62.0331 539.181 497.282
2203 0 156.45 15.4937 2424 61.5507 538.793 495.718
2204 1 85.2708 11.9033 1015 64.269 539.201 531.463
2205 0 90.3135 13.0435 1178 63.7852 538.589 528.6
2206 0 92.1419 13.0777 1205 63.873 538.739 527.017
2207 0 96.3233 13.8803 1337 63.0726 538.733 524.596
2208 0 101.32 13.6202 1380 63.4123 538.659 523.26
2209 0 103.34 13.9636 1443 63.2308 538.234 522.205
2210 0 108.319 13.6449 1478 63.4005 538.85 520.672
2211 0 110.223 13.9626 1539 63.4347 538.957 519.636
2212 0 114.235 13.6298 1557 63.3577 539.021 516.475
2213 0 118.237 13.3968 1584 63.6061 539.741 516.723
2214 0 124.241 13.6912 1701 62.6108 539.742 512.061
2215 0 129.254 13.7404 1776 62.4341 539.612 510.755
2216 0 133.201 13.5584 1806 62.84 539.757 508.447
2217 1 68.1158 10.8638 740 62.5365 540.542 539.414
2218 0 72.1771 10.9592 791 62.8255 539.984 535.973
2219 0 77.3985 12.2612 949 61.3825 541.358 535.312
2220 0 77.0984 12.5943 971 62.1998 541.514 533.46
2221 0 79.2325 12.6337 1001 62.3337 541.193 532.405
2222 0 84.1948 12.578 1059 61.7602 540.668 531.423
2223 0 87.3191 13.2617 1158 60.9283 540.925 529.674
2224 0 89.1957 13.3975 1195 60.8117 541.356 528.002
2225 0 93.1977 13.9918 1304 59.7814 540.531 527.477
2226 0 95.2029 13.1824 1255 61.2956 540.954 525.12
2227 0 97.3901 13.5537 1320 60.5977 540.561 523.509
2228 0 101.265 14.1608 1434 59.9561 541.253 521.392
2229 0 103.405 13.0071 1345 63.0297 540.988 519.619
2230 0 106.259 13.2883 1412 62.8017 540.595 519.321
2231 0 110.283 13.6648 1507 62.0717 540.678 517.179
2232 0 111.219 13.7927 1534 62.0658 540.7 517.51
2233 0 116.249 13.9356 1620 62.1154 541.144 512.968
2234 0 119.194 13.6668 1629 62.3039 541.374 511.212
2235 0 123.286 14.3649 1771 61.9204 540.521 509.086
2236 0 126.254 13.861 1750 62.9983 540.048 507.961
2237 0 132.561 13.7974 1829 62.4204 539.715 504.715
2238 0 136.254 14.4142 1964 61.863 540.166 502.734
2239 1 78.2601 10.4779 820 61.889 539.665 535.815
2240 0 79.2789 10.9109 865 62.4474 539.592 533.484
2241 0 82.2254 11.809 971 62.1071 539.813 530.653
2242 0 85.2311 12.5189 1067 60.7882 540.694 529.707
2243 0 88.1953 12.529 1105 60.7276 540.193 528.42
2244 0 92.2755 11.8125 1090 61.155 541.515 527.503
2245 0 94.4098 12.7741 1206 61.0133 539.896 525.112
2246 0 97.3426 12.492 1216 61.2023 540.364 525.174
2247 0 99.259 12.7243 1263 61.0428 540.93 523.457
2248 0 103.324 12.8818 1331 61.0571 540.265 519.63
2249 0 106.374 13.1987 1404 61.4152 540.496 516.932
2250 0 109.293 12.3521 1350 62.4148 539.708 518.242
2251 0 113.333 12.5294 1420 62.2789 539.274 515.855
2252 0 117.581 12.7402 1498 61.3778 539.243 514.709
2253 0 119.304 12.6064 1504 61.7746 539.166 513.779
2254 1 69.1927 9.88544 684 61.0088 539.646 541.756
2255 0 71.1313 10.094 718 61.3315 539.475 539.649
2256 0 73.1381 11.3757 832 59.7067 539.109 539.188
2257 0 75.1678 11.4411 860 59.6791 539.236 537.262
2258 0 76.1947 12.2187 931 59.3942 539.186 535.821
2259 0 79.3704 12.1834 967 59.4426 538.529 535.727
2260 0 80.3386 12.2855 987 59.772 538.288 535.517
2261 0 83.6076 12.7022 1062 59.4802 538.047 532.94
2262 0 83.2762 11.1917 932 62.2983 538.127 532.049
2263 0 87.4674 12.5418 1097 60.5087 538.263 530.737
2264 0 91.3967 12.2761 1122 60.6132 538.606 528.848
2265 0 93.4281 12.6193 1179 60.6226 538.359 526.446
2266 0 97.2647 12.0496 1172 61.523 538.132 524.936
2267 0 99.2157 12.4275 1233 60.4582 538.447 524.946
2268 0 104.262 12.7755 1332 60.0623 538.86 523.139
2269 0 106.428 12.8913 1372 59.9825 538.539 520.94
2270 1 54.3018 10.1838 553 60.085 539.11 547.119
2271 0 58.4066 10.5639 617 59.4489 538.637 546.742
2272 0 60.4409 10.5061 635 59.6126 538.561 544.488
2273 0 60.2598 10.2556 618 59.8188 539.367 545.029
2274 0 62.22 11.2183 698 58.8052 539.074 544.579
2275 0 63.2148 11.7536 743 59.0377 538.977 543.195
2276 0 65.1946 12.6544 825 57.6824 538.651 540.776
2277 0 65.288 12.0236 785 58.9554 538.375 542.408
2278 0 67.3046 11.6337 783 59.3678 538.018 540.351
2279 0 72.4555 12.7112 921 57.3225 537.696 538.324
2280 0 73.7144 12.0194 886 58.333 537.29 536.586
2281 0 75.6368 12.8773 974 57.616 537.744 536.342
2282 0 76.7262 12.6033 967 58.0703 537.616 535.444
2283 0 79.8305 12.9274 1032 57.656 537.424 534.077
2284 0 81.3928 12.9987 1058 57.776 537.527 532.307
2285 0 82.2363 13.2545 1090 57.6826 537.057 531.172
2286 0 85.5504 12.028 1029 58.6035 537.323 530.692
2287 0 87.6361 11.833 1037 58.7956 537.334 527.791
2288 1 50.4818 10.6375 537 56.8101 536.063 549.65
2289 0 47.4319 9.82462 466 58.4614 536.03 547.788
2290 0 49.2077 10.9332 538 57.7398 536.212 546.147
2291 0 51.0413 10.8344 553 57.83 535.546 547.259
2292 0 53.1009 11.2051 595 57.405 536.625 546.361
2293 0 57.0932 12.681 724 55.6961 536.518 546.166
2294 0 60.3134 12.5677 758 56.4723 536.024 547.702
2295 0 59.3222 12.6934 753 57.2988 535.902 546.401
2296 0 61.3409 12.0148 737 57.7761 536.404 544.916
2297 0 63.3515 12.9594 821 56.5213 536.513 541.91
2298 0 65.2025 13.7418 896 55.8795 536.378 542.297
2299 0 66.275 12.6895 841 57.5767 536.251 542.071
2300 0 68.2894 12.5495 857 57.8471 535.877 542.86
2301 0 72.3468 13.5044 977 56.5742 536.126 540.287
2302 0 71.3223 13.0674 932 58.2264 535.695 539.34
2303 0 75.4111 13.9104 1049 57.0143 535.65 538.326
2304 0 76.3386 13.7807 1052 57.9354 535.48 536.215
2305 0 79.3205 14.0317 1113 57.5939 535.401 535.093
2306 0 79.4742 14.0423 1116 58.2204 535.78 535.816
2307 0 83.4023 13.7886 1150 58.5974 535.533 534.155
2308 0 85.3199 13.5607 1157 59.1927 535.858 534.915
2309 0 88.3952 13.5528 1198 59.3414 535.856 533.719
2310 0 91.5128 14.4788 1325 58.3125 536.637 530.38
2311 0 93.6528 14.3936 1348 58.7552 537.053 530.007
2312 0 96.3698 14.6208 1409 58.4429 536.51 527.293
2313 0 101.47 14.1519 1436 58.5857 536.575 525.389
2314 0 101.47 14.1913 1440 162.456 537.576 525.408
2315 1 54.0486 11.0271 596 60.7567 536.22 548.973
2316 0 58.1696 11.7931 686 57.1487 536.48 548.827
2317 0 58.1407 12.6073 733 57.6344 537.795 546.753
2318 0 60.1406 12.371 744 57.9099 537.32 545.921
2319 0 62.2753 12.8462 800 57.5425 537.465 545.539
2320 0 63.0629 12.8285 809 57.7021 537.399 543.041
2321 0 66.1697 12.9062 854 57.4333 537.411 541.711
2322 0 68.2412 13.2178 902 56.9002 537.338 539.554
2323 0 70.3894 12.4877 879 57.6246 537.159 539.797
2324 0 73.2048 13.2915 973 56.4543 537.654 538.257
2325 0 73.2703 12.5016 916 57.5677 537.874 537.617
2326 0 78.3005 13.3716 1047 56.0334 538.002 536.167
2327 0 78.2442 13.6368 1067 56.7132 538.276 532.332
2328 0 81.1915 13.2033 1072 56.9431 538.399 532.837
2329 0 85.1908 13.4639 1147 56.4455 538.724 531.786
2330 0 86.3756 12.9087 1115 57.1076 539.068 530.406
2331 0 91.2711 13.4763 1230 56.7569 538.79 528.685
2332 1 46.0317 10.6014 488 56.8238 538.793 550.787
2333 0 47.088 10.4698 493 57.5517 538.838 549.815
2334 0 48.0323 10.368 498 57.8996 539.209 549.114
2335 0 51.0342 11.7764 601 56.1248 539.293 547.301
2336 0 51.2759 11.6429 597 56.5427 539.995 548.692
2337 0 53.1633 12.4522 662 55.7598 540.245 547.159
2338 0 55.3207 12.6896 702 55.4886 540.134 545.729
2339 0 57.1705 12.489 714 55.4818 539.99 546.185
2340 0 58.1994 12.5087 728 55.4918 540.42 545.865
2341 0 60.2026 12.6573 762 55.1982 540.055 544.623
2342 0 62.1544 13.2251 822 54.7263 540.988 542.987
2343 0 61.0795 11.968 731 56.1176 541.101 541.442
2344 0 64.1345 13.5652 870 54.7379 540.747 539.232
2345 0 66.0649 12.3818 818 56.0183 540.725 540.46
2346 0 68.1083 12.5095 852 55.8533 540.563 538.426
2347 0 68.0937 12.9087 879 56.2787 541.516 537.333
2348 0 73.1467 13.8215 1011 54.6914 540.825 537.398
2349 0 74.1576 13.0668 969 56.1641 541.129 535.528
2350 0 77.1942 13.6539 1054 55.7856 541.691 533.784
2351 0 80.2483 13.1467 1055 56.6246 541.267 532.67
2352 0 81.17 14.2787 1159 55.843 541.871 531.916
2353 0 87.1907 13.1551 1147 57.1264 541.564 529.776
2354 0 87.1965 13.8194 1205 56.9452 541.35 528.155
2355 0 90.2809 13.6574 1233 57.0754 541.648 526.899
2356 0 94.2231 14.0411 1323 56.8987 541.455 526.78
2357 1 49.0594 11.0275 541 56.8281 542.279 549.438
2358 0 50.0708 11.2241 562 57.8025 541.89 546.24
2359 0 52.0746 12.098 630 57.546 541.117 544.898
2360 0 52.0469 12.2582 638 58.0987 540.4 544.889
2361 0 56.1128 13.2412 743 56.6124 539.732 545.118
2362 0 56.1558 12.5365 704 58.2244 539.788 544.673
2363 0 59.2098 13.5451 802 56.4713 540.141 544.602
2364 0 61.1485 13.0175 796 57.0967 539.633 543.137
2365 0 62.2877 12.94 806 57.3784 539.448 543.521
2366 0 64.122 12.2891 788 58.1865 539.429 541.496
2367 0 66.116 13.5368 895 57.5542 538.979 540.332
2368 0 67.286 12.484 840 59.406 538.976 539.855
2369 0 70.206 13.0473 916 58.4192 538.938 539.772
2370 0 72.1682 13.1914 952 58.8424 538.657 537.442
2371 0 75.1981 14.1493 1064 57.6457 538.992 536.101
2372 0 76.1521 12.8821 981 59.8257 538.286 534.438
2373 0 80.1365 13.4021 1074 59.1946 538.493 532.619
2374 0 83.0932 13.178 1095 59.2082 538.542 532.202
2375 1 45.0472 11.499 518 58.7819 537.853 551.459
2376 0 46.0908 11.4556 528 59.2822 537.765 549.68
2377 0 48.0575 12.4226 597 57.995 537.213 551.328
2378 0 49.1385 12.0883 594 59.0084 537.85 548.746
2379 0 51.2304 12.3755 634 58.6719 537.863 547.267
2380 0 52.1231 12.835 669 58.6472 537.221 548.532
2381 0 53.239 12.4345 662 59.145 537.918 548.746
2382 0 56.1783 12.3891 696 56.7184 537.922 547.267
2383 0 58.0952 12.2902 714 56.6807 538.315 547.287
2384 0 58.1417 12.3835 720 56.5931 538.737 545.449
2385 0 60.2453 12.5321 755 56.4662 538.433 545.45
2386 0 61.1925 12.5179 766 57.4896 538.291 544.003
2387 0 66.1897 13.4613 891 55.3861 538.25 543.846
2388 0 67.1938 12.9327 869 56.1738 538.6 542.736
2389 0 71.1503 13.0288 927 55.6408 538.275 540.895
2390 0 72.1899 12.6472 913 57.2059 538.183 539.44
2391 0 74.1414 12.5436 930 57.2183 538.512 540.504
2392 0 77.0733 13.1952 1017 56.3687 539.553 537.496
2393 0 79.282 12.8529 1019 57.0707 539.493 536.074
2394 0 79.4108 12.769 1014 57.9576 539.217 534.514
2395 0 84.2536 12.6404 1065 57.4854 538.985 534.916
2396 1 45.0987 11.1312 502 56.1414 539.159 553.432
2397 0 46.1533 10.6385 491 57.4847 539.377 554.322
2398 0 47.1146 10.952 516 57.4419 540.273 551.453
2399 0 47.0216 11.2927 531 57.5367 539.264 552.838
2400 0 50.1702 11.3215 568 57.6849 538.146 551.322
2401 0 52.1551 11.5808 604 57.3758 537.482 551.341
2402 0 53.1604 12.1895 648 56.787 537.674 550.728
2403 0 55.1745 11.6539 643 57.7543 537.311 550.72
2404 0 56.2368 12.4296 699 57.6695 537.167 548.775
2405 0 57.1521 12.7904 731 57.3064 537.008 548.014
2406 0 60.1187 13.4401 808 56.4146 536.896 548.228
2407 0 61.2226 12.2014 747 58.3066 537.182 546.786
2408 0 63.1964 13.0862 827 57.2817 536.897 545.241
2409 0 65.2002 12.6993 828 57.4493 536.71 545.63
2410 0 66.1858 12.3138 815 57.6798 536.005 547.303
2411 0 69.057 12.6562 874 57.3959 536.784 544.291
2412 0 70.2318 12.9571 910 57.1769 536.795 542.68
2413 0 73.0974 13.2973 972 56.785 536.269 542.36
2414 0 74.3173 12.3928 921 57.8371 536.521 541.129
2415 0 78.229 13.4988 1056 56.608 536.816 539.205
2416 0 80.1671 12.7983 1026 57.2729 536.313 537.106
2417 0 82.1548 12.9025 1060 57.3547 536.783 535.678
2418 0 87.261 13.1445 1147 56.2799 536.575 537.65
2419 0 89.1443 12.7883 1140 56.3 536.487 535.173
2420 1 48.1345 11.1978 539 56.7588 537.013 554.967
2421 0 51.2391 11.339 581 55.9501 536.472 553.525
2422 0 52.2267 11.4884 600 56.2183 536.408 553.273
2423 0 54.1879 12.4567 675 55.2741 536.391 553.108
2424 0 54.1845 12.9373 701 55.766 536.118 550.923
2425 0 57.0393 13.1664 751 55.1771 535.517 551.261
2426 0 60.0368 12.4091 745 55.7342 534.862 549.626
2427 0 61.0586 12.922 789 55.7022 535.326 548.214
2428 0 62.1585 11.8085 734 56.6717 535.673 549.775
2429 0 64.1878 12.3544 793 56 535.668 547.465
2430 0 66.1877 13.1444 870 55.292 535.767 545.89
2431 0 68.2208 13.1631 898 55.3318 535.698 544.295
2432 0 71.2666 12.6427 901 55.9822 536.198 544.656
2433 0 74.2155 13.5416 1005 54.2866 535.752 542.116
2434 0 74.2086 12.101 898 56.8151 536.716 541.137
2435 0 76.3195 12.0677 921 56.6623 536.46 540.914
2436 0 79.4289 12.464 990 56.6404 536.21 539.336
2437 0 83.3404 11.507 959 57.487 536.786 538.487
2438 1 43.1057 11.0658 477 56.5597 536.602 556.805
2439 0 44.1303 11.5114 508 54.5846 536.691 557.864
2440 0 45.1492 12.204 551 54.0417 536.279 556.245
2441 0 46.0768 12.1319 559 54.7013 536.118 554.363
2442 0 49.0926 12.4662 612 53.9608 535.958 555.467
2443 0 48.1801 12.2042 588 55.5017 536.083 553.905
2444 0 51.1562 12.2566 627 55.6523 536.362 551.689
2445 0 52.0846 11.2893 588 56.7772 536.26 550.903
2446 0 55.106 13.7916 760 52.9961 536.338 550.483
2447 0 55.2478 12.9236 714 54.2899 535.885 549.833
2448 0 57.1906 13.6211 779 53.5315 536.253 547.335
2449 0 58.133 13.0219 757 54.0159 536.828 547.548
2450 0 58.231 13.8071 804 53.6057 537.001 546.353
2451 0 62.2002 12.4276 773 54.2044 537.266 543.335
2452 0 63.1405 13.0344 823 54.4095 536.962 543.644
2453 0 63.2893 13.067 827 54.7207 537.31 542.189
2454 0 66.2017 13.3229 882 53.9955 536.845 540.671
2455 0 70.1172 13.2207 927 52.7001 537.44 542.013
2456 0 71.284 13.6637 974 53.1068 537.556 540.089
2457 0 72.1663 13.0532 942 54.0732 537.789 539.661
2458 1 37.0759 10.8157 401 55.6434 536.608 557.648
2459 0 41.1765 11.8029 486 55.1296 537.109 555.175
2460 0 40.1816 11.8462 476 55.7542 537.855 555
2461 0 43.1467 12.3069 531 55.6365 537.945 554.644
2462 0 43.2525 11.9068 515 56.7534 538.082 553.588
2463 0 46.5267 12.5519 584 56.214 538.113 553.589
2464 0 48.0233 13.431 645 55.9116 538.206 551.953
2465 0 48.2187 13.0862 631 56.5214 538.445 551.513
2466 0 50.1381 13.762 690 56.158 539.048 549.713
2467 0 53.0468 12.8189 680 57.2868 539.375 549.894
2468 0 53.0742 13.5848 721 57.043 539.555 548.957
2469 0 52.0742 13.98 728 57.4684 539.348 548.706
2470 0 56.0447 14.1494 793 56.7919 539.523 546.802
2471 0 56.0608 13.6459 765 58.2235 539.446 546.601
2472 0 57.0809 13.875 792 58.0366 540.644 544.723
2473 0 62.0937 13.85 860 57.1581 540.743 545.352
2474 0 62.2006 14.4532 899 58.0868 540.786 543.659
2475 0 65.2412 14.1322 922 58.3991 540.936 543.076
2476 0 66.1098 14.249 942 58.3662 541.006 541.04
2477 0 68.0984 14.156 964 58.9844 540.571 539.69
2478 0 70.1273 14.2027 996 59.1155 541.089 538.45
2479 0 71.147 14.6036 1039 58.9962 540.804 538.768
2480 0 74.0509 14.7196 1090 59.3541 540.51 537.292
2481 0 78.0908 14.7649 1153 59.4744 540.619 536.345
2482 0 78.068 14.7948 1155 60.4615 540.27 535.113
2483 0 83.0466 14.8471 1233 60.6367 540.668 533.992
2484 0 85.1645 14.1961 1209 61.7568 540.956 531.467
2485 0 88.125 14.2638 1257 62.0947 540.97 530.2
2486 1 46.0759 11.9151 549 62.5319 540.725 551.537
2487 0 48.0621 12.3174 592 63.9139 540.593 550.323
2488 0 48.0187 12.6617 608 64.1809 541.09 550.176
2489 0 52.0896 13.1696 686 63.0262 540.63 548.743
2490 0 54.1079 13.6764 740 62.0946 540.684 547.018
2491 0 53.0944 13.5984 722 63.0388 539.992 546.825
2492 0 55.0401 13.9535 768 62.3138 540.102 546.951
2493 0 58.1335 13.9334 810 62.3568 540.127 545.264
2494 0 59.0455 13.2948 785 63.5057 539.752 545.155
2495 0 61.0307 14.124 862 62.0824 539.809 544.022
2496 0 62.0785 13.8534 860 63.0709 539.864 540.836
2497 0 67.0359 14.4848 971 61.2225 540.263 540.498
2498 0 68.0258 13.3185 906 63.4238 540.109 541.588
2499 0 71.1268 14.2281 1012 62.1047 540.331 537.877
2500 0 72.0746 13.7635 992 63.2692 539.708 537.283
2501 0 76.1464 13.9337 1061 62.9105 539.512 536.824
2502 0 78.0508 14.5034 1132 62.1652 539.106 535.64
2503 1 43.0343 11.1074 478 65.0962 538.906 552.561
2504 0 44.0153 11.1098 489 65.3027 538.816 552.211
2505 0 45.0403 11.5674 521 65.4837 538.914 550.9
2506 0 48.1217 11.8034 568 64.6884 538.857 551.68
2507 0 49.1177 12.6227 620 64.0726 538.081 550.337
2508 0 51.0695 13.9026 710 61.9535 538.654 550.176
2509 0 53.1221 13.6478 725 62.8345 539.269 549.823
2510 0 53.1059 13.7838 732 64.1995 539.52 546.806
2511 0 54.0575 13.2452 716 65.2961 539.689 547.337
2512 0 57.1224 13.7599 786 64.4313 539.772 545.622
2513 0 60.1392 14.0507 845 63.8059 539.262 544.852
2514 0 62.1051 13.4449 835 64.7317 539.326 545.377
2515 0 63.1 14.0095 884 63.9242 539.462 543.905
2516 0 65.0466 13.8516 901 64.4895 539.663 542.615
2517 0 67.0777 13.2533 889 65.2958 538.731 542.828
2518 0 71.1371 13.9027 989 63.7513 537.875 541.254
2519 0 72.1609 14.2598 1029 62.932 538.144 539.487
2520 0 73.1326 14.5489 1064 63.2397 538.195 538.716
2521 0 76.2457 14.3483 1094 63.1042 538.378 536.968
2522 0 76.3475 14.1065 1077 64.169 538.959 535.398
2523 0 82.1918 13.9673 1148 62.892 538.558 534.826
2524 0 83.0921 13.6114 1131 63.6844 538.486 534.1
2525 1 44.2162 11.2176 496 62.873 539.222 554.74
2526 0 45.1806 11.9963 542 62.845 539.015 553.304
2527 0 48.0871 11.2088 539 63.2746 538.607 552.98
2528 0 48.1609 11.9392 575 62.9409 538.748 551.475
2529 0 50.1386 12.6051 632 62.4589 538.21 550.491
2530 0 51.2319 13.5072 692 61.4465 537.812 548.978
2531 0 52.0773 12.6735 660 62.5773 537.421 549.63
2532 0 54.1566 13.0363 706 62.1884 537.463 549.249
2533 0 55.0828 13.3073 733 61.8649 537.846 548.323
2534 0 57.1751 13.0826 748 61.9532 537.679 547.045
2535 0 61.1576 12.8357 785 61.4242 537.368 546.397
2536 0 63.2023 13.5755 858 60.0559 537.565 546.517
2537 0 65.2341 13.8731 905 59.8983 537.474 544.173
2538 0 68.16 13.483 919 60.6028 537.986 542.497
2539 0 68.079 13.4109 913 62.1829 537.809 542.816
2540 0 71.2145 13.5787 967 61.3837 537.778 543.334
2541 0 73.2298 14.0107 1026 61.4142 537.536 540.31
2542 0 75.2093 14.4929 1090 61.0789 536.765 539.95
2543 0 78.1697 14.0336 1097 61.5752 536.675 539.029
2544 0 81.2213 13.8264 1123 62.2769 536.911 537.68
2545 0 83.1782 14.3668 1195 61.9331 537.562 536.358
2546 0 87.1754 14.6027 1273 60.8052 537.621 535.658
2547 0 88.329 14.5592 1286 61.9292 537.346 534.952
2548 0 91.2522 15.1777 1385 60.8823 537.337 533.833
2549 0 92.1653 14.3221 1320 62.8265 537.175 532.162
2550 0 95.2266 14.7333 1403 62.1597 537.198 531.2
2551 0 99.1976 14.8189 1470 61.8082 536.696 530.04
2552 0 102.186 13.8277 1413 63.3156 536.744 530
2553 0 105.244 14.1766 1492 62.8961 537.216 526.489
2554 1 51.1004 12.2113 624 64.0096 536.971 553.019
2555 0 53.0313 12.5963 668 63.5988 536.858 551.636
2556 0 55.078 13.0724 720 63.6931 535.875 550.032
2557 0 58.2682 13.0946 763 62.806 536.263 549.594
2558 0 58.0948 13.5812 789 63.1179 536.343 548.099
2559 0 60.0544 14.337 861 61.7329 535.997 547.818
2560 0 61.1227 13.7101 838 62.685 535.919 547.242
2561 0 63.0696 14.0004 883 62.6149 536.066 546.284
2562 0 67.0953 14.308 960 61.3438 536.282 544.865
2563 0 69.1101 14.3973 995 61.4131 535.983 544.186
2564 0 72.1828 13.8676 1001 61.5724 535.904 542.35
2565 0 73.198 13.8802 1016 61.8484 535.791 541.247
2566 0 76.2231 14.4182 1099 62.3048 535.913 539.857
2567 0 77.1441 14.9201 1151 62.7029 535.802 538.014
2568 0 81.1573 14.1577 1149 62.7833 535.93 538.03
2569 0 82.2125 14.3044 1176 62.7534 536.18 537.099
2570 0 84.1713 14.1141 1188 63.4722 535.956 534.336
2571 0 87.0788 13.7806 1200 63.4725 535.78 534.34
2572 1 50.183 12.1954 612 64.1373 535.497 552.503
2573 0 51.1759 12.1932 624 63.9391 535.01 552.5
2574 0 54.1665 13.0339 706 63.347 535.212 551.734
2575 0 56.0539 13.0589 732 63.291 535.38 549.873
2576 0 57.0678 14.1411 807 62.1214 535.659 548.75
2577 0 59.2203 14.2856 846 61.3853 535.11 549.09
2578 0 60.2208 14.2476 858 61.7354 534.589 547.334
2579 0 63.1092 14.0392 886 61.5158 534.862 546.71
2580 0 67.1398 14.3283 962 60.3462 534.196 544.735
2581 0 66.2151 13.8337 916 61.8057 535.457 544.432
2582 0 69.1211 13.6283 942 62.1975 535.345 542.038
2583 0 73.1549 13.984 1023 61.6325 535.315 539.829
2584 0 75.1323 14.4412 1085 61.0627 535.743 538.998
2585 0 77.0648 14.4164 1111 61.0297 535.893 537.354
2586 0 82.089 14.4112 1183 60.3415 536.595 535.971
2587 0 84.1138 14.0405 1181 61.5538 536.152 534.385
2588 1 44.1013 11.7003 516 62.1473 536.694 555.409
2589 0 46.0349 13.4898 621 60.3816 535.813 554.356
2590 0 48.1093 12.7834 615 61.7171 535.997 552.62
2591 0 50.0908 12.3176 617 62.5624 536.261 551.587
2592 0 51.0231 13.8565 707 60.6676 536.369 550.686
2593 0 52.0166 14.0917 733 61.3288 536.325 548.935
2594 0 52.1366 13.2537 691 62.4327 535.968 549.669
2595 0 55.2096 14.5265 802 60.606 536.574 548.784
2596 0 56.1743 13.5471 761 62.4166 536.671 547.756
2597 0 58.1063 13.8367 804 61.6965 536.785 547.29
2598 0 59.1698 13.9598 826 63.2361 537.067 544.87
2599 0 60.1236 14.2207 855 62.6117 537.379 544.83
2600 0 63.0517 14.052 886 63.0869 537.641 544.341
2601 0 64.1442 13.9374 894 64.3367 538.148 541.605
2602 0 66.1319 14.6072 966 62.8002 538.336 541.58
2603 0 69.126 14.5676 1007 62.8242 538.448 540.507
2604 0 71.2879 14.1398 1008 63.8462 538.125 539.555
2605 0 74.0921 14.7384 1092 62.9835 538.329 539.086
2606 0 75.0501 14.6702 1101 63.6948 538.8 536.08
2607 0 77.0417 14.265 1099 64.2175 539.093 535.668
2608 0 81.2705 14.2487 1158 63.8446 539.324 534.48
2609 1 41.2838 11.6511 481 65.1559 540.044 555.021
2610 0 44.0631 11.6197 512 66.0605 539.717 552.158
2611 0 45.387 12.757 579 63.9326 540.337 552.088
2612 0 47.2787 12.733 602 63.7442 539.904 551.135
2613 0 50.232 13.358 671 63.5261 540.106 549.96
2614 0 51.185 14.2815 731 62.4446 540.67 548.72
2615 0 53.1301 13.5517 720 63.6014 540.881 549.776
2616 0 53.3227 13.8215 737 63.9973 541.195 547.896
2617 0 56.2255 13.8371 778 62.8239 541.542 549.041
2618 0 58.3223 13.4768 786 63.4949 541.332 547.065
2619 0 58.206 13.5553 789 63.9924 541.179 545.606
2620 0 61.3614 13.999 859 62.44 541.666 544.723
2621 0 63.2874 14.442 914 62.0306 541.438 544.3
2622 0 66.2221 15.6443 1036 60.8079 541.653 541.573
2623 0 68.1819 14.7546 1006 61.8698 541.77 541.422
2624 0 68.1597 14.1433 964 63.5322 541.873 539.939
2625 0 71.1041 14.8937 1059 62.4363 541.809 538.618
2626 0 72.2534 13.8125 998 63.9379 541.835 537.277
2627 0 76.2103 14.355 1094 62.0037 541.651 537.388
2628 0 80.103 14.6686 1175 61.4034 541.465 535.208
2629 0 84.1098 14.9804 1260 60.9746 541.77 532.497
2630 0 86.3142 14.7137 1270 61.2575 541.476 531.814
2631 0 89.2686 15.2573 1362 60.4082 541.101 531.385
2632 0 90.3441 15.2528 1378 60.6067 540.898 528.173
2633 0 94.1793 14.5573 1371 61.733 541.305 526.958
2634 1 51.2054 12.6744 649 62.1695 540.689 548.519
2635 0 51.1903 11.9749 613 63.3214 541.436 546.488
2636 0 55.0976 13.703 755 61.0795 540.996 545.219
2637 0 56.0615 14.0382 787 60.4981 541.241 544.327
2638 0 58.0874 13.7035 796 60.6043 541.315 544.132
2639 0 61.0908 14.7158 899 58.5562 541.068 543.359
2640 0 62.207 12.9407 805 60.7267 540.981 542.01
2641 0 64.2315 13.6693 878 59.9784 540.951 541.03
2642 0 67.3674 13.701 923 60.0726 540.337 540.761
2643 0 69.273 13.786 955 60.2408 540.401 538.176
2644 0 73.1262 14.3998 1053 59.4777 540.628 537.564
2645 0 74.1813 14.6803 1089 59.8926 540.418 535.051
2646 0 77.1787 14.2267 1098 60.0255 540.393 534.925
2647 0 80.1228 15.1018 1210 59.243 540.175 533.007
2648 0 82.1637 14.7267 1210 59.8223 539.846 531.575
2649 0 85.3075 14.7935 1262 59.748 539.613 530.872
2650 0 87.1567 13.8945 1211 58.3138 539.124 530.936
2651 0 90.3711 14.5179 1312 57.9672 539.489 529.327
2652 0 95.2094 14.2633 1358 57.5935 539.586 528.482
2653 0 96.2749 14.7183 1417 57.8716 539.44 526.618
2654 0 99.3366 15.0398 1494 57.8849 539.742 525.149
2655 1 51.1404 11.752 601 61.1065 539.073 548.764
2656 0 54.1242 12.0648 653 60.4778 538.815 548.515
2657 0 58.112 13.4912 784 59.3125 538.93 545.087
2658 0 60.221 13.4837 812 59.3682 538.982 543.042
2659 0 63.2301 14.6924 929 57.6814 539.094 542.594
2660 0 64.3567 13.7515 885 59.1571 539.157 543.523
2661 0 66.2702 14.0184 929 59.6329 539.058 541.994
2662 0 69.0916 13.3012 919 60.8379 538.77 540.831
2663 0 68.2612 13.7706 940 61.6543 538.943 539.488
2664 0 72.1697 14.0918 1017 61.1603 539.071 537.596
2665 0 75.2015 14.7869 1112 59.8552 538.642 538.223
2666 0 77.2071 14.2215 1098 61.2705 539.085 537.392
2667 0 79.0606 14.2675 1128 61.7801 538.684 535.672
2668 0 85.1131 15.215 1295 60.2208 538.497 535.442
2669 0 86.1535 14.3233 1234 62.0924 538.997 532.443
2670 0 86.2167 14.6375 1262 62.916 538.934 530.153
2671 0 91.0947 14.4794 1319 62.8787 538.431 529.489
2672 0 94.1822 14.4932 1365 63.033 539.084 527.325
2673 0 99.0953 14.0572 1393 63.1285 538.426 528.192
2674 1 52.1248 11.3957 594 64.7054 538.771 550.298
2675 0 55.1756 12.1974 673 64.5854 538.553 548.245
2676 0 56.0877 12.3913 695 64.8259 538.668 547.524
2677 0 57.1492 13.176 753 64.4436 538.655 545.894
2678 0 59.199 13.5475 802 63.9364 538.236 545.282
2679 0 59.1462 13.2891 786 64.8855 538.179 544.111
2680 0 65.1726 13.9629 910 63.0198 537.997 541.392
2681 0 68.4349 13.9403 954 62.9361 537.653 539.821
2682 0 69.3387 14.6095 1013 62.0405 537.619 539.717
2683 0 71.163 13.9258 991 63.4945 537.407 538.515
2684 0 73.2282 14.1612 1037 62.7203 537.666 538.258
2685 0 75.2025 13.6299 1025 63.7746 537.296 535.734
2686 0 78.304 13.4987 1057 64.7181 537.6 533.347
2687 0 82.3195 14.1157 1162 63.4423 537.204 532.774
2688 0 84.4079 14.1219 1192 63.6485 537.596 531.508
2689 0 88.2912 14.237 1257 63.1623 537.45 530.962
2690 1 44.2552 11.3207 501 64.9341 536.461 552.289
2691 0 46.1915 11.3657 525 64.8305 536.215 550.432
2692 0 48.1747 11.5621 557 65.0718 536.643 551.601
2693 0 50.1604 12.48 626 63.5463 536.666 550.869
2694 0 48.334 12.9515 626 64.4457 536.55 550.152
2695 0 52.0157 13.3613 695 62.8518 536.481 549.02
2696 0 52.067 13.1561 685 64.0876 537.276 549.855
2697 0 54.1546 13.7385 744 63.5484 537.13 549.02
2698 0 56.0668 12.8418 720 64.6917 536.806 548.36
2699 0 58.0766 12.7762 742 64.7224 536.606 547.567
2700 0 61.0524 13.4638 822 63.444 536.1 546.568
2701 0 63.2089 13.226 836 63.7273 536.196 545.199
2702 0 65.1971 13.7736 898 62.8697 536.351 544.225
2703 0 65.1322 13.557 883 64.0906 536.316 542.24
2704 0 68.362 14.3501 981 62.9572 536.159 541.032
2705 0 72.1893 13.2984 960 63.9448 536.195 540.091
2706 0 75.1208 13.9242 1046 63.2897 535.808 539.284
2707 0 76.1321 13.2533 1009 65.0278 536.31 538.285
2708 0 79.1623 13.4028 1061 64.4251 536.451 537.729
2709 0 83.1744 14.3914 1197 62.7536 536.481 536.226
2710 1 42.0791 10.9793 462 66.6537 535.794 554.502
2711 0 44.1634 10.6876 472 66.7606 535.843 553.716
2712 0 48.1575 11.0886 534 66.2528 536.037 552.234
2713 0 50.0659 11.6047 581 65.8468 536.036 551.372
2714 0 50.0323 11.5725 579 66.8187 536.059 550.561
2715 0 51.0661 13.0615 667 65.5622 535.825 550.297
2716 0 54.0649 13.0584 706 64.1884 535.933 550.014
2717 0 56.1242 13.7017 769 63.3836 536.252 549.759
2718 0 58.0364 13.0435 757 64.3342 536.107 547.951
2719 0 61.0318 14.3368 875 62.392 536.056 547.233
2720 0 61.0781 13.5073 825 64.1297 536.196 546.228
2721 0 66.1218 14.1406 935 62.4599 536.845 546.391
2722 0 67.0759 13.6114 913 64.0986 536.587 544.609
2723 0 68.1424 13.9854 953 63.7639 536.196 543.504
2724 0 72.1734 14.188 1024 63.2061 536.229 541.16
2725 0 72.1296 13.2539 956 65.4477 536.617 539.72
2726 0 74.1853 13.5337 1004 64.9442 536.892 539.856
2727 0 79.0587 14.5335 1149 63.047 537.027 538.193
2728 0 81.1945 14.5699 1183 63.3415 536.31 535.774
2729 0 84.1503 14.7593 1242 62.8003 536.59 534.473
2730 0 87.1293 14.0366 1223 63.9469 536.752 533.27
2731 0 88.1403 14.8286 1307 63.4583 536.951 532.855
