time division length width area intensity CMx CMy
0 0 71.1618 14.3195 1019 71.7262 757.434 443.352
1 0 75.1502 14.5043 1090 93.2541 757.061 446.665
2 0 76.1972 14.6331 1115 71.0287 757.251 448.328
3 0 77.1794 14.2914 1103 72.524 757.06 450.637
4 0 81.1093 14.3633 1165 72.2146 756.911 451.926
5 0 83.2359 13.72 1142 75.1165 757.493 456.163
6 0 86.2302 14.5425 1254 74.7137 757.088 457.513
7 0 89.1394 14.64 1305 74.4751 757.464 459.848
8 0 93.2543 15.4309 1439 72.3815 757.748 461.927
9 0 95.373 14.6897 1401 73.8922 757.13 464.61
10 0 98.197 13.8395 1359 75.8756 757.81 468.76
11 1 49.1515 11.5358 567 76.9242 757.203 498.617
12 0 51.3313 11.981 615 75.8911 757.489 505.345
13 0 55.4676 12.9445 718 73.1602 757.617 508.519
14 0 55.2379 12.9983 718 73.7312 758.024 512.011
15 0 55.2604 12.993 718 74.7604 757.929 516.45
16 0 58.2526 13.596 792 73.2197 758.047 520.5
17 0 60.259 13.973 842 72.6259 757.492 525.682
18 0 61.469 13.1774 810 73.7926 757.738 531.314
19 0 65.5499 14.0809 923 70.7725 757.554 535.664
20 0 66.493 13.7458 914 72.3446 757.728 540.383
21 0 69.5462 13.2861 924 72.0703 757.839 546.267
22 0 70.6951 14.216 1005 71.3532 757.643 551.584
23 0 72.5068 13.516 980 72.5276 757.672 555.117
24 0 77.3853 12.9353 1001 72.4286 757.504 553.18
25 0 78.2655 13.0837 1024 72.5273 757.485 552.211
26 0 82.2209 13.1354 1080 72.4287 757.575 548.776
27 0 85.2537 12.1402 1035 74.4068 757.394 547.156
28 0 89.3566 14.1456 1264 70.4897 757.573 546.705
29 1 47.2683 10.3029 487 72.6509 757.29 567.113
30 0 51.215 11.0319 565 71.0779 757.492 566.963
31 0 52.3934 11.5854 607 71.1071 757.445 564.051
32 0 53.2663 11.9776 638 70.1426 757.342 565.384
33 0 57.2839 12.5341 718 69.7702 757.84 565.103
34 0 55.289 12.0096 664 71.8524 758.05 562.813
35 0 59.2596 11.7956 699 71.0959 758.093 562.104
36 0 62.4365 12.2524 765 71.1046 758.265 559.393
37 0 63.3007 12.8751 815 70.1583 757.886 558.491
38 0 66.4259 13.3231 885 69.2362 758.355 558.661
39 0 69.3867 12.4231 862 69.9513 758.49 556.543
40 0 72.2799 12.5208 905 70.1171 758.178 554.469
41 0 73.5334 12.9329 951 70.0915 758.721 551.999
42 0 76.3455 11.985 915 71.3781 758.302 552.77
43 0 77.2343 12.7275 983 71.0641 758.596 550.779
44 0 83.5766 12.9821 1085 70.1512 758.786 549.471
45 1 43.2128 10.3673 448 70.7388 759.734 569.172
46 0 44.1956 10.6119 469 70.7505 759.808 567.902
47 0 46.2314 11.9616 553 69.0362 759.474 568.539
48 0 49.377 12.3539 610 68.5475 759.672 566.356
49 0 48.4352 11.3967 552 71.4728 760.196 565.877
50 0 48.205 11.7 564 72.383 759.931 565.941
51 0 51.3799 12.5146 643 70.4852 759.975 564.91
52 0 51.2804 11.4664 588 72.7449 759.83 563.58
53 0 54.4973 12.6061 687 71.0655 759.591 560.326
54 0 56.4651 12.2554 692 71.3916 758.351 561.497
55 0 57.2763 12.0469 690 65.1971 759.542 560.49
56 0 58.4894 12.6519 740 64.6284 759.693 560.647
57 0 58.4714 12.194 713 65.3857 759.489 559.181
58 0 63.4296 13.1011 831 63.8797 759.729 558.011
59 0 62.4273 12.4465 777 66.1557 759.914 557.319
60 0 64.5098 12.6803 818 67.4095 760.133 556.868
61 0 66.5288 13.4829 897 66.9019 759.929 553.31
62 0 69.5137 13.3355 927 66.8921 759.886 554.531
63 0 68.3913 13.0134 890 68.3045 759.988 553.587
64 0 72.3765 13.8028 999 66.998 759.635 552.774
65 0 74.5576 13.1979 984 68.44 759.951 549.638
66 0 79.3554 14.2019 1127 66.2626 759.884 549.708
67 0 80.2918 13.3638 1073 68.1538 760.164 548.24
68 0 82.4357 12.6401 1042 69.1881 760.556 547.417
69 1 43.5629 9.84783 429 70.3823 760.52 566.464
70 0 47.2568 10.3689 490 68.4469 760.392 566.486
71 0 47.3226 10.8405 513 69.5068 760.4 564.583
72 0 50.2145 12.5063 628 67.5478 760.36 563.771
73 0 49.2751 11.8518 584 69.4075 760.818 562.986
74 0 51.212 13.2 676 67.8521 761.169 562.822
75 0 52.2561 13.2233 691 68.8726 761.572 560.388
76 0 54.157 12.8146 694 69.2003 760.553 561.206
77 0 53.1622 13.4494 715 69.4657 761.552 558.543
78 0 56.1528 13.5701 762 68.5118 761.744 558.74
79 0 57.4799 13.4134 771 69.4176 761.969 558.642
80 0 58.194 14.3314 834 68.3609 762.511 556.946
81 0 59.2213 13.2216 783 70.3665 762.037 556.008
82 0 62.3319 13.8613 864 69.103 762.655 555.682
83 0 62.265 13.9725 870 69.4103 763.348 554.556
84 0 64.1999 13.8162 887 69.336 763.287 553.215
85 0 65.3284 13.5163 883 70.0804 763.875 552.149
86 0 67.5595 14.1061 953 68.7503 763.7 550.408
87 0 70.3769 14.536 1023 67.087 763.714 549.701
88 0 72.3956 13.5091 978 68.8487 763.622 547.687
89 0 73.3891 13.8168 1014 68.6174 763.586 547.74
90 0 80.3068 14.98 1203 66.2876 763.805 545.075
91 0 80.2675 14.1028 1132 69.7182 764.807 543.006
92 0 82.3103 14.0687 1158 70.405 765.143 541.575
93 0 85.3696 13.8457 1182 70.4357 764.94 540.201
94 1 44.082 12.4768 550 68.8091 764.462 560.045
95 0 46.305 12.2233 566 66.189 764.663 560.565
96 0 49.1522 12.736 626 65.3179 764.677 557.788
97 0 50.3582 12.5898 634 89.7997 765.273 557.233
98 0 50.237 13.2373 665 64.6165 764.266 556.042
99 0 54.2742 13.1002 711 64.1828 763.851 556.122
100 0 55.6296 12.9068 718 66.9875 764.29 553.911
101 0 55.6296 12.9068 718 168.333 764.28 553.847
102 0 59.2239 12.2417 725 71.0828 764.994 551.585
103 0 62.3966 13.6706 853 64.3447 765.13 551.046
104 0 64.397 13.8826 894 64.2886 765.01 549.339
105 0 64.1702 13.7759 884 68.2783 765.326 548.253
106 0 67.3321 13.2181 890 68.1124 765.487 549.016
107 0 71.452 12.9737 927 67.904 765.511 546.998
108 0 73.3507 13.565 995 67.9608 765.116 545.097
109 0 74.2782 14.0822 1046 68.3451 764.825 542.996
110 0 78.254 13.5073 1057 68.807 764.412 542.051
111 0 80.313 13.3851 1075 69.0316 764.629 540.951
112 0 83.4052 13.3085 1110 68.6171 764.485 539.785
113 0 86.3089 13.7182 1184 68.1537 764.512 536.794
114 1 47.1475 10.2444 483 69.7308 764.342 557.685
115 0 49.2128 11.9075 586 68.6775 764.311 555.275
116 0 47.3084 11.9218 564 69.1702 764.75 553.988
117 0 51.2652 12.4256 637 68.6719 764.479 554.151
118 0 54.186 13.1215 711 67.4909 764.634 553.315
119 0 53.2651 12.1092 645 69.614 764.541 551.49
120 0 56.1736 13.5295 760 67.4724 764.712 550.786
121 0 57.2942 13.3172 763 67.2464 764.498 550.735
122 0 59.1334 13.1905 780 67.5 764.555 549.073
123 0 61.3058 12.8699 789 68.0786 764.456 548.109
124 0 64.2017 12.8501 825 67.6279 764.205 547.821
125 0 66.1314 13.0195 861 67.367 764.153 547.235
126 0 69.1165 13.7449 950 66.2516 764.187 546.168
127 0 71.3048 13.1268 936 67.2778 764.23 545.186
128 0 73.2802 12.3635 906 68.2726 763.773 543.768
129 0 73.3844 13.0682 959 68.121 763.648 541.517
130 0 76.295 12.7531 973 68.0195 763.618 542.208
131 0 80.1353 13.1528 1054 68.592 763.361 539.213
132 0 83.2369 13.9722 1163 67.1969 763.464 536.59
133 0 86.3609 13.3509 1153 68.1015 763.237 535.507
134 1 48.2137 10.2046 492 69.1707 762.518 554.868
135 0 48.2137 10.246 494 165.838 762.504 554.743
136 0 51.1036 11.5452 590 67.0763 762.703 554.241
137 0 53.0858 11.0011 584 68.0103 762.99 553.269
138 0 55.2307 12.1671 672 66.814 763 552.106
139 0 56.2582 11.4117 642 68.2118 763.128 550.832
140 0 57.4342 12.2575 704 67.0355 762.861 549.033
141 0 58.4203 12.2047 713 67.7209 762.906 549.208
142 0 61.3969 11.7758 723 68.361 763.56 549.927
143 0 65.6481 12.2776 806 67.2655 762.923 547.439
144 0 65.3429 12.4727 815 67.7153 763.131 547.039
145 0 67.3959 12.8643 867 67.1742 762.987 544.679
146 0 71.3542 12.3188 879 67.7213 763.213 543.414
147 0 74.4198 12.8595 957 67.791 763.121 542.409
148 0 76.5236 11.2645 862 70.3225 762.669 544.124
149 0 77.4382 12.4745 966 69.911 762.576 539.925
150 0 81.3385 12.909 1050 69.4267 762.388 539.95
151 1 41.2712 9.98276 412 70.0461 762.546 559.129
152 0 43.25 9.526 412 69.6748 762.925 559.755
153 0 45.3391 10.2561 465 69.7763 762.611 558.187
154 0 46.3378 9.27968 430 70.9884 762.7 558.36
155 0 47.3546 9.98847 473 71.1903 763.068 557.539
156 0 47.2616 11.6373 550 69.7509 763.264 555.287
157 0 49.2673 11.326 558 69.9498 763.036 556.471
158 0 49.2998 12.211 602 69.3887 763.307 554.726
159 0 50.2818 11.4355 575 71.127 762.889 555.576
160 0 54.2128 12.5616 681 68.8429 762.893 554.943
161 0 52.207 11.282 589 72.18 762.433 554.221
162 0 55.2484 11.8556 655 70.8901 762.73 553.653
163 0 58.2627 12.4951 728 69.8626 762.996 551.213
164 0 61.2912 11.8777 728 70.3173 762.78 551.162
165 0 61.365 13.216 811 68.7941 762.493 550.695
166 0 64.274 12.8823 828 69.5749 762.635 549.339
167 0 64.1919 11.9953 770 71.2766 763.338 549.2
168 0 67.3296 12.5948 848 70.5401 763.617 547.318
169 0 69.3713 12.743 884 71.0509 764.067 545.148
170 0 71.3802 12.9027 921 70.4278 764.22 545.097
171 0 72.1868 12.7032 917 71.4711 764.436 542.823
172 0 77.3425 13.2786 1027 70.3408 763.635 542.372
173 1 40.272 9.70897 391 71.3299 763.545 561.496
174 0 40.2968 9.67818 390 71.8641 763.574 560.864
175 0 42.2739 10.8105 457 70.1204 763.718 559.225
176 0 43.4209 10.9855 477 70.9476 764.373 558.055
177 0 44.2928 11.6498 516 70.8236 764.297 556.374
178 0 45.1993 11.9471 540 70.087 763.993 557.122
179 0 47.2106 12.0524 569 69.9086 764.1 555.385
180 0 46.3213 11.6145 538 71.5799 764.401 555.69
181 0 50.1904 11.9545 600 71.0633 764.385 554.565
182 0 52.3236 12.4418 651 70.2873 764.571 553.441
183 0 53.1923 11.9002 633 71.7725 765.079 552.566
184 0 53.3224 12.6964 677 71.548 764.866 550.938
185 0 54.1975 12.4729 676 71.8491 765.382 551.58
186 0 57.2037 13.0761 748 70.0495 765.057 550.099
187 0 58.1909 12.0466 701 72.0228 764.799 550.581
188 0 59.3368 12.7914 759 71.303 764.866 549.98
189 0 60.2089 12.739 767 71.5437 765.085 547.495
190 0 62.2133 12.3286 767 73.0821 765.256 547.361
191 0 65.3825 12.6792 829 73.8191 765.591 546.192
192 0 66.3317 13.1008 869 72.8216 766.001 544.078
193 0 69.3958 13.0123 903 70.3732 766.187 543.111
194 0 71.3603 13.0465 931 69.5145 765.973 542.687
195 0 73.4712 12.7533 937 70.6564 766.356 540.902
196 0 75.5266 12.9623 979 71.5342 766.414 538.695
197 1 42.3474 10.343 438 72.3174 766.155 557.539
198 0 43.2962 11.5253 499 72.2425 766.315 555.443
199 0 45.2748 11.0216 499 71.5251 766.421 556.094
200 0 46.2985 11.7714 545 70.3615 766.835 555.877
201 0 47.3962 11.4777 544 70.7923 766.774 554.673
202 0 49.3163 11.335 559 70.347 766.75 552.365
203 0 48.2628 12.4734 602 70.3306 766.294 552.645
204 0 51.4032 11.6335 598 71.0569 766.344 551.092
205 0 54.4492 12.654 689 69.0377 766.866 550.385
206 0 55.328 12.0915 669 70.4933 766.883 549.567
207 0 53.335 12.6746 676 71.0991 766.722 548.975
208 0 57.238 12.6489 724 70.7113 767.119 548.917
209 0 57.2966 11.7983 676 72.7574 766.629 547.46
210 0 58.3359 12.5994 735 71.6898 766.75 548.502
211 0 61.199 13.3009 814 70.4803 766.934 545.958
212 0 63.1825 12.8358 811 71.0801 766.383 546.031
213 0 65.2725 12.7466 832 71.3353 766.812 544.88
214 0 68.2349 13.3656 912 69.9178 766.914 544.059
215 0 72.2304 13.1939 953 70.2088 766.942 542.488
216 0 73.2102 13.6593 1000 70.226 765.793 541.833
217 0 74.1929 13.5997 1009 70.0575 765.363 540.924
218 1 41.1472 10.4746 431 71.0534 764.954 558.671
219 0 39.1395 11.2674 441 71.322 765.224 557.825
220 0 42.1331 10.4906 442 71.2919 764.81 557.357
221 0 44.1985 12.3986 548 68.5529 765.108 555.436
222 0 45.1174 11.6806 527 68.1252 764.306 556.529
223 0 45.1331 11.743 530 69.1774 764.623 556.136
224 0 48.1259 13.2777 639 66.4366 764.584 553.336
225 0 47.135 12.1142 571 68.704 764.669 553.517
226 0 51.3047 12.0262 617 67.8833 764.524 553.755
227 0 49.0937 12.2826 603 69.1675 764.897 551.756
228 0 52.2482 12.2301 639 68.7872 765.089 551.274
229 0 55.0789 12.3096 678 68.1504 764.92 551.824
230 0 55.0833 11.8729 654 69.4954 764.128 551.878
231 0 56.1034 12.1383 681 69.4068 764.671 550.521
232 0 58.131 13.0395 758 68.3654 764.483 549.558
233 0 59.1707 13.1484 778 67.7661 764.585 549.742
234 0 59.1272 13.1581 778 68.6864 764.413 549.03
235 0 63.2332 13.5846 859 67.6158 764.327 547.485
236 0 66.1897 13.7635 911 66.7552 764.199 547.544
237 0 68.2347 13.2924 907 67.4498 764.452 545.41
238 0 69.1815 13.6886 947 67.8743 764.556 543.623
239 0 71.1742 13.4318 956 67.7688 764.285 545.291
240 0 72.1903 13.2705 958 68.7171 764.264 541.367
241 0 76.1763 12.7336 970 69.034 764.212 541.892
242 0 78.2856 13.4507 1053 68.3191 764.129 540.293
243 1 42.2185 10.9905 464 69.125 763.543 559.228
244 0 42.272 11.426 483 69.2588 763.569 559.079
245 0 44.2191 12.325 545 67.5982 763.495 558.217
246 0 46.1808 11.8664 548 67.9069 763.734 557.053
247 0 47.2117 12.4122 586 67.686 764.203 556.015
248 0 48.2281 12.98 626 67.5719 763.99 555.086
249 0 49.2301 12.9392 637 68.314 763.854 554.013
250 0 52.2779 12.9118 675 67.8504 764.034 554.996
251 0 52.2468 13.13 686 68.6531 763.853 553.894
252 0 52.2354 12.6543 661 69.4281 764.154 553.979
253 0 57.2337 13.0692 748 67.8997 763.829 552.382
254 0 58.2228 13.0533 760 68.2053 763.849 552.003
255 0 59.3063 13.9951 830 67.5831 763.499 551.333
256 0 62.2668 14.1809 883 66.906 763.703 549.732
257 0 65.3605 13.6474 892 67.5426 763.784 549.933
258 0 66.21 13.3364 883 69.0464 763.403 548.469
259 0 67.2193 13.7163 922 68.8937 762.841 548.694
260 0 70.1306 13.3608 937 69.7033 763.12 546.61
261 0 73.2942 13.3981 982 69.9521 762.872 545.607
262 0 74.1118 13.8304 1025 70.1766 762.708 544.307
263 0 79.2291 12.8867 1021 71.1077 763.02 545.385
264 0 81.3781 14.2422 1159 69.5462 763.256 542.248
265 0 83.1973 13.4139 1116 71.1622 763.054 541.193
266 1 43.1831 11.2776 487 72.1766 763.039 561.08
267 0 45.0923 11.2214 506 73.0316 763.049 560.579
268 0 46.3536 11.7143 543 72.954 763.225 558.61
269 0 46.1625 12.4993 577 73.4489 763.033 557.832
270 0 48.2192 11.9869 578 73.9567 763.197 557.863
271 0 48.1916 12.0975 583 74.0137 763.058 558.762
272 0 51.2623 11.763 603 74.0348 763.511 556.398
273 0 52.193 11.5533 603 74.2803 763.7 555.94
274 0 54.3291 12.7556 693 73.0043 764.025 554.384
275 0 55.2502 12.4886 690 73.2116 763.713 553.074
276 0 58.1983 13.0588 760 72.1553 763.609 553.672
277 0 59.456 13.0853 778 72.4859 763.828 551.964
278 0 60.2808 12.9063 778 72.6722 764.325 551.296
279 0 60.1693 12.6643 762 74.2021 764.39 550.224
280 0 65.2948 13.5999 888 72.2477 763.944 548.727
281 0 65.1954 13.5439 883 72.3307 764 548.897
282 0 69.3845 13.2018 916 72.6561 764.571 546.237
283 0 71.3395 13.3867 955 71.9005 764.392 544.513
284 0 74.31 13.4437 999 71.975 764.952 543.798
285 0 76.2123 13.8035 1052 71.3726 764.552 542.385
286 0 77.4749 13.1914 1022 72.726 764.759 540.924
287 0 83.2157 13.7474 1144 71.0988 764.754 540.228
288 1 42.1654 10.3639 437 72.6453 764.709 558.778
289 0 43.0979 10.511 453 72.234 764.466 558.658
290 0 43.0824 11.3504 489 71.7382 764.198 557.434
291 0 45.0399 11.9672 539 71.308 765.291 556.234
292 0 48.0893 11.7698 566 71.2721 765.624 555.843
293 0 48.1555 12.4596 600 70.96 766.608 554.947
294 0 49.0983 13.4017 658 70.2295 766.711 552.482
295 0 52.2687 12.7801 668 70.5808 766.831 552.729
296 0 53.1689 12.2628 652 72.0583 766.819 550.554
297 0 54.1133 13.2685 718 70.9123 767.16 549.692
298 0 58.3808 12.881 752 70.3524 767.253 549.894
299 0 60.2686 12.6932 765 70.4889 767.301 548.152
300 0 61.2183 13.1497 805 70.5925 767.345 546.793
301 0 64.1482 13.3909 859 68.9756 767.732 546.154
302 0 66.4258 12.6908 843 70.4709 768.289 543.703
303 0 66.4244 12.4804 829 71.0917 768.204 544.534
304 0 69.359 13.048 905 70.032 768.046 543.209
305 0 71.4429 12.9474 925 70.2292 768.005 541.568
306 0 72.3402 13.16 952 70.146 767.813 540.023
307 0 76.373 13.5781 1037 69.4937 767.915 538.894
308 0 77.3019 13.195 1020 70.8745 768.161 535.939
309 0 83.4006 13.2373 1104 69.221 767.765 535.697
310 0 85.4391 13.7408 1174 68.615 767.854 533.758
311 0 87.3873 13.2056 1154 69.701 768.069 532.791
312 0 91.2813 13.3105 1215 69.3794 767.632 531.519
313 1 50.1844 10.2422 514 69.2724 767.724 551.965
314 0 51.2786 11.7203 601 68.7105 767.474 549.948
315 0 53.1656 11.3043 601 69.193 767.318 548.659
316 0 55.1984 12.4098 685 68.3255 767.051 547.447
317 0 56.1419 12.5753 706 67.3059 766.683 547.531
318 0 58.1005 12.3063 715 67.9664 766.186 546.755
319 0 59.1758 12.0995 716 68.3911 766.473 545.743
320 0 61.0754 12.3618 755 67.7298 766.854 545.27
321 0 64.1336 12.9106 828 66.0181 766.862 544.022
322 0 64.1915 12.1511 780 68.009 766.509 542.574
323 0 66.3772 11.6908 776 67.2629 766.134 543.892
324 0 71.2302 13.0984 933 65.6377 766.076 541.305
325 0 72.2864 12.492 903 66.0443 765.591 540.292
326 0 74.2874 12.2497 910 67.0209 765.892 538.489
327 0 77.3502 12.3723 957 66.4347 766.538 536.959
328 1 45.2435 10.4545 473 66.8668 766.125 553.628
329 0 45.2551 11.3136 512 66.0781 765.771 552.543
330 0 46.1597 11.3086 522 66.2797 765.952 552.255
331 0 48.2274 11.8605 572 65.986 765.89 550.89
332 0 49.2315 12.4108 611 65.1538 766.462 550.015
333 0 51.3391 11.5117 591 65.9019 766.206 550.313
334 0 51.3391 11.4533 588 150.577 766.202 550.257
335 0 55.1332 11.6082 640 66.3469 765.666 547.453
336 0 56.2574 12.1584 684 65.9094 764.972 547.741
337 0 57.2643 12.9051 739 65.2855 764.93 547.217
338 0 60.5948 12.7569 773 65.3674 764.75 547.872
339 0 61.1865 13.0421 798 65.3922 764.92 545.979
340 0 63.2994 12.6699 802 66.318 765.147 546.173
341 0 65.42 13.207 864 66.0127 764.797 544.227
342 0 66.3437 12.6161 837 66.7754 764.763 544.049
343 0 68.5241 12.2731 841 67.0927 764.577 542.627
344 0 74.4171 12.9137 961 65.7825 764.491 541.058
345 0 74.2527 12.7133 944 67.0614 764.325 539.249
346 1 37.0942 10.6486 395 65.9443 764.235 558.757
347 0 37.0627 11.2782 418 67.201 764.237 556.196
348 0 38.0424 11.566 440 65.8295 764.17 556.805
349 0 40.057 11.209 449 67.3007 763.606 555.8
350 0 42.1136 10.9703 462 65.3745 763.182 556.764
351 0 44.0909 12.4742 550 63.7455 762.958 556.889
352 0 44.1545 11.8448 523 65.805 763.076 555.38
353 0 45.0564 11.8074 532 65.8816 763.036 555.077
354 0 46.0953 12.3874 571 65.6182 762.954 553.977
355 0 49.1295 12.0091 590 66.0356 763.075 554.524
356 0 49.131 12.2937 604 66.8013 764.073 553.103
357 0 50.1386 12.0267 603 67.5522 763.731 552.685
358 0 51.1266 12.0681 617 67.8833 764.292 551.139
359 0 52.2001 12.7011 663 67.2368 763.922 551.831
360 0 54.0967 12.3298 667 67.6252 763.909 550.483
361 0 55.0732 12.1838 671 67.5768 763.89 550.584
362 0 58.2186 13.0199 758 66.0158 763.782 549.008
363 0 58.1155 12.3547 718 67.9025 764.467 547.877
364 0 59.2007 12.7701 756 67.3214 764.149 546.538
365 0 62.2907 12.8751 802 66.909 764.284 547.382
366 0 61.146 13.1325 803 67.7285 764.699 546.729
367 0 64.1638 13.4811 865 66.7954 765.084 545.062
368 0 65.3468 11.9516 781 68.6364 765.152 545.753
369 0 65.1357 10.5779 689 71.3774 765.569 539.094
370 0 70.339 14.0747 990 66.202 765.81 541.476
371 0 74.2931 12.9756 964 67.0705 765.614 541.052
372 0 75.1408 13.4814 1013 66.693 765.81 540.142
373 1 42.156 10.6984 451 67.6851 764.703 556.803
374 0 42.1485 11.4595 483 67.5197 764.754 556.366
375 0 45.181 11.9962 542 66.9446 765.002 554.284
376 0 46.0769 11.5459 532 67.8647 765.192 553.945
377 0 48.1393 13.1493 633 64.6967 765.265 551.076
378 0 49.0825 13.3652 656 64.6357 766.309 550.796
379 0 50.1108 12.6121 632 66.7563 765.82 551.34
380 0 53.2895 13.3047 709 65.5416 766.647 550.099
381 0 54.1505 12.6684 686 67.3688 766.701 549.248
382 0 56.3261 12.7827 720 67.2597 766.544 549.775
383 0 58.1533 13.6708 795 66.0654 766.564 548.108
384 0 61.154 13.0981 801 66.2385 766.703 547.663
385 0 62.1844 12.5112 778 67.7828 766.242 545.969
386 0 62.0959 13.7368 853 66.7245 766.841 544.919
387 0 64.1486 13.9987 898 65.902 767.168 544.39
388 0 68.1768 13.069 891 66.2682 767.183 543.646
389 0 69.1422 13.4216 928 66.6552 767.2 542.622
390 0 71.1948 13.5544 965 67.1358 767.77 539.896
391 0 73.2212 13.9304 1020 66.3961 767.851 539.918
392 0 76.0983 13.9294 1060 66.4009 767.589 538.194
393 0 76.0981 14.2053 1081 67.5837 767.66 537.298
394 0 78.172 13.6622 1068 68.0824 768.131 535.419
395 0 82.1506 14.1082 1159 66.7619 768.325 533.336
396 0 85.1532 14.2332 1212 66.2822 768.299 532.7
397 0 89.1969 13.6664 1219 67.0115 768.232 530.456
398 0 90.11 13.8497 1248 67.8397 768.327 529.878
399 1 50.0586 10.5277 527 68.7989 767.603 550.391
400 0 52.0367 11.0883 577 68.149 767.865 547.69
401 0 54.0869 11.2597 609 67.5156 767.805 548.243
402 0 55.0868 11.9085 656 68.3125 768.043 547.293
403 0 56.0999 13.066 733 66.8854 768.218 546.318
404 0 59.1434 12.9854 768 66.4948 768.307 545.348
405 0 61.0882 12.8994 788 67.047 768.209 545.391
406 0 62.1564 12.6294 785 67.4025 767.866 543.777
407 0 65.0851 13.0905 852 66.3498 768.135 543.238
408 0 66.0869 13.1191 867 66.7947 767.727 542.28
409 0 70.1747 12.8536 902 66.1286 767.471 541.215
410 0 70.1202 13.1631 923 66.7421 767.466 539.296
411 0 72.1606 13.3175 961 66.3392 768.129 539.728
412 0 75.1353 13.2428 995 66.3236 768.361 537.236
413 0 80.1405 13.8257 1108 64.5406 768.073 536.818
414 0 80.1385 13.0898 1049 66.5529 768.52 534.785
415 0 83.2201 13.0137 1083 66.7987 767.869 533.807
416 0 89.1734 13.4794 1202 65.8045 767.745 531.622
417 1 44.144 10.6017 468 67.1581 767.284 553.203
418 0 47.1927 12.1205 572 64.715 767.519 551.131
419 0 49.2039 12.3364 607 64.8764 767.234 551.155
420 0 51.2142 12.4575 638 63.2712 767.11 550.654
421 0 51.2452 12.3914 635 64.1228 766.761 549.539
422 0 53.2447 13.0717 696 63.3707 767.016 548.826
423 0 53.2964 12.9277 689 63.463 767.499 549.623
424 0 55.173 13.2311 730 63.074 766.816 548.108
425 0 57.1423 12.8276 733 63.5225 766.599 547.386
426 0 60.2061 12.4904 752 63.4694 767.133 545.668
427 0 60.2132 13.3193 802 62.7968 766.994 546.146
428 0 62.2879 12.6991 791 62.9343 766.737 544.432
429 0 65.2671 13.3452 871 61.9598 766.254 542.892
430 0 65.2671 13.4065 875 166.467 765.25 542.941
431 0 69.3678 13.0608 906 62.5629 766.156 541.801
432 0 71.2301 13.9407 993 61.1047 765.756 539.496
433 0 74.2343 13.5382 1005 61.3104 765.672 539.209
434 0 75.2531 13.1556 990 61.6909 765.446 537.804
435 0 78.2098 13.6939 1071 60.761 765.094 537.592
436 0 80.2295 13.8852 1114 60.6661 764.941 536.581
437 0 82.2676 14.2097 1169 60.1172 765.546 535.312
438 0 88.1895 13.471 1188 60.112 765.757 533.815
439 1 45.1842 9.76004 441 62.0091 764.322 555.188
440 0 47.1948 11.4207 539 59.7866 764.659 554.458
441 0 49.2391 11.8808 585 59.8051 764.241 554.444
442 0 51.1956 12.3643 633 59.5103 764.648 552.231
443 0 52.2309 13.1723 688 57.9898 764.701 552.403
444 0 54.1831 12.7346 690 58.2797 764.877 550.713
445 0 54.1759 12.6809 687 59.0553 765.21 549.56
446 0 57.1972 12.7279 728 58.522 765.092 548.955
447 0 57.2071 12.6383 723 58.74 764.714 548.386
448 0 61.1244 13.1044 801 57.4906 764.471 547.488
449 0 63.2486 13.5813 859 57.0501 764.62 546.694
450 0 64.1211 12.5232 803 58.1893 764.476 547.08
451 0 65.1456 13.2933 866 57.7263 764.625 543.863
452 0 70.2913 13.316 936 56.828 764.446 544.135
453 0 72.2824 13.1706 952 57.1113 764.225 544.228
454 0 72.3277 13.0241 942 58.3291 764.031 541.311
455 0 77.5712 13.2395 1027 57.4654 763.989 540.231
456 0 76.3952 12.7888 977 59.3521 764.011 540.189
457 1 40.2533 9.96192 401 59.2818 763.84 558.197
458 0 44.1879 10.9985 486 57.7922 763.584 557.615
459 0 47.2747 11.2745 533 57.3152 764.675 557.139
460 0 46.1856 12.7096 587 56.8518 764.368 556.145
461 0 48.368 12.4256 601 57.4176 764.391 554.619
462 0 49.1821 12.3216 606 57.9818 764.366 555.078
463 0 50.2882 12.8659 647 58.2535 764.352 553.298
464 0 50.2818 12.072 607 59.7529 764.644 552.493
465 0 52.1312 12.1424 633 59.9163 764.629 551.889
466 0 54.113 11.7717 637 60.281 764.678 550.994
467 0 56.2027 12.8819 724 59.221 764.236 550.526
468 0 57.1658 13.1722 753 58.7264 763.806 551.408
469 0 58.129 12.6271 734 60.1771 763.782 550.084
470 0 59.0669 13.2223 781 59.7606 763.615 550.229
471 0 62.1367 12.5047 777 60.758 763.816 549.385
472 0 65.131 14.1714 923 59.0282 763.919 547.631
473 0 64.0911 12.9347 829 61.7768 764.608 546.09
474 0 68.1309 12.9603 883 61.3228 764.821 546.176
475 0 70.0691 13.2155 926 61.7073 764.476 545.876
476 0 70.1845 12.3674 868 63.477 764.433 545.25
477 0 72.0991 13.1624 949 63.078 764.504 543.979
478 0 76.1757 13.9021 1059 61.728 764.559 542.292
479 0 79.2224 13.7335 1088 62.2574 764.658 540.745
480 0 81.2352 13.8979 1129 62.8556 764.577 538.792
481 0 81.2352 13.8487 1125 167.917 764.574 538.837
482 0 87.1519 13.5969 1185 63.1435 765.037 537.569
483 1 44.11 11.9927 529 62.1796 764.28 557.522
484 0 48.1186 11.3885 548 62.2263 764.577 556.825
485 0 47.069 10.559 497 63.7042 764.503 556.871
486 0 51.0605 12.2012 623 61.8042 765.03 555.069
487 0 51.2673 12.7957 656 61.5777 765.643 554.89
488 0 51.2134 12.4186 636 62.5519 765.237 554.653
489 0 54.1297 12.9134 699 61.7225 765.236 553.584
490 0 53.1739 11.8667 631 63.8637 765.263 552.395
491 0 58.1124 13.2158 768 61.349 764.957 550.643
492 0 59.1501 13.0685 773 61.0802 765.314 551.389
493 0 60.2248 12.2873 740 62.3959 765.159 549.753
494 0 63.2871 13.3203 843 60.8066 765.387 547.682
495 0 64.2781 13.3016 855 61.0994 765.547 545.374
496 0 68.1145 12.5817 857 61.133 765.281 544.742
497 0 73.3669 13.5211 992 59.2802 765.465 544.205
498 0 73.1045 12.8173 937 60.6051 765.769 542.714
499 0 76.2433 12.9979 991 60.4793 765.867 542.329
500 0 77.1833 12.6193 974 61.4209 765.584 540.972
501 0 81.217 13.9872 1136 59.4199 765.753 538.265
502 0 84.192 12.911 1087 60.6164 765.611 538.043
503 0 87.3058 12.9086 1127 60.74 765.568 535.001
504 0 88.2844 12.8562 1135 61.3656 765.615 534.412
505 0 92.2034 12.7761 1178 61.7632 765.212 532.627
506 1 48.1162 10.2668 494 60.8219 764.178 554.567
507 0 50.0395 11.2511 563 60.444 764.083 553.68
508 0 50.1213 11.4323 573 61.6789 764.276 552.07
509 0 52.2382 10.969 573 62.2949 764.836 551.49
510 0 55.2009 12.2099 674 60.727 764.398 550.898
511 0 58.2385 11.7448 684 61.4795 764.415 549.751
512 0 59.1226 12.787 756 60.2804 764.392 548.062
513 0 59.2802 12.0108 712 61.5772 764.218 549.101
514 0 63.2858 12.6411 800 60.7362 764.558 547.951
515 0 64.166 12.0936 776 62.3879 764.593 547.398
516 0 64.166 12.1092 777 167.086 763.568 547.369
517 0 69.2325 12.8986 893 60.2844 764.729 545.489
518 0 70.1469 12.93 907 61.3341 764.734 542.516
519 0 72.1701 12.2904 887 62.5851 764.206 542.41
520 0 75.304 13.2662 999 61.7297 764.757 539.806
521 0 78.1243 12.8385 1003 62.5434 764.624 539.274
522 0 79.1414 12.5851 996 63.0181 764.656 538.296
523 0 85.3628 12.6519 1080 62.062 764.933 538.921
524 0 87.1478 12.8862 1123 62.5263 765.321 536.551
525 1 46.2442 10.5743 489 62.9284 765.838 556.515
526 0 47.2073 11.3118 534 63.0787 766.011 556.017
527 0 49.2386 11.8809 585 62.7538 766.156 554.128
528 0 50.2263 12.4835 627 62.9314 766.635 551.721
529 0 53.4089 12.189 651 63.7005 766.123 550.945
530 0 53.2616 12.9549 690 62.7768 765.884 550.878
531 0 55.3012 12.8207 709 63.3357 765.788 550.343
532 0 56.2525 12.8172 721 63.9251 766.069 548.583
533 0 60.1991 12.3922 746 63.7534 766.074 547.521
534 0 60.1918 12.9586 780 63.6462 766.426 545.414
535 0 63.2827 12.8155 811 63.3662 765.794 546.233
536 0 64.2436 12.8418 825 63.4473 766.832 544.354
537 0 67.1977 12.9022 867 62.7497 766.476 543.582
538 0 68.1222 12.8152 873 63.4742 766.337 542.139
539 0 70.2394 13.0981 920 63.012 766.098 541.504
540 0 74.1877 12.9267 959 63.0949 765.478 539.98
541 0 77.1305 13.3151 1027 62.3359 765.922 537.403
542 0 77.1031 12.6584 976 62.8699 764.947 538.374
543 0 81.0692 13.1739 1068 62.441 765.29 535.494
544 0 82.1461 13.3299 1095 62.6831 764.568 535.494
545 0 88.2038 13.4575 1187 62.0977 764.594 534.393
546 1 43.0462 10.0822 434 64.2419 764.606 555.956
547 0 44.0113 10.1338 446 64.7713 764.034 554.004
548 0 48.0612 11.0276 530 61.9887 764.219 553.947
549 0 50.224 11.9266 599 62.0551 764.922 552.948
550 0 50.1296 12.0288 603 62.3085 763.968 552.287
551 0 51.3267 12.5276 643 62.0949 764.159 552.058
552 0 50.2521 11.9796 602 63.5681 764.06 550.527
553 0 55.2416 12.7983 707 61.2277 764.274 551.034
554 0 57.3052 12.3025 705 61.9887 763.942 551.051
555 0 59.1577 13.1175 776 61.9201 764.813 548.117
556 0 58.2154 13.0034 757 62.8587 764.671 547.684
557 0 61.1367 12.8728 787 62.9009 764.821 548.182
558 0 64.2239 13.2505 851 62.0964 764.333 545.643
559 0 66.2255 13.3181 882 61.7971 764.312 544.209
560 0 68.1387 12.724 867 61.6724 764.788 544.203
561 0 69.1652 12.9256 894 61.717 764.488 542.121
562 0 73.2082 13.1543 963 60.7321 764.245 541.275
563 0 75.1543 12.9733 975 61.4308 764.335 539.314
564 0 78.1769 13.3543 1044 60.5556 764.419 539.599
565 0 78.2272 12.8088 1002 62.0818 764.275 538.111
566 0 81.1509 12.6185 1024 62.2471 764.691 537.091
567 0 83.3504 12.8374 1070 62.7121 764.978 533.775
568 0 87.2588 12.2853 1072 63.1987 764.776 533.289
569 0 89.1686 12.8745 1148 62.6202 764.707 531.342
570 1 45.1536 9.8774 446 63.6883 763.415 554.83
571 0 48.112 10.2885 495 63.9212 763.398 553.23
572 0 50.2944 10.697 538 62.4219 763.535 553.377
573 0 49.2675 10.7982 532 63.891 764.032 551.756
574 0 54.2152 11.7495 637 62.1476 763.6 550.573
575 0 55.2743 12.6822 701 61.6762 762.893 549.763
576 0 57.3474 12.3981 711 62.8453 762.805 548.712
577 0 61.2586 12.2595 751 62.1065 762.51 547.782
578 0 61.2468 13.0619 800 61.1925 762.454 547.93
579 0 63.2332 12.2562 775 62.4968 762.231 545.77
580 0 64.1674 12.483 801 62.5993 762.829 544.823
581 0 67.253 13.0106 875 60.816 762.226 544.707
582 0 69.2075 13.0477 903 61.6179 762.54 542.24
583 0 71.2117 12.6384 900 61.6789 763.118 541.988
584 0 73.359 12.2957 902 62.3271 762.802 540.697
585 0 76.3085 12.646 965 61.4528 762.857 539.569
586 0 76.1711 12.7476 971 62.1607 762.606 538.768
587 0 79.2165 12.2323 969 62.807 762.712 537.773
588 0 83.4164 12.9471 1080 61.7324 762.281 535.562
589 0 86.457 13.3592 1155 61.2182 762.526 534.254
590 0 88.6481 13.8525 1228 60.5757 762.014 531.694
591 1 45.2897 10.5322 477 61.3941 761.824 553.342
592 0 45.3766 10.2035 463 61.5162 761.104 553.538
593 0 48.3468 10.0937 488 62.1619 761.783 552.898
594 0 47.3638 10.1343 480 62.0958 761.946 551.756
595 0 50.1436 12.1252 608 58.7467 762.503 550.314
596 0 52.044 10.8754 566 59.0636 762.91 549.415
597 0 54.1265 12.2121 661 59.5915 761.847 549.735
598 0 56.217 11.6691 656 58.8277 761.841 550.489
599 0 58.1873 11.9786 697 58.076 761.492 548.816
600 0 59.2594 12.6562 750 57.7453 760.937 547.976
601 0 61.2181 12.1533 744 57.8642 761.032 549.802
602 0 62.3862 12.1982 761 58.2549 760.895 547.599
603 0 63.1515 12.7155 803 57.1382 760.925 547.793
604 0 67.2013 12.9759 872 56.8383 760.808 546.594
605 0 68.1932 12.7872 872 56.8005 761.083 548.93
606 0 69.2721 12.8623 891 56.9843 761.173 546.168
607 0 72.1617 13.2619 957 56.3584 761.339 543.028
608 0 75.2241 12.2567 922 57.6377 761.441 543.723
609 0 79.1849 13.2475 1049 58.082 761.448 541.189
610 0 80.1745 12.7098 1019 58.7615 761.84 540.78
611 1 44.1063 9.38642 414 59.0435 761.345 560.143
612 0 43.0947 9.56035 412 61.2549 761.546 557.65
613 0 46.1213 10.9494 505 59.7762 761.701 556.588
614 0 46.2639 10.1159 468 61.2073 761.72 556.487
615 0 51.0999 10.4306 533 58.9231 761.649 555.771
616 0 52.1921 12.8372 670 56.8179 761.267 554.742
617 0 53.2296 11.6852 622 60.4228 762.278 554.873
618 0 53.3657 12.3487 659 60.3217 762.596 552.995
619 0 55.4657 11.6468 646 59.9861 762.259 554.088
620 0 55.2533 12.3069 680 60.0029 762.228 550.854
621 0 56.2518 12.284 691 60.4009 762.603 550.616
622 0 58.2792 12.1656 709 61.0592 762.413 549.793
623 0 60.3298 11.9841 723 61.1286 762.682 549.209
624 0 61.3676 12.4821 766 61.1253 762.236 549.389
625 0 65.2599 12.9635 846 60.6773 762.693 547.956
626 0 66.456 12.4293 826 61.7736 762.976 546.646
627 0 67.4045 12.1505 819 61.8156 763.277 547.562
628 0 70.2338 12.4441 874 62.1579 763.522 544.542
629 0 72.2252 13.4718 973 61.0802 763.472 543.319
630 0 75.2052 12.7917 962 61.0593 762.942 543.962
631 0 78.2864 13.4889 1056 59.8049 763.163 542.797
632 0 81.3307 14.2259 1157 59.0337 763.195 540.407
633 0 81.2775 12.7711 1038 61.6541 763.598 538.734
634 0 84.2187 12.8119 1079 61.0232 763.649 539.276
635 0 87.225 13.448 1173 60.5789 764.165 535.137
636 0 90.301 12.702 1147 60.8544 763.514 534.823
637 0 95.3534 14.1998 1354 58.5266 763.604 531.85
638 0 97.3336 13.7465 1338 59.1861 763.449 530.697
639 1 53.3841 11.9886 640 57.3031 763.47 554.311
640 0 52.381 11.9509 626 58.5192 763.757 551.417
641 0 55.2654 12.449 688 56.9753 764.788 551.257
642 0 56.3068 11.2597 634 59.3517 764.77 551.595
643 0 56.2979 11.6345 655 58.6595 764.186 550.843
644 0 60.4336 12.1456 734 56.7507 764.23 549.819
645 0 60.2264 12.204 735 57.8231 764.359 548.427
646 0 63.5061 11.8571 753 57.4462 764.361 547.086
647 0 62.2725 11.8351 737 58.0814 764.65 546.168
648 0 67.3806 12.5259 844 56.3791 764.835 544.552
649 0 67.4856 12.5805 849 57.4452 765.049 542.894
650 0 71.3492 13.4129 957 55.7482 764.526 541.717
651 0 71.3748 11.909 850 57.7835 764.575 540.798
652 0 73.3755 12.6745 930 57.2269 764.765 539.759
653 0 73.2833 11.9673 877 57.9624 765.074 539.168
654 0 78.5446 12.3879 973 57.2826 764.88 538.713
655 0 80.3712 12.1312 975 57.7067 765.318 535.052
656 0 82.5093 12.8713 1062 56.6817 765.108 535.495
657 0 83.3666 11.9712 998 58.1102 765.178 533.831
658 0 87.3153 12.1285 1059 58.0453 765.318 531.933
659 0 89.5747 12.057 1080 58.3843 765.281 531.115
660 1 50.3506 10.7049 539 57.2449 764.451 550.141
661 0 51.4704 10.472 539 58.0427 764.586 548.688
662 0 54.4474 11.1851 609 57.0394 765.051 547.507
663 0 54.2279 11.0091 597 58.3149 766.013 547.121
664 0 56.2705 11.498 647 57.9784 766.311 547.145
665 0 59.1252 11.4672 678 58.5575 765.134 546.243
666 0 60.0864 11.833 711 59.0928 765.122 545.371
667 0 62.1072 12.3657 768 58.7448 765.867 542.783
668 0 64.0742 12.3919 794 58.9534 765.544 541.737
669 0 66.1206 12.326 815 59.3951 766.082 539.944
670 0 68.1577 12.119 826 59.8354 765.948 540.914
671 0 71.2383 11.9739 853 59.8382 766.63 537.991
672 0 74.1656 11.9328 885 59.3672 766.02 536.783
673 0 76.4673 12.1882 932 59.7639 766.093 535.565
674 0 80.3088 12.8255 1030 59.0252 766.651 533.855
675 1 44.1435 10.3753 458 61.0895 766.891 550.747
676 0 46.2829 11.4513 530 59.3679 766.998 550.972
677 0 48.1642 11.1078 535 59.4766 767.361 550.736
678 0 48.4265 11.1509 540 59.8648 767.307 550.298
679 0 48.5113 11.9354 579 59.6684 767.786 549.409
680 0 51.2807 11.6808 599 58.9967 768.397 548.461
681 0 53.3212 11.2526 600 59.1867 768.022 547.548
682 0 56.2386 12.3403 694 57.5187 767.369 546.738
683 0 55.1946 11.6859 645 58.9721 768.174 546.22
684 0 58.3941 12.8266 749 57.7356 767.979 544.553
685 0 59.2842 12.6341 749 58.1322 768.332 543.98
686 0 59.2842 12.5834 746 148.043 768.345 543.918
687 0 63.2851 12.578 796 58.4183 768.222 542.013
688 0 64.3713 12.4279 800 58.785 767.617 542.439
689 0 67.2335 12.3004 827 58.9444 767.527 541.807
690 0 67.3423 12.6221 850 59.1094 767.744 540.22
691 0 71.5426 12.0627 863 59.606 767.491 538.261
692 0 72.3246 12.4577 901 59.0921 767.084 537.83
693 0 73.2983 12.6879 930 59.5011 767.606 538.172
694 0 76.2681 12.915 985 59.003 767.417 536.136
695 0 78.6331 13.137 1033 59.03 767.252 534.811
696 0 82.644 13.1528 1087 59.0902 767.536 534.152
697 0 84.5104 12.957 1095 59.5708 767.278 532.979
698 0 86.588 12.5768 1089 60.4628 767.143 531.11
699 0 91.6158 13.4693 1234 58.8663 767.128 529.62
700 0 92.6563 13.631 1263 59.3967 766.894 527.653
701 0 96.511 13.1488 1269 59.6375 766.325 526.526
702 0 98.3993 13.6891 1347 59.4269 766.155 523.679
703 0 101.486 14.3173 1453 59.1046 765.793 521.35
704 0 106.539 15.0743 1606 58.1214 765.971 520.747
705 0 109.435 14.5018 1587 59.2224 765.857 518.828
706 0 112.388 14.2275 1599 59.783 765.936 519.408
707 0 115.704 13.8803 1606 60.6781 765.87 515.953
708 1 61.3108 10.6343 652 61.5261 765.494 545.028
709 0 65.3455 12.0437 787 59.7776 765.305 542.781
710 0 67.289 12.8104 862 59.4872 764.875 539.739
711 0 68.3165 13.1593 899 58.9822 765.195 539.694
712 0 72.1876 12.5368 905 60.4597 765.633 539.577
713 0 73.2599 13.0494 956 60.0921 765.528 536.896
714 0 76.3124 12.8944 984 60.1494 766.078 536.867
715 0 78.3406 12.8924 1010 60.3129 765.638 535.785
716 0 79.3543 12.5513 996 61.1325 765.688 536.656
717 0 81.4175 13.5352 1102 59.8421 765.656 534.665
718 0 85.4147 13.1242 1121 60.306 765.318 533.13
719 0 86.398 13.2526 1145 60.745 765.321 531.958
720 0 90.3534 13.5468 1224 59.7451 765.262 529.919
721 0 92.2748 13.8391 1277 60.0008 764.495 527.839
722 0 97.3523 14.0418 1367 59.0483 764.785 526.787
723 0 97.2335 13.8738 1349 59.6553 764.404 524.804
724 0 100.258 13.9839 1402 59.3923 764.772 523.495
725 0 102.194 13.2689 1356 61.3282 763.904 521.782
726 0 106.216 13.482 1432 60.8855 763.943 519.831
727 0 110.301 14.388 1587 59.017 764.347 520.418
728 0 112.2 13.7434 1542 60.5713 764.47 517.66
729 1 58.1048 11.9095 692 59.8728 764.509 545.564
730 0 60.0338 12.443 747 58.4806 763.878 544.423
731 0 60.1249 12.5572 755 58.1987 763.258 544.298
732 0 65.0942 12.7354 829 56.9047 763.165 542.48
733 0 65.1347 12.8963 840 57.5798 763.624 541.45
734 0 69.0974 13.4882 932 56.7479 763.54 539.788
735 0 71.1447 13.8169 983 56.6765 763.257 539.932
736 0 73.2511 13.051 956 57.0397 763.117 539.6
737 0 75.2114 13.1496 989 57.5076 762.997 536.288
738 0 79.3568 13.3322 1058 56.6219 762.797 536.338
739 0 81.1491 13.1117 1064 56.7801 762.887 535.82
740 0 82.1508 13.0005 1068 57.7219 762.848 532.841
741 1 46.0856 10.9796 506 57.4209 762.136 553.67
742 0 45.1221 11.3248 511 57.3405 762.479 552.681
743 0 46.1284 11.3379 523 57.5717 762.598 550.92
744 0 47.0895 10.9154 514 58.1362 762.57 552.455
745 0 49.0411 10.8481 532 58.7256 762.724 551.009
746 0 53.0741 13.208 701 55.1641 763.528 550.107
747 0 53.0552 12.6284 670 56.5478 763.082 547.778
748 0 53.0976 13.3339 708 55.9011 762.88 549.047
749 0 56.1567 12.572 706 56.8654 762.88 547.814
750 0 57.1503 13.0358 745 57.1383 762.816 547.085
751 0 60.2232 13.3171 802 55.8865 762.676 546.708
752 0 60.1221 13.589 817 56.5618 762.269 546.625
753 0 62.1954 13.2486 824 57.2027 762.672 546.371
754 0 64.1077 13.3057 853 57.728 762.165 543.1
755 0 66.4254 13.5189 898 57.5367 762.376 542.79
756 0 68.5178 12.9455 887 58.7215 761.823 541.313
757 0 69.4516 13.5634 942 58.4246 762.263 540.569
758 0 73.2471 13.3794 980 58.7122 762.192 540.24
759 0 76.3556 13.6074 1039 58.0895 762.351 538.606
760 0 76.3548 12.9658 990 59.699 762.121 537.24
761 0 81.2914 14.2081 1155 57.9957 762.142 535.974
762 0 82.3276 13.3613 1100 59.31 762.02 535.444
763 1 42.0774 10.6233 447 60.6555 762.049 556.282
764 0 44.0455 10.7616 474 60.5907 761.945 555.57
765 0 46.2386 11.8083 546 59.1813 761.921 554.095
766 0 46.151 12.6108 582 59.4313 762.624 551.625
767 0 48.1631 12.5615 605 59.2347 762.182 552.375
768 0 48.0926 12.0601 580 59.9983 761.812 553.314
769 0 50.1264 12.6879 636 58.9811 762.226 552.491
770 0 52.1342 13.5995 709 58.0917 762.085 550.468
771 0 54.4728 12.8872 702 58.8675 762.098 549.437
772 0 57.3198 13.1543 754 58.2281 761.987 549.007
773 0 57.4108 12.8896 740 59.2716 761.211 549.024
774 0 60.3754 13.7639 831 58.0878 761.864 545.824
775 0 62.2176 13.501 840 58.6095 761.887 546.277
776 0 64.1814 13.197 847 59.1747 761.753 545.68
777 0 67.3992 12.745 859 59.7497 762.063 543.267
778 0 69.4194 13.5265 939 58.8264 761.419 541.667
779 0 70.2267 13.4422 944 59.0996 761.726 541.673
780 0 75.4653 13.7679 1039 58.1569 761.962 542.176
781 0 76.3947 13.9669 1067 58.7376 761.44 540.633
782 0 80.547 14.3891 1159 58.4003 762.009 538.532
783 0 80.4956 14.2119 1144 59.0507 762.433 536.706
784 0 81.2937 12.9899 1056 62.2055 762.669 535.258
785 0 85.2303 13.927 1187 60.711 762.717 535.949
786 0 89.5241 14.5101 1299 60.2025 762.76 533.692
787 0 91.4008 13.9386 1274 61.6028 763.206 531.29
788 1 44.159 11.9341 527 63.5085 763.249 553.383
789 0 47.1344 12.475 588 63.0153 763.145 551.825
790 0 50.0725 13.6402 683 61.511 763.574 552.833
791 0 49.2938 13.0645 644 63.4301 763.337 550.256
792 0 51.116 13.4791 689 63.0464 763.226 550.399
793 0 53.1416 14.3955 765 61.8248 762.692 549.881
794 0 53.2256 14.4104 767 61.9348 763.428 549.306
795 0 56.0971 14.1005 791 62.3666 763.048 548.288
796 0 56.1294 13.7896 774 63.5116 763.044 546.757
797 0 60.1277 14.2696 858 62.1352 763.287 546.556
798 0 60.131 14.3354 862 62.5998 763.582 545.342
799 0 62.1544 13.7561 855 63.6 763.711 544.324
800 0 67.1637 14.7252 989 61.2872 764.204 543.051
801 0 67.1411 14.4174 968 62.4762 764.325 541.423
802 0 69.2072 13.698 948 62.4177 765.076 542.025
803 0 73.1593 14.1062 1032 62.3178 764.912 538.673
804 0 77.1218 14.0427 1083 61.5799 764.577 537.276
805 0 77.1919 14.3538 1108 61.7121 764.782 537.494
806 1 41.0837 11.5131 473 62.7484 764.928 555.59
807 0 42.0207 13.065 549 60.867 764.894 554.878
808 0 43.0713 12.9785 559 60.9267 764.995 552.894
809 0 45.0648 13.0257 587 59.9574 764.61 553.126
810 0 45.0527 12.4299 560 61.2786 765.384 551.848
811 0 46.1207 13.3563 616 60.1218 765.396 551.404
812 0 46.0634 13.6985 631 60.3027 765.223 550.688
813 0 50.0885 13.536 678 59.4617 765.637 549.338
814 0 52.0306 13.4536 700 59.5386 765.987 548.661
815 0 55.1833 14.1891 783 57.682 767.28 546.768
816 0 54.3859 13.5329 736 58.7473 766.817 547.155
817 0 58.1867 14.0238 816 58.1078 766.792 545.485
818 0 59.1907 13.8197 818 58.6944 766.758 545.257
819 0 60.1855 13.3088 801 59.6467 766.568 543.735
820 0 65.1623 13.9805 911 58.3589 766.811 543.823
821 0 66.3981 14.654 973 58.0915 766.04 540.19
822 0 68.3043 13.2056 902 59.4412 766.568 542.103
823 0 70.2264 14.1969 997 59.2718 765.338 538.282
824 0 74.2145 13.9461 1035 58.8754 766.092 539.378
825 1 35.1359 11.982 421 60.9359 765.772 555.157
826 0 40.1552 12.1279 487 59.6078 765.879 554.986
827 0 39.0256 12.7608 498 60.2028 765.572 552.94
828 0 42.0632 13.0993 551 59.2995 766.577 552.808
829 0 42.1621 13.9462 588 59.5867 766.859 551.352
830 0 41.0994 12.8956 530 61.8566 766.858 553.079
831 0 45.051 13.7178 618 60.5388 766.398 551.152
832 0 47.2241 13.9124 657 60.2618 767.023 551.318
833 0 47.0492 13.7303 646 61.4876 766.658 551.012
834 0 48.1035 13.7828 663 62.0935 766.285 549.626
835 0 49.0574 13.6778 671 62.9866 766.286 549.923
836 0 51.0611 13.8853 709 62.4076 765.977 547.26
837 0 53.0439 13.5548 719 63.0501 765.658 547.253
838 0 56.0886 14.5306 815 61.5497 765.876 547.72
839 0 56.1314 14.2523 800 63.2 765.154 547.395
840 0 59.0669 14.0688 831 63.6859 765.253 544.712
841 0 61.0902 14.6668 896 63.0592 765.263 543.499
842 0 61.0329 14.5331 887 64.2943 764.603 543.273
843 0 65.0568 14.618 951 64.1588 765.318 542.345
844 0 68.1088 14.5209 989 64.4631 765.583 541.787
845 0 68.0944 14.5386 990 65.6343 765.197 539.685
846 0 73.0984 14.7336 1077 65.1699 765.187 537.521
847 0 77.0694 14.5583 1122 65.4626 764.75 535.885
848 1 38.0376 11.1994 426 68.5563 764.477 556.185
849 0 40.1048 11.8938 477 68.0545 764.365 554.027
850 0 42.0514 12.5561 528 67.0436 764.271 554.222
851 0 42.0538 13.1261 552 67.4529 764.355 553.801
852 0 44.0313 12.4911 550 68.3145 764.164 552.453
853 0 46.0751 12.6967 585 67.9128 763.785 552.557
854 0 47.1837 13.1189 619 67.7593 764.2 550.952
855 0 49.0916 13.6887 672 67.0952 764.554 550.004
856 0 50.0171 13.8753 694 67.0086 764.548 549.744
857 0 53.0408 14.1023 748 66.1043 764.754 548.917
858 0 55.2038 13.6766 755 67.1113 765.062 548.442
859 0 58.1999 13.9519 812 66.2463 764.404 546.901
860 0 58.0612 12.9519 752 68.5678 763.854 545.453
861 0 60.0685 14.034 843 67.1862 763.816 546.944
862 0 63.2082 13.5109 854 68.1604 763.381 544.694
863 0 63.1609 13.2835 839 69.7282 763.803 543.164
864 0 67.0489 13.7512 922 68.6486 763.693 541.266
865 0 70.1649 13.4255 942 69.3769 763.561 540.435
866 0 72.291 13.75 994 69.6066 763.377 538.899
867 1 39.2185 10.9132 428 71.5444 763.794 556.264
868 0 40.2635 11.1515 449 70.2806 763.029 556.851
869 0 40.366 11.3214 457 71.2998 763.311 555.212
870 0 41.2896 12.158 502 71.6793 762.723 553.149
871 0 44.3868 12.684 563 70.5275 762.545 551.256
872 0 45.084 12.3991 559 71.3113 762.546 554.258
873 0 46.0856 12.4985 576 72.9045 762.767 552.535
874 0 46.1328 12.6157 582 72.6564 763.134 552.954
875 0 48.2173 12.7133 613 72.6297 762.982 551.17
876 0 49.1398 12.5357 616 73.6461 762.43 552.141
877 0 50.0821 13.0586 654 73.4572 762.41 549.847
878 0 52.1487 12.867 671 73.4426 762.921 550.991
879 0 54.1482 12.4288 673 74.9108 763.101 549.192
880 0 56.1668 13.2285 743 73.9031 762.774 547.024
881 0 57.3633 13.6498 783 73.069 762.229 547.005
882 0 59.272 13.2778 787 74.2262 762.241 545.253
883 0 60.4256 13.8352 836 73.8409 762.632 544.093
884 0 63.4473 13.1448 834 75.0887 762.534 543.258
885 0 65.3993 13.9145 910 74.0824 762.634 540.847
886 0 68.5635 13.7683 944 73.9322 762.91 540.113
887 0 70.4606 13.4259 946 74.5613 763.552 539.307
888 0 73.417 13.0215 956 75.0607 763.585 539.21
889 0 75.2851 14.0267 1056 73.6231 763.625 536.694
890 0 76.3382 13.0996 1000 75.539 763.898 536.316
891 0 79.432 13.8609 1101 73.9646 763.6 534.872
892 0 81.3222 13.7109 1115 74.6744 763.86 533.045
893 0 85.6246 13.4658 1153 78.6982 763.995 532.01
894 0 88.2756 14.3528 1267 78.5762 764.053 530.489
895 0 89.4157 13.9014 1243 73.9992 764.394 530.477
896 0 93.5667 14.642 1370 72.5847 764.452 525.753
897 0 95.5192 14.3845 1374 72.7132 764.955 525.664
898 0 99.4031 14.5669 1448 72.4309 764.373 523.849
899 0 102.552 14.5195 1489 72.6085 764.825 521.698
900 0 102.402 13.9744 1431 73.5737 765.338 520.491
901 0 107.446 14.5003 1558 72.8196 765.128 518.509
902 0 111.21 14.0455 1562 73.9776 765.495 516.981
903 0 115.52 14.1966 1640 73.2201 765.581 514.561
904 0 121.622 14.4053 1752 72.8527 765.727 512.799
905 0 123.568 14.6073 1805 73.1224 765.511 508.976
906 0 127.506 14.0699 1794 74.6722 765.766 507.534
907 0 132.887 14.0871 1872 74.1287 765.551 506.038
908 0 138.753 14.0897 1955 73.7754 765.797 504.297
909 0 141.579 14.3736 2035 73.4231 765.571 501.711
910 0 145.71 13.8151 2013 75.0874 765.826 498.698
911 1 80.4883 12.126 976 75.7736 765.643 531.79
912 0 83.5005 12.0838 1009 75.8751 766.012 529.291
913 0 89.5389 13.1675 1179 74.3613 766.801 528.104
914 0 89.4773 13.3889 1198 73.3464 766.798 525.573
915 0 93.349 13.7334 1282 70.3853 767.264 528.375
916 0 96.521 12.8884 1244 72.8248 766.807 525.796
917 0 98.5385 12.655 1247 73.5509 767.285 522.507
918 0 103.544 13.772 1426 71.4067 767.268 520.128
919 0 107.238 12.8313 1376 72.7558 767.059 519.787
920 0 109.332 13.1709 1440 72.0944 767.19 517.669
921 1 58.2212 11.4048 664 74.2967 767.005 541.399
922 0 60.0791 12.1174 728 72.6277 766.72 543.408
923 0 61.3369 11.0211 676 72.3536 767.417 541.395
924 0 65.2219 12.4651 813 71.0824 767.742 540.627
925 0 67.2539 13.0253 876 69.6849 767.421 539.704
926 0 67.128 11.9473 802 70.3865 767.549 538.606
927 0 70.2221 12.5317 880 68.4966 767.826 536.766
928 0 73.6485 13.0621 962 68.183 768.338 534.932
929 0 75.5867 12.6742 958 69.547 767.665 533.323
930 0 75.5969 13.3207 1007 69.1758 768.332 532.617
931 0 79.4599 13.6421 1084 68.9244 767.91 531.103
932 0 82.5824 13.2716 1096 69.4644 767.808 529.63
933 0 84.5175 13.4883 1140 69.3395 768.074 528.508
934 1 48.2337 10.6772 515 70.2757 767.478 547.635
935 0 47.3474 10.7292 508 70.2795 767.374 547.335
936 0 49.1629 10.9839 540 70.0037 766.687 548.104
937 0 51.2525 11.5897 594 70.8081 766.914 547.002
938 0 53.1918 11.9379 635 68.4898 766.951 546.883
939 0 56.2412 12.1619 684 68.9591 767.269 546.504
940 0 55.1757 12.4149 685 68.2088 767.304 545.155
941 0 58.1644 12.138 706 69.2521 765.865 545.538
942 0 60.1366 12.1058 728 69.3104 766.023 543.441
943 0 61.337 12.3743 759 68.8696 766.343 540.834
944 0 63.2391 13.2197 836 67.8433 766.364 541.093
945 0 66.2543 13.2218 876 67.645 766.53 540.853
946 0 65.4288 12.762 835 70.3317 766.448 539.557
947 0 68.3815 14.0389 960 67.7635 766.426 537.697
948 0 71.5833 13.9697 1000 67.581 766.171 539.483
949 0 72.7236 13.902 1011 67.8398 765.834 538.839
950 0 75.6316 13.8567 1048 68.2137 765.948 536.306
951 0 78.4983 13.7965 1083 67.844 765.632 535.412
952 0 80.5798 13.7752 1110 68.4829 765.206 534.12
953 0 82.5985 14.4555 1194 67.4916 765.492 532.466
954 1 41.4526 11.0005 456 71.7895 765.2 552.68
955 0 42.2146 11.0152 465 71.4301 765.09 552.892
956 0 43.3963 11.4756 498 71.0482 765.213 552.863
957 0 46.347 12.1906 565 68.777 765.304 550.538
958 0 46.4629 13.1718 612 68.2565 765.891 549.93
959 0 47.2102 13.8741 655 67.4977 766.202 548.073
960 0 51.2463 12.9375 663 67.2383 765.385 550.056
961 0 48.3031 12.8356 620 69.8548 765.49 549.794
962 0 52.1662 13.8212 721 67.5381 765.377 549.122
963 0 52.1383 13.9437 727 67.3219 765.74 547.158
964 0 54.2958 13.9974 760 66.9882 765.296 547.451
965 0 56.3018 13.5342 762 67.29 765.356 546.538
966 0 57.3393 13.6207 781 67.3534 765.346 545.543
967 0 58.4477 13.8243 808 67.1832 765.802 546.067
968 0 60.3849 13.977 844 67.1256 765.209 544.556
969 0 63.3459 14.0498 890 66.4978 764.785 543.508
970 0 63.124 13.925 879 66.8783 764.524 542.569
971 0 67.4196 14.165 955 66.111 764.775 540.795
972 0 70.3804 13.3844 942 66.7166 765.375 540.648
973 0 72.4303 14.5519 1054 64.9972 765.354 540.169
974 0 71.272 14.6341 1043 66.3452 764.975 538.477
975 0 77.445 14.6814 1137 64.6939 764.912 537.82
976 0 78.2722 14.539 1138 65.6107 764.19 535.797
977 0 81.1405 14.4811 1175 65.686 764.093 534.809
978 1 41.1379 11.8868 489 68.7382 764.072 553.89
979 0 44.097 10.8171 477 69.3732 763.382 553.379
980 0 46.0595 11.9194 549 67.3807 763.667 553.743
981 0 47.1094 12.3755 583 66.8353 763.259 552.564
982 0 50.0413 12.5496 628 65.9061 763.271 551.363
983 0 49.1027 13.4208 659 65.3278 763.46 550.698
984 0 53.068 13.6429 724 64.5773 762.843 548.934
985 0 52.0167 14.0532 731 65.4569 763.373 547.81
986 0 54.0988 13.5678 734 65.4455 763.542 548.361
987 0 57.0254 14.2393 812 63.9286 763.724 546.208
988 0 59.0838 14.3694 849 63.5501 763.418 545.596
989 0 60.162 14.1451 851 64.0176 763.26 546.283
990 0 62.0513 14.069 873 64.1684 763.538 543.466
991 0 65.1236 14.4034 938 63.5235 763.011 542.233
992 0 66.0722 14.3177 946 63.4863 762.703 541.52
993 0 67.083 13.3864 898 65.3808 762.805 540.598
994 0 71.1219 13.7792 980 64.4082 763.299 538.679
995 0 72.0767 13.5828 979 65.0102 763.329 537.737
996 0 77.1788 13.9546 1077 63.2591 763.177 537.295
997 0 78.1253 14.3871 1124 63.0703 763.058 535.046
998 0 82.2749 13.7101 1128 63.7943 762.631 533.017
999 1 44.1545 10.2594 453 62.5055 762.32 554.433
1000 0 46.1393 11.7254 541 61.7837 762.501 553.153
1001 0 45.1771 11.3553 513 62.3294 762.437 553.793
1002 0 46.2171 11.7489 543 63.3738 762.643 551.527
1003 0 49.0942 12.4455 611 61.144 762.375 551.818
1004 0 51.1056 11.4665 586 63.0375 762.49 551.672
1005 0 53.0978 12.1286 644 61.9705 762.449 551.242
1006 0 55.332 13.2292 732 60.5669 762.865 548.947
1007 0 54.3724 13.2788 722 60.8823 762.361 549.548
1008 0 56.1018 12.4951 701 62.4223 762.959 547.649
1009 0 58.2297 12.8972 751 62.0719 763.112 547.035
1010 0 60.166 12.9808 781 62.073 762.873 547.434
1011 0 60.2041 13.122 790 62.5658 762.971 546.362
1012 0 62.2012 12.5239 779 64.8652 762.81 545.228
1013 0 67.3003 12.2436 824 64.6359 762.96 545.346
1014 0 70.2439 13.2396 930 63.4086 763.172 543.661
1015 0 72.1472 12.821 925 63.1373 762.511 541.918
1016 0 73.1246 13.1009 958 63.1148 763.198 541.838
1017 0 76.1819 12.8114 976 63.4334 763.537 538.977
1018 0 78.1655 12.0897 945 64.2212 764.007 537.567
1019 0 81.1378 13.1751 1069 62.4696 764.346 535.784
1020 1 45.2506 10.254 464 62.5043 763.192 556.356
1021 0 45.1006 10.6207 479 62.5908 763.215 555.76
1022 0 46.0519 10.0539 463 62.5335 763.08 554.97
1023 0 47.1323 9.46272 446 64.1749 763.377 553.415
1024 0 50.112 11.3945 571 62.317 763.536 553.489
1025 0 50.176 11.0212 553 63.4105 763.749 552.018
1026 0 52.0262 11.4173 594 62.9259 763.848 550.796
1027 0 52.2669 12.1683 636 62.1619 764.219 550.03
1028 0 55.2687 12.3035 680 61.3485 764.519 548.222
1029 0 57.161 12.456 712 61.2149 764.338 546.716
1030 0 60.1703 12.3483 743 61.4697 764.74 545.808
1031 0 60.0757 12.6507 760 61.0342 765.232 544.386
1032 0 61.1835 12.6341 773 61.8241 765.695 541.519
1033 0 63.1295 12.91 815 61.4074 765.675 541.259
1034 0 66.3311 13.1462 872 60.8406 765.769 539.274
1035 0 68.2862 11.8911 812 62.8818 765.929 538.83
1036 0 72.245 12.9836 938 61.0544 766.26 538.342
1037 0 71.3244 13.3054 949 62.7144 765.9 535.806
1038 0 74.1959 13.2352 982 62.3839 766.76 538.098
1039 0 75.151 12.6412 950 64.2116 766.718 535.38
1040 0 76.2779 13.3853 1021 63.762 767.388 532.371
1041 0 80.3287 12.648 1016 64.5295 767.837 532.61
1042 0 82.2857 12.8576 1058 64.7769 767.676 530.242
1043 0 84.4774 13.0567 1103 64.7489 768.09 528.953
1044 0 89.5301 13.3251 1193 64.2498 767.796 527.416
1045 0 90.6264 12.3033 1115 66.0305 768.097 526.527
1046 1 46.1554 10.2263 472 65.2458 767.614 549.25
1047 0 46.4097 10.1272 470 64.3745 767.943 547.713
1048 0 46.3174 10.6871 495 64.6 767.471 548.222
1049 0 50.3027 11.0928 558 63.2616 767.17 548.036
1050 0 53.0506 10.8576 576 62.3819 767.793 548.943
1051 0 52.0875 11.5767 603 62.3831 767.677 547.63
1052 0 56.1206 11.4575 643 62.5054 768.893 546.327
1053 0 56.1509 11.6116 652 62.7914 768.486 546.101
1054 0 59.1975 11.791 698 62.7765 768.835 545.466
1055 0 60.1264 12.3074 740 62.3865 768.939 544.978
1056 0 61.1525 11.9374 730 63.4671 769.067 543.859
1057 0 63.1514 11.892 751 63.7843 768.972 542.747
1058 0 65.0538 12.2668 798 63.2669 768.778 542.904
1059 0 66.1666 12.3174 815 64.3153 768.426 540.85
1060 0 66.1485 12.3661 818 64.8912 768.086 539.879
1061 0 70.1801 13.1804 925 63.5946 767.926 538.711
1062 0 71.2349 12.7466 908 64.8172 768.253 537.262
1063 0 74.1401 12.8945 956 64.8159 767.606 536.953
1064 0 78.1749 13.0605 1021 64.8286 768.37 534.695
1065 0 81.1973 12.7837 1038 65.4297 768.201 535.072
1066 0 83.1346 11.9926 997 67.2136 768.434 533.227
1067 1 43.1787 10.2365 442 64.3846 768.1 554.654
1068 0 46.1468 10.1416 468 64.485 767.053 554.013
1069 0 45.1095 10.7295 484 64.5124 766.764 552.616
1070 0 49.2188 11.0121 542 63.8173 767.033 551.197
1071 0 49.1521 11.556 568 63.5335 766.757 550.13
1072 0 51.1511 11.0457 565 64.2283 766.906 550.368
1073 0 51.0315 11.0324 563 64.8242 768.307 548.865
1074 0 52.0659 11.9656 623 63.4559 768.135 549.138
1075 0 54.0813 12.0559 652 63.2791 767.413 548.566
1076 0 55.0807 11.9098 656 63.8537 767.441 547.162
1077 0 59.0902 12.2017 721 62.9265 767.147 546.24
1078 0 60.2467 12.3492 744 62.4247 767.669 544.712
1079 0 61.3331 12.0164 737 62.9851 767.019 545.263
1080 0 63.2448 11.6848 739 63.9296 766.539 542.943
1081 0 66.334 12.3768 821 62.8441 766.156 542.549
1082 0 66.3149 11.8073 783 63.7535 766.06 542.41
1083 0 68.2027 11.7884 804 64.5274 766.112 541.567
1084 0 71.3681 12.4005 885 63.9684 765.376 539.353
1085 0 74.4303 11.8231 880 64.5727 765.943 539.091
1086 0 75.4429 12.1681 918 64.9096 765.826 537.814
1087 0 78.3795 12.0822 947 64.8342 765.68 535.226
1088 1 42.064 9.03385 380 63.5684 766.176 556.682
1089 0 40.1294 9.66871 388 64.8041 765.809 556.464
1090 0 44.1079 10.2022 450 63.6689 765.576 555.024
1091 0 44.0701 10.2791 453 66.532 765.208 555.72
1092 0 46.1078 11.343 523 64.9656 765.669 554.543
1093 0 47.1801 11.0004 519 65.9538 765.657 555.975
1094 0 48.0937 11.2281 540 65.6537 765.5 553.95
1095 0 51.1162 12.0314 615 64.1724 765.311 552.226
1096 0 50.1338 10.6914 536 66.5112 765.054 552.336
1097 0 51.131 11.5781 592 65.8463 764.581 551.432
1098 0 54.0562 11.525 623 65.5072 764.689 548.557
1099 0 54.0713 11.6328 629 65.4467 764.847 550.25
1100 0 57.0762 12.0015 685 64.8628 765.074 548.283
1101 0 57.0657 12.3191 703 65.2532 764.927 549.444
1102 0 60.1705 12.5311 754 64.6538 764.682 547.183
1103 0 63.1006 12.0918 763 65.3696 764.168 546.592
1104 0 66.0425 12.386 818 63.665 764.375 544.934
1105 0 66.0419 12.2649 810 63.4457 763.956 545.067
1106 0 69.0971 12.4463 860 63.0395 763.822 544.152
1107 0 71.0553 12.4832 887 63.0868 764.257 543.846
1108 0 73.1784 12.4764 913 63.7393 763.737 540.973
1109 0 76.1217 12.1122 922 63.5586 763.786 542.332
1110 1 38.1009 9.6848 369 64.0921 763.967 559.035
1111 0 41.0556 10.1326 416 65.2308 763.325 558.185
1112 0 41.1422 10.5974 436 66.0711 763.553 559.119
1113 0 44.0677 11.4369 504 64.8155 764.095 556.855
1114 0 43.033 11.7352 505 66.1762 764.531 555.895
1115 0 44.1125 11.38 502 66.3028 763.464 556.829
1116 0 46.0731 12.1546 560 66.3482 763.427 555.362
1117 0 47.0655 12.8544 605 65.9306 763.499 556.084
1118 0 47.0283 12.3755 582 67.3557 763.337 554.404
1119 0 50.0418 12.2098 611 67.3912 763.29 554.849
1120 0 52.1024 13.1088 683 66.0673 763.233 553.921
1121 0 51.0556 12.7704 652 67.839 763.552 551.911
1122 0 54.1715 13.4388 728 65.9684 763.577 551.757
1123 0 55.0678 12.8206 706 67.2635 763.186 552.001
1124 0 56.0667 13.0915 734 67.5341 763.452 551.525
1125 0 58.0325 12.4758 724 68.5801 763.702 551.425
1126 0 58.0462 12.8001 743 67.6137 763.69 550.756
1127 0 60.1459 12.3533 743 68.8318 763.443 551.583
1128 0 61.0905 13.5537 828 68.0942 763.466 549.341
1129 0 63.1059 13.1367 829 68.1773 763.583 548.53
1130 0 64.0834 13.2328 848 68.4811 763.499 547.025
1131 0 65.1155 13.0537 850 69.4259 763.888 546.18
1132 0 68.0785 12.8675 876 68.8527 763.501 545.462
1133 0 72.1642 12.7348 919 69.0229 763.53 544.238
1134 0 75.1064 13.1547 988 68.3107 763.545 543.201
1135 0 75.1064 13.2479 995 172.272 764.541 543.248
1136 1 39.0299 10.2998 402 70.4303 764.149 557.152
1137 0 41.0467 9.79373 402 70.0871 764.448 558.448
1138 0 43.0191 10.5535 454 69.3612 764.269 556.621
1139 0 46.0587 11.6807 538 67.9387 763.634 555.212
1140 0 48.0657 11.5883 557 67.7971 764.522 554.601
1141 0 49.1626 12.3061 605 67.0793 765.488 553.666
1142 0 52.0609 13.2921 692 66.8179 765.769 552.815
1143 0 52.0871 12.7095 662 68.7508 765.539 552.003
1144 0 54.069 13.6492 738 66.7114 765.075 551.518
1145 0 56.133 13.7352 771 66.8534 765.477 550.432
1146 0 58.1644 13.5306 787 67.3202 765.762 549.022
1147 0 58.0809 13.309 773 68.5757 765.952 548.339
1148 0 62.1269 13.8265 859 67.0012 766.172 547.404
1149 0 64.0746 13.5155 866 66.9538 766.587 546.859
1150 0 68.106 14.7124 1002 64.0299 766.849 543.181
1151 0 68.175 14.2868 974 66.0359 766.908 544.326
1152 0 70.0775 13.9702 979 66.7436 767.113 542.97
1153 0 71.1778 13.3469 950 67.6179 767.394 541.234
1154 0 73.1728 13.7073 1003 66.7079 767.225 539.632
1155 0 78.1712 14.0589 1099 65.8972 766.839 537.781
1156 1 40.05 10.387 416 68.0673 766.365 557.269
1157 0 40.0406 10.5393 422 67.4716 766.865 557.448
1158 0 42.0273 10.7311 451 67.6009 767.197 555.61
1159 0 43.0493 11.15 480 66.7917 767.496 555.269
1160 0 47.0463 12.8597 605 64.238 767.917 553.559
1161 0 45.0721 12.957 584 66.3322 769.038 552.791
1162 0 50.338 13.4888 679 65.2194 768.206 553.529
1163 0 51.2014 12.734 652 66.4218 768.339 552.56
1164 0 52.2587 13.4714 704 65.9176 768.953 551.963
1165 0 51.1033 13.3064 680 66.8897 769.153 551.476
1166 0 55.1403 14.1095 778 65.0386 768.929 550.048
1167 0 54.1809 13.3257 722 67.7618 769.307 549.758
1168 0 58.1639 13.2041 768 67.1367 769.742 549.581
1169 0 58.1205 13.4376 781 67.3086 769.145 548.035
1170 0 58.1841 13.3026 774 68.7003 768.778 547.903
1171 0 61.146 13.6068 832 67.625 768.785 546.675
1172 0 64.2055 13.5814 872 66.6995 768.915 545.849
1173 0 66.2927 14.2248 943 66.1612 769.056 544.005
1174 0 68.2469 14.301 976 65.9816 769.383 543.613
1175 0 71.1601 13.3361 949 67.411 769.901 543.12
1176 0 74.2028 13.4361 997 67.1254 769.673 540.647
1177 0 77.2175 13.857 1070 66.6551 769.576 538.993
1178 0 80.2512 13.6447 1095 66.6877 769.591 539.72
1179 0 83.1565 13.8775 1154 66.4619 770.178 535.319
1180 1 43.1016 9.86042 425 68.5624 770.711 555.861
1181 0 46.0815 11.2192 517 66.3868 770.455 554.851
1182 0 48.0856 11.4587 551 66.6661 769.653 553.486
1183 0 48.0349 11.8872 571 66.8792 769.186 553.149
1184 0 51.0981 12.8968 659 64.1305 769.22 552.247
1185 0 52.2425 12.5568 656 64.6768 769.916 552.136
1186 0 53.1351 12.4588 662 64.6088 769.517 551.551
1187 0 54.2277 12.7241 690 64.229 769.807 550.71
1188 0 55.1335 12.8597 709 63.9337 770.087 550.21
1189 0 58.1605 12.5687 731 63.8153 769.989 548.639
1190 0 58.3607 12.834 749 63.3725 768.933 549.889
1191 0 61.2668 13.3025 815 62.4982 769.56 547.811
1192 0 61.2431 12.7035 778 63.8188 768.71 547.231
1193 0 64.4108 12.9016 831 62.8496 768.836 546.166
1194 0 66.2527 13.2825 880 61.9864 768.901 546.707
1195 0 68.3472 12.7291 870 63.2425 768.29 544.251
1196 0 69.3581 12.5003 867 63.812 768.119 543.979
1197 0 73.3694 13.3298 978 63.1554 768.304 542.283
1198 0 73.2081 12.8674 942 64.2516 767.911 542.627
1199 0 78.3052 13.524 1059 62.8848 768.67 541.676
1200 1 40.1046 9.7495 391 66.312 768.555 558.289
1201 0 41.1057 10.9231 449 65.049 767.875 559.189
1202 0 41.3654 11.3138 468 66.2949 768.214 556.868
1203 0 45.1133 11.3714 513 65.501 768.15 556.891
1204 0 45.0991 11.7076 528 67.1288 768.265 556.091
1205 0 47.1604 12.2348 577 66.0017 767.776 556.279
1206 0 48.2346 11.8795 573 66.8045 767.262 554.976
1207 0 50.265 12.1357 610 67.1361 767.33 554.331
1208 0 50.1212 12.7691 640 67.3609 767.517 553.383
1209 0 52.1374 12.9082 673 67.8574 767.383 552.193
1210 0 52.1374 12.889 672 175.083 766.376 552.165
1211 0 56.1291 13.0592 733 66.8554 767.03 551.765
1212 0 57.1153 14.1468 808 66.052 767.371 549.457
1213 0 59.0273 13.8749 819 66.3223 766.1 550.441
1214 0 61.0153 13.1115 800 67.6825 766.035 549.618
1215 0 62.0662 13.0828 812 68.0554 765.786 548.991
1216 0 63.0662 13.3193 840 67.5679 765.682 547.89
1217 0 66.0594 13.609 899 67.1846 765.289 546.498
1218 0 66.0957 13.2081 873 68.6987 765.296 547.816
1219 0 69.0591 13.2206 913 68.0471 764.815 545.227
1220 0 70.0402 13.3352 934 67.7934 764.544 544.687
1221 0 74.0274 13.3194 986 67.1146 764.705 543.12
1222 0 76.1597 12.9727 988 67.6144 764.296 541.584
1223 0 80.1399 13.3516 1070 66.5243 764.694 539.675
1224 1 42.0483 10.9874 462 67.0195 763.686 558.714
1225 0 44.0221 10.3357 455 67.4857 764.415 557.673
1226 0 46.0379 10.3828 478 67.3577 764.776 558.153
1227 0 46.1711 12.2154 564 65.7252 765.239 555.789
1228 0 50.1574 12.6601 635 63.4457 764.354 556.28
1229 0 48.1543 12.9583 624 65.2324 764.537 552.188
1230 0 50.1133 13.7289 688 63.6686 764.762 552.663
1231 0 54.1095 13.4357 727 62.7373 764.631 553.308
1232 0 54.0984 12.7545 690 64.3377 764.217 552.635
1233 0 56.1243 13.3988 752 63.4375 764.181 552.269
1234 0 57.1381 13.3011 760 63.4829 764.738 551.484
1235 0 58.2169 13.381 779 63.5135 764.701 550.745
1236 0 60.1 12.9617 779 64.3671 764.589 549.149
1237 0 62.1475 13.4036 833 63.4118 764.684 548.762
1238 0 64.0844 13.4354 861 63 764.764 547.674
1239 0 65.1508 13.4918 879 63.8805 764.215 548.083
1240 0 68.2694 14.0619 960 62.5656 764.314 546.101
1241 0 68.137 14.0159 955 63.6628 764.659 545.392
1242 0 68.137 13.9572 951 157.113 764.657 545.426
1243 0 73.1815 14.0883 1031 62.4927 764.001 543.305
1244 0 76.1209 14.0434 1069 62.7016 764.498 541.493
1245 0 78.1554 13.7419 1074 63.1043 764.417 541.953
1246 0 82.279 14.3536 1181 61.3726 764.667 541.765
1247 0 84.1888 13.9686 1176 62.6964 764.187 538.234
1248 1 45.1587 10.9392 494 66.0466 763.953 557.915
1249 0 47.1155 12.2677 578 64.4758 764.059 557.09
1250 0 48.0973 12.35 594 65.0825 764.481 555.924
1251 0 50.1087 12.6725 635 64.1339 764.865 555.569
1252 0 52.1834 12.8202 669 64.2093 764.425 554.481
1253 0 52.0696 12.4449 648 64.9275 764.468 555.483
1254 0 54.1116 12.9547 701 65.2511 764.857 553.031
1255 0 55.0524 13.4054 738 64.7913 764.725 551.634
1256 0 57.1821 13.2734 759 64.7391 764.776 551.582
1257 0 58.0949 13.8739 806 64.4467 764.763 550.292
1258 0 61.0779 13.9494 852 63.6056 765.215 550.311
1259 0 62.1912 13.9409 867 64.1315 765.37 550.241
1260 0 62.1798 13.1715 819 66.105 765.836 549.349
1261 0 66.1622 14.1319 935 64.1219 765.765 547.161
1262 0 66.1854 13.8097 914 65.1827 765.849 547.652
1263 0 68.135 14.2218 969 65.0826 766.294 545.3
1264 0 70.1957 14.3456 1007 64.9067 766.307 545.71
1265 0 72.1168 14.6984 1060 64.8868 766.467 544.584
1266 0 74.1803 14.1412 1049 66.0763 766.674 542.684
1267 0 78.079 14.0883 1100 66.0191 766.519 540.894
1268 0 81.1006 14.3279 1162 65.6764 766.621 539.401
1269 0 83.1427 14.1203 1174 66.4634 766.945 538.493
1270 0 86.1191 14.8283 1277 65.3422 766.765 535.908
1271 1 43.0305 11.6894 503 68.3221 766.66 558.276
1272 0 45.1826 12.1507 549 68.2805 767.554 556.559
1273 0 47.1096 12.248 577 68.1231 767.73 556.054
1274 0 48.0511 12.9654 623 68.2905 768.356 553.353
1275 0 50.0625 13.583 680 66.9309 768.693 552.138
1276 0 54.072 13.0752 707 66.867 768.54 551.529
1277 0 53.0666 13.6055 722 67.6662 768.623 550.277
1278 0 57.0793 13.8579 791 65.4576 768.881 550.013
1279 0 59.0978 13.5031 798 66.3509 768.588 548.602
1280 0 59.0207 13.3004 785 67.7236 768.383 548.501
1281 0 63.1584 14.2815 902 66.0754 769.101 546.238
1282 0 64.0743 13.9057 891 66.6588 769.988 545.267
1283 0 66.1757 14.2348 942 66.4544 770.084 544.46
1284 0 69.1015 13.965 965 66.9389 770.252 543.058
1285 0 72.1409 13.8479 999 66.9229 770.816 542.53
1286 0 74.3229 14.3697 1068 66.7444 770.266 540.397
1287 0 74.3229 14.3428 1066 156.96 769.265 540.404
1288 0 78.2213 14.1138 1104 67.7962 770.903 538.634
1289 0 82.1116 14.2489 1170 67.3205 770.399 536.856
1290 1 45.0593 11.4516 516 70.1085 770.101 555.409
1291 0 45.0683 11.8487 534 69.8727 770.272 554.024
1292 0 47.1494 12.6407 596 68.6812 770.691 553.042
1293 0 50.1594 13.1581 660 68.25 770.538 551.25
1294 0 51.0555 13.4559 687 67.4687 769.828 550.59
1295 0 51.0268 13.5027 689 68.2046 769.853 549.771
1296 0 54.0649 13.4653 728 68.4547 769.227 548.356
1297 0 54.111 13.5278 732 68.7473 769.493 547.952
1298 0 57.0456 13.5856 775 67.969 770.175 548.292
1299 0 58.0818 13.5843 789 67.9911 770.314 548.455
1300 0 62.061 13.6962 850 67.2365 770.489 545.532
1301 0 61.0553 13.6925 836 68.2285 769.406 546.091
1302 0 66.1312 13.7152 907 67.194 769.599 543.646
1303 0 67.1238 14.1529 950 67.0905 769.463 543.52
1304 0 68.0697 13.8975 946 67.8076 770.012 540.812
1305 0 73.0859 13.751 1005 67.3244 769.17 541.236
1306 0 75.0302 14.0344 1053 67.1548 769.1 539.915
1307 0 75.1353 13.6554 1026 68.7573 769.115 539.345
1308 0 78.0835 13.5624 1059 68.6931 768.988 537.538
1309 0 81.1366 13.9271 1130 68.2549 768.888 536.473
1310 0 85.0863 14.2561 1213 66.8838 768.721 536.785
1311 0 89.0988 13.6253 1214 67.6936 769.151 533.069
1312 0 91.2153 14.1095 1287 67.1787 769.358 532.089
1313 1 46.0328 11.1877 515 67.7922 768.858 553.427
1314 0 47.0736 12.4911 588 66.9949 768.964 554.032
1315 0 50.0347 12.7312 637 65.7143 768.275 552.598
1316 0 51.0537 13.3976 684 65.0863 767.123 550.923
1317 0 51.1069 12.6989 649 66.7042 768.27 553.421
1318 0 53.1 13.4275 713 65.7209 767.919 553.025
1319 0 55.0972 13.6305 751 66.0186 767.836 550.704
1320 0 56.1169 13.1333 737 67.0651 767.277 549.649
1321 0 59.1283 13.3946 792 66.3409 766.729 549.818
1322 0 59.1332 13.4781 797 66.4944 767.095 548.946
1323 0 61.1242 13.7916 843 66.6074 767.24 547.337
1324 0 64.1781 13.1977 847 66.1275 767.118 547.117
1325 0 67.0568 14.003 939 65.2769 766.952 545.496
1326 0 68.1108 13.9038 947 65.4984 767.306 544.424
1327 0 69.1375 13.3791 925 66.8941 767.029 543.056
1328 0 73.1238 13.5797 993 65.7291 766.539 542.553
1329 0 75.1388 13.322 1001 66.4006 766.502 542.026
1330 0 77.2785 14.8295 1146 65.2365 766.521 540.116
1331 0 79.2274 14.0987 1117 65.974 766.374 539.009
1332 0 84.1544 14.01 1179 65.3868 766.569 538.195
1333 1 39.0974 11.8934 465 66.2538 765.849 560.434
1334 0 41.1002 11.1922 460 69.0152 766.428 559.659
1335 0 40.0553 12.2331 490 69.7939 766.053 557.992
1336 0 42.0664 12.6467 532 68.0338 765.989 557.103
1337 0 43.1285 12.3352 532 69.2462 766.043 555.955
1338 0 45.1589 13.22 597 66.8995 765.608 554.821
1339 0 46.2038 12.7695 590 67.8814 765.676 554.514
1340 0 49.3883 13.7077 677 65.2142 765.84 553.777
1341 0 49.1038 13.6446 670 66.2896 766.19 554.64
1342 0 51.1661 13.5246 692 66.1561 766.007 552.642
1343 0 51.1892 14.0069 717 66.0893 765.951 551.551
1344 0 55.3049 13.4346 743 65.8183 765.77 551.728
1345 0 55.2839 13.0599 722 66.9321 766.19 549.986
1346 0 57.1392 14.1234 807 65.3482 765.787 550.155
1347 0 59.2915 13.7625 816 66.2978 765.275 549.093
1348 0 60.3248 13.1455 793 67.6356 765.44 547.435
1349 0 62.3745 13.3067 830 68.0205 765.231 547.023
1350 0 65.293 14.3201 935 66.8631 764.752 545.627
1351 0 64.4536 13.1878 850 69.7012 764.136 545.792
1352 0 69.328 13.703 950 68.6516 763.956 545.503
1353 0 69.2525 13.8479 959 69.5819 763.997 543.198
1354 0 72.2194 13.8051 997 69.984 763.362 542.838
1355 0 75.3538 13.4167 1011 70.8576 763.032 541.288
1356 1 38.174 10.7403 410 75.2537 762.993 559.283
1357 0 41.3568 12.6702 524 71.8893 762.55 557.765
1358 0 39.2205 11.6776 458 76.2642 762.5 557.493
1359 0 42.1693 13.0426 550 74.2891 762.649 556.46
1360 0 44.2289 12.1866 539 75.5232 762.668 556.367
1361 0 45.0871 13.2854 599 75.2571 762.614 554.771
1362 0 46.1206 13.4213 619 75.2585 762.546 555.649
1363 0 48.162 13.0601 629 76.4467 762.609 554.049
1364 0 49.0978 13.4426 660 76.5182 762.73 552.676
1365 0 49.2112 13.8383 681 76.5081 762.69 553.209
1366 0 53.3122 14.0868 751 74.8562 762.803 552.728
1367 0 54.1592 13.7188 743 75.5047 762.444 551.128
1368 0 54.3748 13.4437 731 77.5568 762.625 550.736
1369 0 56.285 13.6448 768 77.1862 762.525 550.038
1370 0 58.2654 13.3184 776 77.5438 762.881 548.912
1371 0 60.333 14.0222 846 75.6631 762.663 548.775
1372 0 62.1666 13.7051 852 76.7629 762.822 547.207
1373 0 63.2576 13.3581 845 77.8852 762.972 547.04
1374 0 64.382 13.6529 879 77.3185 763.053 545.588
1375 0 66.3759 14.4781 961 76.2414 763.351 545.436
1376 0 66.4145 14.1535 940 77.6553 762.632 545.506
1377 0 71.2909 14.4198 1028 75.4922 762.979 544.605
1378 0 71.3945 13.7826 984 77.4837 763.162 543.968
1379 0 76.296 13.736 1048 76.5878 763.008 542.237
1380 0 77.3174 14.5245 1123 75.5681 762.914 540.602
1381 1 40.306 10.8917 439 79.2301 762.608 559.667
1382 0 42.2217 11.4396 483 75.9979 762.658 557.371
1383 0 45.3191 11.9376 541 72.5749 763.287 556.604
1384 0 44.1339 12.666 559 75.7531 763.258 554.807
1385 0 45.095 12.7287 574 75.9495 763.221 554.408
1386 0 48.0993 12.6405 608 78.0214 762.965 553.413
1387 0 47.1306 13.0701 616 75.9513 763.992 553.13
1388 0 49.1163 13.356 656 74.6692 763.768 553.546
1389 0 51.1568 13.3902 685 74.4117 763.317 551.698
1390 0 53.2043 13.8335 736 72.7527 763.562 550.276
1391 0 53.2488 13.7092 730 74.8384 763.708 549.542
1392 0 54.1912 13.2125 716 76.3757 763.675 549.134
1393 0 56.1502 13.7132 770 74.9091 763.748 547.187
1394 0 59.3539 13.7986 819 73.8242 763.9 547.166
1395 0 62.3862 14.0736 878 72.8394 764.318 545.162
1396 0 63.2587 14.3696 909 72.3443 764.223 543.416
1397 0 65.2696 13.9115 908 72.5683 764.268 542.751
1398 0 66.2436 13.6617 905 72.9448 764.411 541.62
1399 0 70.1119 13.8065 968 72.3998 764.602 540
1400 0 72.226 14.3993 1040 70.9519 764.498 540.093
1401 0 75.1611 13.6507 1026 71.4825 764.746 535.831
1402 0 80.3932 13.2474 1065 70.8714 765.107 536.236
1403 0 83.3341 13.9439 1162 69.4854 765.564 533.875
1404 1 46.033 10.3621 477 69.0335 765.851 552.524
1405 0 47.0387 11.6287 547 68.3894 766.819 551.879
1406 0 48.0812 11.1894 538 67.9981 767.442 551.658
1407 0 52.1262 12.3163 642 65.0903 768.103 549.491
1408 0 54.1279 12.415 672 65.2351 768.031 549.293
1409 0 54.122 12.3979 671 64.9642 768.258 549.112
1410 0 55.1391 12.9491 714 64.888 768.632 547.779
1411 0 58.2283 12.0903 704 64.7045 768.584 546.246
1412 0 61.0692 12.6578 773 63.1061 768.67 544.647
1413 0 63.1656 12.1902 770 63.3688 768.787 544.281
1414 0 66.2605 12.8433 851 61.4301 768.929 544.112
1415 0 68.0813 12.7788 870 61.5115 768.489 542.201
1416 0 71.204 13.2155 941 60.6706 768.932 539.354
1417 0 72.1285 13.3234 961 60.9584 769.006 536.858
1418 0 75.0791 12.5601 943 61.5323 769.941 538.133
1419 0 77.0481 12.8102 987 60.8804 769.209 535.493
1420 0 80.1452 12.7019 1018 60.8232 769.489 533.367
1421 1 45.0292 10.5931 477 58.9224 769.468 552.373
1422 0 45.0671 9.85197 444 60.3739 769.234 551.64
1423 0 47.045 10.5644 497 60.1348 767.785 553.809
1424 0 49.1077 11.6072 570 58.6456 767.881 552.221
1425 0 50.055 11.4874 575 58.8296 767.92 549.612
1426 0 52.0581 11.8329 616 57.9481 767.709 550.815
1427 0 55.0577 12.2417 674 58.0593 767.269 549.439
1428 0 55.1256 11.7368 647 58.8223 767.229 549.008
1429 0 56.0757 12.2513 687 58.6245 767.557 548.802
1430 0 57.1151 12.361 706 58.5623 767.578 547.448
1431 0 59.0639 12.2918 726 58.478 767.098 546.474
1432 0 62.0841 12.3703 768 57.8984 767.556 546.208
1433 0 63.048 12.4508 785 58.3223 767.29 544.214
1434 0 64.0678 12.4712 799 58.7797 767.089 544.03
1435 0 66.0531 12.172 804 59.9614 767.315 543.037
1436 0 69.1601 12.2614 848 59.4611 767.001 543.038
1437 0 71.0735 12.7052 903 58.8594 767.492 541.157
1438 0 74.2658 12.3341 916 59.1168 767.468 540.223
1439 1 42.0305 10.5162 442 59.4253 767.437 555.355
1440 0 41.0709 9.7149 399 58.7143 766.679 555.687
1441 0 42.0532 10.2252 430 58.1977 766.651 555.284
1442 0 43.1085 10.9027 470 57.6319 766.232 554.77
1443 0 45.0248 10.8163 487 57.7023 767.049 554.608
1444 0 47.205 11.6937 552 56.8261 765.415 552.286
1445 0 49.0947 12.2824 603 55.9005 765.269 551.801
1446 0 49.2958 11.8469 584 57.1182 765.786 550.911
1447 0 52.2168 11.8353 618 55.9482 765.332 550.142
1448 0 53.228 11.7607 626 56.599 766.137 548.73
1449 0 52.2181 11.6818 610 57.3902 765.949 548.849
1450 0 52.2181 11.6435 608 151.803 765.946 548.882
1451 0 55.2255 11.5707 639 57.77 765.552 547.886
1452 0 57.1259 11.8335 676 57.7914 766.114 547.325
1453 0 60.133 12.3393 742 57.004 765.756 544.97
1454 0 63.1713 13.1072 828 55.6039 765.92 546.486
1455 0 62.1911 12.5581 781 57.2804 765.362 545.186
1456 0 66.1077 13.5688 897 55.8662 765.552 542.651
1457 0 68.1726 13.0551 890 56.9596 765.699 541.094
1458 0 69.144 13.2622 917 57.2399 765.535 541.948
1459 0 71.1446 11.8913 846 59.2648 765.409 541.539
1460 0 72.1321 13.295 959 57.7602 765.587 540.187
1461 0 77.1182 13.4599 1038 57.3854 765.552 538.647
1462 1 42.0094 10.4738 440 58.9023 764.232 555.368
1463 0 42.0792 10.5278 443 58.8849 764.108 555.497
1464 0 44.0722 10.1197 446 59.9215 763.697 556.832
1465 0 47.0425 12.0742 568 57.162 764.312 555.676
1466 0 49.0688 10.6993 525 58.6076 764.697 554.994
1467 0 48.035 11.9913 576 57.8576 764.604 554.316
1468 0 49.0446 12.4988 613 57.217 765.222 554.71
1469 0 50.1583 12.3808 621 57.4412 764.688 553.626
1470 0 52.1744 12.9374 675 57.4281 764.615 551.667
1471 0 53.2025 12.6498 673 57.4799 764.523 552.311
1472 0 55.1644 12.5806 694 57.5807 764.352 551.124
1473 0 55.0808 13.0717 720 57.8931 764.342 549.425
1474 0 59.115 12.4672 737 58.1343 763.97 550.307
1475 0 61.0485 13.1535 803 57.3873 763.672 549.286
1476 0 62.1138 12.9762 806 58.0186 763.223 548.367
1477 0 65.1632 13.0135 848 57.8821 762.678 548.032
1478 0 66.0936 12.9211 854 57.7447 763.108 547.39
1479 0 69.1236 13.512 934 56.9754 762.662 547.293
1480 0 71.0684 13.888 987 56.5046 763.656 545.803
1481 0 71.0915 13.4334 955 58.2419 763.55 542.493
1482 0 75.1835 14.1653 1065 56.8563 763.095 544.561
1483 0 77.1632 14.1 1088 57.4752 763.468 540.167
1484 0 80.1429 12.9519 1038 58.9229 763.325 540.292
1485 0 83.2588 13.1157 1092 58.511 763.128 538.51
1486 1 46.0116 10.1062 465 59.5075 763.228 557.443
1487 0 48.0417 11.4068 548 58.1989 762.954 557.4
1488 0 48.0377 11.0122 529 58.3119 763.206 556.059
1489 0 49.0245 11.4637 562 58.2224 762.877 555.445
1490 0 51.059 11.7315 599 55.8898 763.629 553.923
1491 0 50.0814 12.2001 611 56.1391 763.997 552.578
1492 0 51.0492 12.1256 619 55.8288 763.501 551.89
1493 0 51.0634 11.9459 610 56.9033 764.002 552.061
1494 0 51.0634 11.9459 610 152.118 764.002 552.061
1495 0 54.0644 12.0782 653 56.1715 764.202 549.894
1496 0 57.0891 12.0864 690 56.2043 764.283 549.068
1497 0 58.0471 12.1453 705 56.2979 764.243 547.894
1498 0 60.1306 12.2733 738 55.7493 764.331 547.201
1499 0 62.2878 12.4904 778 56.3432 764.107 546.368
1500 0 63.2508 12.6639 801 56.6167 764.243 546.386
1501 0 65.1853 12.7943 834 56.2578 764.181 543.247
1502 0 70.0605 12.8889 903 56.3632 763.925 544.63
1503 0 73.0495 14.1274 1032 54.3721 763.797 542.893
1504 0 74.2134 12.5719 933 56.6292 763.847 540.628
1505 0 75.1601 12.0676 907 57.2084 763.884 540.559
1506 0 79.1544 12.962 1026 56.0731 764.191 540.904
1507 0 79.2504 12.4794 989 57.088 764.938 537.404
1508 1 41.0984 10.195 419 57.0931 765.444 557.344
1509 0 44.1179 11.0613 488 56.2029 765.441 555.611
1510 0 44.5447 10.9553 488 56.0287 765.137 555.805
1511 0 48.2784 12.5729 607 54.2323 765.234 554.603
1512 0 49.3086 12.4116 612 55.3039 765.853 554.271
1513 0 51.2462 12.5277 642 55.6931 766.014 553.055
1514 0 50.3154 12.6403 636 57.0377 766.362 552.846
1515 0 50.207 12.2692 616 58.2062 766.06 552.859
1516 0 53.2387 12.3594 658 57.9422 766.646 551.506
1517 0 56.2561 12.3898 697 57.4878 766.554 551.329
1518 0 57.1751 13.31 761 57.3942 767.223 550.925
1519 0 56.2993 13.4815 759 58.2227 767.02 549.065
1520 0 57.1931 13.4107 767 58.7432 767.896 547.343
1521 0 59.1407 13.172 779 58.9897 767.838 547.198
1522 0 62.2558 13.2518 825 60.3552 767.847 548.024
1523 0 64.1897 13.3043 854 58.5468 768.009 547.241
1524 0 66.1801 13.01 861 58.7596 768.143 545.488
1525 0 67.222 13.2843 893 58.3684 768.574 544.663
1526 0 72.1083 14.1592 1021 56.4123 768.275 543.494
1527 0 71.1913 13.541 964 57.7635 768.581 542.083
1528 0 75.2418 14.3936 1083 56.9584 768.319 542.121
1529 0 75.242 13.131 988 59.1123 768.498 540.585
1530 0 79.0899 13.5163 1069 58.4125 768.634 538.413
1531 0 80.3435 13.6663 1098 58.4444 768.819 537.604
1532 0 84.129 14.0023 1178 58.5594 768.462 535.106
1533 0 85.3955 13.1037 1119 59.7221 768.46 533.902
1534 0 90.2243 13.4221 1211 59.2403 768.159 531.742
1535 1 49.0486 10.9891 539 59.7161 767.863 554.017
1536 0 50.1642 11.6418 584 58.988 767.822 553.656
1537 0 50.0886 11.4796 575 60.1426 768.271 553.623
1538 0 52.1796 11.8245 617 59.5462 767.634 550.596
1539 0 55.2919 12.425 687 58.933 767.715 550.025
1540 0 56.0741 12.2516 687 58.8588 767.06 549.769
1541 0 56.1667 12.1246 681 59.8297 767.913 549.256
1542 0 60.1474 12.6689 762 58.79 767.364 547.385
1543 0 60.0846 12.2827 738 59.3496 768.089 547.565
1544 0 63.311 12.8414 813 58.9336 768.194 545.563
1545 0 63.1626 13.2832 839 58.8975 768.243 544.209
1546 0 66.0557 12.7014 839 59.3802 767.875 544.191
1547 0 68.1312 13.3713 911 59.0154 767.441 543.705
1548 0 70.1392 12.5322 879 60.6303 767.579 542.213
1549 0 73.253 13.4875 988 59.3117 767.082 541.632
1550 0 74.2097 13.4349 997 60.0782 766.794 540.116
1551 0 77.1346 13.081 1009 60.6779 766.931 539.527
1552 0 79.2421 13.6039 1078 60.8349 767.247 538.915
1553 0 82.3362 12.9469 1066 61.5291 766.313 536.451
1554 0 86.2785 13.1898 1138 61.2381 765.907 535.644
1555 0 88.3072 13.2152 1167 61.6238 766.01 535.262
1556 0 90.2357 13.8083 1246 61.3154 765.733 533.644
1557 0 94.3509 12.7185 1200 62.4925 765.452 532.884
1558 1 50.515 10.4523 528 62.7557 765.841 555.004
1559 0 50.3301 11.7425 591 63.1472 766.299 552.046
1560 0 52.2892 11.9528 625 62.712 765.779 552.651
1561 0 56.3948 11.7564 663 61.9653 765.908 551.629
1562 0 57.3092 11.8829 681 62.5154 765.499 550.843
1563 0 57.2634 12.6084 722 62.2161 765.648 550.99
1564 0 59.366 12.3134 731 62.9179 765.867 549.029
1565 0 59.2953 13.34 791 62.4766 764.943 548.547
1566 0 62.2139 12.2481 762 63.8556 764.852 546.323
1567 0 64.3854 13.2173 851 62.0541 764.152 546.049
1568 0 66.262 12.4053 822 63.399 763.946 546.393
1569 0 68.1872 13.0523 890 63.1191 764.336 543.893
1570 0 69.3071 13.7648 954 62.566 763.8 544.873
1571 0 72.4261 12.3298 893 63.6719 764.031 544.176
1572 0 74.4288 13.0729 973 63.0925 763.859 542.68
1573 0 77.4976 13.6262 1056 62.5265 763.769 539.982
1574 0 77.5871 13.3527 1036 63.8002 764.393 538.951
1575 0 82.5334 13.2552 1094 63.5018 764.228 538.389
1576 0 84.4945 12.9358 1093 63.8692 764.254 537.145
1577 0 88.5668 13.7975 1222 62.8314 764.517 533.357
1578 0 91.4279 13.5735 1241 63.3707 764.178 532.873
1579 0 92.5922 13.8025 1278 63.4507 763.251 530.073
1580 0 97.38 13.3292 1298 64.1217 763.432 530.99
1581 0 100.417 13.2249 1328 64.2779 763.496 528.527
1582 0 101.251 13.59 1376 64.3801 763.567 526.568
1583 1 55.219 11.0832 612 64.8268 763.528 551.869
1584 0 56.1178 12.2777 689 63.2148 764.023 551.269
1585 0 59.1574 12.4414 736 62.6155 764.164 549.716
1586 0 62.08 13.2732 824 61.9235 763.542 549.127
1587 0 64.0704 12.0961 775 63.2632 763.586 548.063
1588 0 65.0684 12.4023 807 62.9938 762.85 547.24
1589 0 69.11 13.0083 899 61.2825 762.438 547.276
1590 0 72.1819 13.6322 984 60.31 762.752 543.407
1591 0 72.13 13.0182 939 61.1384 763.471 544.023
1592 0 74.1683 12.6469 938 62.2804 763.943 541.824
1593 0 78.3116 13.3441 1045 60.6517 764.229 542.821
1594 0 80.1473 13.2007 1058 60.3894 763.528 539.261
1595 0 82.2368 13.5827 1117 60.3124 763.955 539
1596 0 82.2368 13.5584 1115 163.077 764.955 539.005
1597 0 86.1408 13.3851 1153 60.6999 764.322 536.661
1598 0 90.1848 12.7516 1150 61.4843 764.611 533.542
1599 0 93.143 13.7316 1279 60.0117 764.279 533.141
1600 0 96.2214 13.4689 1296 61.1181 764.567 531.139
1601 1 56.1832 11.3735 639 60.6526 763.969 551.214
1602 0 59.0271 11.5032 679 60.5552 764.121 550.296
1603 0 58.092 11.5162 669 61.1779 764.021 550.064
1604 0 61.054 12.4644 761 60.544 763.989 547.736
1605 0 62.0684 12.5346 778 60.8676 764.306 547.234
1606 0 66.0627 13.1996 872 59.5665 764.317 544.783
1607 0 68.1235 13.2113 900 59.7933 765.41 545.118
1608 0 68.1125 13.2134 900 60.3411 765.337 544.66
1609 0 73.0555 13.1407 960 59.8427 765.485 542.681
1610 0 75.0625 12.816 962 60.683 765.449 540.58
1611 0 75.1921 13.3392 1003 59.8345 766.779 536.436
1612 0 79.3426 13.4354 1066 60.2908 766.582 536.443
1613 0 80.0949 13.2593 1062 61.0311 767.147 535.831
1614 0 85.1228 14.1913 1208 59.8088 767.057 536.296
1615 0 86.166 13.2767 1144 60.8531 767.021 532.767
1616 0 90.1512 13.91 1254 60.1292 767.585 530.853
1617 1 49.2116 11.5217 567 60.8642 767.857 552.014
1618 0 50.1553 11.7435 589 61.0034 768.414 551.9
1619 0 51.1829 11.625 595 61.4 768.42 550.667
1620 0 54.0923 12.5341 678 60.8746 768.588 549.733
1621 0 53.0194 13.7308 728 60.7198 769.338 547.683
1622 0 56.071 13.1976 740 61.1689 769.254 547.816
1623 0 58.1687 12.8591 748 61.7366 769.301 546.564
1624 0 59.0703 13.8479 818 60.8814 769.709 544.672
1625 0 61.1747 13.96 854 60.6593 769.652 543.417
1626 0 62.1464 13.4199 834 61.8022 769.629 542.724
1627 0 63.3113 13.8364 876 61.0411 769.435 541.951
1628 0 66.2979 14.1633 939 60.9084 769.784 540.687
1629 0 68.2512 14.2708 974 61.654 771.009 539.463
1630 0 70.299 14.1965 998 61.5361 770.527 539.862
1631 0 72.1234 13.8374 998 62.0431 770.32 539.85
1632 0 73.1983 13.8938 1017 62.8328 770.375 539.746
1633 0 75.4411 14.2495 1075 62.8214 770.102 535.758
1634 0 77.2632 14.237 1100 63.3764 770.207 534.549
1635 0 78.1492 14.242 1113 63.894 770.217 534.998
1636 0 82.3035 15.3213 1261 62.9033 770.408 533.142
1637 0 84.2393 14.8387 1250 63.6224 770.221 532.591
1638 0 86.2202 14.463 1247 65.0233 770.213 531.251
1639 0 91.137 14.5495 1326 65.3243 769.817 529.837
1640 0 93.2375 14.3183 1335 65.9041 769.694 528.602
1641 1 47.1263 12.1376 572 67.8304 770.497 548.893
1642 0 47.0489 12.0513 567 66.425 770.233 549.263
1643 0 51.0997 11.7222 599 66.3639 769.933 551.087
1644 0 51.1496 12.4537 637 65.7143 769.889 549.954
1645 0 53.0379 12.7833 678 66.413 770.096 548.181
1646 0 55.0672 13.8739 764 65.2919 769.873 546.661
1647 0 55.1342 13.712 756 66.6574 769.878 545.995
1648 0 57.0408 13.464 768 67.2799 769.43 544.883
1649 0 60.0543 13.621 818 66.4645 769.165 544.709
1650 0 63.0939 13.7731 869 66.3303 769.07 542.444
1651 0 66.1442 13.274 878 66.7096 768.617 541.46
1652 0 66.0883 13.6787 904 66.8341 768.742 540.164
1653 0 70.2872 13.6725 961 66.4246 768.707 539.424
1654 0 72.1462 13.237 955 66.8262 768.817 538.036
1655 0 74.194 13.9634 1036 65.3716 767.99 537.907
1656 0 77.1024 12.9438 998 66.6443 767.728 536.527
1657 1 42.0578 12.2213 514 65.0953 767.64 552.481
1658 0 43.0113 11.6481 501 65.1637 768.345 551.567
1659 0 46.1181 11.3621 524 64.2271 767.689 550.737
1660 0 47.069 12.5985 593 64.1821 767.337 549.87
1661 0 50.1281 13.1463 659 62.8968 767.558 549.493
1662 0 52.1428 12.9836 677 63.4697 767.508 547.409
1663 0 53.0363 13.2739 704 62.7514 767.099 548.489
1664 0 55.1068 13.374 737 62.654 766.826 548.191
1665 0 55.0527 13.5325 745 63.1221 766.949 547.365
1666 0 57.1645 13.4174 767 62.8188 766.625 545.492
1667 0 58.2313 13.0514 760 62.3184 766.659 545.559
1668 0 62.0972 13.9137 864 60.2326 766.528 544.257
1669 0 63.0739 13.7141 865 61.1549 766.572 543.88
1670 0 67.1179 14.1691 951 60.2513 766.386 542.516
1671 0 68.056 14.0913 959 60.243 766.592 541.046
1672 0 70.104 13.7653 965 59.8021 766.607 542.2
1673 0 73.1289 13.7565 1006 59.9622 766.129 539.808
1674 0 75.0291 13.0483 979 60.6639 766.27 538.752
1675 1 41.058 11.9587 491 59.5275 765.646 555.796
1676 0 41.0764 11.8316 486 59.107 765.953 555.944
1677 0 40.0144 10.6212 425 60.5624 765.732 557.179
1678 0 41.106 11.7744 484 60.2004 764.965 555.647
1679 0 45.1459 12.6479 571 58.3012 764.912 553.609
1680 0 46.2 12.4459 575 59.2922 765.16 554.414
1681 0 47.1801 12.3357 582 59.146 765.478 554.165
1682 0 48.1727 11.5833 558 60.2885 765.514 552.158
1683 0 52.1506 13.3076 694 57.415 765.403 552.055
1684 0 52.1254 13.0071 678 56.9469 766.193 550.698
1685 0 53.1431 12.6263 671 58.2534 765.569 549.724
1686 0 53.0788 12.5851 668 58.1512 765.223 549.488
1687 0 55.0904 12.8153 706 57.7606 764.933 549.39
1688 0 58.1994 13.1101 763 57.0891 765.183 548.471
1689 0 58.1212 13.0589 759 57.4664 765.033 547.519
1690 0 60.1476 12.4859 751 57.98 764.754 546.888
1691 0 62.1019 13.1397 816 57.4498 764.332 546.636
1692 0 64.0399 13.2418 848 57.092 764.416 544.061
1693 0 67.2314 13.7138 922 56.7039 764.018 544.211
1694 0 68.1652 13.3939 913 57.2837 764.207 542.984
1695 0 72.1622 13.9408 1006 56.5388 764.064 541.949
1696 0 75.2372 13.1717 991 57.1826 763.993 541.698
1697 1 37.0675 10.7102 397 59.5113 764.058 558.224
1698 0 42.0416 11.3221 476 57.9706 763.935 556.775
1699 0 42.0272 10.9453 460 58.3435 763.867 557.73
1700 0 44.0441 11.2841 497 58.2254 764.131 556.461
1701 0 46.0243 12.4282 572 57.2605 763.79 555.99
1702 0 46.0917 12.1714 561 58.1087 763.845 554.114
1703 0 48.0383 12.719 611 57.1637 763.982 552.646
1704 0 49.1349 11.9263 586 59.3328 762.647 553.295
1705 0 51.0988 12.6422 646 58.7895 762.646 554.751
1706 0 53.1401 12.8528 683 58.4671 762.041 553.471
1707 0 54.1655 12.628 684 59.3348 762.686 551.833
1708 0 56.0554 13.2191 741 58.6734 762.773 549.706
1709 0 60.0984 13.1118 788 58.368 762.995 549.476
1710 0 60.0536 12.7553 766 59.3133 762.713 549.228
1711 0 61.143 13.3948 819 59.4847 763.325 548.987
1712 0 64.1538 14.1691 909 58.1881 763.095 547.74
1713 0 66.0596 14.3355 947 57.9219 763.352 548.563
1714 0 67.0549 13.8394 928 59.0302 763.816 545.745
1715 0 68.0813 13.7923 939 59.6794 764.135 545.292
1716 0 71.1765 14.3025 1018 59.3576 764.197 543.664
1717 0 72.2326 13.4842 974 60.7259 764.739 542.321
1718 0 75.0416 13.6058 1021 60.3467 765.276 540.822
1719 0 78.2346 14.0091 1096 60.3485 765.05 538.38
1720 0 82.2855 15.2275 1253 58.7989 764.904 536.828
1721 0 84.4398 14.7916 1249 59.8751 765.675 534.318
1722 0 87.1552 14.4455 1259 60.5496 765.276 534.224
1723 1 45.2572 10.606 480 62.8188 765.604 556.644
1724 0 47.1933 11.8873 561 62.3761 765.656 554.034
1725 0 49.0469 12.1312 595 61.3966 765.494 554.529
1726 0 49.0306 11.4214 560 63.6304 765.446 553.602
1727 0 51.1726 13.132 672 62.25 765.143 553.522
1728 0 54.143 13.2427 717 61.5927 765.569 552.653
1729 0 53.0863 12.6586 672 62.5565 765.506 552.964
1730 0 56.0715 13.2866 745 61.098 765.387 551.357
1731 0 59.065 14.0523 830 59.8169 765.655 549.776
1732 0 60.0741 13.6498 820 60.5622 765.868 549.194
1733 0 60.1824 13.9908 842 60.3931 766.157 547.904
1734 0 59.051 12.7348 752 63.2367 766.939 548.21
1735 0 63.1332 12.6875 801 63.382 767.437 546.235
1736 0 65.1674 13.7339 895 63.5899 767.246 544.701
1737 0 67.1173 13.5286 908 64.4692 767.079 544.232
1738 0 70.076 13.2142 926 64.9179 767.624 542.772
1739 0 73.1125 13.9374 1019 63.897 767.649 541.664
1740 0 74.1039 13.751 1019 64.3592 768.011 539.355
1741 0 77.1228 13.4461 1037 64.7097 769.528 536.313
1742 0 79.229 12.9498 1026 65.2271 768.789 535.485
1743 0 83.2255 13.2892 1106 64.3074 768.928 534.467
1744 1 45.1425 11.3419 512 62.4219 769.48 555.189
1745 0 43.0726 11.9333 514 63.5486 769.78 554.091
1746 0 46.0369 12.5551 578 63.0536 769.844 552.074
1747 0 47.2402 12.4682 589 62.9762 769.212 550.985
1748 0 50.1269 12.7277 638 62.1755 770.121 550.647
1749 0 51.1142 12.5797 643 62.7636 770.277 551.916
1750 0 52.1044 12.6477 659 62.7936 770.434 548.713
1751 0 53.186 13.669 727 62.4594 770.887 548.088
1752 0 56.1033 12.8691 722 63.3186 771.36 546.81
1753 0 57.1217 13.8126 789 62.1001 770.978 546.638
1754 0 59.017 13.2165 780 63.0141 770.823 545.895
1755 0 61.0246 13.7322 838 62.5095 770.691 544.785
1756 0 63.1032 13.3432 842 63.4477 770.897 544.633
1757 0 65.1104 13.623 887 63.1263 770.632 544.989
1758 0 65.0321 13.2704 863 64.387 770.663 543.167
1759 0 68.058 13.3856 911 64.8913 770.732 541.424
1760 0 70.0353 13.1362 920 65.5522 770.41 540.895
1761 0 72.0351 13.3962 965 65.2663 770.483 540.063
1762 1 40.0621 10.2591 411 65.7348 770.65 555.99
1763 0 42.0888 11.1431 469 62.9723 771.409 554.228
1764 0 44.0626 11.0978 489 63.2556 770.524 555.074
1765 0 43.0252 11.4816 494 63.9899 770.441 552.767
1766 0 47.0747 12.2146 575 62.6591 770.449 551.513
1767 0 49.075 12.4503 611 62.3322 770.36 550.543
1768 0 49.0588 12.2914 603 63.3499 770.703 549.075
1769 0 50.2147 13.3228 669 63.5979 769.544 550.224
1770 0 53.1978 13.3652 711 62.0914 769.675 549.771
1771 0 52.2654 13.0679 683 63.7028 769.047 548.69
1772 0 54.2005 13.5608 735 64.0381 769.154 548.287
1773 0 56.2189 12.985 730 64.7041 768.611 547.149
1774 0 58.2238 13.3451 777 63.7658 768.447 546.598
1775 0 60.1945 13.4398 809 62.8838 768.564 545.752
1776 0 60.2426 12.7983 771 65.131 767.9 545.72
1777 0 63.2295 13.3798 846 63.9314 768.057 543.284
1778 0 66.1689 13.5109 894 63.481 768.032 543.747
1779 0 69.1692 14.1971 982 62.2821 768.922 543.488
1780 0 70.1999 13.2906 933 63.5927 768.689 541.571
1781 0 73.273 13.3746 980 62.9643 768.233 540.436
1782 0 76.2705 12.7703 974 63.5667 768.661 538.01
1783 0 77.2944 13.0928 1012 63.5919 768.448 537.453
1784 0 82.2651 13.1526 1082 62.2024 768.36 536.278
1785 0 84.1643 13.4024 1128 61.8874 768.109 535.754
1786 0 87.173 13.1463 1146 62.3168 768.234 533.249
1787 1 47.2022 10.2326 483 63.2319 767.495 554.687
1788 0 49.1055 12.1575 597 61.6013 767.281 552.68
1789 0 51.1827 12.6019 645 61.3721 766.735 551.318
1790 0 52.1112 12.3966 646 61.7601 766.827 551.413
1791 0 53.2175 12.3456 657 62.2603 766.454 551.041
1792 0 56.1221 13.3281 748 61.4051 766.213 548.873
1793 0 59.1736 13.1478 778 61.1093 766.635 549.907
1794 0 61.3559 12.9572 795 60.9069 766.642 548.37
1795 0 61.1955 13.1219 803 61.6301 766.337 547.125
1796 0 64.3233 12.9968 836 61.2608 766.583 546.545
1797 0 64.3233 13.0279 838 156.958 766.585 546.523
1798 0 69.2259 13.5498 938 60.2143 766.036 545.115
1799 0 69.218 13.3636 925 61.0465 766.019 544.77
1800 0 71.3172 13.489 962 61.0135 765.544 543.368
1801 0 73.2577 13.2955 974 61.7207 765.358 541.328
1802 0 75.1688 14.0883 1059 60.5515 765.698 540.851
1803 0 78.2525 13.367 1046 61.74 765.685 539.616
1804 0 79.2896 13.4192 1064 62.3825 765.851 537.905
1805 0 83.4148 13.5348 1129 62.5412 765.679 537.774
1806 0 87.3758 13.894 1214 61.1417 765.442 536.818
1807 0 90.373 13.8758 1254 61.7799 765.238 532.931
1808 1 49.1749 10.9609 539 63.6494 765.416 553.929
1809 0 50.2441 11.464 576 63.6319 765.807 554.444
1810 0 49.3075 11.2356 554 64.2094 765.276 554.829
1811 0 52.2341 12.1185 633 63.6477 766.147 553.935
1812 0 56.2306 13.249 745 61.7436 765.619 553.482
1813 0 55.1269 12.5528 692 63.5564 765.561 550.669
1814 0 57.1649 12.5952 720 64.2153 766.253 551.417
1815 0 59.1703 12.9457 766 63.5065 766.527 551.196
1816 0 61.2095 13.609 833 62.6579 766.499 550.381
1817 0 63.2433 13.0449 825 63.5552 766.417 547.722
1818 0 64.2494 13.5877 873 62.9061 766.45 546.566
1819 0 65.2243 13.0933 854 64.2237 766.214 546.026
1820 0 68.2279 13.2057 901 63.9356 766.85 544.566
1821 0 72.1976 13.8786 1002 62.4072 766.593 543.077
1822 0 72.1976 13.8647 1001 169.848 765.584 543.076
1823 0 74.1373 13.7717 1021 63.0989 766.559 540.732
1824 0 75.1605 13.9169 1046 62.8767 766.526 539.951
1825 0 80.1424 14.3495 1150 61.8174 766.767 539.047
1826 0 83.0825 14.3111 1189 61.5568 766.526 537.944
1827 0 85.2499 14.3578 1224 61.5678 766.451 536.682
1828 0 87.2032 14.2197 1240 62.0298 766.565 534.662
1829 0 89.1499 14.6046 1302 61.3372 766.72 533.551
1830 0 92.1639 14.7889 1363 60.7564 767.339 530.811
1831 0 94.2218 14.3916 1356 61.5782 767.617 529.431
1832 0 99.3214 14.1259 1403 61.4633 767.497 527.169
1833 0 103.332 15.7551 1628 58.7033 767.865 525.084
1834 0 106.266 13.9932 1487 60.8036 767.966 524.097
1835 1 55.157 12.2015 673 61.2452 767.582 550.334
1836 0 56.2433 11.5214 648 61.091 767.642 549.787
1837 0 57.2695 12.6769 726 59.9986 767.806 547.887
1838 0 58.0993 12.6335 734 60.3542 768.591 546.702
1839 0 63.1409 14.0479 887 58.274 768.894 546.994
1840 0 64.0465 13.5683 869 59.0219 769.128 544.666
1841 0 65.1906 13.3608 871 59.3375 769.132 544.3
1842 0 68.2511 14.0071 956 58.796 769.152 541.209
1843 0 69.2005 13.2802 919 59.5582 769.856 541.223
1844 0 74.1849 13.709 1017 58.4159 770.16 538.686
1845 0 76.5197 13.4736 1031 58.9922 769.619 539.844
1846 0 78.2348 13.7023 1072 58.9496 769.888 537.296
1847 0 82.2149 13.635 1121 58.2257 770.281 536.509
1848 0 84.296 14.2237 1199 57.9024 770.023 533.056
1849 0 88.2511 14.5154 1281 57.0945 770.179 531.294
1850 0 89.3682 14.0095 1252 57.8954 770.323 532.284
1851 0 92.3179 13.681 1263 58.2003 770.566 530.855
1852 0 95.3327 14.4966 1382 57.3155 770.809 528.709
1853 1 51.1825 11.078 567 58.5414 770.48 550.332
1854 0 52.0975 11.7856 614 55.8583 770.493 550.534
1855 0 54.0375 11.529 623 56.1236 770.421 549.177
1856 0 58.0798 12.0696 701 55.3452 770.408 546.944
1857 0 59.17 13.4697 797 53.8507 770.46 545.08
1858 0 59.0563 12.9707 766 54.6684 770.089 545.991
1859 0 61.08 12.7538 779 54.38 770.798 544.917
1860 0 64.0545 12.9421 829 54.3185 770.593 544.176
1861 0 65.3075 13.5972 888 53.6227 770.735 542.864
1862 0 68.1923 13.1833 899 54.4238 770.242 540.91
1863 0 69.1294 12.5128 865 55.2486 770.008 541.518
1864 0 72.3489 13.6146 985 54.403 769.882 539.701
1865 0 76.2598 13.0868 998 54.5591 769.306 539.133
1866 0 75.3324 14.071 1060 54.5406 768.843 538.599
1867 0 78.3679 14.266 1118 54.3301 769.059 538.023
1868 0 81.2174 13.9995 1137 54.7898 769.288 537.157
1869 0 83.2706 13.9425 1161 55.2532 769.052 534.2
1870 0 85.3517 13.626 1163 55.9802 769.752 533.205
1871 0 89.392 14.0729 1258 54.8092 769.572 531.211
1872 0 90.394 14.3925 1301 54.8686 769.571 529.359
1873 0 91.4299 13.8576 1267 56.0008 769.642 529.576
1874 0 96.4217 14.0217 1352 55.7959 769.335 527.226
1875 1 52.2923 11.5313 603 56.398 769.103 549.444
1876 0 52.1466 12.0813 630 57.1937 769.076 549.498
1877 0 54.1372 11.9511 647 56.932 768.856 548.368
1878 0 57.1235 12.5342 716 55.8282 768.98 548.694
1879 0 57.0899 12.8569 734 56.2711 768.446 546.361
1880 0 61.0913 12.7678 780 56.1103 767.569 545.381
1881 0 63.0517 12.7832 806 55.9566 768.958 544.711
1882 0 63.0517 12.8149 808 169.098 769.957 544.705
1883 0 69.1352 13.4808 932 55.3305 768.329 542.327
1884 0 68.2228 13.3533 911 56.1658 768.018 540.933
1885 0 72.0791 13.1106 945 56.7831 767.623 540.568
1886 0 74.0917 13.7937 1022 56.2681 767.686 539.388
1887 0 75.1387 12.5501 943 58.3468 767.34 539.955
1888 0 81.1322 13.25 1075 56.4447 766.708 537.638
1889 0 81.2581 13.8202 1123 56.7863 766.756 535.46
1890 0 83.2152 13.1226 1092 57.6328 765.817 533.444
1891 0 88.2436 13.9274 1229 56.2571 766.18 531.286
1892 1 49.0916 11.061 543 56.9227 765.825 552.939
1893 0 47.0464 12.3495 581 56.6299 766.303 550.8
1894 0 48.1324 11.0113 530 58.1887 766.236 552.291
1895 0 49.0605 11.6795 573 57.6405 765.916 550.302
1896 0 51.0309 12.6982 648 56.5309 767.35 552.208
1897 0 53.228 13.0383 694 56.6758 767.507 551.174
1898 0 56.1053 13.9916 785 55.8777 765.922 550.78
1899 0 57.2038 13.2509 758 56.6715 765.722 550.327
1900 0 57.0769 13.3329 761 56.9304 765.443 549.248
1901 0 62.222 13.2108 822 56.1776 764.989 549.759
1902 0 62.1719 13.2214 822 57.0693 765.422 547.579
1903 0 65.0806 13.7829 897 57.1538 764.864 546.151
1904 0 66.2056 13.3523 884 57.81 764.864 546.069
1905 0 69.1434 13.3925 926 57.9395 764.586 544.221
1906 0 73.163 13.1761 964 57.5726 763.99 544.892
1907 0 76.2476 13.7578 1049 57.1659 764.054 541.544
1908 1 40.0587 11.0837 444 59.0473 764.671 560.113
1909 0 41.0406 11.6957 480 57.8354 764.246 560.454
1910 0 42.1062 12.0647 508 58.4705 764.055 558.927
1911 0 44.0811 11.8872 524 59.0573 764.349 558.26
1912 0 45.0315 11.7695 530 59.6057 764.375 557.421
1913 0 48.0313 11.9505 574 58.9355 764.441 556.552
1914 0 47.2325 13.7617 650 58.3508 763.874 557.235
1915 0 50.4339 12.5114 631 60.2631 763.542 555.244
1916 0 49.3684 13.0043 642 60.6075 764.044 555.654
1917 0 52.3006 12.4664 652 60.9877 763.468 555.087
1918 0 54.1687 13.4764 730 59.5151 763.152 553.642
1919 0 56.1833 13.1712 740 61.3622 763.318 552.696
1920 0 57.1493 13.666 781 61.2407 764.917 552.008
1921 0 57.3316 13.4132 769 62.8401 764.401 550.035
1922 0 61.1703 13.0456 798 62.5013 764.533 549.856
1923 0 61.129 13.4143 820 63.3634 763.944 549.457
1924 0 64.1384 13.8139 886 62.193 764.011 547.876
1925 0 64.0865 13.6534 875 63.2834 763.385 547.913
1926 0 66.2337 13.6034 901 63.0033 763.219 547.772
1927 0 67.1711 13.607 914 64.6214 763.79 546.115
1928 0 69.2701 13.9887 969 63.8101 763.428 544.669
1929 0 72.232 14.2735 1031 63.2619 763.156 542.946
1930 0 74.1385 14.6483 1086 63.3057 763.14 542.151
1931 0 76.282 13.5812 1036 65.3176 763.537 541.797
1932 0 78.0999 14.1101 1102 64.7486 763.671 541.268
1933 0 83.1475 14.0594 1169 64.1369 763.027 540.474
1934 0 82.1996 14.3066 1176 64.7355 763.365 537.954
1935 0 87.1688 13.927 1214 65.2133 763.18 535.791
1936 1 46.0444 10.6636 491 65.5906 763.623 559.695
1937 0 47.104 11.8674 559 65.9034 763.76 556.193
1938 0 49.0973 13.2594 651 63.8264 764.015 555.934
1939 0 49.0621 12.7593 626 65.1789 763.883 555.291
1940 0 51.2011 12.8122 656 65.2088 764.511 554.131
1941 0 53.108 12.4275 660 66.2348 764.538 554.808
1942 0 54.0963 13.476 729 64.5528 764.889 553.461
1943 0 55.0483 13.1157 722 65.7742 765.025 551.273
1944 0 57.1238 13.6896 782 63.4987 765.006 550.977
1945 0 58.0966 13.7013 796 63.5289 765.041 550.521
1946 0 60.1503 13.9983 842 62.7708 765.549 548.833
1947 0 61.1829 13.811 845 63.0059 764.993 548.452
1948 0 64.1684 14.0568 902 62.3503 764.981 546.804
1949 0 65.0918 14.2568 928 62.3879 764.908 546.372
1950 0 68.1951 13.7693 939 62.7348 765.066 545.389
1951 0 69.1854 14.0637 973 62.8931 765.394 544.062
1952 0 73.0445 14.7444 1077 60.7799 765.658 544.231
1953 0 74.1001 13.7922 1022 62.9198 766.012 541.25
1954 0 77.213 15.7486 1216 60.273 765.981 541.537
1955 0 77.1666 14.0864 1087 62.92 766.103 540.558
1956 0 82.3196 13.9942 1152 62.3038 766.551 539.279
1957 0 84.1494 14.8189 1247 60.5068 766.709 537.862
1958 0 85.1444 14.7514 1256 61.4666 766.651 534.322
1959 0 88.1359 14.5344 1281 61.1116 766.984 534.497
1960 0 91.0828 14.5582 1326 61.1041 766.946 531.821
1961 0 94.1727 14.1336 1331 61.2261 766.815 530.453
1962 0 99.2827 14.4436 1434 60.0739 766.348 531.194
1963 0 101.166 13.7893 1395 61.1362 766.735 527.966
1964 1 57.0552 11.9709 683 61.3455 766.572 549.199
1965 0 60.1742 13.1452 791 59.9102 766.374 547.997
1966 0 62.1328 12.4411 773 60.6248 766.986 547.581
1967 0 62.0837 13.5946 844 59.9656 767.48 546.049
1968 0 64.0814 12.9523 830 59.7928 768.093 545.551
1969 0 67.178 13.427 902 59.265 768.175 543.702
1970 0 69.1063 13.1681 910 59.9187 768.741 541.173
1971 0 72.1829 13.6875 988 59.4798 768.768 540.431
1972 0 74.1726 13.6438 1012 59.4585 768.736 539.539
1973 0 77.2411 13.0242 1006 60.1153 769.076 539.058
1974 0 81.1867 14.3127 1162 58.3787 769.332 536.854
1975 0 82.1175 13.6877 1124 59.8265 770.1 535.04
1976 0 85.3276 13.7822 1176 59.9082 770.137 531.943
1977 0 87.1351 13.5422 1180 60.7602 769.626 532.009
1978 0 91.0506 13.8494 1261 60.3267 769.998 531.703
1979 0 94.2021 14.3733 1354 59.6455 769.845 530.443
1980 0 97.2454 14.304 1391 59.9612 769.871 526.669
1981 1 51.0907 11.2545 575 61.2296 769.847 549.623
1982 0 53.1506 11.6085 617 60.7002 770.024 549.652
1983 0 53.0903 12.0361 639 61.4773 770.152 548.016
1984 0 55.0785 13.1449 724 60.8052 770.337 546.123
1985 0 57.0951 12.9258 738 61.0542 770.05 544.645
1986 0 60.1118 13.5747 816 59.6397 770.467 545.371
1987 0 61.1629 13.5867 831 61.0397 770.243 545.054
1988 0 63.1643 13.6786 864 61.1481 770.053 544.289
1989 0 63.2307 12.6679 801 62.1199 769.759 543.424
1990 0 67.0544 13.929 934 60.3233 769.883 541.459
1991 0 68.0617 14.1342 962 60.8825 770.19 541.142
1992 0 69.3 14.0404 973 60.8335 770.417 540.937
1993 0 73.1465 15.0383 1100 59.5773 769.675 539.245
1994 0 74.2379 14.3188 1063 60.6369 769.209 537.863
1995 0 77.0864 13.9454 1075 61.1144 769.067 537.671
1996 0 79.2454 14.0576 1114 61.132 768.879 536.557
1997 0 83.1124 14.1856 1179 60.8372 768.57 534.173
1998 0 84.1972 13.7178 1155 61.6736 768.861 534.295
1999 0 87.1346 14.5751 1270 60.6945 768.971 532.22
2000 0 91.2389 14.2264 1298 61.1579 769.82 531.193
2001 0 94.3817 13.9964 1321 61.5185 769.394 527.961
2002 1 52.0956 11.0374 575 62.7826 768.525 551.003
2003 0 54.098 11.9967 649 61.9584 768.316 550.669
2004 0 53.1233 13.1581 699 61.6052 768.455 549.342
2005 0 58.0763 13.2928 772 61.0168 767.807 548.556
2006 0 58.1762 13.3216 775 62.1639 767.796 546.852
2007 0 59.076 12.9494 765 62.9634 767.793 546.103
2008 0 62.3099 12.839 800 62.0375 767.271 545.783
2009 0 65.0917 13.9035 905 60.8221 767.265 543.939
2010 0 67.1546 13.9082 934 61.0921 768.09 542.181
2011 0 69.1145 13.89 960 61.2188 768.034 542.138
2012 0 70.1082 13.6931 960 61.8458 767.661 540.781
2013 0 72.0822 13.6927 987 61.926 767.736 540.166
2014 0 74.1261 14.3674 1065 61.2592 767.374 539.008
2015 0 78.1181 14.7981 1156 60.2587 766.804 536.896
2016 0 79.1981 13.7124 1086 62.0322 766.445 538.114
2017 0 81.2207 14.3806 1168 61.8707 766.479 535.189
2018 0 85.1381 14.8582 1265 60.7257 766.623 535.648
2019 0 86.2876 14.4285 1245 61.7888 767.222 533.382
2020 0 90.2092 14.544 1312 61.4062 766.977 532.865
2021 0 93.1421 15.5354 1447 60.7941 767.346 530.905
2022 0 96.1209 14.2425 1369 62.718 767.538 530.417
2023 0 98.2187 14.6204 1436 62.3914 767.427 529.581
2024 0 102.073 15.0676 1538 62.1612 767.36 526.415
2025 1 53.2333 11.891 633 65.0316 766.771 551.611
2026 0 55.0644 12.5126 689 63.4035 766.512 550.9
2027 0 57.0627 12.6703 723 63.1992 766.072 549.444
2028 0 59.1291 13.868 820 61.3744 766.506 551.087
2029 0 59.0214 12.8767 760 64.1 766.093 548.408
2030 0 63.1159 13.8317 873 61.9805 766.159 547.18
2031 0 64.1702 13.3863 859 63.6903 766.354 546.645
2032 0 64.1031 13.3535 856 64.903 767.4 546.513
2033 0 69.123 13.9896 967 63.7353 766.643 544.696
2034 0 71.1922 14.2853 1017 63.705 766.65 543.609
2035 0 71.2007 14.8734 1059 63.9877 766.505 542.483
2036 0 73.0425 13.5811 992 65.9748 766.28 541.11
2037 0 75.1514 14.2512 1071 65.4482 766.416 541.316
2038 0 79.1346 14.3174 1133 65.5119 766.385 538.823
2039 0 80.1853 14.0674 1128 65.9388 766.116 539.658
2040 0 85.1042 14.2884 1216 65.0181 766.053 538.995
2041 0 86.2127 14.325 1235 65.3441 765.874 537.136
2042 0 90.1191 14.1479 1275 64.9325 765.952 537.747
2043 0 91.3881 14.6518 1339 64.6714 766.108 534.35
2044 0 94.1517 14.4766 1363 65.1636 765.635 531.745
2045 0 97.2525 14.8479 1444 64.7064 765.238 532.34
2046 0 98.0981 14.0472 1378 66.1865 766.021 531.131
2047 1 54.0461 11.6012 627 66.2297 765.628 555.029
2048 0 55.0845 11.909 656 66.0899 765.962 553.168
2049 0 55.0688 11.7126 645 66.5457 764.6 552.763
2050 0 58.1353 12.1441 706 65.9278 764.222 551.962
2051 0 60.1675 13.4458 809 64.419 764.041 549.031
2052 0 63.1486 13.6345 861 64.2253 765.102 549.195
2053 0 64.1547 13.3428 856 65.7348 764.511 547.137
2054 0 67.2458 13.8299 930 66.9505 764.549 547.359
2055 0 69.1207 13.8019 954 66.8816 764.627 546.263
2056 0 71.0969 13.8262 983 66.9308 764.425 545.555
2057 0 73.1607 13.8872 1016 67.8907 764.672 543.698
2058 0 76.2643 14.2662 1088 67.0294 764.222 543.418
2059 0 79.1504 13.9355 1103 67.9012 764.458 542.257
2060 0 81.1413 14.4686 1174 67.6065 764.091 538.768
2061 0 83.0909 13.8643 1152 68.7752 764.136 538.429
2062 0 87.1672 14.4435 1259 67.5735 763.98 536.724
2063 1 44.1723 11.2967 499 70.9118 763.423 557.96
2064 0 48.1146 11.8883 572 69.9948 763.233 555.948
2065 0 49.233 13.365 658 67.9757 763.757 555.815
2066 0 50.1175 13.6479 684 68.3611 763.908 555.227
2067 0 52.2368 13.9174 727 67.879 764.318 553.769
2068 0 54.0917 12.9595 701 69.5863 764.282 554.344
2069 0 56.0969 14.4571 811 67.5475 764.469 552.794
2070 0 58.0471 13.7647 799 68.4844 763.885 551.085
2071 0 59.3353 13.4658 799 69.3367 763.985 549.681
2072 0 62.2315 13.7551 856 70.1589 764.584 548.085
2073 0 64.1806 13.5088 867 70.4591 764.912 548.099
2074 0 68.3599 13.5313 925 69.787 764.785 546.425
2075 0 70.2411 14.6068 1026 67.8528 764.498 545.521
2076 0 70.2094 12.8473 902 71.4978 764.85 544.836
2077 0 72.2543 13.3418 964 71.4295 764.612 544.217
2078 0 74.2805 14.3241 1064 70.141 765.223 542.638
2079 0 78.2185 13.718 1073 70.6552 765.335 541.104
2080 0 79.3768 14.1099 1120 70.9527 765.398 537.649
2081 0 82.2813 14.2438 1172 70.2722 765.39 538.857
2082 0 86.2924 15.2389 1315 68.6958 765.548 536.217
2083 0 88.2357 14.5519 1284 69.8972 766.155 536.334
2084 0 92.2187 13.8041 1273 70.8688 766.892 533.943
2085 0 94.6252 13.9815 1323 71.0771 766.224 532.501
2086 0 94.6252 14.0237 1327 175.026 765.234 532.545
2087 1 50.1716 12.4174 623 71.9133 766.637 552.116
2088 0 52.1333 12.8709 671 70.5857 766.818 550.648
2089 0 54.1045 13.5663 734 69.7589 766.92 549.23
2090 0 54.1577 13.9223 754 69.9496 766.891 549.76
2091 0 57.3298 12.8031 734 71.1281 767.203 547.278
2092 0 58.1792 14.06 818 69.621 767.866 546.042
2093 0 60.1437 13.2849 799 70.7284 768.901 544.693
2094 0 62.2826 13.3264 830 70.894 768.863 543.958
2095 0 62.2427 13.11 816 72.1103 769.094 542.762
2096 0 65.4052 13.8674 907 71.204 768.593 540.913
2097 0 67.2556 13.471 906 72.4801 768.748 541.01
2098 0 70.1907 13.2781 932 72.4893 768.865 540.071
2099 0 71.2656 13.8356 986 72.4523 768.576 538.066
2100 0 72.12 13.0754 943 74.3659 768.42 537.242
2101 0 76.3501 13.9882 1068 72.7772 768.405 535.631
2102 0 78.2268 13.3075 1041 74.2469 768.493 533.962
2103 0 80.287 13.4144 1077 74.3677 769.355 533.341
2104 0 84.2529 14.1479 1192 73.198 769.81 533.115
2105 0 85.2486 12.9621 1105 75.5285 770.29 531.737
2106 0 89.3035 13.2918 1187 74.9865 770.453 530.88
2107 0 93.2914 13.7633 1284 73.729 770.44 528.716
2108 0 95.1136 13.3314 1268 74.4621 770.655 528.045
2109 0 98.2345 13.3863 1315 74.9513 770.477 526.569
2110 0 100.202 14.0017 1403 74.3599 770.698 525.396
2111 0 103.246 13.4436 1388 74.938 770.94 523.656
2112 1 60.2417 11.7527 708 73.7373 770.501 545.528
2113 0 59.1571 11.2582 666 75.1577 771.437 546.596
2114 0 63.2694 12.265 776 72.4497 770.773 544.915
2115 0 63.2534 13.1218 830 72.2867 770.288 542.569
2116 0 67.3522 13.4071 903 70.1639 770.856 542.919
2117 0 69.251 13.1406 910 70.3868 770.373 541.629
2118 0 72.2328 14.0103 1012 68.8211 770.083 540.139
2119 0 74.2334 12.9187 959 70.7226 769.663 539.586
2120 0 76.2769 13.8705 1058 69.7807 769.633 537.684
2121 0 78.3407 13.8881 1088 70.3125 769.654 534.942
2122 0 80.1809 13.5319 1085 70.7244 769.511 534.69
2123 0 84.3606 13.3712 1128 71.3936 769.622 533.677
2124 0 87.2797 13.2104 1153 71.7728 769.265 533.394
2125 0 88.2387 13.8261 1220 70.9787 769.041 531.88
2126 0 93.3238 14.1979 1325 70.0128 768.898 531.325
2127 0 94.2227 13.7653 1297 71.6777 768.66 528.786
2128 0 97.2571 13.7368 1336 71.756 768.402 528.233
2129 0 99.2148 13.4859 1338 72.2287 768.141 527.146
2130 0 104.173 13.66 1423 72.052 768.001 525.204
2131 0 107.295 13.8404 1485 71.697 767.597 524.298
2132 1 58.4755 11.2013 655 73.5145 767.771 547.995
2133 0 60.2273 12.6022 759 72.0843 767.37 545.414
2134 0 63.3462 12.7553 808 71.8168 766.868 544.769
2135 0 64.2199 13.7808 885 70.7266 767.02 544.063
2136 0 65.1135 13.2231 861 71.2381 767.246 544.98
2137 0 69.3637 13.5229 938 70.2399 767.78 544.162
2138 0 71.1864 13.6403 971 70.4923 767.557 542.179
2139 0 72.3993 13.8123 1000 70.603 767.039 542.2
2140 0 74.2743 14.3657 1067 70.1172 766.566 540.254
2141 0 75.303 13.5585 1021 71.4349 766.418 540.535
2142 0 75.303 13.6117 1025 165.428 766.41 540.525
2143 0 81.378 14.1439 1151 71.6594 766.35 536.933
2144 0 82.434 14.4115 1188 71.5379 766.492 536.905
2145 0 86.3878 14.1687 1224 71.4109 766.145 534.217
2146 0 89.4042 13.7018 1225 72.089 765.719 534.108
2147 0 89.2911 14.3239 1279 71.9593 766.057 532.378
2148 0 94.2721 14.2142 1340 71.5022 766.084 531.729
2149 0 97.3183 14.3961 1401 71.2934 766.166 530.316
2150 0 102.307 13.8114 1413 71.7049 765.826 527.101
2151 0 105.265 14.2782 1503 71.6188 765.931 526.49
2152 0 107.238 14.7709 1584 70.9937 766.289 523.956
2153 1 59.1774 11.795 698 71.265 767.208 550.271
2154 0 59.1753 11.5082 681 71.2981 767.226 548.552
2155 0 62.1419 11.7956 733 70.4038 766.752 549.49
2156 0 65.1228 13.3287 868 68.3433 766.965 546.069
2157 0 66.131 13.8815 918 67.3889 766.253 545.115
2158 0 69.1086 13.5873 939 67.7508 765.967 544.293
2159 0 70.1143 12.6508 887 69.354 765.981 543.517
2160 0 72.0616 13.3219 960 67.849 765.381 543.077
2161 0 76.0773 12.9868 988 67.6619 765.334 541.212
2162 0 80.2404 14.5937 1171 64.8676 765.297 538.981
2163 0 80.1506 13.6243 1092 67.0064 764.84 538.495
2164 0 83.2505 13.6456 1136 66.7342 764.631 537.616
2165 0 84.1093 13.53 1138 67.3568 764.926 537.625
2166 0 88.2259 13.5561 1196 66.9916 764.922 536.555
2167 0 93.0848 14.1484 1317 66.1845 764.947 535.277
2168 0 94.1579 13.7641 1296 66.669 764.907 534.149
2169 0 97.2611 14.2195 1383 65.624 764.687 533.615
2170 0 100.156 14.1179 1414 65.7645 764.518 530.139
2171 0 103.155 14.6575 1512 64.0675 764.294 530.46
2172 0 107.218 15.1187 1621 64.2437 764.358 526.468
2173 0 109.238 14.0153 1531 65.5807 763.948 526.328
2174 0 113.479 14.0731 1597 65.263 764.073 524.43
2175 0 117.307 14.4834 1699 64.3373 763.909 522.785
2176 0 121.309 15.0112 1821 63.4333 763.783 519.84
2177 0 126.154 14.6646 1850 63.7216 764.003 518.353
2178 0 129.248 14.8862 1924 63.2905 764.944 517.362
2179 0 133.266 15.2778 2036 62.9278 765.239 516.467
2180 0 137.201 14.9124 2046 63.5235 765.006 512.686
2181 0 142.224 14.7163 2093 63.8686 764.874 509.414
2182 1 79.1499 12.748 1009 63.7721 764.666 543.543
2183 0 82.1204 13.0297 1070 63.7785 764.911 540.566
2184 0 85.1706 13.1618 1121 63.5995 764.874 539.606
2185 0 87.1731 13.6739 1192 62.8389 764.897 538.385
2186 0 91.0477 13.9048 1266 62.3017 764.603 536.329
2187 0 93.0742 14.1393 1316 62.3632 765.253 533.672
2188 0 96.0956 14.7457 1417 62.0762 765.135 532.989
2189 0 99.1848 14.0848 1397 62.9721 765.935 532.198
2190 0 101.205 14.357 1453 62.5299 765.465 531.138
2191 0 105.118 14.6883 1544 62.5622 765.831 527.53
2192 0 108.223 14.6827 1589 63.0988 765.746 525.357
2193 0 113.184 15.709 1778 61.2975 766.32 523.655
2194 0 114.337 14.571 1666 63.5378 766.314 519.658
2195 0 120.339 15.0076 1806 62.2879 766.566 517.007
2196 1 63.1383 11.4035 720 65.2486 767.112 545.781
2197 0 67.3436 12.9634 873 63.3517 767.702 542.719
2198 0 69.1593 13.8232 956 63.3588 767.446 540.524
2199 0 72.0846 13.3732 964 63.5498 767.504 542.358
2200 0 74.148 14.3901 1067 62.4948 767.719 539.679
2201 0 76.0921 14.4824 1102 62.7105 768.187 537.801
2202 0 77.1574 13.9455 1076 63.9703 768.178 536.93
2203 0 81.2321 14.1323 1148 63.743 767.885 536.304
2204 0 83.3487 14.0014 1167 64.4584 768.541 534.278
2205 0 85.1815 14.1697 1207 64.6744 767.902 532.426
2206 0 85.1815 14.1815 1208 177.075 766.908 532.418
2207 0 92.1047 14.1361 1302 64.4201 768.197 528.753
2208 0 95.2129 14.5884 1389 64.3132 768.255 527.505
2209 0 95.1934 13.9295 1326 66.2504 767.829 525.947
2210 0 99.2011 14.8083 1469 64.9918 768.424 522.941
2211 0 103.34 14.2056 1468 65.9441 768.469 523.134
2212 0 106.278 14.9137 1585 64.3565 768.613 518.803
2213 0 110.444 13.8984 1535 65.9655 769.237 519.829
2214 1 58.0385 11.4751 666 66.6276 768.911 545.008
2215 0 59.0733 11.9682 707 66.4625 768.9 544.144
2216 0 62.2631 12.5596 782 65.3043 769.074 544.931
2217 0 66.3187 12.9677 860 64.0791 770.206 541.9
2218 0 66.1917 12.207 808 65.4827 769.418 540.894
2219 0 70.3024 13.4561 946 64.0645 770.289 539.799
2220 0 73.2281 13.4238 983 64.1211 770.176 540.508
2221 0 75.2524 13.1291 988 64.8431 769.981 539.29
2222 0 77.252 13.7213 1060 64.2689 769.337 537.01
2223 0 80.1296 13.4407 1077 65.0873 769.511 536.756
2224 0 82.3336 14.0404 1156 64.4213 770.045 536.872
2225 0 86.227 14.427 1244 63.7645 769.266 535.568
2226 0 86.2761 13.9668 1205 65.5245 769.695 532.747
2227 0 91.1546 13.6252 1242 65.0709 769.429 531.61
2228 1 48.1928 11.0597 533 66.591 769.929 551.278
2229 0 49.0638 11.5971 569 67.0738 769.782 551.893
2230 0 51.1849 11.6245 595 66.2958 769.234 551.832
2231 0 53.0717 12.3041 653 65.144 769.317 550.057
2232 0 55.1081 13.156 725 63.9807 769.341 549.952
2233 0 54.0622 13.0035 703 64.9445 770.122 547.041
2234 0 57.0577 13.9683 797 62.9987 770.439 547.028
2235 0 59.055 12.8694 760 64.3026 769.37 545.48
2236 0 61.0725 12.9027 788 64.1536 768.912 545.299
2237 0 65.0737 13.7229 893 61.4524 768.401 543.6
2238 0 66.1916 13.6422 903 61.9535 768.625 542.35
2239 0 68.2577 13.2 901 62.9501 767.141 541.309
2240 0 71.299 13.5907 969 62.0691 767.216 540.7
2241 0 73.1964 14.0171 1026 61.2456 767.481 539.597
2242 0 76.519 14.6761 1123 60.1327 768.567 537.859
2243 0 76.3448 13.7665 1051 62.1123 768.431 537.221
2244 0 76.3448 13.7141 1047 168.92 768.418 537.221
2245 0 81.256 14.2882 1161 61.1335 768.093 534.664
2246 0 82.1764 14.2133 1168 61.1156 768.705 532.893
2247 0 88.3322 13.6983 1210 61.338 769.201 532.006
2248 0 92.2194 14.5739 1344 59.7552 768.61 530.701
2249 1 51.0751 11.6299 594 61.5943 768.85 551.281
2250 0 52.1824 12.5905 657 60.2359 768.105 551.626
2251 0 52.1269 11.9132 621 61.1385 768.05 550.857
2252 0 54.1489 12.9458 701 60.3481 767.936 549.287
2253 0 55.338 12.9929 719 60.9124 767.737 548.341
2254 0 57.1097 13.763 786 60.4822 768.107 547.585
2255 0 60.2188 14.082 848 59.5071 767.868 545.695
2256 0 62.1024 13.4777 837 59.9594 767.357 545.962
2257 0 63.1645 13.3778 845 60.2343 767.166 545.083
2258 0 66.1039 13.8116 913 59.3154 766.895 543.048
2259 0 67.1432 14.3871 966 59.1605 766.978 541.733
2260 0 69.1293 13.2361 915 60.565 766.685 542.908
2261 0 72.0838 13.7618 992 59.9234 766.545 542
2262 0 74.1509 13.6074 1009 60.773 766.665 540.81
2263 0 78.1871 14.1967 1110 59.4721 766.635 539.225
2264 0 78.2141 13.463 1053 61.2298 767.14 537.924
2265 0 83.2041 13.8335 1151 60.4448 766.983 536.487
2266 0 85.3796 14.1486 1208 60.4263 766.868 534.389
2267 0 87.2203 13.7697 1201 61.3464 767.072 534.217
2268 0 91.2649 15.0112 1370 59.6007 767.585 533.985
2269 1 50.0872 11.6597 584 62.5086 767.192 552.921
2270 0 51.1346 12.0858 618 62.0858 767.518 554.448
2271 0 51.1331 11.9296 610 63.5754 767.526 552.285
2272 0 55.1817 12.5766 694 62.2565 767.277 551.697
2273 0 55.1817 13.4284 741 62.2105 767.637 548.92
2274 0 60.2312 14.1455 852 60.3533 767.184 549.054
2275 0 61.2164 14.0322 859 61.1094 767.108 547.226
2276 0 63.1413 14.3171 904 60.3153 766.821 545.412
2277 0 64.2609 14.0832 905 60.4221 766.83 547.046
2278 0 66.2404 13.6775 906 61.2914 766.245 543.361
2279 0 71.1996 14.2276 1013 59.4274 766.237 542.863
2280 0 72.2398 14.1612 1023 60.1095 765.828 541.2
2281 0 75.1359 14.0811 1058 59.6238 766.446 542.24
2282 0 77.265 14.172 1095 60.2941 766.391 539.678
2283 0 78.1965 13.9009 1087 60.8086 766.147 539.059
2284 0 80.2182 14.0118 1124 61.1228 766.239 538.486
2285 0 84.3226 14.5394 1226 60.27 765.639 537.085
2286 0 86.1961 14.3626 1238 60.7027 765.863 536.411
2287 0 90.1733 14.6274 1319 60.5277 765.933 534.846
2288 0 94.1586 14.8579 1399 60.0708 765.354 532.948
2289 0 97.1397 14.5255 1411 60.8824 765.221 532.184
2290 0 97.2126 14.1751 1378 62.0007 765.393 529.671
2291 0 102.488 14.431 1479 61.5456 765.201 528.999
2292 0 104.35 14.3076 1493 61.7461 765.259 528.601
2293 0 107.404 14.7946 1589 61.2064 764.814 527.183
2294 0 110.326 14.9647 1651 61.4337 764.886 525.427
2295 0 113.369 14.96 1696 61.5183 764.849 523.206
2296 0 118.349 15.2515 1805 60.6233 765.731 521.914
2297 0 123.21 15.0962 1860 60.1511 766.002 518.546
2298 0 127.342 14.4179 1836 61.4297 765.801 515.178
2299 1 69.1588 13.6497 944 60.5371 765.591 546.976
2300 0 69.1341 12.8591 889 61.5793 765.182 546.238
2301 0 72.1104 13.2297 954 61.0734 765.514 542.849
2302 0 76.2415 14.7689 1126 58.7327 765.039 541.675
2303 0 78.2357 14.0217 1097 59.8514 765.077 539.9
2304 0 81.3239 14.3992 1171 59.4432 764.892 538.506
2305 0 83.2839 14.4446 1203 59.7656 764.795 537.689
2306 0 86.1736 13.2523 1142 61.0683 764.962 537.499
2307 0 88.4217 14.8832 1316 59.4149 764.594 534.312
2308 0 91.408 14.1235 1291 60.11 764.875 534.769
2309 0 95.4477 14.6468 1398 59.206 764.936 532.737
2310 0 98.4935 14.4781 1426 59.9586 765.718 530.715
2311 0 100.511 14.1676 1424 60.6454 766.234 529.239
2312 0 104.601 14.7418 1542 59.2153 765.829 527.85
2313 0 106.425 14.4985 1543 59.6222 765.937 525.279
2314 0 109.448 13.7326 1503 60.3333 765.387 522.959
2315 1 61.0697 11.4623 700 61.0771 766.113 549.646
2316 0 63.0883 11.6662 736 59.7038 766.447 548.106
2317 0 64.1802 12.7454 818 59.1858 766.101 546.175
2318 0 67.1677 13.1313 882 58.6961 765.959 544.227
2319 0 69.1455 13.3776 925 59.0865 766.223 542.544
2320 0 73.2458 13.6254 998 58.1884 766.087 541.845
2321 0 75.1728 13.4224 1009 58.2725 766.186 540.509
2322 0 79.202 13.3835 1060 58.0519 766.372 538.56
2323 0 81.4743 13.4276 1094 58.6289 766.317 534.713
2324 0 84.2132 13.6202 1147 58.3383 766.71 534.343
2325 0 85.3152 13.4325 1146 58.3726 766.949 534.4
2326 0 90.2561 13.7276 1239 57.6868 767.151 530.613
2327 0 93.2326 13.89 1295 57.6587 767.289 527.498
2328 0 96.3055 13.6545 1315 57.9148 767.524 526.189
2329 0 100.312 13.0294 1307 58.4943 767.877 526.975
2330 0 103.535 13.9662 1446 57.1238 768.272 523.084
2331 1 57.1283 11.3779 650 58.7615 767.848 545.898
2332 0 59.1152 11.5875 685 58.562 768.507 547.045
2333 0 63.2475 12.8226 811 57.7386 768.62 544.533
2334 0 64.2426 12.6552 813 57.8093 768.994 544.391
2335 0 67.3025 13.4022 902 56.6752 768.916 543.755
2336 0 69.2806 14.001 970 56.3495 768.904 541.856
2337 0 70.3016 13.3425 938 57.4403 769.288 541.823
2338 0 74.2916 13.9585 1037 56.4899 769.181 539.855
2339 0 74.4489 13.5395 1008 57.7202 768.986 538.44
2340 0 77.328 14.2639 1103 56.7842 769.277 538.7
2341 0 80.418 13.7034 1102 57.9592 768.948 536.035
2342 0 83.3303 13.6925 1141 57.617 769.375 535.584
2343 0 84.4716 13.6969 1157 57.7718 770.575 534.006
2344 0 88.5462 14.4219 1277 57.1472 770.09 532.641
2345 0 90.42 13.9128 1258 57.903 769.962 531.833
2346 0 94.3879 13.6458 1288 58.1762 769.679 530.342
2347 0 96.4586 14.7213 1420 57.407 770.581 525.227
2348 0 102.17 14.192 1450 57.6869 769.776 527.009
2349 0 103.393 14.0628 1454 58.4175 769.943 524.327
2350 0 107.281 13.7396 1474 59.0129 770.011 522.364
2351 0 108.515 13.8967 1508 58.9131 769.739 521.538
2352 0 112.44 14.1142 1587 58.9187 770.188 518.994
2353 0 115.332 13.4741 1554 59.8237 769.981 517.111
2354 0 122.434 13.9014 1702 58.9583 769.713 516.124
2355 0 124.618 14.5243 1810 58.0442 769.994 513.454
2356 0 127.558 13.7271 1751 59.2222 769.933 513.683
2357 0 132.471 13.9049 1842 58.5098 770.268 510.953
2358 0 137.491 14.6264 2011 58.4366 770.16 505.163
2359 0 141.535 14.0036 1982 59.273 769.302 502.98
2360 0 145.423 14.64 2129 59.0601 769.265 499.741
2361 0 150.296 14.059 2113 60.1051 769.202 497.852
2362 0 156.587 15.0395 2355 59.3342 769.16 494.369
2363 0 157.39 14.4291 2271 60.2448 769.498 493.284
2364 0 164.34 14.7925 2431 59.8252 769.033 490.151
2365 0 170.624 15.1561 2586 59.5066 768.914 488.786
2366 0 176.358 14.8789 2624 59.9878 769.18 485.971
2367 0 180.564 13.7957 2491 61.7712 768.468 482.985
2368 0 189.5 14.4222 2733 61.1339 768.58 481.74
2369 0 195.616 15.4333 3019 60.0328 768.708 474.19
2370 0 204.637 15.9502 3264 58.9213 768.455 469.951
2371 0 211.681 16.0997 3408 58.6315 768.776 465.998
2372 0 215.644 15.4561 3333 59.7966 768.1 467.47
2373 0 221.361 15.0478 3331 60.4209 767.967 463.903
2374 0 268.956 19.81 5328 50.4606 768.258 445.981
2375 0 268.038 23.5825 6321 47.2001 767.87 426.036
2376 1 187.616 13.8421 2597 60.6184 767.889 485.719
2377 0 192.702 13.4923 2600 62.2338 767.271 481.883
2378 0 200.593 14.0035 2809 61.2407 767.257 477.661
2379 0 207.364 14.6698 3042 60.477 767.172 471.457
2380 0 214.59 14.777 3171 60.3772 766.47 468.88
2381 0 223.578 15.0641 3368 60.2325 767.134 465.261
2382 0 230.589 15.0354 3467 57.3972 767.026 463.736
2383 0 240.568 15.6089 3755 56.8075 767.584 458.149
2384 0 246.916 15.4749 3821 56.972 767.971 449.416
2385 0 257.628 16.7567 4317 55.3535 767.667 445.193
2386 0 265.809 15.7406 4184 57.1162 767.754 440.948
2387 0 276.966 17.0562 4724 55.004 767.922 438.831
2388 1 63.239 11.9072 753 57.5405 768.108 546.551
2389 0 65.2865 12.3149 804 57.3644 767.78 543.876
2390 0 68.3319 13.01 889 56.6445 767.755 544.165
2391 0 72.3057 13.5951 983 55.826 768.049 543.866
2392 0 74.254 12.9151 959 56.659 768.009 543.077
2393 0 76.2748 13.9758 1066 55.6304 767.966 541.276
2394 0 80.3254 13.7068 1101 55.2716 767.828 539.731
2395 0 83.2531 13.9815 1164 54.7861 767.624 539.417
2396 0 86.1195 14.9095 1284 53.3668 767.88 533.864
2397 0 88.1988 14.4787 1277 54.148 768.027 535.232
2398 1 47.1531 12.47 588 56.3622 768.1 554.301
2399 0 48.1638 12.4782 601 55.8669 767.511 554.329
2400 0 49.3525 12.9477 639 56.0391 767.552 552.119
2401 0 53.0969 13.8426 735 54.4531 766.92 551.951
2402 0 57.284 15.5541 891 51.0629 767.015 547.13
2403 0 58.2612 14.6925 856 52.9614 766.654 548.88
2404 0 56.29 13.9279 784 55.0842 766.443 549.672
2405 0 59.2711 13.5142 801 55.789 766.18 548.396
2406 0 61.3062 14.5988 895 54.7028 766.223 548.092
2407 0 64.2857 14.2333 915 54.6798 766.49 547.268
2408 0 65.3576 13.1584 860 56.8791 766.238 545.287
2409 0 66.3706 14.5396 965 55.6684 766.138 544.25
2410 0 70.4028 14.0335 988 55.9565 765.65 545.506
2411 0 69.4157 13.9162 966 57.589 765.832 543.39
2412 0 74.3674 14.5628 1083 55.9963 765.454 543.607
2413 0 77.488 14.6216 1133 56.3301 764.868 539.742
2414 0 79.3074 14.5636 1155 56.7368 765.248 539.555
2415 0 81.6308 14.2348 1162 57.6136 765.698 538.139
2416 0 83.29 14.7677 1230 57.1041 765.122 538.503
2417 0 85.523 14.0547 1202 58.302 765.45 537.359
2418 0 89.3087 14.6906 1312 57.8148 765.334 535.199
2419 1 47.1222 11.693 551 58.4301 765.045 556.41
2420 0 48.1427 11.7152 564 58.5372 765.507 556.652
2421 0 49.1073 13.1549 646 57.1981 765.217 555.268
2422 0 50.1633 13.5557 680 57.2279 765.435 554.24
2423 0 52.0808 13.9591 727 56.8831 765.325 553.356
2424 0 55.1627 13.5236 746 57.1086 764.713 553.458
2425 0 57.1348 14.0545 803 56.3786 764.65 553.341
2426 0 58.1704 13.6496 794 57.1159 764.358 551.569
2427 0 59.151 14.1502 837 57.6906 765.044 549.466
2428 0 60.0851 13.8137 830 58.1952 765.011 550.253
2429 0 60.0571 14.0034 841 58.4138 764.882 548.587
2430 0 65.1166 14.6353 953 56.9161 764.895 548.603
2431 0 66.0213 13.7531 908 58.3678 764.963 547.935
2432 0 68.0535 13.8861 945 58.5259 765.329 545.628
2433 0 70.1231 13.4478 943 58.3871 764.802 546.268
2434 0 72.0707 13.9585 1006 58.2525 765.84 545.103
2435 0 74.1664 14.4944 1075 58.1907 765.661 541.745
2436 0 76.1001 14.205 1081 59.1073 765.501 541.396
2437 0 80.1428 14.4866 1161 58.6632 766.046 539.047
2438 0 82.1101 14.8703 1221 58.7993 765.989 536.654
2439 0 84.2216 14.8774 1253 58.755 765.993 537.095
2440 0 89.1847 14.6998 1311 59.1815 765.888 535.822
2441 0 92.2413 15.6221 1441 58.1055 765.333 532.628
2442 0 94.3638 15.2389 1438 59.0591 765.32 532.874
2443 0 98.616 15.5046 1529 59.6893 765.642 530.729
2444 0 100.434 14.766 1483 61.588 765.709 526.868
2445 0 104.4 14.3966 1503 62.4005 765.612 525.941
2446 1 56.0816 12.5175 702 63.5256 765.598 551.209
2447 0 57.2431 12.8924 738 63.9959 765.374 548.107
2448 0 60.1812 14.4065 867 62.4856 765.567 546.782
2449 0 61.1257 14.1675 866 63.3938 765.659 547.285
2450 0 63.2227 13.5078 854 64.7927 765.651 544.463
2451 0 66.354 14.3172 950 63.3779 765.906 541.816
2452 0 68.2636 14.6052 997 63.5928 765.608 540.665
2453 0 72.2579 14.7942 1069 63.1712 765.769 538.853
2454 0 73.2243 14.162 1037 64.0048 765.242 540.013
2455 0 76.1818 14.2554 1086 62.9429 765.768 539.303
2456 0 78.0902 15.1748 1185 61.7899 765.99 538.322
2457 0 82.337 14.5743 1200 62.2292 766.2 536.743
2458 0 84.2231 14.426 1215 63.6329 766.32 533.568
2459 0 86.1899 14.0504 1211 64.3873 766.546 532.469
2460 0 89.2811 14.5944 1303 63.594 766.999 531.756
2461 1 46.2543 11.4368 529 66.6484 766.786 552.216
2462 0 48.1938 12.014 579 66.9206 767.029 551.107
2463 0 49.1667 12.9356 636 66.1997 766.986 550.739
2464 0 53.4761 12.3233 659 66.7557 766.991 549.539
2465 0 54.1482 13.0568 707 65.2744 766.9 547.827
2466 0 56.3017 12.9481 729 65.2661 767.527 547.075
2467 0 57.3695 13.8227 793 64.768 767.975 545.504
2468 0 61.2368 14.3215 877 63.1585 768.384 544.714
2469 0 61.275 13.7903 845 64.6473 768.166 544.644
2470 0 63.3273 13.7539 871 64.0987 768.253 544.287
2471 0 65.0954 13.1806 858 65.3834 768.246 541.887
2472 0 67.2989 13.6406 918 64.1906 769.298 540.401
2473 0 69.1957 13.6569 945 64.0868 769.351 539.301
2474 0 71.2644 14.0884 1004 63.5986 769.542 538.47
2475 0 76.3125 14.1785 1082 62.8706 769.65 537.409
2476 0 76.1098 14.2294 1083 62.8375 769.805 534.25
2477 0 81.1134 14.3503 1164 61.7096 769.466 534.345
2478 0 82.2823 13.8791 1142 62.5131 769.744 532.143
2479 0 85.1263 13.8735 1181 62.7206 769.508 530.927
2480 0 88.156 14.0773 1241 62.4069 769.107 529.774
2481 0 90.0957 13.7299 1237 62.7187 768.993 529.659
2482 0 95.1747 14.5522 1385 61.7126 768.992 525.188
2483 1 49.0234 12.0147 589 64.3362 769.154 547.847
2484 0 51.074 12.3742 632 63.4953 769.672 547.299
2485 0 54.2666 13.1388 713 63.1935 769.234 545.989
2486 0 56.1356 13.7168 770 62.2403 769.265 544.535
2487 0 57.2105 14.2456 815 62.1313 769.337 544.455
2488 0 61.1254 14.2167 869 61.4833 769.243 542.75
2489 0 61.1811 13.8278 846 62.9374 769.3 541.784
2490 0 64.1938 13.8643 890 62.3225 769.18 540.646
2491 0 65.165 13.5349 882 62.6145 769.084 541.535
2492 0 68.1105 14.5939 994 61.1801 769.282 541.429
2493 0 71.1382 14.2258 1012 61.8132 769.112 540.217
2494 0 72.2627 14.6825 1061 61.9585 768.775 539.321
2495 0 75.2378 14.8197 1115 61.3103 768.864 538.201
2496 0 77.4643 15.1425 1173 61.5959 768.979 535.323
2497 0 79.2867 14.6683 1163 62.3637 769.218 534.472
2498 0 82.0847 14.2901 1173 63.1807 769.084 534.299
2499 0 85.2323 15.4871 1320 61.7303 769.513 531.354
2500 0 88.1632 16.0838 1418 61.2616 768.936 530.287
2501 0 90.1823 15.7015 1416 62.0636 768.544 529.488
2502 0 94.2086 15.1472 1427 62.3118 768.191 529.044
2503 0 98.2054 15.3352 1506 62.5631 767.867 526.78
2504 0 100.215 15.1774 1521 62.478 767.64 525.41
2505 0 104.354 15.3229 1599 62.5109 767.906 523.629
2506 1 56.078 12.0012 673 64.3923 768.015 547.158
2507 0 59.1943 12.062 714 64.4048 767.619 546.492
2508 0 62.1564 13.6108 846 61.9492 768.015 545.504
2509 0 65.0596 13.0496 849 62.8504 768.554 544.83
2510 0 68.1096 13.3168 907 62.7552 768.662 543.573
2511 0 67.2948 13.0768 880 64.1784 768.689 542.601
2512 0 71.1197 14.6514 1042 61.8503 768.699 541.727
2513 0 73.1884 13.5677 993 63.6848 768.12 539.86
2514 0 74.1196 13.3433 989 64.5238 768.084 539.14
2515 0 79.1611 13.921 1102 62.677 767.999 538.782
2516 0 83.1195 14.1603 1177 62.5123 768.247 535.642
2517 0 86.1825 13.8427 1193 62.6974 767.33 535.157
2518 0 87.0911 13.8246 1204 63.3505 766.637 532.3
2519 0 91.1734 14.1708 1292 62.3011 766.97 529.519
2520 1 48.0154 11.6421 559 61.7764 767.138 552.934
2521 0 50.0455 11.4096 571 61.8266 767.457 552.75
2522 0 52.0781 12.3084 641 61.1685 768.061 551.409
2523 0 53.0881 12.2626 651 61.232 767.948 551.37
2524 0 56.1113 13.7049 769 59.9831 768.039 550.113
2525 0 58.222 13.6375 794 59.961 768.234 549.372
2526 0 59.1495 13.2207 782 61.0192 767.868 549.703
2527 0 59.0939 12.844 759 62.3281 767.427 547.96
2528 0 61.1941 13.0078 796 62.0616 767.43 546.83
2529 0 62.2188 12.9704 807 62.5489 767.036 546.679
2530 0 64.2379 13.1854 847 62.4498 767.091 544.483
2531 0 67.2931 13.4635 906 61.9294 766.651 545.188
2532 0 69.1861 14.1502 979 61.2513 766.642 544.469
2533 0 70.2239 12.5171 879 63.2253 766.961 545.044
2534 0 74.265 14.8388 1102 60.2432 767.022 539.686
2535 0 76.3148 12.8678 982 62.7923 766.496 540.312
2536 0 79.4493 13.5684 1078 61.615 766.634 540.34
2537 0 81.2619 13.2904 1080 62.1324 766.599 537.485
2538 1 42.3271 10.9623 464 62.722 766.849 557.927
2539 0 43.2158 10.8294 468 65.0107 766.575 556.733
2540 0 44.1383 12.8007 565 63.3292 766.515 556.857
2541 0 48.1692 12.4976 602 62.8771 766.327 556.434
2542 0 49.195 13.6599 672 61.8051 765.567 555.138
2543 0 47.183 12.7376 601 64.0549 766.186 555.912
2544 0 50.2296 13.2193 664 63.6401 766.307 553.441
2545 0 50.1118 14.1883 711 62.9072 766.668 553.498
2546 0 53.0904 12.7895 679 63.9661 766.604 552.979
2547 0 55.067 13.6379 751 63.0146 766.406 551.29
2548 0 56.0832 12.8916 723 63.7275 766.115 551.993
2549 0 58.2052 14.1912 826 62.2167 766.007 549.999
2550 0 61.1598 14.1106 863 62.0498 765.924 550.071
2551 0 62.2199 13.9666 869 62.3072 765.461 549.001
2552 0 66.1694 14.0246 928 61.3287 765.614 548.786
2553 0 68.1935 13.9016 948 62.097 766.053 545.993
2554 0 67.2376 13.9654 939 62.8647 765.708 546.024
2555 0 72.1551 14.3441 1035 61.2435 765.817 546.536
2556 0 73.1973 13.5524 992 63.5685 765.164 544.211
2557 0 75.3613 13.9196 1049 62.3823 765.632 543.196
2558 0 76.3041 14.0359 1071 62.4463 765.651 544.424
2559 0 79.3483 13.9764 1109 62.4716 765.385 541.636
2560 0 83.312 14.0436 1170 62.5239 765.108 539.316
2561 0 85.3742 14.3017 1221 62.5758 765.321 539.359
2562 0 88.3944 14.2204 1257 62.5704 765.348 538.944
2563 0 91.2266 13.9652 1274 62.978 764.954 536.494
2564 0 95.4174 14.6409 1397 61.2878 764.909 536.616
2565 1 50.0295 12.7925 640 64.3484 765.13 555.739
2566 0 54.2421 13.79 748 63.5561 765.111 556.16
2567 0 53.1758 14.1418 752 65.3378 765.239 555.211
2568 0 55.1641 14.1215 779 65.7047 765.918 553.463
2569 0 57.0815 14.2428 813 65.7946 765.817 552.859
2570 0 58.0859 14.995 871 65.3697 765.313 552.366
2571 0 61.1264 14.5109 887 65.8816 765.442 551.291
2572 0 63.1302 15.2859 965 64.6715 765.34 550.203
2573 0 64.0853 14.4651 927 65.8468 764.523 550
2574 0 64.1508 14.5283 932 66.6545 764.804 550.295
2575 0 69.1576 17.2649 1194 61.825 765.13 546.157
2576 0 70.0784 14.7977 1037 66.3433 765.351 546.564
2577 0 71.0645 15.6196 1110 65.4099 764.595 547.408
2578 0 75.2638 15.7048 1182 64.7157 764.122 546.514
2579 0 78.0497 16.2461 1268 63.6396 764.475 544.638
2580 0 80.1351 15.0746 1208 64.9934 763.81 543.478
2581 0 87.1517 17.0278 1484 61.1044 764.961 538.967
2582 0 87.1261 14.8865 1297 65.3308 764.635 541.311
2583 0 90.2863 15.0632 1360 65.1324 764.593 539.074
2584 0 92.2217 15.235 1405 64.7167 764.966 538.121
2585 0 96.0894 14.5698 1400 65.5914 764.956 535.584
2586 1 49.0621 14.5122 712 67.2879 765.077 557.27
2587 0 50.1282 14.802 742 67.6105 764.598 558.094
2588 0 52.2941 14.8392 776 67.0129 764.849 557.009
2589 0 53.2049 15.4873 824 66.5716 764.675 554.791
2590 0 57.2139 15.8528 907 65.1268 765.493 554.334
2591 0 63.1019 17.8442 1126 59.6821 765.931 549.343
2592 0 71.7843 18.4999 1328 56.4119 765.873 547.109
2593 0 69.3443 17.5213 1215 59.6807 765.915 546.988
2594 0 71.2175 18.8858 1345 58.0535 765.668 544.886
2595 0 74.2393 19.9086 1478 56.7767 766.354 544.687
2596 0 73.1335 19.4166 1420 58.7479 766.399 544.42
2597 0 73.202 17.8684 1308 62.1353 766.492 544.9
2598 0 74.1183 15.9745 1184 65.9333 766.447 544.753
2599 0 74.1158 15.5163 1150 67.0861 766.779 544.894
2600 0 78.2467 15.8857 1243 66.5157 766.858 544.825
2601 0 81.253 16.1594 1313 66.4989 767.516 542.375
2602 0 82.167 16.0892 1322 66.8343 767.722 540.893
2603 0 85.2718 15.7965 1347 67.0935 767.771 540.546
2604 0 88.1694 15.6517 1380 67.7181 767.479 538.365
2605 0 92.3828 15.6631 1447 67.5294 767.675 536.51
2606 0 95.1297 16.2725 1548 66.3359 768.083 534.521
2607 0 99.2496 15.6575 1554 67.334 768.284 533.456
2608 0 101.183 14.9433 1512 68.8042 768.457 531.868
2609 0 105.356 16.8097 1771 66.0711 768.822 528.663
2610 1 48.1156 14.5691 701 74.2981 768.455 555.013
2611 0 52.0996 14.5491 758 72.6979 768.935 553.463
2612 0 55.225 15.9348 880 70.5409 768.626 552.565
2613 0 54.1342 16.4221 889 71.4578 768.882 551.551
2614 0 59.1542 16.5669 980 69.998 769.06 550.163
2615 0 60.1116 16.6357 1000 70.212 769.247 549.991
2616 0 63.2173 16.293 1030 70.1078 769.719 548.281
2617 0 65.0695 16.7359 1089 69.6575 770.041 547.996
2618 0 67.2213 15.4862 1041 71.3477 769.814 547.652
2619 0 70.1079 16.4176 1151 69.9939 769.691 545.904
2620 0 72.0953 16.1175 1162 70.2117 770.082 543.588
2621 0 75.249 16.3192 1228 69.864 769.921 542.535
2622 0 78.1308 16.5876 1296 69.2994 770.111 540.602
2623 0 80.1531 16.0942 1290 70.2426 770.234 539.167
2624 0 84.2535 16.3317 1376 69.6388 770.519 538.008
2625 0 85.1886 15.7298 1340 71.3321 770.451 537.228
2626 1 44.0917 14.9008 657 74.9376 770.374 556.965
2627 0 46.0338 14.5762 671 75.2891 769.964 556.083
2628 0 46.1999 15.6494 723 73.7911 769.805 555.992
2629 0 48.1452 15.474 745 74.694 770.211 553.746
2630 0 50.1046 15.5874 781 73.7964 769.855 554.155
2631 0 53.0635 16.4897 875 72.1554 769.499 552.256
2632 0 53.1009 16.6099 882 72.5272 769.444 550.983
2633 0 56.0651 16.57 929 72.3175 769.633 549.419
2634 0 58.0862 16.8715 980 71.2337 769.149 549.354
2635 0 60.1231 17.3976 1046 71.0774 770.055 546.904
2636 0 62.1621 17.4061 1082 70.9131 769.557 545.919
2637 0 65.1315 16.981 1106 71.4268 769.684 546.585
2638 0 68.0546 17.7211 1206 69.7471 769.842 545.517
2639 0 69.1905 16.852 1166 71.0935 769.778 544.578
2640 0 71.0978 16.7375 1190 71.8235 769.561 542.511
2641 0 74.1105 16.9207 1254 71.1547 769.444 541.683
2642 0 76.0634 16.5125 1256 72.2922 768.815 540.636
2643 0 80.0926 17.2675 1383 71.0571 768.863 539.137
2644 0 82.1905 16.3401 1343 72.6404 768.936 537.667
2645 0 86.0621 16.5346 1423 72.2375 768.694 536.039
2646 0 89.098 16.5099 1471 72.2746 768.673 534.346
2647 1 47.0334 15.1807 714 75.6415 768.499 553.581
2648 0 48.0929 15.7612 758 75.9802 768.158 552.708
2649 0 51.0446 16.4562 840 74.7929 768.083 551.654
2650 0 52.087 16.3381 851 71.7732 767.535 552.193
2651 0 57.0723 16.1725 923 70.2329 767.824 550.306
2652 0 58.2497 16.8928 984 69.5 767.966 548.033
2653 0 59.0616 17.0331 1006 69.9155 767.834 548.555
2654 0 63.1212 16.3495 1032 70.7209 768.17 545.963
2655 0 63.128 16.3477 1032 71.656 767.715 546.286
2656 0 66.1747 16.5018 1092 70.8626 767.754 546.485
2657 0 68.1958 15.1182 1031 72.4132 767.855 545.022
2658 0 72.1932 16.7052 1206 70.408 767.915 542.288
2659 0 74.1549 17.1263 1270 69.4496 767.857 541.111
2660 0 77.075 16.3088 1257 70.3532 768.008 540.676
2661 0 81.1317 16.9108 1372 69.2471 767.837 538.96
2662 0 83.1369 16.2623 1352 70.2352 767.575 537.646
2663 1 44.1031 14.262 629 72.2067 767.61 556.097
2664 0 45.106 14.5435 656 72.2027 767.675 555.378
2665 0 46.1128 14.7898 682 71.7023 767.321 555.33
2666 0 49.0742 15.3441 753 71.0916 767.807 554.676
2667 0 50.078 16.5742 830 69.3747 767.472 553.196
2668 0 51.0417 16.0261 818 70.2812 767.16 553.77
2669 0 52.095 16.2396 846 69.8948 767.643 551.086
2670 0 55.1221 16.1278 889 69.0619 767.697 549.862
2671 0 57.1094 15.7592 900 68.9267 767.211 549.688
2672 0 58.0554 16.312 947 68.2777 767.812 548.762
2673 0 61.0701 16.1781 988 68.0931 767.056 547.859
2674 0 64.1499 16.2744 1044 67.4052 767.344 547.751
2675 0 67.1124 16.3606 1098 66.3087 767.206 545.808
2676 0 67.2307 15.9897 1075 67.8419 767.365 544.775
2677 0 72.1213 17.1794 1239 65.5892 767.091 542.283
2678 0 74.1796 15.8265 1174 67.1848 766.995 542.244
2679 0 77.1494 16.9412 1307 65.4881 766.865 540.239
2680 0 80.1103 15.9655 1279 66.5653 766.626 537.605
2681 0 83.1298 16.2637 1352 66.2108 766.293 537.108
2682 0 86.269 16.2167 1399 66.168 766.442 535.759
2683 1 44.1175 14.5974 644 68.1832 766.115 556.882
2684 0 46.1073 15.1386 698 67.49 766.423 555.964
2685 0 45.0649 15.7329 709 68.0889 766.063 554.274
2686 0 49.068 15.4887 760 68.2092 766.258 554.179
2687 0 51.1699 15.6342 800 68.1112 766.023 553.145
2688 0 54.258 15.5737 845 67.8237 766.382 551.224
2689 0 54.2185 16.0093 868 67.9942 766.172 551.843
2690 0 57.0481 16.1267 920 67.9826 765.528 550.488
2691 0 59.1735 15.463 915 68.5661 765.199 549.118
2692 0 61.2547 16.113 987 67.7234 765.506 550.317
2693 0 64.1926 15.5781 1000 68.758 765.621 549.02
2694 0 69.1697 16.0764 1112 67.5773 765.519 547.289
2695 0 71.0721 16.7013 1187 66.7237 765.469 545.409
2696 0 72.1874 15.6398 1129 68.9088 765.893 544.858
2697 0 74.6324 16.1056 1202 68.1755 765.648 542.945
2698 0 78.403 15.5734 1221 68.6069 765.355 542.139
2699 0 79.4034 16.4099 1303 67.8764 765.101 542.597
2700 0 83.2405 15.3651 1279 69.1501 764.526 541.087
2701 0 85.3713 15.7781 1347 69.3155 764.653 539.081
2702 0 88.1765 16.3309 1440 68.6361 764.878 536.178
2703 0 90.2958 15.1724 1370 70.7109 764.891 536.804
2704 0 95.3742 16.0735 1533 69.1474 764.851 533.885
2705 0 97.262 16.2242 1578 69.0279 764.795 534.091
2706 0 102.343 15.6533 1602 69.3489 764.519 532.634
2707 0 105.284 14.9406 1573 70.6624 765.089 532.632
2708 1 50.3348 14.1254 711 73.8706 765.158 556.47
2709 0 52.2953 14.8771 778 72.865 764.999 555.685
2710 0 52.2881 15.3572 803 73.3088 764.869 554.283
2711 0 54.2469 15.5032 841 73.3103 765.065 553.427
2712 0 57.3173 15.8068 906 72.6998 765.328 552.529
2713 0 58.3436 15.4944 904 73.594 765.274 551.945
2714 0 62.4528 16.1402 1008 72.1062 765.015 550.717
2715 0 61.5079 15.5427 956 74.5031 765.035 550.711
2716 0 64.6791 14.9817 969 74.0299 764.7 549.417
2717 0 66.4533 15.4996 1030 73.5408 764.864 549.098
2718 0 67.3938 15.0162 1012 74.9476 764.574 548.299
2719 0 70.4424 16.6235 1171 72.8446 764.598 546.573
2720 0 71.2465 15.5376 1107 75.3333 764.414 545.407
2721 0 75.4692 15.6488 1181 74.7925 764.981 545.739
2722 0 77.5191 15.6349 1212 75.1279 764.752 544.425
2723 0 81.4531 15.9969 1303 74.033 764.507 542.794
2724 0 83.4472 15.8184 1320 74.8992 764.534 541.594
2725 0 84.5307 16.2781 1376 74.5683 765.055 540.352
2726 0 89.3847 16.1996 1448 74.2383 765.302 538.384
2727 0 93.84 15.3666 1442 74.8856 765.533 536.73
2728 0 97.2853 15.9428 1551 73.7988 765.077 535.712
2729 0 99.3212 15.6563 1555 74.6135 765.325 531.455
2730 0 106.528 15.4794 1649 73.8302 765.665 529.917
2731 1 55.381 14.7523 817 75.4517 765.502 553.283
