time division length width area intensity CMx CMy
0 0 77.1678 14.5397 1122 67.1551 448.878 552.56
1 0 78.1688 13.5988 1063 69.5964 448.546 551.422
2 0 81.2113 14.0005 1137 68.8329 448.388 550.288
3 0 84.2657 13.5405 1141 69.8975 448.154 549.579
4 0 87.1243 13.5668 1182 70.8426 448.308 546.507
5 0 89.2397 13.7271 1225 71.2122 448.315 545.059
6 1 45.1838 10.911 493 70.2556 447.633 568.525
7 0 47.1089 10.8684 512 70.2598 447.445 567.332
8 0 47.1197 11.8846 560 70.6518 447.961 567.23
9 0 51.1914 12.9123 661 67.7368 447.519 566.151
10 0 51.147 11.77 602 70.8954 448.261 564.754
11 0 52.1017 12.6867 661 71.7352 447.469 562.619
12 0 55.1146 11.8299 652 71.6181 447.71 564.023
13 0 56.1243 13.5236 759 68.6337 447.445 563.746
14 0 57.1939 13.5504 775 69.5084 447.76 562.326
15 0 60.146 13.0017 782 70.4322 448.272 560.261
16 0 62.1964 13.3448 830 69.9349 448.3 558.661
17 0 64.1484 12.5646 806 71.0732 447.846 558.282
18 0 64.2597 12.6518 813 70.813 447.722 557.012
19 0 67.2889 13.5684 913 68.6528 447.689 556.487
20 0 70.0811 13.4701 944 69.4799 447.965 554.147
21 0 73.1859 13.5955 995 68.4754 447.676 554.213
22 0 75.1394 13.0158 978 69.8661 447.789 553.813
23 0 75.0871 13.451 1010 70.5347 448.104 552.289
24 0 79.1431 14.0505 1112 69.6421 448.106 550.675
25 0 81.0916 13.5896 1102 70.5182 448.448 550.362
26 0 83.2146 13.327 1109 71.5104 448.938 549.17
27 0 85.1901 13.7457 1171 71.5534 448.764 546.208
28 0 89.2762 14.6736 1310 69.842 448.82 545.798
29 1 47.1726 11.8501 559 70.229 448.991 567.041
30 0 48.1186 10.9937 529 71.1966 449.129 568.261
31 0 47.0809 10.9174 514 72.7412 449.566 566.85
32 0 50.1507 12.602 632 69.769 449.462 566.44
33 0 53.1945 12.9713 690 70.042 450.172 564.444
34 0 54.2116 13.2075 716 69.581 449.764 564.348
35 0 57.1155 13.7091 783 68.2708 449.599 563.785
36 0 58.1555 13.12 763 69.2005 449.397 562.678
37 0 59.2968 13.2891 788 68.8769 449.565 561.641
38 0 60.169 13.3624 804 69.1517 449.556 560.736
39 0 62.2435 13.5757 845 68.7882 449.233 557.989
40 0 64.1734 12.9804 833 69.108 450.037 559.014
41 0 69.2254 13.391 927 68.0917 450.038 557.133
42 0 70.2423 13.8948 976 67.5133 450.117 556.272
43 0 72.2736 12.5772 909 68.6513 449.639 555.743
44 0 74.1467 13.5407 1004 67.6444 449.987 554.066
45 0 77.2316 12.4431 961 68.9251 450.057 550.947
46 0 78.2655 13.352 1045 67.9684 450.137 549.344
47 0 82.1903 13.9919 1150 67.1617 450.777 549.466
48 1 43.0762 11.8163 509 66.6523 450.071 568.918
49 0 43.1137 11.7596 507 67.071 450.389 568.205
50 0 47.1105 12.9695 611 65.1424 450.149 568.935
51 0 46.2507 12.6485 585 66.7385 450.236 568.164
52 0 49.1438 13.2468 651 65.7035 450.8 565.382
53 0 49.1251 13.1501 646 66.3715 450.525 565.793
54 0 52.2048 13.1789 688 65.1221 449.847 566.086
55 0 52.1169 12.6255 658 59.81 450.5 563.632
56 0 54.0664 13.1875 713 59.5231 450.993 562.192
57 0 55.1966 12.5732 694 60.0317 451.232 562.664
58 0 57.1861 11.9959 686 60.2449 450.783 562.385
59 0 60.0764 13.849 832 59.1094 451.081 560.267
60 0 61.1121 13.9416 852 59.4941 451.324 561.512
61 0 65.0857 13.9508 908 59.7643 450.807 557.14
62 0 67.2835 13.3911 901 60.3507 450.624 556.166
63 0 69.1202 14.7714 1021 59.3154 450.56 555.801
64 0 70.3273 12.1859 857 62.182 450.564 555.662
65 0 73.2182 13.7944 1010 60.9683 450.602 552.616
66 0 76.2837 12.9254 986 61.7262 450.678 553.18
67 0 78.3165 13.4582 1054 62.2239 451.734 549.173
68 0 79.2726 13.0814 1037 62.9373 451.565 548.691
69 1 46.2409 11.6131 537 61.8156 451.317 566.162
70 0 47.1762 11.51 543 62.582 450.724 565.774
71 0 48.1574 11.5247 555 62.5838 450.977 564.247
72 0 52.164 13.3809 698 60.947 451.365 562.186
73 0 51.1335 11.7535 601 64.2562 451.433 561.22
74 0 54.235 12.0586 654 63.7049 451.879 560.752
75 0 56.1736 12.3012 691 63.7829 451.928 560.082
76 0 57.0658 13.4231 766 62.8642 452.304 558.349
77 0 59.2501 13.2827 787 62.9022 452.389 557.825
78 0 62.1829 13.7658 856 62.4673 452.381 555.488
79 0 63.1622 13.6474 862 63.2981 452.103 554.836
80 0 64.418 14.0333 904 63.4093 452.616 554.233
81 0 66.2667 12.7364 844 65.34 451.985 553.457
82 0 68.1585 13.8941 947 64.7054 452.525 550.704
83 0 73.4035 13.2283 971 65.6313 452.685 550.459
84 0 73.2033 12.7317 932 68.2082 453.209 548.337
85 0 76.2604 13.1392 1002 67.4661 453.814 546.713
86 0 80.2279 13.9228 1117 66.803 454.052 543.465
87 1 40.2686 11.7958 475 66.7326 454.067 562.865
88 0 40.1665 11.6017 466 66.9657 453.706 561.311
89 0 43.1932 11.6222 502 63.8307 454.05 562.241
90 0 43.173 11.8824 513 64.2534 454.253 561.546
91 0 45.1702 13.4381 607 71.0181 455.01 558.736
92 0 47.1192 12.9459 610 74.9525 455.218 558.43
93 0 49.0738 13.9178 683 70.5769 455.701 556.716
94 0 51.2538 12.9356 663 72.1357 455.452 556.284
95 0 50.226 13.3994 673 69.7013 455.088 555.119
96 0 52.2156 13.3102 695 67.8518 455.765 555.961
97 0 53.1818 13.6701 727 92.912 456.12 554.801
98 0 55.1708 13.5035 745 66.9611 455.583 553.785
99 0 60.2185 14.1319 851 65.6298 454.946 552.26
100 0 61.2624 14.7399 903 66.753 455.247 550.718
101 0 62.2027 13.7454 855 70.5462 455.882 549.171
102 0 65.1646 13.3508 870 71.7759 455.891 547.942
103 0 66.177 14.5519 963 68.0613 455.79 547.037
104 0 69.3873 14.2245 987 68.3424 455.922 546.184
105 0 72.236 14.0512 1015 68.2956 455.844 543.327
106 0 75.1533 13.865 1042 70.2514 455.922 541.87
107 0 77.1708 14.5262 1121 70.7449 456.047 541.016
108 0 78.1545 13.9084 1087 73.8602 455.995 540.031
109 0 83.2059 14.8307 1234 69.1564 455.885 538.724
110 0 85.2747 14.7523 1258 69.6638 456.184 536.73
111 0 88.1816 15.0258 1325 67.3524 456.43 535.859
112 0 91.3002 14.7426 1346 67.4874 456.426 533.747
113 0 93.3498 14.9652 1397 68.1675 456.603 531.473
114 0 95.2607 15.2424 1452 68.228 456.762 530.859
115 1 50.1268 10.7328 538 72.8643 455.963 552.744
116 0 51.2101 12.4585 638 70.9138 455.198 551.839
117 0 55.2055 13.64 753 68.5232 455.813 550.914
118 0 56.2249 14.4598 813 67.5843 455.788 550.442
119 0 57.2735 13.7411 787 68.2389 455.722 549.619
120 0 59.2254 13.3895 793 68.6658 455.271 549.926
121 0 61.287 13.8039 846 67.4894 455.09 548.765
122 0 63.2451 14.9419 945 66.672 455.688 545.619
123 0 67.2074 14.3139 962 67.0977 455.644 543.482
124 0 67.2837 13.4654 906 69.0618 455.322 543.896
125 0 72.1653 13.9956 1010 67.6168 454.93 543.679
126 0 75.1191 14.8431 1115 66.6807 454.478 542.385
127 0 75.1744 15.3111 1151 67.3215 454.691 539.656
128 0 77.182 14.2261 1098 69.1958 454.593 539.875
129 0 82.198 14.7206 1210 68.6628 454.945 537.857
130 0 83.0935 14.8146 1231 69.6166 454.607 536.408
131 0 87.2068 14.3223 1249 70.0312 454.695 535.64
132 0 89.1831 14.5767 1300 70.2631 454.529 533.712
133 0 93.2296 14.3302 1336 70.7657 454.477 531.874
134 0 95.1081 14.4783 1377 70.9804 454.942 531.472
135 0 98.1326 13.9913 1373 71.8012 454.771 529.594
136 1 51.0416 11.8923 607 72.6606 454.306 551.98
137 0 54.1289 12.0823 654 71.6193 454.138 551.636
138 0 57.0958 12.12 692 71.909 454.113 549.747
139 0 58.1694 12.8934 750 71.244 453.747 548.801
140 0 59.0958 13.7235 811 70.1541 454.348 547.152
141 0 62.0627 14.2114 882 69.2846 453.844 545.957
142 0 65.0674 13.4168 873 70.1466 453.866 544.873
143 0 69.111 13.6881 946 69.4292 453.988 543.333
144 0 71.0531 13.6377 969 69.969 454.041 542.425
145 0 74.1134 13.6547 1012 69.4862 453.589 541.792
146 0 76.0857 13.4059 1020 70.2284 453.35 540.514
147 0 77.0583 13.9375 1074 70.0372 454.18 538.967
148 0 81.1129 13.9559 1132 69.6431 454.012 537.133
149 0 86.1573 13.7075 1181 69.3362 453.924 535.279
150 0 86.1015 13.9603 1202 70.3669 453.719 533.918
151 0 90.2498 13.1191 1184 71.1056 453.614 532.856
152 0 94.1746 13.8466 1304 69.6756 453.715 531.455
153 0 98.2544 13.8416 1360 69.7728 453.727 528.965
154 1 51.1145 10.3689 530 71.3604 452.977 550.306
155 0 54.1041 11.5148 623 69.0048 452.48 551.246
156 0 57.1145 12.151 694 67.6888 452.463 550.641
157 0 58.0922 11.5334 670 68.3836 452.987 548.625
158 0 61.0504 13.022 795 66.166 452.863 547.132
159 0 63.0414 12.817 808 66.3032 452.689 546.241
160 0 65.1131 13.1924 859 65.4389 452.786 546.757
161 0 64.0511 13.0521 836 66.5766 452.536 544.95
162 0 68.0387 11.7874 802 68.2905 452.797 543.324
163 0 70.0655 12.2885 861 66.5494 452.882 542.606
164 0 72.1118 12.6609 913 66.1314 453.584 542.208
165 0 74.0767 13.783 1021 64.6856 453.806 538.731
166 0 77.0658 12.9759 1000 65.365 453.774 539.455
167 0 81.2061 13.2379 1075 64.7786 453.961 537.591
168 0 83.1656 12.2406 1018 66.11 454.082 536.734
169 0 86.5141 12.4951 1081 65.7317 454.428 534.919
170 0 91.178 12.7662 1164 64.9167 454.745 532.131
171 1 46.1645 10.7875 498 63.3333 454.504 553.572
172 0 48.1932 9.89766 477 64.2746 454.566 554.625
173 0 50.1838 11.5177 578 63.019 454.547 552.258
174 0 51.1222 12.3625 632 62.1123 455.005 551.302
175 0 53.1303 11.8953 632 63.0902 454.978 550.837
176 0 54.1947 12.1968 661 62.6263 455.163 550.834
177 0 56.1319 12.435 698 63.1862 455.215 548.68
178 0 59.1323 12.5819 744 62.4503 455.418 548.051
179 0 60.1343 12.7548 767 62.5711 455.571 547.267
180 0 60.1859 12.694 764 63.6872 456.114 545.52
181 0 62.1543 12.6781 788 63.9632 456.216 544.873
182 0 64.3856 13.1085 844 63.4893 456.446 542.827
183 0 64.3856 13.1396 846 156.876 457.444 542.823
184 0 68.1563 12.8968 879 64.0068 456.443 542.232
185 0 70.1731 13.367 938 63.5618 456.713 541.314
186 0 70.3212 12.898 907 64.0463 456.717 539.987
187 0 74.2404 13.6044 1010 62.6792 456.974 538.235
188 0 75.1835 13.7929 1037 62.8284 457.512 536.959
189 0 77.3576 13.276 1027 64.0506 457.374 535.994
190 0 79.3212 13.7668 1092 62.9615 457.19 533.712
191 0 81.2396 12.6539 1028 64.3278 457.302 532.214
192 0 85.3336 13.4648 1149 62.7798 458.228 531.022
193 1 46.1935 10.889 503 61.2584 458.199 550.109
194 0 45.2368 10.7656 487 59.3901 458.337 551.499
195 0 45.182 9.58347 433 61.806 458.083 549.647
196 0 48.1903 10.666 514 60.5564 458.551 547.368
197 0 48.209 10.5789 510 61.8274 458.524 545.529
198 0 50.0418 12.0499 603 59.7877 459.104 545.541
199 0 51.101 12.4264 635 58.4094 458.098 545.868
200 0 52.075 12.6356 658 59.573 458.581 545.91
201 0 55.1156 12.4284 685 59.7723 458.315 546.816
202 0 56.0984 12.8881 723 59.6916 459.151 544.693
203 0 57.0427 12.4293 709 60.0056 458.873 546.288
204 0 59.0296 12.9935 767 59.6206 458.885 544.017
205 0 60.0476 12.3236 740 60.2757 458.997 542.461
206 0 62.1343 12.8431 798 59.213 458.807 541.504
207 0 63.1157 12.5009 789 59.3802 458.946 541.703
208 0 66.0837 12.5901 832 59.3113 459.112 541.535
209 0 68.0425 13.3152 906 58.2472 459.18 538.471
210 0 72.0856 13.7614 992 57.2571 459.246 537.527
211 0 74.1516 12.6902 941 58.3092 459.431 536.92
212 0 76.3168 13.824 1055 57.5384 459.26 534.248
213 0 78.1007 12.6887 991 58.7669 459.37 534.972
214 0 81.1209 12.8204 1040 59.2635 458.888 531.725
215 0 83.1388 12.9542 1077 59.221 459.044 530.68
216 0 85.1707 12.563 1070 59.9392 458.62 530.879
217 0 89.2108 13.6082 1214 59.1664 458.496 529.362
218 0 91.1059 12.952 1180 59.9364 458.436 527.539
219 0 95.2389 14.0489 1338 58.8333 457.743 525.803
220 0 99.0812 13.9482 1382 58.6845 457.765 525.127
221 0 102.247 13.4381 1374 59.2162 457.25 523.477
222 1 56.0581 10.2394 574 59.385 456.329 547.807
223 0 56.099 11.3193 635 58.5543 456.414 547.842
224 0 59.1054 11.488 679 58.3549 456.056 545.09
225 0 59.0944 12.2177 722 58.1094 456.317 544.298
226 0 63.0338 13.7069 864 56.0475 456.836 544.091
227 0 63.0496 11.9588 754 58.7281 456.756 542.741
228 0 67.1218 13.036 875 57.5074 456.655 540.864
229 0 67.0693 13.076 877 57.6169 456.639 541.972
230 0 71.1419 12.7913 910 57.7077 456.576 540.272
231 0 71.176 12.2513 872 58.8784 456.456 540.445
232 0 75.174 13.196 992 57.38 456.234 538.863
233 0 77.2031 12.8492 992 58.3296 456.466 536.557
234 0 80.2595 13.3567 1072 57.4562 455.774 537.455
235 0 84.2581 13.0432 1099 57.8308 455.102 534.004
236 0 85.2995 12.462 1063 59.0292 455.238 533.428
237 0 88.3177 12.9872 1147 58.2964 455.206 532.667
238 1 48.1388 9.68035 466 59.6481 454.631 552.307
239 0 50.2151 10.3355 519 58.2042 455.056 552.674
240 0 52.1561 10.2768 536 58.5019 454.819 552.53
241 0 55.2292 11.3889 629 58.3227 455.684 548.908
242 0 55.1866 11.8326 653 58.1363 455.645 548.352
243 0 56.103 12.174 683 58.2182 454.931 548.111
244 0 60.1312 13.3375 802 57.116 455.106 546.54
245 0 61.2178 11.7613 720 59.1875 455.462 546.603
246 0 64.1386 12.5821 807 58.2974 455.477 544.903
247 0 65.1357 12.9422 843 58.2396 455.409 544.623
248 0 67.0773 12.7316 854 58.4988 454.85 542.615
249 0 69.1185 12.3556 854 59.1991 454.754 542.65
250 0 71.1147 12.8665 915 58.8317 455.155 541.108
251 0 72.1428 13.4871 973 59.0134 455.12 539.121
252 0 77.1178 13.1098 1011 58.5964 455.456 539.019
253 0 77.049 12.4466 959 60.2065 455.066 538.381
254 0 79.0553 13.421 1061 59.4844 455.156 537.594
255 0 84.1935 13.3502 1124 58.8363 455.266 537.21
256 1 43.0249 9.62235 414 59.2754 454.263 557.138
257 0 45.0437 10.2567 462 59.3377 454.519 555.617
258 0 47.0603 11.4109 537 57.4935 454.723 555.104
259 0 47.0306 12.8214 603 56.8159 454.202 555.308
260 0 50.1931 12.5515 630 59.2968 454.822 552.864
261 0 51.2313 12.6095 646 59.274 454.975 553.141
262 0 51.2438 12.6259 647 59.949 454.904 552.813
263 0 53.1928 12.8213 682 60.2478 454.588 552.381
264 0 54.1742 12.4413 674 60.6632 454.522 551.932
265 0 56.2395 12.6601 712 59.9129 454.188 550.712
266 0 60.1619 13.5135 813 59.1058 454.314 549.298
267 0 61.1273 13.9054 850 59.2412 454.406 548.571
268 0 61.0864 12.5069 764 61.5236 454.069 548.19
269 0 63.1279 13.037 823 60.7375 454.793 546.001
270 0 65.2945 13.2477 865 60.7434 454.569 544.771
271 0 68.1831 12.9504 883 60.5221 454.923 543.804
272 0 70.2092 12.0639 847 61.575 454.713 543.622
273 0 73.2186 13.1797 965 60.0642 455.022 541.771
274 0 73.4338 12.5283 920 61.7576 454.803 539.549
275 0 76.3166 13.1688 1005 60.8597 455.006 537.953
276 0 78.4156 13.9386 1093 60.4007 454.978 537.871
277 0 82.2745 13.7953 1135 60.8335 455.174 535.332
278 0 82.1434 12.6608 1040 62.7192 455.554 532.34
279 1 44.1163 10.427 460 63.7348 455.178 550.711
280 0 45.164 10.6279 480 63.0146 455.431 551.008
281 0 46.1928 10.6294 491 63.1772 455.967 551.01
282 0 48.2224 10.4516 504 63.4742 456.446 549.621
283 0 50.1273 11.6304 583 61.2024 455.931 548.791
284 0 53.2646 12.5224 667 61.7196 455.829 548.148
285 0 54.2363 12.298 667 63.1679 456.978 547.867
286 0 57.2463 12.4375 712 62.639 456.694 546.829
287 0 58.1114 12.1319 705 63.5376 456.992 545.577
288 0 61.2864 13.5103 828 62.1039 457.529 544.115
289 0 63.249 12.7117 804 62.9428 456.989 544.383
290 0 64.2911 12.6767 815 63.4908 457.071 543.112
291 0 67.2177 12.214 821 63.2704 457.457 541.375
292 0 69.2777 13.7129 950 61.6105 457.501 539.503
293 0 71.2274 12.1302 864 63.6806 457.752 538.848
294 0 73.284 12.7313 933 62.5038 457.77 537.415
295 0 76.2054 13.2537 1010 62.002 458.231 535.552
296 0 79.2658 12.8176 1016 62.7333 457.859 533.628
297 0 82.3705 13.2329 1090 62.1486 457.747 533.157
298 1 45.1335 10.4357 471 62.4034 457.951 549.004
299 0 45.1738 10.9134 493 62.3915 457.817 548.533
300 0 46.0814 11.024 508 62.1004 458.203 548.955
301 0 49.0778 11.8384 581 61.5732 458.009 548.181
302 0 50.0792 11.8812 595 63.0941 458.595 548.408
303 0 52.024 12.7441 663 63.1855 458.94 548.406
304 0 53.1719 13.0144 692 63.0434 459.626 547.12
305 0 54.1448 12.4112 672 64.0327 459.347 546.929
306 0 57.1281 13.9686 798 62.3521 459.262 544.858
307 0 58.0765 13.31 773 63.4631 459.414 543.924
308 0 60.1769 12.779 769 63.9753 459.399 543.765
309 0 62.1468 13.3072 827 62.9625 459.244 543.557
310 0 62.2328 13.0317 811 64.4723 458.771 542.166
311 0 64.0963 12.8557 824 65.1663 459.276 540.913
312 0 67.0957 13.6969 919 63.3678 459.801 539.438
313 0 71.0964 14.192 1009 62.2061 459.995 540.137
314 0 72.0942 13.0385 940 63.9308 459.838 538.358
315 0 74.0787 13.7961 1022 63.1321 459.645 537.259
316 0 76.1083 14.6765 1117 62.581 459.269 535.967
317 0 79.0896 14.1864 1122 63.2914 459.405 535.577
318 0 80.1665 14.8192 1188 63.2567 459.38 533.65
319 0 83.1454 14.2882 1188 64.6162 459.535 531.774
320 0 86.2485 14.6669 1265 64.1447 459.207 531.742
321 0 89.2487 14.0282 1252 65.0343 458.685 531.548
322 0 92.119 14.5355 1339 64.4884 458.663 528.525
323 0 96.1656 14.6726 1411 64.1262 458.592 527.003
324 0 98.2158 13.8878 1364 65.129 458.766 527.254
325 0 103.117 14.6338 1509 64.1027 459.351 525.05
326 0 106.215 14.7343 1565 64.3182 459.308 523.596
327 1 55.099 11.3069 623 65.3323 458.91 549.029
328 0 55.1712 12.2709 677 63.9601 459.018 548.935
329 0 55.1712 12.2709 677 157.765 460.007 548.987
330 0 58.0852 13.0842 760 63.7776 458.241 544.184
331 0 60.1006 12.4957 751 63.9654 458.469 545.27
332 0 63.0719 12.7632 805 63.9901 457.865 543.953
333 0 65.1033 14.0085 912 61.8684 457.156 542.984
334 0 67.0835 14.1316 948 62.288 457.166 541.524
335 0 67.0653 13.2259 887 63.5378 457 542.561
336 0 71.0605 13.1156 932 63.3283 457.039 539.426
337 0 73.1166 13.7315 1004 62.0269 456.746 540.663
338 0 76.157 12.855 979 63.1604 456.936 539.111
339 0 80.1016 13.5453 1085 62.3419 457.108 536.092
340 0 81.1828 13.7468 1116 62.6918 457.23 536.135
341 0 84.2271 14.2116 1197 62.5856 457.104 533.127
342 0 88.1272 14.4677 1275 61.9176 457.079 531.369
343 0 89.2307 13.3362 1190 63.7076 456.677 531.871
344 0 94.1752 13.9846 1317 62.5695 456.787 530.462
345 0 98.257 14.5842 1433 61.8151 456.488 529.372
346 0 100.105 13.9854 1400 63.0714 456.507 528.364
347 0 102.335 14.1301 1446 63.316 456.789 525.674
348 0 105.217 14.2563 1500 63.3813 456.665 524.305
349 0 108.324 13.4226 1454 64.379 455.863 524.576
350 0 111.335 13.8321 1540 64.3961 456.058 522.604
351 0 116.339 14.2085 1653 63.5082 455.348 522.082
352 0 120.233 13.9812 1681 63.909 455.371 520.024
353 1 64.1673 11.7817 756 63.4841 455.065 547.717
354 0 66.1941 12.7655 845 63.1101 454.043 545.574
355 0 66.2795 10.9536 726 65.5 454.417 546.2
356 0 69.2602 13.0667 905 63.6884 454.504 543.828
357 0 70.1181 13.135 921 63.6146 454.663 541.923
358 0 76.508 14.1162 1080 61.5546 454.794 540.756
359 0 77.1909 13.3824 1033 62.4627 455.23 540.155
360 0 81.368 13.273 1080 62.3833 455.323 536.743
361 0 84.216 14.3322 1207 61 454.712 534.992
362 0 87.3095 13.5495 1183 62.011 455.683 535.505
363 0 90.2457 12.7873 1154 62.7816 456.056 533.335
364 0 92.2097 12.8511 1185 62.2751 456.597 530.678
365 1 50.5835 11.2685 570 61.4895 456.405 551.998
366 0 50.2612 11.679 587 61.2181 456.232 552.419
367 0 51.3171 11.6141 596 61.3356 456.168 552.374
368 0 54.162 11.7795 638 60.9248 456.241 550.572
369 0 53.163 11.3989 606 62.1205 456.479 548.79
370 0 57.2142 12.0425 689 59.8345 456.794 548.395
371 0 58.2444 13.3575 778 58.7841 457.683 546.461
372 0 59.2654 12.5537 744 59.6855 457.528 546.454
373 0 62.1467 13.098 814 59.2727 456.968 544.254
374 0 63.0604 12.1947 769 60.8531 456.986 543.806
375 0 68.3382 13.799 943 58.0636 457.28 541.82
376 0 70.3248 13.4234 944 58.66 457.463 541.643
377 0 71.3211 13.2499 945 58.5016 457.841 540.865
378 0 73.336 12.7905 938 59.8763 458.081 538.852
379 0 73.336 12.7768 937 150.617 458.084 538.822
380 0 76.5321 12.596 964 61.4627 458.4 535.475
381 0 79.5382 13.4904 1073 60.6673 458.815 535.14
382 0 81.4806 13.8438 1128 60.4016 458.816 534.507
383 0 86.3846 14.7017 1270 59.6976 458.968 531.557
384 0 87.6471 14.102 1236 60.6497 459.294 530.353
385 0 91.5523 13.5769 1243 61.3355 459.696 527.57
386 1 49.6355 12.2896 610 59.7738 458.897 549.303
387 0 49.3513 11.5498 570 60.9158 459.14 548.372
388 0 52.7307 11.7579 620 60.2113 459.229 549.274
389 0 52.5617 12.2523 644 60.6599 459.741 548.067
390 0 55.5157 12.7171 706 60.2776 459.64 545.33
391 0 56.4539 12.2578 692 61.0332 459.092 546.356
392 0 56.5406 11.3016 639 63.3959 459.966 545.08
393 0 59.6061 12.9181 770 61.7143 460.104 543.774
394 0 59.6061 12.9685 773 160.831 460.115 543.734
395 0 63.5811 13.1328 835 62.0419 460.016 541.295
396 0 64.4634 12.6739 817 63.0759 459.8 539.43
397 0 67.5136 13.4492 908 62.3634 459.742 539.272
398 0 70.917 14.3125 1015 61.3064 459.689 537.286
399 0 71.6829 13.2807 952 63.8813 459.926 537.222
400 0 74.5779 13.6367 1017 63.2675 459.892 535.332
401 0 77.6923 13.2059 1026 64.5224 459.981 534.266
402 0 79.7671 14.1412 1128 63.266 460.011 534.638
403 0 81.6757 13.1496 1074 65.2197 459.998 531.254
404 1 41.4997 9.92777 412 67.0922 459.223 551.405
405 0 42.2721 11.1185 470 66.5872 459.138 550.715
406 0 44.1876 10.4781 463 66.9546 460.013 551.352
407 0 46.1684 11.588 535 65.6019 460.4 550.198
408 0 47.1907 11.9727 565 65.7292 460.315 548.65
409 0 49.4236 12.3423 610 65.2688 460.559 547.062
410 0 51.2229 13.1582 674 64.4347 460.34 546.806
411 0 50.3561 12.2726 618 66.1424 460.293 548.403
412 0 51.3155 12.4524 639 66.5649 460.516 546.61
413 0 54.4372 12.9507 705 65.7305 459.909 545.624
414 0 55.3222 12.5447 694 66.8026 459.852 543.589
415 0 57.1843 12.4859 714 67.542 460.452 543.182
416 0 59.2929 12.7334 755 67.4848 459.638 542.053
417 0 62.4771 11.7803 736 68.6005 459.386 542.308
418 0 65.3889 12.8615 841 67.277 459.264 539.848
419 0 67.2626 13.0682 879 66.6701 458.903 539.585
420 0 70.2704 13.8892 976 65.6732 459.122 537.404
421 1 37.2274 9.8046 365 66.474 458.784 556.047
422 0 37.1646 10.9513 407 64.7199 458.361 555.978
423 0 38.2939 10.0016 383 66.1828 458.692 554.726
424 0 39.3317 10.4496 411 65.9757 458.959 556.039
425 0 40.1333 10.8638 436 65.7821 459.039 554.378
426 0 42.1557 11.9557 504 64.3988 458.665 553.47
427 0 42.2139 11.8918 502 63.0717 457.821 552.058
428 0 46.2234 11.8555 548 62.135 457.274 551.684
429 0 47.3136 10.758 509 63.7348 457.206 551.352
430 0 45.1524 11.7602 531 63.3333 456.878 550.546
431 0 50.0958 11.8174 592 61.9949 456.846 550.414
432 0 50.2078 12.269 616 61.7906 456.099 549.779
433 0 52.1662 11.655 608 61.6727 456.451 550.712
434 0 52.217 12.1991 637 61.4066 455.958 548.848
435 0 55.2022 13.1879 728 60.0728 456.456 547.31
436 0 55.1204 12.2822 677 61.675 455.965 547.173
437 0 58.1287 11.3541 660 62.1894 455.724 546.289
438 0 59.1742 12.0154 711 61.8172 455.838 544.871
439 0 59.1232 12.1441 718 62.7451 456.252 543.873
440 0 64.1618 14.2452 914 58.6444 455.807 545.359
441 0 61.2006 12.2875 752 62.9987 456.072 544.125
442 0 65.1083 12.6712 825 61.8388 456.31 544.498
443 0 68.1847 13.4194 915 60.9934 456.287 542.228
444 0 69.1288 13.077 904 62.2157 456.743 541.296
445 0 70.1482 12.7445 894 63.3591 456.861 540.724
446 0 75.104 14.0738 1057 61.0606 456.942 539.432
447 0 76.088 13.1033 997 62.9288 456.369 538.506
448 0 79.1342 13.4582 1065 62.4423 456.761 536.965
449 1 42.0893 10.3827 437 63.9657 456.112 554.501
450 0 43.1145 9.97344 430 64.4791 455.874 554.151
451 0 45.1136 11.4599 517 62.1683 456.052 554.53
452 0 45.0725 10.9601 494 62.9433 456.271 553.215
453 0 47.1443 10.8603 512 62.9727 457.342 551.674
454 0 49.1445 11.8223 581 61.9002 457.262 551.46
455 0 50.085 12.6585 634 61.1057 456.986 550.637
456 0 50.1308 11.5897 581 62.5164 456.32 549.528
457 0 52.0968 12.1313 632 61.4035 456.957 549.943
458 0 54.118 11.6228 629 62.3196 456.281 549.056
459 0 58.0801 12.3967 720 60.4819 456.543 549.538
460 0 57.1096 11.9244 681 61.909 456.486 547.195
461 0 60.0972 12.4631 749 61.8011 456.384 545.088
462 0 62.1045 12.3341 766 62.1788 456.473 545.623
463 0 64.1591 13.0145 835 61.1162 456.168 544.828
464 0 66.1339 12.9283 855 61.5462 455.871 544.87
465 0 67.2124 13.1226 882 62.246 456.179 543.838
466 0 67.1969 12.5303 842 63.8694 456.388 543.204
467 0 72.0992 13.107 945 62.9122 456.437 541.6
468 0 74.0973 13.3743 991 63.0373 456.21 541.12
469 0 76.1066 13.192 1004 63.4811 456.408 540.352
470 0 77.0721 13.2733 1023 63.999 456.297 539.066
471 0 81.1989 13.4115 1089 63.8118 456.112 537.23
472 1 45.0207 10.7284 483 64.5176 455.81 555.027
473 0 45.0444 9.72374 438 65.3813 456.313 556.683
474 0 47.0133 11.5712 544 64.6452 456.757 554.335
475 0 49.0524 11.7833 578 63.8183 456.405 554.196
476 0 51.0945 12.1931 623 63.4366 456.244 553.404
477 0 52.1835 12.5135 653 62.0184 456.432 553.231
478 0 52.0862 12.1913 635 63.3244 457.098 551.713
479 0 53.1993 11.8611 631 63.5483 456.976 551.772
480 0 55.0817 12.1637 670 63.6224 456.739 550.416
481 0 56.1161 13.4364 754 62.2042 456.851 549.606
482 0 60.0582 12.3047 739 63.1692 456.564 547.49
483 0 61.1776 12.9623 793 61.8815 456.647 547.622
484 0 64.0789 12.9684 831 62.1709 456.225 546.62
485 0 65.0623 11.635 757 63.469 456.573 547.653
486 0 65.0963 12.4892 813 63.9102 456.594 544.975
487 0 69.0702 13.3487 922 62.2961 456.67 543.585
488 0 71.1388 13.0168 926 62.8931 457.119 542.348
489 0 72.1392 13.3076 960 62.4052 457.392 539.719
490 0 78.2486 13.0737 1023 61.477 457.361 540.5
491 0 79.2148 13.2677 1051 61.5404 457.027 539.252
492 1 41.0862 10.9526 450 61.0022 457.329 556.811
493 0 42.059 9.8671 415 61.5518 456.904 557.048
494 0 45.1827 11.2432 508 60.1929 457.254 555.695
495 0 43.097 11.2769 486 61.3704 457.06 555.014
496 0 47.1014 12.2926 579 58.8152 456.677 555.031
497 0 50.1211 12.4898 626 59.5831 456.816 552.465
498 0 48.0525 12.4447 598 61.4716 456.65 552.212
499 0 51.271 12.3852 635 60.778 456.441 551.817
500 0 51.2579 11.686 599 62.3606 456.508 550.429
501 0 52.1714 11.8647 619 62.3586 456.317 550.817
502 0 55.0886 12.9972 716 60.4637 456.645 549.374
503 0 56.0926 12.4972 701 61.8659 456.827 547.486
504 0 57.1404 12.6705 724 61.7058 456.845 547.717
505 0 61.1379 12.8235 784 61.5548 456.541 546.425
506 0 63.1212 12.7691 806 61.9553 456.634 545.128
507 0 64.1396 13.0185 835 61.8096 457.279 545.326
508 0 66.1556 13.0752 865 61.7514 457.599 544.835
509 1 32.0885 10.3464 332 63.5843 456.166 560.009
510 0 35.1812 10.6591 375 62.368 456.432 558.837
511 0 37.183 11.7527 437 60.1236 456.515 558.714
512 0 38.0544 11.5624 440 60.825 456.655 557.302
513 0 37.03 11.5582 428 62.1495 457.145 556.696
514 0 38.3489 12.3081 472 61.3665 457.847 557.214
515 0 38.3426 11.9189 457 61.8162 457.409 557.637
516 0 41.2028 11.5526 476 62.2878 457.508 555.784
517 0 42.3255 11.577 490 60.7347 457.418 555.412
518 0 43.1978 12.6858 548 59.6095 458.144 554.246
519 0 45.1951 12.2801 555 60.1351 458.508 554.101
520 0 44.3553 12.6479 561 60.8307 458.927 552.362
521 0 48.1315 12.7775 615 59.9642 458.515 552.589
522 0 50.4294 13.0083 656 59.7561 458.619 550.54
523 0 50.1918 13.2093 663 60.1931 458.618 550.858
524 0 50.2643 12.2751 617 61.9384 458.402 550.379
525 0 53.301 13.4331 716 60.1466 458.399 548.821
526 0 55.2032 12.8797 711 61.0084 458.542 548.423
527 0 57.3416 13.6724 784 59.8992 458.26 548.61
528 0 57.148 13.3163 761 60.77 458.514 546.594
529 0 59.2074 13.9003 823 60.2442 458.574 545.147
530 0 59.2074 13.9003 823 163.977 458.574 545.147
531 0 64.1635 14.276 916 59.5251 458.463 542.307
532 0 64.1281 13.2859 852 61.4448 458.489 543.203
533 0 66.13 13.3978 886 61.0305 458.968 541.685
534 0 69.1756 13.8199 956 60.2395 459.111 540.786
535 0 71.2259 13.6608 973 60.1161 458.658 538.423
536 1 39.1127 11.0961 434 61.4309 458.841 555.458
537 0 39.203 9.8972 388 62.0077 458.577 555.302
538 0 41.2708 11.7759 486 60.8333 458.422 552.868
539 0 44.2667 12.131 537 59.1248 458.203 551.827
540 0 42.1561 11.5286 486 60.6996 458.319 551.16
541 0 45.0465 12.809 577 59.0624 458.203 551.244
542 0 45.1364 12.9829 586 59.3191 457.829 551.65
543 0 48.1667 13.3287 642 59.7072 457.578 550.824
544 0 48.2111 12.5697 606 60.4984 457.462 551.142
545 0 51.139 12.8669 658 60.2371 457.856 549.584
546 0 51.1225 13.3209 681 60.3054 457.702 548.814
547 0 52.1186 13.546 706 60.7606 457.8 547.874
548 0 53.098 12.9007 685 62.2263 457.368 547.407
549 0 56.1132 13.2589 744 61.5968 457.573 546.789
550 0 56.1103 12.9032 724 62.7762 457.771 545.877
551 0 58.0635 13.6575 793 62.3909 458.067 545.929
552 0 59.1102 14.363 849 61.9953 457.759 545.247
553 0 59.0538 13.3438 788 64.203 457.636 545.058
554 0 64.0292 13.9624 894 62.585 458.517 543.723
555 0 64.0322 13.1028 839 64.2241 458.268 542.553
556 0 68.1039 13.1417 895 63.2548 458.404 542.478
557 0 69.0332 13.0082 898 64.755 457.865 539.558
558 0 72.0813 13.1518 948 64.0285 458.041 541.518
559 0 75.1173 13.4723 1012 63.9437 457.87 537.784
560 1 39.069 10.827 423 66.2104 457.939 554.525
561 0 40.0534 11.3598 455 65.3055 458.398 554.336
562 0 43.0767 11.2822 486 64.786 458.543 551.776
563 0 45.038 11.7678 530 63.7396 457.866 553.402
564 0 43.1131 12.1077 522 64.4674 458.395 551.397
565 0 46.1186 12.4679 575 64.007 458.19 550.289
566 0 48.0338 13.4905 648 62.5417 458.159 550.301
567 0 50.089 12.378 620 64.4016 458.516 550.45
568 0 50.0539 13.6852 685 63.0978 458.531 548.993
569 0 52.053 13.5439 705 62.8553 458.296 548.627
570 0 53.0958 12.8447 682 64.5938 458.201 547.271
571 0 55.3581 13.8552 767 63.0417 458.004 547.653
572 0 55.3229 13.5025 747 64.5033 457.814 545.581
573 0 57.1861 13.867 793 64.0555 457.329 546.415
574 0 58.0972 13.4774 783 64.5096 457.262 545.257
575 0 60.1119 13.2586 797 65.0464 457.028 544.784
576 0 64.0379 14.3353 918 63.6874 456.854 544.43
577 0 65.1168 13.6831 891 65.0673 457.481 542.635
578 0 68.1251 13.9009 947 64.1236 456.956 544.135
579 0 68.2218 14.4675 987 64.3465 456.882 539.608
580 0 73.2849 13.9592 1023 64.1701 456.597 541.643
581 0 74.2021 14.0158 1040 64.2192 456.445 540.175
582 0 76.1596 14.8898 1134 63.6058 456.305 539.66
583 1 38.0754 10.9782 418 65.2775 456.211 558.438
584 0 41.0229 11.9202 489 63.9918 456.039 557.775
585 0 41.0672 11.9804 492 65.0854 455.713 555.671
586 0 43.1942 12.5943 544 64.5533 454.91 554.895
587 0 44.0956 12.9718 572 64.25 455.533 555.091
588 0 44.1827 13.761 608 63.954 455.181 555.005
589 0 47.0762 13.7224 646 63.2214 454.921 555.05
590 0 49.0377 13.1531 645 64.2031 455.127 555.172
591 0 48.0396 12.8019 615 65.1366 455.293 554.52
592 0 50.1086 13.4508 674 64.2641 455.349 554.381
593 0 52.0339 13.3567 695 64.4259 454.898 554.048
594 0 53.0439 13.5737 720 63.2431 455.293 553.361
595 0 53.0497 13.9869 742 62.8666 455.078 552.468
596 0 57.0787 14.6114 834 60.2722 455.005 551.612
597 0 58.1996 14.8455 864 60.0139 454.968 549.51
598 0 62.0859 13.5135 839 60.3254 455.33 548.949
599 0 62.0734 13.7579 854 60.911 455.008 547.922
600 0 64.064 13.7519 881 61.5585 454.367 546.634
601 0 67.1368 14.5375 976 58.7459 454.463 546.491
602 0 68.1592 13.6005 927 60.6818 454.838 545.175
603 0 73.0955 14.4332 1055 58.9194 454.804 544.324
604 0 76.1293 13.5296 1030 58.7068 454.532 542.537
605 0 76.0869 14.812 1127 58.0373 454.83 540.92
606 0 80.1084 14.8299 1188 57.4604 454.655 540.653
607 0 82.3182 13.6179 1121 59.9384 455.076 538.792
608 0 86.1459 13.9879 1205 60.0988 455.277 536.636
609 0 90.1335 14.4231 1300 60.71 455.765 534.575
610 1 48.069 11.6291 559 62.068 455.462 556.957
611 0 49.0714 11.5954 569 63.471 455.088 554.768
612 0 51.0851 12.489 638 62.2759 455.364 555.215
613 0 54.0855 12.092 654 64.0994 455.102 553.287
614 0 54.0542 13.542 732 63.0628 455.249 551.956
615 0 55.1453 13.2378 730 63.6521 454.915 549.664
616 0 58.0576 13.6761 794 63.2028 455.023 549.358
617 0 61.0673 13.002 794 63.0831 455.092 548.878
618 0 62.291 13.8222 861 61.8351 454.895 548.19
619 0 64.1747 14.1645 909 61.2464 455.104 546.295
620 0 65.067 13.6321 887 61.3044 454.991 546.503
621 0 69.0635 14.3781 993 60.4401 455.358 544.101
622 0 72.1102 13.5348 976 61.8371 454.957 544.083
623 0 75.1795 13.6473 1026 61.2398 455.606 542.506
624 0 76.1176 13.8076 1051 61.3501 455.578 542.742
625 0 80.2397 14.0454 1127 61.2813 455.664 539.451
626 0 82.3288 14.6486 1206 60.7977 455.551 537.36
627 1 46.0323 12.1002 557 62.3016 455.429 555.998
628 0 48.0992 12.1624 585 61.3692 455.429 556.815
629 0 48.1542 12.0654 581 63.241 455.608 555.435
630 0 50.3053 12.6229 635 61.5858 455.51 554.225
631 0 50.3062 13.4377 676 60.8284 455.51 553.571
632 0 53.3647 13.4358 717 60.3138 455.775 552.817
633 0 54.1044 13.7512 744 60.1156 456.052 551.421
634 0 56.159 13.3015 747 59.6024 456.076 550.265
635 0 60.1356 13.1204 789 59.2117 456.203 547.999
636 0 61.1972 13.6607 836 58.8816 456.562 548.55
637 0 62.1468 13.2267 822 59.3151 457.145 546.249
638 0 66.1211 14.8818 984 56.6728 456.914 543.954
639 0 71.2686 14.4383 1029 56.1691 457.303 544.298
640 0 71.1581 14.3202 1019 56.5172 457.047 544.06
641 0 74.0934 13.8879 1029 56.9436 456.964 541.197
642 0 77.1809 14.0708 1086 56.6492 457.275 538
643 0 80.3084 14.2326 1143 56.3543 457.18 539.349
644 0 83.3479 14.4215 1202 55.4551 457.349 537.812
645 1 44.1476 11.1218 491 56.6721 456.91 556.912
646 0 45.0456 12.1876 549 56.3133 456.984 554.876
647 0 48.168 13.7436 662 54.7205 456.899 553.19
648 0 50.3372 13.4096 675 55.6904 456.969 551.526
649 0 53.3327 13.3314 711 55.1069 457.059 551.243
650 0 54.2391 13.3483 724 55.9655 457.699 550.761
651 0 55.205 13.4046 740 56.8689 458.058 549.731
652 0 57.2116 13.6511 781 56.6594 458.294 547.935
653 0 58.3462 13.5227 789 57.1432 458.286 548.696
654 0 60.2708 13.6053 820 57.128 458.107 547.001
655 0 62.2803 13.9691 870 56.9851 457.931 546.94
656 0 65.2979 13.4767 880 57.7432 457.956 545.549
657 0 67.3124 13.727 924 57.6006 458.738 543.711
658 0 70.2642 14.602 1026 57.4084 458.558 540.53
659 0 73.4381 15.1556 1113 57.0494 458.709 538.402
660 0 75.2796 14.6122 1100 57.6418 458.783 537.563
661 0 77.3641 14.477 1120 58.4589 458.386 535.876
662 1 40.386 11.4644 463 61.1663 459.19 554.114
663 0 40.1409 11.4596 460 62.5804 459.474 552.93
664 0 42.2603 13.0856 553 60.7016 459.837 551.584
665 0 44.412 12.9244 574 60.7439 459.591 552.099
666 0 46.2829 13.6336 631 60.7702 459.964 550.696
667 0 48.3138 14.2195 687 60.0801 460.076 549.834
668 0 48.298 14.0586 679 61.3638 460.162 547.987
669 0 50.2127 13.2636 666 62.509 460.369 547.12
670 0 51.5856 14.3257 739 61.1597 460.06 548.349
671 0 53.3081 13.8816 740 61.8946 460.334 546.809
672 0 55.4117 14.5998 809 61.3202 460.044 545.208
673 0 56.4218 14.2144 802 62.1147 460.182 544.675
674 0 59.467 14.63 870 61.0655 460.331 543.893
675 0 60.2746 13.7537 829 62.1387 460.883 541.018
676 0 64.4273 16.0336 1033 58.2488 461.276 541.147
677 0 65.522 14.2853 936 60.5214 461.153 541.468
678 0 66.3599 14.4214 957 60.5716 461.357 539.355
679 0 68.4028 15.7742 1079 58.684 460.832 538.285
680 0 70.49 15.2504 1075 58.8446 461.805 537.434
681 0 73.3477 13.8655 1017 60.6549 461.461 535.437
682 0 76.3966 14.2807 1091 59.7809 460.968 535.742
683 0 77.4845 14.7513 1143 58.9746 461.42 535.156
684 1 40.359 11.9676 483 62.3064 461.814 549.313
685 0 42.2696 12.5386 530 61.7604 461.832 549.526
686 0 42.4073 11.814 501 62.986 461.09 549.643
687 0 43.2914 13.2128 572 61.3794 461.075 548.914
688 0 46.4913 13.7015 637 60.5604 460.821 547.771
689 0 47.3333 13.8169 654 61.3593 461.052 546.945
690 0 49.2021 14.0848 693 61.1977 461.411 546.107
691 0 50.3311 15.4974 780 59.4192 460.932 545.428
692 0 51.4091 14.0831 724 61.2762 461.535 544.36
693 0 53.3086 14.3504 765 60.6288 461.424 544.082
694 0 53.2135 14.6204 778 61.0694 461.197 544.738
695 0 56.2304 14.5651 819 60.6361 460.391 544.442
696 0 58.2584 15.0365 876 60.226 460.739 541.906
697 0 61.0991 14.4356 882 60.7948 460.732 543.739
698 0 64.314 13.4807 867 60.7497 460.188 542.679
699 0 64.2244 13.4684 865 61.3931 460.277 540.987
700 0 68.1964 15.382 1049 58.8008 459.993 540.963
701 0 69.1097 14.3829 994 60.7264 459.817 537.821
702 0 73.1056 14.8826 1088 60.0552 459.369 536.446
703 0 75.1728 14.7261 1107 60.3984 459.026 536.224
704 0 79.111 14.3975 1139 61.0913 459.651 533.478
705 0 81.3448 13.8546 1127 61.8882 459.665 533.358
706 0 81.3448 13.83 1125 169.203 459.652 533.33
707 1 44.0349 10.6733 470 61.4745 459.302 552.77
708 0 45.0891 11.6658 526 61.5665 459.298 550.972
709 0 48.0712 11.691 562 60.5285 458.657 552.055
710 0 48.0899 12.0607 580 60.6897 457.993 551.774
711 0 49.2716 12.6442 623 61.0225 458.122 550.623
712 0 51.231 12.4729 639 61.169 457.615 549.393
713 0 53.2511 12.8072 682 61.0836 457.928 548.666
714 0 56.1596 12.7494 716 60.7318 457.372 547.832
715 0 56.1704 12.6223 709 61.4231 457.906 545.716
716 0 57.1312 12.9526 740 61.5824 457.268 545.369
717 0 59.1617 12.6771 750 61.996 456.913 545.879
718 0 62.2202 12.9701 807 61.9418 456.724 543.229
719 0 63.1829 12.9624 819 62.2967 457.011 543.212
720 0 67.1518 12.5983 846 61.7872 456.722 542.106
721 0 69.3521 12.5879 873 62.5292 456.617 541.661
722 0 70.1158 13.4349 942 61.3503 456.506 542.41
723 0 72.2678 13.3946 968 61.9721 456.846 540.305
724 0 74.1927 12.6562 939 63.0532 456.606 538.355
725 0 77.1764 13.1128 1012 63.1117 456.481 538.002
726 0 80.1678 13.1474 1054 62.4364 456.189 534.977
727 0 82.1605 13.4615 1106 62.4638 456.095 534.335
728 0 86.1916 13.3076 1147 62.6129 455.991 534.627
729 0 87.2207 13.2079 1152 62.5078 456.186 531.942
730 0 90.1811 12.8519 1159 62.0751 455.471 531.27
731 1 52.2137 11.2231 586 59.2543 455.176 553.13
732 0 52.0595 10.5264 548 60.2828 455.71 552.599
733 0 55.0751 12.5828 693 58.6133 455.665 550.831
734 0 55.1766 11.581 639 60.7778 455.837 549.956
735 0 57.1292 11.5878 662 61.0287 455.506 549.405
736 0 59.1022 12.3346 729 60.9684 455.303 546.495
737 0 62.0959 12.8833 800 60.7062 455.815 545.446
738 0 63.1471 12.463 787 61.5044 455.454 545.114
739 0 65.2266 13.2155 862 60.4443 455.348 543.812
740 0 68.1118 13.1548 896 60.0312 455.914 544.34
741 0 70.2661 12.9935 913 60.9014 455.723 542.904
742 0 72.4421 12.686 919 61.4178 455.258 542.218
743 0 75.269 12.6745 954 61.4036 455.7 541.382
744 0 77.2338 13.4268 1037 60.756 454.9 540.687
745 1 41.2157 9.07422 374 62.8529 454.436 558.176
746 0 41.2795 9.15708 378 63.373 454.399 558.029
747 0 45.2319 10.0151 453 62.3642 454.009 556.903
748 0 46.2442 9.75258 451 61.8647 454.153 557.401
749 0 47.2326 10.5859 500 61.44 453.382 555.098
750 0 47.1468 10.6688 503 61.9284 453.149 554.523
751 0 49.1413 11.1719 549 61.1548 453.049 553.953
752 0 51.1736 12.0179 615 60.5415 453.405 552.875
753 0 54.2264 12.6138 684 60.9167 453.338 551.297
754 0 56.2247 12.3078 692 61.1517 453.594 550.697
755 0 56.2476 12.765 718 61.1783 454.401 549.045
756 0 60.2213 12.5039 753 60.4794 454.42 549.372
757 0 58.114 12.682 737 61.6391 454.088 548.627
758 0 61.2296 12.4776 764 61.2029 453.458 548.603
759 0 64.2888 12.5372 806 60.8871 453.753 546.831
760 0 64.1709 12.5914 808 61.5891 453.771 545.776
761 0 67.2604 11.9535 804 61.5572 453.657 545.638
762 0 70.2212 11.3783 799 62.786 453.427 543.342
763 0 71.2788 12.851 916 61.3985 453.612 543.428
764 0 73.2918 12.5116 917 61.9804 453.771 541.452
765 0 78.307 12.9363 1013 60.5735 454.353 539.185
766 0 79.1928 13.3598 1058 61.2268 453.904 537.691
767 1 39.135 8.76453 343 59.9592 455.539 558.889
768 0 40.2157 9.9215 399 58.7043 455.218 559.394
769 0 43.3663 12.3829 537 56.2849 454.311 556.656
770 0 44.1624 11.7521 519 57.7977 453.956 557.541
771 0 46.4199 12.3438 573 58.1431 453.927 556.068
772 0 47.3392 12.0619 571 58.7548 453.72 555.469
773 0 47.2076 11.1635 527 59.9184 453.945 555.863
774 0 47.24 11.9814 566 60.1042 453.597 554.758
775 0 50.2779 11.5757 582 59.6186 453.648 553.826
776 0 52.3334 11.5987 607 59.3558 453.306 553.707
777 0 53.1524 11.5329 613 60.1843 453.543 553.07
778 0 54.1715 12.682 687 58.9185 453.693 551.891
779 0 56.1984 12.4025 697 59.1133 453.989 551.822
780 0 56.1604 11.8767 667 59.967 454.316 551.598
781 0 58.1637 11.9318 694 60.4164 454.267 549.777
782 0 60.2011 12.425 748 59.7487 454.475 549.279
783 0 62.2291 12.8718 801 58.4782 454.436 548.673
784 0 62.1969 12.2836 764 60.1675 454.522 548.384
785 0 63.1809 11.7599 743 60.6205 454.934 547.081
786 0 66.11 13.1901 872 58.8234 455.188 545.566
787 0 68.2772 12.8008 874 59.8764 455.294 543.887
788 0 69.1915 12.4726 863 61.0545 455.545 542.905
789 0 73.2292 12.9047 945 59.7884 455.501 541.437
790 0 74.5016 12.993 968 60.313 455.534 540.992
791 1 42.2067 9.21654 389 62.1208 456.357 556.936
792 0 43.3332 10.5693 458 61.1725 456.528 556.786
793 0 44.1817 10.7737 476 61.4307 456.233 556.588
794 0 43.1168 11.1558 481 62.2204 456.1 554.443
795 0 46.1555 10.9196 504 61.3393 456.157 554.393
796 0 46.1666 11.3069 522 61.613 457.084 554.732
797 0 47.2316 11.0307 521 62.1516 456.549 552.925
798 0 50.1862 11.6765 586 61.8584 456.481 550.899
799 0 51.1304 11.7934 603 61.6882 455.617 551.065
800 0 53.0518 12.3087 653 60.4349 455.747 550.087
801 0 53.0353 11.6338 617 61.6418 455.976 550.125
802 0 55.3021 12.4227 687 59.9549 456.344 547.901
803 0 57.0455 11.9729 683 60.8243 455.653 547.587
804 0 56.0585 12.8437 720 60.475 455.565 545.843
805 0 60.0758 12.0015 721 60.7656 455.481 546.381
806 0 61.1079 12.6661 774 60.4806 455.162 543.443
807 0 65.1037 12.411 808 59.1597 455.387 543.124
808 0 67.0452 12.3797 830 59.2132 455.726 541.377
809 0 70.067 12.9448 907 58.2315 455.719 540.793
810 0 72.2089 13.0732 944 58.1165 456.618 539.511
811 0 75.0847 13.1185 985 57.8893 456.665 537.94
812 0 76.1831 13.5069 1029 58.1079 457.084 534.43
813 0 79.299 12.9131 1024 58.2266 457.145 536.219
814 0 82.2586 12.8011 1053 58.5147 457.182 535.151
815 0 85.333 12.9493 1105 57.8154 457.244 532.568
816 0 89.1599 13.515 1205 56.9336 457.495 530.856
817 1 45.0815 10.359 467 58.8758 457.293 553.63
818 0 46.0772 12.6093 581 56.7349 457.437 550.43
819 0 47.2493 11.9579 565 57.3858 457.804 549.692
820 0 50.1758 12.0377 604 56.6457 457.823 549.093
821 0 52.195 11.8977 621 56.7939 457.092 549.061
822 0 54.1476 12.7614 691 56.2243 457.483 548.395
823 0 52.0813 12.2117 636 57.2076 457.159 547.237
824 0 56.1064 13.2071 741 55.8057 457.474 545.918
825 0 59.2286 13.3044 788 55.8896 458.022 545.08
826 0 60.128 12.6563 761 56.816 457.963 545.424
827 0 60.0944 11.6816 702 58.3348 457.839 544.68
828 0 61.094 12.3416 754 57.6565 458.068 542.359
829 0 63.0879 12.7917 807 57.5378 458.061 540.919
830 0 68.1201 14.1221 962 56.0811 458.05 540.082
831 0 69.0706 12.6392 873 57.6724 457.727 539.27
832 0 71.1749 11.9143 848 58.2429 457.389 538.82
833 0 75.0887 13.1445 987 56.7923 457.453 536.66
834 1 41.0543 9.71884 399 59.005 456.749 552.89
835 0 43.048 9.87271 425 59.0824 456.026 552.873
836 0 45.1291 10.9021 492 56.815 455.64 550.974
837 0 46.0496 11.6613 537 56.4339 455.65 551.942
838 0 45.0464 11.5215 519 57.1426 455.453 551.52
839 0 47.0879 11.8502 558 56.9713 455.563 550.771
840 0 49.0962 11.9561 587 56.6831 455.688 550.284
841 0 50.0396 11.2511 563 57.5275 455.325 549.52
842 0 53.0381 13.1792 699 55.8956 455.299 548.199
843 0 55.0471 12.9889 715 56.0056 455.045 546.734
844 0 56.1205 13.6136 764 55.2853 455.941 547.687
845 0 55.0663 12.4032 683 57.716 455.444 546.119
846 0 57.1434 12.2324 699 57.9299 455.12 546.25
847 0 60.1941 14.1542 852 56.0164 455.371 544.798
848 0 62.2432 13.0938 815 57.2785 455.551 545.087
849 0 63.1291 12.815 809 57.9419 455.472 543.419
850 0 66.0889 13.6634 903 57.196 455.972 542.736
851 0 68.2271 12.6636 864 58.7882 455.841 541.215
852 0 71.1963 14.6356 1042 56.6948 456.316 538.664
853 0 73.2225 13.4658 986 58.073 456.6 539.04
854 0 74.3555 12.9109 960 59.0083 456.325 535.567
855 0 77.3215 13.1141 1014 59.003 456.39 536.019
856 0 82.2859 13.2222 1088 58.2325 456.5 533.612
857 0 82.2948 13.002 1070 59.4421 456.325 531.567
858 0 86.2829 13.5137 1166 58.2281 456.384 532.873
859 0 89.3738 12.8002 1144 58.9318 456.097 530.552
860 1 47.1881 10.0873 476 59.0966 456.485 552.286
861 0 47.2901 10.9748 519 58.7707 456.464 550.462
862 0 49.2316 12.2685 604 58.1474 455.998 548.824
863 0 52.3518 12.2059 639 57.9875 456.324 548.095
864 0 51.1485 11.4568 586 59.5188 456.01 548.998
865 0 53.16 11.55 614 59.9153 456.251 546.45
866 0 54.1851 12.2912 666 59.1216 456.006 546.622
867 0 57.1621 12.0534 689 59.0885 454.781 547.595
868 0 58.1778 11.843 689 59.5022 455.096 546.686
869 0 60.1634 12.1004 728 60.8365 455.493 543.679
870 0 62.158 12.9187 803 60.5093 454.994 542.161
871 0 64.2308 12.0503 774 61.6085 454.832 541.659
872 0 68.054 13.4158 913 59.6156 454.492 540.352
873 0 67.1188 12.0533 809 62.1669 455.131 539.103
874 0 71.1013 13.1362 934 60.6863 455.114 538.692
875 0 73.0581 12.4148 907 61.505 454.491 538.568
876 0 77.0672 13.0406 1005 61.592 454.136 537.339
877 0 78.1231 13.1971 1031 62.128 454.438 536.076
878 0 79.1251 12.8025 1013 62.9309 455.174 533.498
879 0 86.2886 13.3505 1152 61.7309 454.817 532.532
880 1 45.0498 9.98894 450 63.04 454.169 554.336
881 0 47.0584 11.1564 525 62.741 454.387 552.65
882 0 48.1211 11.1386 536 59.8825 453.946 553.05
883 0 51.0895 11.8615 606 59.4653 454.959 552.409
884 0 50.0966 12.5358 628 59.8981 455.175 550.642
885 0 55.2037 12.6441 698 58.8911 455.017 550.599
886 0 55.0782 11.983 660 60.4712 454.933 549.374
887 0 56.1214 11.1722 627 61.4434 454.735 549.419
888 0 56.1221 11.8314 664 61.4217 454.681 548.476
889 0 60.1141 11.4948 691 61.3184 454.745 546.666
890 0 61.16 12.2793 751 61.2916 454.808 545.449
891 0 64.1517 12.3925 795 60.5057 455.001 545.083
892 0 65.2254 12.4645 813 70.4822 454.963 543.813
893 0 68.2416 13.0859 893 60.514 455.477 541.261
894 0 68.136 11.7706 802 61.4875 455.882 542.41
895 0 71.2143 11.6971 833 61.5222 456.431 540.982
896 0 73.1476 12.0031 878 61.5194 456.305 538.929
897 0 75.2054 12.672 953 60.4617 456.843 539.244
898 0 77.317 11.8215 914 61.9168 456.898 535.202
899 0 80.184 12.6958 1018 60.5079 456.779 534.74
900 1 46.0953 9.87085 455 61.189 456.956 551.556
901 0 46.0963 10.2394 472 61.5742 456.953 550.837
902 0 47.1378 10.1617 479 62.0564 457.399 549.979
903 0 49.0968 11.182 549 61.3752 457.525 548.548
904 0 50.1912 10.9182 548 62.0675 458.068 549.52
905 0 52.1446 12.5037 652 60.638 457.36 548.385
906 0 54.0573 12.8382 694 60.5158 457.988 546.971
907 0 55.1123 12.8465 708 60.6257 458.407 545.588
908 0 55.1051 12.5578 692 61.3974 458.185 545.592
909 0 59.0963 12.8265 758 59.6451 458.905 544.642
910 0 60.1152 12.4095 746 60.3794 459.188 545.727
911 0 61.1614 13.2273 809 59.2522 458.501 542.944
912 0 64.1771 12.7148 816 59.4203 458.977 541.168
913 0 65.1537 13.2456 863 59.0985 458.491 541.925
914 0 67.1732 13.16 884 59.9299 458.769 538.321
915 0 69.1762 11.9983 830 61.0831 459.053 537.243
916 0 71.2351 11.8902 847 61.0685 458.449 537.037
917 0 75.3525 13.1382 990 59.4222 458.742 533.909
918 0 78.5572 12.8696 1011 59.3897 458.785 533.786
919 0 81.5334 12.964 1057 59.2791 459.106 532.152
920 0 83.4743 13.1298 1096 58.8686 459.195 531.14
921 1 41.472 9.37981 389 59.928 458.165 551.144
922 0 44.3598 10.7079 475 58.0884 458.907 551.242
923 0 43.3223 10.5719 458 58.5371 459.496 550.461
924 0 47.2697 12.545 593 56.656 459.705 543.401
925 0 47.2804 12.3941 586 56.5392 458.937 548.155
926 0 47.4403 12.1416 576 57.408 459.299 546.797
927 0 51.2865 13.8438 710 54.8634 460.339 548.289
928 0 50.1459 11.9451 599 58.2871 460.129 547.758
929 0 53.1982 13.7787 733 55.1869 459.825 546.922
930 0 53.1342 11.8003 627 57.9139 459.759 545.868
931 0 55.1136 12.8462 708 57.5706 459.932 532.314
932 0 58.143 12.8476 747 56.9772 459.285 538.404
933 0 59.2488 13.1142 777 57.1197 459.421 536.973
934 0 59.0987 11.7938 697 58.7891 459.032 539.185
935 0 59.1141 13.2963 786 57.0038 459.025 541.298
936 0 62.1246 13.2959 826 56.6513 458.672 542.425
937 0 63.2076 12.6725 801 57.9725 458.654 539.561
938 0 66.0577 13.0341 861 57.137 458.713 538.993
939 0 68.0816 13.4544 916 57.1266 459.253 537.842
940 0 70.0642 13.7445 963 57.163 458.84 537.6
941 0 72.0883 13.2338 954 57.825 458.889 537.849
942 0 73.1798 13.9109 1018 57.9538 458.414 533.909
943 0 74.0815 13.2422 981 58.6799 458.197 533.281
944 0 79.0942 14.0465 1111 57.1071 458.045 531.706
945 0 80.2214 12.8145 1028 59.6012 457.861 531.118
946 0 84.2285 13.3447 1124 59.1219 457.593 531.022
947 0 87.2792 12.7293 1111 59.7957 457.309 530.739
948 0 89.4378 13.3836 1197 58.4319 457.266 527.144
949 0 93.2281 13.0218 1214 59.0708 457.428 526.873
950 1 49.1255 11.5012 565 59.3062 456.642 548.143
951 0 50.2006 12.1114 608 58.0115 457.332 547.977
952 0 51.2401 13.7783 706 56.6926 456.906 546.623
953 0 53.2348 12.6985 676 58.7337 456.954 545.515
954 0 55.1528 12.3475 681 58.5022 457.308 544.305
955 0 56.1102 11.4596 643 59.6641 457.194 544.535
956 0 60.1402 12.0219 723 58.6736 457.419 543.159
957 0 61.1599 12.6881 776 58.5773 457.558 540.88
958 0 62.1254 12.2494 761 58.9304 456.753 542.531
959 0 63.3101 12.3519 782 59.2634 456.749 540.253
960 0 67.1122 12.5313 841 58.1427 456.872 539.633
961 0 68.2312 12.9999 887 58.4036 456.467 538.919
962 0 70.0498 13.005 911 58.6564 456.151 538.381
963 0 72.088 12.998 937 59.1153 456.852 536.593
964 0 74.3291 12.7003 944 59.5286 456.551 534.442
965 0 79.1955 12.9679 1027 58.3554 456.391 534.266
966 0 80.3888 12.6883 1020 59.3637 456.269 533.19
967 0 82.3828 12.9153 1064 58.563 456.88 532.754
968 0 85.3966 13.8413 1182 57.3629 456.549 531.316
969 1 49.0706 11.351 557 56.5709 455.978 549.835
970 0 49.024 10.6683 523 58.3155 456.023 550.893
971 0 50.0106 11.6775 584 59.3613 455.783 549.596
972 0 51.055 11.9675 611 57.743 456.044 548.229
973 0 55.1075 12.6843 699 57.6423 457.216 548.212
974 0 57.0413 11.9913 684 59.0482 457.621 546.715
975 0 57.0506 12.8307 732 58.7787 456.887 545.108
976 0 61.061 13.118 801 57.231 457.001 547.926
977 0 63.043 13.2449 835 57.9425 457.285 545.91
978 0 61.086 13.4073 819 59.0794 456.622 542.905
979 0 64.0462 12.7876 819 59.7216 456.243 543.223
980 0 66.0574 13.6245 900 59.0433 456.379 542.627
981 0 67.063 12.5703 843 60.6002 456.794 542.102
982 0 70.1471 12.9585 909 60.3674 456.641 539.717
983 0 72.0648 13.7793 993 59.6616 456.297 538.31
984 0 73.1833 13.391 980 60.9174 455.624 537.367
985 0 77.1293 13.056 1007 60.8391 455.274 537.678
986 0 78.1948 13.1722 1030 61.265 455.447 536.269
987 0 81.138 13.6557 1108 60.8195 455.713 535.617
988 0 81.138 13.6557 1108 166.278 456.713 535.617
989 1 45.0509 10.2329 461 62.282 456.26 553.738
990 0 46.0551 10.7697 496 61.4476 455.804 554.597
991 0 47.0332 11.4813 540 61.2 456.359 552.644
992 0 46.0546 11.9641 551 61.5935 455.501 553.062
993 0 49.0603 11.9852 588 59.5306 455.959 551.927
994 0 51.076 12.687 648 61.3642 455.708 551.707
995 0 50.066 13.8218 692 61.1113 455.634 551.712
996 0 52.1544 12.5205 653 62.6462 455.406 551.326
997 0 53.0536 13.2885 705 62.3886 455.068 549.577
998 0 56.1591 12.8207 720 62.6639 454.828 548.468
999 0 59.1003 13.2825 785 61.6242 454.745 548.529
1000 0 60.0899 13.6296 819 61.4982 454.977 546.529
1001 0 61.0946 12.718 777 63.0244 454.577 546.459
1002 0 62.1008 13.5908 844 62.9763 455.03 545.717
1003 0 65.1118 13.5766 884 62.2783 454.912 543.916
1004 0 67.1561 13.2974 893 63.3001 454.644 543.51
1005 0 70.1064 13.6364 956 62.3598 455.063 541.732
1006 0 71.1526 13.45 957 63.1505 455.089 541.246
1007 0 74.1967 13.7203 1018 62.7593 455.355 539.229
1008 0 76.0572 12.9245 983 63.9013 455.563 537.277
1009 0 78.1909 13.6461 1067 63.7151 455.656 537.745
1010 0 81.2788 12.5863 1023 65.4888 455.221 535.588
1011 1 42.3392 10.5812 448 67.6942 454.257 555.422
1012 0 45.3698 10.4034 472 67.161 454.464 554.934
1013 0 47.4357 11.2995 536 66.097 455.216 555.541
1014 0 47.3326 12.4016 587 65.7496 455.274 554.45
1015 0 50.2859 12.1505 611 63.5712 455.147 553.283
1016 0 50.192 12.1932 612 65.2958 454.786 553.178
1017 0 51.3337 13.0129 668 64.1946 455.093 551.064
1018 0 54.3183 12.5372 681 64.3466 455.42 549.868
1019 0 57.332 12.4887 716 63.7556 454.824 549.904
1020 0 57.2662 11.9617 685 65.3401 454.947 548.924
1021 0 58.3176 12.9635 756 64.2407 455.214 547.786
1022 0 61.2517 12.9956 796 63.9121 455.487 546.25
1023 0 64.2898 13.6725 879 62.8066 455.528 545.545
1024 0 65.401 12.6145 825 64.6558 456.078 544.733
1025 0 67.1568 12.24 822 65.1849 456.174 543.251
1026 0 68.3221 13.1583 899 63.5873 455.821 543.942
1027 0 70.3096 12.8432 903 64.7663 456.509 541.44
1028 0 73.3096 13.2861 974 64.3634 456.612 541.523
1029 0 76.2458 12.8532 980 64.9122 456.367 540.413
1030 0 78.4435 13.2707 1041 64.7253 456.471 537.728
1031 0 79.4525 13.1777 1047 65.043 456.827 538.416
1032 0 81.4387 12.9177 1052 65.961 456.892 536.619
1033 0 83.4114 13.2236 1103 65.5032 456.864 534.248
1034 0 89.4372 13.4508 1203 64.2436 457.174 532.613
1035 0 91.5718 13.443 1231 65.1178 457.796 529.78
1036 0 94.7094 13.0927 1240 65.071 457.907 530.574
1037 1 51.4574 10.4941 540 66.4148 457.617 550.641
1038 0 53.5468 11.1678 598 65.8328 458.448 551.313
1039 0 54.5686 12.3698 675 64.8978 458.379 548.628
1040 0 57.174 11.9285 682 65.3446 459.051 549.441
1041 0 56.6423 12.0581 683 66.9224 459.069 547.477
1042 0 58.4517 12.6087 737 66.247 459.176 546.68
1043 0 61.2607 13.3691 819 64.5482 458.894 546.935
1044 0 63.5069 12.5498 797 66.3262 459.048 545.661
1045 0 63.5418 12.6846 806 66.6092 458.966 544.634
1046 0 66.7067 12.4125 828 67.0471 459.461 543.482
1047 0 68.7368 13.5735 933 64.3098 459.561 541.727
1048 0 70.3868 12.6586 891 65.8822 459.536 541.239
1049 0 70.7052 13.0118 920 65.9283 459.915 538.855
1050 1 38.4546 10.1678 391 67.3555 459.77 554.435
1051 0 39.3484 11.0551 435 67.9724 459.738 551.738
1052 0 40.6212 10.6595 433 67.8314 460.33 553.995
1053 0 42.4299 10.3465 439 68.9066 459.677 551.984
1054 0 43.3366 11.0992 481 66.6528 460.775 554.108
1055 0 45.2684 11.222 508 65.75 460.557 553.908
1056 0 46.1938 12.8372 593 64.2513 459.761 552.73
1057 0 48.1358 12.2778 591 63.8308 459.575 550.968
1058 0 48.345 11.8523 573 64.8237 459.305 550.513
1059 0 50.2851 12.3496 621 64.3994 459.499 549.388
1060 0 52.3292 11.9818 627 65.2376 459.169 549.506
1061 0 52.294 12.162 636 65.1053 459.225 548.956
1062 0 54.2436 12.831 696 64.2744 459.619 548.111
1063 0 56.2045 11.8496 666 65.8108 459.802 548.17
1064 0 57.1474 12.6515 723 65.1563 459.618 548.071
1065 0 58.1455 12.7095 739 66.0149 459.571 546.409
1066 0 61.1265 12.9567 792 65.2222 459.201 546.162
1067 0 62.1557 12.5009 777 66.278 459.31 543.929
1068 0 63.1218 12.7531 805 65.9441 459.314 533.928
1069 0 64.2006 12.5544 806 66.6489 458.83 535.726
1070 0 66.0792 12.4548 823 65.9708 458.68 541.983
1071 0 67.1426 12.749 856 66.3411 458.242 541.873
1072 0 69.1558 13.0575 903 66.2492 458.699 540.763
1073 0 72.0861 12.3186 888 66.7894 458.749 540.267
1074 0 74.0822 13.674 1013 64.3346 458.661 538.813
1075 0 76.2341 12.8551 980 65.4878 458.945 538.394
1076 0 81.1148 13.7583 1116 63.6407 458.951 534.851
1077 0 81.2481 13.2557 1077 64.7967 458.131 536.305
1078 0 85.1229 13.921 1185 64.0397 458.605 532.44
1079 0 87.2511 13.4783 1176 64.5298 458.036 531.013
1080 0 89.2509 13.6245 1216 64.472 457.989 528.842
1081 0 93.342 13.3059 1242 65.0258 457.924 527.3
1082 1 51.2027 11.015 564 65.0018 457.72 550.044
1083 0 52.1192 10.6679 556 65.8094 458.13 549.847
1084 0 53.2872 11.0345 588 65.7636 457.864 548.728
1085 0 54.2877 11.7706 639 65.0814 457.851 546.906
1086 0 54.2204 11.5086 624 66.6458 457.8 546.069
1087 0 56.3871 11.6161 655 67.2214 457.623 544.351
1088 0 60.3042 13.2163 797 63.7691 457.673 544.838
1089 0 62.1847 12.1734 757 64.9974 457.527 544.174
1090 0 63.2647 12.8824 815 64.8245 457.627 543.598
1091 0 65.113 13.0696 851 65.1434 457.207 542.831
1092 0 67.1666 13.1315 882 65.0816 457.634 542.086
1093 0 68.1805 13.4789 919 65.1088 457.783 541.318
1094 0 70.0977 12.9248 906 65.8234 457.304 540.34
1095 0 75.2394 13.1048 986 65.3114 457.703 538.383
1096 0 76.1684 13.5621 1033 65.5363 457.647 537.686
1097 0 79.2674 13.4734 1068 65.5047 457.565 536.64
1098 0 82.3356 13.7122 1129 65.1851 457.727 533.589
1099 0 86.2503 13.8782 1197 64.264 457.543 532.937
1100 0 89.1414 14.0788 1255 64.8143 457.468 532.322
1101 0 91.1694 13.8643 1264 65.0261 457.36 530.819
1102 0 95.2603 13.5313 1289 65.1955 457.31 528.026
1103 0 97.1574 13.2774 1290 66.1287 456.917 526.998
1104 1 51.1966 10.1178 518 67.5077 456.577 550.404
1105 0 53.282 11.2608 600 66.4367 456.355 549.308
1106 0 54.1566 11.6699 632 66.2199 456.585 548.581
1107 0 57.4034 12.8564 738 64.4864 456.573 548.079
1108 0 58.1304 12.73 740 65.627 456.465 547.3
1109 0 61.166 12.3435 755 66.1642 456.518 545.67
1110 0 62.3596 12.2515 764 66.6034 456.847 544.415
1111 0 64.2356 12.0961 777 66.3514 456.974 545.851
1112 0 66.2074 12.2343 810 67.0235 456.438 543.64
1113 0 68.4051 12.4114 849 67.2662 456.177 542.469
1114 0 72.3692 12.1322 878 66.7927 455.936 540.883
1115 0 75.214 13.6677 1028 63.7957 456.053 540.184
1116 0 76.4236 13.5429 1035 64.6589 455.669 538.892
1117 0 78.265 13.0965 1025 65.9659 455.727 538.163
1118 0 81.2846 12.8438 1044 66.5268 455.367 536.888
1119 0 83.1872 13.2833 1105 66.009 455.803 535.67
1120 0 86.4094 13.1351 1135 65.9234 456.119 534.367
1121 0 87.364 13.3007 1162 65.3907 455.541 534.171
1122 0 90.3032 12.602 1138 66.9763 455.363 532.026
1123 1 47.2023 10.6563 503 65.8827 455.008 552.398
1124 0 50.1289 11.0914 556 64.6007 454.975 553.169
1125 0 51.1445 9.81532 502 65.245 455.058 552.576
1126 0 52.1895 11.5157 601 63.5324 455.732 551.336
1127 0 54.3928 11.7663 640 63.9922 455.647 550.514
1128 0 56.4065 12.3036 694 63.3703 455.572 548.604
1129 0 57.1361 12.689 725 63.2869 455.472 549.237
1130 0 60.295 12.3559 745 63.4134 455.772 547.866
1131 0 63.2277 12.368 782 63.0358 455.974 546.28
1132 0 65.2295 13.2149 862 61.8852 455.912 546.755
1133 0 66.1366 12.7312 842 62.8765 456.578 544.191
1134 0 67.1889 12.6211 848 63.4505 455.897 542.586
1135 0 69.2591 11.8252 819 64.641 456.281 541.813
1136 0 71.2102 12.3578 880 63.8739 456.257 540.212
1137 0 73.1213 12.746 932 63.7082 456.356 540.218
1138 0 74.2858 12.8019 951 64.8254 455.94 538.51
1139 0 78.4559 12.8735 1010 63.7475 456.187 538.457
1140 0 79.6321 12.181 970 64.6495 455.922 536.927
1141 0 84.4448 12.9907 1097 63.2562 456.76 534.682
1142 0 86.3406 12.9371 1117 64.5273 456.725 533.191
1143 1 46.3866 10.1969 473 66.5412 456.835 552.239
1144 0 47.1839 10.5544 498 65.1044 456.424 552.287
1145 0 49.4797 10.7721 533 65.7486 456.659 551.27
1146 0 51.3304 10.4421 536 65.2313 456.429 550.927
1147 0 53.2946 10.8454 578 64.7751 457.247 550.263
1148 0 56.2593 12.2469 689 63.0305 457.151 548.158
1149 0 57.2716 12.2574 702 63.4815 457.947 547.18
1150 0 60.2568 12.231 737 63.4559 457.961 544.981
1151 0 59.2221 12.0563 714 63.944 458.209 546.849
1152 0 61.2861 13.0209 798 62.7694 458.038 545.183
1153 0 64.3786 12.3022 792 63.6604 458.12 544.174
1154 0 66.2772 12.674 840 63.3536 458.289 543.452
1155 0 67.2802 12.6932 854 63.87 458.118 541.077
1156 0 69.2799 13.1351 910 63.4418 458.563 540.798
1157 0 71.5204 13.4227 960 63.2802 458.774 539.056
1158 0 72.3675 12.9616 938 64.3028 459.116 537.76
1159 0 75.1891 13.1535 989 64.2639 459.383 535.212
1160 0 77.308 12.7024 982 64.8666 459.283 534.946
1161 0 79.3863 13.1509 1044 64.8008 460.38 533.4
1162 0 83.1217 13.7389 1142 64.0928 460.629 532.915
1163 0 84.3137 13.7344 1158 64.7159 460.624 530.699
1164 0 89.2227 14.6824 1310 62.9412 460.731 529.705
1165 0 89.2833 13.0036 1161 66.3669 461.114 527.701
1166 0 93.2841 14.0646 1312 65.2226 461.112 526.617
1167 0 95.364 13.7998 1316 65.845 460.438 525.938
1168 0 100.314 14.3748 1442 64.3842 460.635 525.934
1169 0 103.359 13.7675 1423 65.4336 460.656 523.696
1170 0 104.239 14.0447 1464 65.4358 461.001 522.27
1171 0 105.326 13.4439 1416 67.2366 461.65 521.066
1172 0 109.308 13.6953 1497 66.6293 461.586 519.208
1173 0 114.421 14.1321 1617 65.8881 462.134 517.791
1174 0 115.267 13.9762 1611 66.7467 462.874 515.991
1175 0 119.331 14.7153 1756 64.9362 461.888 514.871
1176 0 123.399 14.0358 1732 65.6576 461.884 511.867
1177 0 127.305 14.4535 1840 64.8 461.618 509.365
1178 0 130.288 14.4679 1885 65.3379 461.561 508.969
1179 0 136.225 14.8137 2018 64.0129 461.203 506.24
1180 0 140.382 14.5389 2041 64.7379 462.065 502.886
1181 1 72.2276 11.7822 851 67.5911 461.832 537.164
1182 0 75.1201 12.0873 908 66.7918 461.53 535.937
1183 0 78.0718 13.4364 1049 65.8141 461.539 533.303
1184 0 80.1352 14.0513 1126 64.6723 461.559 532.759
1185 0 83.1 13.0927 1088 65.8042 461.485 530.858
1186 0 85.0994 12.8673 1095 66.1626 461.491 528.603
1187 0 91.1332 14.188 1293 63.8879 460.776 528.17
1188 0 93.217 13.6885 1276 64.464 460.81 527.416
1189 0 96.1578 14.289 1374 63.8836 461.271 524.865
1190 0 99.1445 14.2923 1417 64.1821 460.505 523.409
1191 0 103.151 13.9311 1437 64.9388 460.612 523.098
1192 0 105.221 14.2272 1497 64.8557 460.248 520.331
1193 0 108.176 13.6075 1472 65.9015 460.199 517.626
1194 1 62.0775 10.8896 676 65.4009 459.962 544.352
1195 0 60.1004 11.1314 669 66.843 459.564 541.992
1196 0 64.0871 10.6574 683 66.5227 459.814 543.414
1197 0 62.1062 12.1405 754 65.9456 460.033 540.354
1198 0 66.1662 12.2419 810 64.642 459.77 539.727
1199 0 67.0994 12.8764 864 64.662 459.433 537.723
1200 0 69.1531 12.1325 839 66.6353 458.888 536.868
1201 0 69.0358 12.9498 894 66.3893 459.097 536.604
1202 0 74.054 13.6927 1014 64.2623 458.797 535.709
1203 0 76.11 13.7038 1043 64.8389 459.063 533.189
1204 0 78.1056 13.0848 1022 65.9922 458.635 533.988
1205 0 80.1024 13.8073 1106 65.8915 458.741 531.09
1206 0 84.2015 13.824 1164 65.5129 458.762 533.272
1207 0 85.1192 13.4752 1147 67.1665 459.026 529.587
1208 0 90.1463 13.6223 1228 66.0326 459.27 528.436
1209 0 93.1786 13.2541 1235 66.8518 460.061 526.41
1210 0 95.1933 13.5409 1289 66.1094 459.836 524.801
1211 0 97.1432 13.5367 1315 65.6525 460.08 523.317
1212 0 101.209 14.0007 1417 65.1722 459.237 521.805
1213 1 54.0907 9.48407 513 67.3528 459.762 545.433
1214 0 56.1304 10.529 591 65.6836 459.415 546.939
1215 0 59.2542 11.3747 674 66.0074 459.177 545.226
1216 0 62.1543 11.0531 687 66.2358 459.01 544.189
1217 0 62.1002 11.884 738 65.8523 458.366 543.793
1218 0 64.1216 12.1956 782 65.2673 458.767 541.862
1219 0 65.1173 12.1012 788 64.7906 457.94 542.878
1220 0 69.1867 13.2973 920 62.6783 457.598 541.925
1221 0 71.1715 11.6339 828 64.7597 457.948 541.522
1222 0 71.2257 12.3551 880 64.5477 457.458 539.834
1223 0 75.1219 12.8192 963 63.5524 457.94 537.603
1224 0 76.2746 13.2154 1008 62.876 457.515 536.984
1225 0 79.153 12.3937 981 63.7727 457.114 536.351
1226 0 81.3003 12.9397 1052 63.4487 456.871 536.255
1227 0 83.213 12.3538 1028 64.4475 457.523 532.552
1228 0 89.3296 13.5901 1214 62.2669 456.894 531.136
1229 0 89.2937 12.6885 1133 64.3451 457.34 529.537
1230 0 92.0889 12.9657 1194 63.0737 457.124 529.158
1231 0 95.2562 13.154 1253 63.3783 457.077 529.821
1232 1 57.1892 9.91445 567 64.6473 457.513 547.587
1233 0 56.0548 10.8465 608 64.3141 457.6 549.444
1234 0 56.0282 10.9409 613 65.7798 458.039 546.496
1235 0 61.1361 12.0387 736 64.4253 457.789 545.7
1236 0 63.0561 12.7664 805 63.6186 458.052 546.46
1237 0 64.109 13.2587 850 62.78 457.634 544.638
1238 0 66.1189 12.901 853 62.9531 456.964 544.452
1239 0 65.116 12.2704 799 65.4456 456.834 543.315
1240 0 68.1225 12.7711 870 65.1218 456.978 541.518
1241 0 69.0566 12.135 838 66.1181 457.609 542.562
1242 0 73.2627 12.2709 899 64.8643 457.202 543.023
1243 0 75.1384 12.7232 956 64.9236 457.322 538.964
1244 0 78.1307 13.0807 1022 64.4638 456.957 538.24
1245 0 80.1705 12.2988 986 65.4067 456.659 539.289
1246 0 81.2564 13.0082 1057 65.2062 455.742 537.097
1247 0 84.2244 12.9416 1090 65.2725 456.116 535.557
1248 0 86.2854 12.9802 1120 66.5759 456.235 535.366
1249 0 90.2683 12.6733 1144 67.4283 456.202 532.208
1250 0 93.2453 13.1374 1225 67.1486 456.002 531.752
1251 1 48.1877 9.56676 461 68.0803 455.712 552.338
1252 0 51.1859 10.7647 551 66.2087 455.412 552.659
1253 0 52.3186 10.7228 561 66.3298 455.884 551.733
1254 0 52.1801 11.077 578 67.5 455.638 551.386
1255 0 55.2769 11.4333 632 66.9098 455.816 549.122
1256 0 55.2262 11.7698 650 67.1754 455.878 548.626
1257 0 57.1715 12.4363 711 66.225 456.298 547.61
1258 0 60.1597 11.9681 720 66.7458 456.875 548.121
1259 0 59.1144 11.5708 684 67.7705 456.542 548.268
1260 0 61.1014 12.8475 785 65.9911 456.692 545.823
1261 0 63.1084 13.1678 831 65.4284 457.048 545.168
1262 0 64.1691 12.3268 791 66.6397 457.158 543.784
1263 0 68.2184 12.6652 864 65.8218 457.394 541.998
1264 0 68.1794 12.3351 841 67.2878 457.476 542.931
1265 0 70.3641 14.027 987 65.2361 457.973 540.397
1266 0 72.2456 12.8451 928 66.6983 457.975 540.73
1267 0 74.16 12.7427 945 67.3376 458.436 537.682
1268 0 77.2631 13.4346 1038 66.0308 458.739 537.537
1269 0 79.2713 13.2961 1054 66.3795 457.774 538.275
1270 0 81.2061 13.2502 1076 66.6859 458.49 535.765
1271 0 84.3956 13.0457 1101 67.0391 458.856 535.193
1272 0 86.3613 12.9804 1121 67.6343 459.146 534.189
1273 1 46.1634 9.72632 449 68.1203 458.706 553.301
1274 0 47.2346 9.48457 448 68.9397 458.752 553.058
1275 0 50.1738 10.9818 551 66.931 458.824 551.641
1276 0 50.0882 12.2384 613 66.6509 459.018 551.049
1277 0 52.216 12.4674 651 65.8203 459.682 549.18
1278 0 54.0447 11.9901 648 66.4552 460.19 547.904
1279 0 54.2053 12.5634 681 65.7885 460.681 549.107
1280 0 55.1473 12.5119 690 66.7058 460.772 547.036
1281 0 56.1777 12.1934 685 65.3445 461.415 547.876
1282 0 58.1076 12.9587 753 63.8181 461.396 545.505
1283 0 61.1561 13.1303 803 63.4134 461.212 544.562
1284 0 62.3446 12.3347 769 64.5956 461.754 543.17
1285 0 65.2853 13.0198 850 63.6024 461.522 542.765
1286 0 65.5086 12.6243 827 65.8839 461.433 542.143
1287 0 68.2409 13.4523 918 64.5806 461.146 542.199
1288 0 68.2497 13.0257 889 66.2823 461.278 540.507
1289 0 73.3884 13.2582 973 65.444 461.104 539.063
1290 0 75.5978 13.003 983 65.5076 461.467 536.741
1291 0 78.6113 13.1152 1031 65.0272 461.205 536.719
1292 0 79.4394 12.9407 1028 66.214 461.186 534.054
1293 0 81.6528 12.6511 1033 66.4017 460.954 533.102
1294 0 82.7413 12.6539 1047 66.3123 461.149 531.873
1295 1 44.5699 9.53559 425 66.4965 461.228 553.056
1296 0 45.4672 11.3048 514 66.144 461.292 551.047
1297 0 47.4508 11.4434 543 66.6519 461.468 549.77
1298 0 48.4672 11.4717 556 67.063 460.926 549.987
1299 0 50.4714 11.7096 591 67.2538 460.848 548.667
1300 0 51.1955 12.6574 648 66.3426 462.029 547.904
1301 0 54.1701 12.8669 697 65.9168 461.106 547.898
1302 0 55.1597 12.346 681 66.7078 461.576 547.523
1303 0 55.2602 12.5588 694 66.8617 460.726 546.788
1304 0 58.4581 13.3258 779 65.0257 460.965 547.558
1305 0 60.3583 12.7406 769 66.0286 460.941 544.534
1306 0 60.5087 13.0725 791 66.1593 460.886 544.742
1307 0 63.1842 13.4053 847 65.3908 460.917 544.411
1308 0 63.2758 12.9749 821 66.3995 460.592 542.59
1309 0 66.6443 12.2291 815 67.3006 460.562 541.962
1310 0 66.5818 12.7813 851 66.8437 460.26 540.843
1311 0 70.5223 12.8754 908 66.2599 460.192 540.775
1312 0 72.4684 13.2334 959 66.3316 459.946 539.178
1313 0 73.3989 13.7195 1007 66.0685 459.519 537.734
1314 0 75.5508 13.3288 1007 67.4757 459.299 535.517
1315 0 78.6146 13.4453 1057 66.666 458.644 534.246
1316 0 78.4161 13.7599 1079 66.5616 459.048 538.892
1317 0 81.4067 13.9792 1138 67.029 459.196 534.874
1318 0 86.6949 13.5648 1176 67.2798 459.089 532.833
1319 0 88.4609 14.3566 1270 66.7283 459.078 531.183
1320 1 48.4154 10.4512 506 68.8004 457.935 550.939
1321 0 49.1136 10.6895 525 68.72 457.619 550.35
1322 0 51.2156 11.559 592 67.5118 457.65 549.85
1323 0 50.2271 10.9304 549 68.9308 459.022 547.536
1324 0 53.1226 11.577 615 66.2195 458.763 548.585
1325 0 53.1834 12.9176 687 64.7846 458.239 548.167
1326 0 57.1952 12.029 688 67.1657 458.509 547.33
1327 0 57.1347 12.4268 710 67.2282 457.966 546.986
1328 0 60.3463 12.4117 749 67.1388 458.539 547.236
1329 0 61.2113 13.772 843 66.0961 457.906 546.662
1330 0 64.1877 14.3641 922 64.5184 457.523 546.662
1331 0 66.1962 13.3845 886 65.7054 457.006 546.217
1332 0 66.1239 12.3102 814 67.9116 457.128 545.658
1333 0 67.1151 12.6499 849 67.0212 457.228 545.117
1334 0 68.1621 13.7173 935 67.5701 457.489 543.702
1335 0 71.1743 13.1789 938 68.0938 457.364 542.172
1336 0 73.3136 12.808 939 68.0224 457.208 540.67
1337 0 76.2621 12.8111 977 67.9478 457.217 539.251
1338 1 40.2277 9.99311 402 68.0423 456.58 558.114
1339 0 41.1644 10.5188 433 66.7252 456.501 558.411
1340 0 43.0962 11.8108 509 65.9253 456.617 556.014
1341 0 46.29 11.4496 530 65.0943 457.604 557.936
1342 0 47.3112 12.6186 597 64.072 457.358 554.6
1343 0 48.1167 12.8646 619 64.0759 456.848 554.05
1344 0 48.1167 12.8438 618 161.474 456.859 554.049
1345 0 51.0578 12.6132 644 64.6537 456.464 552.126
1346 0 53.067 12.3429 655 64.9374 456.119 551.989
1347 0 55.0365 12.4099 683 64.8111 456.117 552.284
1348 0 55.0423 12.5176 689 65.7794 455.732 551.296
1349 0 57.0506 13.2689 757 65.1202 455.815 550.145
1350 0 57.1371 13.1263 750 65.9933 455.299 549.996
1351 0 58.0532 12.9192 750 66.684 455.04 549.772
1352 0 60.1554 12.9166 777 67.7439 455.292 547.897
1353 0 62.0962 12.7866 794 67.9131 455.17 547.744
1354 0 64.0916 13.1999 846 67.6277 455.474 547.111
1355 0 63.0598 13.6378 860 68.2733 455.688 545.892
1356 0 65.2212 13.5232 882 68.9501 455.803 545.291
1357 0 68.2592 13.4487 918 69.2549 455.436 544.915
1358 0 70.2742 13.12 922 69.4512 455.383 544.976
1359 0 70.0978 13.0389 914 70.8654 455.28 542.409
1360 0 73.1824 13.1999 966 70.6242 454.958 541.997
1361 0 76.2209 13.2116 1007 70.7895 454.925 541.908
1362 0 78.2089 13.5662 1061 70.7936 455.092 539.425
1363 1 40.1896 11.4706 461 72.4295 454.518 558.868
1364 0 42.1333 10.7991 455 73.0703 454.677 558.402
1365 0 41.2439 11.3471 468 73.0406 454.932 557.169
1366 0 42.1908 11.3058 477 71.9686 454.449 556.312
1367 0 45.2137 11.1471 504 73.8214 454.774 553.879
1368 0 48.1378 13.1497 633 69.5182 454.72 553.25
1369 0 50.0629 13.2633 664 69.4096 455.17 551.78
1370 0 51.0973 13.4254 686 69.5525 455.07 553.656
1371 0 51.0831 13.3508 682 69.9897 455.172 551.424
1372 0 53.0965 12.8257 681 71.605 455.335 550.035
1373 0 54.1636 13.0715 708 71.4378 455.256 549.179
1374 0 57.0582 12.8641 734 71.0286 454.62 549.091
1375 0 57.0847 12.3851 707 73.0962 454.926 549.383
1376 0 61.1542 14.2917 874 69.0492 454.944 547.716
1377 0 63.1115 13.6108 859 69.9918 454.476 547.482
1378 0 63.2753 13.6072 861 71.0592 454.632 546.217
1379 0 65.0315 13.7933 897 70.7837 454.516 544.396
1380 0 67.0777 14.0732 944 70.1843 454.39 545.022
1381 0 68.2143 13.6775 933 70.627 454.618 543.796
1382 0 71.2033 14.3111 1019 66.6241 454.512 541.498
1383 0 73.2113 13.4269 983 66.1058 455.209 540.393
1384 0 75.2119 13.6946 1030 71.2835 455.116 539.509
1385 0 78.2048 14.104 1103 68.7063 455.311 537.86
1386 0 81.2196 13.9498 1133 69.8252 455.751 538.253
1387 0 85.2127 13.8712 1182 69.4289 456.212 536.681
1388 0 88.239 14.3701 1268 68.6144 456.105 534.613
1389 1 46.1848 12.0386 556 71.8633 456.464 555.813
1390 0 47.0541 12.135 571 72.2539 456.709 555.867
1391 0 48.2824 11.6191 561 72.8485 456.346 554.178
1392 0 50.0971 11.7172 587 72.6337 456.707 553.751
1393 0 54.1819 12.495 677 71.8301 456.616 551.182
1394 0 56.124 13.4524 755 70.4212 456.611 550.943
1395 0 56.2007 14.1102 793 69.5069 456.617 549.383
1396 0 59.2755 13.6481 809 70.047 457.174 548.488
1397 0 62.1117 14.1036 876 68.1838 457.16 547.615
1398 0 63.1208 13.7673 869 69.1013 457.283 546.237
1399 0 66.1373 15.0293 994 66.6429 458.095 543.562
1400 0 68.2954 14.4812 989 67.5672 457.833 541.927
1401 0 70.2257 14.5816 1024 66.9912 458.336 542.337
1402 0 71.2631 14.6078 1041 67.0634 458.747 540.511
1403 0 73.1793 14.075 1030 67.5534 458.725 539.996
1404 0 78.2939 14.535 1138 65.696 459.469 538.511
1405 0 80.1966 14.9508 1199 65.1201 459.287 535.968
1406 0 83.2869 14.5281 1210 65.2008 459.96 535.375
1407 0 86.2536 14.9907 1293 64.3875 460.007 533.396
1408 0 88.2316 14.4506 1275 64.5851 460.034 533.203
1409 0 91.2328 15.3892 1404 63.3369 459.936 532.363
1410 0 94.3476 14.9871 1414 63.8607 460.327 530.699
1411 0 96.2116 14.8735 1431 64.3459 460.559 528.246
1412 1 52.2382 11.5624 604 66.1308 460.608 550.748
1413 0 54.1612 11.7058 634 65.5174 461.038 550.232
1414 0 53.039 12.538 665 64.8782 460.884 549.272
1415 0 55.0708 12.4748 687 64.3959 460.824 548.68
1416 0 58.115 13.6282 792 63.4987 461.337 547.169
1417 0 62.2334 14.0439 874 61.8501 461.252 546.844
1418 0 62.2878 13.9353 868 62.6855 461.733 543.566
1419 0 65.2549 14.7422 962 60.8503 461.6 543.52
1420 0 66.1694 13.2388 876 63.2089 461.381 543.749
1421 0 68.2255 13.8365 944 62.8623 461.142 542.398
1422 0 72.2788 14.0567 1016 62.2982 461.422 540.226
1423 0 73.2735 14.0296 1028 62.3901 461.984 538.848
1424 0 76.2732 13.8712 1058 62.6578 461.44 536.997
1425 0 78.1781 14.467 1131 61.9646 461.789 535.08
1426 0 80.1101 14.0681 1127 61.8465 461.821 535.785
1427 0 82.1596 14.2893 1174 62.8024 461.83 533.894
1428 0 84.1455 13.4529 1132 63.3445 462.451 532.809
1429 0 89.2474 13.8043 1232 62.2127 462.159 531.421
1430 0 88.174 13.7115 1209 63.2258 461.758 530.207
1431 0 93.2851 14.6218 1364 61.868 462.065 528.08
1432 0 96.1362 14.2298 1368 62.4247 462.433 526.255
1433 0 98.2021 14.5007 1424 62.408 462.26 525.916
1434 0 102.317 14.113 1444 63.0713 461.752 524.497
1435 0 106.067 14.9623 1587 62.7927 461.733 521.308
1436 0 110.123 14.6563 1614 62.8358 460.881 521.294
1437 1 58.0639 11.5735 672 64.1235 460.382 548.504
1438 0 60.1446 12.0543 725 64.2745 460.571 546.566
1439 0 63.04 11.8179 745 64.6121 460.83 544.031
1440 0 67.1772 13.4867 906 61.0751 460.657 542.474
1441 0 68.1875 13.2576 904 61.635 460.685 541.617
1442 0 72.151 13.8044 996 60.3765 460.921 539.257
1443 0 72.1733 13.0381 941 61.44 460.375 539.119
1444 0 74.2827 13.2871 987 61.0233 460.72 537.626
1445 0 76.1147 12.6914 966 61.8975 459.754 536.178
1446 0 80.4693 13.7941 1110 59.4604 460.061 535.427
1447 0 85.3249 13.6889 1168 59.1327 459.21 534.433
1448 0 84.1054 13.602 1144 60.1049 459.232 531.606
1449 0 88.3725 14.2691 1261 58.5504 458.853 530.935
1450 0 90.2916 12.9137 1166 60.7033 458.418 529.583
1451 0 95.2035 13.6024 1295 58.9737 458.775 528.497
1452 0 98.3414 13.748 1352 58.3395 458.311 526.7
1453 0 100.327 14.1337 1418 58.189 458.24 524.439
1454 1 51.1624 10.281 526 58.7871 458.15 549.802
1455 0 52.157 11.0627 577 57.9376 457.697 550.066
1456 0 51.3326 10.3443 531 59.6893 458.141 549.294
1457 0 55.4963 12.3612 686 58.0729 457.7 546.691
1458 0 57.552 11.9718 689 58.3745 457.612 546.621
1459 0 60.4399 13.1701 796 56.5025 457.248 545.735
1460 0 61.4121 12.2777 754 57.8992 457.261 545.916
1461 0 64.3954 12.268 790 58.5215 456.942 543.513
1462 0 66.3948 11.7479 780 59.2436 456.337 542.947
1463 0 66.3534 12.1772 808 59.245 456.618 542.094
1464 0 69.4241 12.9062 896 58.7545 456.702 540.737
1465 0 72.4744 13.4806 977 58.2108 456.421 539.908
1466 0 74.3417 12.5367 932 59.8176 456.479 539.971
1467 0 77.5786 13.3155 1033 59.4288 456.656 535.973
1468 0 77.551 12.985 1007 60.4806 456.297 536.276
1469 0 81.4145 13.5357 1102 59.6234 456.422 533.77
1470 0 83.7158 12.9963 1088 60.6765 456.427 533.947
1471 0 88.8855 12.308 1094 61.0128 456.059 532.595
1472 0 89.6203 12.8208 1149 61.1645 455.061 531.625
1473 0 93.8595 13.2539 1244 60.8232 454.838 530.789
1474 0 97.5563 13.5614 1323 60.511 455.522 528.581
1475 0 98.7815 12.9478 1279 62.1228 455.271 526.812
1476 1 51.9402 10.5699 549 63.0328 455.089 550.244
1477 0 55.4681 11.2677 625 61.7408 455.117 548.958
1478 0 56.7021 11.5692 656 61.2027 454.767 549.486
1479 0 58.5088 11.588 678 61.0929 454.537 549.643
1480 0 59.5707 12.3215 734 61.3583 454.809 546.166
1481 0 63.5507 13.0762 831 60.201 454.622 546.739
1482 0 64.54 12.8292 828 61.3152 454.777 545.077
1483 0 66.2935 12.9274 857 61.2649 455.474 542.47
1484 0 69.6043 12.9015 898 60.8497 454.854 542.778
1485 0 70.6848 12.8175 906 61.0629 453.914 541.658
1486 0 72.5245 12.0097 871 62.8198 453.829 541.171
1487 0 76.6064 12.3488 946 61.9049 454.793 537.444
1488 0 78.5972 12.9903 1021 60.9696 454.151 537.635
1489 0 80.8507 13.2219 1069 60.928 453.868 536.508
1490 0 82.4748 12.7554 1052 61.6673 454.345 534.864
1491 0 87.897 13.0152 1144 61.0656 453.817 533.723
1492 1 50.4898 10.3981 525 61.9181 453.425 553.709
1493 0 52.4321 10.0129 525 63.1105 454.665 551.253
1494 0 54.4964 11.3769 620 61.6226 454.729 550.21
1495 0 58.6678 11.5907 680 60.3206 454.865 550.046
1496 0 59.5157 12.2825 731 61.186 454.945 547.462
1497 0 58.185 12.1681 708 62.5622 455.777 547.614
1498 0 60.3816 12.9675 783 61.1571 455.81 547.24
1499 0 62.291 12.3774 771 63.6732 455.805 545.898
1500 0 63.2902 12.8772 815 63.2834 456.09 545.574
1501 0 67.4387 12.5892 849 63.4605 456.218 544.569
1502 0 69.2821 13.1636 912 62.7182 456.15 543.007
1503 0 71.2183 12.904 919 63.4026 455.873 541.973
1504 0 72.4778 13.0937 949 63.7208 456.267 541.088
1505 0 74.4322 12.9783 966 64.323 456.681 537.192
1506 0 76.3957 13.273 1014 64.4369 456.808 536.539
1507 0 80.6935 13.5699 1095 63.8849 456.82 534.905
1508 0 81.46 13.7491 1120 64.2946 457.021 535.813
1509 0 84.4873 14.0258 1185 64.2768 457.204 533.354
1510 0 84.4215 14.0367 1185 64.3738 457.248 532.489
1511 0 88.4963 13.7068 1213 65.5004 458.119 529.363
1512 0 91.7749 13.6421 1252 65.9704 458.395 528.388
1513 0 91.3768 13.986 1278 67.0681 458.092 528.997
1514 0 95.339 13.9712 1332 66.8303 458.258 526.968
1515 0 100.51 14.2274 1430 66.665 458.392 524.729
1516 0 100.473 14.1133 1418 67.8872 458.329 522.664
1517 0 104.442 14.0652 1469 68.1906 458.741 521.948
1518 0 107.352 14.364 1542 67.4034 458.877 521.182
1519 0 109.546 14.1311 1548 68.657 459.132 517.382
1520 0 112.439 14.3456 1613 68.571 459.187 515.23
1521 0 117.396 16.7638 1968 63.8908 460.14 512.329
1522 0 119.387 14.8927 1778 68.4117 460.258 511.343
1523 0 122.284 15.0715 1843 67.9892 460.604 512.427
1524 0 125.246 15.0344 1883 68.2852 460.399 508.12
1525 0 128.354 14.6704 1883 68.5183 460.301 506.732
1526 0 134.148 14.8791 1996 67.522 460.223 506.065
1527 0 139.2 14.6336 2037 67.6819 460.128 502.374
1528 0 143.194 14.7003 2105 67.895 460.239 499.7
1529 0 148.181 14.4485 2141 68.5857 460.242 497.063
1530 0 153.359 15.2191 2334 67.389 460.281 492.879
1531 0 158.269 14.924 2362 67.6308 460.495 491.168
1532 0 164.265 14.3305 2354 69.1317 460.475 484.812
1533 0 170.254 14.2786 2431 68.8634 460.196 486.474
1534 0 177.324 15.5478 2757 67.0457 460.75 482.083
1535 0 181.384 14.3618 2605 69.6119 460.524 478.826
1536 0 186.242 14.8248 2761 68.7968 460.817 475.053
1537 0 192.28 14.9001 2865 68.5665 460.851 470.835
1538 0 201.526 14.8914 3001 68.3369 461.5 471.705
1539 0 206.499 14.9396 3085 68.3562 461.116 466.751
1540 0 212.298 15.2286 3233 68.502 460.8 466.271
1541 1 158.351 11.8597 1878 72.3253 461.275 494.448
1542 0 163.455 12.3642 2021 71.9584 460.848 490.178
1543 0 169.239 13.6966 2318 70.0738 460.836 485.688
1544 0 174.231 13.9527 2431 69.6952 460.593 482.622
1545 0 180.211 13.7728 2482 70.2708 460.84 482.041
1546 0 190.448 14.2611 2716 68.532 460.605 480.835
1547 0 194.326 13.4722 2618 69.9943 460.468 474.806
1548 0 202.364 14.8989 3015 67.7469 460.527 470.424
1549 0 210.317 14.1549 2977 68.3504 460.222 468.97
1550 0 216.502 14.0692 3046 68.4048 460.164 460.123
1551 0 223.67 13.9536 3121 68.1608 459.598 460.3
1552 0 233.353 14.9944 3499 66.5573 460.538 453.692
1553 1 53.036 10.408 552 62.8406 461.12 547.978
1554 0 57.0305 10.5558 602 61.8821 460.648 546.078
1555 0 55.0767 10.0587 554 60.9531 459.556 547.256
1556 0 56.0656 10.4699 587 60.6865 459.08 545.388
1557 0 57.0643 10.8825 621 59.7118 458.596 543.736
1558 0 59.3488 10.4299 619 59.7076 458.742 546.806
1559 0 63.2364 11.8128 747 58.4444 459.198 544.477
1560 0 66.2491 12.1813 807 57.7348 458.322 543.628
1561 0 64.2941 11.4941 739 59.9066 458.721 542.7
1562 0 67.2429 11.6146 781 59.21 458.301 542.808
1563 0 69.2387 11.6698 808 58.9381 458.551 540.353
1564 0 71.2792 11.6724 832 58.7909 458.709 540.672
1565 0 72.1921 11.8296 854 58.5855 457.852 537.998
1566 0 78.0978 12.0234 939 56.9617 457.988 538.501
1567 0 79.2217 12.4839 989 56.9464 457.956 536.95
1568 0 82.1932 11.911 979 57.8672 458.098 535.029
1569 1 44.0822 8.91516 393 57.5216 457.669 555.074
1570 0 47.0947 10.5107 495 56.8263 457.602 553.226
1571 0 47.0223 10.7821 507 56.568 457.408 553.014
1572 0 49.047 9.97003 489 57.4131 457.207 552.483
1573 0 51.0492 10.6564 544 57.6029 456.846 551.256
1574 0 53.1611 11.926 634 55.1514 456.817 499.751
1575 0 56.0476 13.9524 782 53.2072 457.413 507.033
1576 0 54.1555 12.3164 667 55.7661 457.915 509.034
1577 0 57.1491 11.9337 682 55.956 457.732 512.324
1578 0 58.1986 12.2168 711 56.7904 457.423 514.203
1579 0 58.1023 12.7361 740 56.5743 457.05 519.386
1580 0 61.1853 12.4049 759 56.5547 457.133 532.105
1581 0 62.1987 12.0581 750 57.5547 456.645 534.605
1582 0 63.1921 12.8972 815 57.3656 456.645 534.643
1583 0 65.1404 12.2351 797 58.3438 456.255 535.285
1584 0 67.3345 13.3958 902 56.9789 456.182 535.86
1585 0 68.2749 13.0941 894 57.934 456.091 536.643
1586 0 71.3773 13.0574 932 57.9989 455.451 539.344
1587 0 72.2239 13.5966 982 57.7413 455.297 540.284
1588 0 74.1396 13.5555 1005 58.5134 455.438 540.186
1589 0 76.2615 14.1749 1081 57.3728 455.662 538.931
1590 0 79.4351 14.087 1119 57.8311 455.315 538.96
1591 0 80.2844 14.4735 1162 57.7849 455.321 536.009
1592 0 82.3052 14.2275 1171 58.3851 455.192 533.25
1593 0 86.4832 13.7021 1185 59.0768 455.698 531.89
1594 0 87.4392 13.6552 1194 59.1089 455.797 529.633
1595 0 92.4599 13.952 1290 58.2543 455.822 530.132
1596 0 93.3624 13.6458 1274 59.865 455.761 527.264
1597 1 51.4131 11.1256 572 61.8584 455.563 549.033
1598 0 52.4473 11.8405 621 60.6328 455.113 548.496
1599 0 55.3764 12.099 670 60.1388 455.721 547.14
1600 0 55.2133 11.3741 628 60.5064 456.029 545.965
1601 0 58.2698 12.7167 741 60.2848 455.713 543.327
1602 0 60.3185 13.0308 786 59.7099 456.228 544.959
1603 0 63.1359 12.9562 818 57.7897 455.704 542
1604 0 63.2108 13.9217 880 57.7955 456.422 540.114
1605 0 66.0888 13.4062 886 58.1998 455.94 539.693
1606 0 67.1305 13.0492 876 58.9338 456.361 538.824
1607 0 69.024 13.9227 961 57.4974 457.413 537.557
1608 0 74.058 15.0017 1111 55.3294 457.618 536.051
1609 0 75.0994 13.6353 1024 56.9014 457.714 536.303
1610 0 78.153 13.5759 1061 57.4882 457.894 532.329
1611 0 80.1398 13.464 1079 57.2938 458.149 532.925
1612 0 82.1337 13.7337 1128 56.9885 457.829 532.014
1613 0 87.1152 13.9241 1213 56.4724 458.528 527.223
1614 0 89.2638 12.7039 1134 58.5203 459.034 526.924
1615 0 92.1435 13.3162 1227 57.489 459.593 527.121
1616 1 46.0586 11.0077 507 58.4418 459.712 548.968
1617 0 48.1585 10.7562 518 59.5135 459.903 547.946
1618 0 51.1283 11.5396 590 59.478 460.371 544.664
1619 0 51.1102 11.6611 596 59.8456 459.671 545.237
1620 0 53.0805 11.3036 600 59.99 459.777 544.613
1621 0 55.0658 11.6588 642 60.0436 459.752 542.679
1622 0 58.0889 13.4793 783 57.2554 459.829 542.982
1623 0 56.0437 12.2761 688 60.0073 460.445 541.552
1624 0 59.0736 13.2377 782 58.2084 460.621 540.722
1625 0 61.1352 11.7445 718 61.0446 461.15 537.106
1626 0 64.1569 12.6253 810 59.2938 460.612 539.418
1627 0 64.6452 13.1023 847 59.8808 461.116 536.652
1628 0 66.5266 12.5965 838 60.6527 461.906 535.075
1629 0 68.6151 12.9418 888 60.366 462.137 535.191
1630 0 69.44 12.8456 892 61.2769 461.679 531.158
1631 0 74.5884 13.1656 982 60.1181 461.279 533.742
1632 0 76.5851 13.2793 1017 60.1701 461.545 531.815
1633 0 80.5779 13.7259 1106 60.0154 461.389 530.01
1634 0 82.434 13.2348 1091 61.0147 461.454 526.774
1635 0 85.4737 13.8873 1187 59.6512 461.384 526.962
1636 1 44.3417 10.1936 452 62.0752 461.602 546.518
1637 0 47.3897 11.0361 523 61.8853 462.117 544.493
1638 0 48.3378 10.9645 530 62.3623 462.609 543.932
1639 0 48.2708 11.6426 562 62.468 462.215 542.486
1640 0 51.4962 12.0397 620 61.3516 462.798 541.729
1641 0 53.2271 12.287 654 60.4495 462.971 541.708
1642 0 54.1988 12.2512 664 61.2726 462.518 543.139
1643 0 58.2656 12.7176 741 60.6086 462.162 542.816
1644 0 60.2949 13.8984 838 59.7721 462.239 541.752
1645 0 59.3771 12.4627 740 62.8297 461.661 540.722
1646 0 61.5021 13.7231 844 61.4787 461.592 537.847
1647 0 62.6195 13.5261 847 62.4935 461.803 538.499
1648 0 65.6251 13.059 857 62.2322 462.056 539.401
1649 0 66.6962 13.494 900 62.4189 461.173 538.243
1650 0 68.4775 13.3183 912 62.7314 461.186 536.681
1651 0 73.4605 14.1028 1036 60.9276 460.666 536.502
1652 0 75.4237 13.4175 1012 62.1848 461.392 534.461
1653 0 75.3406 14.4145 1086 61.3315 461.217 531.476
1654 0 77.538 13.1419 1019 62.6889 461.741 530.829
1655 0 80.5443 13.4833 1086 62.512 460.93 530.81
1656 0 84.4892 13.6349 1152 60.9818 460.784 529.069
1657 0 85.4483 13.8446 1183 60.2096 460.456 529.46
1658 0 90.5432 13.2754 1202 60.7488 460.394 526.105
1659 0 92.4655 13.8214 1278 60.3693 460.089 523.754
1660 1 50.4675 10.9972 555 59.7225 459.099 545.081
1661 0 53.4125 9.54832 510 59.8588 459.435 544.851
1662 0 53.4161 10.6335 568 60.3169 459.463 544.016
1663 0 55.3399 10.5891 586 60.6997 459.358 543.242
1664 0 58.1783 11.3444 660 60.2788 459.805 541.88
1665 0 60.2351 12.5342 755 58.8477 459.722 540.954
1666 0 63.2715 13.529 856 59.1542 459.431 542.506
1667 0 66.4462 13.7103 911 57.7135 459.063 541.117
1668 0 69.3877 13.4462 933 57.8274 458.991 540.091
1669 0 70.2178 13.8426 972 57.2356 459.047 538.646
1670 0 73.3297 13.0643 958 57.8309 458.696 537.384
1671 0 74.3333 12.9148 960 58.0188 458.45 537.607
1672 0 76.5378 12.9217 989 58.0809 458.194 537.379
1673 0 77.4752 13.6947 1061 57.8926 458.265 535.938
1674 0 82.3204 13.241 1090 57.8275 458.503 535.258
1675 0 83.4402 14.1898 1184 57.2297 458.076 533.213
1676 0 87.5634 13.2818 1163 57.8487 458.098 532.82
1677 0 89.2445 14.0961 1258 57.3625 458.595 529.715
1678 0 91.3826 13.6787 1250 58.3896 458.587 529.626
1679 1 49.2421 10.0321 494 59.3806 457.735 551.16
1680 0 52.1454 10.2022 532 59.4436 457.991 548.977
1681 0 55.2812 11.0345 610 59.0738 457.528 548.866
1682 0 55.3184 11.0994 614 59.9234 457.515 548.567
1683 0 55.3184 11.0994 614 167.989 457.528 548.523
1684 0 61.1091 12.1749 744 58.086 457.45 545.526
1685 0 63.2823 11.7568 744 58.414 456.694 546.484
1686 0 62.1997 12.7653 794 58.2972 456.757 543.998
1687 0 65.1941 12.8999 841 58.0024 456.287 543.034
1688 0 67.1645 12.7299 855 58.393 456.954 541.152
1689 0 69.1482 13.0444 902 58.3392 456.559 540.789
1690 0 73.2515 12.7096 931 57.7927 456.537 539.873
1691 0 75.1418 13.2283 994 57.3491 456.447 538.373
1692 0 77.1429 13.1704 1016 57.4508 456.6 537.016
1693 0 79.1542 12.1409 961 59.2862 456.518 535.431
1694 0 83.2415 13.1905 1098 57.8142 456.437 535.668
1695 0 85.3388 13.089 1117 57.6831 456.047 534.335
1696 0 87.3686 13.1512 1149 58.0017 456.131 531.836
1697 0 90.2307 13.0222 1175 58.4383 455.679 528.489
1698 0 93.4637 13.3528 1248 57.726 455.798 528.321
1699 0 97.2665 13.1494 1279 57.8475 455.713 527.466
1700 0 100.322 12.729 1277 57.8058 455.395 526.525
1701 1 58.1667 9.6447 561 57.4136 454.813 548.87
1702 0 59.0732 11.0033 650 54.4769 454.434 549.857
1703 0 61.1368 12.0386 736 54.7432 455.281 547.921
1704 0 61.1306 11.6472 712 55.3146 455.656 546.358
1705 0 63.2596 11.7136 741 55.448 455.95 546.776
1706 0 65.1687 12.2605 799 55.4143 456.064 546.508
1707 0 66.1087 11.8744 785 56.7108 455.67 543.401
1708 0 69.1987 11.5609 800 56.785 455.786 542.496
1709 0 71.1144 12.3182 876 56.4977 454.799 542.671
1710 0 72.2179 12.7669 922 56.4555 455.356 540.077
1711 0 74.2499 12.7003 943 56.5048 455.193 541.036
1712 0 75.2181 12.3242 927 57.2794 455.558 539.731
1713 0 76.1537 12.4091 945 56.7471 455.734 539.932
1714 0 80.2392 14.1701 1137 55.1618 455.91 536.573
1715 0 84.3726 13.4641 1136 55.3671 456.317 537.195
1716 0 85.3158 13.3621 1140 56.5281 456.249 534.283
1717 0 87.3506 13.3829 1169 56.5398 456.352 533.699
1718 0 90.2306 12.9335 1167 56.9023 456.702 532.386
1719 0 91.5162 12.7737 1169 57.6878 456.113 531.273
1720 0 95.4519 13.4308 1282 57.4321 456.307 529.25
1721 0 99.361 13.2648 1318 57.6904 455.891 528.361
1722 0 100.214 13.3415 1337 58.2319 456.008 525.233
1723 0 104.252 13.9182 1451 58.0448 456.15 524.353
1724 1 59.342 11.3916 676 58.2278 456.12 548.053
1725 0 62.5219 10.4923 656 59.439 456.468 546.378
1726 0 63.3203 10.8496 687 59.3042 456.639 548.55
1727 0 63.1433 11.1809 706 60.0779 456.71 545.544
1728 0 64.0979 11.8725 761 58.9987 457.271 542.187
1729 0 66.1852 12.873 852 58.2676 457.908 542.398
1730 0 70.415 13.3494 940 57.1479 457.761 541.829
1731 0 73.1031 13.8708 1014 56.6223 458.338 538.885
1732 0 75.2034 13.1776 991 56.8093 458.444 539.199
1733 0 77.2635 13.6028 1051 56.4653 458.042 537.277
1734 0 76.5239 12.9894 994 57.8954 458.275 534.236
1735 0 78.4813 12.9458 1016 59.4705 458.67 534.239
1736 0 81.3204 12.2233 994 62.2555 458.88 532.772
1737 0 86.2921 13.3152 1149 61.5553 458.963 530.733
1738 0 87.322 12.9521 1131 62.9576 459.02 529.685
1739 0 91.4109 12.504 1143 62.895 459.494 528.506
1740 0 92.4072 13.776 1273 60.8075 459.838 526.98
1741 0 97.2169 13.5162 1314 60.6134 460.074 523.589
1742 0 100.345 14.0316 1408 61.1612 460.695 522.849
1743 0 102.316 13.0771 1338 62.0419 460.206 521.152
1744 1 55.0575 11.0248 607 61.2537 460.234 546.183
1745 0 55.0607 10.1524 559 61.161 461.127 541.945
1746 0 57.0387 10.9399 624 60.3622 461.122 542.069
1747 0 62.0491 12.474 774 57.938 461.55 540.413
1748 0 62.0473 12.3293 765 58.6863 462.029 541.621
1749 0 64.0311 13.1186 840 57.7845 461.989 541.799
1750 0 65.1571 12.3087 802 58.813 461.696 539.127
1751 0 68.0498 12.4762 849 59 461.996 537.729
1752 0 71.1009 12.6299 898 58.9454 462.294 537.294
1753 0 72.1268 12.478 900 59.3256 462.356 536.842
1754 0 75.1201 12.6065 947 59.2418 462.219 534.78
1755 0 77.1146 13.3049 1026 58.3411 462.779 534.068
1756 0 78.1407 12.2855 960 60.5125 463.027 530.857
1757 0 81.1684 13.2317 1074 59.2672 462.776 531.246
1758 0 83.1745 12.6481 1052 60.2291 462.583 531.32
1759 0 88.2476 13.1562 1161 59.7718 462.587 528.842
1760 0 91.2782 13.2671 1211 59.4897 462.535 527.014
1761 0 95.2278 13.5045 1286 59.0778 462.823 526.714
1762 0 95.2272 12.3179 1173 61.5311 463.158 525.541
1763 1 53.1603 10.4401 555 61.1063 462.065 545.993
1764 0 55.1601 10.6236 586 62.145 462.203 543.613
1765 0 57.0912 11.3503 648 60.7469 462.168 545.16
1766 0 56.0576 11.1849 627 61.8644 461.804 544.821
1767 0 61.0458 12.0238 734 60.2302 461.011 542.995
1768 0 62.0306 12.5422 778 60.3432 461.338 540.834
1769 0 65.1122 12.6704 825 59.3479 462.007 541.469
1770 0 66.1018 11.9966 793 61.5246 461.506 539.059
1771 0 67.0985 13.4876 905 60.3182 461.378 537.871
1772 0 71.1738 13.0245 927 60.9126 461.381 537.403
1773 0 73.1672 12.6423 925 61.8919 461.43 536.731
1774 0 74.1133 13.4794 999 61.5956 461.128 534.755
1775 0 76.1571 12.9732 988 62.247 460.65 532.271
1776 0 79.0973 13.2116 1045 61.4632 460.951 532.285
1777 0 81.1248 12.5732 1020 62.7147 460.573 533.099
1778 0 83.0805 12.6985 1055 62.9934 461.039 530.768
1779 0 86.2331 13.0692 1127 62.2014 461.265 528.784
1780 0 88.1136 13.7436 1211 62.0215 460.89 527.189
1781 0 93.2262 13.4941 1258 61.4587 460.517 527.256
1782 0 96.2381 13.9861 1346 60.9532 460.392 524.796
1783 0 99.1864 13.2881 1318 61.9666 459.851 524.464
1784 0 101.25 13.6592 1383 61.2704 459.508 522.194
1785 0 104.285 13.9809 1458 60.653 459.121 521.438
1786 0 108.48 13.9933 1518 60.5665 459.517 516.641
1787 1 62.3348 11.2939 704 61.1165 459.024 543.676
1788 0 62.1715 12.4334 773 60.2096 459.556 541.01
1789 0 62.3258 11.2955 704 62.1903 459.237 540.656
1790 0 66.2148 12.3839 820 60.1305 458.934 541.87
1791 0 67.1119 12.4866 838 60.1694 458.814 540.469
1792 0 70.0962 12.9108 905 59.8541 458.78 538.717
1793 0 72.1704 12.5259 904 59.6903 458.544 538.219
1794 0 74.1508 13.6209 1010 58.4069 458.393 537.677
1795 0 77.191 13.1881 1018 58.9037 458.688 536.132
1796 0 80.1411 13.0145 1043 58.813 458.896 534.094
1797 0 81.301 12.8166 1042 59.8225 458.655 533.327
1798 0 83.216 13.3869 1114 59.1697 458.401 531.037
1799 0 87.0513 13.8654 1207 58.5079 458.649 530.379
1800 0 90.2295 13.8536 1250 58.2832 458.79 528.83
1801 0 93.2244 13.623 1270 58.7819 458.504 527.558
1802 0 93.1336 12.4123 1156 60.9317 458.708 525.961
1803 0 100.253 13.3163 1335 59.0127 458.725 525.357
1804 0 101.146 13.8018 1396 59.1776 457.953 524.401
1805 0 104.204 13.4351 1400 59.7471 457.929 522.851
1806 0 109.376 13.5588 1483 59.0222 457.703 522.414
1807 1 62.2652 10.2786 640 60.2906 457.72 547.278
1808 0 62.1554 10.2163 635 60.7134 457.649 545.361
1809 0 65.124 11.2555 733 59.5894 457.832 544.922
1810 0 66.1908 12.2374 810 59.4556 457.183 542.106
1811 0 69.2632 12.272 850 59.1788 457.147 542.438
1812 0 72.2024 12.9774 937 58.334 456.771 541.269
1813 0 75.1599 12.7728 960 58.4104 456.812 540.212
1814 0 75.1599 12.7861 961 158.004 455.821 540.199
1815 0 79.2595 12.9448 1026 58.6374 456.832 538.029
1816 0 82.1956 13.1272 1079 58.6525 456.881 535.704
1817 0 84.1586 13.4746 1134 58.7936 456.833 532.879
1818 0 87.1258 12.6139 1099 59.9327 456.5 532.748
1819 0 88.1163 12.9601 1142 60.2986 456.829 531.249
1820 0 92.2139 12.1782 1123 60.5913 456.421 531.93
1821 0 95.1 13.1335 1249 59.5869 456.644 527.5
1822 0 99.2465 13.7234 1362 58.5169 456.972 526.577
1823 0 101.233 12.9503 1311 59.5095 457.59 526.301
1824 0 105.331 13.9465 1469 58.3097 457.573 523.425
1825 1 56.1656 9.98832 561 60.7255 458.255 547.232
1826 0 60.2022 10.9963 662 60.0695 458.07 546.32
1827 0 62.1715 11.4844 714 59.2507 458.143 545.905
1828 0 61.2425 11.234 688 60.0116 458.398 544.305
1829 0 63.3668 11.6938 741 59.2362 458.525 544.746
1830 0 65.2385 12.6306 824 58.6177 458.328 542.387
1831 0 67.1427 12.6149 847 58.3577 459.352 542.972
1832 0 70.1979 13.1343 922 57.7983 459.03 538.774
1833 0 72.1647 12.9565 935 57.4973 459.246 538.552
1834 0 73.2793 12.9914 952 58.1387 459.57 535.802
1835 0 76.1888 13.4928 1028 57.7286 459.009 535.669
1836 0 77.1151 14.018 1081 57.4949 458.992 535.092
1837 0 80.1464 12.9638 1039 58.5217 459.529 533.256
1838 0 83.1926 13.619 1133 57.8402 459.986 531.564
1839 0 85.1924 13.1584 1121 58.6699 460.291 531.198
1840 0 89.248 13.7146 1224 57.2516 460.398 531.094
1841 0 91.3625 13.7474 1256 57.7572 460.361 527.075
1842 0 93.2232 13.7841 1285 57.9658 461.29 526.845
1843 0 96.3784 13.779 1328 58.1265 461.386 525.532
1844 0 98.173 13.4864 1324 58.463 461.393 522.977
1845 0 103.318 13.6762 1413 57.7877 461.374 523.29
1846 1 50.0622 10.7866 540 59.6611 462.019 547.532
1847 0 55.1354 11.1 612 57.8235 461.595 546.688
1848 0 58.1579 11.5547 672 57.9732 461.314 545.411
1849 0 58.0652 12.176 707 57.761 462.157 542.117
1850 0 62.0924 12.5297 778 56.9589 462.024 542.523
1851 0 61.1323 13.1845 806 57.5794 461.932 540.036
1852 0 64.1717 12.3419 792 57.8245 462.033 541.029
1853 0 67.1297 12.6174 847 56.2586 462.169 537.712
1854 0 68.1391 12.5185 853 56.2087 462.42 536.27
1855 0 71.1184 12.9221 919 55.6605 462.593 535.014
1856 0 73.1858 12.3658 905 56.3503 462.4 533.134
1857 0 77.0567 14.5607 1122 53.1533 461.833 532.823
1858 0 78.1852 14.3122 1119 53.7167 461.466 532.372
1859 0 80.1128 13.2688 1063 55.174 461.487 528.826
1860 0 82.1795 13.5314 1112 55.2887 461.393 528.094
1861 0 83.1136 13.5838 1129 55.295 461.51 527.871
1862 0 86.1234 13.5271 1165 56.0052 461.026 525.84
1863 0 88.1203 13.2092 1164 56.5223 460.56 527.162
1864 0 92.1399 14.9447 1377 54.4277 460.808 524.147
1865 0 93.2164 13.3989 1249 56.5997 460.92 523.977
1866 0 97.4454 14.1926 1383 55.7108 461.283 520.993
1867 0 100.248 14.2447 1428 55.9713 461.127 521.517
1868 1 55.0864 11.6726 643 57.9953 461.194 540.381
1869 0 58.1034 10.378 603 59.0365 460.907 540.162
1870 0 61.1808 11.8992 728 57.6786 460.276 539.58
1871 0 63.1013 11.2517 710 56.9014 459.806 540.458
1872 0 65.1851 13.2392 863 55.3847 459.431 538.546
1873 0 67.1031 13.0843 878 56.4727 459.199 536.112
1874 0 68.0717 12.5456 854 57.0152 458.829 535.369
1875 0 73.0507 14.1135 1031 55.0941 458.564 535.338
1876 0 74.0866 13.0388 966 56.4752 458.931 534.323
1877 0 76.101 13.9289 1060 56.25 458.593 532.884
1878 0 78.15 12.9239 1010 57.7624 459.091 531.191
1879 0 82.1818 14.115 1160 56.5414 458.878 530.881
1880 0 85.1908 14.0273 1195 56.6996 459.519 531.21
1881 0 87.4668 13.3651 1169 57.9076 459.196 529.008
1882 0 89.2566 13.4668 1202 58.307 459.206 527.777
1883 0 94.2278 14.0829 1327 57.6285 458.818 525.819
1884 0 95.1578 13.2517 1261 58.9849 458.564 525.282
1885 0 101.257 13.9052 1408 58.3722 458.702 524.163
1886 0 102.228 13.8123 1412 58.932 458.456 521.735
1887 0 106.471 13.7315 1462 58.5739 458.696 519.171
1888 0 109.353 14.7138 1609 57.3493 458.569 517.836
1889 0 114.156 14.0772 1607 58.2408 458.33 515.098
1890 1 64.2752 11.4974 739 57.6509 457.191 543.38
1891 0 63.1704 12.4267 785 59.5974 458.166 542.665
1892 0 67.3375 12.9943 875 58.3189 457.723 541.263
1893 0 67.1512 12.4793 838 59.3389 458.013 541.955
1894 0 71.145 13.3108 947 58.4477 457.714 539.134
1895 0 73.1862 13.4452 984 58.2236 457.652 538.785
1896 0 75.2364 12.6534 952 59.3267 457.793 538.111
1897 0 78.1149 13.3137 1040 58.6019 457.189 537.284
1898 0 79.185 14.1441 1120 58.1741 457.369 534.52
1899 0 80.0838 13.2861 1064 59.6588 457.168 534.607
1900 0 82.1391 13.6476 1121 59.124 457.112 533.874
1901 0 87.1505 13.9758 1218 58.0944 456.512 531.406
1902 0 88.2068 13.4797 1189 58.9823 456.959 531.31
1903 0 90.2815 13.4358 1213 59.5326 456.976 529.89
1904 0 92.1999 14.1432 1304 58.8221 456.39 528.409
1905 0 97.1663 14.2848 1388 58.3631 456.398 527.578
1906 0 97.087 13.5549 1316 59.5813 456.328 526.266
1907 0 99.2303 13.5241 1342 60.0045 456.268 526.586
1908 0 102.26 13.9155 1423 60.1082 456.365 523.573
1909 0 105.357 14.2562 1502 59.504 455.923 522.827
1910 0 108.221 14.0361 1519 59.8999 455.551 520.649
1911 0 112.269 14.7058 1651 59.4743 455.29 520.665
1912 0 115.195 14.853 1711 59.5248 455.682 519.164
1913 0 117.25 13.7398 1611 60.8026 455.574 518.146
1914 0 123.341 14.5289 1792 60.1044 455.277 515.436
1915 1 63.1024 10.8554 685 60.6832 454.953 546.515
1916 0 63.0985 12.0288 759 59.921 455.082 544.13
1917 0 65.1346 12.4972 814 59.5995 455.195 543.353
1918 0 68.0889 12.8509 875 59.6697 455.099 543.129
1919 0 66.0774 13.3177 880 61.3909 455.131 540.553
1920 0 72.0973 13.0934 944 60.3496 456.251 540.436
1921 0 73.0321 13.5831 992 60.2974 455.447 541.227
1922 0 76.069 13.5666 1032 60.6725 455.247 538.651
1923 0 75.0661 12.9486 972 62.2912 455.278 537.893
1924 0 79.0974 13.0725 1034 61.8723 455.084 537.628
1925 0 82.1581 14.1069 1159 60.7084 454.921 535.471
1926 0 83.117 13.6675 1136 61.3442 454.804 534.524
1927 0 85.0616 13.5431 1152 62.1328 454.562 535.281
1928 0 88.1204 14.0036 1234 61.2002 455.316 533.767
1929 0 89.1533 13.8638 1236 61.8762 455.513 531.82
1930 0 94.0891 13.9761 1315 60.8304 455.329 531.347
1931 0 96.1512 13.718 1319 61.2684 455.364 530.87
1932 0 98.1325 13.6754 1342 61.5104 455.402 528.967
1933 0 102.186 14.3855 1470 60.4497 455.199 525.627
1934 0 104.166 14.1505 1474 60.576 455.296 524.518
1935 0 109.254 14.6447 1600 59.78 455.396 523.011
1936 0 114.229 14.147 1616 60.0037 455.394 521.446
1937 1 61.024 11.1923 683 60.369 455.709 548.457
1938 0 62.0544 10.523 653 61.0521 456.138 546.389
1939 0 66.052 13.1714 870 58.9058 456.248 544.218
1940 0 69.1173 13.4554 930 58.8075 456.008 542.52
1941 0 70.1001 12.582 882 60.4614 455.663 541.762
1942 0 71.1435 13.1565 936 60.188 455.252 539.795
1943 0 74.1324 12.3563 916 60.8144 455.511 539.06
1944 0 77.2251 13.4801 1041 58.0279 455.406 537.721
1945 0 79.1462 13.5319 1071 57.7124 455.81 535.623
1946 0 82.0483 13.4311 1102 57.4673 456.245 534.82
1947 0 86.2886 14.1154 1218 56.7241 456.383 532.396
1948 0 87.2118 12.9799 1132 57.9868 456.131 532.123
1949 0 91.1336 14.6159 1332 55.7815 456.58 531.115
1950 0 92.2618 13.0281 1202 57.9526 456.652 529.871
1951 0 95.1851 13.7627 1310 56.9947 457.234 526.533
1952 0 99.3796 13.2321 1315 57.2928 457.081 526.326
1953 0 103.311 13.6481 1410 57.139 457.187 525.043
1954 0 107.249 14.3497 1539 56.0812 458.032 523.486
1955 1 60.1636 11.5685 696 56.569 458.092 545.907
1956 0 63.2872 12.3248 780 55.9436 457.951 544.58
1957 0 66.1865 11.9813 793 56.4578 458.136 543.096
1958 0 65.1734 12.812 835 56.4252 458.119 542.594
1959 0 68.1635 13.4236 915 55.2 457.773 542.604
1960 0 71.0918 13.0676 929 55.9397 458.192 539.931
1961 0 74.1114 13.7765 1021 54.8972 458.976 538.821
1962 0 74.1088 12.6975 941 56.6886 458.674 538.704
1963 0 76.1303 13.1748 1003 56.5962 458.647 537.563
1964 0 79.1102 12.3246 975 58.1918 459.692 536.546
1965 0 83.0995 12.6114 1048 57.7948 460.216 533.217
1966 0 85.092 13.1152 1116 57.6111 459.513 532.6
1967 0 87.2425 13.3765 1167 57.4019 459.571 531.848
1968 0 91.1041 13.512 1231 56.7734 460.149 530.452
1969 0 94.1194 13.8866 1307 56.8814 460.174 527.409
1970 0 97.1221 13.55 1316 57.7918 460.181 525.657
1971 0 98.2599 13.0776 1285 59.0576 460.298 525.633
1972 0 104.27 13.5418 1412 58.0489 460.048 523.703
1973 0 107.255 13.4912 1447 58.1935 460.629 522.422
1974 0 110.3 13.7081 1512 58.2401 460.802 519.337
1975 0 113.246 13.7311 1555 58.3672 461.19 518.424
1976 1 64.1812 10.8287 695 59.1683 461.199 542.646
1977 0 67.1966 12.0988 813 58.5141 461.689 540.603
1978 0 69.1422 13.2191 914 57.8282 462.424 539.979
1979 0 70.0968 13.0248 913 57.9398 462.118 538.548
1980 0 71.177 12.6867 903 58.9801 462.496 537.52
1981 0 74.0541 13.7197 1016 58.0158 463.048 536.414
1982 0 77.1443 13.5072 1042 57.8628 463.065 533.696
1983 0 78.0453 13.1975 1030 58.5301 463.165 532.565
1984 0 82.0855 13.4616 1105 57.629 463.5 532.987
1985 0 86.1339 14.1059 1215 57.279 463.172 530.461
1986 0 86.1744 13.3218 1148 58.797 463.406 528.13
1987 0 88.2168 14.419 1272 57.4764 462.993 528.75
1988 0 91.2123 14.5923 1331 57.7092 463.18 528.919
1989 0 94.2045 14.1713 1335 58.5124 462.879 525.757
1990 0 95.1771 13.2595 1262 59.9509 463.181 524.287
1991 0 99.2198 14.4628 1435 58.4474 462.803 522.045
1992 0 104.285 14.5275 1515 58.0198 462.941 519.996
1993 0 107.134 13.8891 1488 59.082 462.483 518.219
1994 0 110.155 14.1074 1554 58.8391 462.308 516.838
1995 1 59.0159 10.3701 612 60.0229 462.856 544.843
1996 0 57.0769 9.86389 563 61.9023 462.97 542.767
1997 0 61.2536 10.9545 671 60.6066 461.809 542.542
1998 0 63.0953 12.9487 817 59.0649 461.568 540.121
1999 0 63.1277 12.641 798 59.99 461.352 538.751
2000 0 68.0841 13.0721 890 58.8876 461.842 536.352
2001 0 69.0284 13.6321 941 58.5515 461.553 536.185
2002 0 73.1179 13.9911 1023 58.259 460.787 535.181
2003 0 74.1072 13.5614 1005 58.4816 461.111 535.494
2004 0 78.4099 13.2126 1036 58.944 460.934 533.064
2005 0 80.146 13.9495 1118 58.5519 460.834 533.422
2006 0 83.1008 13.5137 1123 59.1202 460.673 531.456
2007 0 84.2254 13.6063 1146 59.2626 460.359 528.351
2008 0 85.1568 13.5984 1158 59.1615 460.693 528.615
2009 0 91.134 13.8807 1265 58.3605 460.112 526.663
2010 0 94.2954 13.9031 1311 58.6568 459.97 525.294
2011 1 52.0879 12.3061 641 58.4961 460.08 546.63
2012 0 54.0749 12.4827 675 57.7022 459.241 545.807
2013 0 54.1526 13.3696 724 56.9116 458.7 545.593
2014 0 56.164 13.7633 773 56.8719 458.904 543.512
2015 0 57.2054 11.7646 673 59.3343 459.33 542.813
2016 0 61.23 12.5592 769 57.8179 460.098 542.847
2017 0 62.1827 12.9457 805 57.6783 459.57 542.805
2018 0 65.0732 13.0776 851 57.0282 459.425 541.848
2019 0 67.0783 13.9091 933 56.1876 459.337 540.743
2020 0 68.1484 12.9717 884 57.9864 459.455 539.238
2021 0 71.1224 13.6244 969 56.6563 459.214 539.485
2022 0 73.1469 13.8762 1015 56.4837 458.865 539.171
2023 0 74.2298 13.6872 1016 57.126 458.731 536.958
2024 0 78.1769 14.2625 1115 56.1516 458.754 534.771
2025 0 80.3354 13.5059 1085 56.8839 458.669 534.962
2026 0 83.1619 14.117 1174 56.2683 458.466 534.274
2027 0 83.1875 13.4996 1123 57.4764 459.015 532.675
2028 0 87.1913 13.889 1211 56.7415 458.796 530.39
2029 0 91.302 14.2385 1300 56.2169 458.997 529.155
2030 0 92.3428 13.4607 1243 57.6404 458.693 527.964
2031 1 50.0791 11.9611 599 57.8614 458.559 549.516
2032 0 50.1148 11.5734 580 58.4983 458.505 548.624
2033 0 55.111 11.8307 652 58.5383 457.937 548.52
2034 0 54.1049 12.0876 654 58.8731 457.607 547.141
2035 0 56.1242 12.8287 720 58.2722 457.542 545.119
2036 0 60.1643 13.3302 802 57.7643 457.635 543.67
2037 0 61.2749 12.909 791 58.7345 457.642 543.698
2038 0 64.1102 13.2272 848 57.7288 457.426 541.673
2039 0 66.1166 13.0376 862 57.7517 457.655 543.078
2040 0 70.1348 13.6024 954 56.4906 458.393 543.235
2041 0 72.1653 14.1619 1022 56.9971 458.582 540.323
2042 0 72.1965 13.4356 970 58.3887 457.8 538.93
2043 0 76.2204 13.9595 1064 57.5479 457.421 540.249
2044 0 79.2601 14.1559 1122 57.1426 457.571 538.014
2045 0 80.2997 14.4957 1164 56.8814 457.2 537.822
2046 0 84.4142 14.4288 1218 56.9245 457.331 534.319
2047 0 86.3377 13.4009 1157 58.2074 457.032 533.031
2048 0 91.231 14.1947 1295 56.7374 456.683 531.958
2049 0 91.3485 14.1874 1296 57.6242 457.235 530.875
2050 1 50.4502 11.3577 573 59.5428 456.885 550.583
2051 0 54.191 11.9393 647 58.8238 456.734 550.057
2052 0 56.1386 11.8813 667 58.7436 456.69 550.483
2053 0 58.0522 12.6438 734 58.5422 457.003 548.305
2054 0 59.1689 13.5375 801 59.6966 456.709 548.307
2055 0 62.1254 14.3259 890 58.6618 456.304 546.179
2056 0 64.0756 13.5777 870 60.0161 456.328 546.08
2057 0 67.1732 14.4998 974 58.9035 456.506 543.844
2058 0 69.2387 13.764 953 60.0902 456.55 543.197
2059 0 69.433 13.2214 918 60.6024 456.609 544.278
2060 0 73.2508 14.1841 1039 59.7873 456.671 540.884
2061 0 75.0815 13.8782 1042 60.4712 456.384 541.165
2062 0 76.098 14.0871 1072 61.1259 456.459 539.346
2063 0 80.2061 14.1884 1138 60.7619 457.297 539.312
2064 0 80.2861 14.112 1133 61.496 456.616 537.109
2065 0 86.1993 13.55 1168 61.7868 456.679 536.414
2066 0 88.1357 14.75 1300 60.8185 456.979 535.328
2067 0 91.2156 14.1533 1291 61.6785 457.349 533.331
2068 0 94.1822 14.4082 1357 61.8637 456.85 532.721
2069 0 97.1345 14.5159 1410 61.7277 456.775 530.492
2070 0 102.222 14.6152 1494 61.6653 457.208 529.19
2071 1 57.1156 11.608 663 63.908 456.683 550.09
2072 0 58.0192 11.6686 677 64.7592 456.48 549.761
2073 0 60.1203 12.1091 728 65.1676 457.146 547.514
2074 0 61.1354 12.4314 760 65.4395 457.529 546.53
2075 0 65.1318 12.7434 830 65.2759 457.722 545.14
2076 0 68.1434 13.545 923 64.428 457.437 544.269
2077 0 71.0881 14.3062 1017 63.6165 457.701 542.666
2078 0 72.1246 14.1699 1022 63.8483 458.137 540.735
2079 0 75.1125 14.5116 1090 63.5165 457.659 539.688
2080 0 76.1692 13.9033 1059 65.5128 458.424 536.929
2081 0 78.2662 13.8629 1085 65.5945 458.495 537.328
2082 0 81.2163 14.6276 1188 64.6465 458.863 535.714
2083 0 85.087 14.6791 1249 64.6637 458.531 533.183
2084 0 86.2504 15.1999 1311 64.7513 458.776 532.045
2085 0 88.0542 13.7415 1210 67.8595 458.799 530.626
2086 0 91.1241 13.4761 1228 67.3127 458.949 531.435
2087 0 95.1502 14.0199 1334 66.943 459.106 528.626
2088 0 99.1388 14.6361 1451 65.632 459.38 527.161
2089 0 100.122 14.4323 1445 66.5329 459.887 523.485
2090 0 104.217 14.9592 1559 65.9243 461.057 521.289
2091 0 106.176 14.7491 1566 66.408 460.832 522.279
2092 0 111.081 15.3492 1705 65.5414 461.033 521.358
2093 0 112.123 14.7784 1657 66.9475 461.031 517.585
2094 0 117.111 15.1822 1778 66.1524 461.023 516.527
2095 0 122.251 15.3781 1880 65.4702 460.849 516.421
2096 0 125.18 14.5631 1823 66.96 460.828 512.212
2097 1 69.058 11.6858 807 67.6778 460.799 544.242
2098 0 71.1492 13.5209 962 66.447 461.198 540.717
2099 0 74.1388 13.4747 999 65.8559 461.42 539.21
2100 0 76.081 13.8405 1053 66.3276 461.214 538.421
2101 0 78.1783 13.4053 1048 66.6231 462.345 536.878
2102 0 81.4894 13.7564 1121 66.7261 461.877 533.852
2103 0 83.2741 14.1581 1179 66.285 462.182 534.092
2104 0 88.1445 14.6124 1288 65.1638 462.578 532.594
2105 0 92.1573 14.4752 1334 65.7541 462.917 529.214
2106 0 92.2869 13.7939 1273 67.3566 462.571 530.964
2107 0 96.2986 13.7385 1323 67.7211 463.145 528.176
2108 0 97.3641 14.0709 1370 67.5905 462.865 526.543
2109 0 103.305 15.0041 1550 66.4697 462.679 525.516
2110 0 107.306 14.6218 1569 67.0351 462.352 522.992
2111 0 110.269 14.5825 1608 67.0044 462.516 522.675
2112 0 112.456 15.1526 1704 66.7113 462.825 518.646
2113 0 116.253 14.5458 1691 67.8013 462.361 516.758
2114 0 120.267 14.5177 1746 68.0407 462.325 516.226
2115 0 125.141 14.9432 1870 67.1872 462.806 514.048
2116 0 131.222 14.8908 1954 65.9381 462.765 511.067
2117 0 136.312 14.8703 2027 65.8209 463.323 508.986
2118 1 69.1918 13.3397 923 68.5536 463.051 541.568
2119 0 72.2168 13.6395 985 68.198 463.083 540.183
2120 0 74.1918 14.7456 1094 67.0686 462.506 538.082
2121 0 79.322 15.3173 1215 65.6 462.127 536.4
2122 0 81.1764 14.6225 1187 66.6083 462.243 535.632
2123 0 84.138 14.5951 1228 66.7386 461.994 534.38
2124 0 88.2344 14.9715 1321 66.5163 461.914 532.241
2125 0 90.1854 14.5256 1310 67.0702 461.293 532.843
2126 0 94.2459 15.0351 1417 66.0565 461.136 530.29
2127 0 96.2371 14.9319 1437 66.1197 460.902 529.626
2128 0 99.1672 14.2285 1411 67.4295 460.353 527.063
2129 0 100.235 14.4661 1450 67.2731 460.777 526.586
2130 0 104.319 14.5898 1522 67.341 460.151 523.282
2131 0 107.344 14.4022 1546 67.7316 460.33 520.952
2132 0 112.363 15.3966 1730 66.2434 460.609 518.786
2133 0 116.251 15.5612 1809 66.0669 460.012 517.101
2134 0 120.232 14.7715 1776 67.2714 460.138 517.01
2135 0 123.275 14.9585 1844 66.8541 459.888 516.797
2136 0 127.342 14.6298 1863 67.9141 459.958 515.034
2137 0 131.233 15.8115 2075 66.1653 459.981 511.972
2138 0 135.178 15.1948 2054 67.9065 460.197 510.572
2139 0 139.34 15.5232 2163 67.8239 460.037 506.288
2140 0 144.366 15.5992 2252 67.5133 459.705 505.854
2141 0 150.289 16.3751 2461 66.6481 459.374 502.768
2142 0 154.313 15.8185 2441 68.1237 459.123 501.126
2143 0 159.261 15.4526 2461 69.0634 459.074 497.627
2144 0 165.279 15.8338 2617 68.4876 459.13 495.186
2145 0 171.386 15.8414 2715 68.3716 459.049 493.262
2146 0 175.394 15.7246 2758 68.7491 459.119 492.346
2147 0 180.385 15.5944 2813 69.2055 458.991 485.791
2148 0 186.563 15.9356 2973 68.9035 459.58 484.064
2149 1 142.153 13.0985 1862 73.8528 459.049 507.699
2150 0 149.487 14.4227 2156 72.141 459.145 504.675
2151 0 152.254 14.6466 2230 72.5552 459.076 502.231
2152 0 161.335 15.4276 2489 70.8598 458.994 498.53
2153 0 164.26 15.0858 2478 71.4855 458.871 495.959
2154 0 174.373 15.9887 2788 69.5717 458.977 491.593
2155 0 177.291 14.6369 2595 71.6231 458.746 488.991
2156 0 186.415 15.2456 2842 70.3244 457.837 485.345
2157 0 193.323 15.6008 3016 69.5096 458.072 483.507
2158 0 198.304 15.2645 3027 70.3538 457.761 478.417
2159 0 207.46 15.6561 3248 69.5958 458.038 473.82
2160 0 214.47 15.5966 3345 69.5187 458.114 472.703
2161 0 222.625 15.3532 3418 69.7586 457.888 468.771
2162 1 162.411 13.3119 2162 72.6494 457.808 503.464
2163 0 166.325 14.3214 2382 72.1847 457.529 497.821
2164 0 173.511 14.6619 2544 71.6509 457.695 493.957
2165 0 179.387 15.2575 2737 70.9711 457.368 490.162
2166 0 185.46 15.0868 2798 71.3181 457.77 486.638
2167 0 185.46 15.0491 2791 177.59 458.767 486.656
2168 1 196.34 14.8569 2917 71.9667 457.348 481.932
2169 0 203.55 15.5637 3168 70.6512 457.347 481.476
2170 0 209.339 15.697 3286 70.6948 456.962 475.124
2171 0 216.254 15.8518 3428 69.2439 457.128 471.602
2172 0 222.342 15.7505 3502 69.7733 457.102 470.685
2173 0 232.576 15.3928 3580 69.6668 456.808 464.416
2174 0 242.67 15.7828 3830 68.5634 456.545 459.58
2175 0 250.323 15.6837 3926 69.4873 457.085 453.903
2176 0 259.479 17.2075 4465 65.3832 456.837 448.983
2177 1 66.097 12.5724 831 68.4091 457.25 543.539
2178 0 69.1526 13.5498 937 68.285 457.31 541.73
2179 0 72.3084 14.3275 1036 67.0212 456.997 540.815
2180 0 74.2074 14.19 1053 68.2479 456.576 540.659
2181 0 76.3181 13.7189 1047 69.3104 456.599 539.01
2182 0 78.1514 14.216 1111 69.2547 456.357 537.32
2183 0 80.217 14.3112 1148 69.1324 456.522 535.996
2184 0 83.3487 14.8173 1235 68.3093 456.979 534.614
2185 0 86.0701 13.7911 1187 70.3488 456.968 533.059
2186 0 88.1948 14.2866 1260 69.9627 456.743 529.606
2187 0 90.1432 14.3771 1296 70.3534 457.203 530.444
2188 0 94.2133 15.0616 1419 69.7942 457.412 528.958
2189 0 97.2153 15.3268 1490 69.7483 457.593 527.764
2190 0 100.38 14.6144 1467 70.7287 457.314 526.552
2191 0 103.351 15.0458 1555 70.9994 458.039 524.075
2192 0 106.303 15.2959 1626 71.7651 457.887 522.636
2193 0 110.51 15.2837 1689 71.3067 457.856 521.471
2194 0 111.295 15.2208 1694 72.268 458.581 518.418
2195 0 114.445 15.1601 1735 73.2288 458.302 515.546
2196 0 119.454 14.516 1734 73.4994 458.736 511.781
2197 0 122.688 14.8751 1825 72.8389 459.145 509.933
2198 1 73.2143 12.0195 880 71.5795 459.265 537.531
2199 0 73.3217 11.1972 821 73.9123 459.423 535.432
2200 0 78.4106 12.7024 996 71.1576 459.707 534.6
2201 0 78.1729 12.8433 1004 71.1733 460.061 534.137
2202 0 80.3708 12.2308 983 72.5412 460.132 534.09
2203 0 82.3643 12.8332 1057 71.9659 460.364 532.452
2204 0 84.5095 12.543 1060 73.5755 460.746 530.233
2205 0 87.3168 13.0445 1139 72.3749 460.968 528.609
2206 0 91.2689 13.0055 1187 71.5383 461.259 528.941
2207 0 93.2358 13.5785 1266 71.6469 461.706 527.388
2208 0 95.3141 13.3768 1275 71.7388 461.994 521.549
2209 0 98.3872 12.9793 1277 72.7713 462.616 521.072
2210 0 101.345 13.6662 1385 71.0599 462.766 520.578
2211 0 105.62 13.9178 1470 71.1156 462.371 519.867
2212 0 107.501 13.1441 1413 71.8386 462.379 517.277
2213 0 110.39 13.1715 1454 72.2744 462.725 516.787
2214 0 114.457 13.3675 1530 71.0314 462.366 515.95
2215 0 116.467 13.4716 1569 71.5991 462.159 514.68
2216 0 122.516 13.4269 1645 71.2 462.526 514.074
2217 0 124.469 12.951 1612 71.8133 462.556 509.431
2218 0 128.646 12.6237 1624 72.1379 462.377 510.104
2219 0 133.719 13.1171 1754 71.1135 462.661 507.466
2220 1 85.7996 10.0933 866 70.7448 462.48 531.356
2221 0 86.5562 10.2246 885 71.6655 462.41 528.567
2222 0 90.5426 11.4642 1038 70.0915 462.916 528.812
2223 0 92.7024 11.9954 1112 70.348 462.532 528.389
2224 0 95.2602 11.2324 1070 69.8907 462.688 525.808
2225 0 99.374 11.4215 1135 71.1022 462.262 522.493
2226 0 103.54 12.0727 1250 69.3112 462.749 521.34
2227 0 105.355 11.9121 1255 70.3179 462.742 517.652
2228 0 109.442 12.6642 1386 69.2229 462.812 515.451
2229 0 113.444 12.2087 1385 71.2404 462.851 514.43
2230 0 117.483 12.9211 1518 70.3511 462.241 511.418
2231 0 119.658 12.4271 1487 71.6806 462.375 510.854
2232 0 122.668 12.4727 1530 71.6627 462.524 506.648
2233 0 124.655 12.2979 1533 72.1083 462.577 505.749
2234 0 127.413 13.2954 1694 71.5502 461.926 505.284
2235 0 134.762 13.3198 1795 71 461.954 504.086
2236 0 136.833 12.5263 1714 72.3092 461.739 501.214
2237 0 139.66 12.2655 1713 72.7338 461.643 499.541
2238 0 145.675 13.386 1950 70.7149 461.321 497.37
2239 0 149.735 12.8226 1920 71.712 460.934 493.238
2240 0 154.759 13.5307 2094 71.2736 461.718 492.442
2241 0 154.613 13.0584 2019 72.3878 461.063 488.86
2242 0 162.8 13.6794 2227 70.7485 461.026 490.077
2243 0 165.942 12.6129 2093 72.7148 461.263 486.619
2244 0 168.854 13.1652 2223 72.744 462.211 481.807
2245 0 173.545 12.6077 2188 73.6787 460.867 479.221
2246 0 181.015 13.7392 2487 71.3808 460.444 478.598
2247 0 186.901 13.2637 2479 72.3505 460.82 474.652
2248 0 193.857 13.7163 2659 71.4976 460.844 473.504
2249 0 199.88 13.6932 2737 71.7442 460.423 470.46
2250 0 203.931 12.9995 2651 73.221 460.661 469.952
2251 0 209.151 14.0759 2944 72.2262 460.589 464.116
2252 0 214.915 14.5825 3134 71.1165 460.832 456.645
2253 0 221.038 13.785 3047 72.5277 460.77 452.919
2254 0 226.797 13.7303 3114 73.0055 460.398 452.36
2255 0 234.012 14.0036 3277 72.9564 460.369 448.91
2256 0 238.578 14.029 3347 72.8742 460.488 442.055
2257 0 245.765 13.7367 3376 73.162 460.687 440.065
2258 0 249.642 15.0255 3751 71.4052 460.722 432.472
2259 0 261.699 15.77 4127 69.6785 460.362 430.933
2260 0 269.682 15.0325 4054 71.497 460.411 427
2261 0 275.715 15.0735 4156 71.897 460.768 419.363
2262 1 227.789 11.6599 2656 76.2658 460.439 455.41
2263 0 234.499 12.9809 3044 74.9681 459.94 445.986
2264 0 244.586 13.8479 3387 73.6501 460.225 440.719
2265 0 250.618 14.0134 3512 73.2167 460.56 438.371
2266 0 254.724 14.3253 3649 73.4138 460.705 429.944
2267 0 266.71 16.1411 4305 69.655 460.284 430.001
2268 0 273.547 14.8822 4071 72.2284 460.479 423.533
2269 0 283.956 15.277 4338 71.237 460.069 418.772
2270 0 293.699 15.4206 4529 71.0976 460.211 414.349
2271 0 293.699 15.4206 4529 71.0976 460.211 414.349
2272 1 229.933 12.4819 2870 73.8233 460.013 458.382
2273 0 237.875 11.855 2820 74.1114 459.821 453.073
2274 0 243.901 13.9729 3408 71.3829 460.2 447.271
2275 0 251.938 14.7179 3708 70.4943 459.812 443.861
2276 0 259.639 15.5254 4031 68.001 459.877 435.021
2277 0 266.911 15.6194 4169 67.769 460.05 431.553
2278 0 275.826 15.2487 4206 67.9696 459.752 429.17
2279 0 284.775 15.7317 4480 67.0174 459.712 421.93
2280 0 293.866 14.8333 4359 67.9401 459.494 419.339
2281 1 261.551 11.3036 3013 71.1756 458.838 438.677
2282 0 263.551 11.3036 3013 71.1756 458.838 438.677
2283 0 266.551 11.3036 3013 71.1756 458.838 438.677
2284 0 277.5 12.137 3368 70.1375 458.035 433.845
2285 0 286.717 12.7826 3665 69.9724 458.141 425.407
2286 1 47.1398 6.97924 329 51.5897 455.717 550.581
2287 0 47.1398 6.97924 329 51.5897 455.717 550.581
2288 0 47.1324 8.76255 413 50.908 457.334 552.407
2289 0 50.0746 8.80685 441 50.5601 456.932 552.853
2290 0 48.0603 9.5089 457 50.6499 457.151 551.414
2291 0 48.072 8.23764 396 52.1995 457.3 550.962
2292 0 51.0819 8.37871 428 52.1729 457.194 553.617
2293 0 50.0326 9.19401 460 51.9196 457.607 549.615
2294 0 51.0976 8.45441 432 53.3634 457.843 551.917
2295 0 51.0465 8.93302 456 53.1513 457.125 553.048
2296 0 51.0947 8.96374 458 53.6507 457.43 550.443
2297 0 52.1436 9.91492 517 53.1625 457.518 552.934
2298 0 54.2388 9.64254 523 54.2581 459.463 552.501
2299 0 53.2053 10.4125 554 54.2635 459.957 551.153
2300 0 54.2698 10.7242 582 53.4674 458.832 552.213
2301 0 52.2211 10.4172 544 55.2188 458.906 551.708
2302 0 52.2141 11.3188 591 54.1946 458.917 550.394
2303 0 55.4029 11.4254 633 55.8768 458.798 550.42
2304 0 55.2078 10.8137 597 55.0134 458.779 553.417
2305 0 55.2549 10.352 572 56.4213 459.246 552.171
2306 0 53.3009 10.8816 580 57.2655 459.221 546.112
2307 0 54.2243 10.6225 576 57.6354 459.222 550.476
2308 0 55.4192 10.61 588 56.1003 459.155 551.726
2309 0 57.3855 11.1004 637 55.3799 459.33 550.925
2310 0 57.3909 11.047 634 55.7334 459.084 551.546
2311 0 57.3258 11.0247 632 56.1092 459.095 551.369
2312 0 55.2213 11.0284 609 56.7685 459.087 551.016
2313 0 55.43 10.9688 608 57.0181 458.516 550.824
2314 0 56.3167 11.2222 632 56.7342 458.31 550.907
2315 0 56.2768 11.4612 645 56.7147 458.161 550.605
2316 0 56.2131 10.5136 591 58.6684 457.981 551.095
2317 0 56.2894 10.6947 602 58.7874 458.277 550.36
2318 0 56.3499 11.1801 630 58.5286 458.538 550.351
2319 0 55.2965 10.8325 599 59.7512 459.209 551.023
2320 0 55.3124 10.8113 598 60.2425 458.794 550.843
2321 0 57.3212 11.0954 636 59.2484 459.594 550.25
2322 0 56.4089 11.6294 656 59.1372 459.582 547.355
2323 0 57.4198 11.5117 661 58.7806 459.82 549.236
2324 0 55.2813 10.6546 589 61.2105 459.584 547.385
2325 0 57.3622 11.0874 636 59.0802 460.22 548.706
2326 0 59.2163 12.0575 714 57.9244 460.204 548.099
2327 0 56.201 10.9962 618 60.2379 460.481 548.555
2328 0 58.3153 11.2835 658 59.4939 460.272 546.138
2329 0 56.2616 11.3577 639 59.9327 460.338 546.152
2330 0 57.34 11.301 648 59.5972 460.202 548.066
2331 0 58.1467 11.3678 661 59.6732 460.362 546.628
2332 0 57.265 11.8746 680 59.5382 461.018 545.456
2333 0 59.3274 11.2933 670 59.1702 460.981 547.46
2334 0 58.4007 10.7875 630 60.1587 461.64 547.406
2335 0 58.2284 11.0771 645 59.9473 461.464 546.366
2336 0 59.3227 12.2213 725 58.3255 461.39 546.457
2337 0 58.3434 11.021 643 60.5552 461.268 546.272
2338 0 60.3094 12.2037 736 57.8818 461.946 546.848
2339 0 58.3317 12.0689 704 59.1577 462.312 546.791
2340 0 57.2639 11.6304 666 60.4144 462.401 546.808
2341 0 58.42 11.4002 666 59.7613 462.42 546.978
2342 0 58.2937 12.1282 707 59.0042 462.434 545.844
2343 0 58.3477 10.9687 640 60.1422 462.925 546.945
2344 0 59.2572 11.7285 695 59.1137 462.319 544.496
2345 0 60.3307 11.9011 718 58.2493 462.713 544.557
2346 0 58.1972 12.1655 708 58.2133 462.424 545.703
2347 0 59.2159 11.9731 709 58.189 462.478 544.117
2348 0 61.3927 11.1577 685 58.8423 462.584 544.835
2349 0 59.2806 11.2684 668 59.1946 462.852 544.268
2350 0 60.2951 11.5266 695 58.3669 462.991 544.463
2351 0 60.2533 12.1487 732 57.3183 462.713 545.202
2352 0 60.2533 12.1487 732 158.672 461.713 545.202
2353 0 60.3237 12.0848 729 57.4472 462.959 544.757
2354 0 61.1865 11.326 693 58.925 462.876 542.898
2355 0 62.2366 13.1595 819 55.4359 463.197 544
2356 0 61.3184 11.6115 712 57.6826 462.89 543.701
2357 0 61.2361 11.8721 727 57.4773 463.125 542.326
2358 0 61.2685 12.6819 777 57 462.974 541.654
2359 0 62.221 13.5003 840 54.9655 463.023 541.994
2360 0 61.2589 11.7697 721 58.3329 463.123 542.513
2361 0 62.2414 12.082 752 57.2527 462.612 544.33
2362 0 61.2074 12.3678 757 57.716 462.159 543.251
2363 0 62.2744 11.9632 745 57.3181 462.49 542.358
2364 0 62.3466 12.0295 750 57.28 461.621 543.155
2365 0 60.281 11.9441 720 58.0625 461.982 542.9
2366 0 62.288 12.4583 776 56.5271 461.74 543.155
2367 0 61.2438 11.6583 714 58.2745 461.088 543.51
2368 0 60.2914 11.7761 710 58.407 461.239 542.131
2369 0 62.2624 11.9815 746 57.571 461.233 544.332
2370 0 61.3169 12.3294 756 59.3664 460.794 542.241
2371 0 61.2681 11.4089 699 59.5794 460.651 543.238
2372 0 61.3192 11.9538 733 59.0068 460.618 541.812
2373 0 59.1789 10.7809 638 60.5752 460.492 542.235
2374 0 61.3383 12.1621 746 57.9142 460.637 541.791
2375 0 60.2529 11.3024 681 59.3436 460.584 544.467
2376 0 61.2296 12.1183 742 57.9933 460.639 543.779
2377 0 62.1909 11.9953 746 58.2828 460.503 544.578
2378 0 59.2903 12.0087 712 59.3371 460.732 544.919
2379 0 58.3364 11.348 662 60.0831 461.234 545.18
2380 0 59.2637 11.7947 699 59.1445 460.751 544.139
2381 0 61.2947 12.187 747 57.1633 461.08 545.237
2382 0 60.2277 11.7388 707 56.2249 460.788 547.044
2383 0 59.3359 11.3422 673 56.5201 460.765 545.786
2384 0 59.3301 11.2253 666 57.4595 461.008 546.387
2385 0 60.3522 11.35 685 56.5168 461.001 546.923
2386 0 59.3407 11.1054 659 57.129 460.648 546.909
2387 0 60.3406 11.3854 687 56.5822 460.627 547.179
2388 0 60.2679 11.9467 720 56.3056 460.24 546.55
2389 0 60.3009 11.227 677 56.8804 460.222 546.443
2390 0 61.2448 11.4785 703 56.4168 460.424 546.272
2391 0 59.4506 12.1782 724 55.7155 460.402 545.492
2392 0 61.2615 11.4101 699 55.7539 460.406 547.831
2393 0 61.2537 11.5422 707 55.8359 460.327 546.655
2394 0 61.287 11.7317 719 55.1725 460.357 547.431
2395 0 60.1686 11.8667 714 55.2171 460.669 544.852
2396 0 62.3465 11.1153 693 55.7071 460.444 547.053
2397 0 60.344 12.2962 742 54.4879 460.945 547.435
2398 0 61.3133 11.7104 718 55.4011 461.138 546.006
2399 0 61.4108 11.3498 697 55.4247 460.859 547.043
