time division length width area intensity CMx CMy
0 0 47.1029 12.1649 573 79.8848 756.473 572.375
1 0 49.2444 13.0573 643 78.9191 756.095 569.907
2 0 49.2444 13.0776 644 151.14 755.084 569.922
3 0 53.2251 13.0014 692 78.9855 756.389 568.723
4 0 54.0963 12.829 694 79.928 755.898 567.487
5 0 54.1047 12.864 696 80.3649 756.45 567.645
6 0 57.2855 13.424 769 78.472 756.218 566.865
7 0 60.3518 13.8024 833 76.1381 755.957 566.155
8 0 61.2495 12.5389 768 78.6771 756.457 565.91
9 0 61.2811 12.3692 758 80.2414 756.334 564.476
10 0 65.278 13.7565 898 78.3307 756.349 561.72
11 0 68.3997 14.2837 977 77.6469 756.608 560.981
12 0 71.283 13.271 946 78.7907 756.867 559.831
13 0 72.2184 12.6561 914 79.5066 756.733 559.643
14 1 37.0959 11.2411 417 79.2902 757.029 577.283
15 0 40.1462 11.8567 476 78.4391 757.111 575.929
16 0 40.1642 10.8306 435 80.4506 757.276 575.326
17 0 43.1082 11.9931 517 76.3926 756.503 573.104
18 0 42.2259 12.741 538 74.9498 756.539 572.903
19 0 44.1009 11.3603 501 76.5569 756.924 572.22
20 0 48.3374 12.7231 615 73.5089 756.881 571.154
21 0 47.2031 12.6687 598 74.3361 756.625 570.202
22 0 48.0704 12.0448 579 75.114 756.642 569.858
23 0 52.1514 12.6746 661 73.2421 757.28 569.779
24 0 53.1528 12.1913 648 73.679 756.909 570.387
25 0 54.2004 12.3246 668 74.3114 756.972 567.352
26 0 55.21 12.86 710 73.307 757.215 568.762
27 0 57.2009 12.4648 713 73.9383 757.223 566.233
28 0 60.1413 12.5704 756 72.9749 757.29 565.362
29 0 63.262 13.1833 834 71.7662 758.179 563.368
30 0 63.2941 11.9442 756 74.5741 757.825 563.851
31 0 66.1634 12.9679 858 72.4452 758.247 562.118
32 0 69.3841 13.0866 908 72.3656 757.735 561.012
33 0 70.4955 13.3767 943 72.2333 758.399 560.756
34 0 73.3767 12.5653 922 73.7668 758.102 557.885
35 0 77.2591 12.5681 971 73.5118 758.257 558.098
36 0 78.4546 12.9119 1013 73.5834 758.615 555.656
37 0 82.3543 13.0776 1077 72.9777 758.393 555.274
38 1 42.1484 10.8901 459 74.0654 758.475 574.771
39 0 44.1303 11.2394 496 73.7782 758.284 572.984
40 0 45.2121 11.6341 526 73.4924 758.559 571.924
41 0 46.1173 12.3381 569 72.2548 758.453 573.627
42 0 49.158 12.8362 631 70.6561 757.729 573.288
43 0 47.141 11.2004 528 74.2443 757.555 571.027
44 0 51.0558 12.692 648 71.1574 757.75 570.677
45 0 51.0853 12.391 633 71.6651 757.896 570.101
46 0 55.166 12.6527 698 71.2579 758.49 567.302
47 0 56.0914 12.23 686 71.551 758.652 568.856
48 0 58.2048 13.2635 772 70.2176 758.32 565.777
49 0 59.3794 11.856 704 72.4418 758.662 566.197
50 0 61.0747 12.0999 739 72.0392 758.913 565.442
51 0 62.347 12.6069 786 72.0331 758.931 563.02
52 0 64.4186 13.1794 849 70.6514 759.186 562.516
53 0 66.2819 12.2658 813 72.1156 758.972 563.212
54 0 70.1751 14.4211 1012 68.3804 758.091 561.88
55 0 72.349 12.9788 939 63.4643 758.391 560.974
56 0 72.2525 13.702 990 64.1475 758.257 560.666
57 0 75.5543 13.5664 1025 64.002 758.466 558.527
58 0 77.3206 13.4117 1037 63.9913 758.38 558.279
59 0 80.2784 13.5404 1087 64.1159 758.597 555.208
60 0 85.3671 12.9792 1108 65.4025 758.356 554.121
61 0 88.1701 12.7254 1122 65.6738 758.865 553.156
62 0 90.2906 12.4819 1127 65.4073 758.674 554.518
63 1 45.1137 10.3295 466 67.3197 757.979 572.824
64 0 48.1004 12.0165 578 64.9014 758.484 571.796
65 0 50.1183 12.2111 612 64.7467 758.391 570.105
66 0 51.1376 12.6912 649 64.6071 758.777 569.709
67 0 52.2665 12.7041 664 65.0813 759.193 568.193
68 0 54.1076 13.2329 716 64.8282 759.198 567.275
69 0 54.0914 13.3108 720 65.4639 759.592 566.833
70 0 56.1138 12.9914 729 66.0398 758.963 565.782
71 0 59.1142 13.6854 809 65.0655 759.646 565.565
72 0 60.1172 13.2741 798 66.0702 759.992 564.697
73 0 62.1437 13.7102 852 65.7289 760.426 563.629
74 0 64.1241 14.3316 919 65.8335 760.118 561.682
75 0 63.1591 13.2364 836 69.1962 760.757 560.673
76 0 70.1569 13.8404 971 66.8229 761.303 560.199
77 0 71.2525 13.5855 968 68.343 761.57 557.512
78 0 72.1599 13.9967 1010 68.4861 761.129 557.304
79 0 75.1591 13.8905 1044 69.0048 761.42 555.56
80 0 78.222 13.9986 1095 69.41 761.739 554.599
81 1 39.0903 11.4351 447 71.0313 761.04 573.649
82 0 40.1218 11.9885 481 71.5613 761.008 572.364
83 0 42.1252 12.629 532 71.3553 761.385 571.276
84 0 44.1262 11.6937 516 72.5911 761.95 569.839
85 0 46.1343 13.6124 628 70.0525 762.427 568.213
86 0 46.0836 13.1934 608 70.7188 762.359 568.158
87 0 47.0273 12.8649 605 71.524 761.673 566.681
88 0 49.0391 12.8061 628 69.4697 761.93 565.47
89 0 52.0806 14.0935 734 65.1989 762.425 564.097
90 0 52.0806 14.1127 735 165.288 762.43 564.128
91 0 53.1388 12.7026 675 72.4785 762.892 562.041
92 0 56.071 13.8931 779 73.154 763.294 560.515
93 0 57.1196 13.498 771 72.0921 763.274 559.881
94 0 57.176 13.0824 748 73.0027 763.782 560.074
95 0 59.2204 14.2518 844 69.2524 763.935 557.508
96 0 62.0426 13.2006 819 69.3883 764.054 557.386
97 0 64.0966 13.1832 845 94.6473 763.609 556.451
98 0 68.1546 14.3204 976 66.2141 763.168 555.419
99 0 70.1336 14.4154 1011 66.4322 762.815 554.262
100 0 72.1587 13.1239 947 70.4002 763.065 552.835
101 0 72.1747 13.5782 980 72.7071 763.676 552.242
102 0 75.1819 13.4208 1009 72.1001 763.188 550.316
103 0 79.3509 13.9507 1107 70.3749 763.629 548.563
104 1 40.0469 11.2119 449 74.9599 763.592 565.474
105 0 42.2281 11.651 492 74.5569 763.337 564.764
106 0 46.1202 11.882 548 74.6971 764.02 563.688
107 0 46.088 12.4544 574 76.0157 763.547 563.047
108 0 48.138 13.3366 642 76.8956 763.751 563.092
109 0 48.1842 12.7843 616 76.1688 764.484 561.713
110 0 51.0761 13.5288 691 73.0203 764.088 560.871
111 0 53.0745 13.0759 694 72.1801 764.252 559.589
112 0 54.0863 14.1811 767 70.1708 764.456 559.666
113 0 54.0908 13.237 716 73.3506 764.774 558.496
114 0 57.136 13.9142 795 72.8591 764.386 557.614
115 0 59.119 14.1917 839 72.7068 764.179 556.516
116 0 59.2055 13.4616 797 75.7252 764.297 555.657
117 0 63.1052 13.9925 883 73.1891 764.76 555.365
118 0 64.1413 13.7977 885 73.8011 764.374 553.999
119 0 67.1085 14.0072 940 73.0904 764.197 554.098
120 0 69.0524 13.9025 960 73.6125 764.059 552.038
121 0 71.1266 13.708 975 73.5323 763.992 551.351
122 0 75.1339 14.1481 1063 71.968 763.672 550.139
123 0 76.1007 13.9289 1060 72.5689 763.242 547.306
124 0 79.0502 14.067 1112 72.4344 763.011 546.576
125 1 41.1012 11.5568 475 72.9747 761.878 565.691
126 0 42.0761 11.9308 502 71.7928 762.114 564.994
127 0 45.1832 12.1948 551 70.9619 762.41 564.376
128 0 47.0985 13.8221 651 68.0922 762.886 563.091
129 0 48.1903 13.6335 657 68.8798 762.434 561.83
130 0 50.1228 12.8684 645 70.2791 761.867 561.282
131 0 51.0875 13.2322 676 69.6183 762.302 560.737
132 0 53.1606 13.0548 694 70.1023 762.514 559.488
133 0 55.1304 14.2571 786 68.098 762.991 559.709
134 0 55.2177 13.6007 751 70.0959 763.269 557.711
135 0 57.182 12.7663 730 70.7507 762.736 557.882
136 0 62.1565 13.0155 809 69.3424 762.868 557.174
137 0 60.1647 13.5462 815 70.054 762.575 555.445
138 0 64.1801 14.5372 933 67.7706 762.725 554.235
139 0 68.0861 13.4242 914 69.0241 762.348 552.422
140 1 31.0443 10.6622 331 71.0574 761.178 570.245
141 0 35.0205 10.9079 382 69.0288 761.301 569.547
142 0 38.0326 12.0686 459 67.5599 761.401 568.383
143 0 37.039 11.9874 444 69.6284 760.919 566.883
144 0 39.055 12.2135 477 69.6813 760.864 567.084
145 0 40.1202 12.9361 519 68.9846 760.987 566.965
146 0 41.2553 12.2893 507 70.7633 761.136 565.531
147 0 42.1091 12.8713 542 70.0148 761.044 565.231
148 0 43.1624 13.1828 569 69.4517 761.533 564.295
149 0 43.1005 12.7145 548 71.2391 761.553 563.606
150 0 45.154 13.465 608 70.3701 762.186 561.5
151 0 48.113 14.1126 679 68.2018 761.89 562.177
152 0 48.0998 12.682 610 70.7016 761.675 562.589
153 0 51.1718 14.5393 744 67.3051 761.828 559.781
154 0 49.1489 12.574 618 71.5356 761.84 559.047
155 0 53.1809 14.178 754 68.4735 761.655 558.626
156 0 54.0947 14.5671 788 68.3668 761.527 558.652
157 0 55.0935 13.3773 737 70.4953 761.942 557.908
158 0 56.0625 14.3411 804 69.7575 761.168 556.394
159 0 59.0419 13.0246 769 71.3004 761.534 556.017
160 0 61.0535 14.5119 886 69.2709 761.549 555.278
161 0 65.0925 15.163 987 67.6748 761.578 553.851
162 0 64.1115 14.0692 902 70.867 761.814 552.857
163 0 66.0787 13.9379 921 71.6102 761.477 551.046
164 0 70.082 14.483 1015 70.2522 762.16 550.48
165 0 74.0779 14.6602 1086 69.5516 762.423 548.554
166 1 35.0076 11.4261 400 72.84 761.97 566.76
167 0 37.0528 11.5511 428 75.0093 761.897 565.068
168 0 38.0169 11.1003 422 76.128 762.23 565.467
169 0 41.014 13.0931 537 72.8101 762.737 564.024
170 0 41.0554 12.7145 522 74.4808 762.943 562.479
171 0 41.0554 12.7389 523 165.897 763.983 562.428
172 0 45.0259 13.1702 593 74.6813 763.4 560.789
173 0 45.0198 13.2831 598 75.8445 763.443 559.425
174 0 49.0236 14.4828 710 73.0197 763.21 558.872
175 0 52.033 13.5683 706 73.6813 763.317 558.299
176 0 52.0336 13.6066 708 75.1314 763.681 556.929
177 0 52.1148 13.9884 729 75.7819 763.462 555.93
178 0 57.0529 14.1097 805 74.7627 763.54 554.637
179 0 57.0687 14.211 811 75.6091 763.746 554.112
180 0 60.0629 14.335 861 75.194 764.461 552.895
181 0 61.1339 13.9693 854 77.0351 764.275 551.012
182 0 62.12 14.0373 872 77.2557 764.663 550.411
183 0 65.0977 14.2862 930 76.7323 764.814 549.049
184 0 67.1935 13.9746 939 77.5357 765.016 547.415
185 0 70.2101 13.4738 946 77.7294 764.942 545.625
186 0 74.1119 14.5186 1076 74.9786 765.343 544.369
187 0 74.101 14.2238 1054 76.075 765.656 541.762
188 1 38.0508 11.6423 443 78.5688 766.217 558.009
189 0 40.2861 11.2942 455 78.222 765.974 557.07
190 0 43.257 12.0905 523 76.4436 766.12 556.621
191 0 45.2754 12.3467 559 76.9803 765.943 555.973
192 0 45.1594 12.4891 564 76.734 766.578 554.821
193 0 46.0638 12.6129 581 73.3855 766.504 554.174
194 0 49.1506 13.3671 657 70.8524 766.65 554.047
195 0 50.1999 14.1434 710 69.7718 766.793 552.724
196 0 49.2932 13.5718 669 72.9955 767.07 551.897
197 0 53.1562 13.4321 714 72.5042 767.034 551.175
198 0 53.3597 13.1747 703 74.3599 767.036 550.358
199 0 55.19 13.1002 723 73.4993 767.08 549.441
200 0 57.3953 13.799 792 71.9697 767.582 549.098
201 0 58.3469 13.7282 801 72.1473 767.403 547.034
202 0 62.2446 13.7683 857 70.986 767.524 546.489
203 0 61.2606 13.8425 848 72.191 767.369 545.162
204 0 64.3177 13.7287 883 72.5934 767.903 543.933
205 0 69.4446 14.0688 977 70.9806 768.121 542.915
206 0 68.2918 13.9548 953 72.6873 767.895 542.526
207 0 72.2975 14.7031 1063 70.794 768.117 541.437
208 0 73.3092 13.7773 1010 73.0891 767.774 539.661
209 0 78.3681 14.0363 1100 72.3809 768.05 538.203
210 0 80.3133 13.9578 1121 72.5584 767.802 535.851
211 0 81.2713 14.1009 1146 72.9791 767.675 534.651
212 1 39.1572 10.3685 406 72.9483 768.101 557.655
213 0 42.1471 11.1989 472 72.9449 767.657 555.794
214 0 43.1252 11.7101 505 72.503 767.717 555.406
215 0 47.027 12.3971 583 72.1938 765.7 556.166
216 0 49.0193 12.5461 615 72.1317 765.327 555.863
217 0 50.0916 12.8165 642 71.6168 765.634 553.615
218 0 52.0823 12.557 654 71.8884 765.37 553.06
219 0 53.1334 12.8544 683 71.6457 765.256 552.546
220 0 54.1311 12.8762 697 71.5552 765.059 552.446
221 0 57.1235 12.8318 733 71.7517 764.574 550.869
222 0 58.0646 13.4333 780 71.3962 764.406 551.126
223 0 59.1005 13.384 791 71.7522 764.412 549.732
224 0 61.0495 13.5955 830 71.294 764.192 548.396
225 0 65.1476 13.6306 888 70.7872 764.345 547.653
226 0 66.1724 12.9812 859 72.6263 764.05 546.397
227 0 69.0727 13.3772 924 71.8528 764.474 545.94
228 0 70.174 13.5378 950 72.2926 764.488 545.105
229 0 74.1007 13.1713 976 72.8238 763.961 542.093
230 0 76.0423 13.2032 1004 73.258 763.961 543.244
231 0 80.185 13.3192 1068 72.8951 764.065 542.732
232 0 81.1035 13.6122 1104 73.2726 764.337 540.517
233 0 84.2124 13.5728 1143 73.4786 764.336 539.496
234 0 87.1626 13.5494 1181 73.3844 764.251 538.351
235 1 45.0496 10.6105 478 75.4937 763.659 558.132
236 0 48.0594 11.0488 531 74.7533 763.556 557.04
237 0 51.054 11.9481 610 73.3672 763.53 556.041
238 0 49.0322 12.8079 628 73.6704 763.021 555.479
239 0 53.0695 12.983 689 72.2569 763.395 554.903
240 0 54.0501 13.247 716 72.7668 763.285 552.908
241 0 56.0269 13.4221 752 72.3684 763.37 552.48
242 0 58.0165 13.6513 792 72.0732 762.742 552.547
243 0 58.0276 12.5113 726 74.4311 762.282 551.398
244 0 61.1394 13.5919 831 72.0542 763.188 550.614
245 0 65.1297 14.0949 918 70.7277 763.709 549.377
246 0 65.0897 14.3341 933 70.478 763.67 548.712
247 0 65.1055 13.4551 876 72.6986 763.792 548.257
248 0 69.1278 13.3087 920 71.95 763.133 547.37
249 0 71.0771 13.2251 940 72.3511 763.422 546.329
250 0 72.0679 13.8064 995 71.3065 763.88 545.32
251 0 76.1029 13.2584 1009 72.001 763.455 543.625
252 0 79.0967 13.8185 1093 70.6606 763.187 542.145
253 1 41.0546 10.4495 429 71.8881 762.494 561.387
254 0 41.0213 11.4575 470 71.1787 762.677 560.557
255 0 41.0592 11.2277 461 71.6638 762.748 559.974
256 0 44.062 11.2796 497 70.4869 762.73 560.294
257 0 46.0184 12.4081 571 68.8441 762.687 559.296
258 0 47.212 12.4121 586 68.4334 762.805 559.222
259 0 46.1938 12.2094 564 70.0745 762.539 556.762
260 0 49.1466 12.5339 616 67.8539 762.388 558.878
261 0 51.0686 13.4329 686 67.5146 762.872 556.085
262 0 51.1202 12.9108 660 69.2545 762.902 555.435
263 0 55.0991 13.267 731 68.4405 762.58 555.316
264 0 54.0901 12.8304 694 70.0375 762.63 553.767
265 0 57.1249 12.779 730 69.5219 762.466 553.786
266 0 58.072 13.3283 774 70.6163 762.313 551.554
267 0 62.1254 13.8913 863 68.8389 762.291 550.978
268 0 64.095 13.1836 845 69.9053 761.543 550.367
269 0 64.0812 13.7014 878 69.8246 761.966 550.141
270 0 68.089 13.8789 945 69.4381 762.488 547.699
271 0 70.1972 13.1487 923 69.974 762.546 547.08
272 0 73.1773 13.4878 987 69.0932 762.735 545.883
273 0 73.2099 12.8808 943 70.3192 762.487 545.91
274 0 76.2389 13.1036 999 70.1902 762.384 542.128
275 0 79.1598 13.5549 1073 69.2721 762.87 540.088
276 0 82.1818 13.1781 1083 69.6427 762.788 539.006
277 0 86.3105 13.324 1150 68.8983 762.517 538.348
278 1 43.0812 10.84 467 68.9315 762.437 558.439
279 0 46.0624 12.0272 554 67.4079 762.661 556.365
280 0 47.2205 11.8381 559 67.6494 763.585 554.792
281 0 49.1252 12.6208 620 66.2 763.534 553.774
282 0 49.2429 13.0374 642 65.8956 763.807 553.218
283 0 52.0905 12.3439 643 66.8118 763.964 552.059
284 0 54.1137 13.0281 705 65.766 763.969 552.387
285 0 54.1706 12.8483 696 66.3247 763.894 549.75
286 0 58.1181 12.9736 754 65.3249 764.277 549.826
287 0 59.1965 13.8522 820 64.7524 764.838 547.57
288 0 61.1236 14.2335 870 64.1069 764.779 546.594
289 0 63.0927 13.1235 828 65.3539 765.14 544.572
290 0 65.2038 13.2201 862 65.3051 764.92 544.791
291 0 69.1179 13.4842 932 64.3981 765.283 542.775
292 0 70.1341 13.1605 923 65.1333 765.651 540.517
293 0 72.0915 13.1222 946 65.1892 765.554 540.254
294 0 76.1155 13.6109 1036 64.2249 765.671 539.043
295 0 77.1172 13.46 1038 64.8324 765.93 536.714
296 0 80.1997 12.9801 1041 65.3727 765.906 534.571
297 0 85.23 13.5398 1154 64.1464 766.219 533.78
298 0 86.4051 13.645 1179 64.5471 766.528 532.005
299 0 90.1548 14.2644 1286 63.8888 766.491 530.616
300 1 46.1916 9.85028 455 65.2549 766.132 551.697
301 0 49.0929 10.6533 523 64.4704 766.34 551.084
302 0 50.1192 11.1135 557 64.2657 765.878 550.591
303 0 54.1229 11.8804 643 63.2877 766.74 549.362
304 0 55.0879 11.8356 652 63.8804 766.673 548.416
305 0 55.0718 12.1115 667 64.2399 766.451 548.036
306 0 58.1857 12.2195 711 63.2138 766.733 546.985
307 0 62.1172 12.7018 789 62.6058 767.011 545.7
308 0 63.1176 12.9441 817 62.4823 767.435 543.956
309 0 66.2113 11.8409 784 63.2194 766.948 543.969
310 0 68.4033 12.4994 855 62.5322 766.704 542.701
311 0 69.1776 12.5619 869 63.3959 766.833 539.944
312 0 73.1907 13.4853 987 61.5451 766.958 541.491
313 0 74.1124 14.0867 1044 62.1782 767.403 537.789
314 0 76.1381 12.9896 989 63.2679 767.101 538.502
315 0 78.1622 12.9986 1016 64.3553 766.868 535.887
316 0 83.1945 13.6548 1136 63.3143 766.983 535.283
317 0 85.1045 13.1485 1119 64.1591 767.073 535.027
318 0 89.1417 13.114 1169 64.2438 767.092 534.356
319 0 92.1301 13.8717 1278 63.8928 767.35 530.432
320 0 94.1841 13.3887 1261 64.9786 766.655 530.109
321 1 55.2186 9.90608 547 64.1846 766.479 552.172
322 0 56.0968 11.0523 620 63.729 766.095 550.66
323 0 56.0427 11.1701 626 64.5304 766.096 549.808
324 0 59.1614 12.0518 713 63.2328 766.421 549.499
325 0 61.1256 12.9242 790 63.0861 766.17 549.17
326 0 64.1283 12.1787 781 65.1344 766.437 550.613
327 0 67.161 12.9986 873 63.8946 766.521 549.266
328 0 68.1794 13.0391 889 64.198 766.7 547.403
329 0 71.069 12.9311 919 63.6714 766.729 546.82
330 0 75.1115 13.5266 1016 62.0325 766.154 544.366
331 0 76.0758 13.2631 1009 62.5946 765.908 543.888
332 0 78.12 13.7993 1078 62.0288 765.275 541.891
333 0 81.1362 14.0504 1140 61.5026 765.344 542.215
334 0 84.1768 12.1886 1026 64.1296 765.184 541.028
335 0 86.1929 13.1217 1131 63.6304 765.192 538.685
336 0 91.1043 13.2046 1203 63.2818 765.202 537.449
337 0 92.101 12.9966 1197 64.1805 765.287 535.806
338 1 51.0132 9.80138 500 64.116 764.454 559.082
339 0 54.0151 11.108 600 62.3383 764.47 556.713
340 0 52.026 11.3789 592 64.2466 764.186 555.684
341 0 55.0498 10.8992 600 64.9317 763.902 556.332
342 0 57.0955 11.5771 661 64.4145 763.147 553.773
343 0 58.1181 13.1284 763 63.4024 763.325 554.427
344 0 59.126 12.5156 740 65.1095 763.447 552.741
345 0 62.1315 12.4735 775 65.1187 762.372 552.71
346 0 63.1874 12.7557 806 64.8002 762.416 551.445
347 0 66.1188 12.0238 795 65.2742 762.765 550.429
348 0 67.2231 12.7932 860 64.707 762.344 549.385
349 0 68.1626 13.6145 928 63.7845 761.885 548.288
350 0 72.1112 13.396 966 63.2391 762.037 549.342
351 0 73.1958 13.5527 992 63.7782 760.816 546.973
352 0 74.1029 13.5352 1003 63.8046 761.598 546.492
353 0 77.0528 12.5758 969 65.0402 760.844 545.315
354 0 79.102 12.8189 1014 64.5779 760.603 545.711
355 0 82.203 13.199 1085 63.5705 761.441 544.143
356 0 85.1588 13.4337 1144 63.4353 760.552 543.191
357 0 86.1407 12.526 1079 64.57 761.058 539.961
358 1 46.0115 9.97577 459 63.2092 760.54 561.745
359 0 49.0254 9.46448 464 61.7888 760.756 562.474
360 0 49.0128 9.50772 466 63.1824 760.882 560.054
361 0 52.0415 11.241 585 60.7077 761.762 559.632
362 0 53.1184 11.3144 601 61.208 762.845 559.176
363 0 53.1848 11.6951 622 61.664 763.092 557.389
364 0 55.0767 11.8199 651 60.8264 762.912 557.284
365 0 56.1228 11.7421 659 61.2033 763.011 555.452
366 0 57.1122 12.204 697 61.264 763.397 555.029
367 0 60.168 13.08 787 59.9911 762.925 554.679
368 0 63.0977 12.5995 795 60.3057 763.379 553.429
369 0 63.0958 12.5523 792 60.7576 763.472 552.723
370 0 65.1035 12.7796 832 59.762 763.905 552.212
371 0 67.0947 12.6389 848 60.8278 764.387 550.633
372 0 70.0534 13.2328 927 59.9741 765.087 548.534
373 0 70.0874 12.7127 891 60.6487 764.735 548.308
374 0 74.1221 13.1405 974 60.3316 764.882 546.736
375 0 76.0532 12.5833 957 60.7659 764.886 546.679
376 0 78.1361 13.0286 1018 59.8418 764.819 543.727
377 0 80.1016 13.3331 1068 59.2519 765.434 543.954
378 1 46.0179 9.47458 436 60.3417 765.335 560.995
379 0 46.0311 10.6884 492 59.8638 764.99 560.065
380 0 46.0279 11.2323 517 60.0348 765.58 558.24
381 0 48.0246 11.036 530 60.483 765.962 559.355
382 0 48.0354 11.5956 557 60.8546 766.244 558.364
383 0 52.0569 12.5632 654 58.8318 766.413 557.003
384 0 50.1725 12.0983 607 60.145 766.473 555.242
385 0 53.05 12.1206 643 59.8818 766.518 556.042
386 0 56.0481 12.3465 692 59.0824 767.039 553.741
387 0 56.2432 11.9125 670 60.3209 767.063 552.982
388 0 59.0737 12.0866 714 59.6947 767.091 551.943
389 0 61.0533 12.4481 760 59.1539 766.813 550.032
390 0 61.1603 12.0339 736 60.4647 767.457 550.292
391 0 64.0663 11.9408 765 60.4876 767.19 548.268
392 0 65.1267 12.1456 791 60.1138 767.609 548.862
393 0 69.0376 12.4425 859 59.8207 768.176 546.527
394 0 69.0521 12.6282 872 59.8635 767.739 545.814
395 1 37.0231 10.0748 373 60.496 767.743 560.458
396 0 42.0175 9.68644 407 58.5971 767.15 561.061
397 0 40.1183 8.77405 352 60.5426 767.545 559.602
398 0 44.0162 10.428 459 58.5272 767.669 559.641
399 0 45.0694 10.9387 493 58.5172 767.97 559.16
400 0 45.0298 11.1482 502 59.3725 767.952 558.175
401 0 47.035 10.6729 502 60.2191 767.972 556.665
402 0 48.0649 10.9435 526 59.6749 767.901 556.285
403 0 49.0324 10.9315 536 60.1007 768.431 556.106
404 0 51.0575 11.066 565 59.7504 768.184 556.11
405 0 52.1056 11.8989 620 59.4855 767.931 552.758
406 0 53.0621 11.6279 617 59.9806 768.139 553.032
407 0 54.0306 12.5484 678 59.0162 767.566 553.078
408 0 54.0218 10.94 591 61.8088 767.565 551.951
409 0 57.0942 12.2955 702 59.8675 767.637 551.665
410 0 59.0307 12.9763 766 59 767.47 549.637
411 0 61.1131 12.7468 779 58.9448 767.571 551.261
412 0 63.0517 12.6087 795 58.9535 768.319 549.332
413 0 64.0492 12.787 819 59.4628 767.485 548.231
414 0 66.0823 12.2272 808 60.3205 767.12 547.509
415 0 68.082 11.9855 816 61.1176 767.612 547.275
416 1 35.0093 9.45462 331 62.1873 767.338 563.583
417 0 37.02 9.91357 367 61.2888 767.185 562.646
418 0 38.0253 9.96706 379 62.1029 767.496 561.646
419 0 42.0796 10.3613 436 61.3968 766.502 560.589
420 0 41.0667 10.5438 433 62.6051 766.49 560.152
421 0 43.0376 11.6875 503 60.9046 766.471 559.879
422 0 43.0403 11.6635 502 60.9143 766.58 558.94
423 0 44.0869 11.8856 524 59.5897 766.46 559.261
424 0 48.1714 12.1026 583 59.0086 766.914 559.801
425 0 48.0848 12.1452 584 59.4846 767.125 558.207
426 0 48.1305 11.6558 561 61.3173 766.959 556.911
427 0 50.0858 12.0593 604 60.3609 766.454 556.671
428 0 50.0819 12.5195 627 60.6045 766.437 555.606
429 0 53.0869 12.5078 664 61.1717 766.033 555.021
430 0 55.0544 11.6612 642 62.3941 765.671 554.575
431 0 55.1568 12.4917 689 61.7344 765.968 554.916
432 0 58.1012 13.2183 768 60.6185 764.63 554.361
433 0 57.0398 12.5702 717 62.1534 765.576 554.403
434 0 60.1473 11.9041 716 62.8813 765.623 552.432
435 0 62.0697 13.211 820 61.0756 765.841 552.718
436 0 63.1854 13.4366 849 61.3439 765.382 550.166
437 0 64.0814 13.2488 849 61.8009 766.058 550.225
438 0 65.0283 13.0097 846 62.4941 766.022 548.156
439 0 68.0774 13.044 888 62.9032 765.453 548.963
440 0 71.1872 13.4575 958 61.8601 765.295 548.712
441 0 73.1094 14.0201 1025 61.3259 765.672 547.466
442 0 77.0964 13.0097 1003 61.8694 765.401 546.742
443 0 78.144 13.8334 1081 61.0333 765.562 542.641
444 0 82.1223 14.1374 1161 60.6994 765.674 541.826
445 1 44.0179 12.245 539 60.9147 765.714 563.21
446 0 45.0284 11.7926 531 61.4388 765.574 562.571
447 0 48.0589 11.7356 564 61.3121 765.764 560.332
448 0 47.0265 12.9289 608 60.903 766.332 560.003
449 0 49.1004 12.0366 591 62.1675 766.042 558.778
450 0 49.117 11.9918 589 63.1324 765.537 558.711
451 0 52.1278 12.3926 646 61.7152 765.404 557.899
452 0 51.0477 12.7528 651 62.4608 765.158 557.404
453 0 55.1921 12.683 700 62.2114 765.133 556.203
454 0 57.1026 12.9241 738 61.2439 765.835 555.787
455 0 56.0433 12.9186 724 62.3674 765.572 554.075
456 0 59.1865 12.8915 763 62.0013 765.111 553.79
457 0 62.1298 12.9085 802 61.7032 765.81 552.575
458 0 62.0431 13.2005 819 61.7582 764.303 553.11
459 0 64.0159 12.903 826 61.9201 764.328 551.063
460 0 68.0904 13.5555 923 60.5569 764.345 550.361
461 0 66.1801 11.9673 792 63.3876 763.835 551.126
462 0 71.1061 14.1901 1009 59.9286 764.107 549.331
463 0 71.0966 12.7854 909 62.2563 764.535 547.646
464 0 76.1125 13.1779 1003 60.5035 763.922 547.563
465 0 76.0743 13.4211 1021 61.3477 764.353 546.626
466 0 79.1511 13.7459 1088 60.8989 764.201 544.641
467 0 80.1354 14.0512 1126 61.0053 764.393 541.097
468 0 84.1181 13.8496 1165 60.9983 764.307 541.955
469 1 45.049 10.877 490 59.4224 764.314 563.78
470 0 45.0244 10.8163 487 61.2218 764.571 563.158
471 0 48.0614 11.4229 549 61.0911 764.803 561.914
472 0 49.0943 12.6084 619 60.231 764.553 561.351
473 0 50.0384 12.3305 617 61.1183 763.947 560.914
474 0 50.0738 12.3817 620 61.6952 764.361 560.155
475 0 51.0971 12.4665 637 62.2041 764.399 559.259
476 0 54.0705 12.7981 692 61.5202 764.643 560.017
477 0 55.0201 12.5772 692 61.8454 764.991 560.066
478 0 57.0174 12.8733 734 62.1144 764.901 558.508
479 0 60.1627 13.6131 819 61.359 765.291 558.144
480 0 58.0581 13.1076 761 63.5125 764.901 558.737
481 0 61.1083 13.1242 802 63.7082 764.98 556.478
482 0 62.1658 12.8527 799 64.3554 764.798 555.02
483 0 65.1706 14.1168 920 62.325 764.999 555.022
484 0 67.0224 14.3683 963 62.6885 765.318 555.31
485 0 68.0563 13.9443 949 63.5817 765.292 552.295
486 0 71.0277 13.6426 969 64.1589 765.144 551.673
487 0 71.0657 13.7056 974 64.537 764.818 550.654
488 0 75.1133 14.4981 1089 62.865 765.447 549.823
489 0 78.1025 13.6359 1065 63.7587 765.703 549.101
490 0 78.2235 13.2441 1036 65.4218 765.139 546.751
491 0 80.0934 12.9099 1034 65.8646 765.068 545.884
492 0 84.148 13.5713 1142 65.2233 765.322 544.166
493 0 86.0941 14.1473 1218 64.9228 765.351 542.451
494 0 87.2584 13.5001 1178 66.1409 765.607 541.476
495 0 90.096 13.6965 1234 66.1378 765.836 539.24
496 0 94.1656 13.8798 1307 65.3856 765.713 537.236
497 0 98.1744 14.1279 1387 65.2559 765.838 534.841
498 1 51.09 12.155 621 64.5233 765.689 559.448
499 0 53.0886 11.0758 588 65.9847 765.883 557.861
500 0 56.0437 12.3653 693 64.1356 766.182 556.906
501 0 56.1013 12.4596 699 64.9528 765.861 556.724
502 0 61.0686 13.4275 820 62.5305 765.978 554.637
503 0 62.129 13.2144 821 63.0877 766.542 553.555
504 0 64.0655 13.0335 835 63.4335 766.347 552.911
505 0 67.1992 12.9912 873 63.2932 765.766 552.781
506 0 68.0539 13.7979 939 62.9808 766.462 549.616
507 0 68.1022 13.2008 899 64.2747 766.578 549.469
508 0 72.1168 13.1869 951 63.5857 765.943 549.344
509 0 72.1168 13.2285 954 158.64 765.937 549.308
510 0 77.0699 13.0142 1003 63.8076 766.134 547.065
511 0 81.1125 13.0929 1062 63.2298 765.917 545.126
512 0 81.1047 12.4037 1006 64.9225 765.964 544.493
513 0 86.0619 13.2695 1142 63.0963 766.236 543.285
514 1 49.0281 12.0135 589 61.7199 765.647 561.204
515 0 48.0111 10.3518 497 64.2757 765.396 561.012
516 0 51.0523 11.0671 565 63.092 765.554 560.287
517 0 51.2272 11.6344 596 60.9564 765.035 559.394
518 0 53.0882 12.0366 639 60.5853 765.271 557.302
519 0 56.0584 12.594 706 59.6756 765.738 556.537
520 0 57.1616 13.0507 746 58.8298 766.233 556.753
521 0 60.1129 13.3748 804 58.5871 766.458 555.49
522 0 60.2418 12.317 742 60.1671 766.695 554.74
523 0 64.1221 12.7725 819 59.5739 766.615 551.317
524 0 66.0938 12.921 854 59.1733 765.982 552.129
525 0 66.2032 12.9148 855 59.462 766.256 551.332
526 0 69.1396 13.3353 922 58.9523 766.899 548.94
527 0 71.1089 13.6129 968 59.1043 766.514 547.257
528 0 73.4036 12.6424 928 60.1994 766.435 548.525
529 0 74.1745 12.7537 946 60.8298 766.61 546.779
530 0 79.1624 13.1754 1043 59.4295 766.22 546.171
531 0 80.1546 13.6611 1095 59.7205 766.176 542.79
532 0 82.2373 13.3273 1096 60.4471 766.318 542.803
533 0 87.2031 13.566 1183 59.3221 766.474 541.241
534 0 88.1407 13.7507 1212 59.7063 766.39 540.304
535 1 46.0464 10.9889 506 60.1522 766.54 560.498
536 0 47.0388 10.6933 503 59.8429 766.656 561.571
537 0 49.1304 12.1106 595 59.2319 766.973 558.731
538 0 49.0688 11.4941 564 60.8546 766.748 557.449
539 0 50.0557 12.6659 634 60.4196 767.103 555.945
540 0 53.1053 14.0664 747 58.1325 766.932 555.266
541 0 55.0816 12.9807 715 59.4559 766.825 554.127
542 0 57.0802 13.0693 746 59.0523 766.898 554.898
543 0 58.2371 13.5137 787 58.7078 766.606 553.004
544 0 59.2228 13.3563 791 58.7826 766.383 551.531
545 0 61.2793 13.1855 808 58.7092 766.124 551.943
546 0 61.2868 13.5592 831 58.4404 766.196 550.987
547 0 64.2866 13.7976 887 57.3856 765.763 550.678
548 0 67.173 13.3387 896 57.1875 766.234 548.811
549 0 69.265 13.3834 927 57.3646 766.056 546.991
550 0 72.1621 14.024 1012 56.664 766.071 546.766
551 0 73.3073 13.7503 1008 57.3204 766.581 546.012
552 0 75.2238 13.533 1018 57.9057 766.584 544.764
553 0 79.0648 14.0012 1107 57.093 766.132 544.923
554 0 80.2365 13.6721 1097 58.0966 766.467 543.985
555 0 84.279 14.3452 1209 57.4119 766.12 542.037
556 0 87.3135 14.133 1234 57.6005 766.054 541.506
557 0 88.2116 14.6013 1288 58.0792 765.748 539.989
558 0 92.2589 14.1016 1301 58.6964 766.081 536.153
559 0 94.439 13.5537 1280 59.9492 766.181 535.059
560 0 97.2064 14.1554 1376 59.5436 765.65 532.892
561 0 101.209 14.3367 1451 59.1881 765.582 530.937
562 1 57.2118 11.3613 650 60.1123 765.977 554.189
563 0 58.2046 10.7552 626 61.1565 765.379 552.489
564 0 59.1879 11.624 688 60.4608 765.241 550.776
565 0 60.1351 11.9564 719 61.0306 765.437 548.15
566 0 60.1388 12.5044 752 60.7992 764.832 547.561
567 0 66.1345 12.8072 847 59.6151 765.615 546.425
568 0 66.2522 12.9656 859 60.3353 765.553 545.434
569 0 70.1301 13.1755 924 59.1353 765.207 544.523
570 0 72.1819 13.272 958 59.953 764.945 542.55
571 0 75.1295 13.4568 1011 60.0376 764.97 541.39
572 0 71.2401 11.9736 853 63.6717 764.957 536.02
573 0 79.2046 12.8528 1018 61.5432 765.155 538.439
574 0 81.2402 12.9369 1051 61.3416 764.251 538.001
575 0 86.2775 13.3059 1148 60.6019 764.385 536.807
576 0 89.1639 14.2883 1274 60.1484 764.369 536.114
577 0 91.0989 13.7872 1256 61.1879 764.077 532.078
578 0 92.0791 13.4124 1235 62.1263 764.249 532.468
579 1 51.0485 10.7349 548 61.6642 764.518 554.644
580 0 50.0981 11.0383 553 61.7432 764.063 554.043
581 0 50.1203 10.6743 535 62.9533 764.172 552.389
582 0 54.3461 11.8132 642 60.7991 764.114 552.241
583 0 58.2679 13.4379 783 58.0587 763.631 551.926
584 0 59.2734 12.1471 720 61.8986 763.194 553.862
585 0 61.3693 12.3352 757 62.2801 763.704 552.454
586 0 64.3011 12.6747 815 61.8822 763.636 551.31
587 0 67.3179 12.9683 873 60.8683 763.51 551.664
588 0 69.4354 12.256 851 62.3302 763.306 551.833
589 0 71.1022 13.2626 943 61.1951 763.353 550.319
590 0 73.2489 12.751 934 61.6906 763.034 549.862
591 0 74.1174 12.5207 928 62.7888 763.27 548.111
592 0 77.2787 13.0049 1005 61.994 763.802 546.281
593 0 79.1201 12.2725 971 63.4459 763.364 545.975
594 0 82.2366 13.2423 1089 61.4545 763.509 545.309
595 1 44.2559 10.1004 447 62.4653 762.837 563.553
596 0 44.1696 10.8898 481 60.9439 761.85 562.584
597 0 46.3051 10.7116 496 60.9516 762.298 561.115
598 0 49.1676 12.2845 604 58.5182 762.28 561.522
599 0 49.1162 12.6435 621 59.1836 763.879 560.312
600 0 50.1775 11.3597 570 60.2526 762.435 561.214
601 0 52.0643 12.2733 639 58.5243 761.789 560.264
602 0 53.053 11.8749 630 59.6905 762.148 560.316
603 0 56.0499 13.3452 748 57.5548 762.261 558.717
604 0 55.1443 12.694 700 57.6957 762.281 558.254
605 0 58.1042 13.407 779 56.2041 762.444 558.754
606 0 58.0686 11.5381 670 58.9179 762.803 557.548
607 0 60.0578 12.6711 761 58.7622 762.836 557.428
608 0 62.0608 12.5844 781 59.7657 762.69 554.901
609 0 65.1066 13.3934 872 59.0929 763.116 554.644
610 0 65.2481 11.5099 751 61.8296 763.563 553.567
611 0 66.1951 12.5236 829 61.0181 762.676 549.474
612 0 70.3017 13.0011 914 59.6116 762.989 549.372
613 0 73.1486 13.5888 994 59.5463 763.242 547.618
614 0 73.1719 12.0948 885 61.8418 763.096 547.212
615 0 75.2662 13.047 982 61.2587 763.329 545.211
616 0 78.2687 13.0959 1025 60.5112 762.59 546.04
617 0 79.1853 13.1716 1043 60.6481 763.198 543.653
618 0 81.1842 12.9212 1049 61.4204 762.679 540.942
619 0 84.3811 12.5502 1059 60.6204 762.708 541.355
620 0 86.3692 13.2339 1143 60.2607 762.542 539.772
621 1 43.2616 11.1415 482 58.7448 762.369 561.969
622 0 47.0634 9.77404 460 60.1435 762.957 560.454
623 0 47.3182 11.0951 525 58.6819 763.303 560.394
624 0 50.1015 12.0755 605 57.5091 763.172 559.076
625 0 51.0627 12.4553 636 58.8758 763.928 559.997
626 0 53.0828 12.5653 667 58.5787 764 558.762
627 0 54.0964 12.8844 697 59.033 764.502 557.529
628 0 54.0667 11.8557 641 60.7114 764.273 557.71
629 0 58.0639 13.1235 762 58.9934 764.681 555.969
630 0 58.048 13.2649 770 58.8636 764.708 556.684
631 0 62.0585 13.5195 839 57.5125 764.542 554.468
632 0 63.0856 12.3642 780 58.7167 764.556 555.268
633 0 65.1062 13.2246 861 57.9512 764.613 552.729
634 0 65.048 12.8674 837 59.2222 764.765 550.975
635 0 68.1717 12.7326 868 59.0829 764.757 549.696
636 0 71.1721 13.081 931 58.9882 764.748 548.084
637 0 74.1769 13.8857 1030 58.0272 764.813 547.125
638 0 76.1173 13.177 1003 59.0658 765.159 546.005
639 1 40.1867 11.4466 460 59.5022 765.607 564.654
640 0 43.1097 11.5983 500 59.412 765.092 563.342
641 0 44.1827 12.0409 532 59.6466 765.192 561.039
642 0 45.204 12.1671 550 59.2491 765.242 562.882
643 0 48.3738 12.7342 616 59.224 765.185 561.641
644 0 49.1094 11.79 579 60.3126 764.926 562.71
645 0 50.1292 12.388 621 59.5314 764.934 563.324
646 0 51.1186 12.1873 623 60.2392 765.082 561.093
647 0 52.0981 12.7452 664 60.2334 764.623 558.342
648 0 54.082 13.498 730 59.1548 766.149 557.958
649 0 57.1254 12.8139 732 59.8005 765.945 559.564
650 0 59.1074 13.4332 794 59.2557 766.026 556.814
651 0 59.1276 12.6337 747 60.7912 765.78 556.179
652 0 59.1276 12.5153 740 173.426 765.777 556.084
653 0 63.059 13.5746 856 59.8505 766.147 554.488
654 0 65.1037 12.9486 843 61.1376 766.075 552.159
655 0 67.0726 13.9103 933 59.9904 766.047 552.205
656 0 71.0897 13.4337 955 60.4419 766.052 549.577
657 0 72.0903 13.0115 938 60.9733 765.999 548.631
658 0 78.1164 13.3519 1043 59.7162 765.993 547.769
659 0 78.095 12.3311 963 61.4403 765.876 546.486
660 0 82.1408 13.3551 1097 60.3446 766.078 543.668
661 1 42.012 9.85433 414 60.5145 765.935 565.908
662 0 42.0407 11.6791 491 59.8595 766.006 562.825
663 0 44.1544 12.4563 550 59.0964 765.722 561.558
664 0 47.0669 13.1515 619 57.5961 765.847 563.213
665 0 45.1322 11.8097 533 60.9156 766.251 561.039
666 0 47.1278 11.3309 534 61.721 766.809 560.753
667 0 50.064 12.4441 623 60.886 766.618 558.36
668 0 51.1274 12.0483 616 61.1218 766.55 559.862
669 0 54.1069 12.8449 695 60.3928 766.688 557.01
670 0 54.0717 13.6485 738 60.7832 766.488 555.6
671 0 56.1372 11.9885 673 63.2912 766.935 555.796
672 0 58.1016 12.0479 700 63.1043 766.866 555.414
673 0 58.0907 12.7043 738 63.1694 766.931 552.358
674 0 61.045 12.4498 760 63.4724 767.347 551.534
675 0 65.0964 12.8732 838 62.2995 767.549 550.265
676 0 67.1769 13.3081 894 62.2752 768.161 548.672
677 0 68.1678 13.232 902 62.6596 768.144 548.457
678 1 32.01 9.84067 315 63.8413 767.517 566.337
679 0 34.0316 10.0201 341 63.1466 768.056 566.971
680 0 34.0497 10.1322 345 63.5362 767.557 564.71
681 0 38.0768 11.6081 442 61.4457 767.672 563.937
682 0 38.0132 11.6538 443 61.8014 767.84 563.273
683 0 39.0338 12.6301 493 60.7911 769.156 563.089
684 0 40.0738 12.3023 493 61.3732 769.54 561.97
685 0 43.0939 12.4844 538 60.9331 768.976 561.996
686 0 43.1161 12.0837 521 62.0115 768.687 561.261
687 0 44.0908 12.2248 539 62.3488 768.532 559.237
688 0 46.0887 12.4976 576 62.1128 768.634 559.031
689 0 45.0555 12.1406 547 64.415 768.457 558.792
690 0 47.0743 13.7017 645 63.293 768.406 557.833
691 0 49.1611 12.876 633 63.7077 768.48 557.387
692 0 51.1885 12.8545 658 63.965 768.562 557.109
693 0 54.0373 13.6017 735 62.4054 768.671 555.837
694 0 53.089 13.0347 692 63.4552 767.958 555.474
695 0 54.0427 13.2858 718 63.6393 768.258 554.511
696 0 56.089 13.5855 762 62.8766 768.657 553.471
697 0 56.089 13.5855 762 158.44 769.678 553.432
698 0 60.0689 13.7342 825 61.4473 767.735 551.104
699 0 62.1669 13.6729 850 61.5576 767.725 551.626
700 0 62.0927 13.802 857 62.1109 767.338 550.06
701 0 65.2326 13.1836 860 62.6384 766.656 549.188
702 0 65.1122 12.9162 841 63.5089 766.502 548.929
703 0 70.1938 13.7904 968 61.6901 766.594 547.708
704 0 71.2319 13.5894 968 62.343 766.717 545.539
705 1 38.1012 11.2332 428 63.8505 766.449 562.353
706 0 39.0931 12.0226 470 63.7064 765.994 560.972
707 0 40.0544 12.0836 484 63.0888 765.713 562.845
708 0 41.2835 11.748 485 64.2392 765.511 561.765
709 0 44.1563 12.4558 550 62.3509 765.649 561.056
710 0 44.1173 13.6455 602 61.3123 764.884 561.664
711 0 46.1874 12.5142 578 62.8443 765.093 560.239
712 0 47.0824 12.9772 611 62.6105 765.08 558.316
713 0 49.1496 12.8587 632 62.3892 764.723 558.78
714 0 51.3349 13.6944 703 60.9246 764.657 558.559
715 0 50.1658 12.9969 652 62.8681 764.626 558.486
716 0 54.4308 13.8157 752 61.2965 764.938 555.689
717 0 55.2285 13.0911 723 62.3568 764.479 554.694
718 0 55.2094 12.8239 708 63.4167 764.129 554.613
719 0 58.4844 13.183 771 62.3424 764.162 554.707
720 0 59.4123 14.1048 838 61.5322 764.352 552.575
721 0 63.2554 14.1332 894 61.2539 764.23 551.048
722 0 64.3121 13.9943 900 61.3956 763.378 552.146
723 0 66.4058 13.4024 890 62.7427 763.315 550.213
724 0 67.5191 13.2259 893 63.1825 763.811 547.458
725 0 71.6543 13.1185 940 63.4489 763.673 548.28
726 0 72.5725 14.4545 1049 60.9752 763.667 546.079
727 0 75.6847 14.098 1067 60.6635 763.929 544.605
728 0 78.3362 14.1186 1106 61.5895 764.175 544.359
729 0 80.6689 13.636 1100 61.4382 763.854 542.058
730 0 83.4842 13.1522 1098 60.8689 763.404 543.23
731 1 42.309 10.8251 458 61.4498 762.419 563.179
732 0 45.386 10.8403 492 61.437 763.297 561.451
733 0 47.4702 12.1339 576 59.3924 763.139 560.833
734 0 47.1984 12.6064 595 58.5378 763.808 559.879
735 0 49.2504 13.0354 642 57.1231 762.919 558.142
736 0 51.133 12.8097 655 58.2824 762.377 558.569
737 0 51.0609 12.4949 638 59.4859 762.469 556.444
738 0 55.1623 13.1249 724 57.7859 762.664 557.496
739 0 55.2364 12.7271 703 58.643 762.353 555.752
740 0 59.1806 12.9941 769 57.355 762.507 554.956
741 0 58.2853 13.0393 760 58.4013 762.513 554.475
742 0 59.137 13.7985 816 57.701 761.972 553.464
743 0 61.1315 13.7409 840 57.9595 762.418 552.221
744 0 64.0727 13.0789 838 58.4582 761.897 552.222
745 0 65.1661 13.5653 884 58.3043 761.721 550.867
746 0 69.2241 14.4603 1001 56.8222 761.804 550.38
747 0 73.2324 13.9965 1025 57.4634 761.572 550.068
748 0 73.2126 13.6998 1003 58.3599 761.162 548.266
749 0 75.3001 14.0504 1058 58.4924 761.587 546.761
750 0 78.3558 13.9747 1095 58.4676 760.999 545.286
751 0 79.3023 13.9466 1106 58.8391 761.041 544.784
752 0 85.3174 14.6043 1246 57.5955 760.917 542.84
753 0 85.517 13.7283 1174 59.575 760.524 540.997
754 1 48.1928 11.9727 577 59.13 760.539 560.452
755 0 48.2321 10.2214 493 60.5274 760.73 561.819
756 0 49.0908 12.0186 590 59.2373 761.029 559.715
757 0 51.0492 12.0276 614 58.4511 761.391 560.482
758 0 51.0637 13.493 689 57.852 762.444 559.238
759 0 54.05 12.5994 681 58.3231 762.117 559.621
760 0 55.1244 12.7348 702 58.9046 761.905 557.833
761 0 58.0603 14.3299 832 56.5373 761.929 557.917
762 0 60.1494 12.9843 781 58.1677 761.88 555.977
763 0 61.0845 12.8674 786 59.0064 762.036 554.219
764 0 63.0867 12.3956 782 59.2059 762.382 554.317
765 0 67.1695 13.9498 937 57.3223 762.075 552.528
766 0 67.0658 12.7338 854 58.8677 761.638 552.28
767 0 71.0937 13.9956 995 56.6271 762.226 551.24
768 0 73.1512 13.684 1001 57.1399 762.148 551.488
769 0 73.0974 12.6954 928 58.5474 761.866 548.761
770 0 76.0819 12.9992 989 58.2841 761.902 547.622
771 0 78.1032 12.8548 1004 58.1902 761.471 546.816
772 1 43.0563 10.2889 443 57.9797 762.415 564.558
773 0 45.0115 9.10878 410 57.4073 762.285 565.734
774 0 48.0152 10.58 508 56.3484 761.219 564.063
775 0 48.0423 10.3867 499 56.4649 761.24 564.816
776 0 48.0453 11.3435 545 56.3064 761.822 562.517
777 0 51.0946 11.7625 601 55.772 761.72 562.744
778 0 52.0166 11.2656 586 56.5819 762.159 561.328
779 0 52.0803 12.1159 631 56.1062 762.252 559.593
780 0 54.0447 12.3601 668 55.2874 762.268 560.606
781 0 55.1831 11.5978 640 56.5859 762.152 558.952
782 0 58.0427 12.5769 730 55.5411 763.219 556.748
783 0 58.0806 11.794 685 56.492 762.836 557.593
784 0 58.0806 11.794 685 152.968 762.836 557.593
785 0 63.0987 12.7102 802 55.904 763.024 553.552
786 0 64.129 12.7711 819 55.9988 762.926 553.894
787 0 67.078 12.1053 812 56.3325 763.09 554.132
788 0 69.0568 12.4825 862 56.2169 763.15 552.396
789 0 72.1275 13.3514 963 55.27 762.949 552.305
790 0 72.1275 13.3514 963 152.08 761.949 552.305
791 0 75.1571 12.2676 922 57.3709 763.221 548.168
792 0 77.238 12.4421 961 57.4048 762.681 547.563
793 0 82.2264 13.1223 1079 56.5746 763.292 545.834
794 0 82.1684 12.4744 1025 57.4361 763.32 546.181
795 0 84.2715 12.8632 1084 57.0609 763.02 543.948
796 1 42.0772 10.9798 462 56.7403 763.069 564.078
797 0 46.1165 10.7337 495 55.5939 762.851 563.418
798 0 49.1233 12.377 608 54.2484 763.592 562.824
799 0 47.2604 10.5585 499 56.7936 763.465 561.273
800 0 50.0539 12.107 606 55.4967 763.563 560.667
801 0 51.1347 12.5355 641 55.8362 764.716 559.003
802 0 51.1178 12.3049 629 56.1876 765.029 558.639
803 0 54.1388 11.4705 621 56.5974 764.928 560.122
804 0 56.0291 11.7261 657 56.2861 764.556 558.536
805 0 58.0775 11.278 655 57.0534 764.609 555.992
806 0 60.0835 11.9334 717 55.9693 764.669 555.201
807 0 63.1078 12.3598 780 54.8859 764.236 554.26
808 0 62.0626 12.004 745 56.2389 764.774 553.226
809 0 64.0624 11.3795 729 56.9273 764.77 552.591
810 0 70.1542 13.399 940 53.8862 765.302 552.235
811 0 72.1565 12.4452 898 55.1581 765.781 552.012
812 0 73.1961 12.4597 912 56.2664 765.977 548.955
813 0 76.0543 11.7285 892 56.5852 765.711 548.822
814 0 80.152 13.2623 1063 55.2437 765.302 547.749
815 1 45.0703 11.2491 507 53.5799 764.533 565.495
816 0 46.0908 9.3945 433 55.0185 764.547 564.053
817 0 48.1037 10.9347 526 54.3612 764.361 562.614
818 0 47.1282 9.25137 436 56.5826 764.761 562.716
819 0 50.0912 12.078 605 54.0975 764.993 560.944
820 0 54.0644 12.5961 681 53.2261 765.144 559.921
821 0 54.0979 11.4607 620 56.3952 764.71 557.832
822 0 54.2957 11.2716 612 57.4281 764.725 558.408
823 0 58.1395 11.9712 696 55.4368 764.345 556.339
824 0 60.0943 12.0145 722 56.0997 764.817 555.913
825 0 59.0181 12.5555 741 56.0391 765.85 555.953
826 0 63.0738 12.9372 816 55.4792 765.994 554.69
827 0 62.0384 12.6373 784 56.6952 765.95 554.061
828 0 64.054 13.0203 834 56.3621 765.667 551.824
829 0 68.0629 12.5472 854 56.623 766.281 551.399
830 0 67.0508 12.1848 817 57.5312 765.846 550.081
831 0 69.0709 12.1469 839 57.9881 765.61 551.038
832 0 72.0994 13.2733 957 57.1338 765.831 549.11
833 1 37.0527 9.446 350 58.6971 765.443 566.831
834 0 37.0527 9.47298 351 141.396 765.405 566.946
835 0 38.1261 9.52104 363 59.7273 763.942 567.212
836 0 42.1229 10.5881 446 59.1435 763.751 562.984
837 0 44.1142 11.0395 487 58.6776 763.505 563.893
838 0 45.078 11.2028 505 58.7109 764.267 564.323
839 0 44.1533 11.5054 508 60.2323 763.622 562.923
840 0 45.1825 10.7564 486 59.2654 763.64 562.5
841 0 45.1825 10.7564 486 145.56 763.663 562.582
842 0 48.2304 11.5695 558 58.948 763.412 561.602
843 0 51.2774 12.4616 639 58.2379 764.091 560.357
844 0 50.1791 11.1799 561 60.0927 763.922 560.825
845 0 54.3144 11.8385 643 59.3421 763.883 558.219
846 0 55.2183 12.6226 697 59.1535 763.561 558.577
847 0 57.1376 12.5487 717 59.5537 763.742 557.416
848 0 59.1618 12.9813 768 60.2031 763.934 555.996
849 0 60.3134 12.949 781 61.5365 764.097 556.406
850 0 62.2157 12.8263 798 61.7995 763.994 556.029
851 0 64.3034 13.032 838 61.6993 763.502 555.697
852 0 67.3321 14.1389 952 60.3992 763.887 554.321
853 0 68.191 13.3742 912 61.807 764.08 553.593
854 0 70.122 13.4052 940 61.9096 764.356 553.467
855 0 72.1328 13.6415 984 61.9309 763.968 553.187
856 0 74.1787 13.3327 989 62.4853 764.071 550.72
857 0 75.1121 14.7912 1111 61.063 764.079 549.444
858 0 78.0774 13.8324 1080 62.7139 764.097 547.951
859 0 82.1279 13.9904 1149 61.6562 763.661 545.747
860 0 82.0605 12.5395 1029 63.7454 763.726 545.424
861 0 86.0865 13.1379 1131 62.7551 763.688 544.715
862 1 45.0589 11.141 502 65.6773 763.749 562.325
863 0 45.3115 11.0347 500 66.588 764.072 563.246
864 0 49.0829 12.5298 615 64.4927 763.793 562.262
865 0 49.1628 11.5535 568 66.6303 764.114 560.745
866 0 52.079 12.097 630 65.1571 763.632 561.141
867 0 54.1003 12.7356 689 64.492 763.586 559.589
868 0 54.1002 13.0683 707 64.7001 763.389 559.721
869 0 57.1553 12.9297 739 66.1177 763.33 557.092
870 0 59.2022 12.9218 765 66.3686 762.695 556.765
871 0 62.1002 13.2689 824 65.7779 762.466 555.447
872 0 62.1295 13.665 849 66.0518 761.678 554.662
873 0 64.1033 13.447 862 66.3515 762.193 553.056
874 0 68.1694 13.8479 944 65.3686 762.355 551.812
875 0 69.047 13.3822 924 66.6126 762.968 551.801
876 0 70.2752 14.1302 993 65.9698 763.064 549.648
877 0 72.093 13.9681 1007 66.569 762.707 549.216
878 0 75.2768 13.7891 1038 66.6175 762.981 548.666
879 0 77.1885 13.9529 1077 67.2563 762.569 546.928
880 0 79.2174 13.6207 1079 68.126 762.982 546.807
881 0 82.4208 13.8315 1140 68.0219 762.711 545.41
882 0 85.4477 14.1958 1213 67.0758 762.19 544.068
883 0 89.6321 14.0017 1255 67.6892 762.424 540.205
884 1 47.4102 10.7783 511 69.5949 761.62 560.331
885 0 47.338 11.7876 558 68.9283 761.98 559.708
886 0 50.2575 11.7196 589 68.3871 762.357 559.959
887 0 52.3071 12.1972 638 68.4734 763.082 559.125
888 0 52.2872 11.1117 581 70.3752 762.549 555.585
889 0 52.287 11.8576 620 70.3403 762.384 555.008
890 0 56.2327 13.7998 776 66.6946 761.941 548.599
891 0 59.1611 13.3196 788 71.1396 762.08 546.906
892 0 62.2438 13.4793 839 100.574 761.664 547.226
893 0 61.1757 13.453 823 66.0279 762.146 545.313
894 0 65.17 13.6719 891 64.9304 762.474 545.718
895 0 65.1202 13.621 887 66.2469 762.883 546.043
896 0 66.2922 13.7573 912 66.2818 762.678 545.553
897 0 66.347 13.2335 878 66.918 763.909 548.22
898 0 72.2623 14.0599 1016 65.0039 764.592 548.39
899 0 72.3488 14.9139 1079 64.4551 764.736 544.684
900 0 75.4292 13.5491 1022 66.3219 765.057 543.614
901 0 74.3109 12.8783 957 66.7659 764.722 541.684
902 0 79.3584 13.3823 1062 65.9388 764.958 538.211
903 0 80.4222 13.541 1089 66.1478 764.885 536.745
904 1 44.3844 10.2964 457 65.8993 764.223 557.796
905 0 43.2574 10.2873 445 67.636 764.13 557.254
906 0 46.1831 11.5194 532 66.0113 764.641 555.222
907 0 46.2989 11.4042 528 66.6591 764.498 554.396
908 0 49.27 12.2793 605 65.3124 765.374 553.321
909 0 51.2564 12.7399 653 66.5314 765.348 555.44
910 0 52.1549 12.808 668 67.0359 765.558 557.988
911 0 55.1432 12.9844 716 66.2011 765.747 557.444
912 0 55.1132 12.7011 700 67.76 765.943 555.926
913 0 57.0826 13.4542 768 66.6445 766.307 555.259
914 0 58.0491 13.3508 775 66.929 766.16 553.004
915 0 61.1213 13.4323 821 66.2436 766.244 553.017
916 0 64.079 13.7018 878 65.9579 766.421 552.86
917 0 65.1318 14.2634 929 65.2314 766.921 551.558
918 0 68.1838 13.4196 915 66.5257 766.84 549.261
919 0 69.128 13.3665 924 67.0455 767.132 548.946
920 0 71.2025 13.5388 964 66.8496 766.981 547.549
921 0 72.0682 14.292 1030 66.3233 767.028 546.474
922 0 74.1123 13.547 1004 66.8855 767.232 546.441
923 0 78.0943 14.6105 1141 65.1876 767.323 544.167
924 0 79.2102 13.3442 1057 67.4598 767.838 543.68
925 0 83.1715 14.5843 1213 65.2061 768.018 540.763
926 0 85.2644 13.4875 1150 66.8365 767.641 539.878
927 0 86.1776 14.0524 1211 66.4988 768.168 538.263
928 0 90.229 14.308 1291 65.6204 768.445 537.497
929 1 47.0684 11.5152 542 66.5203 767.731 559.718
930 0 46.068 12.1125 558 165.38 767.778 559.582
931 0 50.1303 10.9914 551 67.5027 767.956 556.802
932 0 49.2597 11.9976 591 66.9002 767.964 556.284
933 0 55.2317 12.0945 668 65.4401 768.397 554.757
934 0 55.2095 12.6427 698 66.1519 767.15 552.794
935 0 57.0802 12.7189 726 66.1983 766.937 553.928
936 0 59.0117 13.7261 810 64.6679 767.456 553.937
937 0 59.17 14.0274 830 65.0289 767.198 552.034
938 0 62.2717 13.0396 812 65.9889 766.961 550.711
939 0 63.2161 12.9239 817 66.5398 767.157 550.712
940 0 65.4173 12.8559 841 66.6219 766.926 550.458
941 0 67.2425 13.6075 915 65.6645 766.86 547.949
942 0 70.2241 13.9838 982 65.6507 766.48 546.413
943 0 72.151 14.2063 1025 65.001 766.453 545.837
944 0 73.2298 13.4098 982 66.5611 766.477 545.667
945 0 74.3844 13.2555 986 67.64 765.595 543.967
946 0 77.454 13.0013 1007 68.1231 766.048 543.27
947 0 80.3041 13.7726 1106 67.2387 765.839 540.962
948 0 82.433 13.8537 1142 66.3476 765.687 540.152
949 0 88.5635 13.798 1222 66.108 765.99 537.963
950 0 89.7002 13.8907 1246 66.1701 765.757 534.254
951 1 45.2628 10.6047 480 67.6188 765.39 559.417
952 0 49.2696 11.0616 545 67.0844 764.8 558.317
953 0 50.2059 12.2894 617 65.7925 765.264 556.574
954 0 51.1507 12.3166 630 65.7333 764.956 556.127
955 0 54.204 12.6743 687 66.1441 764.652 555.812
956 0 56.1973 12.7408 716 65.6732 764.42 555.418
957 0 57.0457 13.235 755 65.1815 764.958 553.966
958 0 58.1856 13.2335 770 64.6247 765.512 554.239
959 0 61.1144 13.0738 799 64.8573 765.033 552.186
960 0 64.0632 13.5647 869 63.5754 764.835 552.161
961 0 65.084 12.9832 845 64.0331 764.827 551.128
962 0 67.2553 12.7871 860 63.4512 764.759 549.976
963 0 70.1638 14.1098 990 62.6586 765.172 548.237
964 0 71.2988 13.6187 971 63.7024 764.925 547.246
965 0 75.1557 13.3057 1000 63.705 764.748 546.306
966 0 77.493 14.8013 1147 61.7411 765.058 544.619
967 0 80.4907 13.7904 1110 62.8532 764.958 543.486
968 0 82.3005 14.1919 1168 62.5377 764.752 541.761
969 0 85.37 13.7402 1173 63.11 764.382 541.025
970 1 44.2907 10.5214 466 62.9464 765.318 561.652
971 0 46.3533 11.9948 556 61.777 765.149 561.54
972 0 48.3252 12.7677 617 61.235 764.746 558.66
973 0 49.1042 13.0132 639 61.2034 764.167 559.125
974 0 51.2392 13.0955 671 61.1773 764.638 557.379
975 0 51.154 12.8045 655 61.5313 763.856 558.006
976 0 52.1833 11.9579 624 62.7965 763.774 557.628
977 0 55.1552 12.9815 716 62.0182 764.182 554.612
978 0 56.3067 12.503 704 62.8736 763.516 553.803
979 0 59.2253 13.0856 775 61.5368 763.614 553.871
980 0 61.1899 12.3713 757 62.0198 763.232 554.526
981 0 63.173 12.8852 814 61.4717 763.256 551.495
982 0 65.1044 13.6243 887 60.2029 763.796 549.7
983 0 67.195 13.1409 883 61.2072 763.547 548.7
984 0 70.2632 12.4959 878 61.6139 763.412 548.902
985 0 72.3069 13.8438 1001 59.955 763.404 545.829
986 0 74.3422 13.3437 992 61.0464 763.509 545.613
987 0 78.55 13.8256 1086 59.7808 763.401 545.858
988 0 80.4338 11.9104 958 62.1326 763.053 544.594
989 0 82.378 13.3288 1098 60.4763 763.556 542.388
990 0 87.5022 13.6911 1198 59.1169 763.1 541.912
991 0 87.3991 13.3983 1171 60.1204 763.31 537.311
992 1 48.2757 9.54932 461 61.18 763.777 559.885
993 0 49.2383 10.4593 515 59.8175 763.697 561.227
994 0 50.2281 11.0894 557 60.9084 763.384 556.645
995 0 54.2305 12.6682 687 58.818 763.339 557.755
996 0 55.1313 11.917 657 60.3531 762.998 557.638
997 0 56.154 11.9493 671 60.6095 762.87 557.458
998 0 58.2611 12.3238 718 60.4136 763.481 556.029
999 0 59.0763 12.8478 759 60.7101 763.012 555.097
1000 0 61.2027 11.9766 733 61.6085 763.098 553.649
1001 0 62.1356 12.9394 804 61.4303 762.882 554.352
1002 0 64.1361 12.0213 771 63.5162 762.625 553.397
1003 0 66.1121 12.8116 847 61.5419 762.863 551.888
1004 0 67.195 12.8879 866 61.6824 762.376 552.077
1005 0 69.0756 13.1161 906 62.0221 763.277 550.175
1006 0 72.3724 13.4996 977 61.1576 763.19 549.95
1007 0 73.1293 12.7992 936 62.6154 763.708 549.287
1008 0 76.242 13.6277 1039 61.666 763.908 546.602
1009 0 77.1923 12.4883 964 63.6203 764.212 546.368
1010 0 81.2083 12.2894 998 63.7705 764 544.866
1011 0 83.2408 13.2747 1105 64.0796 763.568 542.221
1012 1 48.172 10.2757 495 64.8545 764.236 562.776
1013 0 49.2116 11.0137 542 64.2362 763.847 561.244
1014 0 50.2428 10.9269 549 64.4426 764.273 560.692
1015 0 51.0786 11.8641 606 63.9686 763.942 558.767
1016 0 54.0865 11.4446 619 62.9273 763.596 558.956
1017 0 54.0344 12.1404 656 60.9588 763.636 555.848
1018 0 54.083 11.4269 618 63.9337 764.283 559.149
1019 0 54.083 11.4084 617 166.953 765.293 559.141
1020 0 54.083 11.4639 620 166.269 766.289 559.039
1021 0 60.0306 13.4764 809 62.1446 764.159 555.743
1022 0 61.0603 12.6924 775 63.4271 764.377 555.35
1023 0 63.0342 13.0405 822 63.0243 764.226 554.831
1024 0 62.0716 12.3245 765 65.2837 764.468 553.68
1025 0 65.0346 13.07 850 64.4353 764.406 552.425
1026 0 69.0309 13.4143 926 63.0875 764.876 552.668
1027 0 70.0467 12.8914 903 64.2315 763.646 551.55
1028 0 73.1 13.2011 965 63.857 764.087 549.15
1029 0 76.1049 13.4551 1024 63.3828 764.209 548.207
1030 0 78.0679 12.9887 1014 64.0789 764.578 546.345
1031 0 81.1366 12.9658 1052 63.9202 764.588 546.587
1032 1 42.0327 10.6584 448 63.4353 765.473 566.935
1033 0 42.0425 10.1802 428 66.7103 765.012 562.624
1034 0 45.0294 10.5042 473 65.1247 765.543 561.852
1035 0 46.0476 10.5326 485 64.7526 765.808 562.33
1036 0 49.1697 11.5925 570 63.3211 766.144 561.391
1037 0 47.0553 11.3696 535 65.8056 766.411 561.043
1038 0 51.0304 12.6003 643 63.5879 767.435 559.509
1039 0 52.1109 13.3369 695 63.3741 766.965 557.212
1040 0 54.0955 12.7367 689 63.3454 767.657 556.656
1041 0 53.0238 13.1262 696 64.046 767.966 555.668
1042 0 55.0956 12.2877 677 64.8804 767.622 554.291
1043 0 59.1019 13.6205 805 62.4609 767.07 555.323
1044 0 59.1135 11.7232 693 65.8182 766.766 555.873
1045 0 62.0744 12.3723 768 64.5651 766.875 554.444
1046 0 64.1452 13.2668 851 62.3478 767.629 552.098
1047 0 68.0622 12.4886 850 63.3882 767.589 550.472
1048 0 71.1122 12.9654 922 62.3113 767.428 550.831
1049 0 72.1149 14.1718 1022 61.1536 767.825 548.91
1050 0 73.1439 13.5623 992 62.1885 768.114 549.005
1051 0 76.1408 12.8315 977 62.9314 767.835 547.278
1052 0 77.1527 13.5316 1044 62.955 768.195 545.31
1053 0 81.0556 13.7807 1117 62.0654 767.756 544.927
1054 0 83.0871 13.4558 1118 62.6735 768.424 543.308
1055 0 86.1367 13.1651 1134 63.0573 768.245 543.379
1056 0 87.1285 14.0941 1228 62.3616 767.917 541.912
1057 0 90.1399 13.6233 1228 63.1922 768.846 541.857
1058 0 92.0974 14.1372 1302 63.0845 768.581 537.975
1059 0 95.1589 13.4407 1279 64.4941 768.554 536.688
1060 0 98.1071 14.4638 1419 62.463 768.004 535.296
1061 0 99.0669 13.718 1359 64.1854 767.89 533.355
1062 0 103.178 14.4798 1494 62.4297 767.456 530.214
1063 0 106.121 14.1065 1497 63.0895 766.99 523.591
1064 0 108.141 13.3253 1441 64.213 767.291 519.142
1065 1 60.0688 11.3037 679 65.8292 767.108 545.754
1066 0 61.0764 10.9862 671 66.2116 767.118 549.045
1067 0 61.1568 11.3642 695 66.8906 767.776 550.475
1068 0 65.2108 12.7893 834 63.4185 767.592 551.253
1069 0 67.2353 13.4453 904 63.9867 767.896 549.912
1070 0 69.0995 12.88 890 64.7202 767.47 550.337
1071 0 70.0868 13.469 944 64.803 767.178 548.905
1072 0 73.0843 13.026 952 65.4181 767.321 548.018
1073 0 76.0972 13.1936 1004 64.7181 767.527 547.433
1074 0 78.0737 13.4232 1048 65.0697 767.419 544.052
1075 0 80.0802 13.3491 1069 65.5819 766.957 543.418
1076 0 83.1754 12.7682 1062 66.4492 766.823 541.943
1077 0 85.1973 13.5333 1153 65.255 766.252 542.042
1078 0 88.2569 13.3134 1175 66.0715 766.289 539.416
1079 0 93.1545 14.0412 1308 64.1621 765.801 538.43
1080 0 96.2722 13.68 1317 64.8011 765.863 536.983
1081 0 99.223 14.4825 1437 63.4433 765.477 535.107
1082 0 99.2216 13.3439 1324 65.9199 765.381 533.29
1083 1 57.0829 11.0191 629 66.752 765.337 555.61
1084 0 58.1526 11.6418 677 65.1743 765.393 554.399
1085 0 61.1522 11.6758 714 64.7311 766.02 554.039
1086 0 60.1281 12.3403 742 65.9825 765.981 552.919
1087 0 63.0492 13.3071 839 64.0179 767.098 553.055
1088 0 66.0793 13.7259 907 63.4234 766.699 552.974
1089 0 67.1168 13.8713 931 63.6273 766.793 551.875
1090 0 67.0327 12.3969 831 66.4994 766.759 550.669
1091 0 69.0465 12.9333 893 66.0873 766.58 549.183
1092 0 72.161 13.3313 962 65.0457 766.686 548.327
1093 0 75.0849 13.225 993 65.1923 766.129 547.38
1094 0 77.1778 12.6591 977 66.434 766.056 546.142
1095 0 81.1115 14.3753 1166 63.4537 766.119 545.262
1096 0 83.1276 13.377 1112 65.1457 765.665 543.558
1097 0 85.2503 13.7947 1176 64.6122 765.702 542.604
1098 0 87.1232 14.2672 1243 63.9775 766.376 540.228
1099 0 92.1219 12.9177 1190 65.4555 766.361 538.876
1100 0 94.1947 14.0348 1322 64.0393 765.739 537.725
1101 0 98.091 13.5283 1327 64.4002 765.735 536.214
1102 1 54.053 10.9707 593 64.602 765.872 558.776
1103 0 55.1421 11.2437 620 64.4371 765.202 558.04
1104 0 57.0386 11.764 671 63.6304 765.046 557.507
1105 0 57.0386 11.764 671 161.121 765.066 557.489
1106 0 61.0884 12.3755 756 62.3201 764.653 554.787
1107 0 62.1233 12.3303 766 63.1162 765.445 552.939
1108 0 63.0811 12.3809 781 62.6825 765.329 552.27
1109 0 69.0443 13.0641 902 61.1774 765.588 552.157
1110 0 69.012 12.6065 870 61.4529 765.205 550.67
1111 0 70.0622 12.703 890 61.8831 765.528 548.933
1112 0 75.0678 12.895 968 60.8502 766.053 549.464
1113 0 75.1699 13.0371 980 61.0765 764.987 548.026
1114 0 79.1683 12.8839 1020 60.8912 765.358 545.733
1115 0 82.2012 13.4426 1105 59.6995 765.018 545.16
1116 1 42.0507 11.5099 484 60.4814 765.657 564.312
1117 0 46.0622 11.4411 527 59.7875 765.518 563.08
1118 0 48.0468 11.0101 529 59.9263 765.291 562.909
1119 0 48.093 11.2698 542 59.6162 765.168 563.033
1120 0 50.0563 11.8267 592 59.4611 764.819 561.225
1121 0 50.0247 11.7942 590 61.6763 765.346 561.241
1122 0 52.037 12.9907 676 59.1109 764.787 560.034
1123 0 53.0283 12.9742 688 58.8314 765.308 559.26
1124 0 56.1057 13.6885 768 59.6107 765.176 557.716
1125 0 57.044 13.5159 771 59.7406 765.049 557.549
1126 0 57.0527 13.3561 762 60.5236 764.749 556.148
1127 0 59.0622 13.0879 773 59.414 764.776 558.501
1128 0 60.0356 12.1928 732 61.5519 765.219 556.351
1129 0 63.0561 13.1946 832 60.1502 765.496 555.674
1130 0 64.0451 13.1001 839 60.6663 765.175 554.728
1131 0 67.047 14.4078 966 58.2567 765.275 554.702
1132 0 68.0593 13.6646 930 61.6032 764.959 553.091
1133 0 72.0623 14.6817 1058 59.5681 764.926 551.321
1134 0 72.1139 13.0904 944 62.6917 764.64 549.962
1135 0 75.0493 13.9242 1045 60.5904 764.401 549.038
1136 0 80.0485 14.5287 1163 59.1427 765.138 547.369
1137 0 80.074 12.6383 1012 63.1146 764.564 546.711
1138 1 43.0362 10.2007 439 63.8838 764.85 565.39
1139 0 44.0179 10.6093 467 63.454 765.141 564.392
1140 0 45.0296 11.4147 514 61.7568 764.78 564.358
1141 0 48.0841 12.4157 597 60.4154 765.625 563.441
1142 0 49.1229 12.7843 628 62.6752 765.075 561.145
1143 0 49.0776 12.1237 595 64.8403 765.274 559.612
1144 0 52.1815 12.7631 666 64.1471 765.305 560.492
1145 0 52.2242 12.925 675 65.0978 765.24 560.521
1146 0 54.2181 12.8186 695 66.282 765.23 558.531
1147 0 56.0747 13.268 744 65.2621 765.159 558.375
1148 0 56.0662 12.842 720 67.3486 765.067 556.475
1149 0 59.2905 14.1338 838 65.2279 765.683 554.352
1150 0 61.1254 13.6277 833 65.7743 765.998 555.119
1151 0 62.1542 13.8687 862 66.2947 765.832 554.514
1152 0 64.1527 13.8576 889 65.9269 766.057 552.945
1153 0 69.2394 14.6448 1014 63.8343 766.309 551.183
1154 0 68.1802 13.4936 920 66.6489 766.182 549.637
1155 0 71.3264 13.2349 944 66.5032 766.546 548.274
1156 0 74.4215 14.1491 1053 65.9459 767.213 546.205
1157 0 76.3978 13.2595 1013 67.9082 767.763 545.699
1158 1 41.3267 11.4696 474 70.1899 768.042 561.593
1159 0 39.3861 12.314 485 67.6289 767.707 561.414
1160 0 42.1898 12.0408 508 69.2894 768.406 560.394
1161 0 43.2881 12.2435 530 69.2642 767.106 560.96
1162 0 44.2084 12.4184 549 68.878 768.301 560.075
1163 0 46.1664 12.2817 567 68.2487 768.998 559.811
1164 0 48.1691 12.5184 603 67.733 769.823 559.526
1165 0 51.2062 13.8264 708 65.2655 769.665 558.808
1166 0 52.2611 13.1073 685 66.362 769.109 558.664
1167 0 52.0747 13.4038 698 66.798 769.239 557.149
1168 0 53.2727 13.1587 701 67.5207 766.499 555.466
1169 0 56.2615 13.4906 759 66.6653 766.86 554.221
1170 0 57.1592 13.1387 751 67.3036 767.297 553.361
1171 0 59.3362 14.2577 846 65.4539 767.604 553.175
1172 0 60.3666 13.534 817 65.7821 768.738 550.529
1173 0 63.4424 13.6344 865 65.3896 768.636 549.242
1174 0 65.5331 13.3368 874 65.4611 769.364 548.744
1175 0 65.451 13.5368 886 64.1772 769.563 548.81
1176 0 67.4797 13.1595 888 64.6712 769.226 548.524
1177 0 70.3181 13.5954 956 64.1036 769.186 547.019
1178 0 71.2876 13.9295 993 64.5519 768.891 544.319
1179 0 73.5288 13.8177 1016 64.3396 768.656 544.047
1180 0 75.372 13.8911 1047 64.3209 768.44 542.155
1181 0 80.4869 15.369 1237 61.3589 768.549 538.397
1182 0 80.5864 14.1091 1137 64.1504 768.455 538.777
1183 0 84.3907 14.0418 1185 63.5772 768.822 538.686
1184 0 87.4701 13.5246 1183 64.2164 768.55 535.12
1185 1 45.1643 12.0228 543 64.0147 768.02 557.302
1186 0 43.1709 11.6282 502 170.432 768.108 556.386
1187 0 46.1708 11.6091 536 66.0784 767.401 555.875
1188 0 50.2318 12.1039 608 65.1645 767.572 552.531
1189 0 52.3053 11.777 616 64.3247 768.401 553.456
1190 0 54.2372 12.98 704 63.1293 768.305 549.673
1191 0 54.2416 12.3522 670 64.9493 769.009 546.967
1192 0 56.2144 13.9288 783 62.1456 768.124 550.985
1193 0 57.2332 13.1218 751 64.1891 768.582 551.369
1194 0 58.2152 13.5016 786 63.743 768.013 551.101
1195 0 59.1532 13.3721 791 64.2668 767.04 550.255
1196 0 61.231 13.2123 809 64.7281 767.159 548.56
1197 0 63.1198 13.3714 844 64.6493 767.265 548.552
1198 0 66.2942 13.3043 882 64.6088 767.067 546.796
1199 0 68.3032 13.9232 951 63.9359 767.122 546.142
1200 0 70.2469 13.2675 932 65.0515 767.265 545.218
1201 0 72.7001 13.2875 966 64.9079 766.45 543.773
1202 0 74.4186 14.2975 1064 63.4408 766.712 542.158
1203 0 78.5147 14.354 1127 63.4064 766.593 539.438
1204 0 80.3839 14.0327 1128 64.2402 766.432 538.704
1205 0 83.5643 13.8576 1158 64.5734 766.276 538.864
1206 1 43.5036 11.7921 513 66.8109 766.08 556.604
1207 0 45.463 11.2619 512 67.0391 766.449 556.979
1208 0 49.2925 11.9896 591 64.9086 766.09 557.132
1209 0 48.2168 12.4231 599 66.7396 766.027 556.025
1210 0 50.1828 12.1556 610 65.6656 766.116 556.467
1211 0 54.2943 13.2979 722 64.2161 765.515 554.071
1212 0 53.4095 13.125 701 65.3067 765.348 552.258
1213 0 55.3103 12.9813 718 64.9387 765.655 551.5
1214 0 56.2087 13.61 765 64.5216 765.522 551.834
1215 0 60.1993 13.6879 824 63.8046 765.602 550.649
1216 0 60.3061 13.7631 830 64.1361 765.513 549.327
1217 0 62.4115 13.3629 834 65.3489 764.924 548.409
1218 0 65.3971 14.2055 929 63.9774 764.969 546.451
1219 0 66.4162 14.108 937 64.9104 764.632 546.22
1220 0 70.5599 14.3566 1013 63.7878 764.278 545.484
1221 0 69.5921 13.536 942 65.535 764.537 545.273
1222 0 74.4847 13.8955 1035 64.5517 764.251 543.642
1223 0 75.5176 13.5068 1020 65.2049 764.778 542.089
1224 0 80.5401 14.3655 1157 63.5091 764.671 540.387
1225 0 82.547 14.2464 1176 63.2772 764.178 540.34
1226 0 85.4576 13.6325 1165 64.4283 764.078 537.755
1227 0 88.5022 13.9319 1233 63.9238 764.255 537.44
1228 0 89.4162 14.0019 1252 64.0735 763.76 536.678
1229 0 92.6536 13.8797 1286 63.5801 763.923 533.25
1230 0 95.3104 14.4475 1377 62.459 763.769 532.627
1231 0 99.3837 14.6402 1455 61.8893 763.605 531.672
1232 0 101.357 13.7731 1396 63.0723 763.805 530.405
1233 1 53.322 11.2149 598 64.398 763.095 553.96
1234 0 54.4254 11.5204 627 64.2616 763.442 553.182
1235 0 54.2612 12.0344 653 64.2894 763.617 550.585
1236 0 58.316 13.8898 810 61.1432 763.479 549.537
1237 0 60.3756 13.0185 786 61.7239 763.369 550.204
1238 0 62.4 13.6218 850 60.5118 762.921 552.011
1239 0 64.4035 14.1918 914 60.6116 763.373 549.689
1240 0 69.4042 14.3075 993 59.7946 762.931 549.367
1241 0 69.2868 13.9998 970 60.8392 763.359 547.922
1242 0 71.211 14.6466 1043 59.7057 762.479 546.789
1243 0 72.327 13.5634 981 61.3904 763.724 545.271
1244 0 75.5361 13.755 1039 61.6256 763.64 543.801
1245 0 79.529 14.0452 1117 60.9105 763.85 545.264
1246 0 82.4243 13.9158 1147 60.721 763.755 541.244
1247 0 83.5473 13.3936 1119 62.0179 764.046 541.723
1248 0 89.6123 14.2503 1277 61.668 763.783 538.395
1249 0 91.4799 13.9266 1274 62.938 764.032 538.199
1250 0 93.2398 14.5753 1359 62.0736 763.96 535.346
1251 1 49.3463 11.166 551 63.4773 763.347 558.005
1252 0 50.2155 10.9926 552 63.9076 763.004 558.02
1253 0 50.1206 10.8139 542 64.2601 764.203 558.511
1254 0 53.0888 12.7145 675 62.3541 764.683 557.317
1255 0 55.2264 13.5261 747 61.2744 764.542 554.783
1256 0 56.1548 12.9998 730 62.6014 764.449 554.01
1257 0 58.0954 13.6844 795 61.7132 765.035 552.703
1258 0 60.168 13.1133 789 62.2826 764.833 552.919
1259 0 62.1361 13.4382 835 62.0479 765.247 551.117
1260 0 63.0642 13.2088 833 62.5162 764.676 549.8
1261 0 65.1455 13.9073 906 62.4227 765.03 546.881
1262 0 67.2316 13.4163 902 62.8115 764.671 548.391
1263 0 70.084 14.1402 991 62.2947 765.121 546.145
1264 0 72.0841 12.8184 924 64.1623 765.182 545.58
1265 0 74.196 13.99 1038 63.0356 765.619 543.679
1266 0 79.2356 13.7312 1088 62.9035 765.689 541.884
1267 0 81.1516 13.3947 1087 63.8068 765.569 540.455
1268 0 85.0957 14.278 1215 61.6922 766.256 540.302
1269 0 88.1894 14.106 1244 62.1318 766.079 536.888
1270 0 92.1623 13.8451 1276 62.2586 766.032 534.48
1271 1 47.0453 10.1817 479 63.5741 766.716 556.887
1272 0 51.068 10.9462 559 62.6691 767.077 556.691
1273 0 53.0363 11.8032 626 61.8035 767.553 554.551
1274 0 54.0665 11.6893 632 63.038 767.508 558.014
1275 0 59.1208 12.3983 733 61.4748 766.169 556.939
1276 0 60.2068 12.1747 733 61.7763 767.412 554.681
1277 0 61.3557 12.4683 765 61.5974 768.026 552.495
1278 0 63.2332 12.3195 779 61.4031 768.095 551.013
1279 0 67.1616 12.8496 863 60.4218 768.717 551.209
1280 0 68.1763 12.8344 875 61.4423 768.998 549.613
1281 0 69.2643 13.0081 901 61.4107 769.019 548.34
1282 0 72.2699 12.7301 920 61.738 768.067 547.516
1283 0 75.3016 13.2135 995 61.2181 767.906 545.59
1284 0 76.5494 13.2072 1011 61.7043 768.824 543.112
1285 0 80.3201 13.1225 1054 61.6717 768.374 543.901
1286 1 45.2062 10.7065 484 63.0331 767.769 558.372
1287 0 49.2955 10.2646 506 62.6522 768.233 560.002
1288 0 47.3049 10.5909 501 63.1317 768.463 558.623
1289 0 51.3569 11.8971 611 61.0671 768.72 557.52
1290 0 51.1747 12.2131 625 61.8432 769.029 556.875
1291 0 52.0981 11.7087 610 59.982 769.711 558.046
1292 0 53.0805 12.1137 643 62.0824 770.266 555.888
1293 0 54.1386 12.0432 652 62.115 770.196 557.153
1294 0 57.0804 13.735 784 59.7066 770.426 554.835
1295 0 58.1442 12.469 725 61.2276 770.503 554.687
1296 0 61.0347 12.6485 772 60.8938 770.368 553.593
1297 0 60.0736 12.4347 747 61.8581 770.465 552.442
1298 0 63.065 12.828 809 60.6873 770.703 551.19
1299 0 63.0904 12.284 775 61.4 770.137 553.339
1300 0 66.0817 13.3471 882 59.5692 770.528 550.268
1301 0 68.0575 13.2682 903 60.0642 770.114 550.001
1302 0 69.0314 12.9072 891 60.9663 770.073 550.143
1303 0 68.0625 12.9146 879 61.7895 769.486 548.283
1304 0 72.059 12.7812 921 60.2519 769.189 549.009
1305 0 73.1505 13.5064 988 59.748 769.255 547.111
1306 0 76.2011 13.8712 1057 60.0861 769.068 544.579
1307 0 80.1811 13.482 1081 59.9695 768.886 545.287
1308 0 81.1143 13.0803 1061 61.0198 768.567 543.579
1309 1 39.25 9.78345 384 61.25 769.107 564.391
1310 0 40.1334 11.0631 444 60.4054 769.05 563.214
1311 0 43.2756 10.6064 459 60.1394 769.017 563.928
1312 0 44.3101 10.6522 472 61.2055 769.35 561.657
1313 0 44.3267 10.8964 483 60.4431 769.062 560.928
1314 0 46.4163 12.2802 570 59.4737 768.519 559.56
1315 0 47.2264 12.5142 591 59.176 767.47 558.57
1316 0 48.185 12.4935 602 60.0963 766.708 561.752
1317 0 51.4859 13.5765 699 58.0043 766.997 560.01
1318 0 51.0718 13.4321 686 59.6327 767.071 559.596
1319 0 53.1805 13.2567 705 60.1475 766.974 558.384
1320 0 52.0808 13.1142 683 60.549 766.315 558.231
1321 0 56.0548 14.5215 814 58.8477 766.23 556.652
1322 0 56.3388 12.3183 694 61.6571 766.174 555.941
1323 0 59.1529 14.1498 837 58.9606 766.411 556.036
1324 0 59.3167 13.6724 811 59.2602 766.248 555.65
1325 0 60.3767 13.5151 816 59.6458 766.102 554.73
1326 0 63.302 13.1592 833 59.886 765.764 553.405
1327 0 64.1894 13.8341 888 59.205 765.827 552.393
1328 0 64.1894 13.8652 890 161 765.808 552.397
1329 0 66.2519 13.5392 897 60.2765 765.612 550.9
1330 0 70.2573 13.7495 966 59.3727 765.665 549.89
1331 0 72.4626 13.7174 994 59.2425 765.642 550.1
1332 0 73.3235 13.2018 968 60.532 765.989 548.257
1333 0 72.3872 13.1929 955 61.6304 765.485 547.36
1334 0 77.3676 14.4246 1116 60.4382 765.829 547.254
1335 0 79.3811 14.4115 1144 61.3479 765.309 544.676
1336 0 80.2731 13.7655 1105 61.9457 765.674 544.393
1337 0 84.3763 14.1746 1196 61.4699 765.329 543.308
1338 0 85.3247 13.9819 1193 61.8089 765.338 543.123
1339 0 89.4625 13.76 1231 61.6848 765.523 541.173
1340 0 92.3812 14.4726 1337 60.2857 765.513 540.384
1341 0 93.4018 13.9291 1301 61.0538 765.406 539.673
1342 0 98.3959 14.2994 1407 60.1308 766.144 535.126
1343 0 101.279 14.3663 1455 59.7546 765.413 534.456
1344 0 103.356 13.797 1426 60.6837 765.816 534.019
1345 0 109.271 14.679 1604 59.3229 765.709 531.611
1346 0 111.236 14.8513 1652 59.8493 765.665 530.683
1347 1 57.223 11.2542 644 63.1988 765.902 556.97
1348 0 58.2062 11.6826 680 63.0588 764.965 556.429
1349 0 58.2062 11.7513 684 180.025 763.942 556.287
1350 0 64.2313 13.8873 892 60.9439 763.917 555.795
1351 0 63.2543 13.1374 831 63.6149 763.816 554.087
1352 0 66.1551 13.3777 885 63.1582 763.746 554.097
1353 0 68.1326 13.4297 915 64.1574 763.736 551.671
1354 0 71.1096 13.669 972 63.821 763.749 551.086
1355 0 71.1004 12.9676 922 66.0965 763.538 549.527
1356 0 75.1669 14.1152 1061 64.7587 763.793 548.547
1357 0 75.2844 13.0439 982 67.5265 763.182 548.731
1358 0 79.2358 14.0593 1114 66.3294 763.009 546.182
1359 0 81.1651 12.9982 1055 67.9175 763.167 545.313
1360 0 82.179 12.5336 1030 69.5534 763.224 543.269
1361 1 45.179 10.7572 486 68.6008 763.918 563.714
1362 0 45.0576 10.8528 489 70.362 763.658 563.517
1363 0 45.1774 10.6469 481 71.0166 764.125 563.917
1364 0 49.1261 12.1117 595 68.4706 764.168 563.262
1365 0 49.0377 11.7664 577 67.078 763.723 561.085
1366 0 51.0347 12.3054 628 68.9729 761.648 561.736
1367 0 52.0182 12.3995 645 68.6295 762.332 562.803
1368 0 53.031 12.2381 649 69.5809 761.75 562.143
1369 0 56.0525 13.2019 740 69.1851 761.834 559.589
1370 0 56.0388 13.2408 742 69.8194 762.217 560.863
1371 0 57.0698 12.546 716 70.0447 762.172 559.994
1372 0 59.1072 13.1794 779 70.0822 762.942 559.807
1373 0 61.1403 13.3136 814 69.2776 763.74 555.173
1374 0 61.086 12.4087 758 71.4538 763.034 555.761
1375 0 64.1076 13.4929 865 70.7908 762.562 556.087
1376 0 67.1234 13.8402 929 70.127 762.254 554.239
1377 0 68.0796 13.3814 911 71.9693 762.464 554.851
1378 0 70.0358 13.7073 960 72.0885 762.507 553.169
1379 0 73.0405 13.7458 1004 71.8386 762.142 551.738
1380 0 76.1104 14.0848 1072 71.3349 762.067 552.192
1381 0 79.2356 14.1098 1118 69.3551 762.553 550.813
1382 0 81.2425 13.6628 1110 67.5045 762.62 547.912
1383 1 43.204 11.249 486 66.428 762.459 566.984
1384 0 46.1417 11.313 522 70.4291 762.307 566.234
1385 0 43.1196 10.4361 450 70.9822 762.193 564.644
1386 0 47.0749 11.0037 518 70.9691 761.817 562.407
1387 0 50.2176 12.4857 627 68.6364 762.52 561.188
1388 0 49.0546 11.9459 586 70.1075 762.949 561.493
1389 0 53.0474 13.1015 695 67.5727 763.331 562.046
1390 0 54.0446 12.4897 675 69.5289 762.907 560.169
1391 0 54.0622 13.17 712 69.0674 762.588 559.088
1392 0 56.0866 13.0691 733 69.7585 763.4 560.816
1393 0 58.155 14.1174 821 68.0219 763.691 559.229
1394 0 59.0404 13.8888 820 68.5073 763.705 558.761
1395 0 61.0711 13.6235 832 70.1538 764.145 557.566
1396 0 62.0906 13.2709 824 71.0097 764.711 555.705
1397 0 64.1007 13.6348 874 70.2586 764.715 555.156
1398 0 67.094 13.9506 936 70.1603 764.908 554.575
1399 0 67.1071 14.2608 957 71.0345 765.317 553.159
1400 0 69.1773 14.0653 973 71.2405 765.376 550.356
1401 0 73.08 13.6836 1000 71.445 765.752 551.065
1402 0 75.0675 13.8675 1041 70.7819 765.627 549.731
1403 0 79.2328 14.2744 1131 69.6437 766.089 548.01
1404 0 82.2196 13.8896 1142 70.3135 766.546 546.644
1405 0 84.1133 14.1714 1192 69.8742 766.937 544.793
1406 1 44.1123 11.2894 498 71.2028 766.691 564.552
1407 0 46.1203 11.1665 515 71.8835 767.336 562.668
1408 0 46.039 11.8595 546 71.9908 766.824 562.54
1409 0 48.0571 12.4227 597 71.8593 766.868 562.266
1410 0 49.0541 12.6595 621 72.3478 767.097 560.68
1411 0 51.0903 13.3489 682 69.673 767.878 560.148
1412 0 53.0993 13.277 705 69.4553 768.468 559.468
1413 0 53.0782 12.5475 666 71.3423 768.146 558.56
1414 0 56.2221 13.0909 736 69.4837 768.477 556.829
1415 0 56.038 13.2232 741 69.3644 768.374 557.12
1416 0 58.0868 13.6176 791 68.2756 769.095 556.866
1417 0 61.2227 12.8547 787 69.3291 769.28 554.788
1418 0 63.1109 13.1832 832 69.1659 769.47 553.963
1419 0 63.088 13.5525 855 68.5474 769.249 553.316
1420 0 65.0991 13.1645 857 68.7211 768.945 551.691
1421 0 69.2246 14.1424 979 66.4821 769.069 551.844
1422 0 69.0518 13.1785 910 68.7187 769.058 550.237
1423 0 73.2398 13.7903 1010 67.0119 769.448 549.956
1424 0 74.1238 13.5179 1002 68.1806 769.436 547.63
1425 0 78.1681 13.8931 1086 66.5055 769.563 546.317
1426 0 79.1568 13.3153 1054 67.7324 769.231 545.06
1427 0 79.1568 13.2774 1051 175.837 768.228 545.038
1428 0 86.303 14.1246 1219 65.557 769.888 542.865
1429 0 87.2765 14.1161 1232 65.7021 769.822 540.36
1430 0 91.4208 13.6512 1248 65.3462 768.74 539.518
1431 1 50.1038 10.9772 550 66.5382 768.885 559.813
1432 0 50.036 11.9914 600 65.6467 768.798 558.828
1433 0 52.1135 11.3214 590 66.7678 769.042 558.178
1434 0 53.1952 12.9523 689 65.852 768.343 556.203
1435 0 56.0508 13.6662 766 65.9869 769.563 556.091
1436 0 56.1093 12.6539 710 67.0324 768.885 555.824
1437 0 60.1596 13.4476 809 66.3164 768.712 554.061
1438 0 61.2236 13.4099 821 66.7954 768.488 554.24
1439 0 62.2002 13.5691 844 66.2417 767.836 552.181
1440 0 66.3237 13.7658 913 64.2574 767.371 551.487
1441 0 67.36 13.6579 920 64.2043 767.199 550.021
1442 0 68.2322 13.6006 928 64.2823 767.223 549.378
1443 0 70.1811 13.3084 934 62.924 767.483 546.336
1444 0 73.068 12.7689 933 64.134 768.215 545.467
1445 0 76.1665 13.6543 1040 62.4798 767.682 544.284
1446 0 77.2971 13.2347 1023 63.0391 767.5 542.283
1447 1 43.2107 11.1084 480 63.1562 766.421 558.806
1448 0 41.2985 11.2837 466 63.5708 766.219 557.23
1449 0 44.224 11.9166 527 62.3966 765.947 557.171
1450 0 45.2188 11.9419 540 61.8407 765.32 556.15
1451 0 47.0556 12.5384 590 61.8119 765.225 554.515
1452 0 50.0708 12.5223 627 60.9123 765.826 557.102
1453 0 54.1167 12.8611 696 61.5977 765.297 559.195
1454 0 54.1634 13.1639 713 61.7055 765.351 558.52
1455 0 57.1361 13.7566 786 60.5394 765.384 557.864
1456 0 55.0731 12.6741 698 63.8725 765.12 556.577
1457 0 58.1668 13.4269 781 62.5672 765.836 554.661
1458 0 60.0632 13.7522 826 62.2034 765.329 554.988
1459 0 61.1623 13.8321 846 62.6584 765.626 553.408
1460 0 65.265 14.0504 917 61.5616 765.395 552.266
1461 0 66.3613 13.6676 907 62.4344 765.614 551.197
1462 0 68.177 13.7143 935 62.2118 765.261 550.691
1463 0 69.1225 13.5122 934 62.7441 764.94 547.721
1464 0 72.2438 14.8525 1073 59.8947 764.613 544.33
1465 0 73.1488 14.0262 1026 61.8187 764.822 544.855
1466 0 76.2657 13.2694 1012 62.3883 764.016 546.287
1467 0 78.3238 13.6485 1069 62.3096 763.848 544.079
1468 1 41.1323 11.2077 461 61.705 763.783 563.531
1469 0 41.1114 11.4567 471 61.4544 763.881 563.121
1470 0 43.1464 12.0752 521 60.9347 763.745 563.274
1471 0 43.1086 12.5961 543 61.4162 763.794 560.982
1472 0 46.5272 11.7351 546 62.0989 764.132 561.192
1473 0 48.2496 12.5182 604 61.7732 763.687 561.445
1474 0 48.1065 12.6802 610 62.718 763.651 562.256
1475 0 52.1336 12.4871 651 62.3748 763.728 561.425
1476 0 53.0502 13.1008 695 61.8446 763.481 559.886
1477 0 54.1875 13.767 746 61.0603 763.483 558.483
1478 0 56.0901 13.7101 769 60.7672 763.536 558.027
1479 0 57.18 13.3788 765 61.5935 762.932 557.556
1480 0 60.2099 14.3 861 59.935 763.167 556.823
1481 0 60.1958 13.7717 829 61.6273 763.072 555.914
1482 0 62.3381 13.2664 827 62.5852 763.135 555.628
1483 0 65.2725 13.8956 907 61.1345 763.585 553.772
1484 0 68.2382 13.702 935 61.3144 762.98 554.245
1485 0 68.4619 13.6572 935 62.4449 762.96 551.973
1486 0 71.3437 13.7784 983 62.2035 763.016 550.556
1487 0 72.3531 13.1992 955 63.2974 763.058 549.279
1488 0 78.3662 14.126 1107 61.122 762.932 548.332
1489 0 81.3481 13.5221 1100 61.9673 762.654 547.143
1490 0 82.4498 13.5598 1118 61.4428 762.911 546.565
1491 1 44.2572 11.0491 489 64.0061 762.971 563.258
1492 0 46.1911 10.8462 501 63.491 762.986 564.92
1493 0 50.2349 11.1078 558 62.7025 763.014 563.53
1494 0 51.1726 12.7021 650 61.1769 763.228 561.551
1495 0 53.0982 13.8234 734 59.9905 762.8 560.534
1496 0 54.1961 13.7464 745 60.6631 763.346 560.332
1497 0 55.0905 13.0876 721 61.7337 763.599 560.128
1498 0 57.1118 13.8325 790 60.9633 763.667 557.878
1499 0 57.1311 13.4428 768 63.5234 763.775 556.863
1500 0 62.076 13.1291 815 62.9914 763.849 556.191
1501 0 62.1032 13.3488 829 63.7612 764.146 555.151
1502 0 65.1092 14.1301 920 61.375 764.236 555.127
1503 0 66.0882 13.2248 874 63.4462 764.34 552.447
1504 0 68.2297 12.9562 884 64.3314 764.242 551.975
1505 0 70.1105 13.3789 938 63.7814 764.565 549.84
1506 0 73.2123 13.0852 958 63.9102 764.88 550.762
1507 0 75.2339 13.5577 1020 64.1127 764.29 548.908
1508 0 77.1357 13.8587 1069 64.0084 764.597 547.054
1509 0 82.2187 13.306 1094 64.3812 765.293 546.457
1510 1 42.1643 11.384 480 64.1458 766.204 564.873
1511 0 45.0816 12.1779 549 64.2313 766.543 564.576
1512 0 47.0865 11.447 539 65.1985 766.525 562.911
1513 0 48.317 12.1282 586 65.5904 767.068 561.768
1514 0 51.0363 12.932 660 63.3955 767.492 560.309
1515 0 50.2065 12.4486 625 66.0512 767.374 559.514
1516 0 53.051 13.3457 708 64.1427 768.206 558.398
1517 0 55.0332 12.9195 711 64.6582 768.025 558.845
1518 0 55.0159 13.1053 721 64.889 768.155 557.189
1519 0 58.0702 12.4677 724 65.163 768.49 556.508
1520 0 58.0236 12.8396 745 64.5758 768.439 555.71
1521 0 60.0546 13.1047 787 64.9543 768.724 553.653
1522 0 61.0421 12.8108 782 65.789 768.762 552.285
1523 0 65.1844 13.2087 861 64.2695 769.087 551.625
1524 0 65.0974 13.0727 851 65.282 769.25 550.784
1525 0 66.1209 13.8383 915 64.0503 769.33 549.722
1526 0 70.1353 14.3437 1006 63.0229 769.201 549.22
1527 0 73.2111 13.8913 1017 63.1829 769.457 547.063
1528 0 75.2597 13.367 1006 63.7416 769.62 546.179
1529 0 76.2505 12.9442 987 64.9757 769.717 545.022
1530 0 79.2053 13.3956 1061 63.9887 769.551 543.261
1531 0 84.2471 12.5227 1055 64.581 769.064 542.669
1532 1 43.0921 10.4892 452 64.5398 769.451 563.48
1533 0 42.0827 10.5269 443 65.9074 769.158 563.09
1534 0 46.0981 12.3432 569 64.2127 769.415 559.863
1535 0 47.0708 11.9182 561 65.8004 769.387 559.175
1536 0 49.2664 12.6658 624 62.9567 769.223 559.098
1537 0 50.1637 12.0805 606 64.3399 768.903 558.965
1538 0 52.3143 12.616 660 63.5364 768.839 558.305
1539 0 54.0967 13.3835 724 64.2735 768.744 557.021
1540 0 56.3791 12.6111 711 64.8383 768.914 557.319
1541 0 57.0736 13.3862 764 63.6165 768.368 554.98
1542 0 59.0809 13.2869 785 63.4637 768.462 554.544
1543 0 61.1439 13.2801 812 63.4692 768.174 553.463
1544 0 62.3306 13.0434 813 63.9668 767.911 552.776
1545 0 66.2483 13.4192 889 62.7762 767.817 551.688
1546 0 67.1169 14.0948 946 61.8668 767.785 550.606
1547 0 70.3224 14.078 990 61.7879 767.515 549.604
1548 0 72.1378 12.5177 903 64.4241 767.872 548.837
1549 0 75.3043 13.731 1034 63.1074 767.891 546.222
1550 0 77.2786 13.1602 1017 63.9931 767.752 545.71
1551 1 39.2731 11.2545 442 65.5294 768.05 563.672
1552 0 40.1576 11.4798 461 64.9826 767.618 562.985
1553 0 43.2027 11.6197 502 64.1952 767.703 561.837
1554 0 44.0541 11.8491 522 62.0383 767.216 561.253
1555 0 44.0457 13.3498 588 61.9779 767.216 560.653
1556 0 46.0968 12.1917 562 63.2989 767.148 560.431
1557 0 46.0852 12.2816 566 63.1166 766.746 559.913
1558 0 47.209 12.5823 594 63.5875 766.764 559.104
1559 0 50.2531 12.4171 624 63.8413 766.532 559.402
1560 0 51.2587 13.5587 695 62.5209 766.565 558.708
1561 0 52.2624 13.3174 696 62.7557 766.149 557.994
1562 0 54.4745 13.7863 751 62.4101 765.835 556.996
1563 0 55.3355 13.4995 747 63.9545 766.253 555.058
1564 0 55.3471 13.0269 721 65.0846 766.463 554.338
1565 0 57.4628 13.9568 802 64.2993 765.484 552.532
1566 0 61.4874 13.7915 848 64.0507 765.15 550.983
1567 0 62.6273 13.732 860 64.9581 765.35 549.53
1568 0 65.444 13.523 885 65.1695 765.367 549.618
1569 0 67.6131 13.8731 938 64.6802 765.629 548.583
1570 0 66.7817 13.4468 898 66.8664 765.241 548.022
1571 0 70.768 14.06 995 65.1678 765.099 546.406
1572 0 73.8995 13.8431 1023 65.4936 765.114 546.623
1573 0 75.5819 13.879 1049 65.8551 764.743 545.037
1574 1 40.3708 11.5678 467 67.9272 765.448 561.829
1575 0 41.3139 12.0541 498 68.5361 765.602 560.998
1576 0 43.2892 12.5205 542 68.0018 765.26 561.103
1577 0 43.3355 12.2994 533 69.1332 765.424 562.585
1578 0 48.4987 13.2581 643 66.5474 764.79 561.37
1579 0 47.2474 12.8049 605 68.9504 764.415 560.964
1580 0 49.2219 13.1039 645 68.9969 764.403 559.127
1581 0 51.5192 13.4513 693 68.3882 763.977 558.382
1582 0 54.481 12.7935 697 68.5725 763.836 557.133
1583 0 54.4882 13.6727 745 68.9691 764.118 554.097
1584 0 55.4818 13.6261 756 68.172 763.601 553.323
1585 0 57.3573 14.0697 807 66.6295 763.667 552.601
1586 0 58.4827 13.9016 813 67.1993 763.64 551.109
1587 0 60.358 14.2649 861 67 763.498 550.199
1588 0 62.409 13.1552 821 68.0585 763.306 549.819
1589 0 64.3248 13.1209 844 67.936 763.392 549.036
1590 0 65.3742 13.6904 895 67.3453 763.029 547.602
1591 0 68.442 13.9826 957 66.5026 762.946 546.204
1592 0 70.5989 14.0795 994 66.837 763.522 543.906
1593 0 72.5043 13.8337 1003 67.0269 763.591 543.024
1594 0 72.5043 13.8337 1003 169.589 763.584 543.008
1595 0 78.582 13.82 1086 65.3324 763.548 542.367
1596 0 80.4455 14.7056 1183 64.5199 763.867 539.107
1597 0 83.4936 14.1208 1179 65.3825 763.897 537.879
1598 0 85.4991 13.544 1158 66.2288 763.94 536.926
1599 0 88.3794 13.7702 1217 65.8496 764.491 535.302
1600 0 90.2531 13.8943 1254 65.6762 764.033 534.665
1601 0 93.5168 13.6232 1274 66.3501 764.259 530.452
1602 1 48.3726 11.2874 546 66.619 763.81 555.681
1603 0 51.3042 11.8509 608 65.8898 764.405 555.711
1604 0 50.5777 11.7245 593 67.3373 764.671 551.988
1605 0 52.3693 12.9656 679 65.137 765.001 550.758
1606 0 54.241 13.1266 712 64.6306 764.966 549.82
1607 0 56.4575 13.3197 752 63.5904 765.133 549.791
1608 0 59.3656 13.8464 822 62.3102 765.647 548.81
1609 0 60.4058 13.608 822 63.8613 765.809 547.933
1610 0 62.5267 13.7381 859 63.3772 765.688 546.184
1611 0 63.4428 13.0984 831 64.1504 765.846 545.963
1612 0 67.6562 14.2781 966 62.3385 765.646 544.346
1613 0 68.4826 13.5217 926 63.811 765.915 542.754
1614 0 70.2945 13.7422 966 63.3261 765.834 542.64
1615 0 73.5429 13.5975 1000 63.528 765.977 541.387
1616 0 77.4151 13.4341 1040 63.525 766.377 540.882
1617 0 78.4575 14.1223 1108 63.4603 766.81 538.083
1618 0 81.3919 13.048 1062 65.3286 767.689 536.137
1619 0 83.3603 13.4117 1118 64.7424 767.726 534.42
1620 0 87.2467 13.7541 1200 63.8483 768.153 533.356
1621 0 89.3696 13.6288 1218 64.2611 767.8 532.504
1622 1 49.1821 11.4066 561 65.7273 767.963 551.278
1623 0 51.2908 11.4446 587 65.2572 768.046 551.095
1624 0 52.2051 11.972 625 64.5744 768.533 549.677
1625 0 53.2263 12.6629 674 63.4466 768.634 549.721
1626 0 56.3435 12.5658 708 63.2853 768.14 547.951
1627 0 60.485 12.9123 781 62.1588 767.895 546.49
1628 0 61.3221 12.8991 791 62.8951 768.559 546.656
1629 0 61.4399 13.5905 835 62.8431 769.177 545.432
1630 0 66.5762 13.3231 887 63.6449 768.931 544.421
1631 0 68.5302 13.9501 956 62.3546 768.723 545.164
1632 0 71.4862 13.8209 988 62.3715 768.997 544.551
1633 0 73.4645 13.3534 981 63.6606 768.457 543.883
1634 0 76.3624 14.7193 1124 61.4724 769.093 543.274
1635 0 78.5112 14.4438 1134 62.6243 769.224 541.016
1636 0 82.6344 13.7352 1135 63.0749 769.318 539.891
1637 0 85.2182 13.9524 1189 63.0378 769.41 539.12
1638 0 86.3068 14.0082 1209 63.6998 769.82 537.645
1639 0 90.3004 13.7652 1243 63.8077 769.866 536
1640 0 95.5753 13.8006 1319 62.7521 769.958 535.581
1641 0 97.4779 14.1365 1378 61.9499 770.515 531.287
1642 1 50.1255 11.1919 561 63.533 770.512 556.879
1643 0 51.1438 11.3992 583 62.9708 770.775 557.111
1644 0 49.2803 12.0738 595 62.2017 770.672 554.38
1645 0 53.4291 12.4277 664 60.9247 770.19 553.56
1646 0 56.1484 12.7163 714 61.1457 769.773 555.478
1647 0 56.1101 12.5289 703 62.2745 770.058 554.186
1648 0 57.1333 12.8296 733 61.9168 770.303 553.626
1649 0 59.0869 12.2362 723 62.4965 770.224 552.391
1650 0 60.1067 13.6091 818 60.6491 770.325 551.881
1651 0 64.1293 13.2233 848 60.6604 769.62 552.331
1652 0 63.0948 12.8854 813 62.0381 769.878 550.167
1653 0 66.0639 13.1388 868 61.3802 769.63 549.46
1654 0 69.0582 12.9746 896 60.7076 769.316 547.271
1655 0 69.2703 13.0214 902 61.4889 769.061 546.277
1656 0 72.19 12.6195 911 61.4457 768.937 546.072
1657 0 75.2651 12.5158 942 61.0711 769.071 544.291
1658 0 77.2033 13.6652 1055 59.473 768.634 542.915
1659 0 81.2076 13.3608 1085 59.5954 768.008 542.104
1660 0 82.3687 12.9054 1063 60.4346 767.774 540.373
1661 0 85.2805 11.855 1011 61.7181 768.067 538.094
1662 0 88.5367 13.0341 1154 60.3908 766.875 536.116
1663 1 49.1082 9.5707 470 61.0213 766.43 556.496
1664 0 51.2143 10.622 544 60.1342 766.358 554.228
1665 0 52.3093 10.3806 543 60.4162 766.44 555.066
1666 0 54.289 10.3336 561 61.1283 766.178 552.995
1667 0 54.2495 10.3411 561 60.5722 766.431 549.854
1668 0 56.1736 12.1231 681 58.9589 766.937 551.408
1669 0 58.2959 12.7796 745 58.4161 767.506 551.958
1670 0 62.2485 12.434 774 58.0517 767.585 551.84
1671 0 64.331 13.0575 840 57.3702 767.119 550.969
1672 0 65.5461 12.7696 837 58.1828 767.006 549.866
1673 0 68.562 13.754 943 56.5801 766.437 548.592
1674 0 70.6693 12.608 891 57.8114 766.967 546.081
1675 0 73.4381 13.2629 974 57.2834 766.329 544.469
1676 0 75.4646 12.8272 968 58.1002 766.247 545.241
1677 0 77.5777 12.4262 964 59.4077 766.426 542.951
1678 0 80.4866 11.6044 934 60.7238 766.483 543.633
1679 1 42.3406 10.4628 443 58.5282 765.438 562.047
1680 0 43.0641 10.9836 473 58.5349 765.467 558.784
1681 0 45.1065 10.7523 485 58.4598 765.742 561.206
1682 0 46.0531 12.073 556 56.7914 766.739 560.077
1683 0 47.2455 11.0063 520 56.6904 766.054 560.15
1684 0 48.0372 10.9707 527 55.9696 766.55 559.398
1685 0 52.1712 12.3823 646 54.1146 765.853 558.738
1686 0 54.0666 11.9482 646 54.4969 765.63 558.35
1687 0 53.1424 11.8738 631 55.4263 765.632 558.282
1688 0 55.0741 11.7296 646 55.8204 765.915 557.81
1689 0 56.1614 11.5382 648 56.466 765.784 556.352
1690 0 59.0768 11.4258 675 56.3911 765.201 556.658
1691 0 63.1222 12.1352 766 55.1475 765.168 556.21
1692 0 62.0744 11.7279 728 56.3393 765.095 554.652
1693 0 63.1189 12.722 803 56.0685 765.399 554.078
1694 0 66.1408 12.6548 837 55.5245 765.21 552.341
1695 1 35.0766 10.0637 353 56.8754 765.048 567.388
1696 0 39.0136 9.8171 383 55.517 765.162 565.872
1697 0 38.1085 9.97152 380 55.7921 764.882 566.461
1698 0 39.0501 10.8066 422 55.154 765.002 564.491
1699 0 41.3208 10.116 418 57.2536 764.801 564.426
1700 0 43.5783 12.4374 542 54.6531 764.338 563.694
1701 0 45.3774 11.2611 511 55.9491 763.669 562.982
1702 0 46.0813 11.8486 546 53.5806 764.033 563.174
1703 0 46.1938 10.9106 504 55.6567 763.724 563.236
1704 0 48.1646 12.0005 578 54.4965 763.112 562.398
1705 0 50.1024 11.9954 601 54.8769 762.035 561.85
1706 0 51.119 12.109 619 55.1373 763.118 561.291
1707 0 52.1146 12.6452 659 55.0228 763.059 559.499
1708 0 55.1724 11.4188 630 55.7286 762.952 558.803
1709 0 55.1408 11.8605 654 55.4037 763.02 558.699
1710 0 55.0976 11.9424 658 56.4149 763.406 557.176
1711 0 57.0563 12.0758 689 55.8752 763.813 556.26
1712 0 62.199 12.9745 807 54.1599 763.311 557.504
1713 0 61.1922 13.0899 801 54.6467 763.644 555.165
1714 0 64.1755 12.6061 809 55.4808 763.998 553.309
1715 0 65.3049 12.7709 834 55.1918 764.157 554.106
1716 0 67.2698 12.71 855 55.7158 764.408 551.628
1717 0 70.1647 14.1382 992 53.8175 764.35 550.207
1718 0 73.3542 13.578 996 53.8715 764.432 550.077
1719 0 75.4081 12.8368 968 55.0155 764.118 547.889
1720 0 76.6383 12.7612 978 55.5501 764.625 546.541
1721 0 78.539 12.4015 974 56.2023 764.82 545.996
1722 0 81.4416 13.6662 1113 54.6703 764.398 543.62
1723 1 47.2133 11.4798 542 56.2214 764.402 562.177
1724 0 49.2954 12.5367 618 54.746 764.367 561.162
1725 0 49.2954 12.5772 620 172.819 764.392 561.161
1726 0 51.258 12.2127 626 56.2524 764.625 559.209
1727 0 54.1817 12.6427 685 55.2102 764.28 558.007
1728 0 54.4235 12.8805 701 55.806 764.665 555.354
1729 0 55.2176 13.1118 724 55.0318 765.283 555.42
1730 0 55.2658 13.9146 769 54.4512 765.506 554.88
1731 0 58.2773 13.8133 805 54.4311 765.688 552.604
1732 0 60.3228 14.124 852 53.4695 766.094 554.5
1733 0 60.2412 13.8942 837 54.3716 766.326 551.742
1734 0 64.1889 13.6316 875 54.616 766.619 547.675
1735 0 65.2027 13.9411 909 55.3564 766.751 539.254
1736 0 66.1822 13.6744 905 56.7215 767.202 540.088
1737 0 69.2066 14.0304 971 56.8126 767.354 541.395
1738 0 69.2176 13.5948 941 57.983 767.642 542.455
1739 0 71.1641 13.9537 993 57.1853 768.646 548.982
1740 0 73.0527 14.0173 1024 56.8926 768.685 547.807
1741 0 77.0963 15.0332 1159 55.3848 768.701 546.311
1742 0 79.0307 14.7917 1169 56.284 769.609 544.877
1743 0 81.0559 14.0767 1141 57.5285 769.628 543.036
1744 0 83.0838 14.371 1194 56.7998 770.139 543.331
1745 0 86.2069 13.0848 1128 58.8431 770.348 540.906
1746 1 45.0208 11.7279 528 59.3352 770.811 560.445
1747 0 47.022 12.3134 579 58.1399 770.691 560.117
1748 0 50.0221 12.7144 636 57.6903 771.225 559.673
1749 0 52.0422 12.7781 665 57.794 770.729 558.247
1750 0 52.2211 13.2513 692 57.4191 771.159 556.116
1751 0 53.1278 13.4957 717 58.0837 771.031 555.543
1752 0 54.0843 13.2756 718 59.5557 770.664 555.018
1753 0 57.0623 13.4414 767 58.8188 770.778 554.518
1754 0 60.2244 13.2837 800 58.695 770.541 553.444
1755 0 58.1658 13.7538 800 59.58 771.039 551.923
1756 0 63.1365 13.5421 855 58.8889 770.703 551.269
1757 0 62.2211 13.886 864 60.0058 770.472 548.701
1758 0 65.1072 13.3472 869 60.0322 770.259 549.69
1759 0 69.1553 14.4602 1000 58.628 770.176 547.213
1760 0 69.0803 13.3613 923 61.0293 769.957 547.145
1761 0 71.218 13.901 990 60.0717 770.17 545.308
1762 0 75.0984 13.7819 1035 59.9961 770.448 544.437
1763 0 78.0504 14.2216 1110 59.5162 770.454 540.65
1764 0 81.1692 13.823 1122 60.3485 770.606 540.329
1765 0 82.1389 13.9398 1145 60.8847 770.923 538.849
1766 0 85.2302 13.9857 1192 60.8205 770.832 537.297
1767 0 87.2158 13.5755 1184 61.5169 770.537 536.095
1768 0 92.1511 13.9553 1286 60.7566 770.754 533.764
1769 0 96.243 14.2764 1374 59.7365 770.964 531.55
1770 1 50.2021 10.6171 533 60.8687 770.527 556.315
1771 0 53.1596 10.76 572 60.5629 770.481 554.813
1772 0 52.1222 11.5882 604 61.6308 769.695 552.826
1773 0 54.1296 11.6018 628 60.8057 770.006 554.131
1774 0 56.2884 12.6136 710 60.5085 770.187 551.821
1775 0 59.0645 12.3424 729 60.0562 769.388 553.455
1776 0 61.0691 12.3303 753 58.9296 768.574 552.799
1777 0 61.0623 12.3644 755 59.5364 768.539 553.143
1778 0 62.0548 12.3439 766 60.1841 768.791 551.836
1779 0 67.1312 12.7065 853 59.1782 768.485 550.457
1780 0 67.0941 13.2649 890 58.827 767.907 549.18
1781 0 69.2067 12.8745 891 58.7789 767.948 547.976
1782 0 74.0657 13.002 963 57.8879 767.952 546.891
1783 0 76.1445 11.6095 884 59.1403 767.351 547.172
1784 0 75.1768 12.5438 943 58.7264 766.793 545.127
1785 0 79.1103 12.4636 986 58.0943 766.79 544.567
1786 0 82.2689 11.9243 981 58.4088 767.07 542.861
1787 0 86.1811 12.787 1102 57.226 767.188 540.459
1788 0 89.245 12.4713 1113 57.4016 767.067 539.412
1789 0 91.2504 12.1753 1111 57.6625 766.689 538.211
1790 0 94.2881 12.0058 1132 58.1307 766.335 534.977
1791 0 97.2825 12.438 1210 57.0876 766.49 535.782
1792 1 53.0264 10.1459 538 56.2788 766.322 557.442
1793 0 56.1603 10.933 614 56.0684 765.943 556.782
1794 0 56.0509 11.1684 626 55.845 766.184 556.312
1795 0 60.1424 11.639 700 54.7214 766.121 554.654
1796 0 60.242 12.3668 745 54.353 766.14 552.493
1797 0 63.1287 12.7042 802 53.8815 765.762 553.216
1798 0 64.3258 11.877 764 54.8338 765.568 550.7
1799 0 67.2578 12.8461 864 53.7801 766.339 550.564
1800 0 68.2585 12.6871 866 54.1166 766.133 551.279
1801 0 71.3327 12.9814 926 53.7289 766.097 549.198
1802 0 74.195 13.195 979 53.3718 766.12 549.106
1803 0 75.2127 12.3118 926 54.8477 766.187 547.063
1804 0 76.5029 12.1695 931 55.7691 766.099 545.907
1805 0 78.5307 12.2627 963 56.0301 766.061 545.482
1806 0 83.3847 12.8201 1069 55.4892 765.82 542.699
1807 0 84.3569 13.4429 1134 55.5899 766.201 541.702
1808 0 88.6531 13.4118 1189 55.471 766.034 539.186
1809 0 94.7389 12.9514 1227 55.6251 765.692 540.268
1810 0 93.6974 13.4369 1259 56.4218 765.651 537.092
1811 1 50.4302 11.1243 561 56.4046 765.03 561.146
1812 0 51.4055 10.0962 519 57.3237 765.039 561.044
1813 0 55.6664 11.7486 654 55.1667 765.479 559.882
1814 0 57.4136 11.9658 687 55.4731 765.357 557.822
1815 0 56.3533 11.3747 641 57.4477 765.246 557.53
1816 0 58.2949 11.9736 698 57.1748 765.195 556.014
1817 0 63.3628 13.2096 837 55.2843 765.204 555.881
1818 0 63.4968 12.8353 815 56.6012 765.388 552.664
1819 0 66.5458 13.1789 877 55.6705 765.468 551.705
1820 0 66.4338 12.7345 846 57.4173 765.857 550.171
1821 0 69.5764 12.7342 886 57.3115 766.006 547.234
1822 0 72.7745 13.8235 1006 55.826 765.793 547.79
1823 0 75.7849 13.1689 998 56.4649 766.68 544.756
1824 0 76.6588 13.9971 1073 56.2432 766.458 543.721
1825 0 79.4523 14.3608 1141 55.2971 766.788 543.893
1826 0 81.8727 13.1179 1074 56.9451 766.63 541.322
1827 0 85.6264 13.4421 1151 56.51 767.356 541.647
1828 0 84.6617 12.863 1089 58.236 767.457 538.313
1829 0 87.7814 13.3286 1170 57.1521 767.408 537.672
1830 0 92.4859 14.0238 1297 55.9854 767.399 537.87
1831 0 96.4377 14.0401 1354 55.9749 767.645 535.065
1832 1 54.2367 10.5648 573 57.4084 768.403 556.969
1833 0 55.4403 10.8405 601 57.589 768.058 553.953
1834 0 58.4194 11.6571 681 57.2863 768.517 552.573
1835 0 59.5469 11.8898 708 57.6201 768.24 552.329
1836 0 61.7143 12.7037 784 54.8903 768.372 553.301
1837 0 61.2319 12.6078 772 56.7759 768.631 552.843
1838 0 63.7018 13.5946 866 55.8661 769.126 548.737
1839 0 65.5785 12.8396 842 56.0487 769.925 549.524
1840 0 68.5043 13.5758 930 55.1323 770.062 546.319
1841 0 68.4853 12.9517 887 56.0575 770.096 545.811
1842 0 71.4031 13.6689 976 55.6311 770.324 542.913
1843 0 74.4621 12.879 959 56.3076 770.236 544.224
1844 0 77.6098 14.4698 1123 54.1852 770.533 541.598
1845 0 79.5549 13.0225 1036 55.7819 770.639 542.114
1846 0 82.3518 13.4302 1106 55.6908 771.168 539.691
1847 0 83.6007 13.1697 1101 56.4133 771.115 538.676
1848 0 85.459 13.4919 1153 56.3938 771.18 537.613
1849 0 90.4478 13.4774 1219 56.0476 771.514 537.205
1850 0 94.5173 14.008 1324 55.7908 771.76 534.725
1851 1 46.1696 9.55174 441 57.7029 772.556 558.975
1852 0 48.2635 11.1264 537 57.473 772.497 555.821
1853 0 51.1822 10.9218 559 56.3631 772.068 554.878
1854 0 51.2197 11.89 609 54.9704 771.24 554.989
1855 0 53.0652 11.0053 584 56.1678 771.647 555.286
1856 0 55.0982 12.4505 686 54.8528 770.615 554.797
1857 0 57.0663 12.4417 710 55.4085 771.856 552.737
1858 0 59.0266 12.9264 763 55.1153 771.446 552.532
1859 0 60.0513 12.3394 741 56.0675 771 552.066
1860 0 61.2218 12.4466 762 56.5879 770.311 550.995
1861 0 63.2724 12.6912 803 55.3288 770.284 551.472
1862 0 65.1869 13.4996 880 55.142 769.864 549.916
1863 0 67.383 13.4307 905 55.1912 771.086 546.344
1864 0 70.2155 13.0028 913 56.1873 769.585 548.29
1865 0 70.1959 12.3796 869 57.7204 769.568 547.208
1866 0 73.2128 12.9212 946 57.3161 769.265 546.437
1867 0 75.2547 12.6902 955 57.8974 769.474 545.001
1868 0 78.2246 13.4612 1053 57.3352 769.808 542.189
1869 0 80.3578 13.1661 1058 57.2543 769.78 541.087
1870 0 83.3543 13.2807 1107 57.5601 769.21 542.561
1871 1 46.2649 11.6935 541 56.5582 768.686 559.54
1872 0 47.1748 10.7685 508 58.1437 769.244 558.516
1873 0 50.4454 12.4888 630 56.5603 768.341 557.089
1874 0 53.4279 12.7836 683 56.4231 767.931 555.706
1875 0 52.3154 12.5776 658 57.5304 767.544 557.155
1876 0 57.5139 15.0746 867 53.7013 768.072 552.308
1877 0 55.3178 13.0157 720 58.1056 767.875 553.865
1878 0 58.419 13.0266 761 57.9277 767.557 554.05
1879 0 59.4098 13.0282 774 58.2855 768.171 552.682
1880 0 61.3124 13.9613 856 57.3949 767.604 551.312
1881 0 67.3759 14.4414 973 55.5108 767.341 550.162
1882 0 66.4457 14.2221 945 56.9979 767.286 549.578
1883 0 67.2843 14.6988 989 57.0101 767.52 550.904
1884 0 68.2127 12.7689 871 59.8565 766.896 550.155
1885 0 72.2567 13.5074 976 59.0195 767.448 548.609
1886 0 73.1714 14.0355 1027 58.926 767.628 545.568
1887 0 75.1982 13.9631 1050 59.461 767.284 545.275
1888 0 78.362 13.8588 1086 59.0571 767.549 545.244
1889 0 79.3196 13.9436 1106 59.3879 767.016 544.481
1890 0 82.197 14.3558 1180 58.5229 766.147 543.525
1891 0 85.1043 14.4998 1234 58.7796 766.075 541.433
1892 0 88.2873 14.3282 1265 58.8941 767.02 540.955
1893 0 89.1588 13.3245 1188 60.851 766.884 540.167
1894 1 49.0898 11.3466 557 60.7199 767.443 561.526
1895 0 51.147 11.2812 577 61.2964 767.125 560.149
1896 0 51.055 11.5953 592 62.2483 766.816 559.274
1897 0 54.0343 12.4921 675 60.7896 765.265 557.296
1898 0 56.0325 12.9568 726 60.6556 765.517 555.923
1899 0 59.1169 13.9892 827 58.8706 765.787 556.281
1900 0 59.2432 12.3727 733 61.9836 765.7 556.008
1901 0 61.1284 13.5943 831 60.2936 765.402 554.981
1902 0 63.0541 12.9571 817 60.6879 765.415 553.61
1903 0 67.1588 13.5946 913 59.126 764.873 553.252
1904 0 68.3306 13.0981 895 60.1464 765.293 552.34
1905 0 69.1726 13.4591 931 60.0333 765.119 550.456
1906 0 74.17 13.7792 1022 59.2759 765.191 549.602
1907 0 76.1574 14.1549 1078 58.692 765.016 548.493
1908 0 77.3542 14.0135 1084 59.2814 764.694 548.427
1909 0 82.3498 14.0863 1160 58.6948 764.447 546.856
1910 1 44.1857 11.5648 511 60.818 764.552 564.207
1911 0 47.3236 11.601 549 60.4499 763.944 564.346
1912 0 46.2635 12.2775 568 59.3327 763.933 563.294
1913 0 47.2868 12.2233 578 59.8062 764.026 562.587
1914 0 50.2166 13.5413 680 58.9647 763.862 560.934
1915 0 50.0988 13.2338 663 59.7104 763.676 560.176
1916 0 54.2015 13.4683 730 58.7452 763.623 559.7
1917 0 54.0566 13.5599 733 59.5075 763.222 558.495
1918 0 54.2521 13.253 719 61.1572 763.427 559.232
1919 0 58.2506 13.0127 758 61.8575 763.532 557.805
1920 0 59.0947 14.0791 832 60.6971 765.016 556.303
1921 0 59.1195 13.8702 820 62.0817 764.434 556.823
1922 0 62.2387 14.2355 886 61.4503 763.886 556.772
1923 0 62.2396 13.7372 855 62.7111 764.246 555.991
1924 0 62.2126 14.3058 890 62.7787 763.591 554.9
1925 0 66.2043 14.4099 954 62.3847 763.103 553.741
1926 0 68.3216 14.1683 968 62.9101 762.897 553.243
1927 0 70.3182 14.1784 997 62.6851 762.499 552.929
1928 0 71.1468 13.9852 995 63.6382 762.459 550.428
1929 0 72.312 14.0226 1014 63.8304 762.741 549.293
1930 0 75.4434 14.6467 1105 63.4009 762.691 547.854
1931 0 77.1115 15.1339 1167 62.6701 763.269 547.06
1932 0 80.181 14.5546 1167 63.503 763.105 546.592
1933 0 82.2762 14.111 1161 64.1283 763.41 544.293
1934 0 87.2153 14.7566 1287 63.265 763.157 543.507
1935 0 89.4439 14.6237 1308 63.4373 762.996 541.818
1936 0 91.2525 14.5311 1326 64.0053 762.617 539.597
1937 0 95.2165 14.5668 1387 63.7743 762.76 538.868
1938 1 51.0952 11.2144 573 65.5637 762.834 561.75
1939 0 54.0571 12.2463 662 63.6798 762.61 561.737
1940 0 54.1455 12.4295 673 64.0074 763.716 560.056
1941 0 56.1768 14.2585 801 62.3483 763.85 559.634
1942 0 56.1601 13.2122 742 63.7871 763.646 559.441
1943 0 59.2156 13.6113 806 62.799 764.056 557.506
1944 0 59.112 14.0919 833 61.4106 764.205 555.846
1945 0 61.2163 13.6565 836 60.7512 764.484 555.969
1946 0 61.2031 13.7248 840 61.325 764.583 553.501
1947 0 64.1116 13.2893 852 61.7183 764.421 553.492
1948 0 68.194 14.884 1015 58.6374 764.18 553.021
1949 0 68.0886 13.7909 939 60.1683 764.125 552.565
1950 0 72.2211 14.2341 1028 59.2792 765.011 549.851
1951 0 73.1619 14.4201 1055 59.4957 765.055 547.668
1952 0 76.1828 14.2289 1084 58.8699 765.302 548.065
1953 0 79.2076 13.9381 1104 59.0888 764.737 546.842
1954 0 82.2695 14.7807 1216 58.0033 765.378 542.939
1955 0 85.2642 14.9652 1276 57.4185 765.747 542.563
1956 0 88.2304 14.5075 1280 57.525 766.109 540.815
1957 0 90.2754 14.1788 1280 57.5047 766.203 539.591
1958 0 93.299 14.3088 1335 57.7453 766.104 538.082
1959 0 98.2702 14.1243 1388 56.5742 766.229 536.72
1960 0 99.3625 14.0697 1398 56.9299 766.308 533.981
1961 1 51.0744 12.2175 624 57.1667 766.758 557.271
1962 0 54.1483 12.8905 698 55.9312 766.576 557.928
1963 0 55.1242 12.7893 705 55.6936 766.76 557.55
1964 0 56.1119 13.9543 783 55.0294 767.169 554.985
1965 0 56.2118 13.0044 731 56.2695 767.856 554.483
1966 0 61.0547 12.6444 772 55.4858 767.736 555.31
1967 0 62.126 14.0199 871 54.4615 768.473 553.191
1968 0 64.1504 13.3748 858 54.7879 768.611 552.69
1969 0 66.0666 14.0313 927 54.4455 769.242 549.528
1970 0 68.2779 14.1041 963 54.3967 769.121 549.339
1971 0 70.0541 13.2183 926 55.77 769.215 547.549
1972 0 75.2016 14.1087 1061 53.9651 769.475 546.265
1973 0 75.1179 13.7917 1036 54.7915 769.45 545.615
1974 0 79.0459 13.7895 1090 54.7468 769.992 544.526
1975 0 81.1158 14.3129 1161 54.3781 769.913 543.983
1976 0 83.1695 14.2721 1187 54.6832 769.894 539.298
1977 0 85.1846 13.4766 1148 55.8423 770.401 539.493
1978 0 89.1019 13.8493 1234 54.6451 770.036 538.882
1979 0 92.136 14.891 1372 53.605 770.218 536.401
1980 0 94.2366 14.5273 1369 54.4324 770.622 534.603
1981 0 97.153 14.1941 1379 54.7679 770.914 534.16
1982 0 99.1079 13.8536 1373 55.4151 771.059 531.841
1983 0 103.221 13.9798 1443 55.106 771.041 529.976
1984 0 106.215 13.6798 1453 55.839 770.602 528.513
1985 0 111.175 14.1668 1575 55.1175 770.672 528.366
1986 0 114.208 14.5436 1661 54.2559 770.754 526.32
1987 0 116.235 14.333 1666 55.3529 770.286 522.598
1988 0 121.191 14.7288 1785 54.6611 770.254 522.861
1989 0 125.564 13.8575 1740 55.9494 770.878 518.594
1990 0 128.261 14.3068 1835 55.4861 770.637 519.04
1991 0 132.157 14.7854 1954 55.1837 770.567 515.399
1992 0 137.179 14.769 2026 55.3371 770.322 513.893
1993 0 142.125 14.8531 2111 55.4325 770.462 511.747
1994 0 144.288 14.3324 2068 56.279 770.032 508.722
1995 0 151.363 14.6733 2221 55.4516 770.281 508.373
1996 0 158.257 14.7861 2340 55.3239 770.738 505.7
1997 0 163.287 15.0104 2451 55.2497 770.271 503.015
1998 0 167.347 14.6283 2448 55.6258 770.069 501.208
1999 0 172.255 14.1882 2444 56.3989 770.103 498.369
2000 0 180.309 15.4125 2779 54.7413 770.549 494.117
2001 0 184.426 14.3852 2653 56.2337 770.159 491.755
2002 0 191.498 15.1699 2905 55.1274 770.135 491.46
2003 0 196.346 14.6731 2881 55.6779 769.902 486.588
2004 0 201.486 15.7281 3169 54.8741 769.556 481.513
2005 0 212.647 16.4874 3506 54.2293 769.329 477.029
2006 0 215.611 15.2868 3296 56.1833 768.531 477.979
2007 1 164.529 12.3322 2029 59.1262 768.45 505.652
2008 0 172.392 13.6317 2350 57.86 768.746 498.527
2009 0 180.29 14.6098 2634 56.5892 768.351 496.377
2010 0 185.356 14.7985 2743 56.3711 768.217 493.328
2011 0 192.616 14.2564 2746 57.0794 768.555 490.153
2012 0 199.361 15.2437 3039 55.6999 767.981 486.072
2013 0 205.574 15.2646 3138 56.1236 767.664 482.015
2014 0 212.578 14.5217 3087 56.7493 767.598 480.796
2015 0 220.503 15.2107 3354 56.042 767.504 475.883
2016 0 228.496 15.265 3488 56.0479 767.247 473.087
2017 0 234.605 14.8249 3478 56.8646 767.339 470.907
2018 0 243.498 15.7907 3845 55.4463 767.08 469.17
2019 0 289.513 21.6226 6260 45.7942 766.594 433.259
2020 0 287.014 20.8944 5997 47.3125 766.79 429.036
2021 0 287.973 21.1374 6087 47.9082 766.91 432.334
2022 0 281.865 19.5697 5516 51.3503 767.29 436.809
2023 0 284.715 17.4034 4955 54.7847 767.081 442.751
2024 0 294.537 15.7366 4635 56.8552 767.215 436.276
2025 0 302.603 15.7665 4771 57.022 767.115 433.954
2026 0 304.748 12.8139 3905 59.4958 766.964 447.604
2027 1 64.1034 12.4954 801 59.0649 767.091 554.749
2028 0 66.1529 13.3781 885 58.6011 766.348 552.44
2029 0 70.266 13.7762 968 58.3936 766.366 550.345
2030 0 74.1042 14.1827 1051 56.6461 766.37 550.738
2031 0 77.1762 15.2119 1174 55.6985 766.662 546.6
2032 0 80.221 13.9739 1121 57.413 766.738 547.175
2033 0 78.3009 13.8951 1088 57.9412 766.452 546.822
2034 0 78.2059 12.2881 961 59.2622 766.787 548.294
2035 1 45.1343 12.6955 573 58.1553 766.045 563.546
2036 0 47.1221 12.3721 583 58.6261 766.237 561.4
2037 0 49.163 14.4418 710 56.9662 765.951 556.892
2038 0 51.2212 15.3843 788 55.1104 765.159 548.495
2039 0 53.1972 14.3241 762 56.1102 765.419 550.61
2040 0 53.1755 14.4427 768 56.5599 765.327 557.005
2041 0 55.0302 13.8469 762 57.2927 765.9 555.356
2042 0 57.225 13.9624 799 56.8148 765.496 550.166
2043 0 63.1251 18.2653 1153 49.8664 765.605 545.853
2044 0 60.2532 16.8788 1017 53.4602 765.486 549.1
2045 0 62.2446 15.5194 966 55.5083 765.177 549.275
2046 0 61.2293 14.0946 863 58.3928 765.761 550.052
2047 0 65.1921 15.0172 979 56.8631 765.227 547.28
2048 0 68.2052 15.6 1064 55.422 764.627 546.585
2049 0 67.1556 14.0569 944 58.5869 764.101 546.921
2050 0 72.2164 14.9551 1080 56.7769 764.301 545.783
2051 1 37.1839 12.2634 456 59.2105 764.399 563.241
2052 0 39.1041 12.5562 491 59.9817 764.635 561.46
2053 0 42.2894 12.7455 539 59.9852 764.49 560.406
2054 0 42.1947 13.7695 581 61.0878 764.348 560.728
2055 0 44.1503 13.4314 593 61.5497 764.056 559.01
2056 0 47.0628 13.9176 655 60.6336 763.521 557.844
2057 0 48.3136 15.3787 743 59.7941 763.891 556.542
2058 0 49.3353 14.1481 698 61.3266 764.155 557.007
2059 0 49.2629 14.9606 737 61.2483 764.349 556.037
2060 0 52.0982 14.4727 754 61.6645 763.858 554.729
2061 0 55.2855 14.5608 805 61.8894 763.293 554.15
2062 0 55.5785 14.8259 824 61.3398 764.027 553.394
2063 0 59.3832 14.8527 882 61.3889 764.15 552.527
2064 0 61.3398 15.194 932 61.0021 763.583 551.648
2065 0 61.3398 15.194 932 173.535 762.583 551.648
2066 0 63.4837 15.122 960 62.4198 763.972 549.317
2067 0 67.3065 15.63 1052 61.6065 764.555 547.735
2068 0 69.2496 14.5994 1011 63.1998 764.056 547.131
2069 0 74.8047 14.852 1111 61.6148 764.289 547.787
2070 0 74.605 14.1679 1057 64.0851 764.37 544.326
2071 0 77.6558 14.7317 1144 63.4493 764.108 543.292
2072 0 80.6853 15.0709 1216 63.56 764.133 541.762
2073 0 83.4803 15.2251 1271 63.6074 764.298 539.914
2074 1 41.1859 12.48 514 67.6459 763.965 559.274
2075 0 45.7174 12.096 553 65.6492 764.45 560.374
2076 0 47.6255 12.8293 611 65.3912 764.316 557.985
2077 0 46.6997 14.2828 667 64.6672 764.261 555.6
2078 0 49.5909 13.5105 670 64.5955 765.148 556.131
2079 0 51.5989 14.1476 730 63.9219 765.466 554.11
2080 0 51.5989 14.1476 730 164.414 766.466 554.11
2081 0 56.6428 14.1765 803 63.7323 766.026 552.538
2082 0 55.6466 14.3585 799 64.3554 766.138 552.09
2083 0 56.4932 14.6389 827 64.1669 766.03 551.514
2084 0 61.5748 14.2591 878 63.8155 766.428 548.776
2085 0 64.7245 14.2759 924 63.2803 766.009 547.713
2086 0 67.3265 13.8727 934 63.7559 766.306 546.221
2087 0 67.8893 14.2291 966 64.1708 766.428 544.561
2088 0 68.5058 13.7507 942 65.1826 766.73 544.051
2089 0 73.4812 14.0172 1030 64.1175 766.953 543.343
2090 0 75.7986 14.1032 1069 64.4771 767.016 541.51
2091 0 76.3885 13.955 1066 65.303 767.179 539.697
2092 1 39.3477 11.4111 449 67.1737 767.67 558.051
2093 0 42.3715 11.7768 499 66.2465 767.18 556.786
2094 0 43.446 11.9919 521 66.0096 767.336 556.296
2095 0 45.5866 11.7578 536 66.3377 767.498 555.028
2096 0 47.3165 13.3991 634 64.9479 768.17 554.088
2097 0 49.2297 13.7925 679 64.4492 768.013 553.277
2098 0 50.4216 13.6449 688 64.7282 768.038 554.35
2099 0 52.4052 13.7391 720 64.6278 768.361 553.435
2100 0 55.6636 13.905 774 64.2726 768.156 553.707
2101 0 54.2383 14.2335 772 64.8575 768.693 552.106
2102 0 58.2606 13.5941 792 65.6578 768.609 550.441
2103 0 58.3026 14.7849 862 64.7819 768.993 549.672
2104 0 60.0747 14.0658 845 65.8746 769.155 549.149
2105 0 64.3964 14.1468 911 65.0933 769.344 547.572
2106 0 64.3493 14.328 922 65.7711 769.305 546.999
2107 0 66.283 13.8044 915 67.2 769.318 545.2
2108 0 69.3875 14.8874 1033 65.9768 769.444 544.741
2109 0 70.1891 14.2615 1001 67.8302 769.627 542.826
2110 0 73.2599 14.3325 1050 67.8057 769.69 542.659
2111 0 77.0938 14.7742 1139 66.8288 769.721 541.24
2112 0 77.3006 14.6829 1135 67.9048 769.623 540.402
2113 0 81.3042 14.9808 1218 67.6921 769.682 538.931
2114 0 83.1865 14.8582 1236 68.6141 769.657 539.778
2115 0 84.3604 14.6277 1234 69.9044 769.579 538.136
2116 0 88.1103 15.1515 1335 68.376 769.47 537.72
2117 0 90.1634 15.3055 1380 68.5464 769.333 535.259
2118 0 93.1932 14.926 1391 69.2387 769.337 535.379
2119 0 95.1397 15.8819 1511 68.0946 769.212 532.334
2120 0 97.1344 15.6278 1518 69.2167 769.045 531.416
2121 0 101.142 15.1471 1532 69.8029 769.392 528.399
2122 0 104.203 15.7097 1637 68.661 769.761 528.544
2123 0 108.323 15.62 1692 68.1885 769.869 527.115
2124 0 112.342 14.5538 1635 70.419 769.579 523.706
2125 0 117.224 15.1847 1780 68.7197 769.501 521.622
2126 1 62.0743 13.0328 809 68.5019 768.627 549.567
2127 0 65.0875 12.9518 843 67.8055 768.574 549.631
2128 0 67.0846 12.924 867 67.6597 768.238 547.742
2129 0 70.0959 12.811 898 67.7684 767.962 546.252
2130 0 73.1677 13.0522 955 67.0691 767.804 545.252
2131 0 75.0974 12.7701 959 67.0949 767.59 545.249
2132 0 78.1056 12.7264 994 67.0201 767.723 543.367
2133 0 79.1187 13.5493 1072 66.666 767.023 541.552
2134 0 83.1063 12.8991 1072 67.1026 767.767 540.683
2135 0 85.1738 12.8678 1096 67.0958 767.369 538.959
2136 0 90.0941 13.164 1186 66.355 767.019 537.41
2137 0 92.3066 13.1627 1215 66.5053 767.442 535.114
2138 0 93.1939 13.4773 1256 66.2134 767.445 535.869
2139 1 51.0864 10.0027 511 65.3405 766.765 556.542
2140 0 53.0517 10.028 532 65.282 767.015 556.259
2141 0 55.0986 11.1255 613 64.6982 766.352 556.238
2142 0 58.2243 10.9748 639 64.7966 766.39 555.08
2143 0 60.1681 12.4152 747 62.7617 765.975 553.83
2144 0 61.1108 11.6673 713 64.3212 766.511 553.265
2145 0 64.0618 11.8011 756 63.5648 766.508 552.983
2146 0 65.069 11.8951 774 64.0969 766.229 551.133
2147 0 68.0821 12.4115 845 62.9645 766.212 550.323
2148 0 71.1366 11.991 853 63.3634 766.567 549.562
2149 0 73.1488 12.4677 912 63.2566 766.682 549.262
2150 0 75.1899 11.6239 874 64.9497 766.918 546.707
2151 0 78.2826 12.0333 942 64.5892 766.81 547.441
2152 0 81.2097 12.8925 1047 63.8892 767.56 544.017
2153 1 45.0905 10.4678 472 64.0826 767.879 562.235
2154 0 46.0314 9.36318 431 63.8237 767.719 563.478
2155 0 45.0922 10.4674 472 64.6525 767.786 562.159
2156 0 48.0162 10.6006 509 63.2574 767.234 560.847
2157 0 50.0309 10.9133 546 63.1996 767.015 559.908
2158 0 50.2421 11.6635 586 61.3413 765.444 560.043
2159 0 53.2045 11.484 611 61.09 765.563 559.391
2160 0 54.0952 11.221 607 61.3493 765.89 557.687
2161 0 55.0851 11.5276 635 60.8488 765.891 559.52
2162 0 58.1796 11.052 643 61.084 766.362 558.512
2163 0 60.1129 12.0939 727 59.8501 766.286 557.787
2164 0 61.077 11.7393 717 60.3124 765.893 558.047
2165 0 60.1038 11.2805 678 62.1357 765.472 556.425
2166 0 62.1058 11.7058 727 61.6204 766.003 555.853
2167 0 63.1141 11.1702 705 62.7234 766.201 555.321
2168 0 66.1548 11.3673 752 61.5705 765.722 554.863
2169 0 68.193 11.7754 803 60.873 765.846 555.167
2170 0 72.1658 12.1526 877 59.7891 765.651 553.618
2171 0 73.1682 12.3551 904 58.7998 764.921 551.177
2172 0 77.2162 13.1708 1017 58.3569 765.158 549.604
2173 0 77.2876 13.0681 1010 59.4248 764.436 547.57
2174 0 81.1992 12.2292 993 59.7684 764.01 546.713
2175 0 83.1721 12.6605 1053 59.5926 764.727 547.088
2176 0 86.2364 12.5585 1083 59.2475 764.48 543.155
2177 1 45.095 9.77935 441 61.3628 764.454 563.397
2178 0 48.1283 11.3031 544 59.3199 764.746 562.926
2179 0 48.1219 9.91234 477 61.3312 764.235 561.981
2180 0 49.0431 12.2749 602 58.4286 764.568 562.204
2181 0 51.1046 12.8364 656 58.5213 765.369 560.235
2182 0 52.1626 12.7294 664 59.7937 764.922 560.08
2183 0 54.0829 12.9061 698 57.9628 764.285 557.139
2184 0 53.1669 12.0752 642 60.5156 764.489 554.944
2185 0 58.1467 14.429 839 56.0155 764.56 554.894
2186 0 57.15 12.9659 741 59.5776 764.665 553.731
2187 0 57.1324 13.1099 749 60.0895 764.959 553.511
2188 0 60.1271 12.8727 774 60.5116 765.424 553.461
2189 0 60.1615 13.5302 814 59.8931 765.371 553.749
2190 0 62.1538 13.1609 818 60.555 765.434 551.682
2191 0 63.0626 14.2557 899 60.1079 765.842 550.989
2192 0 67.1034 13.4717 904 61.2102 765.683 549.881
2193 0 68.0805 13.205 899 62.1402 765.793 549.397
2194 0 68.2347 12.9846 886 62.7088 766.405 546.94
2195 0 71.1873 13.7244 977 61.522 766.541 546.233
2196 0 74.2144 14.2425 1057 60.404 766.717 543.87
2197 0 76.0742 13.868 1055 61.2635 766.811 543.403
2198 0 79.2081 13.6981 1085 62.2065 766.784 543.563
2199 0 81.2111 13.902 1129 62.1311 767.205 543.095
2200 0 83.2214 15.0082 1249 60.1169 767.689 540.649
2201 0 86.1923 14.282 1231 61.2283 767.763 539.284
2202 0 88.2248 14.4971 1279 60.8514 768.026 537.789
2203 0 91.2889 14.5691 1330 61.3594 767.792 535.765
2204 0 94.3325 14.8835 1404 60.9551 768.218 534.453
2205 0 101.308 16.2673 1648 58.3283 768.416 531.45
2206 1 51.1549 11.4359 585 62.6496 768.973 558.297
2207 0 52.0834 12.5568 654 63.0856 769.197 555.968
2208 0 55.05 13.0245 717 61.7936 769.706 556.437
2209 0 57.043 13.3057 759 61.585 769.084 554.246
2210 0 59.1039 13.7554 813 61.139 769.305 552.954
2211 0 60.0915 13.9953 841 61.1974 769.403 552.78
2212 0 61.1267 13.6929 837 61.1338 769.667 551.075
2213 0 63.1126 13.468 850 61.8435 770.065 550.014
2214 0 65.0733 14.0764 916 61.0295 770.251 550.365
2215 0 67.0708 14.1492 949 61.2782 770.001 549.144
2216 0 70.0925 13.9958 981 61.5189 770.043 548.628
2217 0 72.2231 13.6798 988 62.2824 770.05 545.24
2218 0 74.1712 13.4149 995 62.1759 770.485 544.059
2219 0 78.1743 13.9176 1088 61.7647 770.397 543.739
2220 0 80.1473 14.4484 1158 61.6632 770.602 542.503
2221 0 82.1179 14.0164 1151 62.3189 770.535 542.411
2222 0 85.1642 14.1609 1206 62.5738 770.667 541.096
2223 0 88.1433 13.6369 1202 63.4459 770.244 540.047
2224 0 92.1114 14.2111 1309 62.7746 771.061 538.44
2225 0 92.208 14.2179 1311 63.5195 769.897 535.937
2226 1 52.0766 12.7697 665 64.6737 771.063 554.887
2227 0 53.0386 12.8586 682 64.9179 771.232 555.83
2228 0 55.095 12.8505 708 65.1384 769.992 554.357
2229 0 58.1643 13.8057 803 64.9888 770.212 552.686
2230 0 58.0667 13.2262 768 66.9505 770.46 551.798
2231 0 61.08 14.0963 861 65.6283 770.539 551.098
2232 0 62.0571 13.8904 862 65.674 770.339 550.216
2233 0 65.0498 14.3582 934 64.5086 770.224 549.93
2234 0 70.1143 13.7062 961 64.6025 769.797 549.147
2235 0 70.1137 14.0343 984 65.5163 769.663 546.904
2236 0 73.0495 13.7715 1006 65.0338 769.532 546.17
2237 0 75.212 14.4392 1086 64.1759 768.869 543.992
2238 0 78.1449 13.7053 1071 65.0028 768.69 542.977
2239 0 80.1693 13.4715 1080 65.1315 768.283 542.181
2240 0 84.2032 13.7287 1156 65.3824 768.832 539.62
2241 0 87.2057 14.2422 1242 64.2287 768.576 538.118
2242 1 46.0806 11.5667 533 65.9456 768.304 560.107
2243 0 48.1154 12.6155 607 63.916 768.733 558.967
2244 0 49.1418 11.6398 572 64.8409 769.372 557.425
2245 0 51.2147 13.336 683 62.5417 768.589 557.037
2246 0 50.1779 12.2564 615 64.735 768.764 556.839
2247 0 52.0974 13.2636 691 63.6744 768.582 556.582
2248 0 54.1139 12.6215 683 64.6808 767.918 555.553
2249 0 57.087 13.3305 761 63.7043 767.293 553.618
2250 0 57.1161 13.9365 796 63.1495 767.854 552.871
2251 0 59.1294 13.462 796 62.9937 767.629 553.651
2252 0 61.127 13.7255 839 63.1764 768.348 550.914
2253 0 63.1546 13.364 844 63.6872 768.36 550.649
2254 0 64.1761 13.6811 878 63.3405 767.959 551.179
2255 0 68.1979 14.2673 973 62.4275 768.325 550.317
2256 0 69.0704 14.4925 1001 62.2488 768.393 550.126
2257 0 69.126 13.121 907 64.5402 768.205 547.884
2258 0 71.2343 14.1786 1010 63.0139 768.533 547.025
2259 0 73.1581 13.669 1000 63.634 768.385 546.619
2260 0 79.2754 14.2667 1131 61.9293 768.672 547.468
2261 0 78.1724 13.3679 1045 64.3254 768.52 544.815
2262 0 83.2216 13.9267 1159 62.9991 768.708 543.708
2263 1 45.0688 12.2036 550 64.2636 769.162 560.956
2264 0 46.1224 11.773 543 64.8398 768.35 561.337
2265 0 47.0228 12.1005 569 64.6415 768.267 561.455
2266 0 48.0432 12.9675 623 64.2841 768.634 560.992
2267 0 51.063 13.8456 707 63.1301 768.673 559.932
2268 0 52.1169 12.9708 676 64.9364 769.423 559.006
2269 0 54.057 13.8927 751 63.7537 769.019 556.174
2270 0 55.1059 13.8642 764 65.0576 769.224 556.114
2271 0 57.136 13.4941 771 65.3515 769.14 555.761
2272 0 58.0754 14.1024 819 64.9817 768.72 554.578
2273 0 60.0543 14.1705 851 64.4947 768.152 553.531
2274 0 61.1507 13.6875 837 65.2748 768.314 553.326
2275 0 62.2658 13.7154 854 65.9555 767.871 551.078
2276 0 65.221 14.1366 922 64.962 767.89 550.9
2277 0 69.2496 14.3394 993 64.3605 767.848 550.932
2278 0 69.0893 14.1701 979 65.4259 767.753 548.935
2279 0 72.1814 14.3527 1036 65.1042 767.4 547.552
2280 0 75.2412 15.0582 1133 64.1456 767.486 546.969
2281 0 78.2449 14.3779 1125 65.1422 767.417 546.881
2282 0 79.1536 14.2255 1126 66.2327 766.942 545.488
2283 0 81.2787 14.6656 1192 65.5822 766.945 542.662
2284 0 86.3341 15.4632 1335 63.7648 766.766 541.561
2285 0 88.2995 14.3489 1267 66.0079 766.581 540.541
2286 0 91.232 14.8961 1359 65.1141 766.603 539.906
2287 0 93.3214 14.284 1333 66.4839 766.26 538.508
2288 0 97.3101 14.7672 1437 65.6249 766.396 537.514
2289 1 51.115 11.5817 592 67.3125 766.209 562.03
2290 0 53.0507 12.5352 665 67.1023 766.35 557.373
2291 0 54.0872 13.2749 718 65.7451 766.292 559.095
2292 0 55.1196 13.3165 734 66.1894 766.824 558.044
2293 0 59.1581 13.7766 815 65.0515 766.777 556.636
2294 0 60.1293 14.2027 854 64.7424 767.808 556.069
2295 0 61.1869 14.3822 880 64.9102 767.372 555.402
2296 0 62.1051 14.4111 895 64.8101 767.431 554.053
2297 0 65.1494 13.9986 912 64.8026 767.159 552.832
2298 0 70.0884 14.6244 1025 63.719 766.86 552.621
2299 0 71.0733 14.5343 1033 63.1365 767.279 552.069
2300 0 72.1062 14.3816 1037 64.4185 766.741 548.778
2301 0 75.1355 14.4539 1086 63.9448 766.618 548.359
2302 0 80.104 14.7308 1180 62.6085 766.266 547.486
2303 0 82.0506 14.8079 1215 63.1539 766.441 544.026
2304 0 83.1361 14.6868 1221 63.6446 766.472 544.377
2305 0 88.2076 14.4205 1272 63.6769 766.585 541.638
2306 0 90.152 15.5071 1398 62.5436 766.406 541.253
2307 0 92.3088 15.459 1427 62.9573 766.431 541.604
2308 0 96.1068 14.5775 1401 64.6424 766.609 541.517
2309 0 99.1691 14.9543 1483 64.1187 766.53 538.746
2310 0 99.3999 14.9899 1490 65.2302 766.526 537.026
2311 0 103.212 15.2599 1575 64.9105 766.506 534.81
2312 0 107.174 14.7331 1579 65.6643 766.68 534.678
2313 0 111.29 15.6349 1740 63.7293 766.3 529.694
2314 0 115.391 15.2959 1765 64.2527 766.746 529.184
2315 0 120.226 15.8368 1904 63.5672 766.414 526.522
2316 0 123.222 15.046 1854 65.3242 766.334 526.629
2317 0 126.257 15.3259 1935 65.5571 766.911 523.004
2318 0 131.357 15.3475 2016 65.6404 766.953 520.711
2319 0 135.45 15.5482 2106 65.8965 767.457 518.199
2320 1 74.071 12.704 941 68.1467 767.862 551.136
2321 0 78.1844 13.9158 1088 66.9945 767.355 547.932
2322 0 81.1584 14.3054 1161 66.1042 767.511 546.584
2323 0 84.2024 14.3464 1208 66.3262 768.141 544.849
2324 0 87.1354 14.1848 1236 66.3786 768.226 541.247
2325 0 89.3355 13.7571 1229 66.8552 768.775 539.299
2326 0 93.2554 14.337 1337 65.8586 768.838 540.168
2327 0 95.2121 14.557 1386 66.3571 768.883 536.488
2328 0 100.211 14.8187 1485 65.4316 769.063 535.396
2329 0 102.276 14.4902 1482 66.4305 768.975 532.501
2330 0 105.177 13.7768 1449 67.648 768.955 532.271
2331 0 110.159 15.0147 1654 65.6306 769.454 528.33
2332 1 58.2129 11.8702 691 69.1056 769.764 554.651
2333 0 60.0886 13.4967 811 67.6757 769.164 553.366
2334 0 63.062 13.3678 843 67.1803 769.957 551.325
2335 0 67.0184 13.7127 919 66.4244 770.09 551.254
2336 0 69.0572 13.6409 942 66.7749 770.197 549.735
2337 0 69.1189 13.8602 958 67.1002 769.927 548.797
2338 0 71.0394 14.2878 1015 66.7222 770.423 546.91
2339 0 74.0445 14.1131 1045 67.5923 771.036 546.19
2340 0 78.0697 14.5127 1133 66.1086 770.453 546.035
2341 0 80.135 14.4257 1156 66.9542 770.102 543.534
2342 0 83.1613 14.2254 1183 67.6205 769.866 542.825
2343 0 85.2118 14.2234 1212 67.3672 769.976 542.081
2344 0 87.2017 14.541 1268 67.511 770.473 540.663
2345 0 89.1817 14.106 1258 68.8935 770.497 537.87
2346 0 93.149 14.3319 1335 68.5498 770.727 536.577
2347 0 97.1322 14.403 1399 68.5561 771.084 534.686
2348 1 51.0237 12.5236 639 70.8294 771.387 557.523
2349 0 52.1354 13.3499 696 70.1767 771.277 556.737
2350 0 56.0276 13.0828 733 71.0491 771.154 555.251
2351 0 55.0347 13.9912 770 70.3792 770.73 554.488
2352 0 58.0549 14.4691 840 70.9 770.838 553.181
2353 0 60.0671 14.5837 876 71.0594 770.646 551.554
2354 0 60.0392 14.6071 877 71.8039 770.855 550.161
2355 0 64.1377 14.3441 920 71.0826 770.591 549.895
2356 0 68.2072 14.0308 957 71.558 770.514 549.683
2357 0 69.0721 13.8261 955 72.1895 770.691 548.438
2358 0 70.0996 14.5079 1017 72.762 770.314 546.112
2359 0 74.1976 15.3913 1142 70.4124 770.019 546.105
2360 0 76.1587 14.7324 1122 71.9759 770.365 546.025
2361 0 79.1609 14.6916 1163 72.534 770.012 544.948
2362 0 82.1914 14.7217 1210 72.5033 769.874 541.652
2363 0 85.1813 14.9915 1277 71.1817 770.051 540.948
2364 0 85.2631 14.2969 1219 73.8113 769.678 540.008
2365 0 90.1372 14.6443 1320 72.5076 769.795 538.514
2366 0 90.1372 14.722 1327 179.629 770.776 538.439
2367 0 94.1899 15.2246 1434 72.1248 769.641 534.416
2368 1 52.04 13.432 699 73.9256 769.157 556.88
2369 0 57.0684 13.0195 743 74.3297 769.077 556.061
2370 0 57.0805 13.9803 798 73.8835 768.743 555.152
2371 0 58.1186 13.8166 803 74.132 768.508 553.834
2372 0 62.1542 14.5606 905 72.147 768.33 551.946
2373 0 63.1612 14.5976 922 72.2267 768.067 551.486
2374 0 66.0823 14.7241 973 71.8993 768.169 550.71
2375 0 67.0654 14.7766 991 72.8638 768.03 547.589
2376 0 67.0654 14.7617 990 176.645 768.038 547.607
2377 0 71.3136 15.3828 1097 71.9499 767.786 545.253
2378 0 74.2214 14.6454 1087 72.8031 767.845 546.326
2379 0 76.4611 14.2164 1087 73.5124 768.745 545.144
2380 0 82.1538 15.4101 1266 70.9526 767.897 542.699
2381 0 82.1522 15.0331 1235 68.8858 768.023 541.248
2382 0 87.0838 14.8363 1292 69.0503 768.124 540.276
2383 0 89.2115 15.1886 1355 68.1779 767.926 539.9
2384 1 47.3241 12.1291 574 71.8833 768.26 559.263
2385 0 48.4003 12.8098 620 71.1113 768.179 558.384
2386 0 49.2798 13.4132 661 70.8669 768.216 558.92
2387 0 51.2278 14.0549 720 70 767.992 555.771
2388 0 53.1357 14.303 760 69.8789 768.163 555.391
2389 0 53.2237 14.7303 784 69.588 768.342 554.829
2390 0 56.6504 15.2691 865 68.7121 768.953 553.555
2391 0 58.2159 13.6561 795 70.5145 768.582 552.992
2392 0 60.2289 14.8434 894 68.6365 768.434 552.604
2393 0 63.1546 14.8841 940 68.1096 767.967 551.899
2394 0 65.2699 14.892 972 67.6348 767.814 549.542
2395 0 67.3558 15.1435 1020 67.552 768.254 547.825
2396 0 69.2549 15.3347 1062 67.6516 768.028 547.59
2397 0 72.1731 14.9502 1079 68.2215 767.78 546.193
2398 0 75.2553 14.9624 1126 67.7726 767.816 545.219
2399 0 75.1962 15.3332 1153 68.1258 768.221 543.186
2400 0 80.3283 15.225 1223 67.7073 767.679 543.1
2401 0 80.1508 15.2837 1225 68.3094 767.54 542.073
2402 0 84.1835 15.4306 1299 67.5466 767.473 541.187
2403 0 88.1859 15.5354 1370 67.5226 767.316 538.84
2404 1 47.1346 11.8809 560 70.9 766.873 559.92
2405 0 49.2269 12.4322 612 70.3725 766.797 558.802
2406 0 51.1426 13.5112 691 69.9305 766.893 555.754
2407 0 53.1376 13.9826 743 69.9475 766.735 554.915
2408 0 55.074 15.0888 831 68.5499 766.308 554.493
2409 0 54.2765 14.5367 789 70.2548 766.075 554.648
2410 0 57.1349 14.667 838 69.9702 766.469 552.685
2411 0 59.1875 14.4963 858 70.4627 765.829 552.646
2412 0 63.1945 15.4444 976 67.6404 765.786 552.483
2413 0 64.4336 15.256 983 69.0763 765.743 551.572
2414 0 66.1492 15.0266 994 70.0443 765.568 551.08
2415 0 68.3494 14.7331 1007 70.3168 765.655 550.503
2416 0 71.2414 15.0615 1073 69.63 765.352 550.026
2417 0 73.2053 14.876 1089 69.6556 765.268 547.36
2418 0 74.4113 14.0301 1044 71.4569 765.686 545.646
2419 0 78.1949 14.4255 1128 69.461 765.763 545.091
2420 0 81.2111 14.8256 1204 68.9618 765.689 543.627
2421 0 84.0826 15.1161 1271 68.1408 765.516 542.591
2422 0 87.3172 15.0028 1310 68.5198 765.348 542.202
2423 0 89.2615 14.9112 1331 68.7498 765.507 539.912
2424 0 91.1043 15.3999 1403 68.6358 765.005 538.189
2425 0 95.2972 16.2019 1544 66.978 764.956 536.056
2426 0 97.2277 15.5203 1509 68.2551 765.537 535.525
2427 0 99.1178 15.1032 1497 69.5611 765.107 534.049
2428 0 104.146 15.3727 1601 69.0031 765.131 532.565
2429 1 58.1364 12.4879 726 71.6047 765.145 554.967
2430 0 61.3211 12.7362 781 71.2292 765.012 553.77
2431 0 64.1716 14.4768 929 69.1367 764.696 552.01
2432 0 68.1721 14.8154 1010 67.8911 764.765 551.032
2433 0 67.1741 14.2317 956 179.977 764.842 550.351
2434 0 72.2097 14.8457 1072 67.9412 764.882 547.825
2435 0 74.3018 14.6564 1089 67.9669 765.205 547.035
2436 0 77.2673 15.4011 1190 66.9361 765.77 545.771
2437 0 80.1682 14.719 1180 68.9059 765.489 543.855
2438 0 82.2267 15.1168 1243 68.461 765.799 540.63
2439 0 86.2085 14.9521 1289 68.2676 765.695 539.835
2440 0 90.1931 15.4668 1395 67.509 765.752 539.739
2441 0 90.2679 15.0884 1362 69.0345 765.707 538.462
2442 0 95.3381 14.9153 1422 69.3671 765.679 536.355
2443 0 97.1954 15.4328 1500 69.6833 765.796 534.448
2444 0 102.404 15.761 1614 69.2652 765.96 531.758
2445 0 104.429 15.1683 1584 70.6016 765.883 532.049
2446 0 107.381 15.1238 1624 70.8972 765.584 530.3
2447 0 107.381 15.0586 1617 179.685 765.593 530.348
2448 0 115.36 15.2566 1760 70.9011 766.123 524.461
2449 0 120.338 15.1657 1825 70.6564 765.978 523.228
2450 0 123.324 15.1957 1874 70.945 765.696 519.735
2451 1 69.1928 13.0216 901 73.5083 765.988 546.898
2452 0 73.1898 14.5239 1063 70.666 766.193 544.313
2453 0 77.3822 13.6724 1058 71.8327 766.895 542.229
2454 0 80.3292 14.3534 1153 69.3625 766.513 540.739
2455 0 81.2816 14.825 1205 68.7071 766.51 539.063
2456 0 83.1171 15.0029 1247 68.5646 766.724 539.087
2457 0 88.2084 15.1459 1336 67.89 766.767 537.801
2458 0 90.1562 14.5858 1315 69.1095 767.578 535.783
2459 0 92.3719 14.4416 1334 69.8576 767.447 533.887
2460 0 96.3267 14.9076 1436 68.5662 767.793 532.551
2461 0 100.262 14.8711 1491 68.2844 767.956 533.052
2462 0 103.433 14.9953 1551 68.8536 767.754 531.044
2463 0 105.316 15.4868 1631 68.4966 768.186 526.537
2464 0 109.213 14.8701 1624 69.5062 768.451 526.773
2465 0 111.275 15.2864 1701 68.9559 769.218 526.587
2466 0 116.192 15.7325 1828 68.4546 769.457 524.827
2467 0 120.35 15.1807 1827 68.96 770.026 522.226
2468 0 123.318 15.5208 1914 68.3563 770.25 520.248
2469 1 69.3168 12.1327 841 71.3294 770.325 546.348
2470 0 71.3872 12.9295 923 70.3304 770.641 545.29
2471 0 74.41 13.6138 1013 69.6298 770.996 542.042
2472 0 77.4751 14.0303 1087 68.5731 771.016 540.443
2473 0 81.7239 14.5612 1190 67.4303 771.413 541.55
2474 0 83.5652 15.1259 1264 67.25 771.237 540.513
2475 0 86.5344 15.0576 1303 67.4919 770.753 538.19
2476 0 89.4248 14.7946 1323 67.8042 771.228 536.765
2477 0 91.4961 14.9842 1371 67.62 771.101 536.042
2478 0 93.4466 15.1209 1413 67.3241 771.314 534.262
2479 0 97.6979 14.7598 1442 67.9258 771.16 532.614
2480 0 99.4069 14.6871 1460 68.626 771.062 531.722
2481 0 103.795 14.8272 1539 67.7914 771.183 530.021
2482 0 107.821 14.8116 1597 67.9837 771.021 528.689
2483 0 108.661 14.5682 1583 69.0834 771.141 528.029
2484 0 114.467 15.5853 1784 67.2108 770.607 525.396
2485 0 114.386 14.3987 1647 69.5452 771.247 523.804
2486 0 119.95 15.2731 1832 67.5153 771.002 523.192
2487 1 64.3535 12.9908 836 68.5562 770.908 550.571
2488 0 66.364 13.0342 865 68.7052 770.502 549.162
2489 0 69.3479 13.3241 924 68.026 770.506 546.803
2490 0 69.501 13.9422 969 67.0867 770.515 545.896
2491 0 72.3589 14.4972 1049 66.0124 770.337 544.6
2492 0 75.6114 14.9448 1130 64.6513 769.767 543.167
2493 0 78.4943 14.2813 1121 65.149 770.091 543.411
2494 0 82.4367 14.4838 1194 64.7747 769.559 542.288
2495 0 84.2627 14.6091 1231 64.1324 769.832 540.968
2496 0 88.3427 14.7494 1303 63.3983 770.066 540.713
2497 0 88.479 14.851 1314 63.8318 769.903 538.849
2498 0 91.2199 14.8433 1354 63.2105 769.659 537.665
2499 0 94.2709 14.9993 1414 62.5177 769.847 536.004
2500 0 96.3135 15.2419 1468 62.3638 769.311 534.402
2501 0 101.189 15.0905 1527 61.8206 769.361 534.118
2502 0 104.132 15.3171 1595 61.5191 768.921 532.571
2503 0 106.288 14.6113 1553 62.9717 768.904 529.998
2504 0 111.238 15.4264 1716 61.472 768.862 528.811
2505 0 113.192 14.7625 1671 62.368 769.111 527.943
2506 0 118.216 15.5986 1844 60.8791 769.133 525.143
2507 0 122.128 15.623 1908 61.2055 769.322 522.916
2508 0 127.264 14.6467 1864 61.654 768.933 521.396
2509 0 131.139 15.3883 2018 61.3043 768.882 521.494
2510 0 135.171 15.6098 2110 61.7403 768.735 516.289
2511 0 138.149 14.8897 2057 63.3471 768.79 515.745
2512 0 144.316 15.7016 2266 62.0838 768.559 513.941
2513 0 147.271 15.9434 2348 62.198 768.444 511.104
2514 0 151.533 15.6336 2369 62.7927 768.458 509.436
2515 0 157.282 16.0413 2523 62.1114 768.375 507.705
2516 0 162.286 15.5528 2524 63.0563 768.099 507.155
2517 0 165.247 15.5888 2576 63.5974 767.696 503.13
2518 0 172.28 15.9914 2755 62.8083 767.379 500.557
2519 0 176.45 15.0298 2652 63.7794 768.141 498.497
2520 0 183.453 15.9551 2927 62.5494 768.475 499.05
2521 0 189.342 16.1031 3049 62.592 768.147 493.334
2522 0 196.21 16.2632 3191 62.1934 768.102 491.926
2523 0 202.283 15.6514 3166 63.0891 768.31 486.499
2524 0 210.216 15.8266 3327 62.7133 768.226 481.698
2525 0 219.522 16.2899 3576 62.0008 768.314 476.417
2526 1 171.301 14.7052 2519 63.8607 768.072 503.882
2527 1 55.0787 13.1085 722 62.0845 767.627 556.825
2528 0 57.0683 14.2461 813 61.5978 767.56 556.085
2529 0 58.1355 14.2254 827 62.601 767.541 553.484
2530 0 60.1122 14.1402 850 63.7365 767.394 552.611
2531 0 62.117 14.4727 899 62.5651 767.715 551.235
2532 0 66.0774 15.7089 1038 60.7909 767.655 548.99
2533 0 69.0505 14.7573 1019 61.2483 767.308 548.831
2534 0 68.18 15.0631 1027 62.0448 767.692 548.071
2535 0 73.1085 14.4169 1054 62.3672 767.769 546.807
2536 0 75.1928 15.1477 1139 61.1967 767.324 545.216
2537 0 79.2722 15.5288 1231 60.8172 767.189 545.123
2538 0 81.1284 15.5679 1263 61.8733 767.249 543.702
2539 0 83.1433 15.8281 1316 62.2181 766.886 542.317
2540 0 85.2652 15.915 1357 62.1142 766.413 541.892
2541 0 86.2035 15.881 1369 63.0716 766.295 541.018
2542 0 88.1863 15.1384 1335 64.6449 766.399 539.01
2543 0 91.4278 15.4329 1411 64.5854 766.855 538.511
2544 0 95.3532 15.4373 1472 64.9266 766.63 537.323
2545 0 98.3536 15.5663 1531 64.9667 767.41 535.764
2546 0 99.3275 15.162 1506 65.9562 766.801 534.124
2547 0 105.388 15.8936 1675 65.0316 766.298 532.844
2548 0 107.28 15.1473 1625 66.7483 766.105 529.43
2549 1 64.4404 12.5542 809 68.9011 766.043 552.491
2550 0 64.1963 13.3185 855 69.7895 766.191 550.802
2551 0 68.3675 14.5829 997 67.9428 765.658 548.962
2552 0 70.2098 14.1433 993 69.1833 765.665 548.977
2553 0 73.2381 14.5143 1063 67.9351 765.707 548.264
2554 0 73.2502 15.3856 1127 68.1872 765.446 545.334
2555 0 77.186 14.5881 1126 69.0409 765.842 545.056
2556 0 78.3817 15.9093 1247 68.3697 765.546 543.691
2557 0 80.2287 14.7204 1181 70.0703 765.807 544.102
2558 0 84.3258 15.2148 1283 69.258 765.901 541.808
2559 0 85.1917 15.6001 1329 69.3341 765.886 540.944
2560 0 90.2073 15.2648 1377 69.4626 766.259 540.327
2561 0 89.2663 15.6162 1394 70.5301 766.423 538.226
2562 0 92.1915 15.1207 1394 71.3228 766.019 538.186
2563 0 95.2007 15.315 1458 71.7071 765.808 535.626
2564 0 100.304 16.2007 1625 69.8098 766.005 533.916
2565 0 103.193 15.4177 1591 71.5236 765.496 532.518
2566 0 106.121 15.8876 1686 73.4828 766.204 531.923
2567 0 109.181 16.4315 1794 73.4822 765.645 528.853
2568 0 112.275 15.8539 1780 74.8837 765.787 527.871
2569 0 117.19 15.3255 1796 75.0896 765.422 527.938
2570 0 117.166 15.9091 1864 75.5617 765.168 526.486
2571 0 121.259 15.5947 1891 76.0085 765.051 524.003
2572 0 127.086 15.281 1942 76.241 765.348 522.162
2573 0 127.086 15.2653 1940 178.493 766.339 522.177
2574 0 137.442 17.0254 2340 72.4338 765.438 517.953
2575 0 141.193 15.8294 2235 75.0152 765.111 515.837
2576 1 76.1459 13.3953 1020 77.0216 765.177 547.335
2577 0 78.1435 13.5008 1055 76.7592 765.093 546.324
2578 0 80.1374 14.2131 1139 75.8227 764.866 545.629
2579 0 82.0988 14.5435 1194 75.7814 764.759 544.925
2580 0 84.1175 14.2539 1199 76.3445 765.015 542.513
2581 0 88.0457 14.4698 1274 76.0973 765.283 541.962
2582 0 88.065 14.2963 1259 77.2979 765.415 540.401
2583 0 93.14 14.6876 1368 75.3626 764.689 539.644
2584 0 98.1379 14.7547 1448 73.7921 765.339 537.188
2585 0 100.126 14.7014 1472 74.1936 765.448 534.118
2586 0 103.246 15.1773 1567 73.1525 765.479 533.429
2587 0 106.158 14.8929 1581 73.6034 765.619 530.663
2588 0 111.332 14.7935 1647 72.6187 765.427 529.1
2589 0 114.153 14.9624 1708 71.8648 765.56 527.532
2590 0 117.111 14.8578 1740 72.3557 765.705 526.274
2591 0 122.203 15.7279 1922 70.6795 765.997 523.562
2592 0 127.111 15.4432 1963 70.9358 766.631 521.235
2593 1 69.0555 11.8166 816 73.337 766.016 549.001
2594 0 71.0844 12.4219 883 72.7916 766.199 547.195
2595 0 73.0579 12.6749 926 72.9784 766.354 546.24
2596 0 74.1723 13.5226 1003 72.6999 766.476 544.952
2597 0 76.1666 13.6412 1039 72.6449 766.731 544.566
2598 0 78.077 12.9616 1012 74.5267 766.592 543.482
2599 0 81.0899 13.9598 1132 73.2058 767.048 540.963
2600 0 81.1494 13.8263 1122 74.1702 767.127 540.992
2601 0 84.1128 13.9574 1174 74.4532 767.727 539.658
2602 0 88.1699 14.3019 1261 73.7407 767.883 538.279
2603 0 88.1899 14.0266 1237 74.9757 768.215 536.363
2604 0 92.108 14.5699 1342 73.9613 767.824 536.6
2605 0 93.1282 14.2277 1325 75.2687 768.389 533.443
2606 0 97.2126 14.566 1416 74.4004 768.392 532.956
2607 0 99.1402 14.2324 1411 75.1807 768.77 531.681
2608 0 103.167 14.2003 1465 75.4846 769.422 528.261
2609 0 107.155 14.465 1550 75.3 768.994 525.89
2610 0 108.353 14.4067 1561 75.7098 769.552 524.791
2611 0 111.227 14.0973 1568 76.2966 770.295 523.855
2612 0 114.183 14.5732 1664 76.5769 769.663 520.888
2613 0 118.215 14.5583 1721 76.5834 770.058 520.664
2614 0 123.215 14.5762 1796 75.887 769.478 518.808
2615 0 126.215 14.1029 1780 77.0511 770.594 517.229
2616 1 73.0939 9.82298 718 73.9666 770.907 546.513
2617 0 74.0936 11.4315 847 72.5738 770.698 545.116
2618 0 76.1512 10.6105 808 74.7178 770.738 542.625
2619 0 77.1579 11.3922 879 74.5176 770.954 540.664
2620 0 80.069 11.4901 920 73.9891 771.012 540.618
2621 0 82.0486 11.7613 965 72.656 770.495 540.189
2622 0 87.0896 11.2413 979 73.4208 770.676 536.824
2623 0 88.0706 11.8314 1042 73.0298 770.813 535.089
2624 0 91.1383 11.3564 1035 73.5536 770.442 533.661
2625 0 94.0873 10.9685 1032 74.6512 770.033 530.198
2626 0 97.1609 12.0419 1170 72.6009 769.808 531.997
2627 0 100.109 11.887 1190 71.7622 770.097 531.529
2628 1 54.1515 9.06715 491 66.4379 769.008 556.222
2629 0 55.1461 9.10309 502 67.2231 768.9 551.958
2630 0 58.3759 9.38743 548 66.6898 769.188 551.527
2631 0 58.3552 9.08231 530 67.617 769.213 551.442
2632 1 18.0095 6.27447 113 59.7434 768.982 572.257
2633 0 16.1093 6.33174 102 61.4608 769.471 573.049
2634 0 15.0753 6.30171 95 58.1789 769.4 573.137
2635 0 18.023 5.71492 103 58.3883 769.388 574.01
2636 0 19.0995 6.80647 130 57.9385 769.715 573.731
2637 0 20.034 7.18777 144 57.0486 769.576 572.417
2638 0 19.2155 6.76536 130 59.0769 769.292 571.715
2639 0 15.0186 6.6584 100 58.6 769.86 573.22
2640 0 18.0464 6.53869 118 59.2373 769.72 571.695
2641 0 19.1364 6.37528 122 58.582 769.516 571.443
2642 0 24.0855 7.59794 183 58.929 768.984 569.464
2643 0 23.0959 6.66785 154 58.5909 768.636 570.916
2644 0 24.1525 7.41124 179 59.1397 769.14 569.67
2645 0 22.0194 5.54056 122 59.8033 769.074 570.623
2646 0 22.1719 6.4496 143 59.8951 768.706 568.049
2647 0 23.0332 6.59917 152 56.75 768.803 570.382
2648 0 22.057 7.25394 160 57.6437 768.294 568.619
2649 1 56.1804 8.6863 488 60.834 767.395 554.576
2650 0 56.0834 8.25556 463 59.2333 767.689 553.434
2651 0 56.1955 7.8654 442 59.3801 768.113 552.597
2652 0 59.3647 9.82066 583 57.8165 769.237 552.35
2653 0 59.2257 10.4178 617 58.1167 769.316 550.036
2654 0 61.231 10.4359 639 59.9671 769.62 549.87
2655 0 62.0988 10.8215 672 59.817 769.376 549.86
2656 0 64.1668 9.94284 638 60.8981 768.781 549.345
2657 0 67.1942 11.2212 754 59.5093 769.025 546.84
2658 0 69.1853 10.7971 747 60.075 768.714 546.15
2659 0 69.3166 10.8632 753 59.9482 768.592 547.121
2660 0 72.238 11.3375 819 59.2576 768.02 546.797
2661 0 73.2364 10.8416 794 60.4861 768.296 545.54
2662 0 74.2778 11.6724 867 60.4948 768.264 542.245
2663 0 78.2452 11.4512 896 60.4141 767.703 543.787
2664 0 80.5345 11.3988 918 61.1373 767.958 541.468
2665 0 81.2909 11.7848 958 60.9061 768.228 539.2
2666 0 82.338 11.635 958 61.7787 767.954 538.316
2667 0 86.4367 11.3378 980 61.9898 768.483 536.679
2668 1 49.3148 8.78032 433 59.2956 768.753 560.104
2669 0 51.3685 10.1813 523 59.0937 767.99 557.52
2670 0 50.2264 10.0545 505 60.2475 767.418 558.562
2671 0 52.21 10.6301 555 59.1027 767.277 556.982
2672 0 53.0665 11.0051 584 59.9127 767.904 556.632
2673 0 53.0566 10.8752 577 60.5875 767.971 555
2674 0 54.1603 11.1521 604 60.4719 768.008 553.29
2675 0 55.0691 11.1678 615 60.1415 767.283 553.049
2676 0 56.0273 10.7091 600 60.79 767.46 553.588
2677 0 60.1647 11.4519 689 59.312 767.257 552.653
2678 0 60.13 11.3088 680 59.7809 767.668 554.118
2679 0 60.1257 11.6423 700 60.1257 767.666 551.841
2680 0 63.1989 12.073 763 59.7418 767.845 550.249
2681 0 65.2149 12.1445 792 59.5543 768.172 552.279
2682 0 64.202 11.2458 722 61.4114 768.098 552.047
2683 0 67.3954 12.7457 859 59.8847 768.065 549.22
2684 0 68.2088 12.1978 832 60.8834 768.278 549.782
2685 0 68.1963 12.9039 880 60.4284 767.473 548.57
2686 0 68.227 13.0593 891 61.881 767.856 546.095
2687 0 71.313 13.0691 932 61.5837 767.575 544.985
2688 0 73.3664 13.4121 984 61.1402 767.417 544.196
2689 0 75.2156 12.4309 935 62.8439 767.351 544.708
2690 0 76.394 13.3256 1018 61.721 766.879 542.48
2691 0 80.2561 13.2202 1061 61.1998 766.837 538.222
2692 0 84.3613 12.8376 1083 61.2318 766.738 537.091
2693 0 84.344 12.5439 1058 61.7089 766.468 537.97
2694 1 50.0873 10.5216 527 59.4649 765.288 555.761
2695 0 53.0832 10.7567 571 58.0753 765.163 557.221
2696 0 53.1138 11.3906 605 59.2645 766.936 557.268
2697 0 54.0541 11.3405 613 58.7553 766.631 558.533
2698 0 53.0973 11.865 630 58.5302 767.419 557.611
2699 0 56.0748 12.1802 683 57.9912 766.949 556.977
2700 0 57.0603 11.5141 657 59.1035 766.997 556.183
2701 0 59.0683 12.5279 740 57.5622 767.101 555.197
2702 0 61.0776 12.5414 766 56.6449 767.164 555.74
2703 0 62.1345 12.3603 768 56.6458 767.275 554.839
2704 0 62.034 12.0095 745 57.7812 767.23 552.275
2705 0 65.0229 12.6571 823 56.5553 766.536 552.091
2706 0 66.0977 12.0882 799 56.6283 766.987 551.496
2707 0 66.1801 12.4206 822 56.6873 766.887 551.966
2708 0 69.0628 12.7565 881 55.7934 767.062 551.263
2709 0 73.1199 13.2796 971 54.2956 766.547 550.269
2710 0 73.1049 12.5847 920 55.7076 765.964 547.846
2711 0 77.1225 12.9793 1001 55.1269 765.969 546.975
2712 0 79.2294 12.773 1012 55.5949 765.722 544.513
2713 1 44.0714 9.84765 434 56.2788 765.592 562.816
2714 0 45.0384 10.9684 494 55.8806 765.773 562.196
2715 0 48.1703 11.3763 548 54.9982 765.832 561.995
2716 0 49.0924 11.8145 580 54.0552 765.791 561.748
2717 0 50.1433 12.923 648 52.9491 765.665 559.932
2718 0 52.0861 12.1146 631 54.0301 766.594 558.677
2719 0 53.096 12.581 668 53.9805 766.055 558.151
2720 0 55.0267 13.3753 736 52.9864 766.152 557.188
2721 0 54.0467 12.7297 688 54.8503 765.981 556.394
2722 0 57.0828 13.4366 767 53.6728 766.3 556.997
2723 0 61.0396 13.2537 809 53.4796 767.035 555.529
2724 0 63.1085 13.3104 840 53.0798 766.346 554.951
2725 0 63.035 13.2466 835 54.206 766.265 552.48
2726 0 63.1231 12.3568 780 55.5513 766.751 552.622
2727 0 66.0933 13.254 876 54.258 767.382 552.483
2728 0 67.0551 12.7805 857 55.7071 766.583 552.358
2729 0 69.0379 12.8046 884 55.7602 766.439 551.27
2730 0 72.0231 12.496 900 55.9511 766.938 549.244
2731 0 76.0526 13.7536 1046 54.5927 767.116 549.555
