time division length width area intensity CMx CMy
0 0 38.0385 10.9626 417 159.108 375.062 574.719
1 0 41.0815 11.0512 454 83.4119 376.696 574.89
2 0 42.0891 11.5945 488 83.1824 376.746 573.721
3 0 43.2059 11.9891 518 83.5077 376.608 572.813
4 0 45.1135 11.9476 539 82.9314 376.074 572.709
5 0 45.2837 12.0132 544 84.3511 376.32 571.41
6 0 48.1708 12.684 611 82.4468 376.185 570.65
7 0 48.2087 12.4252 599 82.9199 375.851 570.715
8 0 51.1893 12.4245 636 83.033 376.264 569.16
9 0 52.1234 12.01 626 84.5479 376.107 568.954
10 0 55.2129 12.6058 696 83.7299 375.922 566.734
11 0 57.2287 12.4413 712 84.2542 376.213 566.218
12 0 57.2106 11.781 674 85.5163 376.473 564.752
13 0 60.1263 12.3573 743 83.3297 376.297 564.377
14 0 63.1435 13.4139 847 80.5596 376.66 563.746
15 0 66.1902 13.0533 864 81.1157 376.593 561.773
16 0 66.1464 12.8049 847 81.4557 376.793 559.673
17 0 68.2064 12.3449 842 81.7245 375.995 558.274
18 1 36.0634 10.3984 375 78.4053 376.984 575.632
19 0 36.0779 9.45177 341 79.5748 377.299 575.067
20 0 38.0539 10.0647 383 77.9713 377.253 575.034
21 0 40.086 10.5523 423 76.4539 376.905 574.009
22 0 42.189 10.5478 445 75.0157 376.96 572.656
23 0 43.273 11.5545 500 74.606 376.898 572.246
24 0 44.2179 12.461 551 73.7786 376.327 572.236
25 0 46.3236 12.0241 557 74.5745 376.312 570.075
26 0 45.3408 11.7334 532 75.6579 376.575 569.844
27 0 46.2832 11.5593 535 75.8804 376.708 568.52
28 0 49.2972 12.3739 610 73.7033 376.543 567.42
29 0 50.2201 12.0669 606 73.7327 377.543 567.525
30 0 52.2332 11.7358 613 74.752 377.119 568.008
31 0 55.3261 12.5438 694 72.745 377.595 566.71
32 0 55.1597 12.2916 678 73.5088 377.187 565.991
33 0 55.2173 11.7173 647 75.2782 377.804 563.841
34 0 56.2173 12.0425 677 75.0547 377.456 562.69
35 0 60.2134 12.8045 771 72.4799 377.681 562.368
36 0 62.2199 12.729 792 72.9394 377.907 562.02
37 0 63.168 12.0314 760 74.1158 377.725 562.414
38 0 64.229 12.3776 795 74.234 377.66 559.926
39 0 68.1956 12.5668 857 73.4294 377.589 559.109
40 0 70.1733 12.3124 864 74.2245 377.832 558.28
41 0 73.1787 12.5993 922 73.282 377.719 557.822
42 0 76.1654 13.3394 1016 72.4449 377.566 555.702
43 1 38.1164 10.0482 383 74.3499 378.843 573.781
44 0 41.1364 10.3558 426 74.1925 378.836 572.678
45 0 41.1426 10.7188 441 74.1156 378.95 572.966
46 0 44.1153 10.9486 483 74.1698 379.182 571.083
47 0 46.1173 11.731 541 73.5194 379.24 571.25
48 0 46.1039 11.5825 534 74.8034 378.702 570.331
49 0 47.309 12.1541 575 74.1965 378.388 568.951
50 0 49.3911 12.3909 612 74.0082 378.564 568.304
51 0 51.4301 12.6191 649 73.9368 378.599 567.379
52 0 53.2437 12.6775 675 73.6281 378.846 565.504
53 0 53.2272 12.456 663 75.1131 378.704 565.409
54 0 55.2155 11.7358 648 75.6543 377.813 565.633
55 0 56.251 12.6753 713 66.4432 378.146 565.477
56 0 60.1958 13.1404 791 66.0619 377.989 563.541
57 0 61.1928 12.24 749 66.5327 378.079 562.615
58 0 61.2918 12.3344 756 67.1177 377.737 561.138
59 0 63.2687 12.4232 786 66.8028 378.024 560.799
60 0 68.2428 13.1003 894 65.7349 377.724 560.652
61 0 70.2253 12.6877 891 67.0617 378.266 557.139
62 0 71.1822 12.6015 897 67.1193 378.156 557.177
63 0 74.3046 12.4622 926 67.3639 377.344 556.692
64 0 76.2669 12.0367 918 68.7723 378.059 554.281
65 0 76.2669 11.9842 914 158.316 379.056 554.394
66 1 41.1213 10.8459 446 69.1637 379.339 571.114
67 0 44.2013 11.0857 490 68.3469 379.439 569.769
68 0 43.2531 12.161 526 67.7529 379.39 570.006
69 0 44.227 12.3002 544 68.0478 379.314 568.346
70 0 44.3088 11.7358 520 68.6942 378.577 569.529
71 0 47.382 12.7264 603 66.7479 379.133 568.784
72 0 49.2904 13.0046 641 67.0218 379.332 565.961
73 0 49.2703 12.7054 626 68.2987 379.703 565.165
74 0 49.2339 11.8617 584 69.9538 379.259 565.858
75 0 51.3394 12.6803 651 69.6175 380.198 564.146
76 0 53.2554 12.7311 678 69.2832 380.727 563.462
77 0 53.192 11.8815 632 71.0364 381.13 562.921
78 0 55.1569 12.3103 679 70.0854 380.61 562.633
79 0 58.172 11.9989 698 69.9427 380.92 561.358
80 0 58.2538 12.703 740 69.7135 381.057 559.132
81 0 60.2677 12.0463 726 70.095 380.924 559.373
82 0 64.3015 13.1568 846 68.2979 380.935 557.294
83 0 66.1586 12.4852 826 69.1271 381.719 556.103
84 0 66.2415 12.4997 828 70.0519 382.06 556.304
85 0 69.2094 12.9896 899 69.0378 382.227 553.823
86 0 71.1151 12.4587 886 69.3713 382.203 553.379
87 0 75.2437 12.8914 970 68.468 382.001 548.595
88 1 36.155 9.18268 332 67.4639 383.75 569.274
89 0 38.19 9.71459 371 65.0027 384.049 568.857
90 0 38.19 9.8717 377 157.69 385.05 568.69
91 0 41.2393 11.0089 454 68.6322 384.148 565.458
92 0 45.1769 12.1301 548 68.5201 384.179 564.511
93 0 44.2773 12.1507 538 68.7881 383.654 562.119
94 0 46.2792 12.511 579 67.7686 383.988 562.064
95 0 47.2985 12.2203 578 66.0657 384.329 562.355
96 0 50.2314 13.2586 666 64.0886 384.261 559.27
97 0 52.2277 13.6709 714 86.7703 383.664 558.157
98 0 51.3764 12.9048 663 63.6697 383.348 560.379
99 0 53.3396 12.2611 654 64.8945 382.945 559.246
100 0 55.2535 12.4698 689 66.3716 383.028 557.588
101 0 57.3163 14.1496 811 65.8039 383.628 556.094
102 0 58.314 13.856 808 65.9876 383.028 554.444
103 0 62.2754 13.4564 838 65.4881 383.384 553.872
104 0 64.453 13.5137 871 66.4512 383.67 552.575
105 0 66.2389 12.9833 860 67.8872 383.523 552.245
106 0 66.1801 13.9166 921 67.481 384.073 550.821
107 0 67.2149 13.6131 915 69.5836 383.497 550.422
108 0 68.2084 12.5205 854 73.4719 383.644 549.711
109 0 71.1951 12.9644 923 70.7638 384.274 547.159
110 0 75.2241 14.1045 1061 67.4317 383.947 546.257
111 0 79.2954 14.2757 1132 65.2641 384.052 544.949
112 0 80.1854 13.4937 1082 66.6774 384.29 545.101
113 0 82.2532 13.3369 1097 68.4084 384.64 542.859
114 0 84.177 14.3032 1204 67.3804 384.16 542.569
115 0 87.285 14.4355 1260 68.0421 384.043 541.071
116 0 90.3209 14.5371 1313 68.8858 384.041 538.407
117 0 93.2613 14.2932 1333 69.2048 384.548 536.949
118 0 96.3252 15.0843 1453 68.1025 384.216 535.586
119 0 96.1942 13.5351 1302 71.6344 383.979 536.177
120 0 101.23 14.7782 1496 69.6651 383.931 534.844
121 0 103.189 14.517 1498 70.6923 383.883 531.965
122 0 107.281 15.0539 1615 69.6539 383.53 528.831
123 0 109.154 14.9605 1633 70.3307 382.955 529.972
124 0 112.28 15.2387 1711 70.1537 382.742 528.345
125 0 118.16 15.8767 1876 68.8374 382.328 526.425
126 0 120.171 14.4877 1741 71.4463 382.364 525.333
127 0 122.192 14.7064 1797 71.9009 382.54 522.65
128 0 127.385 14.6563 1867 71.7054 382.882 522.177
129 0 131.219 14.8225 1945 72.199 382.307 516.86
130 0 139.193 16.4304 2287 68.7652 381.65 519.624
131 1 72.1908 11.4557 827 74.5236 382.429 548.438
132 0 76.1352 12.0575 918 74.232 382.387 546.493
133 0 79.2199 12.9134 1023 72.4291 382.704 547.169
134 0 81.1745 13.1322 1066 72.9128 383.068 545.265
135 0 84.1353 14.3103 1204 71.441 382.518 543.159
136 0 88.1209 14.4688 1275 71.08 382.366 540.772
137 0 90.2917 14.5639 1315 71.0183 382.295 541.275
138 0 92.354 14.2279 1314 71.9597 382.311 538.341
139 0 96.3987 13.5479 1306 72.9074 381.816 537.663
140 0 99.2645 14.1541 1405 70.8285 381.679 538.33
141 0 101.274 13.7844 1396 72.0652 381.532 534.133
142 0 104.18 13.4574 1402 72.7133 381.54 532.327
143 0 108.224 13.8602 1500 72.2633 381.073 531.891
144 0 110.164 14.7416 1624 70.8781 380.942 530.188
145 0 115.244 14.3261 1651 70.9631 381.133 527.717
146 0 118.189 14.7898 1748 70.2094 381.194 526.205
147 0 125.219 14.1911 1777 70.48 380.979 522.295
148 1 63.1572 11.1943 707 70.5304 382.044 554.758
149 0 66.1483 12.3057 814 69.7359 382.009 552.468
150 0 68.1379 13.8983 947 68.2746 382.158 549.157
151 0 70.0822 14.2261 997 68.348 381.955 548.976
152 0 73.2168 12.6747 928 70.9267 381.499 548.138
153 0 75.0684 13.6276 1023 69.9228 381.394 547.336
154 0 78.1381 13.9625 1091 69.6774 381.442 544.39
155 0 80.2621 12.4467 999 72.0921 381.419 545.397
156 0 84.2171 13.7027 1154 70.1135 381.053 542.983
157 0 87.1548 14.3767 1253 69.2817 381.447 541.472
158 0 88.1786 13.3819 1180 71.1712 380.501 540.69
159 0 90.2044 13.6024 1227 71.1687 380.918 539.156
160 0 94.2017 13.8426 1304 70.615 380.88 538.034
161 0 98.2408 13.4974 1326 71.4382 380.52 535.15
162 1 50.1282 10.0143 502 71.4064 381.337 560.297
163 0 53.1409 12.3069 654 68.9755 380.598 558.265
164 0 55.1983 12.6091 696 69.3951 381.243 557.474
165 0 55.2114 12.8053 707 69.5502 381.335 557.105
166 0 58.3153 12.2609 715 69.7902 381.194 557.671
167 0 58.2314 13.3261 776 69.9343 381.064 554.295
168 0 58.3192 12.7745 745 72.2497 381.807 554.081
169 0 62.1783 12.9466 805 70.8795 382.171 554.294
170 0 63.1872 12.6608 800 71.585 382.285 552.504
171 0 63.1872 12.5975 796 166.344 382.304 552.599
172 0 70.3163 13.098 921 70.4615 382.609 550.325
173 0 71.2978 12.6652 903 72.299 382.604 548.213
174 0 74.3195 13.5362 1006 70.9095 382.454 547.594
175 0 76.3153 13.5359 1033 71.334 382.55 545.871
176 0 78.3937 12.922 1013 71.924 382.996 545.585
177 0 81.3767 14.2178 1157 70.8781 382.742 541.616
178 0 83.2393 13.4792 1122 72.5731 382.752 540.964
179 0 86.414 13.9676 1207 72.0522 383.017 540.833
180 0 90.4103 13.8701 1254 71.9115 383.658 537.632
181 0 92.2825 13.4045 1237 73.6103 383.563 537.559
182 0 94.2646 13.0484 1230 75.0163 383.985 534.562
183 0 95.319 13.0404 1243 75.4352 384.146 533.66
184 1 52.1364 10.4725 546 72.5879 385.214 558.005
185 0 51.113 10.467 535 73.6561 385.198 556.594
186 0 54.0951 11.0916 600 72.745 385.432 554.102
187 0 57.1309 12.4976 714 70.1443 385.612 553.901
188 0 57.0754 11.5461 659 72.9226 386.065 552.39
189 0 60.1867 11.78 709 72.5021 385.181 552.343
190 0 62.1624 11.7434 730 72.5247 385.232 551.421
191 0 62.2183 12.3436 768 73.6055 384.93 549.534
192 0 66.2041 12.6125 835 71.1485 385.516 550.268
193 0 66.2035 12.1595 805 70.9689 385.411 547.034
194 0 69.1745 12.6781 877 69.707 385.375 545.852
195 0 73.2583 13.3227 976 68.4426 385.49 544.485
196 0 73.229 12.4541 912 71.5833 385.64 543.611
197 0 76.2995 13.447 1026 70.8918 385.688 541.414
198 0 78.3459 12.6235 989 73.1011 385.638 540.813
199 0 80.2784 12.5314 1006 73.2525 385.782 539.886
200 0 83.2308 12.7236 1059 72.9991 386.25 537.995
201 0 85.391 12.7999 1093 72.9524 386.059 536.92
202 0 87.4833 12.4824 1092 73.3709 386.113 535.509
203 0 90.3144 13.0433 1178 72.8778 386.171 535.458
204 0 93.4187 12.0426 1125 75.3716 386.539 533.572
205 1 51.252 10.2435 525 72.2076 387.154 555.863
206 0 54.2725 11.2396 610 72.0393 386.846 554.533
207 0 54.2485 11.0787 601 72.4709 386.985 553.057
208 0 58.1766 11.8776 691 71.369 387.278 552.719
209 0 59.2683 12.0132 712 72.2233 386.968 550.549
210 0 61.2895 12.1554 745 72.0362 386.738 550.689
211 0 60.2014 12.5246 754 72.7546 386.484 548.82
212 0 63.2438 12.1593 769 72.9402 386.375 549.581
213 0 67.2953 12.7944 861 72.4251 386.252 547.056
214 0 69.3061 12.2212 847 73.7048 386.462 547.124
215 0 72.1924 12.0788 872 74.4839 385.588 547.068
216 0 73.2725 13.3747 980 73.0102 385.36 544.046
217 0 76.3194 12.8539 981 73.5535 385.548 542.358
218 0 77.1815 13.5136 1043 73.1831 385.133 541.811
219 0 78.196 12.5326 980 75.3245 385.063 542.238
220 1 42.1032 10.3555 436 73.9839 385.759 561.225
221 0 43.0627 9.40489 405 75.0469 385.348 560.748
222 0 46.1371 10.122 467 74.2463 384.893 559.188
223 0 47.0894 11.2552 530 74.2811 384.642 556.366
224 0 48.1121 11.1406 536 73.5541 384.58 556.873
225 0 49.158 12.6734 623 71.7881 384.642 556.199
226 0 50.223 12.1657 611 73.3159 383.881 555.666
227 0 52.2688 11.4217 597 73.9933 384.146 555.554
228 0 51.2495 11.2001 574 75.0105 384.387 555.145
229 0 56.2826 10.927 615 73.761 383.904 554.397
230 0 56.2964 11.3862 641 73.9126 383.838 552.181
231 0 59.1981 11.7571 696 72.75 383.905 552.921
232 0 59.1748 12.1166 717 72.6569 384.177 552.894
233 0 62.1758 11.6122 722 72.5623 384.327 551.253
234 0 63.1908 12.0271 760 72.3158 384.067 548.039
235 0 65.1481 11.589 755 72.5245 384.064 550.033
236 0 69.1776 11.7957 816 71.8689 383.929 547.984
237 0 70.2026 11.7375 824 72.0765 383.924 547.021
238 0 73.1546 12.5078 915 71.0995 383.427 545.704
239 0 74.1439 12.1925 904 71.3363 383.743 544.299
240 0 77.1684 12.0775 932 71.6202 383.619 543.468
241 0 79.2501 11.8107 936 71.9466 383.781 542.683
242 1 44.0516 10.6693 470 72.0702 384.011 561.179
243 0 46.0533 10.4661 482 71.5519 383.494 561.056
244 0 46.0733 11.8724 547 71.3144 384.148 559.715
245 0 48.1972 11.9509 576 70.8003 383.943 558.575
246 0 49.253 11.6744 575 70.8748 383.642 558.49
247 0 50.3089 10.8529 546 71.685 383.643 557.822
248 0 52.2548 11.4631 599 71.212 383.209 557.669
249 0 54.2492 13.0325 707 69.4215 383.264 555.273
250 0 54.2614 11.8316 642 72.0826 383.676 554.685
251 0 57.266 11.4553 656 71.7317 383.341 552.297
252 0 58.2012 12.2162 711 70.2307 383.145 553.741
253 0 61.2823 12.9727 795 68.9912 382.863 551.399
254 0 62.2675 12.5748 783 70.1264 382.785 549.67
255 0 63.2279 12.9373 818 70.209 382.828 549.422
256 0 67.3152 12.85 865 69.1884 382.779 549.083
257 0 66.3088 11.914 790 71.6924 382.558 546.435
258 0 70.2704 13.0069 914 69.6127 382.339 547.548
259 0 74.3048 13.7003 1018 67.9912 381.654 546.52
260 0 76.321 13.2336 1010 68.9624 381.433 546.444
261 0 77.3368 12.6848 981 71.0591 381.532 543.407
262 0 78.3601 13.1572 1031 71.2493 381.498 541.48
263 1 42.2788 10.8565 459 71.0828 381.932 562.577
264 0 44.3536 11.3858 505 70.7188 381.782 560.36
265 0 45.4715 12.3814 563 68.5826 381.847 560.663
266 0 46.2058 11.254 520 71.7962 381.594 559.392
267 0 47.352 11.9108 564 70.8777 381.613 558.596
268 0 48.2308 12.5439 605 71.1669 380.864 558.089
269 0 51.4619 12.553 646 70.6099 381.711 557.091
270 0 51.1841 12.0936 619 72.6236 383.144 556.418
271 0 54.2679 12.3646 671 72.0805 383.252 553.888
272 0 56.3618 12.952 730 71.0479 383.152 554.14
273 0 56.1397 12.3264 692 72.646 382.699 554.23
274 0 58.1641 13.3932 779 70.724 382.625 553.909
275 0 58.2373 13.2218 770 72.3455 382.849 550.812
276 0 60.3922 13.3295 805 72.1963 382.775 551.662
277 0 62.2892 12.9557 807 73.2032 382.379 549.99
278 0 63.1288 13.1002 827 73.0883 382.112 549.256
279 0 65.3047 14.3787 939 71.3387 382.108 547.409
280 0 68.3059 13.6591 933 72.284 383.025 546.025
281 0 69.5256 13.3764 930 73.3172 382.941 545.597
282 0 71.1955 13.5683 966 72.6646 383.192 545.626
283 0 73.2846 13.2088 968 73.6539 383.373 544.604
284 0 77.3023 14.0617 1087 72.8188 383.462 541.518
285 0 79.3953 14.0059 1112 72.4694 383.262 541.339
286 0 81.4672 14.1775 1155 72.7706 383.666 538.754
287 0 84.3916 13.8521 1169 73.4388 384.352 537.434
288 0 90.6699 14.5583 1320 71.5644 384.307 536.777
289 0 90.207 13.857 1250 73.4296 384.664 535.42
290 0 94.3331 14.2156 1341 73.3557 384.509 533.058
291 0 96.2793 13.814 1330 73.6947 384.82 530.46
292 0 100.291 13.3511 1339 73.9716 385.294 530.282
293 1 50.1342 11.0902 556 74.7986 386.117 554.498
294 0 54.3018 11.9149 647 73.1607 386.071 552.564
295 0 57.1482 11.2864 645 72.8713 386.371 552.405
296 0 56.1436 12.0405 676 73.4926 386.154 548.891
297 0 60.2248 12.4367 749 72.3645 386.372 548.848
298 0 61.39 12.6568 777 73.7632 385.861 547.203
299 0 66.3919 13.089 869 71.6904 385.886 546.834
300 0 67.4752 13.5161 912 70.9386 385.618 544.657
301 0 68.3724 13.5289 925 71.5405 385.905 543.818
302 0 73.3804 14.3908 1056 69.7045 385.753 541.838
303 0 74.3228 14.2621 1060 69.8811 386.601 541.36
304 0 76.4193 12.7978 978 72.5409 386.489 540.53
305 0 78.3534 13.6816 1072 71.1679 386.304 539.931
306 0 80.5122 13.8613 1116 70.9919 386.529 537.97
307 0 83.4155 14.4697 1207 69.7341 386.731 536.545
308 0 85.4412 13.5883 1161 71.323 387.056 535.099
309 0 89.6497 12.9504 1161 71.4763 386.727 535.401
310 0 92.2742 14.0776 1299 69.8306 386.44 533.348
311 0 97.3046 14.4392 1405 68.9103 386.667 531.041
312 0 99.2025 13.9109 1380 70.0957 386.734 528.52
313 0 102.315 14.5434 1488 69.129 387.001 526.79
314 1 49.2172 11.4391 563 70.6323 387.302 551.844
315 0 52.1728 11.2127 585 70.9316 386.875 550.677
316 0 54.2 11.9557 648 70.2793 386.904 549.602
317 0 57.329 12.437 713 68.0884 387.015 550.205
318 0 56.2671 13.3115 749 67.8425 386.808 550.236
319 0 58.26 13.2853 774 67.7972 386.981 548.487
320 0 61.2271 13.7194 840 66.9619 386.1 547.605
321 0 65.2742 13.5735 886 66.4842 386.176 545.489
322 0 66.2053 13.2316 876 67.2865 385.774 544.936
323 0 69.3236 13.4009 929 66.5522 385.944 544.318
324 0 70.2158 14.1564 994 65.8742 386.217 543.294
325 0 72.1142 13.2983 959 67.1741 385.603 542.789
326 0 76.2213 12.9491 987 67.6373 386.056 541.142
327 0 78.3323 13.9406 1092 66.3791 385.904 539.086
328 0 78.2184 13.2322 1035 68.0589 385.843 538.372
329 0 83.2561 13.5726 1130 67.2841 385.723 536.973
330 1 43.166 11.1662 482 67.195 385.639 557.083
331 0 47.3191 11.1794 529 66.7599 385.433 556.437
332 0 47.1523 11.6855 551 66.4773 384.782 555.617
333 0 47.2092 10.5064 496 68.5867 385.042 555.268
334 0 50.2621 11.8379 595 67.0252 384.745 553.492
335 0 53.3021 13.3578 712 64.4073 384.583 552.486
336 0 53.4335 12.8758 688 65.0523 384.328 552.238
337 0 55.2055 13.1327 725 64.8993 384.487 552.166
338 0 56.2667 12.5829 708 65.9576 385.188 551.072
339 0 55.1529 12.8189 707 66.4965 384.948 550.233
340 0 58.3496 12.5622 733 66.2633 384.431 548.157
341 0 61.2157 12.4805 764 66.627 384.063 547.89
342 0 62.3044 12.7439 794 66.5327 383.102 546.364
343 0 64.2017 12.7878 821 66.3703 382.961 546.364
344 0 66.3941 13.45 893 65.7324 383.14 544.686
345 0 69.4805 14.263 991 64.6983 382.251 545.218
346 0 71.5689 14.755 1056 64.0985 382.296 543.347
347 0 74.7086 14.5632 1088 64.7895 382.564 542.433
348 0 75.4411 13.4012 1011 67.4154 382.029 542.015
349 0 79.4545 14.0332 1115 66.4466 381.539 540.354
350 0 81.3878 13.921 1133 67.391 381.599 539.769
351 0 85.3541 13.8951 1186 67.8499 380.212 538.746
352 0 87.3724 14.8102 1294 67.2697 381.034 535.298
353 1 46.4335 10.9188 507 68.9053 380.45 558.509
354 0 46.3059 10.9057 505 70.0475 380.057 559.202
355 0 47.3976 11.8149 560 70.8161 380.759 556.952
356 0 48.4132 11.691 566 71.5707 379.968 557.576
357 0 51.3197 13.1918 677 70.4254 380.824 553.919
358 0 51.3094 12.5708 645 72.1597 380.578 556.065
359 0 56.6244 14.0222 794 68.4244 380.849 555.229
360 0 56.6155 12.6114 714 72.1583 380.524 552.959
361 0 57.2739 12.9902 744 72.047 381.087 552.296
362 0 60.3069 13.5639 818 70.9254 381.769 552.082
363 0 62.2786 13.7286 855 71.8117 381.871 548.853
364 0 64.4167 13.2574 854 71.7061 382.049 549.486
365 0 64.5242 12.5689 811 73.6954 382.112 549.128
366 0 68.6024 13.0462 895 72.7821 382.676 548.474
367 0 70.3267 14.2336 1001 71.3187 381.989 546.027
368 0 70.3062 13.171 926 74.284 382.316 546.492
369 0 75.2716 14.5207 1093 70.6871 382.516 544.309
370 0 76.4883 13.5838 1039 72.8662 382.988 543.843
371 0 78.3753 12.9633 1016 74.0502 383.371 542.026
372 0 82.5054 13.8415 1142 72.1506 384.046 539.712
373 1 42.2336 11.1522 471 71.828 383.949 560.412
374 0 42.2528 10.7448 454 73.185 384.101 560.152
375 0 46.4991 11.054 514 72.1167 383.971 558.562
376 0 47.3184 12.1095 573 69.5462 383.642 558.602
377 0 48.165 12.6025 607 69.3806 384.178 557.666
378 0 48.1937 12.097 583 70.5763 384.6 556.662
379 0 51.2989 12.0081 616 70.1769 384.179 555.281
380 0 51.3213 12.5289 643 69.3453 384.692 553.325
381 0 54.2897 13.1148 712 68.0351 385.219 554.26
382 0 56.2117 13.0044 731 67.7073 385.008 553.995
383 0 58.305 12.246 714 68.6148 385.252 552.64
384 0 58.2505 12.4806 727 68.4966 385.411 550.718
385 0 61.3373 13.0426 800 68.035 385.572 549.335
386 0 62.4382 13.0209 813 67.4649 386.208 549.349
387 0 65.33 13.0109 850 67.8329 386.102 546.429
388 0 65.5073 12.4719 817 68.9731 386.114 546.966
389 0 69.422 13.0074 903 68.0144 385.844 545.203
390 0 69.4776 11.8168 821 70.0524 386.378 545.315
391 0 72.2811 12.8388 928 68.5011 386.019 543.501
392 0 75.3861 12.814 966 68.4979 386.393 541.924
393 0 77.3931 12.9469 1002 69.1198 386.958 541.369
394 0 79.4786 13.1734 1047 68.8348 386.545 541.396
395 1 41.2836 11.3847 470 67.934 387.07 557.143
396 0 43.2934 11.0871 480 67.2875 386.902 557.773
397 0 44.2943 11.5816 513 66.655 387.234 557.641
398 0 46.3544 11.1748 518 67.1409 387.365 556.809
399 0 48.3443 11.9352 577 66.4627 387.711 555.47
400 0 46.2311 11.5507 534 67.6779 388.515 555.74
401 0 50.3991 12.5201 631 65.7433 388.499 554.377
402 0 50.4109 11.7633 593 67.5211 388.403 553.841
403 0 54.3541 12.3082 669 65.5381 388.768 553.164
404 0 54.2657 12.4204 674 66.0252 388.423 551.631
405 0 55.1568 12.3466 681 66.467 388.266 551.561
406 0 57.2034 12.5342 717 66.802 388.347 550.262
407 0 58.1736 12.7721 743 67.0969 387.72 551.226
408 0 60.2248 12.6028 759 67.3175 387.667 550.306
409 0 62.1379 12.5688 781 68.2894 387.549 548.524
410 0 64.1707 13.355 857 67.0257 387.179 547.096
411 0 65.1467 12.9707 845 68.0438 387.359 547.038
412 0 66.2101 12.0978 801 69.2497 388.192 546.67
413 0 71.0738 12.086 859 69.3551 387.308 544.945
414 0 73.1204 12.3221 901 69.7669 387.097 542.482
415 0 76.112 12.994 989 69.1507 387.593 541.993
416 1 41.1274 10.7471 442 70.5928 388.115 558.742
417 0 44.0541 11.0092 485 69.3464 387.792 558.586
418 0 44.091 11.068 488 70.918 388.289 557.016
419 0 47.0847 11.4687 540 69.387 387.298 556.354
420 0 47.1127 12.1836 574 69.1446 386.601 557.026
421 0 47.0308 11.9283 561 69.041 386.909 555.679
422 0 49.0522 12.0076 589 69.5246 386.997 555.034
423 0 50.0444 12.2891 615 69.0098 386.351 554.151
424 0 52.1007 12.1879 635 69.9795 386.882 554.209
425 0 53.1344 12.3461 656 69.8674 386.919 553.697
426 0 52.1539 12.1563 634 71.7066 386.752 553.33
427 0 56.1741 12.1052 680 70.9118 386.131 552.647
428 0 58.118 12.2165 710 71.0775 386.103 551.159
429 0 59.21 12.8526 761 70.6071 385.453 550.353
430 0 62.1967 13.1197 816 70.4056 384.999 548.581
431 0 61.2396 12.4919 765 72.4026 385.108 548.342
432 0 63.2027 13.0058 822 71.3078 383.741 548.647
433 0 68.1435 13.9558 951 68.5668 384.644 548.81
434 0 70.1554 14.2968 1003 68.5862 384.56 546.078
435 0 72.203 13.3097 961 70.2851 384.738 545.645
436 0 73.1473 13.0422 954 70.7421 384.291 544.665
437 0 76.1793 12.4706 950 71.7926 384.742 543.317
438 1 38.0823 10.8712 414 71.3188 385.814 560.266
439 0 40.1607 11.3046 454 70.0705 385.242 561.394
440 0 42.1203 9.80524 413 71.1259 385.104 561.143
441 0 44.1524 11.0979 490 68.849 385.245 560.941
442 0 45.1295 11.3008 510 68.2333 385.078 559.325
443 0 46.3343 11.8271 548 67.7847 384.657 559.093
444 0 47.3587 12.2892 582 67.7509 384.881 558.333
445 0 47.3068 12.0279 569 69.3937 385.285 559.109
446 0 51.3059 12.2598 629 67.566 384.979 558.132
447 0 51.2806 11.9928 615 68.4065 385.06 558.052
448 0 53.2468 12.6017 671 67.9925 385.288 556.517
449 0 56.2299 12.6979 714 67.5994 385.043 554.707
450 0 56.2491 12.9602 729 68.4198 384.427 554.232
451 0 57.2319 12.493 715 69.0853 384.513 554.228
452 0 60.1886 13.6903 824 66.5947 384.211 553.49
453 0 61.163 13.1288 803 67.721 384.233 552.386
454 0 64.2311 13.0622 839 67.5292 384.865 551.386
455 0 66.1445 13.2589 877 67.0274 384.469 549.621
456 0 67.2305 13.4463 904 66.7754 384.02 549.658
457 0 69.2355 13.5913 941 66.6036 384.829 548.984
458 0 72.1461 13.0568 942 67.1285 383.882 547.068
459 0 73.1894 12.898 944 67.7966 383.797 545.97
460 0 77.286 13.5083 1044 66.2596 383.923 544.721
461 1 40.1187 10.2197 410 68.1463 384.385 562.854
462 0 41.143 10.6944 440 68.9205 383.932 561.973
463 0 42.3478 10.5082 445 69.3618 384.103 561.618
464 0 42.3558 11.427 484 68.7624 383.39 560.461
465 0 45.3321 13.0592 592 66.2416 383.769 559.419
466 0 46.2893 11.6009 537 68.2551 383.847 560.197
467 0 46.2639 11.7803 545 68.6972 383.976 559.598
468 0 48.3211 12.8101 619 67.5202 383.884 558.239
469 0 49.3039 12.0477 594 68.67 383.879 559.869
470 0 49.2611 11.6725 575 70.0609 384.376 559.122
471 0 49.326 11.9004 587 70.2675 384.571 557.63
472 0 53.2335 12.3794 659 69.0895 384.528 556.859
473 0 54.3804 13.0746 711 68.2461 383.938 557.222
474 0 54.3154 12.4458 676 69.8994 384.281 556.544
475 0 57.1621 13.5929 777 68.1133 384.17 554.589
476 0 57.2698 12.607 722 70.4515 384.45 556.398
477 0 60.2384 13.0481 786 68.8524 384.688 553.864
478 0 61.235 12.4275 761 69.866 384.511 554.758
479 0 64.2768 13.5197 869 68.2762 384.713 552.396
480 0 64.1879 13.0866 840 69.5798 384.435 552.31
481 0 68.166 13.5405 923 68.2492 384.469 550.272
482 0 69.1736 12.4614 862 70.5487 384.203 548.153
483 0 73.3853 13.0953 961 68.7742 384.358 548.522
484 0 76.4326 12.9395 989 69.3893 384.717 546.853
485 1 38.2324 9.54688 365 71.189 385.649 564.247
486 0 41.3621 11.2422 465 69.0258 385.415 563.178
487 0 43.2094 11.7104 506 67.8498 385.024 563.273
488 0 42.1833 11.3078 477 68.4738 385.669 562.434
489 0 46.2391 11.0513 511 68.0176 385.767 561.358
490 0 47.2727 10.3866 491 69.8473 385.279 561.776
491 0 47.3759 10.9972 521 69.3896 385.09 561.273
492 0 48.2864 11.6389 562 68.9395 385.178 560.352
493 0 52.3319 12.6882 664 67.1114 385.075 557.441
494 0 53.3557 12.6135 673 66.9004 385.468 557.146
495 0 53.2197 11.9317 635 68.252 385.62 557.159
496 0 53.3008 12.1949 650 68 385.357 555.657
497 0 57.1775 12.33 705 67.583 385.454 554.152
498 0 57.319 12.4392 713 67.6339 385.288 554.063
499 0 59.305 11.7697 698 68.8553 385.318 553.026
500 0 63.261 13.3574 845 65.6284 385.624 551.717
501 0 63.1615 13.3942 846 66.4965 385.18 550.759
502 0 66.1761 12.225 809 68.3226 385.232 550.466
503 0 68.2238 12.972 885 67.4011 385.601 549.181
504 0 70.1525 13.1428 922 67.0304 385.671 548.639
505 0 70.2161 12.8461 902 68.8891 385.165 545.854
506 0 74.1644 13.4161 995 68.5035 385.819 544.159
507 0 77.1866 13.3572 1031 68.3531 386.014 543.98
508 1 38.0966 10.3159 393 68.5496 386.415 564.987
509 0 42.1961 11.0674 467 68.1713 386.366 561.848
510 0 41.2775 11.1925 462 68.2511 385.937 562.123
511 0 44.4239 12.4708 554 66.6083 385.498 560.146
512 0 45.3322 13.015 590 66.722 385.568 560.198
513 0 45.2458 12.4653 564 68.7518 385.704 559.739
514 0 48.4496 12.7142 616 68.4773 385.414 559.021
515 0 48.256 12.4959 603 70.1658 385.128 559.289
516 0 50.3468 12.5529 632 70.3687 385.328 557.775
517 0 50.2198 12.5249 629 69.3529 384.846 557.439
518 0 52.2947 12.4487 651 69.4869 384.945 556.393
519 0 53.2706 12.6899 676 69.5976 385.493 556.123
520 0 57.1959 12.8156 733 69.3943 385.452 554.966
521 0 58.1772 13.2698 772 69.1593 385.723 555.001
522 0 59.3348 12.8087 760 70.4539 385.859 552.624
523 0 61.2594 12.0798 740 71.5338 385.914 551.9
524 0 64.2554 13.9443 896 68.6228 385.218 551.484
525 0 67.223 12.9866 873 70.0745 385.615 549.966
526 0 66.1345 12.9433 856 71.3937 386.044 548.784
527 0 68.154 13.5282 922 70.2581 385.791 548.472
528 0 71.1389 13.6494 971 70.6107 385.649 545.98
529 0 74.2204 14.1336 1049 69.1983 385.872 545.752
530 0 75.1824 13.3409 1003 70.4447 385.608 543.669
531 0 80.1458 13.8747 1112 69.446 385.443 541.862
532 0 82.2075 14.3174 1177 69.2328 385.669 540.415
533 0 83.185 13.5601 1128 70.6152 385.793 538.791
534 1 45.1313 10.3919 469 71.6418 386.429 559.68
535 0 47.0985 12.6331 595 68.9042 386.639 557.513
536 0 50.129 12.2883 616 68.7386 386.859 557.711
537 0 50.1064 12.8526 644 69.7143 387.071 555.043
538 0 51.0651 12.9834 663 69.5943 386.792 554.178
539 0 54.1991 13.3212 722 68.9668 386.19 551.891
540 0 55.3808 13.5245 749 68.8959 385.84 552.275
541 0 56.281 13.3971 754 69.2958 385.828 552.034
542 0 60.2757 13.0899 789 69.1711 385.997 551.896
543 0 59.2678 12.9413 767 70.2934 385.555 550.739
544 0 62.1772 13.5741 844 69.3104 385.367 549.259
545 0 64.226 13.8418 889 68.5568 385.165 548.187
546 0 66.1399 13.3202 881 69.3598 385.183 547.628
547 0 68.1952 13.1534 897 69.2709 385.051 547.408
548 0 69.1518 13.709 948 69.2542 385.43 544.862
549 0 74.1921 13.6537 1013 68.5242 385.267 543.133
550 0 77.2192 13.9214 1075 67.9051 385.212 543.575
551 0 77.1676 14.7082 1135 67.9427 385.624 542.146
552 0 80.3757 14.8677 1195 67.9833 385.759 539.503
553 0 82.2621 14.3444 1180 69.2517 385.227 539.919
554 0 86.2218 14.3467 1237 69.1778 385.727 538.09
555 0 89.3773 14.187 1268 69.2823 385.181 537.432
556 0 91.2974 14.984 1368 68.9262 385.147 534.661
557 1 46.0945 10.5002 484 72.4421 385.517 558.731
558 0 48.1574 12.3968 597 70.7286 385.968 556.814
559 0 51.1157 12.6967 649 70.265 386.083 555.636
560 0 51.1716 12.7805 654 70.9526 385.416 555.049
561 0 53.1227 13.4594 715 70.4993 385.438 554.049
562 0 54.2204 13.0394 707 70.8416 385.281 552.922
563 0 57.1365 14.0366 802 69.1359 384.729 552.433
564 0 58.1632 12.6541 736 72.0815 384.462 551.323
565 0 60.2377 13.5463 816 71.038 384.485 551.165
566 0 60.2806 13.2547 799 72.035 383.92 550.731
567 0 64.3909 12.9677 835 72.7293 384.686 549.117
568 0 65.2096 13.9857 912 71.9792 384.549 549.091
569 0 67.3523 13.3923 902 72.9412 384.171 548.058
570 0 69.2878 13.6821 948 73.4947 384.002 546.343
571 0 72.2594 13.5346 978 74.1728 383.995 545.019
572 0 73.3395 13.6352 1000 74.215 384.016 545.006
573 0 77.2795 13.6906 1058 73.7647 384.283 544.255
574 0 79.143 15.0234 1189 72.0765 383.345 542.989
575 0 81.1499 13.6907 1111 75.0468 383.428 541.794
576 0 84.2083 14.286 1203 74.8736 383.395 540.057
577 0 85.2019 14.6945 1252 74.3722 383.072 538.667
578 0 88.1779 14.0398 1238 75.794 383.285 539.919
579 0 91.2791 13.6614 1247 76.6383 383.182 536.148
580 0 95.3734 13.9137 1327 75.9721 382.904 534.91
581 1 49.2274 11.5992 571 75.7601 383.483 557.879
582 0 51.1958 10.997 563 77.0142 383.428 557.593
583 0 52.2435 12.9968 679 74.1767 382.963 556.308
584 0 55.2706 12.9544 716 74.5168 382.696 554.363
585 0 56.2266 13.1077 737 74.1031 382.853 554.493
586 0 58.2267 13.3616 778 74.1722 382.884 553.411
587 0 61.2256 13.3441 817 73.814 382.716 551.871
588 0 62.2747 13.6974 853 73.1231 382.319 551.659
589 0 66.3794 14.387 955 71.4859 382.345 549.768
590 0 67.2611 13.4699 906 72.8863 382.109 550.838
591 0 70.211 13.8155 970 73.1021 382.192 548.151
592 0 72.2913 13.8329 1000 72.495 382.979 549.206
593 0 74.3526 14.5792 1084 72.1439 382.16 546.373
594 0 76.2558 13.7432 1048 73.0506 382.394 546.467
595 0 78.2698 13.7857 1079 72.1928 381.993 544.643
596 0 82.2039 14.4519 1188 70.1953 381.969 542.77
597 0 84.2079 13.8111 1163 71.27 382.268 540.888
598 0 88.3229 14.6621 1295 69.1259 382.349 541.907
599 0 90.2319 14.4517 1304 70.454 382.115 539.177
600 0 93.3263 13.9296 1300 71.1062 382.04 537.546
601 0 99.4185 14.0417 1396 69.1404 381.372 536.197
602 1 51.0961 12.2123 624 70.2292 382.308 558.595
603 0 54.0596 13.5961 735 67.0626 382.233 555.683
604 0 54.1968 12.6576 686 67.3761 381.526 556.238
605 0 56.3293 12.2672 691 67.6078 381.479 556.221
606 0 59.1573 13.574 803 65.6139 381.832 554.198
607 0 61.2 13.0882 801 67.3408 381.805 553.469
608 0 63.1811 12.4879 789 69.6996 381.645 552.066
609 0 66.246 12.4234 823 70.1203 382.091 551.412
610 0 67.2363 13.7723 926 68.3931 382.234 547.087
611 0 69.1173 14.338 991 68.1574 381.402 547.472
612 0 70.1082 12.4664 874 71.4542 381.872 545.807
613 0 72.1364 12.9477 934 70.9475 382.19 546.388
614 0 74.1491 13.0143 965 71.8114 382.066 545.548
615 0 78.2495 13.5975 1064 70.6974 382.144 543.209
616 0 78.1475 12.374 967 74.7353 381.849 541.466
617 0 81.2009 12.7338 1034 73.6228 382.393 540.493
618 1 44.1336 11.3972 503 72.829 382.461 560.672
619 0 43.2099 10.5531 456 73.3092 382.857 560.651
620 0 45.1631 11.2038 506 72.4585 382.561 561.682
621 0 47.2028 12.3298 582 70.6203 382.318 560.785
622 0 47.2607 12.1666 575 71.8035 382.416 558.988
623 0 50.1707 13.0753 656 70.3399 382.366 558.27
624 0 51.1675 13.0161 666 71.03 382.129 556.613
625 0 53.1174 12.6136 670 71.403 382.352 553.536
626 0 54.1383 12.7821 692 71.4566 382.081 553.191
627 0 54.114 13.065 707 72.5573 382.518 550.98
628 0 56.0669 13.2163 741 72.2901 382.123 550.667
629 0 58.1072 13.4407 781 72.4597 382.589 548.22
630 0 60.1307 12.7057 764 72.9071 382.657 549.873
631 0 65.1212 13.2522 863 69.978 382.788 548.699
632 0 66.1113 14.2487 942 68.897 382.586 547.502
633 0 67.0935 13.429 901 70.2741 382.68 546.438
634 0 70.1172 13.4774 945 69.9862 382.792 545.165
635 0 72.0655 14.4313 1040 68.6846 383.018 543.906
636 0 75.0918 13.2904 998 70.6002 383.08 541.747
637 0 79.1473 14.9974 1187 67.2384 383.15 539.821
638 0 80.0967 13.3464 1069 69.7587 383.894 538.097
639 0 84.1134 13.1489 1106 69.6112 383.875 538.424
640 1 46.1218 10.3855 479 70.5219 383.418 557.82
641 0 47.0533 11.2851 531 70.3936 383.68 555.525
642 0 48.0318 13.1371 631 68.6815 383.396 554.396
643 0 50.0204 12.175 609 70.7882 383.681 553.294
644 0 50.078 12.6802 635 69.8693 383.613 551.468
645 0 54.0468 13.0443 705 69.1305 383.628 550.702
646 0 54.0748 13.2039 714 68.8852 383.815 551.092
647 0 58.1723 14.1132 821 67.285 383.569 548.362
648 0 59.1721 13.5199 800 68.5512 383.938 548.41
649 0 61.2047 13.6754 837 68.2306 383.842 547.853
650 0 63.1899 13.6414 862 67.7146 383.78 547.404
651 0 63.1069 12.978 819 69.5458 383.713 546.043
652 0 66.2216 14.4968 960 66.6812 384.04 544.876
653 0 68.2684 13.7692 940 68.0723 383.964 543.087
654 0 70.3426 14.0171 986 67.9422 383.688 541.55
655 0 73.204 14.6167 1070 67.0364 383.8 539.55
656 0 76.3505 13.5166 1032 68.1609 383.858 540.008
657 0 78.358 13.7446 1077 68.2628 383.985 538.022
658 1 41.276 11.7744 486 70.5988 384.325 554.126
659 0 45.3405 11.557 524 69.0095 384.029 555.798
660 0 46.4736 12.7814 594 67.6902 384.266 553.074
661 0 46.3628 13.0493 605 67.8479 384.473 552.752
662 0 48.3047 12.711 614 68.4967 384.516 552.15
663 0 52.1867 13.8158 721 67.0194 384.411 549.112
664 0 54.3375 13.5818 738 66.6504 384.337 549.566
665 0 56.4703 12.9094 729 68.107 384.593 547.564
666 0 56.3679 13.2522 747 68.2343 385.052 547.009
667 0 58.3317 13.1318 766 68.3864 385.052 546.359
668 0 60.3461 13.5883 820 67.3927 384.996 546.751
669 0 61.446 13.5892 835 68.0922 385.079 544.431
670 0 65.4354 14.8543 972 65.499 385.022 543.107
671 0 67.4395 14.1312 953 66.3106 385.355 542.716
672 0 69.499 13.2664 922 67.32 385.394 542.157
673 0 71.5911 13.8984 995 66.2975 385.578 539.143
674 0 74.7031 13.3596 998 67.0992 385.947 537.462
675 0 75.6114 13.4503 1017 67.0147 386.271 536.895
676 0 78.4868 13.5564 1064 66.4004 386.113 536.187
677 0 81.6721 13.6399 1114 65.9282 386.008 535.741
678 0 83.8293 13.3247 1117 65.7681 386.199 536.125
679 0 87.6388 13.1677 1154 65.5078 386.679 535.305
680 0 91.5806 14.0204 1284 63.9502 386.326 530.362
681 1 44.6117 11.8355 528 65.0417 386.184 553.015
682 0 45.581 11.6496 531 65.4444 386.29 552.554
683 0 47.4788 12.0685 573 64.7906 386.243 551.934
684 0 49.181 12.2608 603 64.2736 386.078 550.645
685 0 52.3749 13.2697 695 63.7165 385.778 549.636
686 0 52.343 12.5518 657 65.2116 385.791 550.044
687 0 53.3861 12.0256 642 66.4735 385.709 546.674
688 0 55.4035 12.1292 672 66.4628 386.188 546.609
689 0 59.5447 14.2414 848 63.2205 385.982 545.546
690 0 60.4538 12.8197 775 65.7019 385.866 545.653
691 0 63.6689 13.5074 860 64.9593 386.181 543.845
692 0 65.6916 13.3959 880 65.5386 386.353 542.236
693 0 67.6334 13.9724 945 64.7185 386.263 542.45
694 0 70.7725 13.5787 961 65.5411 385.578 541.265
695 0 73.7976 13.3744 987 65.7822 385.725 540.512
696 0 73.5323 12.7563 938 67.6844 386.344 539.392
697 0 73.5323 12.7427 937 174.189 387.337 539.415
698 0 76.6982 12.9077 990 68.4394 385.537 537.864
699 0 81.9108 13.4414 1101 66.9991 385.644 538.054
700 0 83.8741 14.0687 1180 66.9653 385.29 534.73
701 0 86.8623 14.2755 1240 66.6419 384.796 532.802
702 0 89.6773 14.0727 1262 67.2298 384.719 532.37
703 0 93.0571 12.7556 1187 69.6335 384.714 532.468
704 0 93.076 13.4084 1248 69.847 384.811 531.279
705 0 96.856 12.8541 1245 70.3494 384.501 530.091
706 0 102.281 13.942 1426 69.2321 384.272 525.317
707 0 104.864 14.0086 1469 68.8012 383.939 525.673
708 0 107.776 13.7508 1482 69.305 383.933 523.924
709 0 113.956 14.1546 1613 68.1048 384.281 521.513
710 0 116.885 14.4074 1684 67.8747 383.558 519.09
711 0 122.191 14.1745 1732 67.8435 383.839 518.105
712 0 124.278 13.4617 1673 69.6222 383.939 515.842
713 0 130.023 14.0668 1829 68.4122 383.632 515.233
714 0 134.929 14.1334 1907 68.3356 383.691 513.24
715 0 136.831 13.988 1914 69.337 383.753 510.249
716 0 141.002 13.6097 1919 70.4179 384.08 508.6
717 0 146.874 13.5831 1995 70.3644 383.693 505.703
718 0 151.801 14.8155 2249 68.7652 383.163 504.059
719 0 156.144 13.9679 2181 70.3063 383 500.869
720 0 160.908 14.325 2305 69.6529 383.049 498.558
721 0 167.004 13.9278 2326 71.5752 382.838 497.055
722 0 173.018 14.5881 2524 70.5321 382.177 493.84
723 0 179.113 14.2759 2557 71.3856 382.093 490.788
724 0 184.986 14.7578 2730 70.3912 382.727 488.805
725 0 189.334 13.6056 2576 73.2512 382.396 487.266
726 0 195.863 14.2753 2796 70.8548 382.221 483.673
727 0 201.005 13.9847 2811 71.4141 382.594 481.882
728 0 210.008 15.0851 3168 70.0657 382.645 477.635
729 1 62.6073 11.676 731 70.699 382.341 547.272
730 0 66.8434 12.5667 840 68.4107 381.704 547.207
731 0 67.705 11.5501 782 69.9527 381.526 546.216
732 0 70.5498 12.7711 901 68.5361 382.205 541.029
733 0 74.6416 13.183 984 66.8984 381.987 541.929
734 0 75.7367 12.6095 955 67.7309 382.264 540.441
735 0 79.6509 12.7557 1016 66.5404 381.505 540.661
736 0 82.61 12.7466 1053 67.1235 381.347 537.858
737 1 46.4847 10.1324 471 66.3779 380.8 553.945
738 0 50.3918 9.0491 456 67.3202 381.048 553.439
739 0 51.3049 10.6423 546 65.7271 380.714 551.229
740 0 52.1278 10.1673 530 66.7491 381.211 549.615
741 0 53.1014 10.1504 539 66.8089 382.991 555.796
742 0 55.0589 12.1869 671 64.0984 382.452 553.8
743 0 58.047 11.6113 674 64.6142 382.847 551.938
744 0 60.0688 11.3204 680 64.6368 382.065 553.249
745 0 62.1218 11.735 729 64.3512 381.955 551.169
746 0 65.0772 11.8936 774 63.916 381.997 550.133
747 0 66.0481 12.2789 811 63.6005 381.652 548.919
748 0 66.1099 11.7834 779 64.4185 381.125 548.555
749 0 69.1525 12.1471 840 64.0607 381.671 542.017
750 0 71.182 12.2222 870 63.0874 381.206 540.349
751 0 73.3514 11.6699 856 64.2991 381.071 542.9
752 0 76.2136 13.1604 1003 62.8445 380.933 542.428
753 0 78.2434 12.4355 973 64.5293 380.629 540.896
754 0 79.172 13.0096 1030 64.4223 380.77 539.307
755 1 45.2554 9.45743 428 63.7687 381.463 560.313
756 0 46.1127 9.49847 438 64.2945 381.596 559.153
757 0 46.1138 10.6259 490 63.6061 381.643 557.808
758 0 48.0911 11.499 553 62.6962 381.875 557.566
759 0 49.1729 11.0833 545 63.0037 381.475 559.306
760 0 49.0831 11.0221 541 62.3346 380.946 558.447
761 0 50.2054 11.0546 555 62.3568 380.782 557.234
762 0 52.3522 10.7159 561 62.9501 379.754 558.043
763 0 53.3304 11.3631 606 63.8779 379.566 554.88
764 0 55.2744 11.6148 642 64.0732 379.773 554.707
765 0 56.5108 12.0862 683 63.6032 379.524 554.851
766 0 57.3303 11.4599 657 65.1674 378.973 552.239
767 0 60.4675 12.5522 759 62.8841 379.636 552.946
768 0 60.429 10.6571 644 65.8913 379.607 553.78
769 0 63.4715 12.3363 783 63.3589 379.492 552.922
770 0 64.4439 11.9173 768 64.0977 379.642 550.956
771 0 66.3516 11.8309 785 64.3567 379.297 550.874
772 0 67.4248 11.4943 775 64.3548 379.712 549.836
773 0 70.3303 12.484 878 61.7631 379.769 547.871
774 0 73.1864 11.0676 810 62.6383 379.298 549.519
775 0 74.3739 10.864 808 63.0334 379.47 548.98
776 0 77.286 12.6155 975 61.6564 379.79 545.384
777 0 77.3321 12.6209 976 62.5164 379.822 546.2
778 0 81.254 12.0979 983 62.4954 380.028 545.529
779 0 82.2969 12.4185 1022 62.638 380.207 541.264
780 0 87.2606 12.9956 1134 61.3289 380.221 541.257
781 0 87.4933 12.0466 1054 63.3918 380.283 538.223
782 0 92.3704 12.4607 1151 62.305 381.405 538.199
783 0 92.2016 12.2991 1134 63.5203 381.165 535.205
784 0 92.2016 12.2449 1129 146.644 381.174 535.199
785 0 99.2521 13.6924 1359 62.1531 381.457 531.138
786 0 101.208 12.6867 1284 63.8217 381.491 529.914
787 0 106.567 13.4 1428 62.3067 381.697 529.992
788 0 109.189 13.7468 1501 61.8701 381.765 528.282
789 1 59.253 10.3455 613 62.0848 382.096 553.742
790 0 59.253 10.4299 618 153.126 381.117 553.82
791 0 61.1328 11.336 693 60.7778 382.82 552.154
792 0 63.1162 11.0907 700 60.8529 382.796 552.427
793 0 65.1099 12.3944 807 59.6778 383.224 549.774
794 0 65.044 11.0541 719 62.5716 383.275 549.847
795 0 68.0488 13.167 896 59.7913 382.99 545.052
796 0 71.1399 12.9323 920 59.3554 383.097 546.343
797 0 74.1646 13.2948 986 58.5639 382.841 543.722
798 0 75.2113 12.5114 941 59.7343 383.307 543.759
799 0 76.1572 11.5025 876 61.1084 383.207 542.606
800 0 81.2487 12.2094 992 59.6139 383.294 540.943
801 0 84.2235 12.2056 1028 59.3424 383.455 540.05
802 0 87.2344 12.6785 1106 58.1781 383.685 538.068
803 0 90.2555 13.1405 1186 57.7327 383.663 537.815
804 0 90.2482 12.5543 1133 58.7679 383.402 536.365
805 0 94.3437 13.0692 1233 57.5783 383.44 535.431
806 0 97.2648 14.1161 1373 56.3897 383.672 530.918
807 0 99.2221 12.8802 1278 57.0266 383.257 529.646
808 0 102.17 13.2915 1358 56.7703 383.785 527.404
809 0 106.214 12.6348 1342 57.1878 383.699 528.639
810 0 110.247 13.4425 1482 55.9244 384.368 524.984
811 0 114.241 14.4606 1652 54.497 384.686 525.101
812 1 63.1017 10.2057 644 55.6056 385.697 553.89
813 0 63.0653 9.91036 625 56.5472 385.494 553.085
814 0 65.0728 11.4333 744 56.1237 385.628 550.849
815 0 66.1784 12.5267 829 54.5525 384.217 541.498
816 0 68.1018 12.4813 850 53.5259 384.996 541.909
817 0 70.2178 11.2365 789 55.2712 384.568 545.34
818 0 74.1056 14.7357 1092 51.2738 384.78 546.321
819 0 74.1943 12.1707 903 54.701 385.01 544.823
820 0 79.2022 13.3077 1054 52.6148 385.063 544.633
821 0 80.2927 13.3885 1075 53.4242 384.366 541.076
822 0 83.2017 12.644 1052 54.5456 384.201 539.793
823 0 84.1934 12.9583 1091 54.3978 384.041 539.652
824 0 88.1345 12.4696 1099 55.0282 384.365 539.201
825 0 90.3127 13.4422 1214 54.4893 384.248 537.068
826 0 93.3688 12.9808 1212 55.1881 384.342 535.451
827 0 95.1385 12.4976 1189 55.9033 384.416 536.061
828 0 97.2059 12.8593 1250 56.2656 383.824 533.266
829 0 101.32 12.9984 1317 55.6727 384.412 532.059
830 0 102.234 12.6084 1289 56.7998 383.909 527.905
831 0 107.158 13.2421 1419 55.9704 383.788 527.705
832 1 58.1496 9.76791 568 57.1285 385.153 554.04
833 0 62.0933 11.1767 694 56.2406 385.094 551.458
834 0 62.1285 12.2488 761 54.9133 384.283 551.627
835 0 65.1364 11.4836 748 56.5294 384.191 548.533
836 0 66.0607 12.3977 819 54.7289 384.131 546.652
837 0 68.0577 12.0486 820 54.939 383.812 549.223
838 0 71.1104 13.7814 980 53.1592 383.743 546.636
839 0 73.0704 12.2348 894 55.6667 383.326 545.973
840 0 74.1471 13.1226 973 54.9414 383.621 542.838
841 0 78.1532 12.6674 990 54.9354 383.388 543.071
842 0 81.1632 12.8014 1039 54.8807 382.71 542.726
843 0 81.1649 12.5301 1017 55.5152 383.349 539.641
844 0 85.1666 12.6693 1079 55.5792 383.138 539.177
845 0 87.1915 12.1572 1060 56.1745 382.964 537.281
846 0 91.2148 12.5199 1142 55.8004 382.652 535.263
847 0 97.199 14.6606 1425 53.1565 382.985 533.858
848 0 99.1881 12.2192 1212 56.0627 383.056 532.644
849 1 52.0472 8.53072 444 55.9257 384.014 557.144
850 0 55.0715 9.27885 511 55.0039 383.867 557.613
851 0 58.1139 11.4947 668 53.976 382.943 554.892
852 0 59.2276 11.8695 703 53.0697 382.935 554.627
853 0 61.3715 11.4385 702 53.5598 382.65 553.328
854 0 61.2625 11.3773 697 54.4978 382.938 551.693
855 0 63.1362 11.2297 709 54.6742 382.598 552.454
856 0 67.301 11.9315 803 54.2092 382.797 549.859
857 0 68.3006 11.4933 785 55.0968 383.025 548.975
858 0 71.3021 11.6967 834 54.964 382.942 547.731
859 0 71.3422 11.9845 855 54.8175 382.8 547.303
860 0 74.3717 12.4106 923 53.9144 382.703 544.173
861 0 75.2081 11.9801 901 54.162 382.784 546.249
862 0 79.2668 12.5273 993 53.7805 382.358 545.519
863 0 80.1429 11.729 940 55.7266 382.75 543.61
864 0 81.1518 12.4212 1008 55.5853 382.621 541.383
865 0 86.3261 13.31 1149 54.2071 383.016 538.654
866 0 88.2728 12.9598 1144 55.0918 382.115 537.163
867 1 47.1821 9.30437 439 55.6264 383.011 560.556
868 0 52.2787 10.4058 544 54.1195 382.7 559.061
869 0 51.2763 10.9407 561 55.3084 382.775 557.993
870 0 53.2346 11.4211 608 55.7303 382.087 555.801
871 0 55.1687 11.782 650 55.4877 382.105 554.865
872 0 57.1775 11.473 656 56.064 381.415 556.447
873 0 57.3175 11.2182 643 56.9253 381.757 554.222
874 0 60.236 11.787 710 56.138 381.928 553.148
875 0 60.2049 11.4775 691 57 382.274 552.274
876 0 62.1637 12.081 751 57.1305 382.177 549.971
877 0 65.28 11.4737 749 57.5167 381.959 551.146
878 0 65.27 11.3682 742 58.0256 382.194 549.811
879 0 68.1347 12.945 882 56.0227 381.739 548.985
880 0 68.1613 11.1647 761 58.2943 382.29 550.272
881 0 72.2761 11.6774 844 58.1066 382.134 547.684
882 0 73.2237 11.5263 844 58.5841 381.374 545.456
883 0 76.2326 12.0552 919 58.1513 381.995 545.276
884 0 79.176 13.249 1049 56.5071 381.675 547.651
885 0 82.2033 12.6029 1036 57.8842 381.831 544.415
886 0 82.256 13.4337 1105 57.8896 382.07 541.122
887 0 85.28 12.5821 1073 58.9637 382.431 540.387
888 0 88.1896 12.8246 1131 58.9805 382.156 540.345
889 0 90.2759 12.7166 1148 59.5767 382.073 539.408
890 0 94.2539 13.2833 1252 59.2508 382.121 537.929
891 0 93.2173 12.5942 1174 66.5528 382.108 534.466
892 0 95.2297 13.3572 1272 94.9135 381.82 534.698
893 0 102.306 13.616 1393 60.005 382.251 527.027
894 1 54.1635 11.5391 625 61.1008 383.01 548.555
895 0 58.0716 10.8487 630 61.827 383.471 547.338
896 0 59.0809 11.3065 668 61.7695 383.422 544.958
897 0 61.1299 11.7291 717 60.8159 383.651 544.697
898 0 61.1744 12.26 750 60.308 382.545 546.648
899 0 65.2611 12.948 845 59.5609 382.833 542.031
900 0 66.2494 12.3926 821 60.5225 384.112 544.057
901 0 69.2705 12.6461 876 60.5457 384.394 545.006
902 0 70.3327 12.5688 884 60.5328 384.778 545.006
903 0 74.3005 12.5302 931 60.8271 384.615 543.452
904 0 75.2978 13.2673 999 60.993 384.477 541.323
905 0 78.2779 12.7878 1001 61.7263 384.221 541.603
906 0 79.3476 13.3842 1062 61.7684 384.616 540.231
907 0 81.2065 13.0408 1059 62.8687 384.541 537.753
908 0 85.2838 13.3671 1140 62.0228 384.757 538.096
909 0 85.2204 13.4592 1147 62.6757 384.39 536.425
910 0 89.3759 12.5985 1126 64.3472 384.801 534.144
911 0 91.3522 14.1321 1291 62.6359 384.997 531.462
912 0 95.3594 13.0978 1249 65.1089 384.575 522.597
913 0 97.4351 13.2806 1294 65.2241 385.116 525.432
914 0 99.4483 13.9872 1391 64.7232 385.045 526.809
915 0 103.401 13.6943 1416 65.1525 385.222 526.011
916 0 106.313 13.7895 1466 65.2674 385.443 525.743
917 0 109.535 13.6578 1496 65.4365 385.714 521.774
918 0 117.395 18.5442 2177 57.723 385.796 514.594
919 0 126.503 17.5964 2226 57.9569 386.311 515.848
920 0 123.599 16.4079 2028 61.5459 386.246 516.577
921 0 123.598 13.7057 1694 66.3766 386.096 515.404
922 1 62.4087 10.9119 681 65.2628 386.843 548.811
923 0 63.2395 11.1955 708 65.0621 387.219 546.631
924 0 65.392 11.9892 784 65.3099 387.561 545.83
925 0 68.3666 13.5739 928 63.1972 387.248 542.952
926 0 69.3984 12.5075 868 64.9286 386.865 542.259
927 0 71.2972 13.1702 939 64.4132 387.356 540.625
928 0 74.3664 13.8503 1030 63.4534 387.518 539.935
929 0 76.4731 13.5211 1034 64.1489 386.944 539.692
930 0 79.3922 14.1198 1121 63.0937 386.908 537.862
931 0 82.3037 13.4745 1109 64.67 387.066 536.67
932 0 85.5091 13.6711 1169 64.2147 386.821 534.571
933 0 86.5388 12.8728 1114 65.9623 386.395 535.287
934 0 91.5212 12.5982 1153 65.693 385.886 533.814
935 0 94.4804 14.077 1330 63.9474 385.571 530.077
936 1 49.3588 11.6494 575 63.3426 385.631 553.868
937 0 51.4921 10.7395 553 63.6546 385.307 553.671
938 0 53.4558 12.1035 647 62.3771 385.181 551.923
939 0 54.3861 12.3377 671 62.6125 385.361 550.945
940 0 57.4494 12.1846 700 62.3329 385.639 550.153
941 0 59.3112 12.5946 747 61.8835 385.481 548.38
942 0 61.2373 12.574 770 62.7922 385.279 547.361
943 0 62.3792 11.9751 747 63.1473 385.199 547.357
944 0 65.4626 12.9692 849 61.0294 385.243 546.621
945 0 66.4322 13.8186 918 60.6819 384.504 544.124
946 0 68.3873 12.6778 867 61.5513 384.676 545.291
947 0 71.3796 12.7487 910 61.7758 384.342 543.178
948 0 72.5717 12.2362 888 62.3559 384.001 542.161
949 0 75.6185 12.5763 951 62.285 384.075 538.389
950 0 76.5288 12.0347 921 62.9283 383.959 539.033
951 0 81.49 12.2224 996 62.6034 383.525 538.7
952 1 43.3087 10.9216 473 60.3784 383.3 557.59
953 0 45.5057 10.2185 465 61.2538 383.563 558.239
954 0 46.4286 10.4031 483 60.9752 383.429 557.265
955 0 47.2554 12.0833 571 59.6165 383.21 555.736
956 0 47.1397 11.4765 541 61.2957 383.018 556.667
957 0 51.2355 12.9598 664 60.7199 383.998 555.143
958 0 51.407 12.9165 664 60.7726 384.44 553.824
959 0 52.4443 12.1272 636 62.4214 383.819 552.423
960 0 54.5341 12.2675 669 62.0628 383.511 553.274
961 0 54.5651 12.2789 670 62.7403 383.524 551.934
962 0 56.496 12.2841 694 62.1095 383.327 551.579
963 0 59.7694 12.7155 760 61.3303 383.709 550.882
964 0 59.3259 13.232 785 61.8675 383.423 548.843
965 0 61.576 13.3981 825 61.2194 383.373 549.235
966 0 61.664 12.9573 799 62.8974 383.598 546.368
967 0 63.6823 13.1748 839 62.615 383.625 546.474
968 0 65.5267 13.4602 882 62.0238 383.545 547.239
969 0 67.6702 13.5954 920 62.1196 383.227 543.141
970 0 69.5147 13.7669 957 62.4284 383.907 542.425
971 0 71.697 14.3939 1032 62.1386 383.665 542.757
972 0 72.4267 12.9924 941 64.4633 383.518 541.807
973 0 76.7535 13.1851 1012 63.4565 383.097 541.061
974 0 78.6108 14.1965 1116 62.3073 383.511 540.269
975 0 79.4554 13.5674 1078 63.4889 382.825 540.062
976 0 83.396 13.2261 1103 63.922 382.648 537.82
977 1 43.4663 9.75468 424 65.2877 383.04 558.54
978 0 45.3555 11.2886 512 64.1094 382.324 557.277
979 0 47.5459 12.3039 585 62.4154 382.54 556.272
980 0 48.3405 12.9705 627 61.7927 382.152 555.314
981 0 50.2066 12.2096 613 62.46 382.55 554.715
982 0 51.3349 12.662 650 61.9462 383.094 553.662
983 0 53.2152 12.1206 645 62.8589 382.891 552.895
984 0 55.2743 12.8269 709 61.7997 382.458 553.628
985 0 55.2644 12.2683 678 63.3156 382.226 550.882
986 0 58.2703 13.4889 786 61.3499 382.365 550.742
987 0 60.261 13.0267 785 62.107 382.354 548.668
988 0 60.2395 13.0811 788 62.1624 382.104 549.18
989 0 62.3106 12.5661 783 62.0536 382.304 550.185
990 0 62.1315 13.1817 819 62.6532 381.728 548.33
991 0 66.2968 13.0776 867 61.7762 381.856 548.048
992 0 69.1931 12.7036 879 62.5688 381.944 546.687
993 0 69.2301 13.1879 913 62.6648 381.912 545.801
994 0 72.3768 13.8995 1006 61.2535 381.684 543.635
995 0 74.3285 13.8574 1030 61.8583 382.039 544.496
996 0 76.274 14.1333 1078 61.3794 381.9 542.274
997 0 79.2632 13.4993 1070 62.3393 381.77 540.35
998 0 80.1912 12.9316 1037 63.7242 382.074 540.293
999 0 83.2854 13.1356 1094 63.3355 381.729 538.833
1000 1 49.209 10.2624 505 63.2871 382.331 558.768
1001 0 48.2068 11.907 574 62.9355 382.242 556.756
1002 0 50.3321 11.4042 574 63.7962 382.096 556.716
1003 0 53.226 12.306 655 61.6931 382.162 554.747
1004 0 55.2646 13.7882 762 59.5315 381.714 555.102
1005 0 56.0764 12.7683 716 61.7193 383.444 553.993
1006 0 57.0756 13.1405 750 61.412 383.1 552.303
1007 0 59.0637 13.1891 779 61.1926 383.58 550.811
1008 0 62.076 13.3707 830 60.512 383.542 551.53
1009 0 63.0994 13.1063 827 61.4353 383.664 550.571
1010 0 65.0904 12.9666 844 61.4799 383.273 550.395
1011 0 67.1515 12.9856 872 62.2947 383.036 551.13
1012 0 69.1462 12.9436 895 62.8581 382.855 549.374
1013 0 72.1286 13.3789 965 62.0073 382.291 547.708
1014 0 75.1298 13.2304 994 62.4618 382.806 545.85
1015 0 76.0893 13.195 1004 62.4502 382.622 545.555
1016 0 78.1015 13.2776 1037 62.8727 382.643 544.174
1017 0 82.0672 13.2452 1087 62.0607 382.516 544.981
1018 0 86.2341 13.5213 1166 61.8396 382.626 540.455
1019 0 87.2262 12.909 1126 63.2407 382.465 540.142
1020 0 87.2262 12.8631 1122 153.496 382.465 540.125
1021 1 49.2236 10.0155 493 62.4767 382.318 561.168
1022 0 50.2742 9.66698 486 63.2695 382.319 559.735
1023 0 52.2423 10.7767 563 62.2966 382.462 559.471
1024 0 53.1791 11.9596 636 61.8349 382.368 556.462
1025 0 56.2585 11.7138 659 62.0895 382.354 555.754
1026 0 57.2558 12.0337 689 61.3411 383.028 554.792
1027 0 60.2086 11.6761 703 61.5676 382.768 554.027
1028 0 61.2707 12.4366 762 61.185 383.322 553.041
1029 0 63.2349 12.1136 766 61.7768 383.32 550.988
1030 0 65.2617 12.4729 814 61.8489 383.58 550.173
1031 0 65.2019 12.1009 789 62.6109 383.523 550.313
1032 0 69.1704 11.9415 826 62.1029 383.737 550.527
1033 0 70.2128 11.9779 841 61.975 383.328 548.591
1034 0 72.2179 11.673 843 62.847 384.155 545.771
1035 0 74.2224 12.0584 895 62.5788 384.292 546.794
1036 0 76.2346 12.1861 929 64.2745 384.492 545.936
1037 0 78.1338 12.6322 987 64.9929 384.733 544.811
1038 0 82.1931 12.8235 1054 65.0797 385.621 542.505
1039 0 82.1605 13.2667 1090 65.1413 385.238 540.691
1040 0 86.1153 13.2032 1137 63.9789 385.978 538.58
1041 0 89.1626 13.8062 1231 63.5751 386.128 539.349
1042 0 92.2179 12.362 1140 66.6623 386.583 536.564
1043 0 93.153 13.1719 1227 66.5558 386.488 534.288
1044 1 53.0787 10.8518 576 67.2431 387.151 558.415
1045 0 53.1015 9.84907 523 68.0727 387.294 558.059
1046 0 56.1534 10.4535 587 66.6985 387.606 554.508
1047 0 58.1402 11.6271 676 64.9186 387.698 553.099
1048 0 60.1293 12.4897 751 63.6831 387.493 552.811
1049 0 63.0859 12.3324 778 64.2159 388.103 552.207
1050 0 64.1182 12.1026 776 65.4961 388.116 550.807
1051 0 65.1127 12.6703 825 64.6945 387.741 550.535
1052 0 66.0989 12.9654 857 66.0012 388.064 547.777
1053 0 68.1636 13.3942 913 66.678 387.692 545.077
1054 0 71.1795 13.5994 968 66.2769 388.424 546.166
1055 0 74.0858 13.7003 1015 65.1251 388.162 544.79
1056 0 76.19 13.5582 1033 65.788 387.853 544.833
1057 0 78.1062 13.5457 1058 66.4868 388.009 544.19
1058 0 79.1969 13.0182 1031 67.8894 387.735 541.629
1059 0 82.161 13.7657 1131 67.5606 387.393 539.908
1060 0 85.1918 14.3676 1224 66.2802 387.06 539.263
1061 0 86.1799 14.1332 1218 67.3555 386.864 537.709
1062 0 89.2816 14.2135 1269 67.2774 387.193 536.388
1063 0 91.1775 14.3127 1305 67.564 386.624 536.747
1064 0 95.337 14.0974 1344 68.1615 386.885 534.284
1065 0 99.3235 14.7296 1463 67.566 387.29 532.191
1066 0 99.2868 14.3322 1423 68.546 386.916 530.925
1067 1 55.1993 10.761 594 72.2559 386.603 553.776
1068 0 55.2406 10.8616 600 71.7133 386.615 553.842
1069 0 57.4069 10.6433 611 72.6448 386.938 552.552
1070 0 60.2235 12.2876 740 69.927 386.157 552.309
1071 0 60.1476 12.5026 752 70.8045 385.924 550.677
1072 0 63.2427 13.0924 828 69.0833 386.104 550.958
1073 0 62.2425 13.0297 811 69.6412 386.242 549.249
1074 0 64.1856 12.9157 829 69.93 386.185 548.608
1075 0 67.2889 13.6873 921 68.8067 385.774 547.109
1076 0 67.2589 12.9648 872 70.281 385.641 545.698
1077 0 70.182 13.2085 927 69.9299 385.329 544.077
1078 0 74.2726 14.2179 1056 67.6098 385.605 542.028
1079 0 76.218 13.3302 1016 69.372 385.158 540.565
1080 0 77.1868 13.3054 1027 69.6904 385.166 540.574
1081 0 81.2321 13.8615 1126 68.1483 384.799 539.9
1082 0 83.1408 13.7598 1144 68.5306 384.666 539.421
1083 0 84.2261 13.2501 1116 69.5833 384.554 536.432
1084 0 88.3297 13.5062 1193 68.7192 385.046 535.032
1085 0 89.2444 13.5247 1207 68.9329 385.417 533.609
1086 0 92.1839 12.7897 1179 69.9763 385.17 532.872
1087 1 52.0626 9.83431 512 71.2617 385.822 554.795
1088 0 52.099 11.1135 579 70.62 385.801 552.035
1089 0 55.0456 12.2807 676 67.9083 385.775 553.107
1090 0 56.1546 11.6286 653 68.7917 385.723 551.882
1091 0 59.0756 12.374 731 68.067 385.668 551.488
1092 0 60.0799 11.9175 716 69.2709 385.663 549.281
1093 0 63.2074 13.4636 851 66.9318 384.702 548.971
1094 0 64.2492 12.9963 835 67.7988 384.789 548.697
1095 0 66.1915 12.7358 843 68.2823 384.805 548.229
1096 0 69.2075 13.4667 932 66.4571 384.44 546.727
1097 0 71.2252 13.7592 980 66.0796 384.485 545.753
1098 0 72.1213 12.8949 930 67.9409 385.027 542.505
1099 0 75.2414 13.5829 1022 66.2427 384.935 542.873
1100 0 76.2153 14.0261 1069 66.3283 384.327 541.706
1101 0 77.2582 13.5778 1049 67.5891 384.211 539.394
1102 0 82.2959 13.3664 1100 67.0282 384.329 539.878
1103 0 83.2828 13.8084 1150 66.9009 383.743 539.57
1104 0 86.3182 13.5429 1169 67.1497 383.709 537.642
1105 0 86.3182 13.5197 1167 153.662 383.709 537.703
1106 0 93.3494 14.8689 1388 65.2298 383.135 534.645
1107 0 95.3715 14.2286 1357 66.7111 383.626 532.426
1108 0 98.3812 14.2913 1406 66.2774 383.714 531.952
1109 0 100.396 13.6161 1367 68.0161 383.76 529.392
1110 0 104.457 14.5322 1518 66.4262 383.486 528.606
1111 0 107.348 13.6192 1462 67.8748 383.834 526.44
1112 1 56.3925 11.0476 623 68.5714 384.674 552.117
1113 0 58.3033 10.7026 624 68.8397 384.367 552.47
1114 0 61.2834 11.9608 733 67.1951 384.546 550.191
1115 0 64.2421 12.8109 823 65.5674 384.529 548.406
1116 0 67.4352 12.9902 876 64.8345 383.704 548.68
1117 0 68.3121 14.4484 987 63.4752 383.511 546.781
1118 0 70.33 13.5931 956 64.9372 383.198 546.592
1119 0 70.7178 12.3731 875 67.9886 382.971 545.318
1120 0 75.4981 13.8679 1047 65.5969 382.679 543.557
1121 0 77.3552 13.4057 1037 66.8939 382.657 543.223
1122 0 78.3576 13.7702 1079 67.5885 382.536 541.154
1123 0 79.3939 12.6206 1002 68.9361 383.004 540.149
1124 0 82.3969 13.5442 1116 67.9803 382.737 540.552
1125 0 84.4636 13.4614 1137 68.7089 382.908 537.755
1126 0 89.5626 14.0349 1257 66.9554 382.838 535.89
1127 0 91.514 13.8886 1271 68.0378 383.008 535.284
1128 0 96.4512 14.3596 1385 67.6303 383.078 533.055
1129 0 97.4133 13.4273 1308 69.8433 383.486 530.403
1130 0 101.799 14.2143 1447 68.3614 383.226 530.71
1131 0 102.516 13.6954 1404 69.7585 383.365 530.282
1132 0 107.361 14.7913 1588 68.5164 382.97 528.532
1133 1 57.4242 11.1103 638 70.3166 383.025 554.489
1134 0 58.4922 12.4803 730 70.0192 382.741 552.311
1135 0 60.4496 11.6957 707 71.0566 382.45 549.537
1136 0 62.4967 13.4727 842 68.215 383.119 549.567
1137 0 64.4043 13.0892 843 70.6168 382.614 549.961
1138 0 66.5651 13.4455 895 70.0726 382.869 547.383
1139 0 67.5529 12.8492 868 71.4505 383.167 547.526
1140 0 69.6431 12.8369 894 71.7438 382.869 544.878
1141 0 71.5129 13.4381 961 71.4152 383.767 544.529
1142 0 74.634 13.3987 1000 72.469 383.61 543.209
1143 0 76.7395 13.7478 1055 72.0607 383.648 542.552
1144 0 78.6746 13.8164 1087 72.1463 383.8 541.443
1145 0 80.5368 13.5466 1091 72.8946 383.776 540.759
1146 0 83.7628 13.8486 1160 72.2353 383.802 539.497
1147 0 87.5821 13.7471 1204 71.9385 383.764 539.107
1148 0 89.4439 14.4672 1294 71.5147 383.855 536.311
1149 0 91.4913 13.6953 1253 73.3464 384.504 535.312
1150 0 95.6889 13.3767 1280 73.1031 384.773 533.986
1151 0 98.5413 13.4157 1322 73.587 384.688 532.166
1152 0 100.877 13.8684 1399 72.7405 384.987 529.833
1153 0 103.603 13.9958 1450 72.1759 385.148 529.841
1154 1 59.4449 11.5569 687 73.4891 385.121 551.951
1155 0 61.3416 12.6668 777 72.6075 385.445 550.23
1156 0 63.4427 13.0669 829 71.4584 386.251 549.485
1157 0 65.4671 12.7239 833 71.6194 386.777 549.014
1158 0 66.3473 13.7458 912 70.648 387.174 547.173
1159 0 68.2244 14.3057 976 69.3525 386.991 545.59
1160 0 69.5354 13.5471 942 70.8854 387.27 544.102
1161 0 74.6551 14.3728 1073 68.5601 386.215 543.17
1162 0 76.5467 13.1162 1004 70.8237 387.111 542.641
1163 0 78.6039 14.0324 1103 69.2675 387.681 542.428
1164 0 81.557 13.5856 1108 69.7662 388.26 540.338
1165 0 83.5785 13.5202 1130 70.3584 388.16 537.795
1166 0 86.422 14.0473 1214 69.2405 387.821 538.231
1167 0 89.5558 13.6228 1220 69.6746 388.244 536.937
1168 0 91.6098 13.3938 1227 70.8174 385.347 533.575
1169 0 95.6901 13.0421 1248 70.3237 385.714 533.996
1170 0 96.4155 13.4937 1301 70.5942 386.133 532.709
1171 1 54.5108 12.1077 660 72.1318 386.567 553.936
1172 0 54.5055 11.8153 644 72.3292 387.669 552.975
1173 0 57.4381 12.4656 716 72.081 387.584 550.909
1174 0 58.3254 13.2018 770 71.0377 388.3 547.456
1175 0 59.2424 13.1325 778 71.1889 388.23 547.825
1176 0 63.2814 13.5585 858 71.4697 388.374 546.371
1177 0 63.2186 14.2838 903 71.6047 388.291 547.105
1178 0 66.2207 13.8929 920 72.2141 388.062 545.514
1179 0 69.2449 14.6148 1012 70.8972 387.872 544.285
1180 0 71.2842 13.9863 997 72.7061 387.578 542.464
1181 0 71.307 14.3604 1024 73.1748 387.592 541.218
1182 0 76.2626 14.5812 1112 72.4928 387.585 541.75
1183 0 77.3016 14.6957 1136 72.794 388.023 541.803
1184 0 78.3459 14.8572 1164 73.0911 387.643 539.985
1185 0 82.4275 14.995 1236 72.8163 387.646 539.196
1186 0 84.2799 14.3925 1213 74.2374 387.796 538.005
1187 0 87.4331 14.3996 1259 74.7284 387.319 538.06
1188 0 89.4185 13.845 1238 76.3449 387.174 535.992
1189 0 94.452 14.5577 1375 74.5273 387.204 533.952
1190 0 96.2597 14.3258 1379 75.4453 387.17 530.487
1191 0 99.5105 14.4507 1438 75.6565 387.771 529.638
1192 1 54.4764 12.0236 655 79.6305 387.081 551.966
1193 0 56.2839 12.6857 714 78.7381 387.458 551.165
1194 0 58.2479 13.3395 777 78.3861 386.839 550.628
1195 0 59.0943 13.0808 773 79.9069 385.988 548.629
1196 0 61.1455 13.7377 840 78.6274 386.021 548.549
1197 0 62.3309 13.7492 857 79.3151 386.342 547.31
1198 0 65.1754 14.8062 965 77.5067 386.181 545.446
1199 0 67.2325 14.725 990 77.2576 386.158 545.194
1200 0 69.1545 14.8942 1030 77.2718 386.39 544.915
1201 0 71.2617 14.1871 1011 78.5381 385.565 544.59
1202 0 73.2754 14.889 1091 77.165 385.897 544.286
1203 0 77.3434 14.83 1147 76.8657 385.719 542.035
1204 0 78.3674 15.4656 1212 76.1279 385.448 542.724
1205 0 81.4732 14.7779 1204 77.8513 385.335 539.9
1206 0 85.2638 15.9036 1356 75.3577 385.243 539.483
1207 0 88.2204 14.9625 1320 77.3735 385.62 537.759
1208 0 91.2577 15.3302 1399 76.7262 385.308 536.509
1209 0 92.4129 15.1927 1404 77.312 384.969 534.469
1210 0 96.2267 14.736 1418 76.9499 385.004 533.8
1211 0 100.3 15.3739 1542 75.4825 384.677 531.861
1212 0 105.253 15.4105 1622 75.479 384.478 529.572
1213 0 107.274 15.26 1637 75.7899 384.79 528.205
1214 1 56.1404 12.8606 722 77.1662 384.755 555.132
1215 0 57.1244 12.7616 729 77.7833 384.794 554.905
1216 0 58.1607 12.8265 746 78.0107 384.646 552.842
1217 0 62.1015 14.3475 891 75.2795 384.064 551.047
1218 0 62.1152 13.9418 866 75.9815 384.1 551.998
1219 0 64.172 13.8846 891 76.0707 383.898 549.961
1220 0 67.1603 13.9964 940 75.166 383.61 549.369
1221 0 70.2464 14.3637 1009 73.8771 383.753 549.056
1222 0 73.1337 14.6717 1073 73.5005 383.39 547.473
1223 0 75.2289 14.0106 1054 74.9307 383.88 544.802
1224 0 77.3393 13.8998 1075 74.4549 383.946 546.041
1225 0 80.1962 14.2027 1139 74.2774 383.455 544.59
1226 0 81.1493 14.2577 1157 74.6776 383.346 543.077
1227 0 86.3803 14.8877 1286 72.7263 383.618 541.292
1228 0 88.434 14.3158 1266 73.6493 383.015 541.573
1229 0 88.434 14.3158 1266 170.459 383.015 541.573
1230 0 94.441 14.5594 1375 73.3549 383.012 538.444
1231 0 97.3829 14.8075 1442 72.9639 382.839 538.137
1232 0 98.484 14.3069 1409 74.3903 383.046 536.053
1233 0 102.532 13.9469 1430 75.0469 382.424 536.156
1234 0 105.473 14.5914 1539 74.2378 382.598 533.088
1235 0 108.41 14.7864 1603 74.4217 382.68 530.136
1236 1 60.4084 12.2831 742 77.1038 382.619 555.321
1237 0 62.1841 13.1223 816 75.6765 382.635 554.888
1238 0 62.4186 12.5924 786 76.9809 382.443 555.188
1239 0 64.4793 13.2911 857 77.063 382.863 552.958
1240 0 68.3279 13.4645 920 76.388 382.347 551.592
1241 0 69.3145 13.7778 955 76.7016 382.826 551.443
1242 0 72.2043 14.2789 1031 75.1339 382 549.615
1243 0 73.4264 13.7417 1009 76.3191 382.844 548.899
1244 0 79.2476 14.5872 1156 74.5874 382.826 546.493
1245 0 82.4362 14.5931 1203 74.5586 383.157 547.361
1246 0 84.286 14.4508 1218 75.4245 383.145 543.938
1247 0 87.4345 14.2392 1245 76.2353 383.199 543.542
1248 0 91.41 15.1625 1386 76.3124 383.015 541.435
1249 0 92.2893 14.4762 1336 78.8271 383.157 540.656
1250 0 95.1184 14.4031 1370 79.3263 383.147 539.409
1251 0 99.3009 14.5517 1445 79.0685 382.945 536.324
1252 1 53.182 12.429 661 82.9849 382.814 559.298
1253 0 57.2126 12.4273 711 82.8931 382.927 558.501
1254 0 57.2033 12.3594 707 84.5403 383.273 557.552
1255 0 61.1858 13.4181 821 83.2156 383.096 554.949
1256 0 63.1712 13.8512 875 82.8674 382.943 553.678
1257 0 65.1303 14.1562 922 82.5423 383.438 551.614
1258 0 67.4327 14.014 945 82.0011 383.57 550
1259 0 70.3677 13.8274 973 82.0976 383.915 548.918
1260 0 72.2079 14.4721 1045 81.0086 383.373 547.5
1261 0 76.3527 14.2366 1087 81.7305 383.844 545.649
1262 0 77.4169 14.7513 1142 81.1734 383.426 544.567
1263 0 81.497 14.5895 1189 80.7628 384.087 543.066
1264 0 83.3437 15.0461 1254 80.3852 384.067 540.355
1265 0 87.2194 14.5839 1272 81.2288 384.523 538.614
1266 1 48.3131 11.9636 578 84.5692 384.465 557.488
1267 0 49.2308 12.6344 622 84.9019 384.331 555.267
1268 0 50.4713 13.0173 657 83.624 384.919 555.486
1269 0 51.3337 13.7337 705 82.7773 384.803 554.692
1270 0 54.4705 13.5119 736 82.9334 384.745 552.057
1271 0 55.3718 13.6712 757 83.4993 385.115 551.196
1272 0 58.2033 14.037 817 82.0624 385.775 551.204
1273 0 59.4616 14.3958 856 81.3995 386.195 549.947
1274 0 61.4973 14.4559 889 81.2238 386.151 548.489
1275 0 64.3953 14.5352 936 80.1645 385.271 547.844
1276 0 66.491 15.19 1010 78.7911 386.553 546.947
1277 0 69.5435 15.271 1062 78.2335 386.98 544.827
1278 0 70.4426 15.3884 1084 77.9963 387.03 543.421
1279 0 70.4361 14.5664 1026 80.2222 387.547 544.001
1280 0 72.4096 14.7356 1067 80.6223 387.776 542.549
1281 0 75.5492 14.7189 1112 79.9362 387.891 541.432
1282 0 78.4079 15.0878 1183 79.0516 386.996 540.336
1283 0 81.3932 15.0258 1223 78.9967 387.197 538.429
1284 0 86.5378 14.9992 1298 77.661 388.302 537.38
1285 0 87.4878 15.0078 1313 78.591 387.851 538.01
1286 0 90.3811 15.8108 1429 76.7929 387.139 534.658
1287 0 92.3304 14.3073 1321 80.2725 387.842 534.447
1288 0 94.5315 14.6935 1389 78.6919 387.911 534.652
1289 0 97.4425 14.3675 1400 79.6964 388.096 532.462
1290 0 100.552 14.5795 1466 79.4973 388.22 530.932
1291 0 103.411 14.7179 1522 78.772 388.055 529.281
1292 0 108.33 14.4466 1565 78.6748 388.323 527.304
1293 0 113.442 14.8534 1685 76.9306 388.273 526.018
1294 1 68.2714 12.5675 858 79.4406 388.913 546.993
1295 0 70.1492 12.8726 903 78.7298 389.027 545.986
1296 0 71.2457 13.5306 964 78.4066 388.795 544.197
1297 0 75.3022 14.4352 1087 77.506 388.864 542.894
1298 0 76.2006 13.6744 1042 78.6123 389.065 541.413
1299 0 80.3122 14.2195 1142 76.9229 388.655 539.72
1300 0 84.1039 14.6248 1230 75.1951 389.164 537.389
1301 0 87.1882 14.6694 1279 75.0305 388.632 536.329
1302 0 89.1224 15.1814 1353 74.4745 388.982 535.024
1303 0 91.2433 14.6751 1339 75.5855 388.452 533.719
1304 0 95.1944 14.3811 1369 75.5822 388.312 532.091
1305 0 99.3187 15.0123 1491 73.8719 388.573 530.064
1306 0 103.194 14.2063 1466 74.7353 388.413 530.573
1307 0 107.226 15.3227 1643 73.1929 388.217 527.519
1308 0 109.344 14.9345 1633 73.902 387.879 525.487
1309 0 112.266 14.6437 1644 74.6393 388.105 523.178
1310 0 117.217 15.2709 1790 73.2648 388.051 520.912
1311 0 121.186 14.4984 1757 73.9169 387.923 519.394
1312 1 66.0767 11.3656 751 74.6778 388.459 546.991
1313 0 69.0976 12.5764 869 73.2405 387.629 543.914
1314 0 71.1806 12.967 923 72.5222 387.281 543.566
1315 0 77.2005 13.2123 1020 70.7245 386.738 542.073
1316 0 76.1194 12.8745 980 72.848 386.023 542.991
1317 0 79.1525 12.5454 993 72.9033 386.162 541.504
1318 0 80.1242 12.5305 1004 73.6016 386.239 539.511
1319 0 85.1586 12.7292 1084 72.5996 386.112 537.252
1320 0 90.1961 13.2822 1198 71.0359 385.466 535.811
1321 0 91.132 13.4311 1224 71.7712 385.398 534.865
1322 0 95.2122 14.2209 1354 70.1854 385.381 531.36
1323 0 99.3824 13.4531 1337 71.0628 385.403 531.666
1324 0 100.314 13.1287 1317 71.0759 385.295 530.303
1325 0 104.085 13.3256 1387 70.8104 385.034 528.231
1326 1 61.0843 10.1335 619 67.8853 384.735 552.036
1327 0 63.0968 10.6028 669 66.6442 384.188 550.839
1328 0 64.1732 10.9703 704 66.4205 384.033 549.739
1329 0 66.247 11.2458 745 66.1396 383.428 549.407
1330 0 66.3088 11.0694 734 66.1226 383.298 549.781
1331 0 71.1658 11.1008 790 65.8 383.422 546.201
1332 0 72.1519 11.3788 821 64.9123 383.699 545.965
1333 0 74.1634 11.5691 858 62.8228 384.277 547.655
1334 0 74.2304 10.4809 778 66.2828 384.618 548.324
1335 0 75.2214 11.3133 851 66.5911 384.12 545.599
1336 0 77.1659 10.5487 814 66.5737 384.353 544.865
1337 0 81.329 11.3244 921 65.6504 384.053 544.087
1338 0 83.2669 11.4691 955 65.7079 384.085 542.824
1339 0 84.2471 10.3742 874 67.2803 384.405 542.12
1340 0 85.3885 11.0905 947 66.2049 384.328 541.411
1341 0 90.3534 11.4218 1032 65.1047 384.321 540.035
1342 0 92.1526 10.7431 990 65.9293 385.055 538.352
1343 0 95.4004 11.2578 1074 65.0298 384.202 536.963
1344 0 96.4669 10.7913 1041 65.9039 384.624 535.711
1345 0 99.3263 9.46375 940 67.3415 384.398 533.19
1346 0 104.458 10.5784 1105 66.2 384.177 530.535
1347 1 59.3931 8.75522 520 62.9558 384.463 555.762
1348 0 60.1737 8.64165 520 63.0365 383.59 556.065
1349 0 62.3258 10.8944 679 60.6834 383.878 553.367
1350 0 63.3624 10.1006 640 62.6812 382.981 554.08
1351 0 63.2088 9.53982 603 64.3665 382.784 551.526
1352 0 66.3369 10.4618 694 63.5144 382.344 551.022
1353 0 70.4747 10.7272 756 62.5026 382.431 552.148
1354 0 69.2819 10.7965 748 63.8302 382.231 549.27
1355 0 72.4132 9.65294 699 65.1202 382.136 549.785
1356 0 75.3056 12.27 924 62.421 382.202 545.089
1357 0 77.2824 11.6197 898 64.2004 381.794 545.532
1358 0 77.3266 10.1388 784 67.1798 381.657 546.159
1359 0 79.497 9.24563 735 68.2571 381.624 545.165
1360 0 83.4308 10.5357 879 67.0091 382.171 542.014
1361 0 85.5314 10.9083 933 66.6892 382.328 541.819
1362 0 87.4911 10.6754 934 67.9572 381.85 540.104
1363 0 91.4916 11.1704 1022 67.772 382.155 540.428
1364 0 92.5911 10.8974 1009 68.7721 382.201 538.901
1365 0 96.6201 12.0058 1160 66.9276 382.059 536.404
1366 1 55.3299 8.24148 456 67.0965 382.305 560.033
1367 0 55.24 8.61694 476 66.9517 382.41 559.908
1368 0 58.4205 9.26045 541 66.1183 382.129 559.089
1369 0 62.7938 11.0361 693 64.4762 381.675 550.066
1370 0 62.5727 10.1802 637 65.876 381.909 549.05
1371 0 64.5207 10.3688 669 65.5067 381.365 547.511
1372 0 72.9753 17.362 1267 52.3473 381.224 538.763
1373 0 74.8128 14.6499 1096 56.4234 382.124 539.578
1374 0 72.4793 13.6177 987 59.8571 381.579 544.289
1375 0 75.4927 13.4582 1016 60.0945 381.787 543.551
1376 0 75.5296 12.5911 951 62.5499 381.381 544.192
1377 0 76.8108 11.678 897 65.1427 381.763 543.27
1378 0 77.7251 11.7723 915 66.0186 381.861 540.972
1379 0 78.3421 12.1008 948 65.9916 381.742 540.596
1380 0 80.3396 11.775 946 66.3108 381.79 540.754
1381 0 80.398 11.468 922 66.3427 381.36 540.618
1382 0 83.4978 11.6171 970 63.2763 381.259 536.599
1383 0 84.5896 12.2355 1035 62.0425 381.612 537.406
1384 0 87.5021 12.5597 1099 64.9099 381.742 535.806
1385 0 87.5917 11.5194 1009 66.224 381.956 534.091
1386 0 92.6543 12.1743 1128 65.4592 381.606 531.704
1387 0 94.7859 12.7762 1211 63.5541 381.954 533.328
1388 0 98.5558 12.7846 1260 64.2317 382.36 529.95
1389 1 53.4984 10.6358 569 65.5448 382.364 553.51
1390 0 56.5257 10.1901 576 65.3819 382.703 550.405
1391 0 58.4782 10.8758 636 64.0063 382.267 551.577
1392 0 56.6755 10.2866 583 64.8285 383.087 547.362
1393 0 59.2377 11.5129 682 62.3944 383.487 545.342
1394 0 63.4256 11.746 745 60.7826 382.431 547.944
1395 0 63.4051 11.6079 736 61.5136 382.336 550.523
1396 0 65.5013 12.3967 812 60.4926 383.326 546.11
1397 0 65.4845 11.957 783 60.8646 383.192 546.424
1398 0 69.3773 12.223 848 60.487 383.374 543.781
1399 0 69.5196 12.3275 857 61.7316 383.772 544.295
1400 0 71.7668 12.9029 926 60.7462 383.703 542.571
1401 0 73.7483 13.2884 980 59.7776 384.223 542.764
1402 0 76.8042 13.3977 1029 59.4023 384.033 542.772
1403 0 79.9599 12.6939 1015 60.2138 384.395 541.391
1404 0 80.5743 13.23 1066 59.9944 384.905 540.201
1405 0 83.6104 12.9768 1085 59.0525 385.111 538.964
1406 0 84.7955 12.8191 1087 59.1012 385.171 536.912
1407 0 86.7935 12.8351 1114 59.5566 385.786 534.938
1408 0 91.6068 13.8527 1269 57.74 385.56 533.754
1409 0 91.7171 13.0728 1199 59.2352 385.685 535.608
1410 0 95.5023 12.9002 1232 59.6412 385.899 533.838
1411 0 99.5854 13.6165 1356 58.2714 386.507 531.614
1412 0 102.516 12.8078 1313 59.2765 386.842 529.639
1413 1 59.5258 10.2141 608 58.148 386.081 551.732
1414 0 62.5728 9.52491 596 60.5168 386.827 548.799
1415 0 62.5664 10.1172 633 59.1817 386.457 551.7
1416 0 63.5244 10.8777 691 60.3459 387.275 548.492
1417 0 66.2157 11.674 773 57.784 387.279 546.031
1418 0 69.2718 11.8807 823 57.7667 387.603 545.203
1419 0 69.2147 12.2662 849 57.6137 387.747 538.095
1420 0 73.3058 12.4138 910 56.8088 387.154 543.047
1421 0 74.2289 12.2998 913 57.5422 387.196 542.238
1422 0 76.2576 13.2577 1011 56.2285 387.201 541.216
1423 0 77.3619 11.7887 912 58.3805 387.681 538.498
1424 0 80.2065 12.393 994 57.0815 388.352 541.543
1425 0 83.2715 11.8408 986 57.1136 388.493 543.034
1426 0 86.2195 12.7117 1096 56.4005 388.134 539.127
1427 0 89.3837 12.7204 1137 56.7458 388.337 536.142
1428 0 91.7305 12.504 1147 56.6033 388.042 534.19
1429 0 92.5759 11.7417 1087 57.3735 388.077 532.22
1430 0 98.5802 13.1974 1301 55.2175 387.111 529.609
1431 1 54.2857 10.0395 545 56.3688 386.82 552.782
1432 0 54.3197 10.2357 556 56.1709 386.714 552.779
1433 0 55.3635 11.5961 642 55.1854 386.953 553.402
1434 0 59.0761 11.409 674 55.2122 388.533 555.855
1435 0 58.1099 12.1322 705 56.1887 387.494 553.391
1436 0 61.2342 11.6928 716 56.1592 388.154 552.191
1437 0 62.2644 11.5475 719 57.3268 387.933 550.726
1438 0 63.3146 12.1141 767 56.8996 387.777 551.589
1439 0 65.1348 12.2976 801 56.3296 387.094 549.896
1440 0 68.2107 12.3441 842 56.1841 386.647 548.894
1441 0 69.1211 12.3117 851 56.4806 386.76 546.807
1442 0 70.1126 11.8666 832 57.2236 386.834 548.371
1443 0 72.0899 12.5676 906 56.457 386.413 545.5
1444 0 76.2715 12.1802 929 56.4069 387.231 545.328
1445 0 76.0967 12.7338 969 56.2879 386.541 543.828
1446 0 78.257 12.9062 1010 56.0376 386.225 540.439
1447 0 82.1875 12.581 1034 56.235 385.932 541.176
1448 0 83.289 11.7903 982 57.0998 385.837 539.485
1449 0 88.3049 12.0039 1060 56.85 385.544 536.191
1450 0 92.3977 12.8899 1191 56.3224 384.823 533.342
1451 0 93.3895 12.571 1174 56.7479 384.503 533.101
1452 1 50.3581 9.94875 501 57.7206 383.427 554.1
1453 0 53.5131 9.51168 509 58.336 383.794 554.165
1454 0 55.2527 9.91806 548 58.3358 383.478 553.803
1455 0 55.2216 10.9559 605 58.2132 383.542 549.98
1456 0 60.1285 11.4255 687 57.6274 383.926 548.665
1457 0 59.1161 12.1118 716 58.6592 385 551.622
1458 0 62.22 12.8415 799 56.5207 382.946 553.24
1459 0 61.2151 11.3371 694 59.3271 384.206 551.948
1460 0 64.1502 13.1254 842 57.4299 383.475 550.043
1461 0 67.2422 12.9383 870 57.9598 383.923 550.824
1462 0 68.1444 12.8257 874 58.4565 383.391 548.201
1463 0 70.2306 13.3987 941 58.0202 383.143 549.036
1464 0 72.1305 12.9903 937 59.0758 382.698 547.104
1465 0 76.264 12.7976 976 59.2254 382.634 546.001
1466 0 76.1841 14.0843 1073 58.206 382.245 545.916
1467 0 77.3656 12.6671 980 60.0969 382.198 546.42
1468 0 80.3476 13.3669 1074 59.3445 382.487 543.121
1469 0 82.3553 13.0289 1073 60.8024 382.702 541.116
1470 0 86.5781 13.8141 1196 59.7391 382.497 538.73
1471 0 89.5571 12.9303 1158 60.5924 382.854 537.903
1472 0 93.5658 13.8619 1297 58.9622 382.824 535.437
1473 0 95.5382 14.0677 1344 59.404 382.438 532.262
1474 0 98.5296 13.1331 1294 60.6368 382.75 533.721
1475 0 101.537 12.6949 1289 61.7075 382.499 531.049
1476 1 58.2396 11.4012 664 61.8449 382.252 554.16
1477 0 59.319 12.5255 743 60.6756 381.724 553.502
1478 0 62.148 11.9071 740 61.5703 381.059 553.295
1479 0 63.1712 12.5374 792 61.0985 381.295 551.92
1480 0 64.2042 11.993 770 62.1714 381.401 552.162
1481 0 68.1662 12.8949 879 60.8896 381.6 551.544
1482 0 71.239 12.5914 897 61.6477 381.521 551.588
1483 0 72.1425 12.8634 928 61.8308 381.832 549.171
1484 0 74.056 12.0719 894 62.7617 381.206 549.983
1485 0 77.1183 13.5895 1048 61.2156 380.985 547.593
1486 0 79.1576 12.9741 1027 62.5375 381.071 544.604
1487 0 81.3371 12.8601 1046 62.3528 381.076 544.322
1488 0 84.1695 13.0807 1101 62.6431 380.849 542.138
1489 0 88.1971 13.4358 1185 62.2549 380.837 541.603
1490 0 92.2608 13.6786 1262 61.0721 380.956 540.265
1491 0 94.3299 12.7849 1206 62.7131 381.052 537.517
1492 0 98.2898 12.3716 1216 63.3997 380.92 537.293
1493 1 51.1776 10.1607 520 64.2019 381.538 559.138
1494 0 55.1393 11.48 633 62.0427 382.161 557.581
1495 0 56.2251 11.952 672 61.631 382.226 556.579
1496 0 57.2565 12.1384 695 61.6115 382.954 556.279
1497 0 58.1889 12.8891 750 61.1413 382.908 554.608
1498 0 60.0427 12.8575 772 61.9948 383.209 554.588
1499 0 63.0314 12.9459 816 62.6495 383.175 553.401
1500 0 65.019 13.1654 856 62.1857 383.271 553.916
1501 0 65.0895 12.9975 846 62.4456 383.547 552.304
1502 0 68.0965 13.0697 890 61.8337 383.17 550.606
1503 0 68.1052 12.6863 864 63.1435 383.083 550.861
1504 0 71.0715 13.2824 944 62.9195 383.18 548.995
1505 0 73.0814 13.1771 963 62.6999 384.25 548.45
1506 0 74.1484 13.2033 979 63.4872 383.627 546.753
1507 0 75.1494 12.5749 945 65.0847 383.115 544.397
1508 0 78.1378 13.169 1029 63.6987 383.414 544.004
1509 0 83.1416 13.459 1119 62.7712 384.011 541.791
1510 0 85.1658 13.6792 1165 61.4412 384.256 541.492
1511 0 87.3065 13.7447 1200 62.09 384.712 539.534
1512 0 92.2523 13.6582 1260 61.6167 384.784 536.467
1513 1 52.1679 10.2937 537 64.2123 385.244 556.89
1514 0 55.1479 10.5172 580 63.2207 385.781 556.429
1515 0 56.2265 10.6 596 64.6309 386.164 553.659
1516 0 59.2498 11.3756 674 64.0104 386.66 551.05
1517 0 60.1725 11.6665 702 63.9245 386.104 552.33
1518 0 62.1416 12.6163 784 62.0893 385.963 552.501
1519 0 65.0572 14.0953 917 59.1265 387.032 548.141
1520 0 69.2008 15.4911 1072 54.9095 386.646 542.685
1521 0 69.1763 14.875 1029 57.6239 387.005 543.332
1522 0 68.2559 12.6143 861 61.7398 386.966 544.201
1523 0 71.1192 13.2313 941 62.2465 387.372 545.888
1524 0 73.0481 13.4021 979 61.7671 387.744 545.712
1525 0 76.2075 13.7782 1050 61.0267 387.829 543.86
1526 0 78.0957 13.317 1040 60.8923 387.672 543.725
1527 0 79.2471 14.2592 1130 59.7735 387.886 542.988
1528 0 81.1286 13.2506 1075 61.2716 387.962 540.452
1529 0 84.2053 14.049 1183 59.6982 388.264 539.055
1530 0 87.3657 13.7239 1199 60.1234 387.929 536.776
1531 0 90.1733 13.7735 1242 60.0765 388.133 535.729
1532 0 93.2611 14.0251 1308 60.4258 388.3 536.004
1533 0 96.2725 13.6176 1311 60.6476 388.156 532.236
1534 0 98.3966 12.9476 1274 61.4804 388.275 531.577
1535 0 102.398 12.9983 1331 61.2893 388.168 530.576
1536 0 105.381 13.6931 1443 60.4726 388.157 528.274
1537 1 59.0942 10.6609 630 61.0079 388.44 552.27
1538 0 64.0438 11.2735 722 60.3906 388.428 550.619
1539 0 63.0626 10.5768 667 61.5367 387.984 550.597
1540 0 67.1332 11.8421 795 60.1535 387.726 549.332
1541 0 68.1359 12.1375 827 59.4401 386.427 541.421
1542 0 68.1873 12.5536 856 58.8294 386.779 539.963
1543 0 73.2866 12.8536 942 57.8195 386.368 546.446
1544 0 76.2374 12.7365 971 57.4706 386.353 542.663
1545 0 77.0513 13.0173 1003 57.0768 386.222 542.262
1546 0 78.2727 12.712 995 58.2281 386.337 542.201
1547 0 82.2996 12.734 1048 57.4113 386.17 541.684
1548 0 85.193 13.3109 1134 56.7196 386.644 539.682
1549 0 87.191 13.0977 1142 57.3179 386.724 537.034
1550 0 90.2863 13.8338 1249 55.5532 386.945 536.472
1551 0 92.2777 13.4485 1241 56.4327 386.428 536.637
1552 0 97.4482 13.9767 1362 55.3311 386.507 532.621
1553 0 100.443 12.9924 1305 56.4989 386.462 530.613
1554 1 53.2544 10.0086 533 56.6229 386.914 555.627
1555 0 55.3143 10.7567 595 55.9513 386.556 554.639
1556 0 59.4423 12.6341 751 54.0093 386.358 552.29
1557 0 61.0497 12.5144 764 55.7448 384.664 550.733
1558 0 63.1042 12.6933 801 54.6055 384.95 549.207
1559 0 65.0714 12.7706 831 54.7545 384.863 549.578
1560 0 65.1864 12.9782 846 54.4468 385.079 549.298
1561 0 68.0867 13.1156 893 54.2307 384.635 545.627
1562 0 68.0356 12.7433 867 55.3587 384.521 547.078
1563 0 71.1652 12.7731 909 55.1738 384.749 545.804
1564 0 72.0459 12.2561 883 55.7848 384.961 544.125
1565 0 75.1247 13.4709 1012 55.4437 383.897 541.684
1566 0 78.1431 12.0932 945 55.5302 383.632 541.665
1567 0 79.2332 12.9996 1030 55.5883 383.75 541.318
1568 0 80.1307 12.567 1007 56.3486 383.858 540.786
1569 0 85.1827 13.113 1117 55.3456 384.617 539.076
1570 0 87.2068 13.359 1165 55.394 384.155 538.088
1571 0 89.2738 12.6241 1127 55.1925 384.154 536.068
1572 0 93.1826 14.155 1319 53.8332 384.372 535.321
1573 0 97.2707 14.8143 1441 52.6169 384.001 535.307
1574 1 51.1822 10.1793 521 55.8407 383.927 557.349
1575 0 54.3288 10.6205 577 55.3674 384.095 556.638
1576 0 56.5077 10.6711 603 55.7131 383.844 555.045
1577 0 59.4018 11.6326 691 54.9001 384.055 554.902
1578 0 61.1654 11.8041 722 55.1731 383.496 552.499
1579 0 61.4006 12.2963 755 55.1325 383.234 551.098
1580 0 63.3776 12.8279 813 54.6125 383.395 549.37
1581 0 64.3502 13.2711 854 54.9988 383.074 549.958
1582 0 71.4846 14.9823 1071 51.5985 382.872 545.689
1583 0 74.2729 15.093 1121 51.4353 383.022 545.34
1584 0 77.3757 15.806 1223 50.4178 382.727 542.556
1585 0 77.4707 15.1541 1174 51.8322 382.635 542.745
1586 0 78.3225 15.6405 1225 52.209 382.537 542.132
1587 0 75.3149 13.6892 1031 56.0815 382.296 540.972
1588 0 79.3295 14.3074 1135 55.5736 382.09 539.441
1589 0 83.5621 14.3366 1198 55.5284 382.356 539.049
1590 0 85.4936 13.5449 1158 56.5596 382.024 538.917
1591 0 89.4271 14.4811 1295 55.9591 381.978 537.873
1592 0 91.7079 13.8156 1267 57.7127 382.413 536.118
1593 0 94.4253 14.1487 1336 57.8578 382.489 533.636
1594 0 97.5932 15.042 1468 56.4871 382.672 532.976
1595 0 99.3717 13.7363 1365 58.7956 382.387 532.779
1596 0 102.578 14.3403 1471 58.5296 382.702 529.844
1597 0 106.544 14.5292 1548 58.4729 382.689 529.017
1598 0 108.641 13.0798 1421 60.8093 382.751 525.253
1599 0 113.608 14.9813 1702 58.1986 383.294 525.361
1600 0 115.709 14.3982 1666 59.2623 382.737 524.629
1601 0 118.493 14.811 1755 59.5909 382.989 519.629
1602 1 68.4841 10.3382 708 61.7585 382.856 548.931
1603 0 73.5365 12.2116 898 59.833 383.497 546.097
1604 0 73.4624 11.3936 837 60.6153 383.534 544.777
1605 0 77.3692 11.9169 922 59.8243 383.951 546.412
1606 0 80.3566 12.1459 976 59.6281 383.779 543.344
1607 0 83.5179 13.0391 1089 59.0909 384.174 541.487
1608 0 87.4021 13.6496 1193 57.2087 384.883 540.714
1609 0 90.4426 13.3786 1210 57.9421 385.095 538.588
1610 0 94.3509 13.365 1261 57.268 384.918 536.076
1611 0 96.3338 13.1833 1270 57.5614 385.186 534.472
1612 0 100.456 13.807 1387 57.1766 385.111 531.794
1613 0 104.339 13.1973 1377 57.4415 385.319 529.528
1614 0 106.417 13.3907 1425 57.4204 385.276 526.853
1615 0 110.324 13.0887 1444 57.4529 385.329 527.427
1616 0 114.39 13.2966 1521 57.2906 385.671 524.406
1617 0 118.279 12.8933 1525 58.4748 386.075 521.166
1618 1 65.2375 11.4198 745 56.5826 387.009 547.234
1619 0 65.3575 8.90487 582 58.3522 386.918 549.875
1620 0 68.2474 10.1982 696 58.0086 387.211 547.208
1621 0 69.2672 10.6977 741 58.2119 386.626 546.379
1622 0 72.1278 11.9649 863 56.6234 386.415 544.247
1623 0 74.503 11.6103 865 56.7503 386.679 543.869
1624 0 77.2235 12.7422 984 56.2043 387.249 541.948
1625 0 78.4468 12.2503 961 56.1904 387.389 541.054
1626 0 81.4521 12.6577 1031 55.9922 386.877 539.958
1627 0 84.3575 12.6604 1068 56.2659 386.962 536.358
1628 0 86.6662 12.0578 1045 57.2976 387.463 536.7
1629 0 88.5853 12.8577 1139 56.604 388.185 534.867
1630 0 92.3862 13.8008 1275 55.7051 388.187 532.881
1631 0 94.4919 12.6572 1196 57.4724 387.966 531.425
1632 0 99.5964 12.9623 1291 56.8637 388.277 531.963
1633 0 99.6059 12.8105 1276 57.8746 387.728 529.27
1634 0 105.344 12.7677 1345 57.4602 388.213 527.946
1635 0 107.747 12.752 1374 58.313 388.379 524.282
1636 0 113.744 13.5743 1544 56.829 388.62 521.363
1637 0 115.709 12.7907 1480 58.2628 388.706 519.322
1638 0 118.845 12.8655 1529 58.4886 389.216 517.557
1639 0 124.981 13.9861 1748 57.1293 389.204 515.811
1640 0 127.032 13.6737 1737 57.3425 389.435 513.641
1641 0 132.134 13.7361 1815 56.9928 389.927 510.523
1642 0 136.217 12.414 1691 58.7924 389.642 509.044
1643 1 77.7005 10.8236 841 58.1284 389.366 538.744
1644 0 80.4259 11.8246 951 57.1399 389.519 536.45
1645 0 83.5992 12.237 1023 57.4242 389.178 533.407
1646 0 85.0126 12.3511 1050 57.4448 389.058 533.779
1647 0 88.7545 12.867 1142 57.0797 389.346 531.398
1648 0 91.6942 13.7413 1260 56.5119 389.643 531.458
1649 0 92.5431 12.686 1174 58.4787 389.524 530.308
1650 0 95.9376 13.2169 1268 58.0899 389.612 528.267
1651 0 99.8598 12.5776 1256 59.0836 388.911 528.523
1652 0 103.681 14.0141 1453 57.6304 389.043 525.1
1653 0 106.634 13.4948 1439 58.4482 388.916 523.556
1654 0 109.393 13.4561 1472 58.623 388.558 520.611
1655 0 113.606 12.9835 1475 59.9498 388.251 519.885
1656 0 117.414 13.4056 1574 59.331 388.165 520.407
1657 0 122.666 13.8669 1701 58.7978 388.394 518.821
1658 0 124.619 13.9705 1741 59.471 387.946 513.992
1659 0 128.549 14.0414 1805 59.6416 387.197 514.034
1660 0 132.34 13.9565 1847 60.3211 387.05 513.413
1661 0 135.526 14.4179 1954 60.1822 387.341 512.588
1662 0 138.355 13.1907 1825 62.2268 386.359 509.718
1663 0 144.522 14.2539 2060 60.7131 386.622 506.225
1664 0 146.369 13.9374 2040 61.7088 386.422 505.305
1665 1 87.2787 10.9534 956 62.2929 387.283 538.04
1666 0 88.2061 11.099 979 62.4392 386.699 536.855
1667 0 90.135 11.8822 1071 60.6433 386.743 533.482
1668 0 94.2207 12.4919 1177 59.6551 386.882 531.879
1669 0 97.3626 12.8592 1252 58.6046 386.78 530.552
1670 0 101.389 13.5123 1370 57.2964 386.795 529.184
1671 0 103.303 12.4973 1291 58.5755 386.727 527.71
1672 0 107.257 12.3442 1324 58.8157 386.714 525.792
1673 0 111.294 12.9118 1437 57.5672 386.23 525.603
1674 0 112.509 12.6567 1424 58.1194 386.791 523.267
1675 0 116.317 12.5261 1457 58.5292 386.278 521.423
1676 0 119.172 12.0078 1431 59.1391 386.122 521.066
1677 0 123.164 13.1288 1617 58.107 386.338 518.406
1678 0 127.245 12.8335 1633 58.5383 386.282 515.306
1679 0 130.189 13.2961 1731 58.1063 386.097 512.826
1680 0 132.416 12.9289 1712 58.8873 386.12 510.745
1681 0 134.244 12.1421 1630 60.2417 385.675 509.085
1682 0 139.403 13.1274 1830 59.1639 385.817 507.749
1683 0 145.333 14.14 2055 57.0652 385.171 506.315
1684 1 12.001 5.74953 69 48.1449 383.899 573.275
1685 0 15.0391 5.45244 82 50.0854 383.61 571.451
1686 0 17.0599 6.27203 107 47.2617 382.935 572.084
1687 0 17.0031 6.8223 116 47.1552 382.517 572.224
1688 0 16.0226 5.86673 94 47.3617 382.734 572.989
1689 0 18.0878 5.9156 107 47.1869 382.607 572.477
1690 0 11.0045 6.81541 75 46.5733 382.187 574.747
1691 0 12.0217 6.07233 73 47.1233 384.027 574.589
1692 0 19.0322 7.09324 135 46.4296 384.489 572.496
1693 0 13.0037 8.22841 107 45.6916 384.234 574.346
1694 0 17.0011 3.588 61 48.8197 384.344 573.574
1695 0 19.0558 6.03491 115 47.4783 384.165 573.217
1696 0 15.0029 6.79868 102 45.5686 383.353 575.029
1697 0 15.0088 6.59614 99 46.4848 383.455 574.505
1698 0 19.1125 7.63896 146 45.3219 384.274 573.699
1699 0 18.0362 7.92852 143 46.7692 384.629 572.028
1700 0 21.3445 6.69961 143 47.6643 384.378 572.21
1701 0 21.0345 7.46392 157 46.1338 382.854 572.14
1702 1 83.2075 9.36214 779 54.543 383.465 540.497
1703 0 86.2141 10.8683 937 53.4963 382.779 538.415
1704 0 86.1876 10.8948 939 54.8892 382.456 535.149
1705 0 89.0982 11.9194 1062 54.5122 382.75 532.697
1706 0 95.0909 13.3346 1268 52.4921 383.628 532.028
1707 0 99.0477 11.1966 1109 54.5528 383.139 532.06
1708 0 99.2442 12.4944 1240 53.3992 382.656 531.413
1709 0 101.27 12.1753 1233 53.9862 382.648 531.217
1710 0 105.129 12.7272 1338 53.3087 382.567 530.742
1711 0 109.357 13.3782 1463 52.6268 382.71 528.687
1712 0 112.31 13.2312 1486 53.4771 382.465 527.618
1713 0 113.433 12.3773 1404 54.5584 382.633 525.191
1714 0 116.215 12.4253 1444 55.1731 383.053 523.758
1715 0 119.235 11.8338 1411 55.9901 382.932 522.381
1716 0 123.404 12.7792 1577 55.2283 383.08 519.114
1717 0 125.264 12.1902 1527 56.0629 382.984 518.274
1718 1 74.2043 9.06955 673 53.737 383.456 550.098
1719 0 76.1393 9.96856 759 54.527 383.762 544.794
1720 0 78.2254 9.94562 778 53.4807 383.482 543.801
1721 0 79.1527 10.3976 823 54.0243 381.954 540.017
1722 0 83.0855 11.0489 918 53.7081 382.038 537.818
1723 0 85.0442 11.4176 971 54.6056 381.867 539.924
1724 0 88.11 11.3835 1003 54.9182 382.36 535.252
1725 0 88.11 11.3835 1003 148.955 382.36 535.252
1726 0 94.1708 11.5959 1092 55.4231 382.922 535.2
1727 0 95.182 12.0401 1146 55.2059 382.873 533.702
1728 0 98.297 11.9536 1175 55.2068 383.344 530.979
1729 0 99.0934 12.0997 1199 55.0025 383.527 531.488
1730 0 103.101 12.706 1310 54.6137 383.737 529.259
1731 0 104.356 12.879 1344 55.5565 383.982 528.113
1732 0 107.357 13.7485 1476 55.5562 384.921 527.033
1733 0 111.325 13.492 1502 55.9128 385.084 525.328
1734 0 116.467 13.2484 1543 56.4887 385.305 522.301
1735 0 117.831 13.0865 1542 58.3982 385.378 520.519
1736 0 119.599 12.5921 1506 60.4157 386.016 517.251
1737 0 125.631 13.3009 1671 59.6182 386.08 514.985
1738 0 127.522 13.088 1669 60.3235 386.221 515.072
1739 0 130.614 13.9495 1822 59.6828 386.357 510.963
1740 0 136.43 13.7727 1879 59.5019 386.618 508.488
1741 0 140.389 14.1037 1980 59.1177 386.729 507.059
1742 0 143.406 14.6856 2106 58.4354 387.067 507.774
1743 0 147.296 13.6256 2007 59.8077 387.143 502.733
1744 0 151.333 13.9295 2108 59.0792 387.707 500.597
1745 0 157.284 13.9303 2191 59.2319 388.13 498.616
1746 0 161.226 13.9928 2256 59.2371 388.362 495.199
1747 0 167.444 14.369 2406 58.9372 388.12 495.24
1748 0 170.211 13.2776 2260 60.7451 388.548 489.973
1749 0 177.409 14.2101 2521 59.8298 389.065 488.993
1750 0 182.424 14.1429 2580 59.9992 389.475 483.729
1751 0 188.478 14.1927 2675 60.6602 389.426 482.075
1752 0 193.574 14.4389 2795 61.0873 389.558 480.097
1753 0 200.454 14.562 2919 60.7345 389.398 477.149
1754 0 207.379 13.6706 2835 61.8296 388.792 473.411
1755 1 50.1274 8.49835 426 54.2254 390.263 555.911
1756 0 50.0971 9.30194 466 55.3197 390.3 553.925
1757 0 52.305 10.0564 526 53.1198 389.694 552.141
1758 0 54.302 9.92596 539 55.2152 388.538 553.479
1759 0 54.3517 10.7448 584 55 388.485 552.354
1760 1 14.0023 7.28453 102 51.5784 386.02 571.765
1761 0 14.0015 5.64224 79 51.3165 386.253 572.165
1762 0 9.00087 5.66612 51 51.0588 386.333 573.627
1763 0 13.0011 6.461 84 51.0357 386.167 571.69
1764 0 16.0021 5.99921 96 51.5938 386.229 570.896
1765 0 16.0045 7.49787 120 51.2583 386.4 570.967
1766 0 17.0099 5.23224 89 52.9326 386.551 570.91
1767 0 17.018 7.99155 136 50.0147 386.721 571.397
1768 0 11.0009 3.99969 44 53.8409 387.5 572.205
1769 0 22.0514 7.84529 173 52.4162 387.838 567.393
1770 0 15.0041 6.19829 93 52.3978 388.043 571.849
1771 0 16.0269 6.92587 111 52.1351 388.333 569.802
1772 0 16.1328 5.88861 95 52.4842 388.116 571.295
1773 0 17.0351 7.45521 127 51.8976 388.606 570.22
1774 0 19.0147 6.52128 124 51.2339 389.194 569.056
1775 0 12.0147 5.74295 69 50.5797 390.594 565.014
1776 0 12.0367 6.56328 79 47.7468 391.127 565.658
1777 0 14.0277 6.70103 94 48.5851 390.904 566.766
1778 0 13.0167 2.99616 39 54 390.077 567.846
1779 0 15.0502 6.31221 95 51.3895 389.189 569.747
1780 0 9.02109 4.1015 37 50.3784 390.189 566.784
1781 1 93.48 11.5961 1084 58.4659 387.493 526.034
1782 0 95.3763 12.2462 1168 58.0308 387.664 524.255
1783 0 103.381 13.8323 1430 55.351 387.165 520.459
1784 0 115.546 17.0928 1975 49.0592 386.608 513.877
1785 0 115.653 16.731 1935 50.4853 386.608 513.205
1786 1 62.369 10.4539 652 56.9387 386.977 541.629
1787 0 61.14 10.844 663 56.4238 386.97 542.891
1788 0 64.2465 10.7399 690 55.4812 385.935 542.112
1789 0 66.1976 11.8433 784 54.7985 385.415 540.793
1790 0 69.209 11.5158 797 56.2898 385.118 545.418
1791 0 70.1431 11.833 830 56.6699 385.072 544.963
1792 0 72.1489 13.0425 941 55.4718 385.406 543.688
1793 0 71.2492 11.3966 812 58.58 385.14 543.611
1794 0 75.2081 13.2698 998 56.021 385.368 542.929
1795 0 75.2081 13.2831 999 148.595 384.375 542.913
1796 0 78.2916 11.9298 934 58.2741 384.998 540.453
1797 0 80.3819 12.5775 1011 58.1632 384.994 539.2
1798 0 80.214 12.6038 1011 58.5895 384.616 539.309
1799 0 84.3077 12.8695 1085 58.1364 384.545 538.082
1800 0 85.2982 13.107 1118 58.1583 384.561 539.009
1801 0 87.2864 12.9115 1127 59.0559 384.486 537.52
1802 0 91.2346 13.1091 1196 58.5635 384.5 535.748
1803 0 93.2627 12.8991 1203 59.1521 384.782 532.155
1804 0 96.3509 12.8385 1237 59.1261 384.698 532.267
1805 0 98.2679 12.527 1231 60.0333 384.588 531.634
1806 0 101.41 13.8744 1407 58.0128 384.419 529.74
1807 0 105.1 12.902 1356 59.1445 384.824 529.049
1808 0 107.273 13.2653 1423 58.5144 384.785 527.507
1809 0 112.184 13.5402 1519 57.6998 384.641 524.445
1810 0 114.181 13.8464 1581 57.5199 384.731 522.433
1811 0 117.409 13.4828 1583 58.1769 384.391 521.287
1812 0 120.308 13.0499 1570 58.2427 384.182 520.529
1813 0 123.172 13.2497 1632 57.7335 384.141 519.41
1814 0 128.164 12.8976 1653 57.7532 383.894 516.779
1815 1 80.1813 9.6656 775 55.7045 383.365 544.302
1816 0 81.0971 10.247 831 55.1047 383.073 542.243
1817 1 10.0002 2.19996 22 49.5455 382.591 576.864
1818 0 13.0008 5.23046 68 46.5294 381.706 576.279
1819 0 13.0023 6.69114 87 48.6782 381.77 574.172
1820 0 13.0095 6.14937 80 48.1 382.412 574.938
1821 0 12.0022 7.74859 93 46.7957 382.817 574.409
1822 0 12.003 5.49862 66 47.7424 382.848 575.485
1823 0 12.0017 4.58268 55 45.1818 384.309 576.818
1824 0 13.0046 6.92062 90 47.2667 384.078 575.189
1825 0 12.0018 6.41573 77 47.8571 384.325 575.468
1826 0 13.0008 5.38427 70 46.5571 384.286 575.529
1827 0 10.0076 5.09611 51 47.7059 384.824 575.569
1828 0 10.0016 4.09933 41 46.6341 385.512 575.829
1829 0 11.0054 4.90669 54 46.537 385.352 575.204
1830 0 14.0015 7.78486 109 46.6697 385.385 573.56
1831 0 11.0019 5.81715 64 47.6406 385.391 574.172
1832 0 9.00391 5.88633 53 46.3585 385.962 574.208
1833 0 10.0007 6.49951 65 46.9846 385.615 573.723
1834 0 13.0291 5.29584 69 47.058 385.319 573.319
1835 0 13.0041 5.15223 67 46.7761 384.806 574.045
1836 0 12.001 6.91609 83 46.3855 384.892 574.169
1837 0 15.008 5.33051 80 46.1625 385.875 574.1
1838 0 14.0245 8.77035 123 46.4797 385.675 572.114
1839 0 16.0054 8.68459 139 45.1079 386.439 572.115
1840 0 9.00707 7.10553 64 45.1719 386.078 574.906
1841 0 6 3.16667 19 48.3684 386.789 573.579
1842 0 7.00042 4.14261 29 45.1724 386.069 574.69
1843 0 15.0132 5.52847 83 47.9759 386.482 570.458
1844 0 15.0016 6.3993 96 46.9896 386.396 570.292
1845 0 12.003 3.91567 47 47.8298 387.021 572.553
1846 0 13.0004 4.92291 64 45.7188 387.312 573.141
1847 0 15.0177 5.06071 76 47.0789 387.539 571.553
1848 0 16.0127 5.62052 90 45.8111 387.578 572.2
1849 0 16.0049 7.37275 118 45.8729 387.907 570.517
1850 0 16.0194 6.24242 100 46.39 388.15 570.7
1851 0 18.0068 7.21948 130 45.2846 388.262 570.885
1852 0 18.0021 8.61013 155 45.329 388.432 569.632
1853 1 73.1054 9.87615 722 52.8587 389.512 539.636
1854 0 74.1011 10.2158 757 52.1664 389.865 538.559
1855 0 80.5309 11.6229 936 51.7201 389.806 538.474
1856 0 83.4254 12.8978 1076 50.6496 389.685 537.815
1857 0 85.4085 13.1369 1122 50.328 390.211 535.796
1858 0 87.2271 12.1522 1060 50.4415 390.089 535.88
1859 0 90.1517 12.6675 1142 50.3126 389.968 533.088
1860 0 91.1375 12.6732 1155 50.6571 389.769 532.219
1861 0 94.3208 12.1712 1148 51.3066 389.681 532.895
1862 0 96.1521 12.4802 1200 52.1033 389.504 530.414
1863 0 99.2255 12.5069 1241 52.3102 389.241 528.694
1864 0 102.143 13.2461 1353 51.8987 389.08 526.306
1865 0 105.194 13.3372 1403 52.0699 388.976 524.469
1866 0 107.181 12.6141 1352 53.2278 388.328 524.103
1867 0 110.215 12.8023 1411 53.0865 388.3 522.911
1868 0 114.388 12.7198 1455 53.879 388.255 520.178
1869 0 120.374 14.1226 1700 52.2094 388.135 517.804
1870 0 122.338 12.9886 1589 54.292 387.525 518.15
1871 0 125.64 13.2839 1669 54.302 387.146 514.869
1872 0 128.541 13.6454 1754 54.0998 387.831 512.495
1873 0 134.589 13.3517 1797 54.3779 386.951 511.832
1874 1 74.2084 9.97192 740 54.8068 386.992 538.273
1875 0 75.1847 11.2789 848 54.3656 387.025 537.669
1876 0 73.1822 10.3031 754 161.111 386.033 535.599
1877 0 82.1361 12.735 1046 52.3977 386.391 533.688
1878 0 83.5142 12.0938 1010 52.5881 385.461 531.562
1879 0 86.4798 11.945 1033 52.515 386.008 530.573
1880 0 88.4015 11.5043 1017 53.5998 385.793 528.382
1881 0 90.4024 11.3714 1028 54.8103 385.501 532.693
1882 0 94.396 12.384 1169 54.1634 385.524 532.82
1883 0 98.3916 12.684 1248 54.1266 385.575 528.889
1884 0 101.553 13.1556 1336 53.9124 385.662 526.267
1885 0 103.558 12.1671 1260 56.1397 385.233 524.532
1886 0 107.59 13.3284 1434 54.9435 385.365 521.782
1887 0 110.514 12.7314 1407 56.307 385.391 520.579
1888 0 113.578 13.3036 1511 55.6274 385.414 521.563
1889 1 66.4458 9.39111 624 57.625 384.838 545.109
1890 0 69.4201 10.1988 708 56.5763 384.605 545.081
1891 0 70.4665 10.4589 737 56.5414 384.455 544.258
1892 0 71.4017 11.3443 810 57.0296 385.158 542.491
1893 0 76.4157 12.1964 932 55.588 384.956 544.612
1894 0 76.3548 12.8086 978 55.3691 385.202 543.156
1895 0 77.4271 12.515 969 56.6873 384.869 540.41
1896 0 81.4935 13.7189 1118 54.8775 384.532 539.995
1897 0 84.341 12.402 1046 57.0918 384.492 539.091
1898 0 85.3942 12.3076 1051 58.3397 384.843 536.281
1899 0 87.5669 12.5732 1101 57.9119 383.752 536.668
1900 0 90.6658 13.3567 1211 57.6251 383.734 534.035
1901 0 93.5146 13.5059 1263 57.9375 383.593 533.769
1902 0 95.4886 12.9439 1236 59.1861 383.591 531.676
1903 0 98.3735 14.1298 1390 57.8942 383.004 531.054
1904 0 101.575 14.1077 1433 58.4627 383.548 529.564
1905 0 104.435 12.965 1354 60.3087 383.381 528.503
1906 0 106.522 13.3399 1421 60.3125 383.135 527.944
1907 0 110.395 14.4028 1590 58.7748 383.18 526.619
1908 0 112.449 13.455 1513 60.7165 383.175 524.48
1909 0 116.399 13.4967 1571 60.676 382.967 523.308
1910 0 118.362 13.3235 1577 61.1103 382.9 522.673
1911 0 120.307 13.3492 1606 61.9676 382.306 522.722
1912 0 123.302 13.9009 1714 61.5578 382.557 517.889
1913 0 128.348 14.0243 1800 61.1128 382.539 517.127
1914 1 71.1357 9.6576 687 61.984 382.162 546.362
1915 0 73.1631 11.8366 866 60.4226 381.91 545.388
1916 0 74.2772 10.8647 807 61.5217 381.629 546.24
1917 0 76.0523 11.0056 837 61.8793 381.286 543.898
1918 0 80.1069 12.5582 1006 60.8986 381.623 540.436
1919 0 81.1636 12.9615 1052 61.8441 381.804 542.067
1920 0 86.1561 13.4175 1156 60.808 383.294 539.939
1921 0 86.2737 13.1326 1133 62.2207 382.78 537.548
1922 0 90.2366 13.2097 1192 61.5864 382.162 538.15
1923 0 94.2082 13.0562 1230 61.8504 382.694 536.207
1924 0 96.2182 12.9186 1243 61.9397 381.92 536.239
1925 0 99.3334 14.2148 1412 60.7861 381.686 534.052
1926 0 100.262 14.2127 1425 60.9726 381.494 530.809
1927 0 104.209 13.7128 1429 61.6123 381.003 531.22
1928 0 105.175 12.8928 1356 63.3842 381.011 529.241
1929 0 109.225 13.6873 1495 62.188 381.333 527.89
1930 0 113.272 13.8604 1570 61.5134 381.191 528.422
1931 1 62.0722 10.6328 660 62.8818 381.309 552.253
1932 0 66.101 11.3311 749 61.0988 381.017 552.615
1933 0 68.1249 12.2275 833 61.3169 381.481 550.98
1934 0 67.2224 12.3768 832 61.8474 381.161 549.369
1935 0 72.1397 12.1292 875 61.3817 381.504 547.43
1936 0 73.1084 13.5689 992 59.8952 381.157 545.922
1937 0 76.1484 13.0009 990 60.7081 381.206 544.463
1938 0 77.0984 12.3349 951 61.5794 381.495 544.025
1939 0 79.1509 12.5962 997 61.4524 381.58 543.966
1940 0 81.1592 12.457 1011 62.2117 381.508 542.524
1941 0 83.145 13.278 1104 61.9819 381.664 540.484
1942 0 86.1179 13.6441 1175 61.2613 381.5 540.574
1943 0 89.145 13.1583 1173 61.8551 381.725 539.303
1944 0 91.0919 12.9649 1181 61.2354 381.808 537.319
1945 0 94.209 13.2684 1250 60.5928 382.178 535.297
1946 0 95.2779 12.7732 1217 61.2473 382.243 534.764
1947 0 100.212 13.711 1374 60.0371 382.188 531.776
1948 0 100.181 13.1363 1316 61.1223 382.031 530.151
1949 0 106.22 13.4532 1429 60.049 381.865 528.523
1950 0 108.221 14.0638 1522 59.6583 382.658 526.978
1951 0 110.241 13.4796 1486 60.4522 382.736 524.926
1952 0 114.249 14.1183 1613 59.3032 382.76 524.05
1953 0 117.385 13.7581 1615 59.9703 382.664 521.148
1954 1 73.1544 10.7444 786 58.9122 382.884 544.538
1955 0 72.0631 9.32516 672 58.875 383.068 546.829
1956 0 72.0357 10.3699 747 59.2744 384.137 543.503
1957 0 77.1223 11.7476 906 57.4779 385.39 542.31
1958 0 78.3044 12.4386 974 57.6407 384.343 542.02
1959 0 83.1436 12.6288 1050 56.2095 384.401 540.93
1960 0 85.121 12.9933 1106 56.3409 384.59 538.524
1961 0 86.1208 11.9367 1028 57.6644 385.144 534.217
1962 0 91.2874 12.8057 1169 56.6553 385.085 535.163
1963 0 94.1406 13.8091 1300 55.6977 385.002 534.277
1964 0 97.2493 12.6479 1230 57.461 385.277 532.122
1965 0 101.121 13.8745 1403 55.6942 385.833 530.067
1966 0 105.301 13.1052 1380 56.4457 385.143 530.875
1967 0 106.179 12.2153 1297 57.8019 385.981 529.541
1968 0 110.152 13.2453 1459 56.2337 386.261 526.295
1969 0 114.28 12.7581 1458 57.1351 386.882 524.331
1970 1 69.1439 10.4709 724 56.3978 386.293 547.919
1971 0 69.1736 10.6544 737 57.4261 386.569 545.502
1972 0 72.1088 11.233 810 57.1556 386.875 544.611
1973 0 74.1988 12.3317 915 55.577 386.952 543.455
1974 0 75.1937 12.3415 928 56.306 387.589 542.172
1975 0 77.2794 12.2283 945 56.9132 387.461 541.724
1976 0 78.1418 12.81 1001 56.4256 387.537 539.985
1977 0 82.1202 12.1894 1001 56.8931 388.097 538.826
1978 0 84.2221 11.5884 976 57.5205 387.909 536.837
1979 0 88.1671 12.6351 1114 56.263 388.12 535.583
1980 0 89.1693 12.4594 1111 56.586 388.56 534.711
1981 0 93.3063 12.6358 1179 56.3384 389.051 532.111
1982 0 96.3178 12.926 1245 56.6458 389.19 530.38
1983 0 99.2476 12.9877 1289 56.46 388.982 529.909
1984 0 99.2476 12.9877 1289 159.251 387.982 529.909
1985 0 105.192 13.5087 1421 56.3983 388.973 527.514
1986 0 109.195 13.6636 1492 55.9739 389.012 525.45
1987 0 109.312 12.533 1370 58.2219 388.81 521.948
1988 1 64.2228 9.65389 620 56.6452 388.718 550.061
1989 0 67.3056 10.2666 691 56.3647 389.54 547.758
1990 0 69.079 11.1322 769 56.0806 389.788 545.813
1991 0 70.1718 11.6286 816 55.6642 389.038 543.146
1992 0 72.2272 12.5161 904 56.8053 388.507 541.929
1993 0 75.2958 12.0724 909 56.3432 388.371 541.942
1994 0 76.3131 11.6494 889 57.2115 387.883 540.945
1995 0 78.2108 13.2079 1033 56.1965 388.216 539.591
1996 0 78.2442 12.3971 970 57.7495 388.668 539.311
1997 0 81.2692 12.5632 1021 57.764 388.141 537.603
1998 0 86.3546 13.1666 1137 56.6623 387.905 538.09
1999 0 87.2337 12.9881 1133 57.6999 388.078 534.862
2000 0 89.3337 13.2089 1180 57.8347 388.475 533.751
2001 0 91.2567 11.8348 1080 59.613 388.625 532.587
2002 0 97.3822 13.8424 1348 56.951 388.655 531.177
2003 0 99.3094 12.8689 1278 57.9186 388.406 530.342
2004 0 102.516 12.1932 1250 58.9416 388.016 528.854
2005 0 106.289 13.3505 1419 58.5574 387.671 525.798
2006 0 108.433 13.8426 1501 58.2245 386.966 524.079
2007 0 111.681 12.9834 1450 59.4 386.726 522.672
2008 0 117.749 13.8175 1627 57.6294 387.674 518.377
2009 0 119.577 13.7401 1643 58.2696 387.236 516.521
2010 0 120.495 12.7059 1531 60.0888 386.845 516.541
2011 1 69.38 9.48401 658 59.1869 387.685 543.126
2012 0 73.4277 10.3775 762 58.6234 386.993 539.668
2013 0 76.6537 10.3713 795 58.9849 386.504 541.02
2014 0 78.2987 12.3757 969 56.9195 385.972 540.041
2015 0 81.3622 12.4505 1013 56.3455 386.182 540.124
2016 0 82.231 11.7474 966 57.0487 385.873 538.328
2017 0 85.2313 12.3664 1054 55.925 386.077 539.616
2018 0 85.557 11.3842 974 57.2402 386.008 536.017
2019 0 89.3992 11.98 1071 56.69 386.376 534.925
2020 0 93.3986 12.7732 1193 55.2816 386.466 534.659
2021 0 94.3973 12.3838 1169 56.2524 386.571 530.654
2022 0 100.298 13.2705 1331 55.0579 386.37 530.343
2023 0 103.563 12.9197 1338 55.3924 386.039 528.141
2024 0 106.333 13.2602 1410 55.0993 386.343 527.716
2025 0 109.353 12.8392 1404 55.5264 385.957 526.595
2026 0 112.364 13.216 1485 54.9468 385.782 524.241
2027 1 64.1854 9.65952 620 55.4371 385.84 550.289
2028 0 66.3957 9.88015 656 55.8415 385.442 547.762
2029 0 69.2711 10.8559 752 55.3005 385.172 546.593
2030 0 74.243 10.8024 802 54.51 385.308 546.998
2031 0 74.2681 11.3373 842 56.3444 385.109 545.424
2032 0 76.208 12.1772 928 55.8782 385.088 542.418
2033 0 77.2711 12.2814 949 56.4942 385.222 541.289
2034 0 80.5006 12.9192 1040 55.7981 385.462 539.805
2035 0 83.3241 12.2774 1023 56.61 384.767 540.427
2036 0 85.2725 13.3103 1135 55.5868 385.173 538.352
2037 0 85.4935 12.1179 1036 57.9846 385.124 536.556
2038 0 88.3485 13.1977 1166 56.518 384.473 535.886
2039 0 91.3424 12.7652 1166 57.5652 384.352 534.461
2040 0 95.2912 13.1911 1257 56.922 384.698 535.245
2041 0 98.3352 13.3014 1308 56.9213 385.304 534.211
2042 0 101.189 13.5094 1367 57.008 384.804 530.607
2043 0 103.504 13.1203 1358 57.9264 384.718 527.409
2044 0 107.411 13.9278 1496 57.113 384.767 528.362
2045 0 110.297 13.3911 1477 58.608 384.37 526.98
2046 0 113.258 14.3743 1628 57.7475 384.956 523.519
2047 0 117.375 14.475 1699 57.7922 384.427 522.869
2048 0 122.314 14.1521 1731 57.9272 384.004 522.034
2049 0 125.396 14.5299 1822 57.888 383.597 519.555
2050 0 126.268 14.3504 1812 58.9426 383.836 517.983
2051 0 131.329 14.7188 1933 58.389 383.638 516.99
2052 0 134.406 14.166 1904 59.4774 383.784 515.169
2053 1 76.2691 10.8694 829 60.0832 383.87 545.957
2054 0 77.2917 11.6959 904 60.7965 384.046 546.485
2055 0 79.1925 12.0213 952 62.1586 383.692 541.471
2056 0 82.0809 13.5598 1113 60.5454 383.27 539.809
2057 0 85.0871 12.4108 1056 62.0663 381.945 542.991
2058 0 85.0389 12.5002 1063 62.8579 382.382 541.4
2059 0 91.1068 13.1384 1197 61.868 382.599 539.5
2060 0 92.0823 13.2056 1216 62.2985 382.141 537.851
2061 0 97.162 14.059 1366 61.634 381.649 535.421
2062 0 100.097 13.9366 1395 61.3391 382.324 534.151
2063 0 102.147 12.6288 1290 64.3752 382.56 533.546
2064 0 105.19 13.3378 1403 63.0257 381.956 531.584
2065 0 109.161 13.7137 1497 62.5792 382.512 531.972
2066 0 112.239 13.302 1493 63.6577 382.396 527.492
2067 0 117.362 13.5308 1588 63.3168 383.033 527.229
2068 0 119.329 13.6094 1624 63.9101 382.57 523.988
2069 0 119.329 13.601 1623 157.73 381.574 523.995
2070 0 128.301 13.6398 1750 63.5703 382.974 522.106
2071 0 132.198 13.5025 1785 64.7849 382.68 518.582
2072 0 135.322 14.0332 1899 64.8826 382.891 515.952
2073 0 140.59 13.1518 1849 65.8183 383.13 512.835
2074 1 76.0972 10.3946 791 65.8129 382.733 547.353
2075 0 80.2401 10.668 856 65.354 383.326 547.189
2076 0 80.2064 11.7821 945 65.382 383.189 542.602
2077 0 84.1716 13.0448 1098 63.2204 383.333 541.006
2078 0 85.2198 12.5323 1068 64.5112 384.242 538.449
2079 0 87.2473 13.1236 1145 63.4969 384.557 538.293
2080 0 90.4142 13.0179 1177 63.5463 384.397 535.753
2081 0 94.1306 12.727 1198 63.9107 385.196 532.383
2082 0 98.3723 12.9508 1274 62.8768 385.436 533.024
2083 0 101.406 13.51 1370 62.0139 385.366 529.706
2084 0 105.454 13.6268 1437 61.968 385.769 528.84
2085 0 107.32 12.8494 1379 63.3807 385.652 525.096
2086 0 109.356 12.9211 1413 62.6907 385.722 520.269
2087 0 112.422 13.3515 1501 62.1899 385.923 518.44
2088 0 116.312 13.9453 1622 60.9593 386.29 519.285
2089 0 119.433 13.6729 1633 61.1672 386.628 517.839
2090 0 120.426 13.037 1570 62.2631 386.579 514.189
2091 0 125.58 13.3142 1672 61.3391 386.718 512.745
2092 0 126.588 12.908 1634 62.5545 387.249 511.107
2093 0 132.537 13.4754 1786 61.5532 386.837 508.286
2094 0 138.5 13.9061 1926 61.0228 387.009 506.106
2095 1 81.5483 11.3675 927 60.1111 387.465 536.908
2096 0 82.3559 11.9239 982 60.0448 388.107 535.331
2097 0 84.2961 12.2544 1033 59.8441 387.975 533.673
2098 0 88.4892 12.8716 1139 58.9965 388.229 532.145
2099 0 90.4253 13.149 1189 59.0042 388.421 528.885
2100 0 95.2318 14.3755 1369 57.1213 388.209 529.881
2101 0 97.5218 13.2791 1295 58.4896 388.72 527.51
2102 0 100.38 13.4988 1355 58.6125 388.596 524.542
2103 0 103.342 13.3344 1378 58.9057 388.939 523.449
2104 0 106.411 13.0814 1392 59.5079 388.72 521.777
2105 0 108.245 12.2222 1323 61.2154 388.905 519.23
2106 0 111.37 12.9838 1446 59.8942 388.802 521.779
2107 0 114.287 12.8886 1473 60.372 388.682 518.937
2108 0 117.267 12.6123 1479 60.904 388.704 518.463
2109 0 121.303 12.5058 1517 61.4937 389.289 513.577
2110 0 126.502 14.2765 1806 58.9662 389.327 514.328
2111 0 128.222 13.6171 1746 60.3236 389.253 513.738
2112 0 133.256 14.2808 1903 59.6001 388.758 512.406
2113 0 136.159 13.0068 1771 61.908 389.086 505.335
2114 0 141.203 14.2206 2008 60.6479 388.916 507.482
2115 1 81.2032 11.8099 959 60.8227 389.263 536.978
2116 0 83.1185 12.019 999 59.8008 388.514 539.203
2117 0 87.168 11.9769 1044 60.4521 388.774 535.244
2118 0 89.1012 12.9852 1157 59.4546 388.74 533.576
2119 0 93.195 13.2089 1231 58.234 388.048 532.845
2120 0 96.1101 12.9227 1242 59.7005 388.124 531.981
2121 0 97.0767 13.2782 1289 59.6936 388.404 529.416
2122 0 102.146 12.5996 1287 60.0948 388.676 529.187
2123 0 105.16 13.3225 1401 58.8437 388.717 528.466
2124 0 107.138 13.1886 1413 59.804 388.571 525.522
2125 0 111.124 13.0035 1445 60.0249 388.037 523.225
2126 0 115.18 12.8407 1479 60.0642 387.466 522.153
2127 0 119.181 13.4585 1604 59.2151 387.897 518.908
2128 0 123.202 13.003 1602 59.4925 387.195 516.145
2129 0 126.234 13.5305 1708 58.5732 387.257 517.275
2130 0 129.244 12.2017 1577 60.1573 386.938 516.6
2131 0 134.216 12.3458 1657 59.8527 386.553 513.519
2132 0 138.219 12.8925 1782 59.4697 386.747 509.919
2133 0 143.18 13.2281 1894 58.8094 385.922 510.776
2134 0 148.228 14.1674 2100 57.7919 386.485 505.68
2135 0 152.206 13.7117 2087 58.1538 385.922 504.465
2136 0 156.313 12.7948 2000 59.886 385.41 502.343
2137 0 160.657 13.5817 2182 59.2365 385.951 500.48
2138 0 165.253 12.6412 2089 60.7602 385.893 500.386
2139 0 170.301 13.7462 2341 59.8407 385.544 494.943
2140 0 177.314 14.0654 2494 59.2951 385.64 492.526
2141 0 182.373 13.5053 2463 60.3333 385.082 490.754
2142 0 188.564 13.4066 2528 60.8287 384.996 486.902
2143 0 195.67 14.7136 2879 59.2136 384.642 484.899
2144 0 198.498 13.8742 2754 60.8145 385.202 481.512
2145 0 206.425 14.3006 2952 59.9553 385.202 478.98
2146 0 210.461 14.0596 2959 60.7246 385.007 474.611
2147 0 218.462 13.7827 3011 60.8662 384.813 472.654
2148 1 176.383 11.6565 2056 62.073 385.043 499.034
2149 0 178.4 11.1603 1991 62.7654 385.054 495.932
2150 0 185.409 13.2895 2464 60.8024 385.172 490.719
2151 0 192.517 13.8741 2671 61.1438 385.136 484.607
2152 0 197.466 13.9923 2763 60.7875 385.589 483.841
2153 0 203.579 13.4444 2737 61.8772 384.759 475.303
2154 0 210.622 13.6643 2878 61.4948 384.698 474.058
2155 0 218.681 14.6286 3199 60.4576 384.778 470.444
2156 0 225.807 14.0563 3174 61.2653 384.329 464.163
2157 1 164.521 10.6491 1752 62.8333 384.029 501.124
2158 0 171.505 12.3145 2112 61.7656 383.888 494.73
2159 0 178.358 12.6263 2252 61.2487 384.155 494.218
2160 0 182.281 12.3381 2249 61.8052 384.553 486.628
2161 0 190.372 14.125 2689 59.9119 384.339 482.676
2162 0 198.521 14.6634 2911 59.3277 384.942 478.091
2163 0 203.033 13.3229 2705 61.9116 384.599 479.095
2164 0 208.877 14.3051 2988 61.1553 384.142 471.074
2165 0 217.972 14.1349 3081 61.4856 383.685 470.975
2166 0 225.038 14.4731 3257 61.5431 384.197 467.751
2167 0 231.145 14.5926 3373 61.7584 384.368 466.995
2168 0 241.989 16.9222 4095 58.033 384.038 455.347
2169 0 243.055 15.7989 3840 60.551 384.172 458.412
2170 0 249.92 15.2169 3803 61.3616 383.987 455.326
2171 0 256.989 16.3937 4213 59.4149 383.436 450.561
2172 0 264.1 16.1038 4253 60.3764 383.73 446.038
2173 0 272.852 15.7045 4285 60.9522 383.13 441.817
2174 0 282.891 15.8612 4487 60.4912 382.649 436.379
2175 1 227.891 12.5236 2854 64.1808 383.191 472.991
2176 0 234.702 13.7579 3229 62.7829 382.99 467.276
2177 0 241.667 13.7213 3316 63.6915 382.682 460.648
2178 0 247.894 14.7724 3662 62.3053 383.26 455.583
2179 0 256.183 16.3321 4184 59.473 383.006 450.332
2180 0 265.841 15.7387 4184 60.9426 383.042 446.756
2181 0 272.951 15.6695 4277 61.1211 383.357 439.798
2182 0 282.931 15.2511 4315 61.5822 383.062 434.518
2183 0 292.83 15.5756 4561 61.169 382.855 433.677
2184 0 301.796 16.1732 4881 60.1854 383.318 423.061
2185 0 303.796 16.1732 4881 60.1854 383.318 423.061
2186 0 73.4206 10.8553 797 61.5282 383.138 545.676
2187 0 77.514 10.6948 829 61.1942 383.539 544.704
2188 0 78.4839 12.3974 973 59.5385 383.994 543.845
2189 0 79.336 10.6635 846 61.266 383.89 543.597
2190 0 83.6083 11.7692 984 59.5102 384.153 541.934
2191 1 95.8258 10.5086 1007 60.3426 384.444 539.992
2192 0 92.6318 9.80225 908 61.2599 384.27 541.988
2193 0 93.5546 10.9882 1028 61.1663 384.627 536.642
2194 0 91.7284 11.2506 1032 61.1957 385.133 535.685
2195 0 91.8893 11.5138 1058 60.8526 385.279 536.865
2196 1 62.682 10.3539 649 59.5655 384.986 549.502
2197 0 63.7587 9.66142 616 58.9334 385.425 552.555
2198 0 62.8657 10.6258 668 59.3488 385.467 550.367
2199 0 63.6934 11.7595 749 58.761 385.72 548.037
2200 0 62.6242 12.1359 760 57.5605 385.972 549.142
2201 0 65.9058 12.2144 805 58.3553 385.924 546.063
2202 0 68.6644 13.0344 895 57.762 386.345 544.054
2203 0 70.7603 14.3159 1013 56.5824 386.349 541.415
2204 0 70.9794 13.7786 978 58.1564 386.743 541.251
2205 0 73.7556 13.0973 966 59.2816 386.883 540.311
2206 0 76.8832 14.1383 1087 57.5253 387.327 539.149
2207 0 77.6294 13.6675 1061 59.5024 387.763 536.399
2208 0 81.7335 13.5073 1104 59.4502 387.986 535.82
2209 0 84.8771 14.197 1205 58.4672 388.126 534.222
2210 0 86.7645 14.2685 1238 58.7892 388.283 530.839
2211 0 88.7951 13.5593 1204 60.1188 388.438 530.666
2212 0 91.5835 14.3039 1310 58.4489 388.537 529.274
2213 0 95.6225 14.2853 1366 58.9312 388.871 530.454
2214 0 99.8149 13.8657 1384 58.9588 388.995 527.913
2215 0 100.797 13.9191 1403 59.6208 388.765 526.546
2216 0 103.609 14.2651 1478 59.4486 388.872 525.62
2217 0 106.906 14.1152 1509 59.3704 388.761 522.815
2218 0 109.962 14.6596 1612 58.7184 389.197 520.589
2219 0 113.617 13.4927 1533 60.4188 389.068 520.416
2220 0 116.139 13.5699 1576 60.6821 389.084 519.488
2221 0 119.652 13.8903 1662 60.4404 388.957 516.854
2222 0 122.031 13.5376 1652 61.3039 389.174 516.004
2223 0 125.752 13.7572 1730 61.4699 388.814 514.092
2224 0 129.783 14.2777 1853 61.1943 389.655 512.193
2225 0 130.606 13.9273 1819 62.2573 388.516 509.414
2226 0 138.149 14.6726 2027 60.7548 389.264 505.906
2227 0 141.79 15.0857 2139 60.5587 389.34 506.784
2228 0 144.736 14.8753 2153 60.8597 388.91 502.775
2229 0 150.061 15.2204 2284 61.6734 389.224 502.352
2230 0 154.989 15.072 2336 62.0257 388.762 499.062
2231 0 157.596 14.4673 2280 62.8947 388.793 497.391
2232 0 161.833 14.274 2310 63.0342 388.72 494.201
2233 0 167.979 14.5256 2440 62.5078 388.652 491.116
2234 0 174.979 15.1218 2646 61.8791 388.367 489.13
2235 0 180.982 15.1396 2740 61.9172 388.158 487.496
2236 0 185.591 14.4565 2683 62.7775 387.965 486.088
2237 0 190.626 15.1606 2890 62.1384 387.437 480.51
2238 0 195.799 15.1993 2976 62.6657 387.252 477.206
2239 0 202.131 14.4857 2928 63.2838 386.981 474.568
2240 0 207.883 14.9459 3107 63.5787 387.402 470.02
2241 0 216.745 15.0592 3264 62.8244 387.143 470.093
2242 0 222.976 15.4456 3444 62.7355 386.994 466.894
2243 0 224.802 14.9865 3369 63.1897 387.236 463.576
2244 0 230.984 16.0357 3704 61.9949 388.139 459.537
2245 0 237.182 15.486 3673 63.0833 386.996 456.887
2246 0 247.344 15.9656 3949 62.2193 387.052 453.23
2247 0 255.097 15.6921 4003 62.8219 387.297 451.611
2248 0 262.154 15.9754 4188 62.7839 386.696 445.891
2249 0 271.046 15.7317 4264 63.1487 386.087 441.212
2250 0 278.882 15.3111 4270 63.8499 386.523 438.839
2251 0 289.138 14.858 4296 64.5659 386.141 432.779
2252 1 73.5456 10.8504 798 62.4762 387.591 539.754
2253 0 77.4206 11.9348 924 61.224 387.488 538.923
2254 0 77.5359 12.6909 984 61.5661 387.27 537.577
2255 0 80.4487 13.5242 1088 61.0892 387.223 536.631
2256 0 83.5954 12.1299 1014 62.5325 387.319 536.081
2257 0 86.4536 13.7877 1192 60.5579 387.215 533.499
2258 0 87.542 12.3826 1084 63.0923 387.546 532.583
2259 0 91.3039 13.362 1220 61.9762 387.437 531.005
2260 0 92.363 11.3465 1048 65.0677 387.689 532.258
2261 0 96.5105 13.0038 1255 63.6263 387.574 527.741
2262 0 97.3225 12.8439 1250 64.5768 387.782 526.586
2263 0 100.396 12.65 1270 64.4031 387.422 527.591
2264 0 104.308 12.5973 1314 65.0685 387.145 524.502
2265 0 108.344 13.4664 1459 63.782 387.353 522.607
2266 0 110.319 13.3522 1473 64.8941 387.729 523.191
2267 0 114.189 13.8981 1587 64.4008 387.805 521.2
2268 0 117.557 13.7721 1619 64.9981 387.979 519.892
2269 0 121.547 14.2826 1736 64.7177 387.674 515.953
2270 0 125.231 13.5111 1692 66.1537 387.917 516.528
2271 0 129.253 14.4291 1865 65.6729 387.675 512.033
2272 0 134.373 13.924 1871 66.6275 387.545 510.94
2273 0 138.439 14.2445 1972 66.0948 387.182 509.781
2274 0 139.439 13.2316 1845 68.3192 387.066 505.628
2275 0 143.492 13.9729 2005 67.3865 386.601 505.884
2276 0 148.436 14.7943 2196 66.7623 386.528 503.8
2277 1 74.317 10.3341 768 65.4141 386.125 545.368
2278 0 76.3214 10.3903 793 65.0631 385.972 543.66
2279 0 77.2774 10.8441 838 65.5656 385.846 540.794
2280 0 80.2533 11.5509 927 64.7573 385.871 540.398
2281 0 80.1717 12.4233 996 64.5442 385.798 540.031
2282 0 84.132 11.0897 933 65.7567 385.2 537.88
2283 0 87.1539 12.4148 1082 63.1506 385.201 537.453
2284 0 87.2439 11.9664 1044 64.4195 386.001 536.981
2285 0 91.2337 12.0241 1097 64.4011 385.548 536.088
2286 0 93.268 12.6517 1180 63.3992 385.492 535.131
2287 0 94.134 11.0268 1038 66.4538 385.246 532.118
2288 1 32.1093 9.2185 296 57.2669 385.03 566.821
2289 0 35.1709 9.21216 324 56.4414 385.287 567.318
2290 0 28.1552 8.02695 226 58.2434 385.398 566.619
2291 0 37.2113 9.0564 337 56.2878 385.525 565.635
2292 0 32.2259 8.6266 278 58.3094 385.353 564.701
2293 0 31.2228 8.58346 268 56.3731 385.302 567.228
2294 0 28.2483 9.8767 279 56.6165 386.667 567.136
2295 0 32.1956 8.47943 273 56.7326 386.359 567.938
2296 0 32.2188 9.06303 292 56.3322 386.342 568.288
2297 0 32.1728 8.23678 265 57.4415 386.385 567
2298 0 30.1867 9.47438 286 56.0979 385.794 568.85
2299 0 30.2606 7.89807 239 56.7364 386.607 568.431
2300 0 31.2836 8.53482 267 55.5356 386.056 569.255
2301 0 32.1838 8.35823 269 56.0074 386.004 568.089
2302 0 29.1388 9.33465 272 56.1728 385.732 567.882
2303 0 29.2393 8.10554 237 57.557 385.84 566.869
2304 0 32.4073 9.1029 295 55.7729 385.932 566.539
2305 0 33.3757 8.92866 298 55.2148 385.98 568.134
2306 0 30.113 8.23565 248 57.1089 386.109 566.629
2307 0 30.2629 8.75661 265 55.4755 385.66 569.928
2308 0 31.2246 8.29474 259 55.9614 385.699 570.486
2309 0 28.1603 7.13771 201 56.7761 385.9 570.08
2310 0 30.3055 9.6352 292 55.1164 386.079 569.192
2311 0 34.2539 8.14507 279 55.8172 386.323 566.785
2312 0 33.4291 8.46568 283 55.1943 386.367 568.198
2313 0 32.1463 8.11913 261 54.8238 385.743 566.333
2314 0 35.3749 9.24383 327 53.3303 386.48 566.021
2315 0 34.2445 9.92859 340 53.0794 386.297 565.4
2316 0 34.3418 9.78401 336 52.8631 385.827 567.545
2317 0 30.4783 9.51497 290 53.6621 386.097 567.421
2318 0 33.3351 9.11951 304 53.523 386.441 566.174
2319 0 30.2399 8.03573 243 55.2181 386.872 567.44
2320 0 32.2775 8.67477 280 54.4286 387.596 566.682
2321 0 31.1408 9.31253 290 54.0034 387.003 566.803
2322 0 34.3296 8.24363 283 53.7668 387.198 566.392
2323 0 34.2587 8.64015 296 53.0642 387.03 566.77
2324 0 35.299 7.45063 263 54.3004 387.278 565
2325 0 34.537 8.30992 287 53.8641 387.854 564.178
2326 0 34.2805 7.49698 257 54.8755 388.354 562.685
2327 0 34.3739 8.11663 279 52.853 388.197 564.613
2328 0 33.2705 9.43779 314 53.1338 388.455 562.277
2329 0 34.1458 8.0537 275 54.0436 388.415 562.698
2330 0 36.3994 9.39576 342 52.8538 388.5 560.927
2331 0 37.1627 8.93368 332 52.8735 388.997 561.678
2332 0 34.2134 8.38852 287 53.2369 389.178 562.659
2333 0 38.4448 6.60687 254 55.1535 388.815 562.606
2334 0 39.2412 7.49212 294 54.0306 389.32 560.276
2335 0 39.4394 7.8348 309 53.6505 389.511 560.793
2336 0 39.2831 9.5461 375 52.8693 389.475 558.445
2337 0 38.412 9.16381 352 52.7727 389.227 561.332
2338 0 38.4343 8.48201 326 53.0644 389.595 560.374
2339 0 37.4215 8.23057 308 54.0195 389.922 561.36
2340 0 35.6216 8.56223 305 53.2787 389.187 562.384
2341 0 35.3297 7.78382 275 53.5127 389.425 563.436
2342 0 32.4527 9.33666 303 53.1122 388.977 563.63
2343 0 33.3821 9.31637 311 53.0514 389.039 562.003
2344 0 34.2969 9.33028 320 52.5 389.578 560.112