time division length width area intensity CMx CMy
0 0 56.0768 11.5734 649 72.0123 288.139 562.507
1 0 59.104 12.2496 724 71.721 288.464 561.62
2 0 62.0835 12.9825 806 70.8337 288.573 561.619
3 0 64.1297 12.3656 793 72.7781 288.532 560.362
4 0 66.1459 12.6387 836 73.3182 288.19 556.806
5 0 70.0668 12.6165 884 72.2376 288.325 557.219
6 0 70.0464 12.8915 903 72.9657 288.137 554.483
7 0 72.1209 13.3664 964 72.9876 287.98 553.479
8 0 77.2143 13.0805 1010 73.6663 288.509 552.765
9 0 79.1874 12.5146 991 75.7356 288.915 550.623
10 0 84.1242 13.064 1099 75.4177 289.026 551.724
11 1 44.1225 11.2188 495 77.3717 288.713 568.345
12 0 46.0917 10.4791 483 76.882 288.758 567.857
13 0 48.1482 12.1084 583 74.5009 288.539 566.919
14 0 49.1803 11.956 588 74.2636 289.357 566.474
15 0 49.0673 12.2689 602 75.6113 289.248 564.502
16 0 52.1739 12.8033 668 73.7859 288.813 563.641
17 0 55.183 13.3375 736 72.1128 288.799 561.889
18 0 55.2348 13.2706 733 71.4543 288.791 560.98
19 0 57.1438 12.6873 725 71.331 289.383 560.829
20 0 60.1348 12.7879 769 71.0091 289.066 559.997
21 0 60.2194 12.7368 767 70.5476 288.72 559.551
22 0 64.1499 12.7982 821 70.2631 288.339 558.935
23 0 66.151 13.6203 901 69.3296 288.727 557.822
24 0 69.2253 13.0444 903 69.8007 288.281 558.268
25 0 70.1791 13.5795 953 69.7954 288.396 555.377
26 0 72.1846 12.6204 911 71.8419 288.406 553.51
27 0 73.0991 13.6801 1000 71.171 288.369 552.304
28 0 77.2417 13.05 1008 71.5198 289.008 550.402
29 1 39.1129 10.3291 404 71.2376 288.819 570.257
30 0 40.1851 10.5512 424 70.7075 288.679 570.517
31 0 42.0957 11.3076 476 70.2206 288.71 568.971
32 0 45.1174 11.7471 530 68.9943 288.94 568.925
33 0 47.2281 12.7043 600 68.1017 290.048 566.937
34 0 48.1002 11.6839 562 69.742 290.548 566.5
35 0 49.1911 12.8275 631 69.1838 290.06 563.816
36 0 50.1957 13.1884 662 68.8943 290.308 563.459
37 0 51.1538 12.179 623 70.9518 290.194 562.592
38 0 53.1233 13.1016 696 69.6523 289.866 562.059
39 0 57.2202 12.5305 717 69.6471 289.96 560.886
40 0 58.1545 12.6043 733 69.7995 290.562 558.516
41 0 59.1676 13.3857 792 68.7904 290.506 558.708
42 0 62.215 13.2766 826 68.2857 290.341 558.707
43 0 63.1744 13.0591 825 69.1176 290.384 557.224
44 0 64.1053 12.9474 830 69.2434 290.524 556.219
45 0 68.1125 12.7289 867 68.3426 290.119 557.932
46 0 69.112 12.9211 893 68.346 290.303 554.357
47 0 73.0752 13.2603 969 67.6481 290.402 553.773
48 0 76.0864 13.051 993 67.715 290.354 551.718
49 0 78.1274 13.7084 1071 66.9823 290.855 549.897
50 0 79.162 12.026 952 68.9401 290.763 550.05
51 1 45.063 9.91944 447 68.6309 290.564 568.121
52 0 47.0497 10.7546 506 67.1383 290.698 565.018
53 0 49.0601 11.0069 540 66.5444 290.15 566.265
54 0 49.0681 12.1668 597 65.593 289.796 562.864
55 0 50.0196 11.8354 592 58.7889 289.873 565.181
56 0 53.1404 13.4926 717 57.5914 289.921 563.173
57 0 51.0193 12.2699 626 59.9968 289.831 563.398
58 0 55.0925 12.5425 691 58.8524 290.159 561.55
59 0 56.0514 12.1139 679 59.3859 290.197 561.439
60 0 59.1476 13.5255 800 58.1763 290.375 560.464
61 0 61.0529 13.0706 798 58.9962 290.491 559.667
62 0 61.0508 12.0392 735 60.6272 290.34 558.958
63 0 64.2867 13.2376 851 59.2374 290.196 557.403
64 0 66.185 12.1931 807 60.8637 290.859 555.867
65 0 70.1778 12.7248 893 59.4905 290.787 555.417
66 0 72.1447 13.5977 981 59.3007 291.075 552.638
67 0 73.1468 13.1653 963 60.729 291.812 551.243
68 0 76.121 12.0466 917 62.1985 291.924 552.053
69 0 80.187 12.1466 974 62.0154 291.703 551.335
70 0 84.1044 14.1015 1186 60.0346 291.872 548.826
71 1 43.0812 9.81867 423 62.4539 290.891 568.284
72 0 46.0543 10.7048 493 62.7201 290.826 565.884
73 0 48.0403 11.7193 563 60.54 290.947 566.261
74 0 49.04 13.071 641 60.4852 291.012 564.846
75 0 49.2122 11.6028 571 63.7198 291.918 563.867
76 0 52.1945 13.2006 689 61.9942 292.409 561.254
77 0 54.176 12.5702 681 63.5477 292.907 560.824
78 0 55.1181 12.5911 694 63.2478 292.784 560.99
79 0 56.144 12.6817 712 63.7008 293.086 559.156
80 0 60.1505 13.6325 820 61.9049 293.355 557.216
81 0 61.1577 13.2935 813 62.3272 293.363 556.53
82 0 63.1237 12.7211 803 63.2379 293.933 555.615
83 0 64.1616 13.2011 847 63.5112 294.037 553.874
84 0 69.1221 13.8306 956 62.0868 294.253 553.113
85 0 71.1412 14.0706 1001 61.6364 294.057 551.319
86 0 74.1271 13.5038 1001 61.5684 294.342 550.873
87 0 76.1565 13.2359 1008 61.4494 294.586 548.694
88 0 79.1354 14.153 1120 59.0027 294.767 545.021
89 0 83.1377 14.6263 1216 56.7064 294.817 547.011
90 0 86.2185 14.5444 1254 57.2576 295.207 544.396
91 1 45.1341 11.2554 508 63.1339 294.787 564.427
92 0 44.0352 10.0828 444 70.0811 294.939 562.083
93 0 48.0333 11.7419 564 66.5106 295.131 560.392
94 0 47.0438 11.5424 543 66.7348 294.864 560.634
95 0 51.0446 12.2834 627 62.6252 295.833 557.517
96 0 53.0725 12.6431 671 60.6542 295.905 557.131
97 0 54.315 13.3481 725 83.469 295.756 556.713
98 0 54.2734 12.7134 690 60.6174 295.216 555.072
99 0 57.2675 14.0918 807 58.1623 295.01 554.529
100 0 59.4992 12.3363 734 61.1253 295.593 552.669
101 0 60.3564 13.4866 814 61.5725 295.861 552.399
102 0 62.3378 13.5712 846 60.2069 295.144 550.177
103 0 63.582 13.6517 868 60.6613 295.607 549.526
104 0 66.5875 14.8076 986 59.9473 296.13 548.368
105 0 67.5635 13.4984 912 62.9309 296.286 546.971
106 0 70.3182 13.382 941 63.8735 297.024 544.952
107 0 73.4366 13.6308 1001 64.2897 296.691 545.366
108 0 75.4403 13.7592 1038 65.7958 296.849 543.015
109 0 77.291 14.012 1083 62.8135 296.693 543.293
110 0 81.3439 15.3423 1248 57.9071 296.102 538.044
111 0 83.3789 13.5646 1131 58.9461 296.153 537.857
112 1 43.2394 10.9853 475 59.0253 296.229 558.183
113 0 44.2392 10.1946 451 60.4346 296.377 559.277
114 0 45.1706 11.3127 511 60.998 296.25 556.341
115 0 45.1501 10.6977 483 61.1615 295.59 555.859
116 0 48.0891 10.8549 522 59.9234 295.766 556.789
117 0 52.0935 12.8231 668 58.4865 295.787 553.795
118 0 52.137 12.0068 626 59.6837 295.524 554.583
119 0 53.0678 11.3628 603 60.9668 295.381 553.471
120 0 55.1268 12.6436 697 58.9426 295.359 553.237
121 0 56.0798 12.1256 680 60.1441 295.26 550.706
122 0 59.1519 13.2709 785 58.8089 295.266 548.72
123 0 60.1066 13.5426 814 58.0455 294.928 548.839
124 0 63.0988 13.566 856 58.5631 294.738 547.485
125 0 65.1866 12.1037 789 59.7326 295.108 546.427
126 0 68.0917 13.0559 889 58.6344 294.69 544.218
127 0 68.1071 13.2292 901 58.6537 294.233 545.584
128 0 72.2852 14.5811 1054 57.1044 294.38 543.808
129 0 71.2208 13.5635 966 58.5994 294.47 542.958
130 0 76.1549 12.8816 981 59.1498 293.777 541.86
131 0 79.1385 13.1415 1040 59.0923 294.525 537.929
132 0 82.3759 13.1349 1082 59.1192 294.939 539.168
133 1 43.0355 9.29464 400 60.8125 294.84 558.355
134 0 44.0754 10.845 478 59.636 294.977 556.797
135 0 46.1253 11.1002 512 59.3691 294.977 556.355
136 0 47.1112 10.4221 491 59.5886 295.026 553.986
137 0 49.1074 10.9352 537 58.4618 294.896 554.575
138 0 49.1143 11.0966 545 58.4532 293.461 555.783
139 0 53.08 12.7543 677 56.7194 292.965 554.498
140 0 55.3348 12.3792 685 56.8774 293.463 555.536
141 0 55.1459 11.4605 632 58.1044 293.707 554.161
142 0 57.0611 11.882 678 58 293.948 553.205
143 0 58.178 11.207 652 59.6411 293.994 552
144 0 61.3271 14.2188 872 56.7477 293.76 551.964
145 0 61.371 12.7096 780 58.8038 293.914 551.379
146 0 66.3499 13.6398 905 57.1249 294.006 550.179
147 0 67.5058 13.4211 906 58.2318 293.898 549.015
148 0 69.3712 14.2855 991 58.1483 294.014 546.798
149 0 70.4221 12.6665 892 60.2713 293.898 547.188
150 0 72.4268 13.4066 971 59.4449 294.387 546.024
151 0 75.091 13.3971 1006 60.2177 294.415 544.498
152 0 77.2525 13.6565 1055 60.3678 293.994 542.633
153 1 41.2604 10.8094 446 60.7152 293.861 562.152
154 0 42.4922 10.449 444 60.9572 294.484 559.759
155 0 44.3154 9.86112 437 61.9725 294.023 561.458
156 0 47.2682 11.8896 562 59.8932 293.961 559.724
157 0 47.2342 12.1522 574 60.5976 294.338 558.068
158 0 49.1549 12.6742 623 60.4141 293.469 557.303
159 0 50.2678 12.3538 621 61.1288 293.919 556.269
160 0 53.2788 12.7443 679 60.866 293.719 554.928
161 0 55.6912 13.2696 739 59.9378 293.725 552.3
162 0 56.4781 13.6336 770 59.3416 293.823 552.068
163 0 58.5269 12.3191 721 60.7767 293.664 550.763
164 0 58.5545 12.8086 750 61.4333 294.083 546.925
165 0 60.7328 14.5885 886 59.2167 294.435 546.691
166 0 63.6788 12.7201 810 60.7284 294.911 546.085
167 0 63.3722 12.5134 793 61.4767 294.682 544.335
168 0 66.692 13.7948 920 60.1141 294.327 542.904
169 0 68.8739 12.4285 856 61.6589 294.766 542.025
170 0 70.5852 14.0823 994 59.6398 294.872 539.809
171 0 74.9474 14.1966 1064 59.2002 294.942 538.157
172 0 75.5951 13.2945 1005 60.8139 295.301 537.006
173 0 78.9071 14.0672 1110 59.5072 295.198 536.122
174 0 81.8733 13.8873 1137 60.139 295.137 533.177
175 0 82.887 13.7899 1143 60.6947 295.508 532.972
176 0 86.7585 13.9122 1207 60.3331 295.252 532.162
177 0 89.7293 14.6886 1318 59.6434 295.548 529.02
178 0 91.6543 15.0566 1380 59.987 295.638 526.626
179 0 94.4486 16.0828 1519 59.2186 295.868 526.044
180 0 95.8194 13.4524 1289 62.7223 296.026 525.619
181 0 99.6768 13.1625 1312 63.5678 295.81 525.041
182 0 101.599 13.9076 1413 62.9526 296.229 522.706
183 0 106.79 14.9827 1600 61.615 296.16 520.385
184 0 108.453 15.1402 1642 61.7728 296.479 519.766
185 0 108.453 15.1771 1646 156.493 297.478 519.86
186 0 115.588 14.0759 1627 63.1955 296.742 515.577
187 0 117.487 13.3717 1571 64.275 297.26 515.503
188 0 121.307 13.437 1630 64.208 297.321 512.891
189 0 126.368 14.7902 1869 62.511 297.246 510.372
190 0 131.241 15.3306 2012 61.9324 297.561 508.932
191 0 134.239 13.8037 1853 64.5073 298.017 505.715
192 1 71.2538 10.5538 752 63.9255 298.21 539.544
193 0 74.1923 10.8097 802 62.5237 298.615 533.936
194 0 75.1769 12.8364 965 59.3596 298.416 533.464
195 0 76.0516 12.1365 923 61.2546 298.625 527.995
196 0 83.1768 15.5692 1295 57.0625 298.358 530.623
197 0 84.0744 13.9876 1176 60.21 298.412 525.37
198 0 89.2771 13.6205 1216 60.7294 298.562 524.204
199 0 93.1786 13.5332 1261 61.1998 298.583 524.079
200 0 93.1005 12.073 1124 63.5053 298.409 520.198
201 0 99.2008 13.0947 1299 61.2602 298.921 518.851
202 0 102.208 13.6779 1398 60.7117 299.207 515.79
203 1 50.0234 10.1752 509 60.4617 298.585 542.786
204 0 54.0237 12.0873 653 58.7381 299.089 540.925
205 0 60.1262 12.1744 732 59.7883 300.264 544.914
206 0 62.1446 12.9215 803 59.0162 299.682 546.308
207 0 63.1322 12.355 780 60.1474 300.346 545.128
208 0 64.1794 11.8106 758 61.3826 299.813 543.344
209 0 66.1182 13.6271 901 59.6604 299.78 542.219
210 0 67.1003 12.8763 864 60.728 299.292 541.852
211 0 70.0979 12.0546 845 61.5609 299.243 539.809
212 0 73.1829 13.3638 978 60.0327 299.553 540.084
213 0 74.1085 13.7906 1022 60.7485 299.389 537.838
214 0 76.3235 12.696 969 62.0392 298.97 538.104
215 0 80.1584 12.7498 1022 62.3317 298.4 536.447
216 0 84.2177 13.002 1095 61.4858 298.259 537.006
217 0 85.2001 13.2394 1128 61.9371 298.286 534.577
218 1 44.1001 9.84124 434 62.7419 298.157 553.288
219 0 46.1986 9.17778 424 63.5684 297.767 554.186
220 0 49.146 10.6011 521 61.9079 297.403 552.745
221 0 50.1136 10.6757 535 61.3234 297.359 552.617
222 0 52.2012 11.4365 597 60.4992 297.281 551.392
223 0 53.1412 11.7611 625 60.5952 297.197 549.781
224 0 55.0647 11.2413 619 60.3376 297.239 550.746
225 0 55.0877 11.4908 633 61.2812 297.321 547.7
226 0 59.1121 11.8081 698 60.4928 297.056 548.334
227 0 59.0857 10.8656 642 61.8162 297.64 546.579
228 0 61.0903 11.9823 732 61.0287 297.008 547
229 0 63.1277 12.4351 785 60.6306 296.609 545.116
230 0 63.0932 10.3973 656 62.9177 297.041 547.29
231 0 66.1534 11.5943 767 61.9009 297.172 544.455
232 0 70.1677 11.615 815 61.7141 296.298 544.54
233 0 70.1218 12.2929 862 62.036 296.233 542.222
234 0 73.0549 12.6617 925 61.0876 296.359 542.786
235 0 76.1161 12.5598 956 61.6349 296.105 540.105
236 0 78.2009 12.7109 994 61.3551 296.043 540.079
237 0 80.1441 12.4276 996 62.4608 295.781 536.594
238 1 41.0731 9.59265 394 61.8071 294.721 558.376
239 0 42.0779 11.3837 479 59.0251 294.71 557.762
240 0 45.0534 10.876 490 59.4816 294.967 556.02
241 0 46.0657 8.55299 394 61.2107 294.848 559.447
242 0 49.0807 11.3079 555 59.4306 295.389 555.294
243 0 51.1487 11.0462 565 59.508 295.812 554.74
244 0 50.1724 11.9986 602 59.6047 295.615 555.787
245 0 50.1264 11.3114 567 61.3386 296.409 553.727
246 0 55.1945 12.8817 711 58.353 295.931 553.574
247 0 55.1589 12.2918 678 61.7891 295.857 551.776
248 0 57.1826 11.8043 675 61.7407 295.815 551.526
249 0 59.0949 12.7253 752 60.8537 295.903 551.703
250 0 59.1246 12.8204 758 60.8193 295.875 550.768
251 0 61.1535 12.8856 788 61.0863 295.853 548.161
252 0 62.1421 13.4691 837 60.1828 295.659 546.986
253 0 64.0881 12.8261 822 61.4526 295.747 546.951
254 0 66.1181 11.5248 762 62.7192 295.207 549.432
255 0 68.1207 14.3569 978 60.2515 295.302 545.881
256 0 69.1938 12.2554 848 63.1557 295.129 546.381
257 0 70.1387 12.6464 887 63.4589 295.184 544.193
258 0 74.1378 13.5019 1001 62.2767 295.078 542.905
259 0 76.1776 12.5102 953 64.063 294.864 544.677
260 0 79.1166 12.7786 1011 64.0366 294.516 543.272
261 0 79.1363 13.1924 1044 65.0307 294.523 541.767
262 0 85.0877 14.9845 1275 62.2933 294.209 539.807
263 0 86.1338 14.5936 1257 63.5473 294.181 539.791
264 0 88.0698 14.0116 1234 65.2504 294.092 537.55
265 0 90.1081 13.85 1248 65.4623 294.166 537.988
266 0 92.1459 14.8786 1371 65.477 294.114 535.103
267 0 95.0628 14.4957 1378 66.9325 293.838 531.676
268 0 99.128 16.5846 1644 64.2336 294.029 532.355
269 0 103.194 15.2528 1574 66.0591 294.374 530.848
270 1 57.0385 9.78286 558 69.3781 293.78 556.176
271 0 61.0273 11.0442 674 69.2181 294.144 551.666
272 0 62.0788 12.7258 790 66.6304 293.601 552.519
273 0 64.0933 12.4506 798 66.0451 294.024 553.035
274 0 66.0846 13.2557 876 66.4886 294.311 548.651
275 0 68.111 13.1697 897 66.903 294.425 547.217
276 0 70.0689 13.6294 955 65.8775 294.782 546.726
277 0 73.1464 12.6732 927 66.4671 294.753 545.016
278 0 75.1578 12.7066 955 66.5204 294.942 543.533
279 0 77.0808 14.1021 1087 65.3579 294.939 540.979
280 0 80.1985 13.4292 1077 66.1662 294.842 539.971
281 0 83.0865 13.0707 1086 66.8122 294.73 539.89
282 0 84.1105 13.0543 1098 67.3652 294.959 538.765
283 0 87.1229 13.326 1161 67.2532 295.391 537.262
284 0 91.0974 12.6897 1156 68.9974 295.644 535.308
285 0 94.1476 14.1586 1333 66.955 295.842 532.841
286 0 98.178 14.4432 1418 66.3575 295.827 531.501
287 0 100.165 12.9587 1298 68.8806 296.005 530.425
288 1 51.0528 10.5773 540 68.0778 295.772 554.046
289 0 54.0536 11.0261 596 68.9916 296.523 550.367
290 0 56.122 13.0252 731 66.4761 296.911 549.141
291 0 57.1333 12.6021 720 67 297.261 550.006
292 0 59.1418 12.2756 726 67.9821 297.595 547.638
293 0 59.1283 12.8703 761 67.406 297.695 547.725
294 0 62.1028 13.3972 832 66.4363 297.694 546.508
295 0 62.0474 12.8934 800 67.59 297.905 543.217
296 0 65.3385 12.5959 823 67.4484 297.723 544.166
297 0 66.377 13.5589 900 66.4067 298.236 542.104
298 0 66.2392 12.7568 845 68.1124 298.472 540.412
299 0 70.1983 12.4789 876 67.0959 298.821 541.332
300 0 69.1788 12.6195 873 67.9416 298.876 538.551
301 0 74.3062 13.1079 974 66.0329 299.027 538.606
302 0 77.4216 13.6913 1060 64.8679 298.647 536.324
303 0 78.2234 14.0751 1101 64.7375 299.792 533.447
304 0 80.3082 13.7719 1106 64.5443 299.194 534.407
305 0 83.2386 13.7556 1145 64.4812 299.366 532.067
306 0 85.3522 13.9071 1187 63.8997 299.649 530.451
307 0 90.4111 14.8433 1342 62.3808 299.916 529.085
308 0 90.2365 13.7971 1245 64.3229 299.902 524.606
309 0 93.3521 13.7651 1285 63.9479 300.249 525.942
310 0 93.2388 13.0418 1216 64.8421 299.77 522.476
311 0 97.3758 13.6995 1334 63.3718 299.621 523.813
312 0 102.374 14.5838 1493 61.9826 299.882 520.572
313 0 102.323 13.4965 1381 63.7415 299.971 516.939
314 0 104.46 13.5075 1411 63.4678 300.14 516.547
315 0 108.465 13.4974 1464 63.3531 300.144 513.491
316 0 110.445 13.9617 1542 62.6206 299.341 514.153
317 0 114.365 13.5794 1553 62.5911 300.044 512.281
318 0 119.391 15.0766 1800 60.1683 300.132 510.06
319 0 121.312 13.1809 1599 62.6954 300.467 506.929
320 1 61.2072 11.0281 675 60.8341 298.96 538.803
321 0 62.0861 12.1122 752 60.0824 299.098 537.032
322 0 67.0981 11.6993 785 60.7083 298.955 535.259
323 0 70.0737 14.0281 983 57.5677 299.374 534.738
324 0 69.2324 12.1619 842 61.7292 299.086 529.052
325 0 74.1038 13.3326 988 59.8968 298.921 530.728
326 0 76.2522 13.0882 998 60.1172 299.476 531.801
327 0 82.2283 12.3923 1019 60.4396 299.641 529.297
328 0 85.1861 12.326 1050 60.919 299.774 526.626
329 0 87.1953 13.1085 1143 60.4059 299.679 525.738
330 0 89.2606 13.8135 1233 60.0008 299.706 523.983
331 0 92.2589 12.4541 1149 61.7929 299.015 520.995
332 0 96.1609 12.8743 1238 60.5921 299.102 523.138
333 0 101.203 14.4265 1460 59.4384 298.85 518.699
334 0 102.229 13.5676 1387 60.7866 299.034 516.156
335 0 107.173 13.4175 1438 60.6085 298.82 515.375
336 0 111.153 13.3059 1479 60.4016 298.262 512.873
337 0 117.34 15.2462 1789 58.2079 298.638 512.168
338 0 118.16 13.9895 1653 60.0544 298.443 509.747
339 0 124.141 12.7758 1586 60.7667 297.982 509.098
340 0 130.173 12.8368 1671 60.9952 297.934 505.196
341 0 134.269 13.0038 1746 61.5676 297.634 507.841
342 0 140.182 13.2756 1861 61.4492 297.211 506.553
343 0 146.209 14.5887 2133 60.3094 296.788 503.256
344 0 151.179 14.6449 2214 59.9842 296.483 500.812
345 0 156.099 15.0289 2346 60.3764 295.737 497.976
346 0 162.203 15.3511 2490 59.9249 296.763 496.625
347 0 167.268 14.9999 2509 61.1112 296.511 494.174
348 0 172.247 14.903 2567 61.5341 296.222 490.945
349 0 179.198 14.3752 2576 62.3354 295.701 489.253
350 0 183.293 14.9597 2742 62.7859 295.234 484.555
351 0 186.402 13.8035 2573 64.7058 294.713 480.009
352 0 195.233 15.3509 2997 62.8785 294.555 477.832
353 0 200.272 15.2792 3060 63.5974 294.059 474.877
354 0 208.314 15.6302 3256 63.4291 293.882 472.476
355 0 211.441 15.0728 3187 64.658 294.181 470.763
356 0 220.298 15.3111 3373 64.3555 293.848 468.547
357 0 225.311 13.7365 3095 66.9383 294.166 461.809
358 0 233.333 16.0372 3742 63.4463 293.622 460.358
359 0 242.261 18.7153 4534 60.2 294.625 454.197
360 1 52.052 9.39446 489 60.2045 294.618 552.104
361 0 54.1271 9.58854 519 58.9171 294.453 551.32
362 0 54.06 9.06401 490 57.1816 294.814 552.29
363 0 56.0704 10.8257 607 55.7562 295.316 549.077
364 0 58.0561 10.0592 584 56.5377 295.7 550.009
365 0 62.074 11.4541 711 55.4079 295.54 547.717
366 0 63.0936 11.3799 718 55.4875 295.469 547.708
367 0 63.1022 11.315 714 56.7521 295.556 545.606
368 0 67.0965 12.5491 842 55.6259 295.274 543.741
369 0 69.136 11.0941 767 59.2477 295.266 543.18
370 0 72.2 12.3269 890 57.4809 295.456 541.821
371 0 74.2667 10.7451 798 58.6366 295.228 540.991
372 0 76.1856 11.4982 876 57.4406 296.043 539.199
373 0 80.2647 11.5244 925 56.9697 295.824 538.049
374 1 46.0699 9.2034 424 56.658 295.507 555.675
375 0 47.133 8.91095 420 57.2048 295.333 556.076
376 0 48.0473 10.2815 494 55.8057 295.296 554.259
377 0 49.0367 10.0333 492 55.9106 295.307 552.372
378 0 53.0195 9.07213 481 54.9501 295.191 553.917
379 0 54.0356 12.1586 657 52.5068 295.744 551.452
380 0 52.0608 10.7759 561 55.4528 295.317 549.055
381 0 52.0883 10.5398 549 53.4353 296.324 552.517
382 0 55.0343 11.5019 633 52.4882 296.739 551.081
383 0 56.0561 9.98999 560 55.0411 296.22 548.43
384 0 58.0326 10.5113 610 55.3 296.561 548.662
385 0 58.1096 11.2374 653 55.0858 297.096 549.671
386 0 58.1736 12.3252 717 54.5593 297.317 548.774
387 0 64.0454 11.1952 717 55.5955 297.039 546.646
388 0 65.0591 13.0036 846 55.7199 297.291 543.933
389 0 63.0969 12.2193 771 57.6187 298.174 543.599
390 0 66.1307 12.7021 840 57.5095 298.039 542.33
391 0 70.1249 14.0178 983 55.7701 298.131 542.657
392 0 69.1265 13.063 903 58.443 298.217 541.178
393 0 72.0881 14.7736 1065 56.6423 298.529 541.951
394 0 72.1537 13.3049 960 59.2854 298.816 540.478
395 0 75.2678 14.9865 1128 56.883 299.363 540.039
396 0 76.0664 13.6065 1035 59.1459 299.238 538.411
397 0 80.1192 14.7156 1179 58.1908 299.632 535.099
398 0 80.0633 13.0022 1041 60.9606 300.098 533.968
399 0 83.0492 13.3896 1112 60.8489 300.168 534
400 0 85.0425 13.5932 1156 61.2085 300.428 532.298
401 0 87.1534 13.2066 1151 62.3727 300.401 531.747
402 0 88.0574 13.707 1207 62.4731 300.098 530.771
403 0 90.1019 12.9853 1170 64.0795 300.454 528.566
404 0 97.092 13.6056 1321 62.9235 299.921 527.413
405 0 98.0787 14.468 1419 62.4397 299.76 525.932
406 0 102.076 14.2246 1452 63.1928 300.56 522.553
407 0 105.14 14.9324 1570 62.3745 300.501 522.292
408 0 109.096 15.9677 1742 61.1952 299.08 522.13
409 0 112.112 15.3151 1717 62.3244 299.024 519.839
410 0 114.141 14.3419 1637 63.6915 299.228 519.939
411 1 59.1086 10.2523 606 63.8944 298.837 547.87
412 0 61.0595 10.3342 631 63.8574 299.49 545.883
413 0 64.0782 11.5952 743 62.9906 299.271 544.238
414 0 68.0469 12.7265 866 61.1813 298.939 543.248
415 0 68.2106 12.9452 883 62.7995 299.393 543.129
416 0 70.2819 12.834 902 63.3581 299.591 540.106
417 0 72.2285 13.2219 955 62.7916 299.197 540.245
418 0 74.2447 12.4992 928 63.583 299.14 536.717
419 0 76.1966 12.3496 941 63.4676 298.892 537.177
420 0 82.3107 13.9714 1150 60.0165 298.456 536.349
421 0 82.3111 12.4042 1021 62.3066 298.584 534.844
422 0 84.304 12.7633 1076 62.0102 298.384 533.594
423 0 87.3762 13.9741 1221 60.1417 298.084 531.363
424 0 88.1666 12.5217 1104 61.5806 298.923 530.675
425 0 93.1658 13.6316 1270 60.0134 298.584 528.411
426 0 98.2631 14.0338 1379 58.8818 298.341 527.363
427 1 51.1677 9.61544 492 59.7297 298.878 550.427
428 0 54.2312 10.7134 581 58.3718 298.494 548.78
429 0 54.0774 10.411 563 58.6767 297.92 549.648
430 0 58.2497 12.7898 745 55.8899 298.072 547.78
431 0 60.0368 12.8921 774 55.4354 296.857 547.421
432 0 59.0468 11.7195 692 56.8757 296.436 546.673
433 0 63.1273 11.358 717 56.9247 296.385 545.586
434 0 63.1131 10.8218 683 57.1025 296.209 546.697
435 0 67.185 12.9493 870 55.2333 296.143 543.113
436 0 71.1388 12.2999 875 55.6034 296.176 541.872
437 0 73.1138 12.7883 935 55.231 296.207 541.436
438 0 73.0838 12.4104 907 56.4311 296.234 538.642
439 0 77.0706 13.6109 1049 55.0191 295.736 539.048
440 0 78.1652 12.5503 981 56.1172 295.606 539.42
441 0 80.0761 12.5506 1005 56.0995 295.889 537.288
442 0 85.1411 13.5657 1155 54.3939 296.329 537.247
443 0 85.0889 11.9052 1013 57.0622 296.121 534.872
444 0 89.141 13.6189 1214 55.1903 296.031 534.943
445 0 90.1792 12.0094 1083 56.6602 296.252 536.227
446 0 94.1531 13.0638 1230 55.6333 296.518 534.142
447 0 96.2706 13.0881 1260 56.1151 296.572 530.849
448 0 100.084 13.3687 1338 55.8857 296.367 528.167
449 0 104.21 13.1369 1369 56.0007 295.923 526.976
450 0 105.197 12.8615 1353 56.5432 296.157 525.194
451 1 56.0346 10.4043 583 54.0154 294.503 552.022
452 0 59.0157 10.3362 610 53.1082 294.739 552.869
453 0 61.107 11.8644 725 52.76 294.803 548.298
454 0 62.046 10.2505 636 54.1981 295.27 548.531
455 0 65.1333 13.956 909 51.659 296.625 546.285
456 0 66.0938 11.7258 775 53.6955 295.929 546.495
457 0 70.1335 11.5066 807 53.3903 295.835 545.134
458 0 70.1252 11.5365 809 53.7787 295.829 544.765
459 0 75.1531 14.1178 1061 51.3996 295.892 542.678
460 0 78.1144 13.4546 1051 52.0343 295.906 542.181
461 0 78.1085 13.2892 1038 53.0983 296.055 542.133
462 0 80.1464 12.8764 1032 54.1163 296.517 538.595
463 0 83.2222 12.8812 1072 53.9272 296.464 539.201
464 0 85.1047 13.3013 1132 53.879 296.611 536.987
465 0 85.2286 12.4019 1057 55.421 296.491 537.257
466 0 89.1356 12.4081 1106 55.6501 296.186 535.51
467 0 93.1655 13.1164 1222 54.8339 296.555 532.125
468 0 95.1378 13.4857 1283 54.9267 296.769 530.279
469 0 96.1534 11.9913 1153 56.7988 296.794 530.061
470 0 100.108 13.026 1304 55.4831 296.878 529.074
471 0 104.221 13.7977 1438 54.7191 296.371 528.934
472 1 55.0533 10.2628 565 55.2885 295.823 552.766
473 0 56.0791 11.3411 636 54.6494 295.272 551.8
474 0 60.0917 12.0316 723 54.0456 295.71 550.25
475 0 60.0659 11.7538 706 54.8357 295.313 549.302
476 0 62.0155 11.5616 717 55.4672 295.628 548.964
477 0 64.0999 11.8097 757 55.2668 295.889 548.701
478 0 66.1258 12.7635 844 55.1197 296.198 545.93
479 0 68.119 13.0213 887 55.1511 295.985 546.068
480 0 69.1159 12.139 839 56.7819 296.232 545.684
481 0 70.1004 12.425 871 56.7646 296.223 545.848
482 0 73.2012 12.814 938 56.693 296.255 543.607
483 0 75.123 13.0985 984 56.4014 296.352 541.213
484 0 76.0927 13.1682 1002 56.9581 296.093 541.33
485 0 79.1327 13.4079 1061 56.3214 295.781 541.889
486 0 80.0746 12.7007 1017 58.3363 296.003 539.188
487 0 83.1581 12.8671 1070 58.1159 296.158 538.243
488 0 86.1485 13.4767 1161 57.8656 296.152 534.737
489 0 89.0897 13.1328 1170 58.0949 296.025 536.784
490 0 92.1501 13.4238 1237 58.0574 296.258 533.554
491 0 96.0968 13.6425 1311 57.9542 296.728 531.375
492 1 50.0689 9.70662 486 58.8539 295.893 555.323
493 0 51.0147 9.01701 460 60.137 296.285 553.485
494 0 54.0473 10.4168 563 58.6004 296.575 552.721
495 0 56.0835 12.3388 692 57.1749 296.328 550.786
496 0 56.0508 11.7572 659 58.2974 296.833 549.331
497 0 58.0851 11.4487 665 58.5955 297.567 550.508
498 0 60.1011 13.1279 789 56.8175 298.076 548.725
499 0 62.143 12.9701 806 57.4615 297.8 547.104
500 0 63.085 12.2375 772 58.6477 298.431 547.25
501 0 66.1368 12.2171 808 58.2636 297.795 546.656
502 0 68.1038 13.4941 919 56.9587 298.047 543.902
503 0 71.1136 13.4011 953 57.1249 298.02 543.453
504 0 73.1219 13.1835 964 57.6836 298.249 540.473
505 0 72.0786 12.6529 912 59.1075 297.777 540.5
506 0 77.1595 13.5045 1042 57.4136 297.925 539.341
507 0 81.1645 13.8731 1126 57.2114 297.296 537.741
508 0 83.1453 12.7969 1064 57.766 297.211 536.946
509 0 86.1838 13.6917 1180 56.7407 297.569 534.051
510 1 43.038 9.13146 393 58.4427 296.234 556.975
511 0 43.0393 10.1767 438 57.0525 296.685 555.272
512 0 46.0461 9.46877 436 58.2523 296.083 553.78
513 0 48.0352 9.95104 478 57.3996 296.155 554.845
514 0 50.022 11.5349 577 55.6101 295.735 553.208
515 0 52.0562 11.2379 585 55.9333 296.06 554.012
516 0 53.0222 11.316 600 58.0083 296.147 551.41
517 0 54.0458 11.6753 631 56.3946 296.054 551.797
518 0 56.0556 11.4707 643 56.7014 296.101 549.975
519 0 56.0124 11.7653 659 57.0774 296.68 548.533
520 0 59.0311 11.5871 684 56.8421 296.558 548.385
521 0 61.119 12.1075 740 56.4095 296.931 549.669
522 0 63.0656 12.5108 789 56.5843 297.479 543.529
523 0 65.1421 12.2808 800 56.605 296.688 545.942
524 0 68.0978 12.3499 841 56.9084 296.352 544.369
525 0 70.0447 13.2059 925 56.1124 297.409 543.395
526 0 71.1431 13.1425 935 56.3743 297.542 544.246
527 0 72.0852 11.3616 819 58.3443 297.469 544.194
528 0 74.1645 12.688 941 58.0776 297.582 541.201
529 0 76.238 13.8514 1056 57.2443 297.739 538.358
530 0 79.1692 12.7196 1007 58.5372 298.253 538.804
531 0 83.0968 13.4903 1121 57.1561 298.296 537.004
532 0 86.2097 13.444 1159 57.4987 298.35 535.39
533 0 85.2723 13.451 1147 58.646 298.809 533.247
534 0 89.1713 13.9843 1247 58.0818 298.52 533.255
535 0 92.1387 12.9045 1189 59.2826 298.168 531.186
536 0 95.2426 13.5339 1289 58.8782 298.641 529.389
537 1 52.0903 11.3649 592 59.3767 298.838 549.397
538 0 51.1115 11.1717 571 60.2399 299.2 547.072
539 0 55.0479 11.5899 638 59.1755 298.524 547.823
540 0 56.1017 12.4239 697 57.429 297.815 549.725
541 0 59.05 12.718 751 58.1252 297.418 548.116
542 0 59.1126 12.5523 742 58.7642 297.662 547.061
543 0 62.2108 13.3739 832 57.4748 297.506 547.781
544 0 63.0988 12.9955 820 58.1878 296.866 546.451
545 0 66.1436 12.8206 848 58.0071 297.231 545.691
546 0 68.0821 13.5572 923 57.7476 297.45 543.457
547 0 69.0907 13.2579 916 58.1124 297.04 543.002
548 0 71.0768 13.2251 940 58.0436 297.422 542.362
549 0 74.1078 13.7098 1016 57.686 297.069 539.662
550 0 75.1042 13.5146 1015 58.6384 297.353 539.826
551 0 78.0843 13.844 1081 58.1758 297.595 538.697
552 0 78.1145 11.7392 917 60.9487 297.682 537.166
553 0 82.1045 13.5072 1109 58.9369 298.259 536.02
554 0 86.1353 13.6994 1180 59.111 297.872 534.752
555 0 86.1015 12.253 1055 61.5261 297.522 533.976
556 0 88.1532 13.6467 1203 60.0208 297.2 532.491
557 0 94.1141 13.2074 1243 59.5977 296.939 534.026
558 0 96.1596 13.8936 1336 59.3413 297.858 529.546
559 0 100.159 15.9346 1596 57.1554 297.62 528.706
560 1 52.0822 9.50421 495 60.6505 296.941 553.8
561 0 53.1194 10.5046 558 60.6093 297.21 551.81
562 0 56.1155 10.1576 570 59.7737 297.288 550.475
563 0 58.1163 11.477 667 58.4243 297.51 547.984
564 0 59.1084 11.8427 700 58.3343 297.27 548.664
565 0 61.0967 12.914 789 56.9227 296.925 547.712
566 0 63.073 10.5592 666 60.1652 296.314 547.683
567 0 68.1239 13.5048 920 56.4467 297.213 544.483
568 0 69.1134 13.1234 907 57.4487 297.423 543.748
569 0 72.0908 13.594 980 56.8031 296.538 542.257
570 0 73.1006 12.9274 945 57.7534 296.713 541.708
571 0 74.1407 13.2856 985 57.7939 296.676 541.198
572 0 76.0262 12.7719 971 57.9567 296.092 540.939
573 0 81.0642 14.6921 1191 55.8035 295.907 538.164
574 0 80.0543 12.7538 1021 59.1038 295.16 538.084
575 0 84.1297 12.9324 1088 58.4347 295.253 537.711
576 0 87.0474 13.7741 1199 57.9725 294.959 537.145
577 0 89.1808 12.9512 1155 59.2329 295.25 532.19
578 0 92.0567 13.3179 1226 58.8369 294.878 533.874
579 0 93.1111 12.4797 1162 60.2444 295.526 529.801
580 0 96.1041 13.2148 1270 59.4244 295.391 530.15
581 0 100.13 12.8732 1289 59.2669 295.164 528.638
582 0 103.105 14.17 1461 57.7502 295.392 526.473
583 0 106.146 13.2082 1402 58.7496 295.014 525.261
584 0 109.333 13.189 1442 58.5603 295.148 525.356
585 0 112.211 13.439 1508 58.9251 294.995 521.274
586 0 116.289 13.3116 1548 59.1298 294.496 519.373
587 1 62.1226 10.0286 623 59.1236 295.324 549.568
588 0 65.118 10.9954 716 57.6047 294.965 549.916
589 0 65.2115 11.7311 765 56.4562 294.894 547.881
590 0 71.0898 12.5053 889 55.5816 294.865 544.992
591 0 72.1374 12.7812 922 55.7918 294.627 543.269
592 0 75.1032 12.6626 951 56.1157 294.849 543.069
593 0 73.123 10.6533 779 59.1309 294.276 540.157
594 0 79.2041 11.8428 938 56.2953 294.469 540.196
595 0 80.1008 11.498 921 56.5168 294.27 540.176
596 0 85.1214 12.8287 1092 55.0192 294.363 535.53
597 0 88.1269 12.5387 1105 54.6887 294.433 537.416
598 0 93.1992 14.807 1380 52.8145 294.125 535.849
599 0 95.1738 12.8502 1223 55.3091 294.367 535.131
600 0 98.1601 14.1911 1393 54.0467 294.324 532.067
601 1 51.1283 11.1484 570 53.0333 293.147 555.716
602 0 54.1432 11.9129 645 52.693 294.181 556.313
603 0 54.1134 11.365 615 53.452 293.797 555.624
604 0 54.1032 10.5539 571 53.8757 293.834 553.69
605 0 57.1304 12.5327 716 51.0503 293.98 554.899
606 0 58.1667 11.9656 696 53.1667 294.371 553.115
607 0 61.1331 13.3152 814 53.3636 294.394 551.405
608 0 61.1157 11.9609 731 56.2681 294.367 551.185
609 0 63.1016 11.6479 735 57.098 294.057 551.773
610 0 65.1218 12.7607 831 56.142 294.147 549.688
611 0 66.1012 12.3901 819 57.8559 293.701 548.209
612 0 69.1476 12.6975 878 56.6572 294.386 546.212
613 0 72.1354 12.227 882 58.1043 294.107 545.201
614 0 74.1229 11.6428 863 58.9409 294.385 545.016
615 0 76.1706 12.4983 952 57.8771 293.938 542.458
616 0 78.2166 12.5677 983 58.3428 294.32 542.221
617 0 80.1304 11.968 959 58.2482 293.848 541.26
618 1 41.0915 9.272 381 57.6562 293.018 561.163
619 0 43.0411 10.4551 450 56.4333 293.178 558.447
620 0 47.0365 11.0127 518 54.5888 293.087 558.714
621 0 48.05 11.821 568 54.1461 293.292 558.178
622 0 48.0305 11.4302 549 54.0419 293.65 558.284
623 0 50.1056 12.3539 619 53.0517 293.569 556.283
624 0 51.2375 12.647 648 54.0926 294.344 556.194
625 0 54.2576 12.5328 680 54.2912 295.206 554.366
626 0 55.1468 12.2219 674 53.9199 295.289 554.586
627 0 56.1206 12.0099 674 55.1276 295.764 553.668
628 0 57.1615 12.7184 727 54.37 295.836 554.38
629 0 59.0895 12.6926 750 55.1187 295.869 554.061
630 0 59.2205 13.3737 792 55.6389 296.01 550.753
631 0 62.1765 14.6036 908 53.8018 296.73 548.256
632 0 63.1874 12.7874 808 55.6238 296.058 551.177
633 0 66.1328 12.0969 800 55.9062 295.19 549.82
634 0 67.1019 15.469 1038 53.0106 295.692 547.205
635 0 70.2401 13.1264 922 55.7874 295.998 546.488
636 0 70.3003 12.8449 903 56.5449 296.46 546.306
637 0 75.3457 14.241 1073 54.8229 296.327 542.868
638 0 73.2966 11.6786 856 58.2792 297.466 544.404
639 0 75.2781 12.4605 938 58.0725 296.615 541.687
640 0 79.1873 14.813 1173 55.1722 297.624 539.891
641 0 81.2078 13.2007 1072 56.8601 297.243 539.772
642 0 85.3179 13.4673 1149 56.9617 297.071 538.924
643 1 43.0615 10.3573 446 55.1816 297.094 555.316
644 0 44.0728 9.93809 438 55.8174 296.829 554.774
645 0 45.081 11.4239 515 55.9417 296.631 552.144
646 0 47.1346 10.4806 494 56.3826 296.911 552.176
647 0 47.1726 11.1929 528 57.2614 297.778 549.886
648 0 50.0142 13.0363 652 54.8558 297.42 548.532
649 0 54.1121 12.1784 659 56.0379 296.155 553.417
650 0 54.0611 12.4304 672 56.881 296.205 552.027
651 0 56.1065 12.9218 725 55.7448 296.418 551.309
652 0 57.0464 12.1655 694 56.4236 296.808 550.876
653 0 59.0286 12.0619 712 56.5267 297.156 549.621
654 0 60.1821 13.1767 793 55.3695 297.353 547.559
655 0 62.085 13.3688 830 55.0012 297.212 545.993
656 0 65.0756 13.0156 847 55.0638 296.974 546.122
657 0 67.0824 12.5964 845 55.8604 297.452 546.186
658 0 70.0853 12.9271 906 55.7141 297.137 542.38
659 0 71.0884 13.026 926 54.4276 297.449 544.044
660 0 75.2014 14.0024 1053 53.4967 297.134 542.116
661 0 78.059 14.0022 1093 52.9332 297.717 538.533
662 0 80.0682 13.3511 1069 53.4621 297.683 537.164
663 0 82.2868 12.979 1068 53.5562 298.055 535.899
664 0 86.202 12.8883 1111 53.8209 298.284 533.098
665 0 89.1684 13.7829 1229 52.585 298.609 532.87
666 1 45.1253 9.28525 419 53.969 298.088 554.014
667 0 48.2468 11.0474 533 52.0038 298.124 553.439
668 0 49.1423 9.95069 489 53.4519 298.182 551.644
669 0 49.27 10.9194 538 52.8141 298.619 550.987
670 0 52.3748 12.1814 638 51.4216 299.124 549.426
671 0 53.1668 12.0188 639 51.7199 299.628 549.685
672 0 53.1217 12.0666 641 50.9158 299.693 548.877
673 0 56.1139 12.2608 688 50.5247 300.233 549.308
674 0 56.0833 12.1427 681 50.862 300.141 548.012
675 0 58.0541 11.8338 687 51.2169 298.53 546.904
676 0 60.0161 13.0298 782 50.2928 299.127 544.347
677 0 62.033 10.8974 676 51.7012 299.194 545.584
678 0 65.0732 13.3235 867 49.7947 299.426 544.057
679 0 67.1377 11.886 798 51.0815 299.706 543.593
680 0 68.1355 13.9575 951 49.7192 300.212 541.804
681 0 70.0985 12.7392 893 50.9003 300.097 541.51
682 0 71.2268 13.6044 969 50.806 300.625 538.798
683 0 72.1984 11.7593 849 52.2497 300.53 541.317
684 0 76.2609 11.8016 900 52.4344 300.696 539.714
685 0 80.2673 13.2806 1066 52.0844 300.112 536.333
686 0 82.3116 13.1452 1082 52.3956 300.533 534.012
687 0 83.1119 13.1148 1090 52.744 299.85 531.153
688 0 90.4618 13.8069 1249 51.1914 300.035 533.797
689 1 44.1052 10.0668 444 54.1216 300.392 552.903
690 0 48.2243 11.405 550 53.1982 300.285 551.753
691 0 50.1396 11.5278 578 53.4862 299.898 550.46
692 0 52.2621 12.8009 669 51.7862 300.103 551.423
693 0 53.3598 11.4693 612 53.9363 300.268 549.167
694 0 55.3289 12.977 718 53.0905 300.433 548.414
695 0 56.2267 12.9476 728 54.1882 299.593 548.663
696 0 56.0617 11.3982 639 56.4898 299.815 547.466
697 0 59.2144 13.1893 781 54.3649 299.777 547.612
698 0 61.1663 13.9946 856 53.764 299.7 543.877
699 0 64.1728 13.6507 876 53.8425 299.751 545.201
700 0 66.131 15.56 1029 52.0175 299.167 542.854
701 0 68.147 14.8649 1013 53.2517 299.125 540.984
702 0 69.2653 13.7154 950 54.6463 299.047 540.004
703 0 71.1865 14.1881 1010 54.696 298.734 540.4
704 0 74.196 14.6504 1087 54.437 298.892 540.453
705 0 75.3109 14.0883 1061 55.1904 298.653 538.57
706 0 79.143 14.1516 1120 55.4857 298.799 536.232
707 0 81.4091 14.6667 1194 55.0159 298.553 536.218
708 0 85.2354 15.1463 1291 54.3695 298.5 535.124
709 1 45.087 9.69237 437 57.3959 297.883 555.577
710 0 48.2495 10.7566 519 56.4778 297.736 554.145
711 0 46.2799 11.8842 550 56.3655 297.84 553.613
712 0 48.2585 11.7078 565 57.0071 297.303 552.007
713 0 49.25 12.5482 618 56.5728 297.197 550.396
714 0 53.1965 13.1024 697 55.2712 298.088 550.304
715 0 54.0489 13.1177 709 55.5472 296.834 549.511
716 0 56.0812 13.4626 755 55.2556 296.691 549.493
717 0 57.1042 14.1146 806 55.464 296.026 547.118
718 0 60.058 13.1373 789 55.5133 295.854 550.221
719 0 62.0717 13.7261 852 54.5657 296.202 549.905
720 0 62.0893 13.4484 835 55.7353 296.216 545.982
721 0 64.0949 13.1836 845 56.3361 296.278 546.114
722 0 67.1748 13.9338 936 55.1175 295.701 546.114
723 0 69.1475 13.5507 937 55.7673 296.194 544.496
724 0 70.1712 13.5098 948 55.7932 296.852 542.582
725 0 74.0997 14.2106 1053 55.3827 296.066 540.298
726 0 76.2301 13.879 1058 54.9537 295.752 539.44
727 0 77.1164 13.3175 1027 55.5852 296.183 541.338
728 0 78.1388 13.1945 1031 56.6819 295.439 537.877
729 1 42.1172 12.0616 508 54.2047 295.033 557.116
730 0 44.1045 9.86294 435 55.3678 294.322 558.126
731 0 45.0253 11.5491 520 54.3192 294.558 556.567
732 0 46.1178 11.6875 539 54.3228 294.401 556.065
733 0 47.0486 11.7113 551 54.49 294.352 554.837
734 0 48.0584 12.7345 612 54.8546 295.505 554.394
735 0 50.1392 13.2033 662 53.923 294.779 555.057
736 0 51.2345 13.0771 670 55.1299 294.722 551.939
737 0 52.1008 13.589 708 55.3178 294.51 552.514
738 0 55.1257 12.7527 703 56.0156 295 551.606
739 0 57.106 12.6607 723 55.8174 295.181 550.115
740 0 60.1171 14.4219 867 54.6759 294.809 550.953
741 0 58.1444 13.0709 760 57.475 294.612 550.526
742 0 64.1801 14.2723 916 55.5164 294.073 548.574
743 0 63.1262 13.7819 870 57.0747 294.411 547.286
744 0 66.1782 15.0956 999 55.8949 294.251 545.515
745 0 68.1701 13.3196 908 58.3359 293.609 546.848
746 0 69.1305 13.8723 959 58.5203 293.471 544.487
747 0 72.1035 14.8398 1070 57.6869 293.471 543.305
748 0 73.1317 13.9474 1020 58.6912 293.11 544.098
749 0 76.1706 13.9161 1060 59.4887 292.991 539.104
750 1 39.0853 11.5645 452 58.8783 292.285 560.285
751 0 40.0704 10.8559 435 59.6621 292.216 560.628
752 0 42.046 10.4885 441 60.0703 291.898 560.653
753 0 43.0393 11.3385 488 60.7787 291.301 559.305
754 0 45.1321 12.0535 544 60.0294 291.754 556.697
755 0 44.0985 12.1319 535 60.6785 291.86 557.493
756 0 46.0634 12.7216 586 60.1297 292.012 556.3
757 0 49.0251 13.3401 654 59.5948 292.035 556.05
758 0 49.1073 13.7454 675 59.64 292.181 556.972
759 0 51.0825 13.4488 687 60.1689 291.94 555.227
760 0 51.0327 12.3842 632 61.9794 292.024 554.513
761 0 54.0907 12.7379 689 61.1597 291.634 555.878
762 0 54.1334 13.1158 710 62.1775 292.956 553.151
763 0 57.134 13.5121 772 61.5946 293.016 552.382
764 0 59.1201 13.0751 773 61.934 292.943 551.338
765 0 59.1379 12.7499 754 62.63 292.809 550.845
766 0 62.1416 13.8715 862 61.4397 292.658 550.372
767 0 65.1291 12.79 833 61.9292 293.154 549.582
768 0 66.1202 13.6116 900 61.2844 293.137 547.966
769 0 67.1445 12.7337 855 62.0538 292.992 548.096
770 0 70.2364 13.1129 921 61.1868 293.053 547.004
771 0 72.2066 13.9461 1007 60.5174 292.866 544.001
772 0 74.2555 12.9553 962 61.5 292.731 545.074
773 0 76.401 13.7433 1050 60.6038 292.914 540.974
774 0 80.2215 13.1511 1055 60.6294 292.569 541.455
775 0 82.2473 12.6934 1044 61.3238 292.58 540.48
776 1 43.0878 10.0028 431 62.4664 292.701 558.545
777 0 45.0876 10.158 458 62.048 293.242 558.072
778 0 48.1629 11.5234 555 59.8198 293.259 557.699
779 0 51.0537 11.6348 594 58.9411 293.064 556.146
780 0 50.0767 11.083 555 60.3081 293.575 556.148
781 0 51.1083 13.4421 687 58.0437 292.675 554.865
782 0 53.0302 11.7669 624 59.7516 293.801 553.678
783 0 54.0439 12.6194 682 59.2507 293.054 552.381
784 0 55.0993 13.3033 733 59.2005 293.656 551.059
785 0 59.2175 13.138 778 58.8522 294.077 550.274
786 0 57.0864 12.192 696 60.8894 294.592 549.283
787 0 61.0692 13.6894 836 59.0179 294.382 549.272
788 0 62.0572 13.8582 860 58.8698 294.334 548.098
789 0 62.1599 12.1622 756 60.9907 294.384 548.447
790 0 67.1236 13.3783 898 58.9343 295.332 547.561
791 0 67.2461 12.6104 848 60.4163 295.854 543.945
792 0 70.1783 13.081 918 59.3911 295.276 545.437
793 0 73.1326 12.2107 893 60.5924 294.875 543.996
794 0 77.1201 14.0819 1086 57.7431 294.784 542.475
795 0 78.2313 13.7157 1073 58.7409 294.94 538.884
796 1 41.0382 10.1125 415 58.8867 295.087 558.822
797 0 42.0494 10.7968 454 58.3326 294.804 557.009
798 0 45.1206 10.749 485 57.3155 295.487 556.575
799 0 47.0347 11.9274 561 56.5419 295.431 555.959
800 0 46.0376 11.9468 550 56.7636 295.285 554.411
801 0 49.0431 10.134 497 57.827 295.664 553.616
802 0 50.036 12.6309 632 53.7579 295.696 552.364
803 0 50.036 12.6309 632 127.941 296.696 552.364
804 0 55.0645 12.6034 694 53.83 295.259 550.275
805 0 56.1084 12.9927 729 53.3292 295.428 548.709
806 0 56.0428 11.7053 656 54.6753 295.75 548.399
807 0 59.0812 12.6775 749 52.5768 295.729 546.645
808 0 61.0301 10.6996 653 53.758 296.008 546.93
809 0 66.0632 12.0339 795 52.5874 296.073 546.797
810 0 66.0909 11.3934 753 53.6786 295.94 546.518
811 0 68.0838 11.1774 761 53.2694 297.112 545.87
812 0 71.2365 13.6868 975 51.1056 296.671 544.235
813 0 72.0941 11.7763 849 53.1413 297.132 541.4
814 0 73.0751 11.6045 848 53.8325 297.269 542.276
815 0 76.1307 12.5836 958 52.8852 297.265 541.748
816 0 80.2188 12.9147 1036 52.3967 297.176 540.694
817 0 80.3007 11.4071 916 54.6026 297.2 538.516
818 0 84.2328 12.0143 1012 54.0326 297.356 537.919
819 1 43.1092 9.58033 413 53.9709 297.455 558.38
820 0 46.1006 10.3036 475 53.3242 297.389 557.253
821 0 46.0525 11.8343 545 53.6495 296.807 554.912
822 0 49.0947 11.8139 580 53.8224 297.069 554.703
823 0 49.1011 12.5659 617 53.624 296.337 555.387
824 0 52.029 12.4162 646 55.1238 295.974 553.167
825 0 52.0309 12.9346 673 55.1322 296.217 551.049
826 0 53.0729 12.398 658 55.8009 296.257 553.058
827 0 53.0698 11.89 631 55.3883 296.124 551.228
828 0 54.044 12.0272 650 55.4815 296.423 551.006
829 0 57.0408 12.1317 692 55.4595 296.188 549.685
830 0 59.044 13.4815 796 54.5729 295.995 549.294
831 0 58.1012 12.4438 723 56.8949 295.983 548.107
832 0 61.0932 11.8999 727 57.8941 295.917 548.484
833 0 63.2134 13.0352 824 56.7925 295.405 548.3
834 0 66.0468 12.2943 812 58.101 295.131 545.602
835 0 68.0856 13.4536 916 57.226 295.291 544.582
836 0 72.0587 13.0033 937 56.3853 295.338 545.232
837 0 72.2429 12.4303 898 57.8352 295.094 541.361
838 1 41.0932 10.2937 423 57.4657 294.35 560.965
839 0 38.016 10.2325 389 58.0874 294.56 560.72
840 0 40.0576 11.5583 463 57.73 295.013 557.613
841 0 42.0777 12.168 512 56.4766 295.416 557.932
842 0 43.0346 11.4327 492 57.5 294.807 557.998
843 0 44.0668 13.5249 596 55.297 294.923 556.826
844 0 46.0458 12.8351 591 56.9526 294.516 555.942
845 0 45.0411 12.3221 555 57.8667 294.56 556.443
846 0 45.0307 11.1702 503 59.9165 294.354 556.684
847 0 46.016 11.7785 542 59.9244 294.31 556.554
848 0 47.0277 11.8016 555 59.9838 294.541 555.652
849 0 50.0957 12.6358 633 59.0695 294.646 553.893
850 0 50.0957 12.6358 633 152.03 295.646 553.893
851 0 53.1284 14.3238 761 57.6505 294.941 553.716
852 0 53.0808 12.886 684 60.2076 294.747 551.678
853 0 56.2152 12.7901 719 60.0014 295.574 553.477
854 0 58.1841 15.0557 876 58.1107 295.718 550.25
855 0 59.2507 13.8395 820 60.0195 295.778 548.524
856 0 59.1385 12.699 751 61.6671 295.61 550.051
857 0 63.2026 13.7494 869 60.0541 295.562 547.368
858 0 66.1876 13.4768 892 60.5919 295.285 548.043
859 0 66.0637 13.8049 912 60.2511 294.889 548.838
860 0 70.195 14.1748 995 60.2774 295.285 544.564
861 0 70.0913 14.4954 1016 60.7195 295.628 542.948
862 0 74.1328 13.921 1032 61.4554 295.69 543.271
863 0 76.1068 14.3745 1094 61.1581 295.796 543.096
864 0 77.0591 14.9885 1155 61.4519 295.745 541.209
865 0 79.1121 13.5504 1072 64.2052 294.868 539.602
866 0 84.0953 15.1257 1272 61.7421 295.016 538.322
867 0 84.1905 14.3365 1207 63.681 294.631 535.877
868 0 87.1929 14.5081 1265 63.1676 294.899 536.417
869 0 91.1341 14.1989 1294 64.7164 295.236 535.788
870 0 92.1716 13.4315 1238 66.4006 294.291 536.165
871 1 48.2638 10.4012 502 68.6992 293.582 556.48
872 0 50.1201 11.7318 588 66.6973 293.796 556.209
873 0 52.0857 11.0011 573 67.4171 294.091 555.031
874 0 52.0352 12.088 629 67.3593 294.38 552.949
875 0 54.0724 11.8915 643 67.3095 293.865 552.278
876 0 57.0355 13.7283 783 64.7114 293.944 551.155
877 0 59.0548 12.463 736 66.3166 293.757 551.874
878 0 61.0698 13.0015 794 65.767 293.946 551.366
879 0 61.0998 12.7005 776 67.0142 293.863 550.097
880 0 64.069 13.5479 868 66.0311 293.718 548.329
881 0 66.0868 13.1796 871 66.7026 293.754 547.985
882 0 67.1227 13.2593 890 67.0708 293.512 547.397
883 0 70.1354 12.5757 882 67.9376 294.082 545.439
884 0 72.0239 13.6344 982 67.3167 293.539 544.652
885 0 75.1548 14.0909 1059 66.4806 294.038 543.228
886 0 77.0853 13.8418 1067 67.1743 294.638 541.279
887 0 80.1574 13.8228 1108 66.481 294.628 541.005
888 0 81.2304 13.234 1075 67.7693 294.133 540.228
889 0 85.137 14.6117 1244 67.123 294.472 537.338
890 0 89.1986 14.933 1332 72.6329 294.72 534.489
891 1 48.0665 10.3606 498 90.008 295.689 556.484
892 0 49.0419 10.8886 534 66.0581 295.676 554.665
893 0 50.1146 11.1544 559 64.6887 295.589 551.844
894 0 49.0361 9.93146 487 66.7639 295.526 550.004
895 0 53.105 12.7672 678 62.9985 296.153 550.724
896 0 55.1221 13.6969 755 62.8464 295.772 551.011
897 0 56.1815 14.2396 800 62.3837 295.762 550.341
898 0 58.0792 14.5319 844 62.3803 296.703 550.148
899 0 60.136 13.5027 812 62.9002 296.603 549.438
900 0 62.0928 14.0113 870 62.8575 296.318 548.795
901 0 63.0536 13.0207 821 63.8624 296.294 548.284
902 0 66.0574 13.4428 888 63.6284 296.756 545.215
903 0 69.0955 14.849 1026 61.6793 296.881 544.728
904 0 69.1117 14.3536 992 62.8821 296.915 543.98
905 0 72.1403 14.7906 1067 62.462 296.612 543.042
906 0 74.1387 13.7715 1021 64.5514 296.678 540.262
907 0 77.0894 15.2161 1173 62.2327 297.286 540.685
908 0 79.1385 14.2914 1131 63.9363 297.367 538.558
909 0 80.1272 14.5519 1166 64.066 297.424 537.198
910 0 85.0971 14.7714 1257 63.5187 297.718 536.379
911 0 87.1764 13.9029 1212 65.0693 298.428 535.394
912 0 89.0481 14.2844 1272 65.57 298.554 531.658
913 0 95.2037 14.9994 1428 63.6471 298.564 533.371
914 1 49.1057 11.3225 556 67.6421 298.435 552.95
915 0 51.0707 10.7302 548 67.4161 298.655 553.299
916 0 53.0755 12.2467 650 67.2108 298.978 550.565
917 0 53.0638 12.8336 681 65.9883 298.844 551.855
918 0 56.1253 12.8463 721 66.6394 298.759 549.397
919 0 56.158 13.1771 740 67.3703 299.003 547.319
920 0 60.2439 12.9972 783 66.5977 298.959 547.623
921 0 60.3844 12.8179 774 67.947 298.978 545.141
922 0 65.1527 13.4146 874 65.6968 298.905 545.018
923 0 67.1369 14.3885 966 64.6118 299.155 542.506
924 0 68.2355 13.8344 944 65.643 299.231 541.568
925 0 69.3773 13.7797 956 65.6538 299.687 541.035
926 0 73.3363 14.0449 1030 65.5252 299.214 540.349
927 0 73.4558 14.131 1038 65.684 300.155 538.345
928 0 75.4502 13.9165 1050 66.88 299.673 536.521
929 0 77.3638 13.6369 1055 67.3517 299.412 535.555
930 0 81.5103 14.5749 1188 65.5918 299.692 533.558
931 0 84.3053 14.1984 1197 66.523 299.664 531.999
932 1 43.3154 10.0195 434 69.7396 299.198 552.493
933 0 46.2884 10.9963 509 69.6857 298.853 549.764
934 0 47.3795 11.5873 549 68.4918 299.051 549.718
935 0 49.5332 11.0229 546 69.3901 298.535 548.399
936 0 49.5332 11.0431 547 174.185 297.53 548.362
937 0 54.1079 12.4011 671 67.4069 298.665 548.061
938 0 53.1219 12.8572 683 67.7218 298.498 547.902
939 0 55.1324 12.5879 694 68.2637 298.284 543.696
940 0 59.0888 13.8097 816 66.4779 299.227 546.522
941 0 61.1979 13.6442 835 66.8886 299.183 544.776
942 0 61.2702 12.3714 758 69.0712 298.38 544.896
943 0 67.2608 13.5146 909 65.8856 298.308 542.256
944 0 66.2218 12.8508 851 67.8249 298.215 542.282
945 0 69.2692 13.6136 943 66.2333 297.799 540.987
946 0 72.2506 13.6054 983 66.1984 297.885 539.715
947 0 74.1995 13.8006 1024 66.0264 297.506 538.368
948 0 76.2335 14.2719 1088 64.8897 297.317 537.515
949 0 78.3584 12.9278 1013 66.2083 296.879 534.983
950 0 80.0939 12.8849 1032 67.0804 296.673 531.895
951 0 83.2803 14.0129 1167 64.5124 296.307 530.438
952 0 86.2292 15.0645 1299 63.3372 296.523 532.507
953 0 91.2117 14.8775 1357 63.2233 296.396 530.081
954 0 92.2203 14.628 1349 64.0474 296.946 528.354
955 0 95.2604 14.2976 1362 64.1769 296.546 525.67
956 0 97.3478 14.0014 1363 64.9663 296.36 523.377
957 0 101.361 15.0255 1523 62.8982 296.904 523.054
958 0 101.232 14.4421 1462 63.5048 296.786 517.527
959 1 55.1811 9.98529 551 64.5245 296.105 545.056
960 0 58.1349 9.83919 572 63.7203 296.316 544.712
961 0 61.1824 11.9152 729 61.3676 296.047 543.495
962 0 61.0622 11.4965 702 63.6026 296.359 541.444
963 0 63.0315 13.7233 865 60.948 296.549 538.417
964 0 66.1387 13.5473 896 60.2556 296.458 541.821
965 0 68.1032 14.0081 954 60.3564 296.373 538.196
966 0 71.1559 13.4493 957 60.7722 296.306 536.801
967 0 72.1484 12.2941 887 62.1263 296.785 536.283
968 0 76.1276 13.0833 996 60.8333 296.296 535.48
969 0 79.1139 13.8029 1092 60.0824 296.186 531.572
970 0 80.224 13.1008 1051 61.5909 296.445 532.704
971 0 84.1258 14.9776 1260 58.5746 296.394 531.91
972 0 85.2295 11.9559 1019 62.0775 295.904 529.419
973 0 89.0992 13.3784 1192 60.2089 296.151 527.9
974 0 93.2143 14.1502 1319 59.6619 296.343 525.633
975 0 95.1211 12.9519 1232 61.3847 295.807 524.412
976 0 97.1095 13.943 1354 60.0207 295.774 524.386
977 0 100.111 13.0855 1310 61.9969 295.234 521.993
978 0 103.133 12.3724 1276 61.8934 295.473 520.462
979 0 106.157 13.0467 1385 61.3769 295.171 520.461
980 1 57.0968 10.6311 607 59.5173 294.886 544.881
981 0 61.0774 11.5919 708 61.5268 294.733 545.667
982 0 63.1662 11.1294 703 61.6942 295.071 543.967
983 0 66.1205 12.2655 811 60.4414 295.078 542.829
984 0 68.0751 12.5156 852 60.1197 294.864 543.21
985 0 70.1067 12.4382 872 59.5138 295.008 544.388
986 0 73.1738 12.6411 925 59.6616 295.132 541.966
987 0 74.2121 13.2189 981 59.788 295.269 538.933
988 0 77.2567 13.371 1033 58.8596 294.803 538.271
989 0 80.1731 12.2859 985 59.865 294.807 539.065
990 0 84.2727 13.4563 1134 58.119 294.6 537.287
991 0 85.3381 13.0891 1117 58.5461 294.385 537.322
992 0 89.2258 13.662 1219 57.8655 294.721 532.905
993 0 91.269 12.6001 1150 59.1417 295.191 532.565
994 0 95.2369 13.7132 1306 57.9755 294.531 532.032
995 0 97.2549 12.8631 1251 58.8074 294.985 529.141
996 0 102.258 13.0943 1339 58.1285 294.928 527.988
997 1 57.0637 10.7424 613 56.7243 293.648 553.527
998 0 57.0687 12.2309 698 55.9857 294.236 550.984
999 0 58.0873 11.3794 661 57.3313 293.936 550.809
1000 0 59.0674 11.6985 691 56.7713 294.287 550.407
1001 0 60.1816 12.1133 729 57.4005 294.997 548.18
1002 0 62.071 11.1969 695 57.941 295.091 548.738
1003 0 64.2958 13.0802 841 56.214 294.769 544.337
1004 0 65.2732 12.2409 799 57.3492 294.146 545.986
1005 0 69.2076 12.5275 867 56.451 294.784 544.895
1006 0 72.1977 13.1722 951 55.5825 294.946 542.606
1007 0 74.2563 11.568 859 57.3446 294.987 542.303
1008 0 76.1587 13.7739 1049 55.2803 295.027 542.062
1009 0 76.2353 11.6744 890 58.0303 294.812 540.592
1010 0 79.2311 11.9902 950 57.3484 294.196 539.756
1011 0 83.2909 13.9631 1163 56.3568 294.674 538.889
1012 0 84.309 12.6321 1065 57.9549 294.517 535.792
1013 0 88.2686 11.567 1021 59.19 294.226 536.163
1014 0 92.2874 13.4688 1243 56.9292 294.517 531.692
1015 1 51.0638 9.06709 463 57.5313 293.916 558.194
1016 0 52.1875 9.88743 516 57.5872 293.744 555.806
1017 0 52.2146 9.70993 507 58.9349 293.596 553.789
1018 0 56.1411 11.3286 636 56.4418 294.253 551.69
1019 0 58.1205 12.4569 724 54.1561 294.848 551.272
1020 0 61.2217 12.3486 756 54.7275 295.074 551.627
1021 0 60.178 13.5265 814 52.9951 296.141 551.015
1022 0 61.0662 12.1508 742 54.7588 296.443 551.053
1023 0 64.3303 13.7727 886 53.2223 296.348 547.924
1024 0 66.14 12.4584 824 54.8046 296.476 547.545
1025 0 67.1788 12.2509 823 55.5322 296.44 544.233
1026 0 69.2371 12.2622 849 54.8492 296.437 543.081
1027 0 73.2283 13.97 1023 53.3079 296.368 543.263
1028 0 73.2596 12.367 906 55.2715 297.362 542.746
1029 0 77.3055 12.5864 973 55.1069 297.067 541.385
1030 0 79.2969 13.9854 1109 54.2101 296.981 539.56
1031 0 83.3521 13.341 1112 54.7797 296.766 538.165
1032 0 86.2545 13.3442 1151 54.5326 296.443 538.799
1033 0 87.3163 13.3079 1162 54.6386 296.478 537.063
1034 0 89.2639 13.9138 1242 53.8889 296.83 533.2
1035 1 46.0918 10.2404 472 54.7797 296.631 555.629
1036 0 48.2339 10.2625 495 54.2929 296.877 557.36
1037 0 49.2138 11.4196 562 53.9128 297.384 555.183
1038 0 51.1996 11.4845 588 54.7177 298.672 553.31
1039 0 51.1837 12.0351 616 54.138 299.041 553.713
1040 0 51.0722 12.3942 633 54.7599 299.278 551.033
1041 0 55.2477 12.2177 675 54.2933 299.541 551.511
1042 0 59.1534 12.7803 756 53.4947 299.418 550.478
1043 0 67.1289 16.0586 1078 47.385 299.559 545.704
1044 0 67.2047 14.9246 1003 49.8624 299.805 545.603
1045 0 68.1171 15.5174 1057 49.3264 299.646 542.412
1046 0 68.1335 16.5557 1128 48.2163 300.277 541.426
1047 0 68.1122 14.711 1002 51.5818 300.054 543.302
1048 0 68.1413 15.8935 1083 51.2872 299.424 544.012
1049 0 70.1676 15.9048 1116 51.147 299.754 544.171
1050 0 70.245 14.6345 1028 53.5866 299.638 542.857
1051 0 71.215 14.2386 1014 55.0996 299.556 542.113
1052 0 71.0914 14.0383 998 56.3647 299.919 542.167
1053 0 73.123 13.5388 990 57.5434 299.935 541.376
1054 0 73.2059 13.4142 982 58.442 300.082 540.388
1055 0 77.143 13.8185 1066 58.3218 300.359 540.134
1056 0 80.2717 14.3014 1148 58.0139 300.293 538.051
1057 0 82.1335 13.8433 1137 58.9499 300.072 537.849
1058 0 86.3553 14.1508 1222 58.7406 299.425 535.642
1059 0 87.1658 13.2391 1154 60.7678 299.368 533.094
1060 0 88.3225 13.0884 1156 61.436 298.829 533.209
1061 0 91.2964 15.5318 1418 57.3977 299.19 530.682
1062 0 91.5274 13.9193 1274 61.4192 299.102 528.498
1063 0 94.297 13.5529 1278 62.6088 298.915 529.88
1064 0 98.2605 13.9527 1371 61.8322 299.033 529.004
1065 0 98.2111 14.0717 1382 62.0933 299.113 526.079
1066 0 102.253 14.7478 1508 61.8561 299.294 522.804
1067 0 106.26 15.4339 1640 61.6238 298.835 522.046
1068 0 108.384 14.7255 1596 62.6253 298.555 523.402
1069 0 111.39 14.1844 1580 63.812 298.569 519.684
1070 0 113.262 14.3737 1628 63.777 298.039 521.503
1071 0 116.331 14.6393 1703 64.5032 297.413 514.282
1072 0 120.341 14.3509 1727 64.9902 297.775 514.357
1073 1 65.1919 11.2591 734 65.0381 297.639 542.523
1074 0 66.2764 11.0296 731 65.6088 297.633 541.436
1075 0 70.1832 12.1112 850 64.7847 297.124 540.114
1076 0 71.2239 12.903 919 64.4276 297.313 540.079
1077 0 74.0395 12.6419 936 67.2382 297.237 540.218
1078 0 77.0546 13.0167 1003 66.8365 296.984 540.233
1079 0 80.0554 14.3276 1147 65.4316 296.536 537.946
1080 0 83.0726 13.5303 1124 66.6512 296.302 536.954
1081 0 85.038 12.8296 1091 67.5793 297.011 535.034
1082 0 88.1999 12.7891 1128 67.4149 297.051 534.079
1083 0 90.1493 13.6662 1232 66.9935 297.452 530.582
1084 0 93.0882 12.9769 1208 66.9031 297.175 532.276
1085 0 97.144 13.8763 1348 66.6461 297.263 529.24
1086 0 99.2183 13.6769 1357 67.0398 297.822 529.012
1087 1 54.1125 10.9771 594 69.2845 297.205 549.365
1088 0 56.0192 12.5493 703 66.899 297.824 549.634
1089 0 59.1218 13.024 770 66.2688 297.725 547.988
1090 0 59.0925 13.0981 774 66.876 298.164 545.448
1091 0 61.0332 14.2545 870 64.5161 297.055 544.461
1092 0 65.0301 13.3938 871 64.6556 297.077 546.532
1093 0 65.0894 14.5646 948 63.6656 297.179 545.152
1094 0 69.1205 13.6139 941 64.169 297.357 544.034
1095 0 71.1848 13.4298 956 64.5753 297.309 543.656
1096 0 73.1441 12.8924 943 65.6437 297.326 541.897
1097 0 74.1565 12.9186 958 65.7651 297.299 540.896
1098 0 75.1949 12.6338 950 66.6253 298.605 538.724
1099 0 79.0945 13.2626 1049 65.613 298.48 538.301
1100 0 81.0967 13.8107 1120 65.233 297.915 536.712
1101 0 82.2679 13.1278 1080 66.4102 297.844 535.069
1102 0 84.2279 13.2973 1120 65.9152 297.129 534.167
1103 0 88.1171 14.0495 1238 65.2989 296.892 533.202
1104 0 91.1599 14.3813 1311 65.1976 296.834 531.166
1105 1 49.1423 11.0495 543 67.5249 297.354 554.61
1106 0 50.1035 11.0172 552 67.5996 296.879 553.324
1107 0 52.0498 12.0077 625 67.1408 296.717 550.768
1108 0 54.1839 12.3838 671 65.7958 296.687 550.702
1109 0 54.134 13.1156 710 66.8775 296.72 550.055
1110 0 58.0741 13.0006 755 66.1695 296.915 548.191
1111 0 58.1291 13.5216 786 67.3982 297.167 546.438
1112 0 60.062 13.7191 824 67.4769 297.533 546.363
1113 0 61.2641 13.45 824 68.1214 297.112 546.209
1114 0 63.1608 14.2177 898 66.7127 296.856 546.388
1115 0 66.1625 13.361 884 67.0543 296.604 545.062
1116 0 67.1372 13.4203 901 67.0166 296.234 545.127
1117 0 70.1368 14.0725 987 65.5431 296.199 543.901
1118 0 72.2247 13.6795 988 65.9899 295.672 543.494
1119 0 74.1433 14.2831 1059 65.7686 295.869 541.557
1120 0 76.3457 12.9542 989 67.6229 295.517 539.31
1121 0 78.1466 14.332 1120 66.0071 296.147 539.854
1122 0 81.2135 13.6677 1110 66.7018 296.176 537.477
1123 0 84.3574 13.3124 1123 66.4256 295.889 535.89
1124 0 87.3176 14.1209 1233 65.077 295.8 535.299
1125 0 87.2809 13.9664 1219 66.3175 296.306 532.165
1126 1 45.1784 10.5139 475 69.5558 295.768 553.947
1127 0 50.0403 12.2102 611 66.1849 295.944 552.213
1128 0 49.2304 11.4563 564 67.922 295.894 550.92
1129 0 54.0792 12.833 694 65.1599 295.84 550.556
1130 0 55.1145 12.3924 683 65.7657 296.07 549.873
1131 0 54.0609 11.8015 638 67.232 295.478 549.276
1132 0 57.1455 13.2994 760 65.4539 295.736 548.837
1133 0 57.0719 13.3165 760 65.8105 295.791 546.126
1134 0 61.1709 13.3724 818 65.0697 295.795 546.238
1135 0 64.0616 13.2685 850 64.6412 295.646 544.766
1136 0 64.1148 12.3372 791 66.5044 295.881 544.056
1137 0 68.0805 13.6456 929 64.7008 296.055 541.98
1138 0 70.1408 12.6317 886 66.3691 296.692 540.714
1139 0 72.158 13.6783 987 65.1246 296.594 539.492
1140 0 74.1465 13.2575 983 65.0081 297.286 538.487
1141 0 78.1828 14.7603 1154 63.9757 297.301 538.294
1142 0 80.0696 13.813 1106 66.1908 296.885 535.627
1143 0 82.1156 13.2618 1089 67.0349 297.117 534.329
1144 1 43.022 11.1803 481 67.0728 296.57 554.274
1145 0 43.1243 10.2494 442 68.8643 296.045 554.308
1146 0 46.1336 12.182 562 66.6068 295.975 553.632
1147 0 47.034 12.5441 590 66.5695 296.388 552.917
1148 0 49.0584 12.0061 589 67.9355 297.066 548.871
1149 0 51.0501 13.2419 676 66.6287 297 550.108
1150 0 54.1532 13.7203 743 65.7618 297.318 551.26
1151 0 55.1822 12.9027 712 68.1292 298.219 550.862
1152 0 59.1102 13.4325 794 66.3023 298.253 550.419
1153 0 59.1018 13.7729 814 66.0332 298.801 549.133
1154 0 61.121 13.0888 800 66.9712 298.863 547.701
1155 0 62.2579 14.0223 873 65.89 299.412 545.652
1156 0 63.2382 13.125 830 68.0169 299.729 545.671
1157 0 64.3169 12.5161 805 68.9516 299.747 544.763
1158 0 67.268 13.2901 894 67.5391 299.812 543.723
1159 0 69.2294 13.9681 967 66.4457 300.399 543.313
1160 0 70.2598 13.1797 926 68.5497 300.533 540.916
1161 0 72.3435 13.4221 971 68.3759 299.663 540.928
1162 0 73.3158 14.117 1035 68.0435 300.9 539.619
1163 0 73.3158 14.117 1035 163.098 302.885 539.612
1164 0 81.1608 14.9456 1213 65.9835 300.842 538.827
1165 0 83.189 14.0042 1165 67.3133 301.058 535.625
1166 0 87.1805 14.4069 1256 66.3997 301.126 536.34
1167 0 89.2978 14.0317 1253 67.0447 301.479 533.865
1168 0 94.2921 15.2929 1442 64.5 298.23 533.23
1169 1 51.1506 10.518 538 66.2695 298.355 555.297
1170 0 52.1515 10.4503 545 67.6991 298.655 553.552
1171 0 55.1902 12.3935 684 65.2515 299.396 551.614
1172 0 56.1202 12.1525 682 65.0587 299.812 550.821
1173 0 56.1138 11.8331 664 66.7108 300.336 549.066
1174 0 60.2308 12.3691 745 65.8134 301.356 549.49
1175 0 62.0671 12.8087 795 65.3711 301.101 548.244
1176 0 64.1007 13.51 866 63.8337 300.95 547.419
1177 0 66.2197 13.7119 908 64.1806 300.729 544.794
1178 0 68.2737 13.2994 908 64.4097 300.758 545.609
1179 0 72.0706 14.5413 1048 62.6651 300.644 544.118
1180 0 73.0694 12.9055 943 64.9926 300.916 542.664
1181 0 76.191 14.0437 1070 63.157 300.261 542.022
1182 0 76.191 14.0174 1068 151.147 299.246 541.993
1183 0 79.3093 12.9997 1031 65.6634 300.617 538.852
1184 0 80.1424 13.3263 1068 65.6152 300.143 538.631
1185 0 84.1397 13.5608 1141 65.6442 300.089 536.94
1186 0 86.2985 13.0014 1122 66.6809 300.447 535.926
1187 0 90.1241 13.3816 1206 66.0912 299.237 534.672
1188 0 92.25 13.4092 1237 66.3048 299.668 533.98
1189 0 94.1614 13.5831 1279 67.1329 300.066 530.844
1190 1 48.1425 10.7182 516 68.188 299.682 553.961
1191 0 52.1036 11.1125 579 68.1779 299.67 552.763
1192 0 54.0682 12.1883 659 65.9454 299.19 553.278
1193 0 55.0615 11.9684 659 67.9863 298.917 551.378
1194 0 56.0696 11.5392 647 69.1747 299.164 550.274
1195 0 55.0366 12.4099 683 69.1127 298.228 550.272
1196 0 58.0781 12.0527 700 69.4514 298.244 549.407
1197 0 61.0369 12.9594 791 67.9355 298.865 548.752
1198 0 63.0767 13.3647 843 67.6287 299.24 548.391
1199 0 64.0756 14.1396 906 66.8664 299.004 547.256
1200 0 65.0658 12.3721 805 70.595 299.029 545.855
1201 0 67.1385 13.3455 896 68.8761 298.532 544.205
1202 0 69.1511 11.9738 828 70.5676 298.366 544.199
1203 0 73.1427 13.6856 1001 67.6384 298.002 543.527
1204 0 75.2075 13.0705 983 68.4812 297.878 543.614
1205 0 77.2159 13.5594 1047 69.064 297.849 539.882
1206 0 81.1807 13.316 1081 68.5162 298.336 539.256
1207 0 84.1452 13.0013 1094 69.5137 298.25 538.121
1208 0 86.3041 13.6494 1178 68.3404 297.922 536.93
1209 0 87.112 12.5011 1089 70.1983 297.422 535.934
1210 0 93.2439 14.0599 1311 66.5919 296.217 534.566
1211 0 95.2428 13.4078 1277 67.8269 296.994 532.753
1212 0 98.2217 13.7444 1350 67.5763 297.333 530.594
1213 0 100.205 13.5422 1357 67.7988 297.727 529.902
1214 0 102.177 13.8681 1417 67.8158 297.585 528.227
1215 0 106.124 13.7199 1456 68.2266 297.405 526.751
1216 0 108.242 13.8763 1502 67.99 296.871 526.429
1217 0 111.259 14.2551 1586 67.7491 296.963 524.999
1218 0 114.183 14.0126 1600 67.5944 297.014 525.896
1219 0 118.155 14.0662 1662 67.9134 297.233 520.935
1220 0 121.229 14.0065 1698 67.9217 296.793 520.187
1221 0 123.158 13.5761 1672 68.8283 296.704 518.594
1222 0 129.231 15.066 1947 66.2712 296.843 516.701
1223 0 132.145 13.7122 1812 68.1904 296.139 514.823
1224 0 138.101 14.5111 2004 66.4217 296.742 511.677
1225 0 140.165 14.6185 2049 66.4168 296.243 511.268
1226 0 144.169 14.0737 2029 67.3159 295.968 508.977
1227 0 150.241 15.2156 2286 65.4418 296.948 504.509
1228 0 153.41 12.9522 1987 68.6472 296.765 505.425
1229 0 157.175 14.2644 2242 67.2132 296.802 500.999
1230 0 160.27 14.0014 2244 67.7643 296.434 499.602
1231 0 169.293 15.3403 2597 65.9442 296.261 495.714
1232 0 173.176 15.2504 2641 66.3756 296.022 493.741
1233 0 178.2 15.0336 2679 66.7275 296.293 492.06
1234 0 184.304 14.2916 2634 67.6746 294.965 491.134
1235 0 189.34 14.1386 2677 68.7964 295.127 482.996
1236 1 144.297 11.8228 1706 70.112 296.2 514.122
1237 0 149.203 12.9086 1926 69.3022 295.949 507.116
1238 0 155.201 13.4085 2081 68.7583 295.983 506.647
1239 0 159.226 12.7931 2037 70.6348 295.177 503.232
1240 0 163.24 12.9012 2106 70.3509 294.507 502.018
1241 0 167.202 13.5644 2268 69.8937 294.523 497.358
1242 0 174.161 14.1478 2464 68.0893 294.664 495.828
1243 0 179.253 12.937 2319 69.8698 295.265 494.479
1244 0 185.182 12.1934 2258 71.1546 294.888 489.37
1245 0 190.463 12.8476 2447 69.9771 295.526 487.749
1246 1 44.1195 9.85958 435 66.0437 295.368 560.078
1247 0 47.1161 9.74189 459 64.8475 295.584 558.719
1248 0 49.0846 10.2272 502 65.8088 295.329 557.209
1249 0 50.0236 11.5346 577 64.818 295.253 555.721
1250 0 52.0665 12.2151 636 63.8443 295.113 554.245
1251 0 54.0889 11.8878 643 64.1882 294.75 554.435
1252 0 54.0727 11.2811 610 66.259 295.184 554.707
1253 0 58.109 11.8914 691 65.2012 294.841 553.391
1254 0 59.1104 12.4851 738 65.145 295.81 550.947
1255 0 61.2179 12.2677 751 65.6405 295.149 550.123
1256 0 62.1514 12.727 791 64.7206 295.712 551.297
1257 0 65.1767 11.9828 781 66.2458 295.375 549.096
1258 0 65.1916 11.4739 748 68.4813 295.245 547.917
1259 0 68.1439 12.2828 837 66.8614 294.73 547.865
1260 0 70.1931 13.1494 923 66.013 295.4 545.992
1261 0 71.1277 13.2578 943 66.7879 295.742 543.929
1262 1 40.0549 10.4607 419 68.716 296.024 560.699
1263 0 40.1377 11.7346 471 68.3397 296.132 560.703
1264 0 40.2676 10.8524 437 69.0572 296.286 560.634
1265 0 41.2615 11.0515 456 69.5 296.55 560.151
1266 0 44.1222 11.6495 514 65.7588 296.496 559.206
1267 0 45.052 12.5633 566 64.9382 295.912 558.189
1268 0 47.0654 13.1094 617 64.3906 295.88 556.554
1269 0 47.085 13.4225 632 64.4763 296.133 556.481
1270 0 49.0756 12.0223 590 66.6407 296.656 556.012
1271 0 49.1056 12.2796 603 66.7479 297.332 556.645
1272 0 50.092 12.8763 645 66.0388 297.816 555.149
1273 0 52.0801 13.0184 678 66.4381 298.028 554.237
1274 0 53.0799 12.8486 682 66.607 298.372 554.182
1275 0 57.1485 13.6136 778 65.5167 297.559 552.702
1276 0 57.0667 13.3002 759 66.2806 298.328 553.026
1277 0 58.13 12.8677 748 69.2727 299.483 549.465
1278 0 60.1439 13.5176 813 67.674 299.625 548.2
1279 0 62.1176 12.9593 805 68.2373 299.776 548.647
1280 0 62.1324 12.747 792 69.8157 299.946 546.989
1281 0 65.1457 13.0477 850 68.2071 299.891 548.2
1282 0 67.083 12.8647 863 68.7045 299.616 546.615
1283 0 67.0654 13.9565 936 67.7863 300.018 544.497
1284 0 70.093 13.7389 963 67.2835 300.336 543.482
1285 0 73.1103 13.1719 963 67.7632 300.359 544.065
1286 0 77.074 13.8698 1069 65.9289 299.999 543.101
1287 0 77.0792 13.5705 1046 66.5105 300.576 542.015
1288 1 41.0378 11.6965 480 65.7625 300.965 558.971
1289 0 39.0434 10.2706 401 67.6534 300.813 558.519
1290 0 42.1623 11.6218 490 65.5469 300.969 558.184
1291 0 43.1038 12.2263 527 65.0474 300.767 557.619
1292 0 45.0375 11.3905 513 66.4211 300.947 557.546
1293 0 46.1118 12.1661 561 66.3333 301.25 555.665
1294 0 47.1045 12.6103 594 65.3771 300.345 554.51
1295 0 49.1095 12.971 637 64.1429 300.893 554.895
1296 0 52.1153 13.1439 685 64.2365 300.648 553.946
1297 0 51.0469 13.1644 672 64.9464 301.085 553.975
1298 0 53.0809 13.3758 710 64.2197 301.106 553.783
1299 0 54.1904 12.4745 676 64.9837 300.91 553.587
1300 0 55.104 12.9755 715 65.5455 301.206 550.748
1301 0 58.1486 13.1731 766 64.4621 300.717 552.022
1302 0 58.0705 13.1564 764 65.5563 301.147 550.592
1303 0 59.1034 12.9265 764 65.9817 301.274 549.22
1304 0 63.0727 13.7777 869 63.6306 301.352 548.751
1305 0 64.177 12.5279 804 65.5498 301.183 546.769
1306 0 66.1228 13.1573 870 64.5506 301.091 547.392
1307 0 69.2058 13.626 943 64.3818 300.963 545.346
1308 0 70.0561 13.4464 942 64.3938 300.571 546.022
1309 1 38.0857 11.4216 435 65.1908 300.637 560.683
1310 0 39.1103 11.5571 452 65.4978 300.493 559.527
1311 0 42.0658 12.219 514 64.5798 299.953 559.276
1312 0 43.1919 12.0162 519 65.1156 300.437 558.622
1313 0 44.0407 11.8754 523 65.3155 299.535 557.706
1314 0 46.1005 13.3404 615 63.6683 299.088 555.668
1315 0 47.1116 12.5447 591 65.7733 299.146 554.694
1316 0 47.1216 12.4784 588 67.1156 298.592 557.782
1317 0 49.1598 13.1205 645 65.8062 298.274 556.532
1318 0 50.1053 13.751 689 65.7983 298.675 555.469
1319 0 52.1033 13.0894 682 65.978 298.578 555.966
1320 0 53.116 14.5342 772 64.8251 297.734 553.334
1321 0 54.1389 14.2227 770 66.1532 297.177 553.9
1322 0 55.1803 14.1355 780 66.1385 297.046 553.331
1323 0 59.0877 14.3008 845 65.7728 297.253 553.372
1324 0 58.4072 13.2689 775 67.6284 297.014 551.303
1325 0 61.3072 14.1582 868 66.2108 297.137 550.153
1326 0 63.3745 13.8226 876 66.8002 296.567 549.815
1327 0 63.2912 13.746 870 67.2598 297.278 549.115
1328 0 67.1466 14.8481 997 65.4995 296.808 547.884
1329 0 67.1464 14.2078 954 67.5084 297.153 548.708
1330 0 70.087 14.2394 998 67.0351 297.148 546.71
1331 0 73.2164 13.9176 1019 67.0785 297.013 545.349
1332 0 74.081 14.1737 1050 66.3133 297.191 543.963
1333 0 76.0783 14.5114 1104 67.2645 296.567 544.585
1334 0 77.207 13.7423 1061 70.8058 297.25 542.086
1335 0 80.1283 14.4144 1155 69.2208 297.262 540.39
1336 1 42.0239 11.5648 486 70.0967 297.362 560.455
1337 0 43.0655 11.3084 487 69.8768 296.963 560.754
1338 0 44.065 12.6404 557 68.7163 296.77 559.86
1339 0 46.0581 12.4191 572 68.6241 296.472 558.213
1340 0 48.0953 14.1594 681 65.3363 296.612 558.69
1341 0 47.0609 13.9394 656 67.2774 296.598 558.111
1342 0 50.0705 13.0017 651 67.7588 297.558 556.664
1343 0 52.2016 12.9115 674 67.7211 296.914 555.358
1344 0 52.0509 13.9095 724 66.3702 296.8 556.312
1345 0 54.0107 13.3677 722 66.7202 296.616 554.708
1346 0 57.0213 14.5384 829 64.9867 296.747 554.088
1347 0 57.0203 13.5215 771 67.5901 296.742 551.92
1348 0 61.0406 13.6139 831 66.6606 295.74 552.347
1349 0 61.0693 13.5092 825 68.1067 296.114 551.465
1350 0 61.0203 13.6512 833 68.6915 295.331 550.939
1351 0 66.1291 13.8971 919 67.9445 295.472 549.402
1352 0 66.1176 13.0374 862 70.7053 295.389 549.193
1353 0 69.0411 13.7454 949 69.7123 295.64 547.567
1354 0 69.1321 12.7292 880 71.4727 295.449 547.95
1355 1 38.0388 11.3043 430 71.5302 295.43 562.758
1356 0 37.0481 12.0924 448 72.2768 295.616 562.406
1357 0 38.086 12.1304 462 72.3745 295.745 562.944
1358 0 41.0551 12.4223 510 71.8392 295.292 561.673
1359 0 42.128 13.008 548 71.1533 294.927 560.462
1360 0 42.128 12.913 544 165.233 294.925 560.502
1361 0 45.0571 13.494 608 70.1793 294.498 559.484
1362 0 44.0481 12.7815 563 72.7744 294.591 560.311
1363 0 46.054 13.2236 609 71.555 294.007 559.864
1364 0 47.0268 12.7587 600 73.165 294.293 558.628
1365 0 48.0295 14.1788 681 70.8385 294.548 557.68
1366 0 50.0358 13.3105 666 72.2057 294.524 556
1367 0 52.0445 13.2579 690 71.9159 294.313 556.846
1368 0 52.0703 13.3857 697 71.9699 293.938 557.072
1369 0 55.0853 13.0525 719 71.8762 294 556.463
1370 0 54.0961 13.7348 743 72.362 294.022 555.011
1371 0 56.0402 13.5439 759 71.9618 294.235 555.242
1372 0 59.085 14.2507 842 70.7257 294.379 554.119
1373 0 60.0793 14.3144 860 70.936 294.715 552.955
1374 0 59.0639 14.0187 828 71.7428 294.818 552.25
1375 0 62.1437 13.7584 855 71.9953 294.607 550.96
1376 0 65.1277 13.5273 881 71.8036 294.857 551.664
1377 0 65.0854 14.7191 958 70.8758 294.761 548.737
1378 0 68.0835 13.6009 926 71.6879 295.093 549.428
1379 0 69.0719 14.4342 997 71.1434 294.482 547.799
1380 0 72.0573 14.7244 1061 69.819 294.952 546.799
1381 0 74.1654 14.5216 1077 69.8524 294.853 546.362
1382 0 76.1516 14.2873 1088 66.8456 294.812 543.548
1383 1 41.1352 12.8357 528 64.75 294.852 563.348
1384 0 41.0592 10.8137 444 71.7658 295.556 564.426
1385 0 43.0522 11.7299 505 70.2317 294.927 561.329
1386 0 45.0124 13.3963 603 68.2471 295.342 560.949
1387 0 44.032 12.4455 548 70.4909 295.456 559.953
1388 0 47.1154 13.6898 645 67.7519 295.792 559.189
1389 0 47.0256 14.6091 687 67.8384 295.872 557.895
1390 0 49.0393 14.1927 696 67.7672 295.549 557.516
1391 0 52.0322 14.1643 737 66.7422 295.486 557.619
1392 0 51.0701 14.1178 721 68.1429 295.716 556.537
1393 0 54.0714 14.9432 808 66.3936 296.358 555.66
1394 0 54.0529 14.9113 806 66.7146 296.093 554.766
1395 0 56.0718 13.7502 771 67.9611 296.266 554.755
1396 0 60.1409 14.4161 867 66.0427 297.005 553.502
1397 0 60.0324 15.3251 920 65.475 297.112 551.501
1398 0 63.1326 15.2061 960 65.1229 297.248 551.294
1399 0 64.1063 15.4431 990 65.3121 297.596 549.254
1400 0 64.0924 14.2607 914 67.1947 297.859 549.369
1401 0 68.1991 14.3843 981 66.0336 298.119 549.67
1402 0 72.2078 13.8351 999 66.3343 298.305 547.083
1403 0 75.1416 14.9984 1127 64.3026 298.85 546.312
1404 0 77.427 14.9948 1161 64.7046 299.288 544.661
1405 0 79.1286 15.0262 1189 64.889 299.468 542.543
1406 1 39.0495 11.5238 450 67.9244 299.571 562.9
1407 0 43.2037 13.934 602 64.1711 299.807 560.098
1408 0 42.029 12.3962 521 67.881 299.9 559.407
1409 0 44.1954 13.0556 577 66.974 300.179 559.317
1410 0 46.1292 13.5489 625 66.384 299.835 558.75
1411 0 47.0437 13.9232 655 65.6779 300.305 557.412
1412 0 47.0541 14.4727 681 65.2849 300.341 558.256
1413 0 50.137 14.4404 724 64.5622 300.645 556.365
1414 0 51.076 13.4505 687 65.7074 300.409 556.199
1415 0 52.0614 14.3868 749 64.7957 300.473 556.053
1416 0 53.1222 13.9678 742 64.9515 300.553 555.817
1417 0 55.1359 14.8542 819 64.1038 301.022 553.458
1418 0 58.1395 14.5856 848 64.2052 300.796 553.592
1419 0 59.1426 14.4904 857 64.4259 300.918 551.846
1420 0 62.0565 15.1958 943 62.5716 301.277 550.838
1421 0 64.3673 14.6658 944 62.6239 300.939 551.356
1422 0 64.2107 14.2967 918 64.1383 300.961 549.046
1423 0 69.1619 13.866 959 63.8165 301.185 548.188
1424 0 72.1333 14.5702 1051 62.4253 300.633 547.539
1425 0 73.1182 14.7159 1076 61.9591 300.658 546.91
1426 0 74.1999 14.6901 1090 62.3606 300.141 544.259
1427 0 75.1351 13.0964 984 64.0762 300.647 542.638
1428 0 78.2095 14.9854 1172 61.0392 300.542 542.854
1429 1 41.0689 11.9068 489 63.638 300.787 560.552
1430 0 44.1513 13.4311 593 61.7099 299.912 557.506
1431 0 43.0285 12.8287 552 63.4746 299.842 558.344
1432 0 45.1722 14.5222 656 61.3506 299.48 557.082
1433 0 47.0391 13.4781 634 62.276 300.409 557.814
1434 0 50.0268 14.4522 723 62.0775 299.892 555.401
1435 0 51.1086 13.8528 708 62.9054 299.874 555.014
1436 0 53.1913 14.3632 764 62.1453 299.539 552.963
1437 0 55.0647 15.0005 826 61.5121 299.508 552.602
1438 0 58.2177 14.6175 851 61.7967 299.42 552.546
1439 0 59.1816 15.0385 890 61.636 299.102 550.636
1440 0 60.0961 14.0608 845 62.7207 298.871 550.912
1441 0 64.1814 15.2692 980 60.6929 299.089 550.058
1442 0 65.3319 14.1126 922 61.9555 298.973 548.725
1443 0 68.1338 14.9412 1018 61.0668 298.909 546.455
1444 0 70.1094 14.292 1002 61.7006 298.959 549.11
1445 1 34.3063 12.9714 445 62.6629 298.694 564.328
1446 0 36.189 12.4624 451 63.1552 298.676 563.499
1447 0 34.0911 13.0239 444 65.3041 298.432 561.757
1448 0 39.2256 13.2567 520 63.8212 297.321 561.558
1449 0 40.1836 14.2098 571 63.3853 297.256 560.785
1450 0 43.3311 13.6853 593 63.9039 296.936 559.644
1451 0 43.0819 15.3893 663 63.1011 297.189 558.986
1452 0 43.1342 15.7879 681 63.4405 296.718 558.869
1453 0 43.1342 15.8111 682 167.353 296.716 558.839
1454 0 47.1974 14.9161 704 64.8906 296.504 557.744
1455 0 49.3113 14.7431 727 64.9752 296.556 557.879
1456 0 47.3591 14.4006 682 67.9619 296.629 555.757
1457 0 51.4014 15.7389 809 65.7837 297.006 554.295
1458 0 54.2994 14.9541 812 66.7438 296.454 555.206
1459 0 54.5152 14.8399 809 67.5649 296.666 554.863
1460 0 57.3415 15.6257 896 66.173 296.771 553.834
1461 0 54.3303 14.3934 782 70.5921 296.604 551.765
1462 0 60.3279 16.2446 980 66.0684 296.327 551.433
1463 0 61.2947 16.4941 1011 66.3304 296.318 550.267
1464 0 64.2357 15.6299 1004 66.7819 295.678 549.84
1465 0 66.2031 15.2863 1012 67.6789 295.742 548.952
1466 0 67.3514 14.803 997 68.5817 295.677 548.73
1467 0 70.2773 15.2112 1069 67.9411 295.496 547.94
1468 0 72.3357 15.7046 1136 66.9551 295.5 545.735
1469 0 75.3355 14.1899 1069 69.3209 295.788 544.355
1470 0 77.1542 14.6589 1131 68.7887 295.273 543.691
1471 0 79.2301 15.0195 1190 67.9218 295.196 542.812
1472 1 41.2179 11.5726 477 70.6939 294.281 560.407
1473 0 43.2188 11.7541 508 69.2303 294.1 561.864
1474 0 45.1398 12.0736 545 69.2972 294.571 559.143
1475 0 46.1192 13.4001 618 68.7346 294.212 558.66
1476 0 49.1979 13.842 681 67.533 293.791 557.468
1477 0 48.0736 14.1658 681 68.583 293.438 555.48
1478 0 49.1975 13.1511 647 69.5951 293.328 556.244
1479 0 51.1824 12.8951 660 70.2045 293.58 553.936
1480 0 54.4039 13.2343 720 69.0625 294.144 553.869
1481 0 55.1667 13.5045 745 69.4094 294.075 552.193
1482 0 58.3872 13.9072 812 68.9113 294.365 551.897
1483 0 60.136 14.0348 844 69.0628 293.979 551.051
1484 0 63.0876 14.1708 894 68.613 293.918 549.961
1485 0 64.136 14.0015 898 69.2996 294.116 549.092
1486 0 66.0592 14.4416 954 68.9696 294.068 547.335
1487 0 68.1558 14.1294 963 70.0883 294.314 544.211
1488 0 71.1082 14.1334 1005 69.5692 293.964 545.443
1489 0 72.1417 14.0141 1011 70.3274 294.158 543.777
1490 0 76.1299 14.0287 1068 69.941 294.723 541.904
1491 0 77.1188 14.0433 1083 70.5512 294.311 540.726
1492 0 82.0735 14.2677 1171 69.7216 294.329 539.624
1493 0 85.0933 13.8906 1182 69.8917 294.149 540.536
1494 0 87.1553 14.5143 1265 69.4846 294.372 537.058
1495 0 89.2738 14.4723 1292 70.0658 294.783 535.002
1496 0 92.1787 14.4285 1330 70.685 296.071 534.061
1497 0 95.2029 13.9387 1327 71.0656 295.974 531.815
1498 1 53.0562 10.7245 569 70.116 295.241 555.482
1499 0 54.0481 11.4528 619 71.6381 295.234 552.654
1500 0 54.1126 11.1434 603 71.7894 295.231 553.371
1501 0 57.1947 12.7809 731 70.0137 295.908 551.431
1502 0 60.156 11.9024 716 71.4777 295.707 550.716
1503 0 60.1141 13.2082 794 70.1965 296.232 549.282
1504 0 61.1691 13.1275 803 71.1146 296.334 547.681
1505 0 65.089 13.5199 880 69.3364 296.607 547.092
1506 0 68.1588 13.3952 913 69.9847 296.882 545.969
1507 0 67.1467 13.0461 876 71.3082 295.769 545.314
1508 0 70.3772 12.7172 895 71.6771 296.765 543.485
1509 0 72.1196 12.6179 910 71.2714 297.471 542.679
1510 0 72.1754 12.1509 877 72.1505 297.84 540.173
1511 0 77.2253 12.5736 971 70.6828 298.387 541.619
1512 1 47.066 9.66727 455 68.6857 299.211 556.767
1513 0 48.0509 10.0518 483 68.5238 299.596 555.934
1514 0 47.0321 10.057 473 69.1966 299.786 556.036
1515 0 48.083 9.81636 472 69.3538 300.254 554.678
1516 0 50.0564 11.0675 554 65.8448 300.229 554.323
1517 0 51.1426 10.2459 524 67.6164 299.998 552.756
1518 0 54.0507 10.6012 573 66.2653 300.092 552.517
1519 0 55.0643 11.6046 639 65.3568 300.095 549.961
1520 0 57.0722 11.757 671 64.9031 300.35 550.61
1521 0 59.0782 11.1209 657 66.2298 300.397 548.606
1522 0 60.0298 10.4948 630 67.0619 300.687 549.065
1523 0 61.0742 11.6088 709 65.8293 300.518 548.537
1524 0 63.1453 12.0041 758 65.1768 301.214 548.966
1525 0 64.0989 11.2951 724 66.4959 301.483 546.851
1526 0 67.0923 12.535 841 64.7955 301.398 545.169
1527 0 69.0832 11.9855 828 65.3188 301.204 543.926
1528 0 69.0781 11.6245 803 66.0212 301.049 544.63
1529 0 72.1893 11.8854 858 65.8462 300.749 541.639
1530 0 75.2434 12.2669 923 65.5883 300.666 540.2
1531 0 77.3256 11.7684 910 65.8549 300.473 541.159
1532 0 79.3038 11.3235 898 68.0323 300.573 538.859
1533 1 43.0649 10.4958 452 64.2942 300.184 557.502
1534 0 47.209 10.2523 484 64.7087 300.465 556.188
1535 0 48.1867 11.4969 554 63.796 300.305 553.356
1536 0 51.1835 10.6675 546 64.1538 300.353 553.379
1537 0 51.1037 11.0168 563 64.6146 300.595 552.25
1538 0 52.1172 11.3974 594 64.468 300.214 552.618
1539 0 51.1615 11.4539 586 65.2969 300.611 551.787
1540 0 54.332 11.0432 600 64.77 300.332 551.54
1541 0 55.2487 11.1496 616 65.3831 300.135 549.429
1542 0 56.188 11.8531 666 64.6937 299.973 548.23
1543 0 58.3829 11.2362 656 64.9558 300.12 548.657
1544 0 60.4025 11.5724 699 64.6538 300.013 548.027
1545 0 61.2003 12.1078 741 64.0621 300.135 546.922
1546 0 62.1046 10.434 648 66.159 299.997 546.398
1547 0 64.2594 11.8271 760 64.225 299.796 546.168
1548 0 67.1855 11.9371 802 63.7943 300.162 544.128
1549 0 70.2954 11.8215 831 63.3165 300.066 542.413
1550 1 39.0549 10.114 395 63.3241 300.651 557.425
1551 0 41.0563 9.9132 407 63.6241 300.87 556.128
1552 0 43.0771 9.33211 402 63.709 300.164 556.893
1553 0 42.1747 9.17612 387 63.9716 300.354 557.708
1554 0 45.152 10.6086 479 62.1712 300.299 556.296
1555 0 46.0793 10.916 503 62.4095 299.92 556.61
1556 0 48.289 11.4726 554 61.5 299.87 554.792
1557 0 48.1806 12.5154 603 61.7529 299.585 553.521
1558 0 50.0644 11.3654 569 62.2794 299.733 551.302
1559 0 51.1122 11.9541 611 61.4681 299.378 552.039
1560 0 50.2358 11.4261 574 62.9704 298.319 552.686
1561 0 53.1124 12.0311 639 62.5102 298.746 551.541
1562 0 56.0792 11.8582 665 62.8226 298.776 551.436
1563 0 58.1119 11.9081 692 62.8829 298.621 549.812
1564 0 58.0779 11.7256 681 64.1292 298.89 550.088
1565 0 59.1504 11.8511 701 65.2825 297.849 546.459
1566 0 62.1171 11.8808 738 64.3889 298.039 547.397
1567 0 62.2285 12.5827 783 64.4215 297.826 546.932
1568 0 65.1404 12.5268 816 64.4191 297.875 545.474
1569 0 66.0987 12.4511 823 64.9162 298.129 543.739
1570 0 67.0494 12.4982 838 65.3389 298.098 543.97
1571 0 71.1578 13.2101 940 63.033 298.216 545.052
1572 0 71.2047 12.9345 921 64.4853 298.115 543.6
1573 0 75.2478 13.409 1009 63.774 297.865 542.004
1574 0 75.1399 12.8028 962 65.2983 298.114 541.523
1575 0 78.1352 12.9903 1015 64.535 297.359 540.639
1576 0 81.1384 13.0887 1062 64.9699 297.528 540.733
1577 0 85.2656 13.3817 1141 64.6862 297.314 538.613
1578 1 46.0554 10.3788 478 66.3054 297.251 557.176
1579 0 46.0759 10.7649 496 66.2157 297.167 557.462
1580 0 48.1057 11.4331 550 66.3927 296.865 554.787
1581 0 51.1352 11.0491 565 66.5327 296.635 554.142
1582 0 52.1091 12.3011 641 64.819 296.446 554.24
1583 0 50.1952 11.6744 586 66.5819 296.949 553.882
1584 0 53.0897 12.0174 638 65.5596 296.097 553.691
1585 0 55.0856 12.2718 676 65.0754 296.629 554.03
1586 0 58.0562 12.1262 704 65.2812 296.278 553.622
1587 0 59.12 12.9905 768 64.7852 296.404 550.979
1588 0 61.3044 12.7071 779 65.7433 295.822 550.241
1589 0 62.1191 13.1039 814 65.4275 295.834 550.538
1590 0 64.1877 12.9931 834 65.7074 295.996 550.236
1591 0 67.1066 13.6052 913 64.8587 295.497 548.429
1592 0 68.3709 12.52 856 67.0853 295.625 547.482
1593 0 71.1577 13.6598 972 65.1379 295.65 545.95
1594 0 72.1727 13.7864 995 64.9859 296.076 544.009
1595 0 73.0427 12.7597 932 66.5386 296.538 545.877
1596 0 76.2238 12.6207 962 66.631 296.433 544.147
1597 0 79.1874 13.5249 1071 65.4127 296.546 542.54
1598 0 80.0856 14.1598 1134 65.2681 296.471 539.636
1599 0 82.172 13.7516 1130 65.9593 296.406 539.07
1600 0 84.2804 13.8585 1168 65.8973 296.451 537.961
1601 0 89.2359 13.7949 1231 65.5768 296.162 537.375
1602 0 91.1501 12.9457 1180 67.1373 296.581 535.76
1603 0 92.2068 13.5348 1248 66.6306 296.292 535.139
1604 1 50.057 10.568 529 66.448 296.527 555.968
1605 0 51.0551 10.5376 538 66.632 296.554 554.651
1606 0 54.0156 11.5707 625 64.712 296.808 555.317
1607 0 55.0703 11.5489 636 65.5786 297.204 552.561
1608 0 55.057 11.806 650 65.4323 297.334 553.148
1609 0 59.0679 12.2571 724 64.8854 297.412 552.296
1610 0 59.153 12.9157 764 64.339 297.746 550.323
1611 0 60.3182 13.2962 802 63.6845 298.017 549.817
1612 0 63.3176 12.6821 803 64.6065 297.849 548.717
1613 0 64.0632 13.0652 837 64.4313 298.306 546.812
1614 0 65.2018 13.5272 882 63.2868 298.325 547.345
1615 0 68.1876 12.3336 841 65.3781 298.257 546.356
1616 0 71.1835 13.7251 977 63.5926 298.87 544.296
1617 0 72.1582 13.609 982 64.8951 299.584 543.118
1618 0 74.2846 13.004 966 65.4979 299.651 544.122
1619 0 77.1188 13.5116 1042 65.5192 300.158 540.561
1620 0 78.2886 13.2586 1038 66.4624 300.445 540.254
1621 0 81.1605 13.3316 1082 65.9427 300.226 538.049
1622 0 83.1414 12.8456 1068 66.4082 300.187 537.75
1623 0 85.1578 13.1403 1119 66.2618 301.021 535.162
1624 0 89.1697 12.2127 1089 67.1781 301.1 533.819
1625 0 92.1883 13.2663 1223 65.6746 301.218 530.567
1626 1 55.0123 11.4156 628 64.8615 300.664 550.245
1627 0 55.1169 10.9041 601 65.624 300.988 550.296
1628 0 57.0238 12.6438 721 62.6879 301.137 551.717
1629 0 60.0619 11.7046 703 63.9716 301.374 550.263
1630 0 60.0266 12.7943 768 64.6302 301.475 546.523
1631 0 61.0745 12.5584 767 65.5567 301.254 545.189
1632 0 64.1199 11.6033 744 66.3333 301.163 545.113
1633 0 66.1566 11.8809 786 66.1501 300.835 544.882
1634 0 68.1171 12.7868 871 64.3502 301.051 545.325
1635 0 71.0355 13.4018 952 63.5557 300.959 542.463
1636 0 72.1698 11.9302 861 65.9338 301.134 541.307
1637 0 77.0524 13.1469 1013 63.6476 301.418 540.501
1638 0 77.1342 12.3032 949 65.6101 301.59 538.457
1639 0 80.2008 12.9176 1036 64.6332 301.891 538.793
1640 0 81.3278 13.1689 1071 65.0168 301.336 538.53
1641 1 44.0486 11.1241 490 64.5388 300.908 554.006
1642 0 44.0269 9.90303 436 66.0849 301.259 555.339
1643 0 45.0316 10.637 479 65.5198 301.125 555.766
1644 0 48.1248 11.678 562 64.0819 301.363 552.79
1645 0 50.0778 12.1211 607 63.8138 301.381 551.432
1646 0 52.1003 13.0517 680 62.8706 300.972 551.421
1647 0 53.1318 12.9113 686 63.191 302.213 550.343
1648 0 53.1594 12.4155 660 64.003 301.82 551.008
1649 0 53.2 11.5413 614 66.4218 301.555 547.953
1650 0 56.1066 11.995 673 65.3001 301.248 548.327
1651 0 57.0665 12.5818 718 65.071 301.396 546.897
1652 0 60.1678 12.8142 771 64.8482 301.345 546.489
1653 0 61.1111 13.7945 843 63.3891 301.068 545.833
1654 0 63.1686 12.5062 790 66.0114 301.335 544.453
1655 0 65.1064 12.4872 813 65.818 300.583 544.838
1656 0 67.2139 12.6462 850 65.4106 300.384 543.167
1657 0 69.2436 12.8243 888 64.911 300.426 541.157
1658 0 73.2351 13.3816 980 63.4653 299.76 539.678
1659 0 73.1899 12.6247 924 65.1699 299.858 538.026
1660 0 78.3423 13.5942 1065 63.0272 300.045 538.146
1661 0 80.2411 13.8707 1113 63.1096 299.753 535.552
1662 0 82.3422 12.946 1066 64.4925 299.246 533.127
1663 1 46.1329 9.97119 460 65.6978 299.352 553.82
1664 0 44.1009 10.7708 475 65.3537 299.916 554.891
1665 0 47.0812 11.3634 535 64.471 300.252 554.275
1666 0 51.0665 11.9844 612 63.0425 299.792 552.288
1667 0 51.1585 11.0637 566 63.6272 299.115 553.17
1668 0 53.0485 11.8005 626 63.9153 299.97 551.23
1669 0 56.092 12.4617 699 61.9785 300.156 550.784
1670 0 58.129 12.6443 735 60.9701 298.985 549.688
1671 0 58.0661 11.1941 650 62.9138 298.912 551.052
1672 0 60.02 12.3459 741 61.9177 298.744 549.843
1673 0 64.2384 12.2357 786 61.4618 298.426 547.793
1674 0 64.083 13.6074 872 60.0424 298.743 546.564
1675 0 65.0927 13.0276 848 60.9693 298.917 546.136
1676 0 68.1085 12.9499 882 61.076 298.435 544.203
1677 0 72.144 13.6533 985 59.1503 298.491 544.557
1678 0 72.1775 12.594 909 61.6887 298.02 542.789
1679 0 74.0554 12.8822 954 60.892 298.398 541.394
1680 0 77.1574 13.7252 1059 59.8933 298.607 540.07
1681 0 79.2875 13.7348 1089 59.9302 298.175 541.373
1682 0 80.2408 13.6713 1097 60.9289 297.764 538.68
1683 0 84.2401 13.2597 1117 61.4754 297.659 536.766
1684 0 86.3015 13.8468 1195 60.0502 298.018 535.315
1685 0 88.3326 12.6227 1115 61.6879 297.541 534.056
1686 0 91.2308 12.7698 1165 61.3948 297.41 534.079
1687 0 95.223 13.8412 1318 59.8126 297.109 531.566
1688 0 98.2818 13.6343 1340 60.0791 297.322 531.063
1689 1 56.1589 11.236 631 62.1965 297.079 551.246
1690 0 57.1237 11.6939 668 61.4521 296.558 551.564
1691 0 56.1067 11.3534 637 62.6484 296.67 551.022
1692 0 60.0998 10.9651 659 63.2989 296.323 549.082
1693 0 62.1695 12.2568 762 61.0276 296.661 550.322
1694 0 64.1135 12.977 832 60.2885 296.875 548.308
1695 0 64.2513 13.2293 850 60.3482 296.315 549.067
1696 0 65.1229 12.9448 843 60.4306 296.585 546.797
1697 0 66.0563 12.671 837 60.8913 295.867 546.493
1698 0 68.2355 12.8819 879 60.2912 295.978 545.494
1699 0 71.0916 12.6175 897 60.6823 295.903 545.202
1700 0 73.0721 12.7135 929 60.5005 295.61 544.612
1701 0 75.2277 13.4791 1014 59.3511 295.052 543.555
1702 0 78.1402 12.8871 1007 60.2463 294.836 540.881
1703 0 80.2301 13.2619 1064 59.4398 294.909 539.874
1704 0 83.1294 12.9076 1073 59.9301 294.867 540.03
1705 0 85.3093 13.2225 1128 59.5195 294.658 539.691
1706 0 88.1252 13.7532 1212 58.8061 294.754 538.466
1707 0 92.1695 13.8549 1277 58.3735 294.497 536.97
1708 0 93.2801 13.8615 1293 58.7935 294.565 536.271
1709 0 95.1443 13.2956 1265 59.4387 294.538 535.945
1710 0 99.2401 15.2559 1514 57.111 294.866 532.222
1711 0 103.141 13.3216 1374 59.0233 294.952 532.05
1712 0 105.266 13.9646 1470 58.6823 295.01 531.075
1713 0 109.122 13.517 1475 58.9437 295.209 529.142
1714 0 110.164 13.9701 1539 59.2456 295.221 526.753
1715 0 114.208 14.5611 1663 58.3981 295.433 525.741
1716 0 118.15 14.3293 1693 58.4968 295.828 524.606
1717 0 119.169 13.3424 1590 60.4509 296.279 522.211
1718 1 66.069 11.5334 762 60.9514 296.993 549.364
1719 0 70.1223 11.8365 830 60.2627 296.636 548.223
1720 0 70.0958 12.2975 862 60.3921 297.232 546.173
1721 0 73.101 12.7358 931 59.4597 297.654 545.042
1722 0 74.0805 13.2154 979 59.3769 297.437 543.254
1723 0 79.0606 13.6984 1083 58.3195 297.647 542.969
1724 0 80.1268 14.9763 1200 57.1208 297.495 541.712
1725 0 83.2876 13.8436 1153 59.399 297.67 540.87
1726 0 86.1319 14.71 1267 58.0647 297.818 539.261
1727 0 90.2241 13.3446 1204 59.1678 297.767 540.263
1728 0 92.1075 14.4831 1334 57.5937 297.978 535.894
1729 0 97.1381 14.1139 1371 56.9008 298.087 536.328
1730 0 98.0909 15.5162 1522 55.6735 298.274 534.177
1731 0 100.149 14.0391 1406 57.4644 298.501 530.056
1732 0 104.239 13.8528 1444 57.3019 297.844 531.274
1733 0 108.239 14.1908 1536 56.5964 298.223 529.708
1734 0 109.183 13.5094 1475 58.8325 298.62 526.223
1735 0 113.133 14.7967 1674 58.5287 298.696 527.731
1736 1 61.0822 12.3276 753 61.8805 298.454 552.183
1737 0 61.1484 12.1835 745 64.1503 298.697 551.103
1738 0 64.154 11.8309 759 64.697 298.52 550.555
1739 0 66.1261 13.3079 880 62.1955 298.417 549.461
1740 0 67.0511 12.9454 868 62.6014 298.735 548.947
1741 0 69.3801 13.8801 963 60.81 299.432 546.075
1742 0 71.1414 13.438 956 63.3023 299.269 544.547
1743 0 76.3418 14.9852 1144 60.3392 299.574 542.446
1744 0 78.5103 13.4759 1058 61.0104 300.156 541.077
1745 0 80.3174 13.8949 1116 60.3271 300.532 539.214
1746 0 82.4438 13.9125 1147 60.5772 301.164 538.262
1747 0 85.3667 14.9121 1273 59.1351 301.347 536.434
1748 0 88.5933 14.211 1259 59.4956 301.318 537.531
1749 0 90.6178 13.739 1245 60.8378 301.969 536.952
1750 0 95.5351 14.5915 1394 59.1693 302.063 532.743
1751 0 97.5874 15.0327 1467 59.5372 302.367 531.318
1752 0 99.5958 16.0348 1597 58.33 302.439 532.59
1753 0 103.445 14.0364 1452 61.292 302.495 528.447
1754 0 105.582 14.0364 1482 61.9211 302.128 524.98
1755 0 110.504 14.5968 1613 60.7762 302.376 526.289
1756 0 110.376 13.5265 1493 63.3476 301.888 524.916
1757 0 115.588 14.2835 1651 62.364 301.922 522.854
1758 0 117.447 13.9041 1633 63.3974 302.074 521.452
1759 0 122.772 14.2378 1748 62.6585 302.098 519.736
1760 1 66.1227 13.6111 900 64.0733 302.551 546.133
1761 0 67.2331 13.1483 884 64.4084 302.915 545.229
1762 0 69.1399 13.9428 964 63.9077 303.205 543.147
1763 0 71.4651 13.9649 998 63.9689 303.08 541.598
1764 0 73.3241 14.7428 1081 63.0971 303.029 539.607
1765 0 77.4479 15.2877 1184 62.4468 303.06 538.936
1766 0 77.2939 14.5807 1127 64.7107 303.137 537.828
1767 0 82.2324 14.5198 1194 64.3518 302.955 537.288
1768 0 85.4638 14.2751 1220 64.1344 302.895 536.684
1769 0 87.3071 15.2336 1330 62.7045 302.534 535.513
1770 0 91.3097 15.4967 1415 63.3597 302.206 533.746
1771 1 46.2388 12.7382 589 69.1969 302.667 554.115
1772 0 47.086 12.9763 611 70.8936 302.154 554.072
1773 0 50.304 13.7762 693 69.7056 302.208 554.499
1774 0 52.2789 14.0783 736 71.1658 302.213 553.311
1775 0 52.1714 13.839 722 73.2465 302.122 552.665
1776 0 53.1828 14.1023 750 72.5453 301.68 550.768
1777 0 55.1806 14.4435 797 72.5797 301.792 550.671
1778 0 56.3833 13.9758 788 74.684 302.058 550.378
1779 0 59.1655 14.4172 853 73.6776 301.408 549.606
1780 0 59.2953 14.8747 882 73.1043 301.437 549.34
1781 0 65.2592 14.542 949 71.4636 301.878 548.514
1782 0 66.1978 14.2603 944 72.0191 301.358 547.52
1783 0 68.164 14.2157 969 72.1641 301.333 545.822
1784 0 71.1179 14.6658 1043 71.3011 300.766 542.9
1785 0 72.1903 14.5726 1052 72.0599 300.803 542.302
1786 0 74.336 14.421 1072 71.8358 300.674 542.233
1787 0 79.317 14.5996 1158 70.6269 300.598 540.596
1788 0 81.2711 15.1345 1230 70.3154 300.396 538.132
1789 0 86.3119 15.6294 1349 68.765 300.345 537.887
1790 0 86.2739 14.3149 1235 71.4575 299.993 536.352
1791 1 44.122 12.2615 541 74.3327 300.048 555.713
1792 0 47.1192 12.9459 610 72.459 300.248 555.198
1793 0 48.3718 13.4583 651 72.828 300.175 553.195
1794 0 50.0798 14.437 723 69.8976 300.844 553.477
1795 0 50.1005 14.2913 716 70.8701 300.286 552.278
1796 0 54.17 14.3253 776 69.4046 300.268 551.189
1797 0 55.1006 13.8293 762 70.9226 300.248 550.117
1798 0 57.2014 14.4227 825 69.3345 299.788 550.07
1799 0 58.0625 14.6566 851 68.9589 299.428 550.11
1800 0 61.0873 14.5038 886 68.1648 299.672 549.78
1801 0 64.2205 14.2789 917 68.2301 299.518 548.257
1802 0 66.0766 14.8161 979 67.1869 299.492 547.248
1803 0 69.2457 14.7879 1024 67.1377 299.625 545.564
1804 0 71.1957 15.5346 1106 66.2215 299.301 545.341
1805 0 73.175 14.9915 1097 67.1604 299.153 544.062
1806 0 74.1427 15.4971 1149 66.8677 299.006 542.982
1807 0 74.2998 14.0108 1041 69.6455 299.078 542.22
1808 0 78.4921 15.0334 1180 67.3712 299.267 540.28
1809 0 82.3197 15.5248 1278 66.3333 298.052 540.376
1810 0 83.1217 15.351 1276 66.9687 298.283 538.908
1811 0 86.4087 15.0332 1299 67.3495 297.765 538.353
1812 0 88.2429 15.2194 1343 67.4512 297.462 536.71
1813 0 93.2298 15.3063 1427 66.4366 297.534 536.671
1814 0 94.1977 14.4059 1357 68.5284 297.39 535.052
1815 0 98.2846 14.9973 1474 67.5611 297.336 532.31
1816 0 99.2383 15.2361 1512 68.0979 297.249 529.015
1817 0 103.203 15.2515 1574 67.8189 297.678 527.891
1818 0 108.203 15.6373 1692 66.8221 297.375 526.543
1819 1 59.2202 11.6008 687 68.3988 297.528 550.821
1820 0 61.3134 12.0202 737 68.9172 298.228 548.185
1821 0 64.2452 13.4485 864 66.4583 298.241 547.105
1822 0 67.2412 14.5298 977 65.5159 298.119 544.989
1823 0 66.273 13.3086 882 67.9025 298.751 544.646
1824 0 72.1524 14.0674 1015 66.3103 298.852 543.317
1825 0 72.135 13.447 970 67.4691 299.008 543.052
1826 0 75.2952 14.0115 1055 67.1156 298.824 540.227
1827 0 77.1297 13.9894 1079 67.494 299.051 538.459
1828 0 81.1833 14.1778 1151 66.1642 299.32 538.799
1829 0 84.2035 13.9424 1174 66.3348 299.394 536.756
1830 0 85.3712 14.1734 1210 66.8909 299.49 534.805
1831 0 87.2109 14.0464 1225 67.4376 299.547 533.393
1832 0 92.2287 13.8569 1278 66.9844 300.02 533.567
1833 0 93.2159 14.3645 1339 67.3727 299.987 528.557
1834 0 96.1999 13.9813 1345 67.5197 300.244 530.852
1835 0 98.2917 14.3959 1415 67.8205 300.492 528.178
1836 0 103.192 14.7201 1519 66.6498 300.948 527.641
1837 0 106.214 13.7835 1464 67.9495 300.99 525.568
1838 0 109.14 14.4402 1576 66.8801 301.26 524.187
1839 1 62.1657 10.6811 664 65.3554 301.875 547.917
1840 0 64.2558 10.9873 706 64.949 301.782 546.892
1841 0 67.217 11.8274 795 64.5145 302.189 544.652
1842 0 68.1119 12.3914 844 63.6019 302.141 543.897
1843 0 71.2233 11.5271 821 64.1851 302.202 542.924
1844 0 74.2736 11.1614 829 63.8709 302.747 542.972
1845 0 76.1565 11.9753 912 63.693 302.769 539.512
1846 0 79.2583 12.0745 957 63.0585 302.818 539.188
1847 0 83.2053 12.0425 1002 62.6647 302.872 536.743
1848 0 87.3079 12.0951 1056 62.3523 303.072 535.825
1849 0 87.3255 11.44 999 63.7327 303.228 533.542
1850 0 92.3089 12.5232 1156 61.91 302.904 533.089
1851 0 95.3989 12.432 1186 61.93 302.99 529.68
1852 0 96.3377 11.9787 1154 62.9116 303.166 528.582
1853 0 101.353 12.3529 1252 60.7764 303.521 525.194
1854 1 57.0898 9.98428 570 60.4667 304.235 547.075
1855 0 60.2709 11.2492 678 58.5737 303.519 548.407
1856 0 62.1403 11.3292 704 59.0199 303.382 546.284
1857 0 62.1589 12.0819 751 58.3901 303.442 545.711
1858 0 66.1115 12.2369 809 58.204 303.752 545.07
1859 0 66.1807 12.2543 811 58.1566 303.192 543.661
1860 0 70.1279 12.6055 884 57.681 302.917 543.984
1861 0 71.062 12.3132 875 57.7943 303.113 542.87
1862 0 73.1417 11.9631 875 58.9269 303.077 538.573
1863 0 75.1791 12.6631 952 57.8624 303.071 538.798
1864 0 79.2488 12.3787 981 57.9908 302.239 537.06
1865 0 79.305 12.5843 998 58.2074 302.477 535.727
1866 0 82.1107 13.1895 1083 57.8633 301.928 535.36
1867 0 84.2845 12.6714 1068 58.486 302.024 535.423
1868 0 86.327 12.3021 1062 59.113 302.188 534.758
1869 0 89.1759 11.9763 1068 59.5122 301.945 531.963
1870 0 92.2698 12.7236 1174 58.5486 301.7 531.587
1871 0 97.222 12.3943 1205 57.8647 301.118 530.608
1872 0 97.2484 13.2958 1293 57.6937 301.14 525.848
1873 0 99.5223 12.6002 1254 58.512 300.296 527.773
1874 0 102.535 11.9471 1225 59.7306 300.171 524.435
1875 0 105.403 12.3906 1306 60.0191 299.483 524.704
1876 0 108.301 12.8531 1392 59.5115 299.945 522.932
1877 0 109.341 12.6577 1384 60.4191 299.65 519.267
1878 0 115.318 13.7359 1584 59.1881 299.909 520.038
1879 1 68.3297 9.67368 661 61.0061 299.823 545.357
1880 0 68.1583 10.4609 713 61.8205 299.234 543.485
1881 0 72.2233 11.9767 865 60.0509 298.964 542.32
1882 0 72.2008 11.7866 851 61.6898 298.837 541.938
1883 0 74.3472 11.5942 862 62.1729 298.945 542.284
1884 0 78.245 12.6526 990 61.004 298.992 540.526
1885 0 78.3986 12.5768 986 62.1978 298.898 538.945
1886 0 80.2789 13.5029 1084 60.9077 298.798 538.448
1887 0 83.2658 13.3548 1112 61.5701 298.796 537.103
1888 0 86.125 12.5051 1077 62.3547 298.477 537.57
1889 0 87.2049 13.497 1177 61.9193 298.763 535.353
1890 0 88.3158 13.1686 1163 63.1135 298.014 534.332
1891 0 94.2486 14.5785 1374 61.0626 298.234 532.665
1892 0 96.1818 13.0482 1255 62.7968 298.526 534.099
1893 0 97.2881 13.4857 1312 63.1456 298.244 530.728
1894 0 100.275 13.5327 1357 63.3825 298.419 530.261
1895 0 102.221 13.5002 1380 63.9877 297.801 528.362
1896 0 106.467 14.0794 1499 62.8652 298.308 526.523
1897 0 108.17 13.562 1467 63.7123 298.162 522.532
1898 1 62.2712 10.7433 669 64.5859 298.302 548.468
1899 0 66.3379 12.2102 810 63.1716 297.689 545.626
1900 0 66.3379 12.2705 814 171.088 296.656 545.682
1901 0 69.2688 11.8235 819 63.6679 297.15 544.313
1902 0 73.2256 13.5608 993 61.1259 297.345 542.334
1903 0 74.1591 13.4306 996 61.8544 296.901 543.365
1904 0 78.1462 13.8075 1079 60.8601 296.344 541.892
1905 0 77.212 13.5342 1045 62.1981 296.569 539.524
1906 0 80.1389 13.9133 1115 61.6188 296.354 537.836
1907 0 82.1527 13.1828 1083 62.2955 296.899 538.095
1908 0 87.1939 14.29 1246 60.4735 296.86 536.413
1909 0 89.1709 14.433 1287 60.404 296.472 536.135
1910 0 92.2729 13.8719 1280 60.6789 296.355 535.837
1911 0 92.0911 13.7473 1266 61.5608 295.919 534.779
1912 0 98.0775 14.9779 1469 59.6678 295.807 532.278
1913 0 98.1116 13.5458 1329 62.1836 296.004 531.582
1914 0 103.061 14.0208 1445 61.2595 296.229 528.201
1915 0 104.178 14.024 1461 61.8501 295.741 528.298
1916 0 106.261 14.5021 1541 61.5685 296.167 525.759
1917 0 111.13 15.0454 1672 60.2177 295.71 527.057
1918 0 113.243 14.2349 1612 62.719 295.7 524.823
1919 0 116.153 14.2915 1660 62.9277 295.785 523.748
1920 0 120.167 14.7628 1774 62.2446 296.795 520.09
1921 0 122.195 15.6962 1918 61.5209 296.372 519.091
1922 0 127.137 15.0861 1918 62.2039 296.059 519.615
1923 0 131.135 14.5422 1907 62.9261 295.991 517.976
1924 0 134.224 15.1836 2038 62.2615 295.806 513.036
1925 1 78.073 12.1041 945 63.6698 295.123 542.719
1926 0 79.0894 12.2014 965 62.9793 295.119 542.447
1927 0 82.0501 12.8458 1054 62.4877 294.74 539.672
1928 0 84.0985 14.0193 1179 60.7201 294.984 540.718
1929 0 88.154 14.1003 1243 60.4642 295.248 538.665
1930 0 89.0928 13.5365 1206 61.9386 295.512 534.779
1931 0 90.1865 13.5164 1219 61.9073 295.505 534.45
1932 0 96.1431 14.8841 1431 59.3969 295.28 533.382
1933 0 97.1398 13.6401 1325 61.6815 295.5 530.903
1934 0 101.156 14.6111 1478 60.23 295.361 530.823
1935 0 103.16 13.8038 1424 61.6039 295.588 528.949
1936 0 106.111 14.4471 1533 60.7639 295.192 527.063
1937 0 109.185 14.3609 1568 60.6301 295.43 525.03
1938 0 111.205 14.3159 1592 60.6219 295.26 523.986
1939 0 116.102 14.7456 1712 60.6104 295.819 522.474
1940 0 118.105 14.7919 1747 60.6199 295.779 521.851
1941 0 123.211 14.8526 1830 60.6967 295.977 519.102
1942 0 126.115 15.2163 1919 60.2777 295.732 514.189
1943 0 131.223 14.4563 1897 61.6542 295.776 513.861
1944 0 134.159 14.371 1928 60.3926 295.753 511.612
1945 0 138.227 14.5196 2007 60.3039 296.111 508.622
1946 0 144.211 15.1722 2188 59.1773 296.088 508.892
1947 0 148.156 15.3555 2275 59.3415 296.179 504.765
1948 0 153.244 15.3285 2349 59.739 296.159 502.757
1949 0 155.147 15.0567 2336 60.0355 296.082 500.569
1950 0 161.364 14.8484 2396 60.659 296.424 496.552
1951 0 165.209 15.2292 2516 60.3259 296.62 495.251
1952 0 171.203 15.8642 2716 59.5593 296.211 493.753
1953 0 176.233 15.2242 2683 60.6806 296.634 490.443
1954 0 180.201 14.8944 2684 61.6103 296.799 486.878
1955 0 187.27 14.9303 2796 61.2607 297.241 482.453
1956 0 192.271 15.2129 2925 60.9234 297.758 482.707
1957 0 199.273 15.416 3072 60.5951 297.942 476.839
1958 0 207.334 15.709 3257 60.3522 297.971 475.244
1959 0 212.442 15.1335 3215 60.7148 297.871 469.245
1960 0 221.262 15.1901 3361 60.7397 297.791 466.046
1961 0 227.41 15.2544 3469 60.644 298.266 460.12
1962 0 235.307 16.0089 3767 60.1003 298.13 459.558
1963 1 178.642 13.6194 2433 62.6095 298.355 486.973
1964 0 184.158 13.6622 2516 63.3724 298.548 483.656
1965 0 190.253 14.0865 2680 62.4922 298.913 480.874
1966 0 195.337 14.2881 2791 62.5851 299.449 479.502
1967 0 202.316 14.6405 2962 62.0294 300.077 476.708
1968 0 210.289 15.5833 3277 60.5481 300.312 470.803
1969 0 216.387 15.4214 3337 60.926 300.438 466.81
1970 0 221.216 15.0803 3336 62.0006 300.069 464.043
1971 0 230.345 14.7995 3409 62.472 300.664 458.333
1972 0 237.458 14.731 3498 62.484 300.011 455.024
1973 0 246.587 15.0778 3718 61.6154 300.651 453.204
1974 0 254.299 15.1357 3849 61.7256 300.743 448.529
1975 1 67.0823 10.0175 672 55.4911 300.994 546.667
1976 0 69.1654 9.88934 684 55.5219 301.156 544.091
1977 0 70.1783 11.9125 836 55.994 302.786 541.066
1978 0 72.1265 11.3828 821 56.5542 302.392 539.319
1979 0 76.3707 11.1692 853 56.1383 302.436 538.539
1980 0 77.2109 11.2937 872 56.4186 302.359 538.099
1981 0 81.1786 11.6656 947 55.736 302.201 536.42
1982 0 82.1896 10.7434 883 57.1234 302.747 535.033
1983 0 85.1022 11.7741 1002 55.9581 302.736 534.869
1984 0 89.1586 11.3057 1008 56.5585 302.764 533.384
1985 0 92.2722 11.336 1046 56.2562 302.255 530.893
1986 1 51.1194 10.9547 560 52.7286 302.348 550.086
1987 0 52.0824 10.3874 541 53.3272 301.734 551.473
1988 0 54.108 10.2573 555 53.5784 301.998 551.222
1989 0 55.1851 10.8906 601 53.9933 301.634 548.549
1990 0 59.1651 11.9665 708 52.9506 301.812 548.634
1991 0 58.1311 11.5429 671 54.5306 301.802 547.601
1992 0 62.1666 12.6917 789 53.1001 301.569 546.769
1993 0 61.1549 10.9067 667 55.934 301.789 546.072
1994 0 64.2368 11.2864 725 55.0579 301.644 546.877
1995 0 66.1812 11.7405 777 55.166 302.256 543.96
1996 0 67.2496 12.3718 832 54.8558 302.474 543.083
1997 0 70.2624 12.496 878 54.7141 301.777 542.845
1998 0 71.129 12.3016 875 55.3623 301.534 542.709
1999 0 73.1725 12.5184 916 55.702 301.967 540.403
2000 0 77.2349 12.7792 987 55.4276 301.805 539.237
2001 0 78.1163 12.0461 941 56.6302 301.628 538.744
2002 0 80.1518 12.4514 998 56.4148 301.283 538.371
2003 0 82.241 13.2902 1093 56.1244 301.401 536.011
2004 0 85.3614 13.5424 1156 56.0934 300.967 537.258
2005 0 87.4161 14.3223 1252 55.873 300.744 535.841
2006 0 90.4168 12.9954 1175 58.0221 300.685 533.433
2007 0 90.3225 12.4997 1129 59.2214 300.764 533.944
2008 0 95.4217 13.5609 1294 57.8679 300.991 530.572
2009 1 48.1758 10.3787 500 60.604 300.928 552.946
2010 0 52.1628 10.889 568 60.4771 300.732 551.905
2011 0 53.1238 11.5956 616 59.6282 300.649 551.281
2012 0 53.2992 11.67 622 60.3842 300.605 549.437
2013 0 55.2531 12.1441 671 60.0641 300.004 548.188
2014 0 57.1891 10.8937 623 61.4302 299.36 547.438
2015 0 59.3022 11.6353 690 60.7464 299.258 546.741
2016 0 61.2694 12.8449 787 59.8526 299.264 545.598
2017 0 64.3737 12.241 788 60.6193 299.923 546.198
2018 0 66.5018 12.2403 814 60.5491 299.398 544.475
2019 0 68.2602 13.1409 897 60.1951 299.43 543.757
2020 0 69.3345 12.5623 871 61.1125 299.171 543.095
2021 0 70.5475 12.9133 911 61.2887 299.231 538.99
2022 0 72.7019 12.7782 929 61.0786 299.226 538.119
2023 0 75.4897 12.4388 939 62.0756 298.493 535.176
2024 0 78.6521 12.7396 1002 61.7206 298.453 533.885
2025 0 83.4344 13.5316 1129 60.5872 298.651 533.169
2026 0 85.4694 13.3615 1142 60.3932 297.945 530.77
2027 0 87.4615 12.8742 1126 61.1465 298.321 529.02
2028 1 47.2622 10.0715 476 60.708 297.956 552.962
2029 0 49.3366 10.7223 529 58.8507 297.386 552.992
2030 0 51.3179 10.9708 563 58.4778 297.496 551.313
2031 0 52.4962 11.5247 605 59.8727 297.957 551.37
2032 0 55.1264 12.2446 675 58.9511 297.575 552.461
2033 0 54.1039 12.5499 679 60.2401 298.567 549.879
2034 0 56.0613 11.8263 663 61.6214 298.127 547.763
2035 0 59.0647 14.0354 829 58.3076 297.552 547.246
2036 0 59.1657 11.6622 690 61.8594 297.651 548.578
2037 0 61.1447 12.0861 739 62.0081 297.754 546.85
2038 0 63.1767 11.919 753 61.834 297.321 547.359
2039 0 65.0813 11.8467 771 62.1699 297.556 545.589
2040 0 65.0631 11.6041 755 62.4556 297.4 546.862
2041 0 69.0965 12.7792 883 60.6852 297.384 545.288
2042 0 70.0827 13.213 926 60.9924 297.545 542.762
2043 0 73.0584 12.62 922 61.2928 297.773 544.184
2044 0 72.0778 13.3189 960 61.1177 297.626 542.73
2045 0 75.1813 12.9421 973 61.1017 297.064 540.331
2046 0 78.0996 12.5609 981 61.0846 297.288 539.143
2047 0 83.2129 14.8535 1236 57.6748 296.953 537.532
2048 0 85.2097 13.7074 1168 59.2817 296.807 536.324
2049 0 88.2572 12.8941 1138 59.9385 296.424 534.712
2050 1 48.1682 9.01009 434 62.4424 295.887 557.154
2051 0 47.102 10.2543 483 61.2091 295.743 557.012
2052 0 49.1298 10.5639 519 61.4566 295.47 554.563
2053 0 51.0742 10.7687 550 60.9455 295.4 554.371
2054 0 53.1344 11.2357 597 61.9263 295.003 554.476
2055 0 53.0583 11.0256 585 62.7504 294.381 552
2056 0 56.0381 11.0996 622 62.0965 293.924 552.635
2057 0 57.0222 12.1532 693 60.8413 294.046 552.071
2058 0 58.0805 11.7251 681 61.4537 294.623 550.877
2059 0 62.1106 12.2362 760 59.8079 294.813 551.032
2060 0 63.0712 12.6841 800 59.8588 294.489 548.938
2061 0 66.0614 12.8063 846 59.3463 294.678 547.21
2062 0 67.0872 12.3421 828 60.2017 295.699 546.246
2063 0 69.2071 11.5451 799 61.0939 295.63 544.945
2064 0 73.1741 13.0101 952 58.1996 295.686 545.349
2065 0 74.1209 11.7106 868 60.2131 295.879 543.316
2066 0 75.1405 12.084 908 59.6773 296.058 543.034
2067 0 78.1391 11.6971 914 60.5153 296.063 541.656
2068 0 80.0799 12.1878 976 60.0318 295.739 539.001
2069 1 37.0968 8.11391 301 60.6777 295.817 562.708
2070 0 40.0384 9.54084 382 59.966 295.856 560.016
2071 0 44.0525 10.0562 443 58.9413 296.086 560.837
2072 0 41.0598 10.9109 448 60.1585 296.824 558.772
2073 0 43.0383 10.5487 454 60.5705 296.952 558.405
2074 0 46.1583 11.3522 524 59.416 296.809 557.861
2075 0 47.1513 12.3857 584 58.5993 297.507 556.543
2076 0 48.1974 12.1583 586 58.57 297.137 557.935
2077 0 49.1526 12.6138 620 59.1565 297.358 554.971
2078 0 51.1228 11.9907 613 60.0375 297.755 553.948
2079 0 53.1315 12.3844 658 59.8875 298.088 553.546
2080 0 53.1724 11.9047 633 61.4423 298.191 552.338
2081 0 53.3097 11.6677 622 61.9309 298.307 552.556
2082 0 56.1279 12.81 719 60.6467 298.786 551.195
2083 0 58.1735 12.8753 749 60.5955 298.565 550.828
2084 0 59.0978 12.8262 758 59.9116 298.471 551.625
2085 0 60.119 13.4067 806 59.5893 298.315 549.088
2086 0 62.1056 13.0584 811 60.0777 298.377 546.958
2087 0 64.1218 12.4451 798 60.9649 298.43 546.44
2088 0 66.1153 13.8848 918 59.2429 298.912 545.814
2089 0 68.0825 13.469 917 60.3108 298.822 544.952
2090 0 70.1766 14.0788 988 59.5455 299.036 543.969
2091 0 72.1325 14.1545 1021 59.8864 298.98 542.994
2092 0 73.2402 13.4079 982 61.1884 299.945 542.093
2093 0 76.1834 12.7587 972 61.9588 299.767 540.326
2094 0 78.2555 13.7882 1079 60.7044 299.726 538.152
2095 0 80.2808 13.4279 1078 61.2328 300.093 538.639
2096 0 83.1228 13.7147 1140 60.8912 300.069 537.37
2097 0 86.257 13.1815 1137 61.9103 299.903 534.103
2098 0 86.2721 13.1792 1137 62.1653 299.928 534.433
2099 1 49.0777 10.5139 516 62.9864 300.054 553.647
2100 0 48.1185 11.1807 538 62.277 300.318 555.074
2101 0 49.2431 10.9051 537 63.3836 300.263 553.158
2102 0 51.0998 11.2721 576 62.6771 300.998 551.938
2103 0 54.2184 11.4352 620 62.7839 300.976 549.853
2104 0 56.1925 13.2224 743 60.93 301.272 549.681
2105 0 58.0794 12.6034 732 61.5014 301.564 548.587
2106 0 59.1786 12.42 735 61.7347 301.761 548.214
2107 0 62.1321 13.423 834 60.6127 301.544 545.405
2108 0 64.2037 12.7719 820 61.0646 301.477 545.298
2109 0 65.1757 13.64 889 60.5973 301.249 544.015
2110 0 70.2642 13.9047 977 59.2702 301.422 543.706
2111 0 71.1367 13.6498 971 59.8867 301.445 541.62
2112 0 71.2193 13.3531 951 60.9779 301.555 540.084
2113 0 75.2608 13.9382 1049 60.387 301.116 538.239
2114 0 78.2496 13.687 1071 59.9767 301.225 538.304
2115 0 83.3258 13.3452 1112 60.1529 301.129 537.135
2116 0 84.1707 13.437 1131 60.2175 301.302 533.75
2117 0 87.1674 13.801 1203 59.6309 301.042 532.39
2118 0 90.4397 13.6776 1237 59.3387 300.966 531.332
2119 0 93.2621 13.1458 1226 60.509 300.63 529.615
2120 0 97.3099 13.2669 1291 60.3106 300.844 527.779
2121 1 50.1285 10.3534 519 59.289 300.474 553.326
2122 0 51.0975 10.4702 535 60.3346 300.009 550.598
2123 0 54.1759 10.9643 594 59.5 300.687 550.126
2124 0 57.2496 12.6813 726 57.8719 301.116 547.518
2125 0 59.3929 12.5604 746 58.9504 301.272 548.307
2126 0 60.1797 12.8947 776 58.4278 300.539 547.442
2127 0 62.2297 12.1807 758 58.4393 300.54 547.332
2128 0 64.2603 13.3364 857 57.4061 300.036 546.394
2129 0 66.1495 12.8648 851 58.4853 299.548 542.796
2130 0 66.2042 13.1714 872 58.1697 299.258 543.405
2131 0 69.1059 14.0654 972 56.5638 299.792 540.585
2132 0 72.2829 14.1527 1023 56.652 299.906 540.251
2133 0 73.2611 13.8955 1018 57.6444 299.102 539.992
2134 0 76.2754 14.0281 1070 57.4439 299.467 540.722
2135 0 76.3054 12.8169 978 59.4427 299.492 538.999
2136 0 81.3992 13.5382 1102 58.2486 299.151 536.044
2137 0 82.2045 12.7974 1052 58.903 298.831 536.209
2138 0 87.2744 14.1737 1237 57.4753 298.833 533.772
2139 0 87.3002 13.8488 1209 58.2299 298.965 533.993
2140 0 90.4524 14.1843 1283 58.4778 299.136 531.694
2141 0 93.2816 13.604 1269 59.3207 298.369 530.075
2142 0 98.2152 13.8064 1356 58.1497 298.673 532.372
2143 1 46.1501 10.7909 498 59.6265 298.408 553.972
2144 0 49.0632 10.4151 511 59.681 298.836 554.088
2145 0 47.0086 10.998 517 59.7215 298.271 553.133
2146 0 50.1054 11.3561 569 58.9209 297.638 553.044
2147 0 54.0095 12.3682 668 56.0629 297.004 552.726
2148 0 55.079 11.892 655 57.0565 297.264 551.727
2149 0 55.0817 12.3816 682 56.654 297.452 552.211
2150 0 57.0634 12.3547 705 57.3589 297.16 551.199
2151 0 59.0425 11.9405 705 57.7773 297.296 551.349
2152 0 60.0678 12.7856 768 57.5573 297.46 548.439
2153 0 63.0184 11.7267 739 58.6022 297.41 548.426
2154 0 61.0364 11.4849 701 60.02 296.84 547.66
2155 0 68.0526 13.8716 944 56.2076 297.602 546.444
2156 0 69.067 13.1467 908 57.163 296.907 545.213
2157 0 71.1201 12.739 906 57.7969 297.211 544.246
2158 0 74.1461 13.2846 985 57.0518 296.527 544.165
2159 0 75.1161 13.0332 979 58.4699 297.383 541.778
2160 0 78.3059 12.962 1015 57.7901 297.219 541.814
2161 0 82.2569 13.4335 1105 57.2923 297.223 539.214
2162 0 83.1496 13.4456 1118 57.6055 297.508 537.346
2163 0 88.1329 13.3321 1175 57.3387 297.532 536.78
2164 0 88.2792 13.1741 1163 57.9106 296.868 535.934
2165 0 93.1864 13.693 1276 56.924 296.716 532.856
2166 0 96.3199 13.2475 1276 57.5705 297.532 532.963
2167 1 50.0576 11.1671 559 57.1431 296.635 556.138
2168 0 52.0428 10.8564 565 57.5363 296.312 555.158
2169 0 55.0849 11.4369 630 57.3921 296.214 554.4
2170 0 56.0583 12.9865 728 55.783 296.484 554.179
2171 0 58.0472 13.3167 773 55.3157 296.241 552.634
2172 0 59.1206 12.8382 759 56.2951 295.933 552.037
2173 0 60.1039 12.4285 747 57.3922 295.7 549.892
2174 0 62.1278 11.4924 714 58.4524 295.352 550.403
2175 0 65.1895 12.8548 838 57.2864 295.686 547.767
2176 0 67.4389 13.123 885 57.2893 296.218 546.925
2177 0 69.0666 13.5087 933 57.7728 296.488 547.262
2178 0 73.2205 13.8486 1014 57.0602 296.342 546.464
2179 0 71.1473 12.8888 917 59.1788 296.25 544.786
2180 0 75.0986 13.7952 1036 58.7751 296.327 544.151
2181 0 76.1122 12.6392 962 60.8763 296.417 543.034
2182 0 80.1681 13.6837 1097 59.371 296.229 540.77
2183 0 80.2426 13.5838 1090 60.3404 296.425 540.24
2184 0 84.2932 13.2632 1118 60.2603 297.013 539.768
2185 1 49.1486 11.0278 542 60.8155 297.186 556.873
2186 0 51.1055 12.1709 622 59.4405 297.794 555.743
2187 0 52.1048 11.2082 584 60.7432 298.101 554.957
2188 0 53.1478 11.5903 616 62.1818 298.239 552.471
2189 0 55.0391 12.264 675 60.637 298.64 553.164
2190 0 57.0406 11.7986 673 61.1129 298.061 553.275
2191 0 59.1025 12.3345 729 60.8573 298.483 551.192
2192 0 61.0549 12.8245 783 61.7305 298.31 548.23
2193 0 61.0282 13.0268 795 62.0654 298.595 547.275
2194 0 64.1034 13.2286 848 61.0625 298.784 546.279
2195 0 66.0267 13.7066 905 61.2751 299.269 543.819
2196 0 69.1288 14.6104 1010 59.4921 299.282 543.554
2197 0 71.0759 14.0132 996 59.752 299.41 542.497
2198 0 71.0748 13.6476 970 61.3763 299.543 539.935
2199 0 75.1361 14.2808 1073 60.7577 299.771 538.107
2200 0 77.2526 13.3588 1032 61.1337 299.937 538.826
2201 0 80.2532 13.5945 1091 60.8203 300.233 535.902
2202 0 82.1986 13.6499 1122 61.074 299.897 533.192
2203 0 87.312 14.2707 1246 60.0353 299.759 531.208
2204 0 87.2306 13.4586 1174 61.9813 300.164 530.984
2205 0 91.3622 13.4301 1227 61.824 300.308 529.581
2206 0 93.3655 13.1312 1226 62.2684 300.321 527.075
2207 0 96.2718 13.3476 1285 61.8926 300.754 526.079
2208 1 49.412 9.694 479 61.7537 301.211 553.486
2209 0 50.3325 11.424 575 60.7722 301.758 551.57
2210 0 51.1741 11.4316 585 60.5573 301.468 550.916
2211 0 51.3267 11.8847 610 60.8279 301.744 549.189
2212 0 51.3944 12.2192 628 59.6465 301.715 548.672
2213 0 54.3228 11.5789 629 60.6137 301.331 550.243
2214 0 57.2067 13.1803 754 57.8952 301.984 549.798
2215 0 59.136 12.8179 758 58.3945 301.963 548.77
2216 0 60.1951 12.8083 771 58.7367 301.905 547.161
2217 0 60.0945 13.1959 793 59.0656 301.885 544.822
2218 0 61.3143 12.0853 741 60.4157 302.433 544.202
2219 0 66.2496 12.9812 860 58.0465 301.885 544.248
2220 0 66.2533 12.4975 828 60.1655 301.633 541.947
2221 0 68.188 13.1695 898 59.6381 301.36 542.007
2222 0 72.336 13.064 945 59.1323 301.694 540.202
2223 0 74.1951 13.4106 995 59.1176 301.854 538.582
2224 0 75.3354 13.4067 1010 59.4653 302.18 538.702
2225 0 77.3272 13.32 1030 60.0359 301.6 536.516
2226 0 80.4722 12.3769 996 61.502 301.621 535.595
2227 0 82.2852 12.9063 1062 61.0518 301.724 533.032
2228 0 87.5702 14.1372 1238 58.9402 301.981 531.795
2229 0 89.2297 12.6415 1128 62.508 302.225 532.354
2230 0 93.2617 13.8749 1294 60.4884 301.883 530.094
2231 0 95.3017 13.4415 1281 61.5933 301.927 527.761
2232 0 98.1543 13.4482 1320 61.3485 301.852 526.638
2233 0 100.473 13.4762 1354 61.0377 301.263 524.212
2234 0 103.492 13.6243 1410 60.9738 300.896 522.357
2235 1 55.184 10.8727 600 62.2133 300.555 548.043
2236 0 53.1772 10.7565 572 62.3794 300.107 545.642
2237 0 58.178 12.8227 746 58.8137 300.578 544.473
2238 0 59.1028 13.7388 812 58.548 299.651 543.757
2239 0 60.0601 12.2377 735 60.2054 300.109 543.732
2240 0 62.0982 12.9472 804 60.6244 300.435 544.032
2241 0 64.1987 14.0813 904 59.0631 300.306 542.006
2242 0 64.2122 11.9915 770 61.839 300.169 542.249
2243 0 67.3275 13.8428 932 59.3498 300.575 540.51
2244 0 70.1369 13.3453 936 59.8376 301.125 539.041
2245 0 71.2336 13.0978 933 60.7385 300.517 538.628
2246 0 71.1649 12.4219 884 62.3937 300.156 539.762
2247 0 75.3211 13.3429 1005 61.4368 300.559 538.995
2248 0 78.2363 12.8841 1008 61.7411 300.041 538.351
2249 0 80.2623 13.8297 1110 61.3315 299.643 536.025
2250 0 81.468 12.5693 1024 63.6875 299.626 533.973
2251 0 86.4668 13.855 1198 61.3422 299.24 532.22
2252 0 88.3128 14.3128 1264 60.8663 299.648 532.913
2253 1 45.2746 10.7787 488 63.9467 299.09 553.832
2254 0 48.1824 11.7885 568 63.0651 299.109 552.915
2255 0 48.1374 11.7372 565 64.0425 298.795 552.664
2256 0 51.0586 12.613 644 61.3835 298.97 552.576
2257 0 50.0473 13.1676 659 61.3202 298.98 551.302
2258 0 52.1425 13.7124 715 59.7147 299.55 550.485
2259 0 53.2454 13.3533 711 60.8819 299.747 550.332
2260 0 53.1259 12.4233 660 62.7182 300.064 550.429
2261 0 56.1309 11.972 672 63.7039 299.964 548.28
2262 0 57.0957 12.698 725 62.7959 300.39 548.381
2263 0 59.1033 13.4849 797 61.2585 299.937 547.783
2264 0 60.078 12.7501 766 62.7206 299.701 547.076
2265 0 62.0557 13.4395 834 61.5516 299.475 547.624
2266 0 63.2356 12.746 806 63.3772 299.572 546.366
2267 0 67.0993 13.3086 893 61.6898 300.207 544.545
2268 0 67.0939 13.2799 891 62.6633 300.31 543.902
2269 0 71.1808 13.5149 962 61.6435 300.005 542.258
2270 0 73.2847 13.9593 1023 61.1212 299.874 542.464
2271 0 74.1661 13.1866 978 62.3691 299.994 541.428
2272 0 79.1472 13.9613 1105 60.9032 300.008 539.293
2273 1 40.0649 11.082 444 61.8041 299.07 557.095
2274 0 44.0519 11.8951 524 60.145 299 556.941
2275 0 47.0552 11.2634 530 60.6491 299.055 555.581
2276 0 46.0765 10.8298 499 61.481 299.038 556.232
2277 0 49.0355 11.0532 542 61.3358 299.096 554.935
2278 0 49.0793 11.2879 554 61.6011 299.148 552.83
2279 0 51.0222 11.7988 602 61.294 300.498 551.186
2280 0 51.1036 12.6606 647 60.1685 300.142 551.317
2281 0 55.1615 12.7625 704 59.8906 299.615 551.014
2282 0 55.194 13.3529 737 59.3867 299.651 549.635
2283 0 59.0631 12.8507 759 59.2951 298.918 549.709
2284 0 58.0714 12.6396 734 61.1308 298.933 548.429
2285 0 60.074 13.0672 785 61.0459 298.759 548.068
2286 0 61.1645 12.0168 735 62.4395 298.473 548.263
2287 0 64.1117 13.804 885 60.6599 298.328 545.339
2288 0 68.1381 13.1498 896 61.1027 298.325 545.824
2289 0 66.1272 13.0657 864 62.5683 298.336 545.13
2290 0 71.0919 13.9538 992 60.6472 298.487 543.145
2291 0 71.0953 13.3764 951 62.7066 298.123 542.366
2292 0 74.1054 13.3594 990 62.4061 298.312 542.291
2293 0 77.114 13.5384 1044 62.0757 298.434 540.99
2294 0 79.0752 13.5188 1069 62.7839 298.375 539.183
2295 1 40.0331 11.3906 456 63.8575 298.23 557.535
2296 0 42.0224 10.7086 450 62.8556 297.938 559.636
2297 0 43.0546 10.9396 471 64.4777 297.55 558.467
2298 0 46.0409 12.1848 561 62.9857 297.353 556.786
2299 0 48.059 12.5679 604 61.8295 298.151 556.834
2300 0 50.0995 13.0141 652 60.431 298.15 556.324
2301 0 51.0767 12.6476 646 61.6316 297.892 554.269
2302 0 52.1215 12.5284 653 61.8239 297.969 555.158
2303 0 55.0931 12.8691 709 61.0804 297.669 553.612
2304 0 56.1234 13.3634 750 61.1587 297.799 551.06
2305 0 58.083 13.1708 765 61.4026 297.918 550.931
2306 0 59.0942 13.267 784 61.9719 297.511 550.639
2307 0 59.0516 12.887 761 62.7214 298.194 551.033
2308 0 63.051 13.608 858 61.2809 297.584 551.11
2309 0 65.0915 12.4594 811 62.8853 297.449 551.002
2310 0 66.096 12.3305 815 63.7264 297.791 547.952
2311 0 69.1191 14.7137 1017 60.4867 297.641 547.606
2312 0 70.1739 12.2553 860 63.7372 297.312 547.524
2313 0 72.1001 14.036 1012 61.7391 297.552 545.006
2314 0 75.266 13.6184 1025 62.6449 297.738 544.081
2315 0 78.1543 12.4881 976 63.8197 297.742 542.792
2316 0 80.077 13.6993 1097 62.5488 297.634 540.534
2317 0 82.1402 13.3796 1099 62.6133 298.289 539.244
2318 1 46.0909 11.6292 536 63.3134 298.304 558.05
2319 0 48.1718 11.7081 564 63.6294 298.69 555.337
2320 0 48.1135 11.1403 536 64.0951 299.188 557.424
2321 0 51.1366 11.4399 585 64.2547 299.096 555.979
2322 0 51.0602 12.0446 615 62.8602 298.424 554.429
2323 0 54.0402 12.9163 698 61.1934 298.696 552.814
2324 0 56.174 12.7461 716 62.0824 299.775 551.536
2325 0 57.1458 12.9668 741 61.3414 299.906 550.053
2326 0 59.1977 14.0546 832 59.9952 300.344 548.242
2327 0 58.1476 13.0358 758 62.0752 300.381 548.104
2328 0 62.1378 13.0355 810 61.8802 300.577 545.921
2329 0 65.1257 13.1438 856 61.3914 300.518 545.537
2330 0 68.1132 12.626 860 61.5651 300.517 544.852
2331 0 69.0837 12.7961 884 62.4333 301.353 544.06
2332 0 71.0993 14.3602 1021 61.1528 301.214 542.917
2333 0 71.1647 13.3072 947 63.2323 300.786 543.422
2334 0 73.0932 12.7645 933 64.1576 300.874 541.178
2335 0 76.1905 14.7131 1121 61.8091 300.868 539.612
2336 0 77.0828 14.0628 1084 63.2269 300.696 538.147
2337 0 81.1818 14.2889 1160 62.8578 300.62 537.041
2338 0 83.1115 14.294 1188 63.2466 301.507 535.446
2339 0 87.1842 14.4636 1261 63.5686 301.227 534.189
2340 0 88.1798 14.1189 1245 64.4835 301.859 533.243
2341 0 92.1219 14.0357 1293 64.536 301.625 530.959
2342 1 43.0344 10.2476 441 67.3129 301.78 554.785
2343 0 46.008 10.7155 493 67.0852 301.815 552.957
2344 0 48.0391 11.9486 574 65.2509 301.834 551.577
2345 0 51.0591 12.6324 645 64.2992 301.836 550.499
2346 0 51.1113 12.8347 656 63.9771 301.826 550.046
2347 0 53.0614 12.5892 668 64.5284 302.103 549.319
2348 0 54.0342 13.1028 708 63.6243 302.556 549.777
2349 0 54.0799 12.9808 702 64.7778 302.536 548.658
2350 0 56.1928 14.3791 808 62.4072 302.554 547.397
2351 0 59.1094 13.6527 807 63.1363 302.294 547.238
2352 0 60.1117 13.9573 839 63.0036 302.464 547.358
2353 0 62.0995 14.2191 883 63.1767 302.204 545.991
2354 0 63.0663 13.6999 864 64.3345 302.147 543.91
2355 0 65.0982 13.7331 894 64.0872 302.198 543.028
2356 0 66.3303 13.4479 892 65.4473 302.483 542.271
2357 0 69.1044 13.9065 961 64.4912 302.706 540.983
2358 0 70.1155 13.5205 948 66.3523 302.414 538.939
2359 0 74.1537 13.7552 1020 65.552 302.152 538.622
2360 0 77.144 15.335 1183 63.1319 302.41 537.992
2361 0 78.3401 13.9903 1096 66.0073 302.397 537.285
2362 0 80.165 14.5824 1169 65.5056 302.756 536.281
2363 0 82.1749 14.7125 1209 64.8023 302.011 534.944
2364 0 84.2297 14.0687 1185 65.9814 302.176 533.665
2365 0 87.1676 14.1337 1232 66.2313 301.823 531.217
2366 0 89.2245 13.8751 1238 66.6292 301.225 531.473
2367 0 93.3034 14.8333 1384 64.763 301.263 529.196
2368 0 96.1283 13.8877 1335 66.1753 300.712 530.13
2369 1 51.078 11.4139 583 66.7256 300.755 551.907
2370 0 53.1156 12.3692 657 66.1157 300.653 549.295
2371 0 56.0825 12.8561 721 64.6255 300.308 549.283
2372 0 57.0552 12.4791 712 66.0913 299.545 548.263
2373 0 60.0796 13.6319 819 64.2723 299.735 546.502
2374 0 62.1297 13.5201 840 63.906 299.675 547.027
2375 0 63.2571 14.449 914 62.8972 299.528 545.212
2376 0 66.0739 13.9238 920 63.762 299.858 544.326
2377 0 67.2261 14.1314 950 64.04 299.707 542.257
2378 0 69.0557 13.9453 963 64.4174 300.256 542.577
2379 0 72.1694 13.9394 1006 63.2753 300.099 542.451
2380 0 73.078 13.9166 1017 64.1347 299.926 540.428
2381 0 77.1491 14.1285 1090 60.8239 299.291 538.714
2382 0 80.1649 13.7716 1104 61.1658 300.01 538.886
2383 0 82.1105 13.701 1125 61.016 299.642 538.435
2384 0 86.33 14.4677 1249 59.4227 300.48 537.465
2385 0 88.1776 14.0625 1240 59.9976 300.558 535.485
2386 0 90.1878 13.5162 1219 61.5693 300.334 532.664
2387 0 95.2886 14.094 1343 60.1057 300.775 531.646
2388 1 49.0797 11.8175 580 61.9914 300.602 552.234
2389 0 53.1887 12.1266 645 60.5535 301.011 552.436
2390 0 54.0678 13.3906 724 60.2334 300.682 550.714
2391 0 57.0832 13.5241 772 59.2241 300.6 549.392
2392 0 59.0842 13.8108 816 58.9522 300.658 548.18
2393 0 59.0429 12.9228 763 60.0315 300.554 548.004
2394 0 64.1314 14.4235 925 57.4595 300.579 546.472
2395 0 65.0602 13.3722 870 59.4437 300.934 545.577
2396 0 67.0816 14.1022 946 58.4101 301.209 543.381
2397 0 67.0816 14.0873 945 162.036 302.203 543.411
2398 0 71.112 13.6264 969 58.8535 300.878 542.803
2399 0 72.1709 13.2463 956 60.1548 301.097 540.156
2400 0 75.0969 13.5425 1017 59.6627 300.885 538.083
2401 0 78.0688 14.1158 1102 58.7967 300.524 537.553
2402 0 82.0969 13.9226 1143 58.7305 300.465 536.823
2403 0 85.2852 14.176 1209 58.0372 300.029 536.555
2404 1 45.0604 10.497 473 59.6025 299.715 554.624
2405 0 48.0575 12.7555 613 56.925 299.445 553.263
2406 0 47.0407 11.6708 549 58.5301 299.169 554.683
2407 0 50.0804 12.4001 621 58.5862 298.324 553.124
2408 0 52.1589 12.6536 660 58.1364 298.202 552.464
2409 0 53.1651 13.0725 695 58.0806 298.406 551.035
2410 0 54.1382 12.6713 686 58.8571 297.95 550.978
2411 0 56.1272 13.1309 737 58.152 297.297 551.609
2412 0 58.1396 13.2268 769 58.1743 297.493 550.779
2413 0 59.0742 12.8144 757 59.354 297.754 547.149
2414 0 60.0526 12.8221 770 59.2494 297.234 548.606
2415 0 66.1321 13.1706 871 58.3961 297.073 547.362
2416 0 67.039 13.8874 931 58.188 297.309 546.639
2417 0 69.1192 13.0789 904 58.552 297.241 545.535
2418 0 72.0726 14.4854 1044 56.6494 297.555 544.481
2419 0 72.1339 13.0313 940 58.6521 297.923 543.572
2420 0 76.071 13.2508 1008 58.1825 297.887 543.169
2421 0 78.1732 12.6002 985 59.4376 298.118 541.025
2422 0 83.2167 14.1799 1180 57.5203 297.972 538.889
2423 0 85.0985 13.1965 1123 58.6456 297.764 538.705
2424 1 47.0983 10.7435 506 59.6542 297.656 556.642
2425 0 50.0131 12.0369 602 58.289 297.739 554.905
2426 0 52.0836 11.9999 625 58.28 298.234 554.808
2427 0 54.1447 12.0603 653 58.9342 298.139 553.446
2428 0 56.0796 12.7854 717 57.7085 298.152 552.778
2429 0 57.0497 12.8134 731 57.5363 297.966 553.54
2430 0 57.2021 13.2862 760 56.9671 297.961 552.825
2431 0 61.1639 12.5401 767 57.7692 297.817 551.432
2432 0 64.085 12.9671 831 57.1143 297.813 551.621
2433 0 63.052 12.8465 810 57.5704 297.802 549.138
2434 0 67.0499 14.3475 962 55.527 297.317 545.872
2435 0 69.083 14.3306 990 55.5364 298.106 544.892
2436 0 71.1062 13.1775 937 56.3565 298.196 545.492
2437 0 73.0989 13.0645 955 56.8817 298.173 542.925
2438 0 75.1082 13.9133 1045 56.0077 298.353 541.113
2439 0 77.1249 12.9401 998 56.8136 298.459 541.671
2440 0 80.1973 14.4643 1160 55.3733 298.075 538.822
2441 0 82.2915 13.6101 1120 56.2571 298.03 539.101
2442 0 85.1856 13.2769 1131 56.9903 298.141 535.433
2443 0 88.166 13.3271 1175 57.5285 298.387 535.689
2444 0 90.2075 13.2251 1193 57.596 297.909 535.647
2445 1 50.0133 11.0171 551 57.873 298.782 554.644
2446 0 51.0359 11.2274 573 57.8517 298.527 553.11
2447 0 54.023 12.143 656 56.8811 298.422 552.655
2448 0 54.0491 12.8957 697 57.1851 298.58 551.902
2449 0 56.0787 12.108 679 57.651 298.277 551.455
2450 0 58.1135 13.4392 781 56.4494 298.28 551.773
2451 0 61.0779 13.2781 811 56.2614 298.38 549.861
2452 0 62.1732 12.9316 804 57.857 298.561 547.711
2453 0 62.1094 13.0898 813 58.2681 299.173 547.134
2454 0 66.1562 14.1332 935 55.6193 299.204 545.861
2455 0 67.2526 14.1853 954 55.3679 298.992 544.558
2456 0 69.1518 13.9114 962 55.7328 299.267 544.308
2457 0 70.1494 13.1576 923 57.3164 299.433 543.252
2458 0 74.3812 13.6997 1019 57.3052 299.843 542.132
2459 0 75.0835 13.6648 1026 58.0409 299.869 540.112
2460 0 76.119 13.7548 1047 58.4288 299.84 538.154
2461 0 82.2898 14.6191 1203 57.0532 300.091 537.989
2462 0 85.2303 14.5136 1237 57.8787 300.234 537.173
2463 0 87.1817 14.4985 1264 57.9059 300.555 535.546
2464 0 88.2686 14.5805 1287 58.6356 300.929 532.064
2465 1 48.2123 11.4079 550 58.9945 301.329 554.736
2466 0 48.2007 12.4687 601 59.0799 301.752 553.426
2467 0 51.2389 12.3149 631 59.0808 301.759 551.635
2468 0 51.229 12.8443 658 59.4711 302.372 549.898
2469 0 53.1138 13.0098 691 58.9928 301.968 548.586
2470 0 54.0912 13.089 708 59.6751 302.428 547.333
2471 0 56.1902 13.8814 780 58.5936 302.408 547.513
2472 0 56.127 13.22 742 60.1482 302.763 545.512
2473 0 60.274 13.7041 826 58.9395 303.162 546.006
2474 0 63.123 14.2896 902 58.1364 303.079 544.877
2475 0 65.3451 14.2168 929 57.9946 302.945 544.731
2476 0 67.2235 14.251 958 58.6054 303.222 543.224
2477 0 68.1478 13.7789 939 59.6603 303.087 543.331
2478 0 69.1799 14.484 1002 59.1786 303.102 541.214
2479 0 75.2639 14.2964 1076 58.9275 303.2 538.972
2480 0 76.115 14.2547 1085 59.7309 302.817 538.727
2481 0 79.1321 13.5722 1074 60.3399 303.036 536.469
2482 0 81.0898 14.1325 1146 59.9127 302.795 536.749
2483 0 85.2935 14.3504 1224 59.6593 303.15 535.414
2484 1 44.1294 11.8288 522 61.8946 302.559 552.82
2485 0 47.1189 12.2881 579 60.2781 302.907 551.781
2486 0 49.1947 12.6843 624 59.4663 302.915 553.651
2487 0 49.093 12.5273 615 60.7821 302.647 551.805
2488 0 51.2691 12.9513 664 59.6913 302.369 551.702
2489 0 53.124 13.2897 706 59.687 302.103 549.456
2490 0 56.1675 13.887 780 58.1872 301.794 547.403
2491 0 58.2234 13.3108 775 58.4116 301.472 547.236
2492 0 58.218 13.7415 800 58.1213 301.496 544.348
2493 0 61.13 13.2341 809 59.0087 301.801 544.522
2494 0 62.127 12.7481 792 59.0114 301.721 543.567
2495 0 65.0549 12.4203 808 58.7686 301.849 543.498
2496 0 69.233 12.9996 900 57.4322 301.582 541.65
2497 0 71.1551 13.0138 926 56.9557 301.847 541.378
2498 0 74.1238 12.668 939 57.2662 302.001 539.477
2499 0 76.3314 13.4676 1028 56.3337 301.62 537.317
2500 0 80.2182 13.1142 1052 56.7529 301.559 536.422
2501 0 80.2614 12.7459 1023 57.0547 301.094 534.696
2502 1 42.1575 10.5557 445 56.0449 300.854 555.474
2503 0 45.2511 10.9169 494 55.1073 301.045 553.745
2504 0 48.109 12.0352 579 54.7202 300.784 551.402
2505 0 47.5668 12.0042 571 55.0771 301.058 551.581
2506 0 50.1794 12.0169 603 55.1625 301.315 551.143
2507 0 53.1607 12.9795 690 53.9362 300.697 550.568
2508 0 55.3088 12.8009 708 53.9548 300.806 548.661
2509 0 54.3158 12.1512 660 55.5576 300.423 549.029
2510 0 58.315 13.6157 794 53.4521 300.462 549.058
2511 0 61.341 12.6832 778 54.4897 300.662 545.85
2512 0 62.2057 13.1982 821 54.0134 300.313 547.524
2513 0 64.2646 12.6508 813 54.4723 300.145 545.196
2514 0 65.3086 12.5251 818 54.4132 300.197 545.666
2515 0 68.3638 12.4335 850 54.5435 300.228 543.707
2516 0 71.4028 13.5569 968 53.4452 299.834 541.683
2517 0 72.3529 13.5033 977 54.0573 299.759 539.789
2518 0 73.4842 13.1865 969 54.1909 299.495 540.478
2519 0 77.3436 13.1103 1014 53.925 300.068 539.245
2520 0 78.2968 12.8869 1009 54.8295 300.697 538.226
2521 0 81.348 13.7557 1119 53.8097 299.886 535.671
2522 0 82.5328 12.8918 1064 55.312 300.16 533.175
2523 0 86.3678 12.7941 1105 54.5928 300.457 532.85
2524 0 88.488 13.5273 1197 53.9624 299.982 529.261
2525 0 90.4369 13.4237 1214 54.3871 300.013 529.806
2526 0 94.3436 13.3448 1259 54.2573 299.714 528.502
2527 1 47.1391 10.2463 483 55.7598 299.435 552.418
2528 0 50.0908 10.6008 531 55.4294 299.478 550.721
2529 0 52.1697 11.5968 605 54.1008 300.387 550.612
2530 0 53.0543 11.6673 619 54.3473 299.859 548.21
2531 0 56.0936 12.7287 714 53.2717 300.122 548.378
2532 0 57.0738 12.2473 699 53.6495 299.496 546.662
2533 0 59.061 12.5633 742 53.2925 299.158 547.776
2534 0 60.2882 13.0374 786 53.215 299.709 544.836
2535 0 65.1296 13.6958 892 52.1973 299.207 544.142
2536 0 67.054 12.8851 864 53.147 298.583 543.233
2537 0 69.1213 12.4853 863 53.9606 298.955 541.068
2538 0 70.1194 13.2773 931 54.4715 298.65 540.744
2539 0 73.2872 13.3584 979 54.5649 298.481 540.739
2540 0 75.1837 13.1145 986 54.9929 298.534 539.292
2541 0 77.1495 14.1803 1094 54.245 298.491 538.308
2542 0 81.2234 13.3705 1086 54.9457 298.461 537.335
2543 0 81.2211 12.7799 1038 56.8131 298.411 537.733
2544 0 84.1834 13.233 1114 56.7944 298.68 536.758
2545 0 84.155 13.0355 1097 57.6427 298.71 536.001
2546 0 89.3502 13.7549 1229 56.5647 298.416 534.771
2547 0 89.1199 13.2294 1179 58.0229 298.651 532.906
2548 0 95.1616 13.4298 1278 57.6714 298.572 532.167
2549 1 52.0793 10.5608 550 58.7127 298.611 554.324
2550 0 52.0623 11.5631 602 57.6229 298.581 554.488
2551 0 54.118 11.2162 607 58.5799 298.895 552.843
2552 0 56.1634 12.3924 696 57.4368 298.444 551.56
2553 0 58.0326 12.4068 720 57.0528 297.746 550.435
2554 0 59.0395 12.7542 753 57.5657 297.972 550.205
2555 0 62.1301 12.6026 783 57.2708 297.991 549.249
2556 0 63.0498 13.2118 833 57.2317 298.208 547.072
2557 0 65.0694 13.7853 897 56.534 298.251 547.489
2558 0 69.0659 13.3785 924 56.6558 297.594 546.356
2559 0 69.0821 12.9122 892 57.5213 297.758 546.66
2560 0 69.0821 12.9122 892 157.085 296.758 546.66
2561 0 72.0931 12.6781 914 58.0208 298.339 542.646
2562 0 75.1266 13.4173 1008 57.2808 298.218 541.33
2563 0 76.3665 13.3305 1018 57.5943 298.202 540.511
2564 0 81.2574 13.5003 1097 56.8195 297.903 538.98
2565 0 84.2792 13.301 1121 56.8965 298.064 538.683
2566 0 86.2925 13.3152 1149 59.027 298.094 535.925
2567 1 45.1255 11.1245 502 59.3426 297.319 556.731
2568 0 47.1635 10.6014 500 60.678 297.498 556.288
2569 0 48.1212 11.471 552 59.6322 297.746 555.547
2570 0 49.1887 10.8765 535 60.2748 297.258 555.493
2571 0 52.2763 12.5678 657 58.5479 297.03 553.98
2572 0 52.14 11.8911 620 60.4387 297.027 552.163
2573 0 55.083 12.1272 668 60.2081 297.338 551.063
2574 0 56.2224 13.4288 755 59.155 297.567 549.306
2575 0 59.0506 13.6662 807 58.1846 297.312 550.209
2576 0 60.1968 13.1402 791 59.7004 297.623 548.331
2577 0 61.1146 13.6629 835 58.8826 297.163 548.737
2578 0 65.0996 13.7021 892 58.9058 297.327 547.4
2579 0 65.0768 13.5839 884 59.5339 297.447 544.666
2580 0 68.2011 13.2403 903 59.5958 297.299 545.412
2581 0 70.1016 14.5788 1022 58.4521 297.276 544.442
2582 0 71.0701 13.747 977 59.7963 297.088 542.168
2583 0 71.0829 13.013 925 61.8595 297.028 539.324
2584 0 79.0615 13.4452 1063 59.1054 297.337 539.597
2585 0 80.0622 13.2897 1064 60.5564 297.494 536.78
2586 0 81.0813 14.4793 1174 59.8986 297.359 535.187
2587 0 86.1034 13.7045 1180 60.6297 297.437 535.716
2588 0 88.2224 14.2254 1255 60.243 297.133 532.935
2589 0 92.2831 13.8704 1280 60.3484 297.912 532.368
2590 0 94.2872 13.8831 1309 60.6593 298.238 533.169
2591 0 98.1795 14.667 1440 59.4076 298.215 530.474
2592 1 49.1122 11.8911 584 61.7517 297.949 554.116
2593 0 52.3097 12.7127 665 60.3549 298.275 552.547
2594 0 54.2783 13.8177 750 59.0707 298.441 552.804
2595 0 56.3455 13.0445 735 59.7551 298.427 551.816
2596 0 58.2198 13.2257 770 60.5831 299.365 551.229
2597 0 59.2747 14.4244 855 59.1123 299.434 549.104
2598 0 62.2312 13.5141 841 60.1902 299.396 548.282
2599 0 64.258 13.368 859 60.0338 299.776 547.871
2600 0 65.3733 14.379 940 59.484 300.198 545.59
2601 0 67.3932 13.8441 933 60.7985 300.716 544.373
2602 0 68.3226 13.8315 945 60.6593 300.75 545.452
2603 0 71.7595 14.2838 1025 60.0478 300.898 544.386
2604 0 73.2049 14.1521 1036 60.8716 300.935 543.139
2605 0 74.4208 14.2299 1059 60.9282 301.307 542.658
2606 0 78.2833 13.8855 1087 61.0846 301.086 542.072
2607 0 79.4168 13.3347 1059 62.051 301.475 539.543
2608 0 82.287 14.3036 1177 60.8386 301.529 537.236
2609 0 84.2526 13.7206 1156 62.1799 301.815 533.956
2610 0 87.2864 14.0114 1223 61.4244 302.231 534.046
2611 0 88.5435 13.643 1208 62.3684 302.599 532.519
2612 1 50.2454 11.7225 589 62.9032 302.509 552.248
2613 0 51.1361 12.1441 621 62.9807 302.652 551.804
2614 0 52.2159 13.042 681 62.0411 302.802 552.021
2615 0 54.1192 12.7127 688 62.1366 302.849 551.788
2616 0 55.1741 12.8321 708 62.3051 302.462 549.671
2617 0 56.1074 13.8128 775 61.6219 302.711 548.93
2618 0 60.0359 13.9583 838 60.6504 301.999 548.693
2619 0 62.1728 14.1541 880 60.6091 302.753 546.505
2620 0 64.1456 14.0929 904 60.4945 303.292 544.908
2621 0 68.2416 14.7564 1007 59.149 302.934 543.49
2622 0 67.0853 13.6543 916 61.3832 303.267 542.479
2623 0 70.0596 13.5884 952 62.2437 303.133 539.569
2624 0 72.101 13.5366 976 62.4385 303.265 539.856
2625 0 75.1169 13.6853 1028 62.5467 302.656 537.979
2626 0 76.101 13.85 1054 62.7628 302.952 538.095
2627 0 81.2425 14.4506 1174 60.7658 302.959 537.75
2628 0 82.1187 14.3086 1175 61.5753 302.987 536.338
2629 0 84.1237 14.1221 1188 61.8939 302.705 534.476
2630 0 89.146 14.8857 1327 60.376 303.003 532.803
2631 0 92.1756 14.7978 1364 60.5601 302.707 531.228
2632 1 47.0336 12.1828 573 63.4031 302.607 552.476
2633 0 52.0427 13.9116 724 60.2804 302.827 553.547
2634 0 53.0785 13.8474 735 61.034 302.2 550.502
2635 0 55.1566 14.3229 790 60.557 302.128 549.399
2636 0 56.0866 13.7644 772 61.1049 302.258 548.959
2637 0 59.0728 13.7796 814 61.3489 302.015 547.084
2638 0 57.0298 13.6595 779 62.7009 301.884 545.397
2639 0 61.058 14.4617 883 61.0487 301.935 545.128
2640 0 64.144 15.434 990 59.8141 302.154 544.274
2641 0 63.1145 14.0538 887 62.9729 301.802 544.616
2642 0 66.1236 13.989 925 62.813 301.961 542.494
2643 0 70.05 14.3754 1007 62.2483 301.938 542.335
2644 0 71.2092 14.9419 1064 61.7077 301.827 540.634
2645 0 74.1658 15.2092 1128 61.0798 301.746 539.004
2646 0 74.2733 14.5005 1077 62.7447 301.76 539.211
2647 0 77.1251 14.483 1117 62.7699 301.62 537.046
2648 0 81.2123 14.9238 1212 61.8729 301.174 535.658
2649 0 84.1957 14.7632 1243 62.0756 301.129 534.265
2650 0 86.1558 14.3229 1234 59.4165 301.159 532.615
2651 0 89.3819 14.7345 1317 58.3371 301.276 533.376
2652 0 91.1977 14.1012 1286 59.4751 301.338 530.453
2653 0 94.1415 14.0533 1323 59.7596 301.711 530.229
2654 0 98.1295 15.7853 1549 57.6895 301.557 526.59
2655 0 98.1234 14.2881 1402 60.5357 301.479 525.442
2656 0 105.172 14.462 1521 59.0204 301.349 526.175
2657 0 107.156 15.5754 1669 57.707 301.342 524.155
2658 0 108.229 14.3677 1555 59.3537 301.275 521.785
2659 0 114.236 14.5225 1659 58.8577 301.275 518.215
2660 0 119.119 15.8749 1891 56.8419 301.273 518.158
2661 1 66.0763 11.1992 740 59.9446 301.003 546.436
2662 0 67.0703 12.6733 850 60.0071 301.009 542.572
2663 0 73.0801 14.272 1043 57.5024 300.663 540.34
2664 0 74.1466 14.4578 1072 57.2938 300.772 539.951
2665 0 77.0867 13.8934 1071 57.5714 300.43 537.863
2666 0 79.0824 13.2141 1045 58.8909 300.522 536.427
2667 0 81.0628 13.323 1080 59.213 300.279 533.262
2668 0 84.127 13.7887 1160 58.4569 300.523 533.01
2669 0 90.1457 14.6984 1325 57.203 300.315 532.28
2670 0 93.0995 15.1236 1408 56.7067 300.377 531.753
2671 0 95.1603 14.2076 1352 58.1768 300.155 528.226
2672 0 96.0784 13.6347 1310 59.5656 300.498 526.134
2673 0 101.244 15.0625 1525 57.8577 300.315 526.295
2674 0 103.238 14.1809 1464 59.3702 300.69 524.621
2675 0 106.377 14.5991 1553 59.0618 300.457 522.795
2676 0 108.258 14.2807 1546 59.8603 300.597 521.647
2677 0 115.439 15.0815 1741 58.2803 300.098 521.639
2678 0 117.404 14.7354 1730 59.378 300.255 520.972
2679 0 120.426 14.8389 1787 59.5518 299.889 515.912
2680 0 123.372 15.1169 1865 59.7212 299.85 514.173
2681 0 128.491 13.8531 1780 60.8888 299.91 511.511
2682 0 133.448 14.7248 1965 60.1196 299.794 509.859
2683 0 140.447 15.5646 2186 59.2484 299.576 507.71
2684 1 78.1902 12.6486 989 61.3731 299.481 540.439
2685 0 81.2572 13.0819 1063 61.2596 299.496 535.588
2686 0 84.2758 12.5778 1060 62.7821 299.848 535.192
2687 0 87.2958 13.7693 1202 61.3278 299.509 534.915
2688 0 89.3537 13.1052 1171 62.8779 299.207 532.786
2689 0 93.3779 14.618 1365 61.2168 299.114 531.667
2690 0 96.2604 13.9725 1345 62.148 299.218 528.935
2691 0 100.399 13.6954 1375 62.8444 299.377 525.758
2692 0 105.254 13.7667 1449 62.519 298.995 525.628
2693 0 108.359 15.0241 1628 60.9945 299.257 523.756
2694 1 60.1755 12.0149 723 62.7206 298.318 549.398
2695 0 64.1915 12.8054 822 61.8613 298.911 547.85
2696 0 64.1728 12.8092 822 62.5292 298.88 547.269
2697 0 68.173 13.011 887 61.549 298.972 545.68
2698 0 71.3242 13.5858 969 60.7874 298.269 542.942
2699 0 75.201 13.7365 1033 59.8761 297.833 541.924
2700 0 78.2816 14.1285 1106 59.2107 297.839 540.467
2701 0 79.1461 13.7846 1091 60.121 297.671 541.174
2702 0 80.2285 13.1125 1052 61.1559 297.564 538.065
2703 0 85.3479 14.9154 1273 58.2529 297.91 537.903
2704 0 88.2891 13.8522 1223 59.4963 297.77 535.451
2705 0 88.2409 13.4858 1190 60.3529 297.561 534.966
2706 0 93.2756 13.3047 1241 60.0629 297.844 535.019
2707 0 97.2647 15.0003 1459 57.9918 297.923 529.047
2708 0 102.265 14.0811 1440 58.6361 297.895 530.617
2709 0 105.489 14.5324 1533 57.8193 298.033 529.136
2710 1 52.0912 10.2897 536 60.3825 297.229 555.123
2711 0 54.1179 12.0293 651 60.4562 297.782 551.286
2712 0 57.0854 12.3499 705 60.2241 297.712 551.111
2713 0 59.0506 12.5994 744 59.5672 297.918 551.2
2714 0 62.0413 13.346 828 58.2911 297.682 551.144
2715 0 62.0572 13.3747 830 58.7108 297.793 550.431
2716 0 62.119 13.12 815 58.5595 297.52 548.544
2717 0 66.0968 12.7389 842 57.9454 297.365 548.76
2718 0 70.0454 13.8196 968 56.6157 297.408 547.658
2719 0 71.0974 13.6995 974 57.1304 297.037 545.246
2720 0 72.0975 13.9395 1005 57.2547 297.068 542.116
2721 0 75.1197 14.417 1083 56.4589 297.211 543.369
2722 0 78.1871 14.0432 1098 56.571 297.404 543.894
2723 0 80.3204 13.6827 1099 57.2548 297.9 540.521
2724 0 84.3924 14.3733 1213 56.1888 297.568 538.082
2725 1 43.2172 12.0785 522 57.5038 297.295 558.906
2726 0 45.2286 12.2047 552 57.1304 297.627 557.545
2727 0 45.0635 12.1384 547 56.8976 297.587 557.238
2728 0 47.0748 12.682 597 56.124 297.843 556.653
2729 0 48.1029 12.0783 581 57.4561 297.36 555.432
2730 0 48.1433 12.1305 584 58.125 297.426 555.541
2731 0 50.1245 14.0051 702 56.047 297.566 554.862
