time division length width area intensity CMx CMy
0 0 47.0711 9.81493 462 75.7814 440.162 565.437
1 0 49.0672 11.3925 559 73.2862 440.381 565.819
2 0 50.1085 12.1536 609 72.6502 440.54 564.895
3 0 49.0639 10.8634 533 73.4334 440.985 562.319
4 0 53.2666 12.0526 642 71.3645 441.315 563.274
5 0 55.2727 11.3799 629 73.0223 441.294 562.442
6 0 58.2878 12.6785 739 70.2909 440.873 561.099
7 0 59.1707 13.216 782 69.0217 440.618 560.894
8 0 58.1728 12.2566 713 72.0281 441.035 561.116
9 0 60.2337 12.1029 729 72.62 441.295 559.942
10 0 63.2327 12.9996 822 71.5328 441.468 559.305
11 0 65.2312 12.632 824 72.949 441.583 557.837
12 0 67.1999 13.6459 917 70.7339 441.997 555.383
13 0 68.1291 12.9754 884 71.6561 441.662 554.515
14 0 70.1938 12.9641 910 71.1516 441.799 554.764
15 0 73.214 13.522 990 69.8253 441.59 552.885
16 0 75.2005 12.593 947 70.8004 441.312 550.93
17 0 78.1863 12.9946 1016 69.6939 441.343 549.562
18 0 80.3107 13.3233 1070 67.5439 441.068 548.849
19 0 83.1991 12.5001 1040 67.8365 441.81 548.696
20 0 86.1896 12.0432 1038 68.1503 441.483 547.79
21 0 89.1704 13.5807 1211 65.8497 441.446 546.023
22 0 93.1982 14.4638 1348 64.6936 441.135 542.112
23 0 96.2272 14.2579 1372 64.9534 441.537 544.056
24 1 52.1913 9.86755 515 67.2913 440.517 565.272
25 0 55.1247 11.1384 614 66.127 440.619 562.373
26 0 57.1568 11.9321 682 65.0674 440.723 561.372
27 0 57.1814 12.3292 705 65.5957 440.668 561.255
28 0 60.1411 13.9671 840 63.1536 441.349 558.181
29 0 60.1947 13.5726 817 64.4064 442.086 557.734
30 0 63.2928 13.635 863 64.2167 441.928 556.696
31 0 63.3669 13.8243 876 64.5354 442.021 558.086
32 0 66.2547 13.7651 912 64.8136 442.13 556.925
33 0 67.2865 13.8661 933 65.6077 442.695 554.991
34 0 68.2738 13.2847 907 67.0639 442.879 553.813
35 0 73.2933 13.9985 1026 66.0234 442.682 551.44
36 0 75.2952 13.6662 1029 66.2352 443.073 552.182
37 0 77.1854 13.798 1065 66.7887 442.835 551.538
38 0 78.2281 14.6239 1144 66.6827 442.799 549.029
39 0 83.2156 14.7448 1227 66.3708 442.78 547.954
40 0 83.2407 13.5511 1128 68.945 443.356 546.757
41 0 88.2765 13.4464 1187 68.7725 443.455 545.053
42 1 44.2105 10.8572 480 68.9938 443.038 568.319
43 0 47.271 11.5716 547 68.4369 443.393 565.764
44 0 48.2002 10.4149 502 70.2729 443.721 566.139
45 0 51.4454 11.8961 612 67.5572 443.539 566.042
46 0 51.1524 12.5116 640 67.1547 443.805 564.733
47 0 52.1638 12.5758 656 67.3841 443.779 562.39
48 0 55.2183 13.184 728 66.6566 443.647 562.012
49 0 57.1879 13.5868 777 66.4118 444.006 559.894
50 0 58.2711 13.5573 790 66.3873 443.782 561.108
51 0 58.2264 12.6575 737 69.1167 444.277 558.487
52 0 60.2047 12.7399 767 68.6323 444.142 558.802
53 0 63.1573 12.4609 787 68.8297 443.489 558.485
54 0 66.1355 12.4139 821 69.0962 443.199 556.77
55 0 69.1666 14.7904 1023 59.608 443.565 555.614
56 0 69.2084 12.7586 883 63.4575 443.511 555.681
57 0 72.154 14.0949 1017 61.9921 443.363 553.406
58 0 74.189 12.8456 953 63.6946 443.669 552.389
59 0 77.4059 13.384 1036 63.4218 443.706 551.426
60 0 80.3218 14.3797 1155 62.6208 443.901 549.268
61 0 81.2593 13.66 1110 64.6018 444.159 546.347
62 0 86.2271 14.311 1234 63.4481 443.92 546.72
63 0 89.2795 14.3594 1282 63.2309 443.119 546.174
64 1 46.1829 9.78717 452 66.5619 443.644 566.02
65 0 48.224 11.5917 559 65.4007 443.805 562.64
66 0 51.3235 10.8138 555 65.809 444.11 563.227
67 0 53.412 12.5814 672 63.5357 444.722 561.126
68 0 54.1952 12.1967 661 63.4448 444.964 561.74
69 0 57.2507 12.9431 741 62.4912 444.744 560.383
70 0 56.2427 12.0371 677 63.712 444.285 560.682
71 0 60.2481 13.1456 792 62.0745 444.553 557.282
72 0 62.3132 13.3679 833 61.5522 444.537 556.946
73 0 63.3365 14.2256 901 60.6382 444.634 556.14
74 0 65.4121 13.3462 873 61.5853 444.774 556.403
75 0 67.4902 13.765 929 61.5587 445.259 553.384
76 0 71.2945 14.1806 1011 60.5361 445.609 553.186
77 0 71.344 13.498 963 61.9086 446.067 551.277
78 0 74.3637 13.5953 1011 61.5628 445.958 551.169
79 0 76.1953 13.4523 1025 62.2615 446.26 548.965
80 0 80.2594 13.6308 1094 61.8044 446.479 546.726
81 0 81.4677 13.3795 1090 62.6459 446.586 545.631
82 1 43.2107 10.3215 446 63.6928 446.78 564.758
83 0 46.2942 10.9301 506 62.8953 446.883 563.194
84 0 46.2426 10.3368 478 63.8201 447.019 563.308
85 0 48.2055 10.8079 521 63.5432 446.795 562.06
86 0 49.2169 11.9471 588 63.0527 446.884 559.638
87 0 50.3894 11.9668 603 61.6633 447.572 559.32
88 0 53.1493 12.7942 680 59.8941 447.846 556.297
89 0 55.256 13.5551 749 58.2323 447.936 555.019
90 0 58.3884 12.9649 757 58.9009 448.032 555.094
91 0 58.2332 12.9136 752 64.9761 448.797 554.021
92 0 60.1847 13.2093 795 67.3132 448.869 552.472
93 0 62.2265 12.2777 764 67.6976 448.83 550.258
94 0 64.1391 13.1433 843 65.5291 448.767 549.834
95 0 66.1845 13.0997 867 63.203 449.533 548.035
96 0 68.2269 12.7369 869 62.4695 448.703 547.449
97 0 72.2455 14.686 1061 85.164 448.615 546.097
98 0 74.1774 13.5486 1005 60.5333 447.928 544.665
99 0 76.1452 12.9095 983 60.6948 447.668 543.244
100 0 76.2919 12.7799 975 62.8338 448.163 540.658
101 0 81.1163 12.7964 1038 63.7389 448.354 540.627
102 0 84.1686 13.3423 1123 61.2493 447.612 538.932
103 0 88.1239 13.0498 1150 61.1478 448.16 535.74
104 1 46.1165 10.7554 496 60.7056 447.778 556.893
105 0 46.0378 9.75286 449 62.6102 448.071 554.082
106 0 50.0519 10.1495 508 62.7028 448.634 554.043
107 0 52.0389 11.9718 623 61.5682 448.31 554.172
108 0 52.0348 11.4347 595 64.884 448.326 552.415
109 0 53.3288 12.7698 681 61.9001 449.398 553.996
110 0 54.3339 12.6809 689 58.2293 448.888 552.388
111 0 55.1556 12.0024 662 57.9547 448.758 552.563
112 0 60.2575 14.0398 846 56.1974 449.311 551.489
113 0 63.1664 13.7098 866 56.8984 449.127 550.956
114 0 63.3037 13.7591 871 58.1676 448.823 548.383
115 0 66.2353 14.2824 946 57.2918 448.762 548.91
116 0 65.1796 12.2431 798 61.2118 449.157 546.332
117 0 70.2666 13.7334 965 60.0321 449.123 545.27
118 0 73.2178 14.1496 1036 59.5811 448.976 544.311
119 0 73.232 13.942 1021 60.8981 448.713 544.18
120 0 78.2876 13.4376 1052 60.4791 448.728 542.837
121 0 80.1663 13.4096 1075 61.0056 448.424 541.407
122 0 83.1783 14.1623 1178 60.7241 448.351 538.059
123 0 86.1721 13.5659 1169 61.6955 448.184 538.109
124 0 88.1935 13.7992 1217 61.9934 447.942 538.262
125 0 92.2406 14.2128 1311 61.9985 448.542 534.852
126 1 50.2401 12.0223 604 62.4702 447.411 556.684
127 0 52.3246 13.1487 688 61.548 447.199 554.581
128 0 50.1977 12.3113 618 63.1618 447.144 554.848
129 0 54.2132 11.9713 649 62.7103 447.433 554.331
130 0 54.1147 12.8246 694 62.4135 446.213 552.888
131 0 56.2055 12.6678 712 62.4803 447.336 550.489
132 0 59.2201 12.5464 743 62.3822 447.384 551.929
133 0 58.2011 13.4705 784 62.3737 447.291 550.663
134 0 61.2997 12.186 747 63.2262 447.386 550.341
135 0 64.2602 13.7254 882 61.1281 447.23 552.053
136 0 65.1275 13.0667 851 62.9495 447.107 547.867
137 0 66.2305 14.5099 961 61.9584 446.999 546.248
138 0 67.2049 14.4186 969 62.1311 446.675 546.639
139 0 70.2974 12.8027 900 63.7544 445.913 545.333
140 0 72.2398 13.0953 946 63.2378 446.339 545.666
141 0 73.2079 13.7963 1010 62.6713 446.392 544.272
142 0 77.3626 13.6629 1057 62.245 446.759 544.254
143 0 79.2998 13.9219 1104 62.7889 446.793 540.703
144 0 83.2984 14.7662 1230 61.7984 446.53 539.667
145 0 86.2588 14.1319 1219 62.4454 446.656 539.012
146 0 88.3111 12.3088 1087 65.3661 446.6 537.7
147 0 92.3972 14.6974 1358 62.363 446.437 536.376
148 1 48.0876 11.8118 568 64.6901 445.898 554.882
149 0 50.0138 12.3366 617 62.8412 445.739 554.493
150 0 52.041 12.9129 672 63.2351 446.369 552.277
151 0 54.2388 13.1271 712 65.2135 446.781 554.027
152 0 54.2042 12.416 673 67.0149 446.367 553.247
153 0 58.2163 14.2228 828 64.4227 446.373 552.973
154 0 61.1668 13.7656 842 63.7565 447.087 549.786
155 0 59.1804 12.859 761 66.0867 446.551 549.761
156 0 63.0996 13.4708 850 65.1941 446.369 550.069
157 0 66.1503 13.8775 918 64.5588 446.906 547.822
158 0 68.0849 13.63 928 65.2586 446.112 546.86
159 0 72.1394 14.5413 1049 63.2459 446.612 546.276
160 0 71.2248 13.338 950 66.0895 446.361 544.209
161 0 75.2174 14.3318 1078 64.4156 446.467 541.022
162 0 77.128 13.8471 1068 64.6873 446.77 540.119
163 0 81.1393 13.9143 1129 64.1125 446.514 540.184
164 0 83.2889 14.2036 1183 63.8242 446.848 536.252
165 0 85.0924 14.3373 1220 63.7779 447.21 538.468
166 0 86.2032 13.8742 1196 64.9875 447.79 534.954
167 1 48.1054 10.477 504 64.6627 446.657 557.24
168 0 51.0685 11.9252 609 62.4269 446.328 557.044
169 0 51.1011 11.2718 576 64.1528 446.885 556.498
170 0 53.0469 12.6492 671 62.4933 447.313 553.308
171 0 57.077 12.1765 695 62.3914 446.955 552.745
172 0 56.2614 13.1884 742 62.6199 448.019 552.879
173 0 57.1886 13.5516 775 62.9639 447.972 550.79
174 0 59.3124 13.0833 776 63.1443 447.906 550.669
175 0 62.0996 13.3012 826 62.8475 448.316 550.297
176 0 63.1481 13.5396 855 62.7275 448.084 548.03
177 0 66.162 14.0866 932 61.3938 448.343 547.363
178 0 66.213 13.9701 925 62.7319 448.295 546.119
179 0 68.1226 12.9766 884 63.9355 448.463 544.966
180 0 72.1975 13.4215 969 62.8256 448.671 543.192
181 0 74.1373 13.3266 988 63.8431 448.526 543.205
182 0 76.2647 14.2005 1083 63.1376 448.95 540.981
183 0 78.0556 13.5544 1058 63.7457 448.829 540.736
184 0 80.1528 13.861 1111 64.3411 449.217 537.905
185 0 83.2015 13.7497 1144 64.3802 449.411 537.396
186 1 42.0616 10.9363 460 63.7522 448.424 557.813
187 0 41.024 11.0667 454 64.0441 448.921 556.705
188 0 45.1783 11.3993 515 63.8485 449.14 556.369
189 0 46.0774 12.4139 572 63.3531 448.988 556.094
190 0 49.1799 13.0134 640 62.9938 449.362 554.947
191 0 50.2607 13.4698 677 64.2245 450.366 553.055
192 0 51.3485 12.2302 628 67.4618 450.721 553.193
193 0 52.3885 12.8463 673 65.1441 451.117 551.554
194 0 54.3258 14.0633 764 61.7238 451.122 550.912
195 0 54.2532 12.6444 686 63.4431 451.001 550.799
196 0 56.2676 13.0448 734 63.5027 450.946 549.571
197 0 59.1814 13.9233 824 62.8532 450.88 548.504
198 0 60.2311 13.4482 810 64.7062 451.167 546.657
199 0 64.1575 13.2798 852 63.8005 451.15 547.546
200 0 64.1552 13.4829 865 63.9595 451.095 546.607
201 0 67.315 13.9493 939 62.9244 451.694 544.002
202 0 67.2062 14.0463 944 63.4311 451.752 543.65
203 0 71.1391 13.6493 971 63.7271 451.821 540.875
204 0 72.2342 13.8992 1004 63.9651 451.943 541.271
205 0 75.1765 14.5657 1095 63.4749 452.178 539.511
206 0 76.1382 14.3029 1089 65.1221 451.983 538.206
207 0 80.2335 13.9593 1120 64.9964 452.627 536.754
208 0 82.2315 15.2496 1254 63.5909 452.341 535.496
209 0 87.2763 14.2077 1240 64.2653 452.08 535.81
210 0 86.4923 14.2209 1230 65.0317 451.785 535.293
211 0 89.3969 13.3338 1192 66.1426 451.726 531.982
212 0 94.2677 15.753 1485 62.6869 451.955 532.203
213 1 48.3127 12.3777 598 65.5803 451.309 554.055
214 0 50.2016 12.2705 616 66.5227 451.417 552.411
215 0 50.2067 13.2253 664 66.1777 450.715 552.91
216 0 53.3255 13.7458 733 65.5252 450.765 551.267
217 0 55.4801 14.2574 791 64.6258 450.724 550.776
218 0 56.3765 14.5273 819 64.4042 450.758 549.513
219 0 57.3133 14.0805 807 65.1611 450.301 549.958
220 0 60.3564 13.8345 835 64.6383 449.853 549.408
221 0 58.3253 13.7676 803 65.8755 449.786 548.615
222 0 63.3228 14.2287 901 64.3574 449.74 546.538
223 0 65.4048 13.8828 908 63.9559 449.522 546.209
224 0 65.3155 13.9324 910 64.2275 449.826 544.968
225 0 68.2246 15.1998 1037 62.5902 449.565 542.523
226 0 72.1405 14.3331 1034 63.1983 449.433 543.362
227 0 73.3383 14.2627 1046 63.066 449.921 541.581
228 0 74.4801 14.3931 1072 63.2444 449.591 541.672
229 0 77.2755 14.6748 1134 62.112 449.37 540.631
230 0 81.3338 14.422 1173 62.2234 449.997 540.101
231 0 82.294 14.594 1201 62.383 450.022 537.505
232 0 86.4195 14.3949 1244 62.0812 449.397 537.178
233 0 86.387 14.053 1214 62.7331 449.395 536.605
234 0 92.4494 14.1807 1311 61.7346 449.444 533.214
235 1 44.2229 11.8943 526 63.7985 449.194 555.605
236 0 48.3136 13.5366 654 60.9174 449.217 555.361
237 0 48.245 12.3951 598 62.6288 448.915 554.184
238 0 49.1327 12.5171 615 62.4829 448.537 553.963
239 0 53.152 13.6778 727 59.8501 448.475 553.638
240 0 53.3895 12.3433 659 61.0288 448.187 552.866
241 0 56.3226 14.3104 806 58.4578 448.357 551.823
242 0 56.4857 14.2691 806 59.0993 448.71 551.225
243 0 58.1394 13.7428 799 59.1627 448.489 551.345
244 0 60.3459 13.6546 824 59.0862 448.496 551.231
245 0 63.2897 14.8523 940 57.6936 449.19 549.531
246 0 65.4358 14.1513 926 58.5065 448.863 548.861
247 0 66.3826 13.8139 917 59.0262 448.684 548.609
248 0 68.2291 14.6565 1000 58.493 448.697 546.134
249 0 72.3766 14.6871 1063 58.4356 448.805 543.84
250 0 74.3283 14.4629 1075 59.1014 448.864 542.211
251 0 77.47 14.3023 1108 59.1895 448.671 543.147
252 0 81.3481 14.7023 1196 58.2651 448.431 542.221
253 0 82.401 15.6066 1286 58.2683 448.672 539.209
254 0 85.2823 15.4897 1321 58.246 448.188 538.56
255 0 87.3909 15.219 1330 58.6414 448.283 538.216
256 0 90.362 14.7186 1330 59.0857 448.147 535.948
257 0 93.4438 15.314 1431 58.4745 448.041 534.574
258 1 48.3435 12.7628 617 60.0438 447.405 557.653
259 0 48.4206 12.949 627 60.5104 447.472 556.799
260 0 48.4206 13.0316 631 163.525 448.483 556.707
261 0 51.4594 13.2726 683 60.1801 446.939 557.331
262 0 52.2542 15.2715 798 58.2143 446.533 555.742
263 0 56.2648 15.5337 874 57.3501 446.452 553.947
264 0 58.4848 13.5933 795 59.0629 446.489 553.323
265 0 61.234 14.5671 892 57.8767 446.709 551.617
266 0 61.594 13.9137 857 59.4936 446.588 551.508
267 0 65.285 15.3634 1003 57.7358 446.446 549.87
268 0 67.5394 15.3984 1040 57.7279 446.543 550.128
269 0 68.3753 13.8793 949 60.0379 447.067 548.307
270 0 70.1895 13.9337 978 60.0378 447.228 547.276
271 0 73.6001 13.8315 1018 60.1955 447.49 546.16
272 0 75.2389 14.2612 1073 59.767 446.762 545.633
273 0 79.2621 14.6224 1159 58.9094 447.094 544.188
274 0 80.4228 14.5108 1167 59.5193 447.152 541.613
275 0 85.2657 14.9885 1278 58.9444 447.225 540.111
276 1 39.2356 10.4752 411 59.5718 447.083 562.36
277 0 42.1689 12.2128 515 58.5845 447.132 559.804
278 0 45.3496 13.429 609 56.9721 447.307 559.335
279 0 44.1203 13.3725 590 58.3102 447.422 558.237
280 0 46.0909 13.8639 639 58.2379 447.299 556.438
281 0 50.2174 12.7247 639 58.8951 447.332 556.099
282 0 50.282 12.41 624 59.891 447.587 555.593
283 0 52.2818 12.7578 667 59.4978 448.048 554.03
284 0 53.3463 13.1031 699 60.1288 448.355 552.991
285 0 55.4408 12.9147 716 59.9735 448.584 552.626
286 0 56.2531 12.4615 701 61.1455 448.495 551.668
287 0 60.3152 13.6947 826 59.132 448.748 551.287
288 0 60.347 13.5384 817 60.3146 449.077 548.793
289 0 60.3593 14.1155 852 60.5599 449.64 548.106
290 0 62.4621 13.176 823 61.0765 449.525 549.591
291 0 66.3288 13.7798 914 60.5755 449.713 546.437
292 0 68.2804 13.137 897 61.1761 450.089 545.887
293 0 71.2207 12.8614 916 61.0459 449.974 543.773
294 0 75.2403 13.6097 1024 60.5371 450.207 541.475
295 1 41.1079 10.6306 437 59.6865 449.476 558.014
296 0 44.1179 11.1066 490 59.4306 449.449 556.312
297 0 44.1672 11.1621 493 60.0264 449.99 555.984
298 0 45.3234 13.3485 605 58.2083 450.479 554.145
299 0 46.3409 12.1275 562 59.21 450.726 554.678
300 0 48.3461 12.3071 595 58.6639 450.583 555.087
301 0 49.2579 12.1808 600 59.83 450.845 553.533
302 0 51.2324 11.8089 605 60.7025 450.635 551.493
303 0 52.3053 11.6623 610 60.5541 451.649 550.834
304 0 53.1731 12.6192 671 60.0805 451.107 550.055
305 0 56.2481 12.516 704 60.1193 451.32 549.041
306 0 58.2854 12.7476 743 59.2476 451.616 548.86
307 0 59.1567 12.4077 734 59.8624 451.823 547.47
308 0 61.1193 12.2056 746 60.3056 451.692 545.855
309 0 64.2254 12.8142 823 59.0996 452.041 545.305
310 0 65.1408 13.0947 853 58.7655 451.414 544.816
311 1 36.0415 10.3492 373 58.4531 450.477 559.059
312 0 37.062 9.84835 365 59.5753 450.904 558.088
313 0 38.0324 10.5962 403 58.4194 450.893 557.883
314 0 40.1571 11.0068 442 57.5226 451.265 557.93
315 0 40.2361 11.3083 455 57.6967 452.007 556.657
316 0 43.2347 11.8424 512 56.5566 451.436 556.111
317 0 44.3864 11.873 527 55.4782 452.123 555.565
318 0 45.2843 11.218 508 57.0354 452.077 553.715
319 0 47.2273 12.154 574 56.2578 452.329 553.61
320 0 47.3924 11.8162 560 57.3732 451.388 552.575
321 0 49.338 11.6543 575 57.1809 451.323 553.09
322 0 49.2168 11.7033 576 58.3125 451.378 551.649
323 0 51.2824 11.2319 576 57.8351 451.462 551.863
324 0 53.2572 12.9748 691 56.657 451.365 550.269
325 0 53.1958 12.3318 656 58.1189 451.125 549.401
326 0 53.4474 11.8434 633 59.2954 451.566 548.362
327 0 58.2079 12.8161 746 57.3941 451.752 549.389
328 0 59.2262 13.3725 792 57.3624 451.984 548.768
329 0 58.1461 12.4858 726 59.2851 451.882 546.406
330 0 59.213 12.6493 749 58.7704 451.837 547.689
331 0 62.1626 13.4808 838 58.1337 450.936 545.48
332 0 62.1647 13.2069 821 58.7296 451.111 545.477
333 0 66.1845 13.3717 885 58.5638 451.05 544.453
334 0 68.1983 12.7862 872 58.8578 451.306 544.555
335 0 69.249 12.8955 893 59.3617 451.344 542.658
336 0 72.2794 14.1396 1022 57.8924 450.933 541.492
337 0 73.1611 13.1901 965 59.371 451.323 541.251
338 0 76.5515 14.696 1125 58.104 451.263 539.217
339 0 78.3098 13.3444 1045 59.5254 450.816 538.927
340 0 82.3732 14.3615 1183 58.3263 450.775 537.844
341 0 86.4766 14.2582 1233 58.734 450.678 536.17
342 1 47.2346 11.2841 533 58.9231 449.867 556.289
343 0 48.2171 11.6764 563 59.8544 449.609 554.773
344 0 51.2381 12.237 627 59.3684 449.29 552.203
345 0 51.2793 11.7201 601 60.2529 448.488 553.364
346 0 51.2793 11.6811 599 151.382 447.481 553.381
347 0 54.1511 12.5759 681 59.5228 448.52 552.311
348 0 56.3883 12.8218 723 59.2586 448.333 552.149
349 0 59.2544 12.5898 746 59.6609 448.015 549.728
350 0 60.4796 12.5332 758 59.8786 447.596 550.396
351 0 61.296 12.6599 776 60.5657 447.18 547.892
352 0 65.4548 13.1236 859 59.4482 447.071 547.467
353 0 68.3884 13.4233 918 60.1601 446.612 546.812
354 0 69.2114 13.4515 931 61.1386 446.458 544.417
355 0 71.4861 12.408 887 62.6821 446.731 545.523
356 0 73.4562 13.2051 970 62.3278 446.501 544.229
357 0 77.2376 13.5426 1046 62.2314 446.823 541.058
358 1 42.2655 10.6943 452 62.146 445.726 560.819
359 0 44.2695 10.8427 480 62.2208 446.712 559.64
360 0 44.2051 11.9669 529 62 446.849 557.737
361 0 46.2256 11.7035 541 62.5046 446.677 557.819
362 0 47.2568 11.9983 567 62.0723 447.596 556.672
363 0 48.2229 12.3593 596 61.3473 447.265 556.265
364 0 50.3856 12.8211 646 61.2709 448.02 554.971
365 0 52.4293 12.8936 676 61.3536 447.822 553.206
366 0 54.2457 11.3004 613 62.6917 447.791 554.302
367 0 53.3321 12.3753 660 62.1364 448.044 553.506
368 0 56.3026 13.463 758 60.9749 448.044 551.26
369 0 57.2017 13.3912 766 61.1632 448.013 550.589
370 0 60.2669 12.7765 770 61.2052 448.332 550.235
371 0 60.2669 12.7765 770 161.552 449.332 550.235
372 0 64.1871 13.8813 891 59.7935 448.941 547.875
373 0 65.3417 13.7125 896 60.3516 448.887 546.228
374 0 66.2729 13.2784 880 61.3045 449.367 544.902
375 0 69.2865 13.1483 911 61.0143 449.269 544.576
376 0 71.11 13.233 941 59.288 449.284 542.797
377 0 73.3042 13.2189 969 59.5232 449.056 541.36
378 0 78.2567 14.5675 1140 57.6561 449.068 539.761
379 0 79.1781 13.5138 1070 59.3168 449.536 538.845
380 1 42.1564 9.98662 421 59.1544 448.872 557.254
381 0 42.2648 11.3333 479 58.5491 449.549 557.459
382 0 43.1978 11.5978 501 59.0439 450.285 556.036
383 0 44.2918 12.0113 532 58.8665 449.835 555.085
384 0 46.1448 12.4174 573 58.5497 450.054 553.538
385 0 48.1423 11.7984 568 59.1215 449.757 554.014
386 0 50.2762 13.0081 654 58.367 450.659 551.612
387 0 50.2091 12.2886 617 59.6872 450.723 550.891
388 0 53.1493 13.0388 693 58.5786 450.677 551.052
389 0 54.274 12.8423 697 58.9971 450.991 549.473
390 0 56.2907 13.0927 737 58.7788 450.807 549.235
391 0 58.1513 12.6566 736 59.6658 451.029 547.624
392 0 61.2908 12.6773 777 60.0566 451.06 546.728
393 0 62.2561 12.6895 790 60.5101 451.514 546.143
394 0 65.2701 12.7624 833 59.9928 451.78 544.175
395 0 68.142 13.1637 897 59.9521 452.237 541.931
396 0 70.1889 13.3212 935 59.8781 452.156 542.101
397 0 70.1692 13.1824 925 60.9557 452.664 539.931
398 1 37.2987 10.3757 387 60.8863 452.669 557.687
399 0 40.2159 10.6674 429 61.0932 452.93 556.315
400 0 41.2167 11.1363 459 60.6405 453.305 555.303
401 0 43.3293 12.0934 524 59.9141 453.126 554.75
402 0 44.2203 12.7543 564 60.3989 452.975 553.587
403 0 45.2589 11.5999 525 61.5048 453.434 552.994
404 0 46.1647 12.3688 571 61.5779 453.049 552.005
405 0 48.3216 13.4308 649 59.8629 452.721 551.639
406 0 49.2526 12.6288 622 61.8633 453.458 550.523
407 0 51.223 12.9824 665 61.6406 453.541 550.069
408 0 52.2708 12.55 656 62.9924 452.195 548.816
409 0 53.321 12.2091 651 63.2888 451.32 548.24
410 0 56.3813 13.6393 769 61.3056 451.641 548.131
411 0 58.2614 13.0447 760 62.2026 452.111 546.692
412 0 57.5826 12.9379 745 63.3315 452.804 546.242
413 0 61.6134 13.0816 806 62.6154 452.648 546.645
414 0 60.616 13.9072 843 62.7236 452.179 544.584
415 0 65.5343 13.9469 914 62.8545 452.244 543.284
416 0 68.7103 14.9468 1027 61.074 452.17 541.883
417 0 68.6676 13.2522 910 63.7165 451.844 541.958
418 0 72.6569 14.7268 1070 61.5308 451.739 539.354
419 1 38.4507 10.1689 391 63.6087 450.558 558.189
420 0 39.1944 11.4047 447 62.255 449.819 557.7
421 0 39.2859 11.0472 434 64.5576 450.309 555.304
422 0 43.1937 10.9738 474 63.8797 449.694 555.443
423 0 43.2807 12.1994 528 61.3409 449.508 555.839
424 0 44.1418 12.6411 558 61.2885 450.419 554.869
425 0 44.1543 12.0713 533 62.2308 450.246 555.045
426 0 47.1466 12.4505 587 61.6269 450 553.509
427 0 49.1524 12.6138 620 60.5548 449.982 553.797
428 0 50.2656 12.434 625 61.3984 449.832 551.774
429 0 53.2642 13.4424 716 59.4274 449.408 552.131
430 0 54.1723 12.6818 687 60.8559 449.601 551.652
431 0 52.403 12.3466 647 62.7233 449.108 551.499
432 0 55.3974 12.4735 691 61.7974 449.048 551.256
433 0 57.3711 13.1599 755 61.2477 448.947 549.842
434 0 57.3951 12.1265 696 62.8937 449.379 549.527
435 0 59.2672 12.6546 750 62.0893 449.175 548.201
436 0 59.3357 12.7411 756 62.4497 449.467 547.921
437 0 62.5556 12.6607 792 61.7588 449.198 547.833
438 0 63.5154 12.9103 820 62.2976 449.249 545.812
439 0 68.4248 13.1677 901 60.9234 448.882 546.133
440 0 68.6563 13.3709 918 61.3867 448.95 543.832
441 0 70.5702 13.2917 938 61.6141 449.065 542.972
442 1 37.2169 11.4733 427 60.5972 448.859 559.775
443 0 39.2902 10.7915 424 61.5165 448.323 559.29
444 0 39.0783 11.0291 431 61.8283 448.35 558.45
445 0 41.0281 11.6262 477 60.3795 447.998 559.589
446 0 43.0118 11.9502 514 60.144 448.337 558.724
447 0 39.3351 10.525 414 61.7126 449.007 559.626
448 0 44.3848 11.6031 515 59.1748 448.833 559.25
449 0 44.1992 11.5839 512 60.7793 448.648 557.098
450 0 45.4055 11.9809 544 60.5496 448.926 556.421
451 0 46.2548 12.669 586 60.0887 448.087 555.744
452 0 48.2912 11.762 568 60.6303 448.393 556.261
453 0 50.3556 13.2657 668 59.1078 448.41 554.984
454 0 50.1693 12.1987 612 60.4902 448.709 554.302
455 0 52.3503 12.168 637 60.2261 449.159 553.835
456 0 53.2064 12.7616 679 59.3814 448.624 553.09
457 0 54.3281 11.7987 641 60.3963 448.53 552.075
458 0 56.1786 12.5671 706 58.8116 448.398 551.657
459 0 57.2775 12.1339 695 59.0245 448.483 551.442
460 0 59.2527 12.742 755 57.9921 448.454 550.686
461 0 61.2959 11.8116 724 59.0138 448.485 550.315
462 0 62.2055 12.3623 769 58.5475 448.815 548.849
463 0 65.1353 13.2493 863 57.4299 448.806 547.728
464 1 34.0803 9.00813 307 58.8958 447.668 562.026
465 0 35.1544 9.41561 331 58.6888 447.749 563.224
466 0 36.1257 9.68838 350 58.6943 447.937 562.623
467 0 37.1048 11.0498 410 57.7 448.376 561.576
468 0 38.1802 11.6291 444 56.8671 448.718 559.552
469 0 40.0981 11.0479 443 57.5982 448.501 559.463
470 0 41.1399 11.9349 491 55.7719 448.161 559.411
471 0 43.0715 11.5622 498 55.5944 447.817 559.237
472 0 43.0711 11.8873 512 56.4336 448.09 556.648
473 0 44.0387 12.1484 535 56.2617 447.553 557.479
474 0 46.2178 11.4891 531 57.1883 449.407 556.397
475 0 46.2839 12.6178 584 56.4281 449.199 554.913
476 0 47.2452 12.234 578 57.199 449.599 555.009
477 0 50.352 12.7304 641 56.3385 449.596 554.137
478 0 51.4221 12.1543 625 56.904 449.264 555.338
479 0 51.2934 12.9451 664 56.6009 449.258 553.453
480 0 55.1485 13.0919 722 55.795 449.334 553.436
481 0 56.3123 12.3952 698 57.149 449.344 552.769
482 0 56.1878 12.6006 708 58.7924 449.41 548.26
483 0 58.2325 12.4673 726 58.1749 449.266 548.344
484 0 61.3325 12.473 765 58.2536 448.876 548.86
485 0 61.2794 12.6796 777 58.3372 448.9 547.001
486 0 65.1895 12.6094 822 58.3637 448.943 547.938
487 0 65.1683 12.3833 807 59.6035 449.029 546.062
488 0 70.1146 12.7363 893 59.037 449.009 544.254
489 0 70.2437 12.7841 898 59.9866 448.939 543.12
490 0 72.1608 13.8164 997 58.9208 448.98 542.866
491 0 75.2642 13.5257 1018 59.0373 449.496 540.29
492 0 78.2418 13.126 1027 59.4275 449.211 541.763
493 1 39.1202 8.89567 348 63.1207 448.75 559.264
494 0 42.1644 11.7635 496 60.6431 449.139 557.032
495 0 45.0691 11.4713 517 60.3733 448.948 556.501
496 0 46.2003 11.3419 524 60.3149 449.582 555.508
497 0 47.0921 11.743 553 60.0344 449.617 553.069
498 0 50.1393 12.6847 636 58.3192 450.143 552.244
499 0 50.2302 12.6816 637 59.9953 450.347 552.788
500 0 52.3215 13.245 693 59.7965 450.941 552.443
501 0 54.1938 13.5809 736 59.1929 450.243 553.057
502 0 55.1491 13.8171 762 59.4396 450.533 550.081
503 0 58.3263 14.1274 824 58.915 450.458 550.05
504 0 57.2304 13.3495 764 61.1401 450.514 549.243
505 0 59.2282 13.811 818 60.8863 450.21 547.96
506 0 62.2066 13.9374 867 60.9146 450.507 546.082
507 0 65.2781 14.5378 949 59.8398 450.11 547.019
508 0 65.2232 13.8908 906 61.2428 450.135 546.539
509 0 68.128 14.7223 1003 60.4367 450.529 543.963
510 0 72.2022 14.861 1073 59.9385 449.76 542.274
511 0 73.1676 13.8039 1010 61.4861 450.209 541.35
512 0 76.2258 14.0766 1073 61.4511 449.812 540.33
513 1 42.1353 10.3714 437 62.4805 449.181 559.828
514 0 42.117 10.1622 428 63.3528 448.893 558.5
515 0 43.2077 11.6183 502 62.9303 449.191 556.811
516 0 46.1156 13.0108 600 60.525 449.477 555.518
517 0 46.0609 11.6585 537 61.1378 449.274 555.719
518 0 48.2505 13.2227 638 59.8166 449.842 552.749
519 0 50.2447 12.9964 653 60.0919 450.721 553.49
520 0 50.275 13.2869 668 60.9042 450.528 551.424
521 0 51.2181 12.8861 660 61.6758 451 552.742
522 0 54.4001 13.9338 758 60.2586 451.336 550.542
523 0 58.3144 13.3415 778 60.5746 450.613 548.765
524 0 57.1992 13.4792 771 61.0895 450.088 548.364
525 0 59.3048 13.5065 801 60.7628 450.84 548.561
526 0 59.3317 13.888 824 61.449 450.881 546.867
527 0 63.2605 13.0413 825 61.9927 450.579 546.303
528 0 64.3031 12.9698 834 62.5624 450.518 545.697
529 0 68.2346 14.0691 960 60.8698 450.37 544.101
530 0 70.2889 13.3592 939 61.6518 450.875 542.763
531 0 72.2271 13.8452 1000 61.229 450.87 542.208
532 0 73.2297 14.516 1063 61.3669 451.114 539.333
533 0 75.1904 14.829 1115 60.7489 451.579 539.662
534 0 78.2042 13.8612 1084 62.6356 451.402 537.464
535 0 80.1691 14.2698 1144 62.3811 450.837 533.752
536 0 84.0718 13.8215 1162 62.7005 451.099 533.197
537 0 86.2431 13.8678 1196 62.6672 451.539 530.898
538 0 90.2115 13.4905 1217 62.295 451.456 531.115
539 0 92.205 14.4569 1333 62.0098 450.884 527.5
540 0 97.1405 14.5048 1409 61.5827 450.991 527.345
541 0 99.1638 14.1786 1406 62.3343 450.579 527.77
542 1 50.0628 11.2059 561 62.6328 450.316 550.276
543 0 53.0454 12.084 641 62.7301 450.243 547.963
544 0 56.1096 12.7786 717 61.1311 449.646 547.572
545 0 58.1273 13.2124 768 60.2565 450.044 547.53
546 0 60.0821 13.1154 788 60.6891 450.025 546.339
547 0 61.0779 13.6547 834 59.7782 449.862 545.171
548 0 63.1936 12.7703 807 61.031 450.358 541.663
549 0 64.1607 12.9986 834 61.2746 449.987 541.043
550 0 68.0883 13.6 926 60.2603 450.278 541.083
551 0 69.0969 11.9108 823 62.7959 450.34 540.267
552 0 73.0916 13.914 1017 60.3874 450.465 538.966
553 0 73.1762 13.201 966 61.7019 451.037 538.862
554 0 77.124 13.796 1064 61.1231 450.695 537.918
555 1 40.0504 8.83887 354 63.0395 449.322 555.669
556 0 43.0225 10.7386 462 61.6623 448.9 554.649
557 0 46.0355 11.4042 525 60.5962 448.882 553.709
558 0 46.0104 12.019 553 61.5081 449.602 551.832
559 0 51.1325 13.201 675 59.1037 449.474 552.527
560 0 52.2549 11.176 584 61.9521 449.985 552.041
561 0 53.1951 13.1779 701 60.5877 449.853 551.302
562 0 53.202 12.5935 670 61.1657 449.537 550.779
563 0 56.2817 13.0948 737 60.5726 449.723 549.494
564 0 58.2955 12.5739 733 60.7844 449.394 549.244
565 0 59.1828 11.9798 709 62.2454 449.154 547.536
566 0 60.2275 12.652 762 60.9055 448.549 548.382
567 0 62.2336 13.4654 838 60.1325 449.351 547.345
568 0 63.1764 13.0903 827 61.0121 449.614 545.186
569 0 64.0974 12.5278 803 61.6638 448.953 545.015
570 0 67.1558 13.3272 895 59.8983 449.245 544.136
571 0 69.194 12.8768 891 59.4905 449.129 544.837
572 0 71.2763 13.2162 942 59.0945 449.161 542.139
573 0 74.1841 13.2104 980 58.6357 448.833 541.409
574 0 76.0825 12.7099 967 59.0465 448.513 539.205
575 1 39.2218 9.76497 383 59.4648 448.465 558.739
576 0 40.1756 9.33402 375 60.008 447.979 559.061
577 0 41.1152 10.58 435 58.9816 448.736 556.634
578 0 43.1828 10.8377 468 58.7329 448.252 556.63
579 0 44.1613 11.6165 513 57.7329 448.813 554.875
580 0 46.1919 12.3615 571 56.5096 448.772 554.692
581 0 48.2605 11.8938 574 58.2369 448.209 553.796
582 0 49.3493 11.2261 554 58.7581 448.229 553.137
583 0 52.2421 12.3081 643 56.9331 447.955 552.747
584 0 51.2044 12.245 627 56.9537 447.584 552.871
585 0 53.2004 12.0112 639 57.3286 447.324 550.746
586 0 55.1794 11.7979 651 58.424 446.72 551.524
587 0 55.1573 12.2921 678 58.5678 447.515 549.755
588 0 59.1572 13.2697 785 56.9554 447.055 550.883
589 0 59.2321 12.1387 719 59.0181 447.206 549.462
590 0 60.2588 12.745 768 58.569 447.406 547.384
591 0 62.1443 13.2595 824 58.0898 447.289 546.108
592 0 65.1305 13.281 865 57.1468 447.57 546.771
593 0 67.1526 13.0449 876 57.9543 446.908 546.387
594 0 67.1287 12.8559 863 58.1321 447.217 543.686
595 0 67.1287 12.7665 857 138.091 447.221 543.667
596 0 74.3498 13.7593 1023 55.6227 447.15 542.279
597 0 76.2387 12.6576 965 56.6176 447.106 543.636
598 0 78.2202 12.8483 1005 56.3731 446.843 541.294
599 0 79.1354 12.864 1018 57.2662 447.311 540.36
600 0 83.1693 12.709 1057 56.8903 447.279 537.045
601 0 85.1253 12.6284 1075 56.2763 446.438 538.072
602 1 43.246 9.71187 420 55.9833 446.448 558.426
603 0 45.078 10.9588 494 55.7146 446.591 556.474
604 0 44.1392 10.3083 455 56.1187 446.71 555.066
605 0 48.1808 12.5154 603 52.607 446.889 556.436
606 0 50.2595 12.4951 628 52.5924 447.024 556.153
607 0 52.204 11.6658 609 54.7521 447.095 554.296
608 0 55.1912 13.2268 730 54.1301 446.971 554.007
609 0 53.1151 12.1623 646 56.839 445.986 553.568
610 0 54.1206 12.1211 656 57.1966 446.715 550.96
611 0 57.2072 12.4635 713 57.6353 446.736 550.086
612 0 57.2928 11.7641 674 57.8561 447.478 550.39
613 0 60.2743 11.8458 714 58.8445 447.298 548.31
614 0 63.1683 12.3163 778 58.1105 447.594 547.352
615 0 65.2418 12.3847 808 57.8676 447.193 547.212
616 0 69.3263 13.8331 959 56.805 447.63 544.495
617 0 69.5264 13.3331 927 57.5858 446.968 544.291
618 0 70.1747 13.3239 935 58.0267 446.822 543.6
619 0 73.2686 13.4846 988 57.246 446.996 541.558
620 0 76.3108 13.7464 1049 56.6959 446.725 542.335
621 0 77.2886 14.0383 1085 57.0332 447.074 540.53
622 0 80.3527 13.3287 1071 58.0551 447.375 539.353
623 0 82.3507 13.4911 1111 57.685 447.149 539.56
624 0 87.1623 14.2837 1245 57.2064 446.963 537.561
625 1 42.1419 11.5087 485 57.4536 447.014 557.796
626 0 45.0633 11.9166 537 56.2663 447.374 557.514
627 0 46.0926 12.2796 566 56.8763 447.867 557.387
628 0 44.0193 11.8584 522 59.2797 448.04 554.565
629 0 48.0595 12.5678 604 57.995 448.094 554.993
630 0 49.1569 12.6534 622 59.3023 448.391 554.947
631 0 52.293 13.4626 704 58.0057 449.064 553.972
632 0 53.4059 13.3131 711 57.9831 448.262 554.789
633 0 56.1344 13.4855 757 57.9947 448.663 552.989
634 0 57.2957 14.4688 829 56.9964 448.925 551.403
635 0 60.2382 14.4593 871 56.2974 448.921 551.78
636 0 61.2554 13.3539 818 57.9584 449.313 550.921
637 0 63.1909 13.752 869 57.8769 449.106 548.426
638 0 64.1654 13.9016 892 58.3229 450.118 546.841
639 0 66.2053 13.9566 924 57.8496 448.969 547.416
640 0 69.271 14.0318 972 57.7716 449.979 545.333
641 0 71.1984 13.9048 990 58.1646 449.442 544.752
642 0 73.1089 13.6782 1000 59.299 449.299 542.992
643 0 76.0891 14.7064 1119 57.9419 449.647 540.493
644 0 78.3787 14.0217 1099 58.8207 449.369 539.597
645 0 80.1073 13.6692 1095 59.5726 449.155 539.091
646 0 83.1827 13.9813 1163 59.264 449.447 536.296
647 0 86.1325 14.6054 1258 58.5103 449.803 534.705
648 0 89.2422 13.9844 1248 59.5168 450.136 533.4
649 1 48.0983 11.5181 554 58.7329 449.051 553.002
650 0 48.2055 10.6627 514 59.751 449.325 551.696
651 0 52.0615 12.3892 645 58.0977 449.333 550.479
652 0 55.085 13.6153 750 56.312 449.768 549.645
653 0 55.2608 12.7034 702 58.963 449.748 551.077
654 0 59.4286 13.1418 781 58.6658 450.736 549.035
655 0 59.4286 13.1418 781 161.663 451.736 549.035
656 0 61.2138 12.4155 760 60.5632 450.328 545.754
657 0 63.2623 12.6458 800 59.7162 450.528 546.399
658 0 68.2529 14.0946 962 57.659 450.134 544.465
659 0 69.4194 12.9215 897 59.6087 450.469 543.756
660 0 71.2285 13.0425 929 60.1442 450.048 541.686
661 0 75.1402 12.7096 955 60.1435 450.557 540.584
662 0 77.3244 13.0877 1012 60.1798 450.797 540.638
663 1 40.3747 11.8391 478 60.2134 449.808 556.4
664 0 40.1552 10.8579 436 61.6697 449.95 556.124
665 0 42.1368 12.5781 530 59.0623 450.066 555.511
666 0 44.1582 12.5911 556 59.4155 450.52 554.304
667 0 46.1717 12.3019 568 59.7764 450.433 553.801
668 0 47.4552 13.0017 617 59.577 451.212 553.173
669 0 46.4684 13.0411 606 60.198 451.677 552.139
670 0 48.28 12.0547 582 61.1306 452.086 551.527
671 0 50.3862 12.563 633 60.3239 451.833 550.15
672 0 51.3358 12.6228 648 60.3812 451.867 549.875
673 0 53.3006 13.0768 697 59.5897 452.531 549.001
674 0 56.382 13.2666 748 58.8476 452.32 546.111
675 0 57.253 13.8333 792 58.1477 452.153 545.905
676 0 60.2907 12.7051 766 59.0091 452.604 545.168
677 0 60.2267 13.0175 784 58.9464 452.496 544.823
678 0 62.1917 13.3297 829 57.9337 452.378 545.692
679 0 62.2282 12.3417 768 59.1211 452.811 545.208
680 0 64.1877 12.962 832 58.8438 453.078 542.79
681 0 65.2581 12.2131 797 59.7591 452.913 542.311
682 0 69.1221 12.6298 873 58.4525 453.405 540.91
683 1 39.1207 9.96916 390 58.7077 452.387 558.472
684 0 38.0261 10.2298 389 60.4396 452.548 555.53
685 0 40.0907 10.5261 422 59.6185 452.1 555.299
686 0 43.102 11.4844 495 58.0525 452.343 554.36
687 0 42.1342 11.1311 469 59.3966 451.829 553.514
688 0 45.0342 11.6356 524 57.8893 452.239 552.618
689 0 44.0795 11.9103 525 58.581 452.825 550.882
690 0 46.1302 12.2479 565 58.2796 452.602 550.377
691 0 46.3016 12.1378 562 58.5925 452.6 551.201
692 0 48.3254 12.7676 617 58.363 453.259 550.995
693 0 51.3154 13.1345 674 57.6929 452.993 550.588
694 0 52.2988 12.9448 677 58.4446 453.598 547.43
695 0 53.3359 13.1244 700 59.0443 453.057 548.751
696 0 55.2576 12.5775 695 59.7525 453.016 545.839
697 0 58.2661 13.9017 810 57.7778 452.896 546.57
698 0 61.3593 14.6514 899 56.6318 452.735 545.956
699 0 63.3195 13.6293 863 58.4368 452.82 543.671
700 0 64.3732 13.08 842 59.5309 452.11 544.469
701 0 67.1946 14.0041 941 58.7524 451.855 542.579
702 0 70.2224 14.3117 1005 58.7751 451.32 541.397
703 0 71.3365 14.6489 1045 59.1043 451.133 541.465
704 0 74.2077 14.3786 1067 60.4283 451.365 540.719
705 0 75.3184 14.2727 1075 61.0084 451.075 539.379
706 1 38.0627 10.3251 393 63.6234 450.73 556.532
707 0 42.1697 11.5011 485 60.9732 450.52 556.21
708 0 43.1579 11.8402 511 61.135 450.501 555.863
709 0 42.0709 11.2667 474 62.3038 450.078 555.451
710 0 43.1726 12.7859 552 60.5562 450.17 555.464
711 0 46.079 12.956 597 60.4757 450.367 552.72
712 0 44.0908 13.2227 583 59.8302 450.184 551.792
713 0 47.048 12.8805 606 60.2871 450.177 550.983
714 0 49.1304 13.3319 655 59.2916 450.285 550.792
715 0 51.1306 13.4949 690 59.3014 450.03 550.438
716 0 51.085 14.0354 717 59.205 450.148 549.491
717 0 54.154 13.4432 728 59.5755 449.277 548.457
718 0 56.0917 12.9074 724 60.4392 449.233 548.28
719 0 57.0762 13.7535 785 59.349 449.687 547.982
720 0 56.098 13.8686 778 59.5977 449.738 545.738
721 0 58.0539 14.0042 813 59.802 449.712 545.065
722 0 61.1592 13.7347 840 59.425 449.236 545.406
723 0 65.1392 14.5381 947 58.188 449.596 543.109
724 0 69.0637 14.2043 981 57.6799 450.104 542.838
725 0 70.0982 14.765 1035 58.3198 449.422 539.8
726 0 69.0435 13.9332 962 58.7391 449.071 539.577
727 0 73.1648 14.2692 1044 57.8343 449.543 539.977
728 0 76.0777 14.1303 1075 58.5153 448.864 537.956
729 0 80.0453 15.6037 1249 56.5428 448.923 535.674
730 0 79.0631 14.2165 1124 58.379 448.08 534.858
731 0 84.1393 14.6424 1232 57.3888 448.252 533.175
732 0 85.102 14.606 1243 57.7426 448.055 530.873
733 0 91.0829 14.5691 1327 56.7634 447.917 531.886
734 0 95.0897 14.9333 1420 56.0345 448.101 532.641
735 0 95.1994 14.6535 1395 56.7835 447.573 528.79
736 0 99.0897 15.1075 1497 56.487 447.53 524.713
737 1 50.0529 10.6687 534 55.6086 446.288 553.006
738 0 52.1233 13.257 691 53.2634 446.974 552.284
739 0 51.0194 11.133 568 55.1092 446.856 547.558
740 0 55.0452 11.6086 639 55.4695 446.524 549.169
741 0 55.0479 12.2984 677 54.8744 446.434 549.064
742 0 56.0265 12.387 694 54.5086 446.207 548.252
743 0 61.037 12.6317 771 53.668 446.436 547.053
744 0 69.0952 12.9097 892 53.1502 446.392 543.215
745 0 67.0655 11.034 740 55.0662 445.668 545.682
746 0 68.0332 12.0529 820 54.8 445.655 542.124
747 0 68.0318 13.0527 888 54.2917 445.63 541.778
748 0 70.1195 13.6053 954 53.5084 446.646 540.985
749 0 72.2676 12.5229 905 55.2199 446.538 538.896
750 0 76.1356 13.4628 1025 53.5678 446.673 537.711
751 0 80.2459 13.5209 1085 53.2433 446.308 538.757
752 0 83.1584 12.4582 1036 54.6409 446.335 537.258
753 0 86.1847 14.817 1277 53.137 445.903 534.505
754 0 86.266 12.786 1103 55.2711 446.529 532.764
755 0 92.1444 13.3595 1231 55.0861 446.48 531.148
756 1 47.1243 10.4192 491 55.3299 446.821 551.825
757 0 49.0691 10.8826 534 55.4045 446.633 551.245
758 0 50.0683 10.8252 542 54.5387 446.86 552.579
759 0 55.1866 11.9413 659 53.7223 445.205 551.422
760 0 57.1525 12.4929 714 54.5266 445.338 549.625
761 0 59.137 12.3611 731 54.0164 445.022 549.011
762 0 62.1798 13.4127 834 53.4341 445.331 547.423
763 0 62.098 11.7878 732 55.8087 445.378 546.061
764 0 66.1215 12.3258 815 56.0258 445.264 546.978
765 0 68.1372 12.4014 845 55.8083 445.118 546.778
766 0 71.1566 13.7443 978 54.6063 445.294 545.751
767 0 72.1738 12.0681 871 56.7107 445.778 544.087
768 0 75.1376 12.8697 967 55.4261 445.6 544.131
769 0 78.1248 14.4256 1127 53.4366 445.511 543.644
770 0 79.2383 13.1502 1042 55.3877 445.537 542.394
771 0 80.1247 12.9548 1038 56.1869 445.423 539.5
772 0 83.1871 13.2352 1101 56.2434 445.463 539.836
773 0 87.2237 13.4596 1174 55.8842 445.717 538.049
774 1 42.1832 10.7626 454 56.1498 444.048 561.26
775 0 46.249 10.9624 507 55.8955 444.288 559.899
776 0 46.2972 10.1734 471 57.3779 444.887 559.14
777 0 47.3366 10.6049 502 57.0618 445.482 559
778 0 51.2402 11.5144 590 55.8424 445.856 556.734
779 0 50.3006 12.1867 613 55.6346 445.969 556.254
780 0 53.0735 11.9834 636 56.1179 445.681 554.368
781 0 55.1907 12.0491 665 55.4737 446.081 556.174
782 0 56.188 12.5294 704 55.2642 447.247 553.173
783 0 59.1417 14.2201 841 53.321 446.364 552.445
784 0 59.0995 12.5889 744 56.1237 446.84 551.113
785 0 63.1684 13.6461 862 54.8179 447.184 550.61
786 0 66.2699 12.3284 817 55.7491 447.558 548.777
787 0 68.1013 13.8911 946 54.8161 447.241 549.039
788 0 69.126 12.1517 840 56.7845 447.348 547.636
789 0 72.1527 13.9011 1003 54.8066 447.422 545.583
790 0 72.1066 13.48 972 56.1523 447.895 545.132
791 0 76.0822 13.4986 1027 55.8247 448.322 543.828
792 0 77.0958 14.1253 1089 55.7842 447.915 540.34
793 0 80.1134 13.5683 1087 56.7571 447.592 539.322
794 0 84.1488 14.1535 1191 55.6818 447.673 538.403
795 0 88.2081 13.3661 1179 56.7345 447.87 535.249
796 0 89.1232 13.0718 1165 57.1013 448.469 536.523
797 0 93.1723 13.255 1235 56.2818 448.229 534.824
798 0 95.186 14.1512 1347 55.1321 448.422 530.733
799 1 49.1985 11.9922 590 57.2695 447.988 554.708
800 0 49.0898 11.591 569 57.6028 448.51 554.48
801 0 51.0888 12.2532 626 58.2971 448.633 551.113
802 0 53.0409 11.8211 627 56.5805 448.96 552.276
803 0 54.09 13.2372 716 56.2849 448.265 551.587
804 0 58.0979 12.9781 754 55.3037 448.142 551.464
805 0 57.0911 13.3471 762 55.6575 448.399 550.362
806 0 62.0659 14.5974 906 53.7064 448.547 549.415
807 0 60.145 12.5364 754 55.439 448.451 548.735
808 0 65.0795 13.4758 877 54.0194 448.853 546.235
809 0 66.1339 12.3991 820 55.5098 448.809 545.906
810 0 68.1757 12.8932 879 54.9033 448.821 545.242
811 0 70.1467 13.1439 922 54.7408 449.884 544.271
812 0 73.2994 13.2334 970 54.4876 449.578 542.874
813 0 75.1101 13.3937 1006 54.4642 449.962 541.512
814 0 77.2591 13.6424 1054 54.5503 450.015 541.235
815 0 80.2743 13.9522 1120 53.8732 450.038 539.154
816 0 85.2209 14.3392 1222 53.23 450.068 536.921
817 0 87.2859 14.4353 1260 53.4484 450.105 534.733
818 0 89.1958 14.0029 1249 53.6205 450.45 536.094
819 0 91.2053 14.0562 1282 53.9493 450.665 534.594
820 0 96.2736 14.7496 1420 53.4099 450.747 530.767
821 0 98.3826 14.8705 1463 53.4258 450.068 530.336
822 0 102.35 15.2907 1565 52.9527 450.261 530.235
823 0 103.349 14.2913 1477 54.3006 449.67 528.758
824 0 108.303 14.9303 1617 53.4836 450.248 526.599
825 0 108.303 14.9211 1616 161.096 451.244 526.663
826 0 117.717 14.6793 1728 53.0943 450.612 521.159
827 1 61.5004 13.5934 836 51.8876 449.854 546.65
828 0 61.2781 14.067 862 53.2053 449.898 546.505
829 0 64.2169 13.7347 882 53.0181 449.562 546.057
830 0 67.3695 14.0123 944 51.8496 449.169 545.414
831 0 69.2597 13.8753 961 52.512 449.446 544.473
832 0 70.9749 14.019 995 53.3829 449.888 532.748
833 0 72.4823 14.0034 1015 53.5113 449.248 534.824
834 0 74.5466 13.9108 1037 53.8312 449.086 538.224
835 0 75.731 13.1254 994 54.6771 448.988 536.948
836 0 81.7887 14.244 1165 52.1236 448.893 536.679
837 0 83.7695 15.101 1265 51.9146 449.001 527.541
838 0 84.5524 13.1161 1109 53.8693 448.39 531.019
839 0 89.951 13.8853 1249 52.9608 448.656 529.907
840 0 92.8672 13.8585 1287 53.3753 448.632 528.29
841 0 97.0111 13.8953 1348 53.0364 448.896 529.035
842 1 51.0022 12.5093 638 52.4044 447.779 551.309
843 0 49.4799 12.3282 610 53.5672 448.516 549.208
844 0 53.6171 13.1115 703 52.798 447.814 550.65
845 0 54.2359 13.2938 721 52.7587 448.133 550.669
846 0 56.4169 14.3397 809 52.1508 447.93 550.862
847 0 57.19 13.2016 755 53.9682 447.875 549.644
848 0 60.3881 12.6846 766 54.0209 448.137 548.474
849 0 62.313 13.2396 825 54.1321 448.216 547.167
850 0 64.3521 14.9179 960 52.276 448.55 545.748
851 0 64.4888 13.0255 840 54.5393 448.473 546.056
852 0 68.8093 13.225 910 54.2385 448.168 544.858
853 0 70.4377 13.8562 976 54.0348 448.61 544.587
854 0 72.3734 13.2093 956 54.7594 448.822 543.414
855 0 72.3962 12.2244 885 56.4667 448.925 541.579
856 0 78.5301 14.1984 1115 53.8978 448.604 539.941
857 0 79.4761 13.4003 1065 55.046 448.18 536.269
858 0 82.4168 13.3225 1098 55.4408 447.981 536.659
859 1 46.4161 10.0827 468 56.047 447.16 552.658
860 0 47.2823 10.2575 485 55.5546 447.431 551.468
861 0 46.2079 10.3229 477 54.8595 447.35 550.239
862 0 47.0819 11.4056 537 54.6629 447.687 550.672
863 0 50.1956 12.4911 627 53.2871 449.049 550.274
864 0 52.1456 12.1199 632 54.0174 448.604 549.897
865 0 51.2091 12.2049 625 55.4224 447.954 547.315
866 0 55.0912 12.2887 677 54.4106 448.355 549.046
867 0 55.1664 12.3626 682 55.7126 448.035 546.148
868 0 56.2196 12.3267 693 55.1486 448.356 546.227
869 0 60.1254 11.4427 688 56.9753 448.725 545.799
870 0 62.2793 12.3155 767 56.4589 447.707 544.992
871 0 69.4531 15.4205 1071 51.4641 447.298 539.796
872 0 68.2793 13.5619 926 55.3315 446.867 536.789
873 0 71.3213 14.1192 1007 54.2502 447.256 537.742
874 0 75.6998 12.9855 983 57.1506 447.154 538.885
875 0 76.619 12.8428 984 57.7256 446.71 540.934
876 0 78.3732 13.0402 1022 57.7554 446.752 539.462
877 0 80.5867 13.0419 1051 58.1694 446.396 536.409
878 1 41.798 10.4551 437 59.1785 445.874 554.947
879 0 43.6364 10.45 456 58.3772 445.715 556.224
880 0 45.726 11.2409 514 58.9747 445.782 554.735
881 0 47.6445 11.8797 566 58.5018 445.716 554.735
882 0 48.6221 12.6074 613 58.1925 445.675 553.277
883 0 49.2187 10.9105 537 59.8492 446.775 555.7
884 0 51.4232 12.3874 637 58.876 446.166 555
885 0 52.153 11.6772 609 59.9097 446.982 555.335
886 0 53.2538 12.5625 669 60.2601 447.23 553.469
887 0 54.3216 12.923 702 59.9188 446.845 551.647
888 0 54.373 12.4694 678 61.1563 446.298 551.854
889 0 56.2302 14.0494 790 60.1152 446.624 550.525
890 0 60.2254 13.1672 793 67.7692 446.807 548.875
891 0 60.1605 13.1814 793 84.1551 447.997 549.823
892 0 67.1155 16.5983 1114 53.9246 448.221 545.718
893 0 68.178 16.4569 1122 54.0998 448.23 545.494
894 0 65.1056 14.2538 928 58.6541 448.562 547.455
895 0 66.0834 14.3455 948 59.5791 448.595 544.652
896 0 69.3656 13.3928 929 60.9257 448.081 542.793
897 0 70.211 14.2428 1000 60.043 448.449 542.176
898 0 74.138 14.446 1071 59.7162 449.349 541.065
899 0 76.1599 13.4979 1028 60.7305 449.459 540.018
900 1 41.0412 11.7199 481 61.5509 449.291 557.368
901 0 41.0412 11.6956 480 169.015 449.26 557.44
902 0 43.1219 11.0848 478 62.5523 450.333 554.611
903 0 44.1128 12.4454 549 59.827 450.184 551.78
904 0 46.0453 12.5311 577 59.7435 450.711 553.816
905 0 47.0528 12.3903 583 61.2367 450.434 553.82
906 0 48.0446 13.3001 639 60.8951 450.485 552.304
907 0 51.0706 12.9625 662 60.7024 451.086 552.529
908 0 50.068 13.1221 657 61.9635 451.248 551.058
909 0 52.039 14.1817 738 59.9255 451.218 551.42
910 0 53.0563 12.2888 652 63.6288 451.497 550.672
911 0 55.042 12.4995 688 63.3343 452.052 550.956
912 0 56.0214 13.8519 776 62.4716 451.976 550.307
913 0 57.0481 13.2344 755 63.9907 452.023 549.114
914 0 57.0481 13.3046 759 163.393 453.004 549.12
915 0 62.0957 13.8013 857 63.4702 451.3 546.392
916 0 65.1302 14.3098 932 62.5418 451.527 545.941
917 0 65.1687 13.8564 903 63.598 451.611 545.109
918 0 67.1563 14.1163 948 63.7215 451.691 542.774
919 0 68.0549 13.7536 936 65.1111 451.994 540.582
920 0 73.1219 14.2502 1042 63.1843 452.072 541.048
921 0 74.0636 13.0293 965 65.4829 452.107 539.704
922 1 40.0378 11.5891 464 64.3039 452.233 555.556
923 0 39.097 10.9471 428 64.1285 452.126 556.486
924 0 40.0433 11.2628 451 62.8448 452.024 555.579
925 0 42.0277 11.4686 482 63.0228 452.672 552.936
926 0 42.0654 11.3633 478 63.4268 452.381 554.36
927 0 44.0587 11.8478 522 63.2471 452.975 553.209
928 0 44.0587 11.8932 524 157.414 454.004 553.212
929 0 45.1418 13.2471 598 62.2492 452.47 553.488
930 0 45.0568 12.34 556 63.4281 452.626 552.04
931 0 47.0881 12.2749 578 64.154 452.606 551.036
932 0 49.0896 13.18 647 62.9722 452.793 551.136
933 0 52.0776 12.8654 670 62.4299 452.11 550.921
934 0 51.0991 13.1901 674 63.6276 452.356 548.433
935 0 51.0831 12.9984 664 63.9744 451.69 548.396
936 0 54.0905 12.5345 678 64.0516 452.155 548.165
937 0 57.0966 13.7311 784 62.0702 451.534 547.395
938 0 57.0966 13.7486 785 159.964 451.525 547.401
939 0 59.1687 12.8446 760 64.025 451.349 545.121
940 0 63.0472 14.2116 896 61.9185 452.253 543.993
941 0 65.0845 13.6438 888 62.2624 452.175 543.76
942 0 66.0783 13.0603 863 63.5875 451.569 542.334
943 0 66.0783 13.0149 860 168.237 451.577 542.269
944 1 37.0356 9.82837 364 64.0385 451.478 556.604
945 0 37.0207 10.1835 377 63.6127 451.058 556.162
946 0 37.038 10.9077 404 62.6386 450.8 556.728
947 0 37.0183 10.9675 406 63.4039 450.209 554.83
948 0 40.0518 11.5351 462 61.2662 450.197 555.61
949 0 42.0655 12.6232 531 60.6836 449.557 553.335
950 0 41.0417 11.6467 478 62.1653 449.425 553.209
951 0 44.0519 12.2129 538 60.4647 449.191 554.34
952 0 46.0802 12.0008 553 62.1085 449.217 552.416
953 0 47.0428 11.9253 561 61.8752 449.184 553.861
954 0 48.0964 11.8928 572 61.7448 449.545 551.516
955 0 50.0449 13.0283 652 60.3006 448.891 550.995
956 0 51.0273 12.3659 631 61.6751 448.853 550.648
957 0 53.0584 12.9857 689 60.8795 449.327 550.594
958 0 53.0277 12.0314 638 61.6379 449.014 550.644
959 0 55.0556 12.9869 715 61.1217 448.663 549.555
960 0 57.037 12.9916 741 60.8475 448.879 548.352
961 0 59.0859 13.218 781 60.8271 448.927 546.558
962 0 61.1102 12.6493 773 62.2367 448.728 545.814
963 0 64.1057 13.1346 842 61.1247 448.852 546.417
964 0 66.1076 13.0696 864 61.2824 448.728 545.618
965 0 68.0613 13.9433 949 60.9442 448.804 542.741
966 0 70.0651 13.8443 970 61.6732 448.705 541.635
967 0 72.122 13.2137 953 61.8164 449.339 543.236
968 1 39.0488 9.83386 384 63.3281 448.977 559.406
969 0 41.1063 11.6771 480 62.1208 448.908 557.358
970 0 41.0138 11.8984 488 62.7336 449.424 557.275
971 0 44.0445 12.1468 535 62.4972 449.419 557.052
972 0 45.067 11.494 518 63.0483 449.392 554.23
973 0 45.2137 12.0096 543 61.593 449.634 554.923
974 0 46.1179 12.7933 590 62.1525 449.914 553.675
975 0 48.1672 12.2905 592 62.0845 449.311 554.154
976 0 50.0684 12.5029 626 62.4361 449.558 551.673
977 0 53.118 12.9335 687 61.8049 448.773 550.959
978 0 53.1264 12.7997 680 62.3103 448.975 551.428
979 0 53.1595 12.5283 666 63.2583 448.733 551.763
980 0 57.0577 12.6889 724 61.8895 448.696 550.986
981 0 58.0667 13.3639 776 62.2861 448.369 548.705
982 0 61.049 12.9896 793 62.3707 448.483 547.226
983 0 61.0893 12.0479 736 63.4062 448.196 547.74
984 0 66.0718 13.5005 892 60.8643 448.061 546.509
985 0 67.0957 12.0872 811 62.8274 448.055 545.826
986 0 70.0797 13.3134 933 61.0268 448.069 544.736
987 0 73.1594 12.6573 926 62.1166 448.054 543.429
988 0 75.1095 12.9145 970 61.0186 447.666 542.586
989 1 43.0057 9.92892 427 61.4988 447.26 559.822
990 0 41.0265 9.48167 389 62.5913 447.18 559.527
991 0 44.0451 9.74002 429 63.2098 447.056 557.839
992 0 43.0296 11.1319 479 61.8998 447.438 557.775
993 0 46.0215 11.9292 549 61.694 448.153 556.062
994 0 48.1507 12.1909 587 60.5775 447.71 555.564
995 0 47.1052 11.7397 553 59.8861 448.691 555.228
996 0 49.1148 11.3611 558 59.7294 448.29 556.086
997 0 50.0864 12.2189 612 59.7108 447.43 554.905
998 0 53.0758 12.6046 669 58.6293 447.889 553.725
999 0 53.1062 11.8065 627 60.4147 447.472 553.622
1000 0 56.1232 12.0449 676 60.0237 447.814 551.305
1001 0 58.1437 12.2799 714 59.2913 447.766 550.759
1002 0 60.0782 12.7334 765 58.2993 447.906 550.527
1003 0 60.1358 12.2722 738 58.9783 447.56 547.252
1004 0 62.121 12.9586 805 58.4857 447.032 547.866
1005 0 64.1869 12.1832 782 59.7762 447.656 547.633
1006 0 67.0777 12.1203 813 59.6187 447.91 546.942
1007 0 68.1901 12.5091 853 59.4056 447.937 543.941
1008 0 71.1181 12.5706 894 59.0738 447.824 546.181
1009 0 73.2065 12.294 900 60.0422 447.816 543.511
1010 0 76.1483 13.1717 1003 59.1007 447.324 544.175
1011 0 79.0842 13.1505 1040 60.7106 447.772 540.836
1012 0 79.0914 12.4034 981 61.791 447.606 541.833
1013 0 84.2156 12.7767 1076 61.7612 447.691 539.842
1014 0 86.2017 12.4591 1074 62.1797 447.817 539.503
1015 0 89.0976 13.3225 1187 61.6723 447.872 536.41
1016 0 90.1842 13.0622 1178 62.7835 447.856 533.958
1017 0 95.259 13.1326 1251 62.3549 447.691 534.57
1018 1 54.0753 10.282 556 63.4802 447.412 554.178
1019 0 54.0688 10.6716 577 64.1109 447.79 553.882
1020 0 56.0589 12.0409 675 62.8178 447.636 553.04
1021 0 57.1326 11.9196 681 61.8047 447.899 553.128
1022 0 59.1085 12.2148 722 61.6011 448.137 551.416
1023 0 60.1244 12.7569 767 61.6923 447.907 549.78
1024 0 62.022 12.4633 773 62.7477 448.168 549.58
1025 0 64.0446 12.0229 770 62.5403 448.147 549.932
1026 0 66.0879 12.3775 818 62.0721 448.2 548.098
1027 0 68.0839 12.6608 862 61.4443 448.312 547.203
1028 0 70.0798 13.2706 930 61.0323 449.506 547.128
1029 0 74.0691 12.8394 951 61.3838 449.611 544.859
1030 0 75.1557 13.0928 984 61.6077 449.662 542.398
1031 0 78.0921 13.1383 1026 61.1287 449.625 541.512
1032 0 81.1063 12.8104 1039 61.3013 449.508 541.706
1033 0 83.104 13.08 1087 60.7433 449.547 538.092
1034 0 85.1432 12.5788 1071 61.014 449.958 538.478
1035 1 45.0524 9.81079 442 60.8281 450.633 557.731
1036 0 47.106 9.70151 457 59.8796 450.705 559.613
1037 0 47.0407 10.8204 509 60.0196 450.886 558.098
1038 0 51.1068 11.564 591 58.7851 451.12 555.565
1039 0 52.0762 11.7136 610 59.6295 452.441 553.936
1040 0 53.0844 12.32 654 58.7875 450.931 552.777
1041 0 53.1673 11.8118 628 59.6624 451.403 551.597
1042 0 54.1809 11.7016 634 59.5126 451.339 551.046
1043 0 57.2494 12.1573 696 58.6135 451.394 549.096
1044 0 59.1351 11.7697 696 58.7443 451.583 550.315
1045 0 61.091 11.9821 732 58.1448 451.44 548.758
1046 0 64.0652 12.019 770 56.9182 452.484 548.068
1047 0 64.1034 12.6046 808 56.9418 452.577 546.911
1048 0 67.1699 11.791 792 57.6667 452.268 547.015
1049 0 70.1532 12.8433 901 56.1565 452.889 545.301
1050 0 71.1846 12.6291 899 56.634 452.929 544.247
1051 0 71.2157 12.3709 881 58.0216 453.016 543.678
1052 0 76.2381 13.0512 995 57.2101 453.296 542.148
1053 0 76.1855 12.7846 974 58.1366 453.211 540.213
1054 0 80.1112 12.5451 1005 58.0925 453.299 539.787
1055 0 83.1984 13.7623 1145 57.2148 453.337 536.87
1056 1 44.0697 10.6876 471 59.7516 453.431 554.992
1057 0 48.089 9.52401 458 59.7205 451.705 554.852
1058 0 49.1005 11.12 546 58.4322 450.896 552.593
1059 0 51.1068 10.7618 550 58.7455 451.011 552.469
1060 0 52.0801 11.0599 576 59.2465 451.832 551.332
1061 0 51.0959 11.4491 585 56.0068 452.783 549.798
1062 0 54.0788 11.7976 638 56.5768 452.382 552.232
1063 0 55.082 12.2726 676 56.9763 452.033 551.481
1064 0 57.1115 12.5019 714 56.6863 452.276 550.564
1065 0 57.142 12.3202 704 57.8935 452.212 549.42
1066 0 57.159 12.4565 712 58.6713 452.212 548.69
1067 0 61.1383 12.3327 754 58.5464 451.916 549.146
1068 0 62.1203 12.2182 759 59.0843 452.858 547.162
1069 0 63.0539 12.7034 801 58.8052 452.709 545.995
1070 0 66.0147 13.2395 874 58.3535 452.344 545.902
1071 0 68.0505 13.0932 891 58.468 451.653 544.236
1072 0 70.0669 12.8449 900 59.4944 451.934 543.663
1073 0 72.0888 13.303 959 59.0521 452.015 542.245
1074 0 75.072 12.5746 944 60.2765 451.161 540.275
1075 0 77.092 14.3724 1108 58.5235 451.144 539.68
1076 0 78.1022 12.1635 950 61.9779 451.337 539.799
1077 0 82.1054 12.3987 1018 62.109 452.01 537.963
1078 0 83.0225 13.8155 1147 61.2058 451.582 537.704
1079 0 86.153 13.3019 1146 62.5227 451.248 535.063
1080 0 88.0931 12.8046 1128 63.2074 450.884 533.992
1081 1 48.0751 10.8788 523 61.8642 451.495 556.088
1082 0 46.0271 10.4504 481 62.8212 451.185 556.447
1083 0 48.0333 11.3671 546 62.7949 450.451 552.956
1084 0 51.0078 12.1354 619 61.063 450.313 552.885
1085 0 53.0467 13.0828 694 60.7118 450.196 552.976
1086 0 52.0479 12.1811 634 62.306 451.607 552.263
1087 0 53.0389 11.8215 627 63.9761 451.759 551.352
1088 0 56.078 13.4812 756 61.0966 451.546 551.321
1089 0 57.1099 13.2201 755 62.4159 451.53 550.248
1090 0 58.0451 12.5592 729 63.4376 451.32 549.311
1091 0 61.0976 13.4866 824 61.8653 450.353 547.78
1092 0 61.0913 12.424 759 64.4321 450.389 547.901
1093 0 65.1089 13.0243 848 62.4316 450.315 546.111
1094 0 65.0794 12.6461 823 63.3925 450.521 546.774
1095 0 68.0811 14.0127 954 61.7044 450.502 545.171
1096 0 70.0748 14.3275 1004 61.3755 450.5 543.347
1097 0 73.0871 13.9696 1021 61.5377 450.587 542.639
1098 0 74.1038 13.6835 1014 61.8777 451.205 540.05
1099 0 77.1817 13.6431 1053 61.3096 451.252 541.217
1100 0 78.125 12.9408 1011 62.7953 450.88 538.671
1101 1 41.1308 10.7219 441 62.7914 451.073 556.578
1102 0 43.0309 10.9689 472 62.6441 450.364 555.722
1103 0 45.3269 11.9135 540 62.1241 450.281 555.67
1104 0 48.3499 11.9959 580 62.4672 450.078 555.876
1105 0 49.3734 12.9017 637 62.4945 450.033 554.683
1106 0 48.1067 12.7841 615 62.2911 450.02 551.546
1107 0 49.2623 13.1135 646 63.0635 449.065 552.61
1108 0 53.1173 13.1407 698 62.3625 449.408 552.481
1109 0 54.1478 13.5924 736 61.8465 449.413 552.239
1110 0 57.0794 12.7717 729 63.4664 449.088 551.122
1111 0 58.1069 13.8366 804 62.2948 449.414 549.568
1112 0 60.1402 13.851 833 62.048 450.193 549.413
1113 0 59.1603 13.2859 786 63.7659 449.785 549.827
1114 0 63.1352 13.574 857 62.8728 449.719 548.67
1115 0 64.1371 13.7518 882 62.6485 449.456 548.536
1116 0 67.0712 13.4037 899 62.8532 449.141 548.522
1117 0 69.0799 13.6798 945 62.9841 449.152 547.525
1118 0 69.0458 13.1072 905 64.263 448.829 547.966
1119 0 74.0775 14.2013 1052 62.9829 449.106 545.363
1120 0 75.0989 14.2079 1067 63.5886 448.966 544.648
1121 0 77.1175 14.9123 1150 63.1722 449.36 542.098
1122 0 79.072 13.6837 1082 64.9584 449.534 541.945
1123 1 42.0266 12.2304 514 64.1946 449.292 559.368
1124 0 43.2255 12.7702 552 63.1377 449.129 558.822
1125 0 43.035 11.6417 501 64.513 449.521 559.413
1126 0 44.0933 11.8612 523 65.7113 449.275 558.22
1127 0 47.0999 12.5053 589 63.3633 449.144 559.042
1128 0 48.0178 13.2451 636 63.6478 449.25 557.038
1129 0 49.0371 13.6223 668 63.8533 449.145 556.106
1130 0 51.1029 12.9738 663 64.6154 449.311 557.008
1131 0 54.1229 14.0975 763 63.5177 448.907 555.088
1132 0 56.1115 13.188 740 64.5405 448.674 554.782
1133 0 56.1068 13.6882 768 64.8333 448.686 553.259
1134 0 59.1485 14.0663 832 64.1394 448.71 550.85
1135 0 59.0998 13.9933 827 64.4002 448.468 550.74
1136 0 64.108 14.148 907 63.5987 448.696 549.547
1137 0 66.1084 14.1434 935 63.7198 448.846 548.519
1138 0 68.189 14.6065 996 63.3464 449.449 546.853
1139 0 68.22 14.7464 1006 63.3211 449.279 546.936
1140 0 74.1047 15.5996 1156 61.2388 449.955 544.089
1141 0 75.1811 14.2855 1074 64.7514 450.023 542.39
1142 1 35.1178 10.536 370 67.1568 449.268 563.246
1143 0 37.1536 11.0891 412 66.733 449.777 562.9
1144 0 40.1385 11.4852 461 66.6876 450.091 561.254
1145 0 41.0276 12.0894 496 66.2238 449.613 561.337
1146 0 42.0862 12.617 531 67.3258 449.791 558.422
1147 0 44.1305 13.4374 593 65.8297 449.973 559.352
1148 0 48.1175 13.7788 663 64.5656 450.596 556.839
1149 0 47.2777 13.5159 639 66.5008 450.291 556.772
1150 0 47.2928 14.019 663 66.4947 450.442 555.379
1151 0 52.2021 13.3903 699 66.7053 451.328 555.794
1152 0 52.2071 13.2932 694 67.3876 451.223 554.939
1153 0 53.2726 13.4779 718 68.0084 451.542 553.274
1154 0 54.0725 13.3894 724 68.0028 451.541 552.499
1155 0 57.1481 13.6837 782 67.2315 451.992 550.817
1156 0 60.1501 14.9127 897 65.2977 452.416 550.511
1157 0 60.1726 14.0263 844 67.6765 452.5 548.945
1158 0 64.2029 14.2984 918 65.6939 452.417 548.715
1159 0 64.1231 13.6612 876 68.0274 453.14 546.86
1160 0 67.2527 14.3935 968 66.6384 453.198 545.233
1161 0 71.1913 14.8614 1058 65.897 452.341 543.763
1162 0 72.2842 13.7098 991 68.0888 453.459 544.363
1163 0 72.2842 13.7098 991 176.933 454.459 544.308
1164 1 38.1704 11.894 454 69.1322 453.372 558.93
1165 0 39.165 12.0516 472 69.2542 453.555 558.286
1166 0 42.1693 12.6633 534 68.3895 453.476 557.556
1167 0 43.0836 13.0676 563 68.1989 454.043 556.321
1168 0 44.2437 12.7928 566 68.0194 451.362 557.173
1169 0 45.0471 12.7866 576 69.1389 451.873 555.399
1170 0 47.21 12.8151 605 68.3736 451.959 554.861
1171 0 50.2128 12.7457 640 68.2141 452.609 553.769
1172 0 50.1256 13.127 658 67.7736 452.821 552.401
1173 0 52.1345 13.5227 705 67.3461 453.282 551.835
1174 0 53.2142 13.3799 712 67.8301 453.944 550.695
1175 0 53.3107 12.9805 692 68.3237 453.574 551.597
1176 0 55.187 13.0828 722 68.6427 453.364 549.983
1177 0 57.1904 14.0233 802 66.8741 453.125 549.545
1178 0 56.2015 13.9142 782 68.6151 453.111 549.096
1179 0 58.1548 14.3238 833 67.7107 453.145 547.833
1180 0 61.2085 14.0503 860 67.7686 453.448 547.279
1181 0 63.3605 14.6621 929 66.5285 452.792 546.296
1182 0 66.2635 14.3669 952 67.1282 452.978 545.017
1183 0 68.4305 13.7658 942 67.6964 453.308 543.907
1184 0 70.6091 14.4316 1019 66.7723 452.847 543.012
1185 0 72.5872 14.424 1047 67.7536 452.541 541.27
1186 0 75.2524 14.4447 1087 67.6725 453.069 540.395
1187 0 78.4183 14.6394 1148 67.0984 451.717 540.476
1188 0 81.2517 14.6582 1191 67.0118 452.265 538.191
1189 0 81.2606 14.7673 1200 68.155 452.709 536.087
1190 1 43.3924 10.5779 459 71.0458 452.353 555.662
1191 0 47.3346 11.9786 567 69.8307 452.372 553.808
1192 0 46.3523 11.8441 549 70.9344 451.996 553.559
1193 0 47.4623 11.6092 551 71.5209 451.826 552.773
1194 0 51.3691 13.1207 674 68.5415 451.893 552.714
1195 0 53.3872 13.8048 737 67.7978 451.037 551.872
1196 0 53.1434 13.0402 693 69.531 451.752 551.823
1197 0 54.1864 13.6012 737 69.1859 452.323 550.589
1198 0 58.1387 13.4334 781 68.9872 452.759 549.216
1199 0 59.1131 13.7025 810 68.4321 452.447 549.315
1200 0 60.1245 12.84 772 70.9922 452.763 548.058
1201 0 62.1136 13.3948 832 70.0517 452.02 546.981
1202 0 65.22 13.4468 877 69.2566 451.774 545.908
1203 0 67.3576 13.4506 906 69.3179 451.216 544.587
1204 0 70.111 14.206 996 68.8333 450.621 541.604
1205 0 76.2767 16.781 1280 63.432 450.565 538.474
1206 0 77.3241 14.8983 1152 67.0443 451.078 537.418
1207 0 78.2369 14.8395 1161 68.174 450.815 539.028
1208 0 79.2526 14.2456 1129 69.4721 450.65 537.587
1209 0 83.1532 14.323 1191 68.8136 450.177 537.503
1210 0 85.1668 14.5597 1240 67.5863 448.932 536.506
1211 0 84.1709 14.2567 1200 69.2467 449.832 533.919
1212 0 90.1908 13.9926 1262 68.7583 450.067 533.755
1213 1 48.0704 11.1711 537 69.486 449.842 554.676
1214 0 50.0209 11.8151 591 68.6396 449.785 554
1215 0 52.0449 11.394 593 69.2968 449.629 553.15
1216 0 53.0861 12.0936 642 69.472 449.372 551.741
1217 0 56.0579 13.5217 758 66.8747 449.615 550.524
1218 0 57.0552 13.2678 757 67.0991 449.886 551.506
1219 0 59.0383 13.0593 771 67.2101 450.208 551.157
1220 0 61.046 12.6953 775 67.8955 449.941 548.754
1221 0 63.0873 13.1088 827 66.9879 450.063 548.039
1222 0 64.0754 13.5309 867 66.2976 450.149 547.536
1223 0 65.0874 13.5049 879 66.3561 449.556 546.435
1224 0 69.1383 13.2922 919 65.8183 450.017 544.587
1225 0 71.0758 13.4786 958 65.3612 449.448 543.925
1226 0 75.0736 13.0272 978 65.1421 449.275 544.681
1227 0 77.1806 12.853 992 65.2349 450.088 541.622
1228 0 80.0375 13.2438 1060 64.5858 449.908 540.082
1229 0 82.1088 13.3847 1099 64.0055 449.788 537.628
1230 0 86.1665 12.8936 1111 64.2817 449.373 537.936
1231 0 89.2239 13.2364 1181 63.2142 449.123 537.334
1232 1 46.0411 10.621 489 63.2904 448.618 557.141
1233 0 46.0741 9.50643 438 62.7945 448.938 559.689
1234 0 49.132 12.0899 594 60.7929 447.529 557.522
1235 0 50.0956 11.6577 584 62.0479 447.76 556.086
1236 0 53.1213 12.1044 643 60.8569 448.885 554.515
1237 0 55.168 12.5435 692 60.909 448.46 552.497
1238 0 56.1221 13.043 732 60.25 448.579 552.414
1239 0 59.2167 13.02 771 60.1271 447.76 550.15
1240 0 59.082 12.8635 760 60.0211 447.091 550.347
1241 0 62.0732 12.6464 785 60.4127 447.247 549.284
1242 0 63.0989 12.8053 808 59.9592 447.386 547.616
1243 0 66.147 13.5153 894 58.6644 448.173 547.457
1244 0 69.256 13.2696 919 58.4581 447.443 548.242
1245 0 70.2136 13.4162 942 58.4639 447.809 545.926
1246 0 74.2335 14.1041 1047 57.5291 447.846 544.384
1247 0 75.152 12.5878 946 59.6522 447.71 544.027
1248 0 77.3038 13.2206 1022 60.1438 447.479 541.023
1249 0 81.2512 13.1444 1068 60.2406 447.64 541.213
1250 0 84.2581 13.2925 1120 60.3339 447.258 538.836
1251 0 84.1983 13.4207 1130 60.5168 446.986 538.311
1252 0 90.3801 13.9743 1263 59.483 447.407 536.435
1253 0 91.2719 13.7939 1259 60.6569 447.041 536.315
1254 0 94.2533 13.8775 1308 60.7492 448.064 535.263
1255 0 98.3571 13.4001 1318 61.4757 447.297 532.602
1256 0 101.19 13.529 1369 61.8481 447.966 529.474
1257 1 54.2683 10.8535 589 61.3735 447.946 554.328
1258 0 53.2834 11.0916 591 61.9848 448.036 551.739
1259 0 56.2108 11.2612 633 61.1848 447.389 550.983
1260 0 58.1967 12.6124 734 60.5722 447.688 551.401
1261 0 58.0624 13.3305 774 60.8889 447.924 551.186
1262 0 61.132 12.8411 785 60.7096 448.039 551.027
1263 0 64.0739 13.781 883 59.5764 448.757 549.967
1264 0 64.1345 13.3781 858 60.9277 449.195 547.984
1265 0 66.1917 14.1256 935 60.231 449.357 546.407
1266 0 68.1641 13.5849 926 60.7505 449.717 545.581
1267 0 69.1737 13.3866 926 62.1555 449.922 543.88
1268 0 73.1389 14.6023 1068 59.4972 449.814 544.002
1269 0 74.1188 12.7768 947 62.8817 449.965 541.691
1270 0 77.2218 13.39 1034 62.2505 450.277 539.505
1271 0 82.2865 14.0728 1158 61.0492 450.468 539.224
1272 0 82.3993 13.7623 1134 62.0194 450.92 535.994
1273 0 85.3711 13.5877 1160 62.931 451.108 534.53
1274 1 44.3714 9.71347 431 64.3132 450.68 551.058
1275 0 45.2776 10.6896 484 62.5331 449.475 551.556
1276 0 47.2415 11.0284 521 62.1094 450.674 550.094
1277 0 48.2481 11.6689 563 62.1172 452.382 548.979
1278 0 49.2538 12.4051 611 60.8854 452.09 549.39
1279 0 51.0823 12.5288 640 60.1438 452.328 549.344
1280 0 53.0914 12.4879 663 61.9668 452.97 550.459
1281 0 58.1464 14.0679 818 59.434 453.317 549.487
1282 0 57.1419 13.2127 755 61.5576 453.099 548.825
1283 0 59.1414 14.3216 847 60.4451 453.668 546.924
1284 0 62.1065 12.8328 797 62.0013 454.11 547.891
1285 0 61.079 13.1142 801 62.6167 454.156 548.468
1286 0 65.1537 13.8749 904 61.9469 453.68 545.743
1287 0 69.0958 13.8938 960 61.2667 454.154 544.376
1288 0 72.0365 13.6459 983 60.6684 454.54 545.052
1289 0 71.0996 12.7849 909 63.4026 454.518 542.304
1290 0 74.2255 13.0009 965 63.2435 454.629 541.777
1291 0 76.0544 13.7665 1047 62.3247 454.328 539.031
1292 0 79.1472 13.7971 1092 62.0092 454.401 538.398
1293 0 82.1144 13.9805 1148 62.0157 454.334 536.687
1294 0 83.1261 13.6419 1134 62.7037 453.453 535.854
1295 0 86.1311 13.433 1157 62.2679 453.959 533.076
1296 0 91.0792 14.1635 1290 61 453.763 534.491
1297 0 93.1659 14.4903 1350 60.7785 454.15 531.742
1298 1 50.1578 10.3673 520 62.8212 454.027 554.127
1299 0 49.027 10.9735 538 62.3457 453.429 553.814
1300 0 52.0622 11.1021 578 62.0035 453.912 552.516
1301 0 53.079 11.2097 595 62.1916 453.503 552.2
1302 0 55.1087 12.3392 680 60.0926 453.584 552.878
1303 0 56.0951 12.8353 720 60.9306 453.672 548.903
1304 0 60.0401 12.6082 757 59.79 453.678 548.337
1305 0 63.1235 13.0221 822 59.5024 453.754 548.112
1306 0 65.1 13.1951 859 59.1688 453.739 546.899
1307 0 64.0971 13.3235 854 59.9215 453.754 545.934
1308 0 67.0482 12.752 855 59.6655 453.049 545.987
1309 0 70.0778 14.7978 1037 57.3674 453.227 542.314
1310 0 72.075 13.6663 985 58.4183 453.106 542.517
1311 0 74.0511 14.1119 1045 57.9206 452.769 541.973
1312 0 77.0739 13.7141 1057 58.2479 453.139 540.01
1313 0 77.0644 13.2357 1020 59.1069 452.373 540.214
1314 0 80.0632 14.1014 1129 58.1143 452.216 536.903
1315 0 83.0666 13.6999 1138 58.0958 452.326 535.562
1316 0 86.2363 13.7993 1190 58.2748 451.962 536.718
1317 0 86.0815 13.2781 1143 58.4252 452.169 532.497
1318 0 91.0392 14.2576 1298 57.0208 452.005 532.039
1319 1 46.0324 10.4274 480 57.6229 453.054 552.121
1320 0 49.1059 11.689 574 56.3415 451.307 552.679
1321 0 51.0179 11.4666 585 57.2393 450.718 553.855
1322 0 53.0414 12.0095 637 56.2041 450.845 552.057
1323 0 54.1385 12.3572 669 56.2227 450.936 553.022
1324 0 53.078 12.7925 679 55.0781 451.309 551.08
1325 0 57.0487 12.7961 730 54.363 451.188 551.252
1326 0 60.0221 12.562 754 54.0146 450.488 550.415
1327 0 61.1891 12.9762 794 53.8577 450.344 549.487
1328 0 62.2406 13.5603 844 53.1197 449.726 548.499
1329 0 64.1628 13.2787 852 53.6373 449.946 549.011
1330 0 66.2109 13.8497 917 53.2486 450.032 546.017
1331 0 68.3148 12.5741 859 54.3958 449.735 546.031
1332 0 72.3454 13.864 1003 52.2024 449.838 543.986
1333 0 70.2764 12.9631 911 54.9462 449.299 545.132
1334 0 73.3364 12.954 950 56.2053 449.844 543.929
1335 0 75.4297 13.4297 1013 55.6002 449.871 541.8
1336 0 79.2911 12.6622 1004 56.2878 450.11 541.004
1337 0 81.2518 13.5136 1098 55.4435 449.671 539.185
1338 0 83.5104 13.7468 1148 55.2848 449.379 538.237
1339 0 87.3611 14.2626 1246 54.4679 449.214 535.617
1340 1 44.3068 9.23108 409 57.1711 449.218 558.792
1341 0 47.2277 10.8623 513 55.2807 448.789 558.891
1342 0 47.2552 11.258 532 55.6165 449.883 557.105
1343 0 48.2352 10.7598 519 57.0328 449.114 555.871
1344 0 50.2097 11.6511 585 54.8325 449.655 556.203
1345 0 51.0428 11.6765 596 54.7047 450.599 554.201
1346 0 55.2439 12.7435 704 54.3153 450.47 554.02
1347 0 55.1907 12.6471 698 54.914 450.563 551.666
1348 0 57.3362 12.4703 715 54.8126 448.79 553.341
1349 0 57.1401 12.7931 731 55.357 449.877 551.694
1350 0 60.136 12.4218 747 55.6238 449.34 551.209
1351 0 61.3061 12.4131 761 56.1997 449.319 551.386
1352 0 65.1578 13.521 881 54.3133 449.329 550.494
1353 0 62.1086 12.4137 771 57.1842 449.649 548.974
1354 0 66.3015 12.9861 861 56.3368 449.484 546.724
1355 0 68.0939 12.1891 830 57.5084 449.411 547.135
1356 0 72.2417 12.998 939 56.0234 449.536 547.952
1357 0 74.2413 12.5671 933 56.7128 449.375 546.247
1358 0 75.3385 13.738 1035 55.9295 448.337 544.348
1359 0 77.1695 11.8829 917 58.8484 447.237 541.684
1360 0 80.3741 12.8026 1029 57.7376 447.389 538.954
1361 0 81.3998 12.7764 1040 57.7846 447.266 538.971
1362 1 47.2648 10.1767 481 59.3742 446.32 557.511
1363 0 45.1537 10.874 491 59.6395 445.866 557.411
1364 0 47.1704 11.0875 523 59.8317 446.231 555.417
1365 0 50.211 11.7504 590 55.5847 446.51 553.212
1366 0 52.0341 12.0498 627 55.807 446.45 553.037
1367 0 52.1346 12.2759 640 55.8797 446.336 552.919
1368 0 51.0766 11.9233 609 56.3662 446.223 541.805
1369 0 55.0405 12.7361 701 55.2454 446.073 544.553
1370 0 54.0637 12.4298 672 57.308 446.11 545.725
1371 0 56.0797 12.4287 697 57.2181 446.512 544.482
1372 0 58.0945 12.2215 710 57.8901 446.445 545.115
1373 0 58.0464 11.9387 693 58.8773 446.583 548.19
1374 0 60.1102 12.9263 777 58.1969 446.914 548.122
1375 0 61.0497 12.9894 793 59.7957 446.657 550.453
1376 0 65.0568 13.4498 875 59.2491 447.673 551.68
1377 0 65.0488 12.3292 802 61.8416 447.63 550.036
1378 0 68.0937 13.4374 915 60.3891 447.964 549.187
1379 0 70.0515 13.59 952 60.5431 446.87 547.398
1380 0 74.0398 15.3971 1140 57.5096 447.536 545.659
1381 0 73.0893 13.1346 960 61.2823 447.479 546.904
1382 0 77.0968 14.0992 1087 57.2622 447.532 544.738
1383 0 79.2586 14.0174 1111 56.7336 447.909 543.302
1384 1 43.1037 10.8807 469 62.3284 448.132 562.559
1385 0 45.0393 10.4131 469 61.9979 447.463 561.06
1386 0 48.2878 11.5143 556 62.1241 448.094 559.46
1387 0 49.1539 12.9389 636 59.4654 448.247 558.572
1388 0 51.1392 12.4562 637 59.5275 448.79 558.278
1389 0 52.1291 13.1788 687 59.7744 450.045 556.879
1390 0 53.0967 13.3342 708 59.8842 449.46 555.552
1391 0 55.0894 13.5598 747 59.5582 449.005 554.167
1392 0 56.1503 13.5707 762 59.7402 449.022 554.598
1393 0 57.3712 13.5608 778 59.5321 449.522 554.364
1394 0 59.055 13.4451 794 59.5982 449.139 553.637
1395 0 60.4487 12.5726 760 61.5566 449.242 552.078
1396 0 61.0885 13.9306 851 60.2397 449.788 551.402
1397 0 64.2444 14.1802 911 59.8716 449.872 549.71
1398 0 65.2507 12.7661 833 61.6363 449.898 549.279
1399 0 71.517 14.0806 1007 59.2781 450.491 545.2
1400 0 69.5305 13.9507 970 60.1278 450.793 544.136
1401 0 74.5637 13.465 1004 60.1673 451.11 542.625
1402 0 75.358 14.1591 1067 59.3702 451.21 541.174
1403 0 78.4042 13.8385 1085 59.4479 451.771 540.441
1404 0 83.3705 13.1701 1098 60.0255 452.104 539.873
1405 1 43.109 11.6449 502 58.5757 451.944 559.998
1406 0 44.1271 11.1496 492 60.5142 451.931 559.528
1407 0 46.1092 11.7981 544 59.4706 452.388 558.147
1408 0 47.3053 12.0917 572 59.1224 452.638 556.691
1409 0 49.3666 12.9035 637 58.752 452.848 555.826
1410 0 50.1619 13.6956 687 57.9942 452.878 555.226
1411 0 53.2277 12.8504 684 58.038 453.082 553.149
1412 0 54.2235 13.2415 718 58.0766 453.234 552.423
1413 0 56.2903 13.306 749 57.219 453.398 551.935
1414 0 58.3291 13.2867 775 57.1523 453.301 551.992
1415 0 60.3672 13.4842 814 57.0528 453.394 551
1416 0 62.2801 14.2582 888 56.3074 453.407 549.885
1417 0 64.3512 13.2398 852 57.1174 453.869 549.377
1418 0 65.5843 12.7012 833 58.102 453.755 547.81
1419 0 67.5206 13.6255 920 57.612 453.853 544.99
1420 0 70.536 13.6101 960 56.9552 454.104 545.76
1421 0 72.5071 13.7228 995 57.1166 453.789 544.157
1422 0 74.428 13.503 1005 57.9264 453.739 543.622
1423 0 77.3479 13.3294 1031 57.5082 453.963 542.71
1424 0 81.4222 13.3624 1088 57.5524 453.553 540.238
1425 1 42.2016 10.9237 461 57.423 453.516 560.33
1426 0 42.2484 10.8406 458 58.19 453.035 559.393
1427 0 44.2885 12.1928 540 58.3019 453.22 556.376
1428 0 46.0392 13.3799 616 55.6656 453.276 558.541
1429 0 46.2599 12.9486 599 56.9265 453.516 557.788
1430 0 49.6206 13.8048 685 56.2088 452.79 555.099
1431 0 48.3012 13.126 634 57.9779 452.77 555.53
1432 0 50.3072 13.6958 689 57.3498 452.373 555.682
1433 0 53.5087 13.5866 727 57.9904 453.47 554.318
1434 0 55.5633 13.0842 727 59.2971 453.05 554.142
1435 0 56.5406 13.3179 753 59.8672 453.385 550.053
1436 0 58.5296 13.0532 764 58.9908 453.283 547.592
1437 0 58.5849 13.314 780 60.65 453.178 544.864
1438 0 61.7603 14.362 887 59.4081 453.092 543.693
1439 0 61.9793 13.44 833 60.916 452.727 543.432
1440 0 65.8998 13.6419 899 59.8966 452.496 542.158
1441 0 68.9019 14.8762 1025 58.079 452.75 541.273
1442 0 68.8244 13.9921 963 59.5192 452.531 540.131
1443 0 71.8909 13.7987 992 59.1935 452.533 540.42
1444 0 73.0288 14.1588 1034 59.5464 452.641 539.963
1445 0 74.8392 13.8965 1040 59.5413 452.554 539.194
1446 0 78.1391 13.6167 1064 59.8778 452.72 536.503
1447 0 81.809 14.3138 1171 58.9052 452.31 535.734
1448 0 83.8406 13.7881 1156 59.5294 451.431 535.724
1449 0 85.7923 13.7425 1179 59.7099 451.186 532.704
1450 1 43.5507 10.8379 472 62.2924 451.464 552.877
1451 0 45.6763 11.5815 529 61.9074 451.658 551.837
1452 0 47.52 12.037 572 60.7815 451.154 552.166
1453 0 47.52 11.9739 569 167.533 451.174 552.2
1454 0 52.5278 12.3554 649 60.5794 450.96 550.593
1455 0 52.5204 13.0616 686 61.0306 450.92 550.106
1456 0 54.486 13.4346 732 61.3169 450.724 549.62
1457 0 57.4131 13.6032 781 60.9641 451.247 548.764
1458 0 58.6093 13.5985 797 61.6048 450.758 547.059
1459 0 62.6364 14.0174 878 60.3918 451.011 546.46
1460 0 60.4592 13.2651 802 62.4776 451.138 545.406
1461 0 64.4585 13.978 901 61.1632 450.802 542.272
1462 0 66.5348 13.0909 871 62.1791 450.532 543.845
1463 0 69.6737 14.1086 983 60.2909 450.647 541.864
1464 0 71.4567 14.1484 1011 59.8694 450.017 542.484
1465 0 73.6977 15.1429 1116 58.9561 450.001 540.858
1466 0 74.6256 14.231 1062 60.3475 449.846 539.725
1467 0 77.5328 13.2331 1026 61.9951 449.626 538.593
1468 0 82.515 15.5608 1284 58.2336 449.602 537.019
1469 0 83.4295 14.3235 1195 60.1925 449.644 535.454
1470 0 87.473 15.822 1384 57.6741 449.276 534.624
1471 0 87.6373 14.3432 1257 60.1663 449.064 533.94
1472 0 92.3613 15.1687 1401 58.5046 448.907 533.367
1473 0 94.2764 14.4363 1361 60.1719 448.764 532.218
1474 0 96.3173 14.1511 1363 60.7124 448.985 531.365
1475 0 98.4224 15.1795 1494 59.5663 448.608 529.748
1476 0 101.344 14.9589 1516 60.1887 448.305 528.499
1477 0 105.402 14.6772 1547 60.6658 447.815 527.2
1478 0 107.323 14.2001 1524 60.8379 447.898 526.614
1479 0 114.353 15.3734 1758 58.7452 448.053 524.534
1480 0 115.21 14.5908 1681 60.2159 448.516 523.992
1481 0 118.231 14.218 1681 61.1576 448.356 522.245
1482 1 62.1146 11.189 695 63.3482 448.809 550.376
1483 0 64.1363 11.7406 753 62.7251 448.344 549.57
1484 0 68.1308 12.4026 845 61.4095 448.153 548.12
1485 0 71.1668 13.7283 977 60.4094 448.232 546.211
1486 0 74.1358 13.1246 973 60.0442 448.013 543.1
1487 0 76.1505 13.9067 1059 59.6591 448.195 542.244
1488 0 77.0561 13.4837 1039 60.821 447.99 541.615
1489 0 82.2686 13.3222 1096 61.0274 448.185 540.378
1490 0 83.1635 13.732 1142 60.8354 448.732 538.393
1491 0 87.2583 13.0074 1135 60.9357 448.322 539.17
1492 0 89.1067 14.1965 1265 60.1858 448.364 536.804
1493 0 93.1522 14.063 1310 60.5412 448.148 534.335
1494 0 96.1232 13.6804 1315 60.9361 448.298 534.765
1495 0 99.1673 13.8453 1373 61.4465 448.526 532.656
1496 0 101.15 13.8014 1396 62.7335 449.903 530.536
1497 0 108.374 15.3358 1662 59.8327 449.77 524.623
1498 0 107.29 14.3722 1542 61.2769 449.222 523.994
1499 0 112.34 15.3373 1723 60.6193 449.162 521.974
1500 0 112.468 13.6216 1532 64.7245 449.151 519.526
1501 0 114.438 14.0425 1607 64.5078 449.51 519.368
1502 0 121.453 15.1251 1837 62.7109 449.198 517.68
1503 1 66.539 11.3317 754 64.1737 449.069 541.625
1504 0 67.3619 11.4011 768 64.1758 448.854 542.061
1505 0 72.2993 12.9185 934 62.3383 449.224 539.757
1506 0 72.3871 12.6404 915 65.5967 449.545 532.126
1507 0 76.0894 12.9979 989 65.1264 448.292 532.405
1508 0 78.194 12.9294 1011 65.4609 449.107 535.234
1509 0 79.1337 13.3571 1057 65.1088 449.561 535.706
1510 0 82.2422 12.9982 1069 65.0748 449.834 536.247
1511 0 87.1829 13.9133 1213 64.4204 450.367 535.033
1512 0 88.1861 13.3014 1173 66.1364 450.502 533.453
1513 0 90.3272 13.2075 1193 66.5767 450.887 531.491
1514 0 94.3436 13.6628 1289 65.2118 451.324 528.041
1515 0 98.3392 13.189 1297 65.3917 451.383 528.371
1516 0 101.38 13.2669 1345 65.6349 451.6 524.687
1517 1 53.2089 10.5809 563 65.0124 450.663 547.948
1518 0 55.3138 10.5399 583 64.0892 450.782 548.815
1519 0 55.2111 11.0847 612 64.2042 451.559 547.412
1520 0 59.0664 12.2743 725 62.2097 452.8 546.623
1521 0 59.0762 12.4754 737 62.3148 451.494 546.891
1522 0 62.1505 13.1294 816 61.7794 452.271 546.244
1523 0 63.0693 12.0027 757 63.4875 452.133 545.569
1524 0 63.1146 11.693 738 64.1965 453.153 545.195
1525 0 69.1955 12.5442 868 61.7143 453.419 543.135
1526 0 69.0401 12.8042 884 61.5984 453.686 543.429
1527 0 72.1267 14.225 1026 59.152 453.848 541.294
1528 0 73.0678 13.3848 978 60.5317 454.02 541.463
1529 0 75.1357 13.4956 1014 60.4379 454.59 537.604
1530 0 78.0321 13.7123 1070 60.1449 454.628 538.82
1531 0 81.0948 13.2438 1074 61.108 454.567 536.029
1532 0 84.0617 13.5615 1140 61.2974 454.611 536.493
1533 0 85.1089 13.4768 1147 61.4167 453.737 535.417
1534 0 88.1848 12.4284 1096 63.2336 453.805 533.422
1535 0 91.0899 13.2507 1207 61.9785 453.578 530.371
1536 0 94.1057 12.9854 1222 62.2504 453.722 528.157
1537 0 96.1332 12.6595 1217 63.0477 453.509 527.431
1538 1 51.0628 9.87019 504 63 453.419 551.806
1539 0 54.1112 10.8295 586 62.2474 453.314 550.343
1540 0 55.132 11.3364 625 61.7408 453.93 547.49
1541 0 59.1898 10.9647 649 59.8305 454.21 543.439
1542 0 59.1211 12.0262 711 59.3136 453.864 542.719
1543 0 61.2625 12.4056 760 60.5829 453.272 547.872
1544 0 63.2248 13.2069 835 60.1293 453.18 545.795
1545 0 67.2289 14.0416 944 58.1494 453.553 545.827
1546 0 68.1098 13.4929 919 59.4059 452.193 544.11
1547 0 68.2569 12.8485 877 60.122 452.068 543.277
1548 0 72.2685 13.9895 1011 58.5223 452.517 542.65
1549 0 74.1998 13.9353 1034 58.8395 452.504 539.621
1550 0 76.2301 13.4461 1025 59.7337 452.222 539.422
1551 0 77.1789 14.0453 1084 59.7675 452.601 537.147
1552 0 79.2649 13.1332 1041 60.5014 451.828 538.289
1553 0 80.1066 12.0589 966 61.6004 451.967 537.064
1554 0 84.1341 13.4428 1131 59.7047 452.041 536.859
1555 0 88.1703 13.3038 1173 59.8423 451.777 534.589
1556 0 89.408 13.4664 1204 61.2799 451.881 532.88
1557 0 94.4297 13.7351 1297 61.2367 451.661 531.081
1558 0 95.5175 13.7043 1309 61.7334 451.898 527.993
1559 0 98.3099 14.556 1431 60.7757 451.878 527.471
1560 0 102.464 13.9951 1434 61.8159 451.517 526.14
1561 0 105.407 13.5285 1426 62.5302 451.649 523.13
1562 1 57.252 10.6022 607 63.1763 451.341 551.348
1563 0 59.2174 11.0609 655 62.9786 451.211 549.056
1564 0 61.1567 11.7894 721 61.3537 451.419 549.374
1565 0 62.2142 12.891 802 60.6272 450.491 548.287
1566 0 64.0928 13.0124 834 61.0731 450.516 546.667
1567 0 65.094 12.4589 811 62.4599 450.429 546.66
1568 0 68.1237 13.5342 922 60.8395 450.46 545.602
1569 0 67.2011 13.2587 891 62.0527 450.646 544.402
1570 0 73.2728 14.3573 1052 59.5941 450.698 542.388
1571 0 71.1864 13.0502 929 61.7632 450.482 542.978
1572 0 74.1647 13.079 970 61.667 450.461 541.354
1573 0 76.2844 13.4235 1024 61.1318 450.485 539.403
1574 0 79.3036 13.4672 1068 60.515 450.782 539.444
1575 0 80.1812 13.6316 1093 60.7813 450.054 538.172
1576 0 82.1271 13.6617 1122 61.3895 450.348 537.829
1577 0 86.1157 13.7257 1182 61.1142 450.057 535.696
1578 0 86.2281 12.6989 1095 62.5324 449.971 535.425
1579 0 91.1613 13.8546 1263 61.0388 449.864 534.067
1580 0 92.1379 14.3481 1322 61.0938 449.456 533.102
1581 0 96.2297 13.6029 1309 61.984 449.191 530.417
1582 0 98.1375 14.4491 1418 61.1982 448.996 528.1
1583 0 101.349 14.159 1435 61.4258 449.578 527.711
1584 0 105.254 14.1847 1493 61.0636 448.654 528.263
1585 0 109.13 13.9559 1523 60.9304 449.387 526.026
1586 1 63.0854 10.1291 639 61.2269 448.828 551.369
1587 0 64.106 10.8414 695 60.5237 448.96 550.545
1588 0 67.0884 12.2823 824 59.7488 448.178 548.581
1589 0 67.2245 13.2392 890 59.3326 448.055 544.996
1590 0 71.1805 12.5877 896 59.4877 448.18 545.287
1591 0 73.1221 13.1561 962 57.8794 448.129 543.64
1592 0 76.1759 13.1406 1001 57.987 448.287 542.386
1593 0 78.2076 13.5153 1057 57.5043 448.36 540.234
1594 0 80.2614 12.8206 1029 57.6249 448.727 539.441
1595 0 85.2844 13.2732 1132 57.2164 449.521 536.384
1596 0 88.3067 13.7249 1212 56.2822 449.53 535.182
1597 0 90.1854 12.8069 1155 57.7463 449.757 534.827
1598 0 91.243 13.623 1243 56.8737 449.786 532.823
1599 0 96.1613 13.2174 1271 56.8615 449.741 531.612
1600 0 99.224 13.8878 1378 55.828 449.955 530.389
1601 0 101.362 13.2693 1345 56.9517 449.5 527.844
1602 0 105.296 13.1914 1389 57.1562 449.991 525.984
1603 0 110.226 13.0822 1442 56.9965 449.99 524.818
1604 1 58.1084 11.2548 654 57.4235 450.726 549.758
1605 0 62.1144 11.3822 707 56.7723 450.628 547.283
1606 0 61.0864 12.4087 758 56.2586 450.823 547.563
1607 0 66.0481 12.4001 819 55.862 451.751 545.767
1608 0 67.1054 11.4447 768 56.7721 450.128 545.02
1609 0 70.1474 12.8159 899 55.6607 451.004 545.288
1610 0 71.2245 12.4536 887 56.4442 451.1 542.658
1611 0 73.0689 13.1109 958 55.7056 451.255 541.267
1612 0 75.1353 13.2295 994 56.1871 451.299 539.862
1613 0 77.0935 13.088 1009 56.3697 451.788 540.903
1614 0 78.1376 13.2459 1035 56.9971 451.911 537.841
1615 0 82.1739 13.0577 1073 57.1454 451.952 538.267
1616 0 83.167 13.2625 1103 57.7017 452.46 536.228
1617 0 87.2549 13.3402 1164 57.9493 452.945 535.179
1618 0 88.131 13.4232 1183 58.1936 452.874 532.225
1619 0 93.1266 12.9823 1209 58.5616 453.224 532.618
1620 0 96.1732 13.4133 1290 58.7767 453.329 527.409
1621 1 54.0886 11.1669 604 58.0695 452.076 551.214
1622 0 52.069 11.6 604 58.6192 451.939 550.091
1623 0 55.0243 11.5585 636 58.195 453.783 549.569
1624 0 57.0411 11.9738 683 58.2387 453.644 547.889
1625 0 59.1721 12.3707 732 57.7363 454.036 546.712
1626 0 61.1026 12.3235 753 57.4502 453.883 546.122
1627 0 63.0745 12.842 810 56.879 454.409 544.177
1628 0 63.1062 13.4377 848 56.4764 455.596 544.991
1629 0 65.1217 13.1753 858 56.8671 455.579 530.733
1630 0 69.1189 13.1802 911 56.3864 455.668 530.701
1631 0 68.1369 13.0913 892 56.7052 455.344 533.398
1632 0 71.2405 12.8298 914 57.5525 455.474 532.298
1633 0 73.1905 12.8295 939 57.394 455.106 534.35
1634 0 76.1289 13.5954 1035 56.7585 454.116 535.24
1635 0 79.08 13.0754 1034 56.8414 454.389 537.036
1636 0 80.0751 13.3999 1073 56.9842 454.655 535.901
1637 0 82.048 13.3215 1093 57.2745 455.167 533.034
1638 0 86.1284 13.3405 1149 57.2924 455.096 531.68
1639 0 89.064 14.091 1255 56.9625 455.674 531.731
1640 0 90.1402 13.2349 1193 58.8894 455.219 528.949
1641 1 51.0924 9.7862 500 57.31 455.866 551.45
1642 0 54.0818 10.4102 563 57.3943 455.89 551.121
1643 0 54.2371 9.97471 541 57.7431 455.168 552.355
1644 0 54.2724 10.2446 556 58.3255 454.131 548.541
1645 0 56.1776 11.7484 660 57.9758 454.314 545.991
1646 0 57.1359 11.2364 642 59.8255 454.072 545.525
1647 0 61.1764 12.8808 788 58.1789 455.676 544.269
1648 0 64.1136 13.9596 895 57.4101 455.54 544.45
1649 0 65.0728 13.0008 846 58.9905 455.394 542.27
1650 0 68.0324 13.376 910 58.6473 455.167 541.7
1651 0 70.0978 12.8535 901 59.5061 455.198 540.616
1652 0 72.0738 13.3613 963 59.1952 454.872 540.465
1653 0 75.2361 12.8795 969 59.8225 454.527 538.608
1654 0 76.0492 14.0304 1067 58.8913 454.902 538.941
1655 0 80.1076 14.2059 1138 58.7636 453.793 537.65
1656 0 81.0298 13.8591 1123 59.2912 453.581 536.057
1657 0 85.129 13.7908 1174 59.1167 453.422 534.098
1658 0 87.0709 14.471 1260 58.2635 452.803 532.621
1659 0 89.1047 14.2641 1271 58.6153 453.19 529.119
1660 1 47.0751 10.4514 492 60.6748 453.262 551.102
1661 0 48.0234 9.28714 446 62.6413 453.002 550.471
1662 0 49.0468 11.1526 547 60.585 452.536 550.883
1663 0 54.0573 11.9133 644 59.9208 452.908 550.106
1664 0 55.3093 12.0233 665 60.6932 452.582 548.438
1665 0 55.1064 13.2471 730 60.2493 453.005 547.93
1666 0 57.116 13.6039 777 59.6963 453.723 547.788
1667 0 58.0696 13.4149 779 59.1168 453.078 548.546
1668 0 60.0346 13.1591 790 59.3253 453.495 547.439
1669 0 62.1541 13 808 59.5173 453.335 545.415
1670 0 66.043 13.4761 890 58.1708 452.978 544.882
1671 0 66.0638 12.8361 848 59.3644 452.842 545.037
1672 0 67.1738 12.877 865 60.1549 452.529 543.368
1673 0 70.1261 13.3759 938 59.6706 451.835 542.55
1674 0 72.1349 13.2114 953 59.7765 452.359 541.176
1675 0 76.1604 13.1564 1002 59.4621 452.072 540.651
1676 0 78.1094 13.3275 1041 59.3967 451.662 540.363
1677 0 81.1104 13.5987 1103 59.4606 451.687 539.204
1678 0 82.2001 13.4671 1107 60.7859 451.179 537.361
1679 0 86.1202 13.1444 1132 61.3224 451.602 535.807
1680 0 86.14 12.9905 1119 61.9169 451.8 535.402
1681 1 47.1805 10.746 507 62.1538 451.158 555.919
1682 0 50.1256 11.6108 582 61.311 450.38 553.905
1683 0 51.0756 11.9039 608 62.148 450.296 552.646
1684 0 51.1363 12.2614 627 61.3493 450.496 552.029
1685 0 54.1145 13.2866 719 59.9903 450.167 551.241
1686 0 56.1308 13.13 737 60.365 449.972 551.68
1687 0 56.2165 13.11 737 61.3487 449.666 550.145
1688 0 59.1146 13.2286 782 60.9731 450.012 549.472
1689 0 61.1041 13.0924 800 61.2375 450.269 548.169
1690 0 61.0703 12.5757 768 62.3385 449.625 548.578
1691 0 64.2875 13.3307 857 61.2952 449.793 547.154
1692 0 66.106 13.5994 899 61.1034 449.561 545.971
1693 0 66.2207 13.4097 888 61.9414 449.664 547.179
1694 0 69.208 13.2933 920 62.3174 449.852 545.046
1695 0 72.2705 13.574 981 61.6758 449.429 543.702
1696 0 73.2167 13.0981 959 62.8488 449.349 543.75
1697 0 76.1536 14.1819 1080 61.9167 448.808 541.881
1698 0 77.2445 13.399 1035 62.9671 449.052 541.04
1699 0 81.183 14.4858 1176 61.5306 448.957 539.857
1700 0 82.1937 13.9062 1143 63.0096 448.785 539.387
1701 0 85.3453 13.9316 1189 62.6207 448.167 538.581
1702 0 87.18 14.1317 1232 62.806 447.963 538.166
1703 0 91.3216 14.323 1308 62.6307 447.98 536.429
1704 1 49.1761 11.0623 544 63.9357 448.178 557.357
1705 0 52.0848 12.0765 629 62.9587 447.881 556.194
1706 0 52.0526 12.0263 626 63.8035 448.436 554.633
1707 0 54.0933 11.5911 627 64.2089 448.389 554.864
1708 0 56.0786 13.2136 741 62.3401 448.408 552.675
1709 0 57.1799 12.277 702 63.4103 447.694 553.642
1710 0 58.2145 13.0895 762 62.5 447.858 552.223
1711 0 60.3132 12.9988 784 62.6008 448.065 550.927
1712 0 62.1982 12.6049 784 63.3355 448.009 549.58
1713 0 66.3239 13.3738 887 61.2097 448.278 548.068
1714 0 67.1249 12.2309 821 62.8599 448.425 548.201
1715 0 70.18 13.7219 963 60.595 448.643 546.724
1716 0 72.175 13.3426 963 60.864 448.857 546.128
1717 0 75.087 13.5976 1021 60.7444 449.215 543.406
1718 0 76.3741 13.3946 1023 60.7351 449.553 543.442
1719 0 78.1597 13.2421 1035 60.8435 449.62 539.834
1720 0 81.1589 13.6522 1108 59.8285 450.291 539.481
1721 0 83.1267 13.6178 1132 59.6581 450.266 539.17
1722 0 87.2098 13.7829 1202 59.6897 450.413 536.471
1723 0 88.1779 13.5068 1191 60.0588 450.864 534.666
1724 0 92.179 13.9511 1286 58.6058 451.058 535.138
1725 0 95.2281 14.5335 1384 58.685 451.301 532.904
1726 0 96.2483 13.8496 1333 59.7014 451.294 531.933
1727 0 99.2329 13.4734 1337 59.5699 451.328 530.365
1728 0 101.174 12.8393 1299 59.7852 451.447 529.786
1729 0 105.254 14.0897 1483 57.5637 451.66 528.063
1730 0 108.209 13.206 1429 58.4738 451.823 526.071
1731 1 61.0933 11.8671 725 56.92 452.31 549.007
1732 0 65.118 11.7018 762 56.5774 451.647 547.076
1733 0 65.1494 10.6678 695 56.9252 452.088 546.393
1734 0 68.1773 12.4675 850 55.1341 452.404 544.18
1735 0 68.1763 11.4116 778 57.4075 452.508 543.965
1736 0 70.0483 12.2915 861 58.2044 452.4 541.688
1737 0 74.1214 12.6954 941 58.3316 452.704 540.241
1738 0 77.1057 12.7876 986 59.0467 452.709 538.034
1739 0 80.0945 12.8473 1029 57.3984 452.496 537.22
1740 0 81.1749 13.6003 1104 57.0399 452.734 535.885
1741 0 84.2387 13.7585 1159 56.3538 453.494 533.826
1742 0 86.0484 13.4575 1158 58.2979 453.404 533.803
1743 0 90.1394 13.1796 1188 58.654 453.747 531.116
1744 0 93.0791 14.4178 1342 55.8055 454.084 529.641
1745 0 97.1282 13.8271 1343 56.3016 454.429 528.801
1746 0 99.2481 14.0255 1392 56.0596 455.012 528.965
1747 0 101.136 14.9303 1510 55.7477 455.007 527.288
1748 0 104.22 14.1911 1479 56.8343 454.911 525.857
1749 0 108.247 14.5408 1574 56.8901 455.35 523.013
1750 0 110.331 14.3114 1579 56.8208 455.334 521.054
1751 0 115.475 14.41 1664 57.4123 455.624 518.291
1752 1 64.2464 11.3469 729 57.1962 455.241 545.781
1753 0 63.4081 11.4339 725 57.1186 454.985 539.463
1754 0 68.3804 11.8601 811 55.9063 454.506 538.203
1755 0 73.171 13.612 996 54.6747 455.478 540.103
1756 0 73.1466 13.4934 987 55.8713 455.105 541.402
1757 0 76.1814 12.6803 966 56.6335 454.93 540.48
1758 0 76.2199 13.5135 1030 56.768 455.186 537.426
1759 0 79.2216 12.8374 1017 57.3432 455.188 536.206
1760 0 81.2201 12.8663 1045 57.4526 455.029 534.905
1761 0 85.1811 13.7941 1175 56.4528 455.337 531.788
1762 0 86.2699 12.9593 1118 57.9955 455.307 530.946
1763 0 89.2435 12.9645 1157 58.5186 455.124 529.524
1764 0 92.2671 13.3742 1234 57.6459 454.818 526.105
1765 0 93.2604 13.0602 1218 58.4631 454.94 524.949
1766 0 94.4068 13.0923 1236 58.9029 455.165 521.998
1767 0 99.2703 13.0049 1291 58.7684 455.101 520.504
1768 0 102.385 13.0977 1341 58.2066 455.15 518.409
1769 0 105.389 13.3315 1405 57.5537 455.006 519.474
1770 0 108.275 13.3271 1443 58.5087 454.72 517.834
1771 0 111.369 12.9929 1447 59.5225 454.815 514.934
1772 1 62.1571 10.4252 648 59.9676 453.477 540.85
1773 0 63.1706 10.1471 641 60.8471 453.657 539.967
1774 0 67.1415 12.2875 825 58.8824 453.661 541.027
1775 0 68.2776 12.1563 830 59.9506 453.752 538.598
1776 0 69.0529 12.1791 841 60.5149 454.021 540.766
1777 0 73.1841 12.489 914 60.5383 454.121 539.969
1778 0 75.1075 12.3956 931 61.725 454.435 538.606
1779 0 79.1507 12.7605 1010 60.7307 453.809 538.892
1780 0 78.1048 12.7905 999 61.6066 453.901 536.848
1781 0 83.1 13.0566 1085 60.2479 454.347 535.062
1782 0 85.1265 12.7105 1082 60.366 453.826 534.864
1783 0 87.0911 12.6534 1102 60.9746 453.901 533.62
1784 0 91.0817 13.2738 1209 59.7477 453.356 532.559
1785 0 93.2268 13.2473 1235 60.3919 453.593 528.815
1786 0 96.0879 12.4053 1192 61.2441 453.607 529.591
1787 0 100.194 13.1046 1313 60.3382 453.54 527.781
1788 0 102.226 13.4702 1377 60.48 453.412 526.864
1789 0 104.22 13.0876 1364 61.9238 453.323 524.261
1790 0 109.127 13.7638 1502 60.3575 452.936 522.81
1791 0 112.14 13.6169 1527 60.9522 452.479 521.824
1792 0 114.304 13.4116 1533 61.1011 452.72 519.971
1793 0 119.261 14.6317 1745 59.8395 452.885 517.163
1794 0 122.151 13.8435 1691 60.8587 453.383 516.113
1795 1 66.122 10.3596 685 61.4467 452.724 545.12
1796 0 69.1491 11.0341 763 60.9109 452.427 545.181
1797 0 70.1699 11.1016 779 61.6033 451.902 543.965
1798 0 75.0837 12.3063 924 59.6667 451.633 540.775
1799 0 75.219 11.872 893 61.3908 451.207 539.97
1800 0 79.041 12.095 956 60.2395 452.248 540.963
1801 0 80.0896 12.5734 1007 60.1331 452.28 538.809
1802 0 83.0604 12.6294 1049 59.8704 452.341 538.353
1803 0 85.0767 12.8942 1097 60.0574 452.38 536.173
1804 0 89.1501 13.3707 1192 59.3708 452.19 534.377
1805 0 91.1375 13.7814 1256 58.7826 452.093 531.019
1806 0 94.1386 12.2798 1156 60.6626 451.979 532.513
1807 0 99.0681 14.1115 1398 58.3534 451.866 529.933
1808 0 101.175 13.3531 1351 59.2761 451.863 527.615
1809 0 104.121 13.638 1420 58.7211 450.415 526.75
1810 0 106.242 13.0551 1387 59.3345 450.652 525.887
1811 0 109.227 13.3209 1455 59.2096 450.038 523.103
1812 0 113.152 12.9826 1469 59.1164 449.719 521.714
1813 1 64.1171 9.96615 639 57.1721 448.905 548.401
1814 0 65.1805 11.2764 735 56.9565 449.019 546.313
1815 0 68.1222 10.4812 714 57.3866 449.618 547.599
1816 0 70.1653 11.7579 825 56.2121 450.761 546.048
1817 0 72.2422 12.0567 871 56.5959 451.197 544.603
1818 0 73.0621 12.6194 922 56.9566 450.572 542.747
1819 0 75.1301 12.658 951 57.4458 450.911 541.714
1820 0 78.21 13.2336 1035 56.9961 451.657 539.222
1821 0 80.1926 13.0685 1048 57.8626 451.811 537.861
1822 0 82.1592 13.2304 1087 58.4894 451.068 537.247
1823 0 82.1116 13.64 1120 58.3821 451.42 535.669
1824 0 86.2541 13.9935 1207 58.0472 451.344 535.195
1825 0 87.1284 13.2563 1155 59.0216 451.551 533.691
1826 0 90.1293 13.8246 1246 58.5762 451.384 532.795
1827 0 94.1254 14.0663 1324 58.7017 451.554 529.492
1828 0 96.1744 14.2346 1369 58.2929 451.816 527.859
1829 0 98.2194 13.9382 1369 58.4492 451.915 526.621
1830 0 102.143 14.1762 1448 58.1084 452.064 526.04
1831 0 102.494 12.83 1315 60.203 451.976 524.435
1832 0 108.276 14.0474 1521 58.142 452.586 523.204
1833 0 110.153 13.2543 1460 59.5438 452.633 519.489
1834 0 114.34 13.1363 1502 59.466 452.856 519.525
1835 1 68.0797 11.1487 759 58.5876 452.447 544.684
1836 0 67.1116 10.4155 699 58.9199 453.133 544.262
1837 0 69.1075 11.7498 812 56.4631 453.93 540.538
1838 0 72.1154 11.7728 849 56 453.59 540.907
1839 0 74.1164 12.8312 951 57.0883 453.667 538.526
1840 0 77.1164 12.6303 974 56.5811 453.999 540.066
1841 0 79.0604 12.7118 1005 56.9055 454.343 536.253
1842 0 82.1423 12.8436 1055 56.4408 454.442 536.118
1843 0 85.1409 13.8946 1183 55.481 454.664 533.452
1844 0 87.1106 12.9376 1127 56.3993 455.231 533.582
1845 0 90.0398 12.55 1130 56.8088 455.287 531.801
1846 0 94.0811 13.3927 1260 55.4214 455.397 529.633
1847 0 98.2363 12.9585 1273 55.6229 455.455 528.589
1848 0 101.16 13.6912 1385 54.9791 455.747 525.004
1849 0 106.089 13.451 1427 54.7274 456.078 525.297
1850 0 108.125 13.1052 1417 55.614 455.844 521.611
1851 0 109.181 13.299 1452 55.3423 456.156 519.209
1852 0 115.178 12.9018 1486 55.7254 456.208 517.62
1853 0 119.388 13.3849 1598 53.7741 456.556 515.466
1854 1 66.0826 9.91184 655 53.5832 456.879 545.235
1855 0 69.1345 11.0075 761 53.3233 456.319 542.135
1856 0 71.1172 10.9678 780 53.1179 455.983 540.895
1857 0 73.2208 11.1034 813 51.9114 456.086 539.84
1858 0 78.2139 12.7727 999 50.5385 454.661 537.399
1859 0 80.1373 12.3039 986 50.859 454.315 535.839
1860 0 82.1723 13.7516 1130 50.0035 454.238 535.858
1861 0 85.3125 12.8703 1098 50.7322 454.313 533.668
1862 0 87.3208 12.3911 1082 51.6054 454.337 531.301
1863 0 89.4546 13.1799 1179 51.1484 454.431 530.159
1864 0 92.3515 12.8098 1183 51.9121 455.08 529.249
1865 0 95.2414 13.5655 1292 51.5774 455.351 526.192
1866 0 97.3559 12.6751 1234 53.1686 454.858 524.153
1867 1 55.1288 11.3008 623 50.5666 455.223 548.722
1868 0 55.4431 10.9121 605 51.1719 454.929 548.902
1869 0 56.3292 10.0303 565 52.3009 454.358 546.575
1870 0 59.3429 12.3351 732 52.3279 453.952 547.195
1871 0 60.0971 13.5947 817 49.6879 453.1 540.923
1872 0 59.1104 12.4513 736 50.9321 452.385 540.201
1873 0 63.1295 11.4843 725 51.3945 452.401 540.017
1874 0 62.1763 11.7569 731 51.8016 452.16 541.134
1875 0 68.1331 12.5049 852 53.2031 451.67 542.039
1876 0 68.2161 12.7243 868 53.4389 451.995 541.565
1877 0 71.1463 12.2283 870 53.8172 451.641 538.577
1878 0 73.1242 13.2104 966 53.2764 452.089 538.36
1879 0 75.1537 13.2794 998 53.5701 452.441 537.616
1880 0 77.1605 13.3618 1031 53.8235 451.985 536.28
1881 0 77.1997 12.6425 976 54.9918 451.972 535.624
1882 0 81.1113 13.1794 1069 54.4341 452.214 535.229
1883 0 84.3058 13.7357 1158 53.7582 452.859 531.939
1884 1 46.128 10.5576 487 55.5667 452.949 551.177
1885 0 48.1185 10.5365 507 54.5858 453.126 549.485
1886 0 50.0461 12.0689 604 54.5464 452.455 550.233
1887 0 50.0508 12.1077 606 55.7492 452.487 551.276
1888 0 52.1306 12.4879 651 55.1751 451.994 550.877
1889 0 52.2457 12.7283 665 55.2917 451.28 549.311
1890 0 55.0284 12.9024 710 55.4014 450.585 549.08
1891 0 56.1091 13.2064 741 55.6869 450.814 548.942
1892 0 57.1017 13.0994 748 56.4906 451.242 549.572
1893 0 59.1109 12.7557 754 55.8488 450.912 546.439
1894 0 59.1274 12.1433 718 57.2981 451.123 544.975
1895 0 62.0876 13.2072 820 56.2476 450.473 545.987
1896 0 64.1544 13.7325 881 55.1737 451.026 544.965
1897 0 63.0686 13.192 832 57.3269 450.772 542.316
1898 0 67.201 12.9909 873 57.3998 451.148 543.709
1899 0 68.4078 13.9165 952 56.6744 450.54 540.873
1900 0 71.3968 13.488 963 57.9429 450.258 541.818
1901 0 73.2393 13.7768 1009 57.4797 450.003 541.222
1902 0 74.1509 13.9311 1033 58.0407 450.258 540.32
1903 0 79.1581 14.2247 1126 57.3606 449.846 540.783
1904 0 79.1353 14.1403 1119 58.2529 449.314 537.979
1905 0 83.1467 14.9615 1244 57.1431 449.618 537.383
1906 0 87.3109 13.8127 1206 58.2032 449.328 536.676
1907 0 89.2131 14.4486 1289 57.4461 449.862 536.676
1908 0 91.1122 13.895 1266 58.0498 449.761 536.367
1909 0 94.1204 14.1308 1330 58.106 449.349 534.44
1910 0 97.2433 13.8416 1346 58.3009 449.302 531.781
1911 0 101.329 13.846 1403 58.2103 448.903 531.163
1912 1 56.1153 11.5655 649 58.8798 448.336 553.032
1913 0 59.1375 12.1581 719 58.4214 448.565 552.029
1914 0 60.108 11.6291 699 58.7425 448.587 551.88
1915 0 62.2272 13.3221 829 57.1194 448.304 550.78
1916 0 65.2992 13.5989 888 56.8806 448.582 549.113
1917 0 66.2205 12.8963 854 58.0082 448.249 548.239
1918 0 68.1411 13.3987 913 58.1194 448.426 548.685
1919 0 71.1469 14.0133 997 57.9007 448.489 545.691
1920 0 76.4084 15.1554 1158 56.0095 449.673 540.146
1921 0 76.3702 15.2284 1163 56.9132 449.135 540.364
1922 0 76.2699 13.9111 1061 59.6211 448.706 541.014
1923 0 80.4367 13.6256 1096 59.9462 448.715 541.09
1924 0 81.2185 13.6053 1105 59.9321 448.431 541.693
1925 0 85.2845 13.367 1140 60.4035 447.918 538.928
1926 0 87.2698 13.4296 1172 60.4625 447.8 537.64
1927 0 90.3332 13.1513 1188 60.5657 447.282 536.677
1928 0 94.2086 13.693 1290 59.9512 447.612 535.103
1929 1 51.3231 11.1256 571 61.2382 447.573 554.947
1930 0 55.1369 10.9001 601 60.4825 447.854 554.727
1931 0 57.3304 11.7215 672 59.2396 448.028 554.609
1932 0 57.0541 12.6897 724 59.8536 447.856 551.932
1933 0 57.0541 12.6897 724 157.325 446.856 551.932
1934 0 62.1842 13.2027 821 59.1291 448.086 549.931
1935 0 64.1143 13.2108 847 59.4132 448.321 549.168
1936 0 66.1485 13.001 860 59.65 447.831 547.92
1937 0 70.2445 13.4957 948 58.1403 448.217 546.942
1938 0 72.1506 13.4025 967 57.6039 448.095 547.059
1939 0 73.1722 12.4227 909 59.7954 448.669 545.913
1940 0 76.3023 13.2237 1009 59.0188 448.548 542.61
1941 0 79.1423 12.964 1026 59.1784 448.834 542.61
1942 0 82.2304 12.9028 1061 59.2733 448.635 540.584
1943 0 85.2775 13.0515 1113 59.5202 448.742 539.642
1944 0 89.1676 13.6933 1221 57.1384 448.719 536.759
1945 1 49.1869 11.0598 544 57.0331 448.95 556.324
1946 0 53.1629 11.7187 623 56.0963 448.917 554.286
1947 0 55.0943 12.9051 711 55.1055 448.987 552.571
1948 0 54.1518 12.8528 696 55.9842 449.185 551.009
1949 0 56.3489 13.1502 741 55.1269 449.14 551.262
1950 0 59.1809 12.0816 715 56.2587 449.424 550.656
1951 0 62.1904 13.1371 817 54.6267 449.715 550.193
1952 0 63.3776 12.9541 821 54.5981 449.223 549.419
1953 0 64.2847 13.3469 858 54.4044 449.915 545.301
1954 0 67.3412 13.6172 917 53.5911 449.921 545.363
1955 0 69.2867 13.4514 932 53.4335 450.435 544.072
1956 0 73.194 13.3891 980 52.9959 450.86 542.592
1957 0 72.2601 13.5483 979 53.2482 450.889 539.723
1958 0 76.5563 13.3496 1022 52.7407 451.042 540.196
1959 0 79.3321 13.3868 1062 52.2213 450.91 538.063
1960 0 78.4574 12.886 1011 53.2354 450.715 536.477
1961 0 82.2448 12.8276 1055 52.7716 451.367 535.485
1962 0 84.319 12.7255 1073 53.2572 451.168 533.178
1963 0 89.344 13.1067 1171 52.3971 451.379 534.062
1964 0 90.3404 13.106 1184 52.6647 451.584 533.273
1965 0 93.4393 13.5596 1267 52.3291 452.008 529.123
1966 0 96.2496 13.6416 1313 52.0716 452.461 529.353
1967 0 98.565 12.3269 1215 53.1934 453.009 528.785
1968 0 103.405 13.4423 1390 51.7676 453.447 526.517
1969 0 108.465 13.5989 1475 51.4963 453.441 520.961
1970 0 108.474 13.4963 1464 52.5519 452.999 513.761
1971 0 113.6 12.7729 1451 53.1695 453.507 514.46
1972 1 61.6925 8.83413 545 53.6734 452.602 541.547
1973 0 65.617 9.86025 647 53.0263 453.437 540.048
1974 0 68.3323 10.727 733 52.0518 453.667 541.115
1975 0 68.3526 11.7772 805 52.4571 454.947 538.14
1976 0 70.5747 12.214 862 52.1694 455.046 534.63
1977 0 78.4679 15.0125 1178 47.9881 454.89 534.11
1978 0 79.5372 15.2884 1216 48.1061 454.556 532.101
1979 0 81.691 14.971 1223 48.8316 454.626 533.52
1980 0 82.3397 14.1001 1161 50.2773 454.767 534.927
1981 0 85.5856 13.799 1181 50.8069 455.885 528.978
1982 0 86.3958 13.4729 1164 51.5885 456.519 528.033
1983 0 87.4088 13.74 1201 51.7311 456.173 527.934
1984 0 90.7107 13.8572 1257 51.7749 456.029 523.213
1985 0 93.3475 14.6121 1364 51.2691 455.872 523.02
1986 0 97.3441 13.4677 1311 52.4531 456.259 520.744
1987 0 100.46 14.344 1441 51.3102 455.691 520.386
1988 0 104.513 13.7495 1437 51.9638 455.757 523.027
1989 0 106.353 13.3612 1421 53.0049 455.326 520.789
1990 0 107.567 13.6194 1465 53.2744 455.255 520.706
1991 0 109.17 13.5843 1483 53.5489 455.144 518.196
1992 0 115.194 14.2977 1647 52.7134 455.007 515.587
1993 0 119.275 13.7329 1638 53.4921 455.233 514.344
1994 0 122.207 14.1727 1732 53.1391 454.95 513.967
1995 0 125.434 14.398 1806 52.7348 455.545 512.394
1996 0 129.249 13.4778 1742 53.5901 455.685 510.802
1997 0 134.301 13.5889 1825 53.7101 455.168 503.313
1998 1 77.3058 10.1674 786 53.6145 455.233 529.314
1999 0 81.416 11.4474 932 52.0783 455.409 531.388
2000 0 83.1925 11.0106 916 52.9269 454.609 530.742
2001 0 85.3354 11.2263 958 52.7484 454.447 531.548
2002 0 89.2651 12.5469 1120 51.3098 454.167 528.348
2003 0 91.3702 12.1812 1113 51.5993 454.275 526.84
2004 0 95.3929 11.8667 1132 51.7765 453.614 527.711
2005 0 98.3252 11.9705 1177 52.3093 453.242 526.407
2006 0 102.287 13.0613 1336 51.387 453.379 523.35
2007 0 104.288 12.5709 1311 51.7704 453.335 524.449
2008 0 108.259 12.1376 1314 51.9992 453.602 520.59
2009 0 110.459 12.6019 1392 51.9325 453.407 519.544
2010 0 115.222 12.7406 1468 51.8699 453.007 516.048
2011 0 120.362 13.7502 1655 50.3414 453.177 517.282
2012 0 120.308 12.5677 1512 51.8161 453.089 513.89
2013 0 125.37 13.4562 1687 51.1808 452.659 511.838
2014 0 129.645 13.5678 1759 50.9358 452.09 510.792
2015 0 135.365 13.5486 1834 50.8342 452.006 508.551
2016 0 136.226 13.7565 1874 50.8997 451.735 508.335
2017 0 135.493 12.6575 1715 52.33 452.353 506.485
2018 1 85.2556 12.7616 1088 48.9007 452.123 535.381
2019 0 87.3361 12.6752 1107 49.458 452.026 533.358
2020 0 89.3355 12.7609 1140 49.507 451.968 533.146
2021 0 92.5397 13.1727 1219 49.5841 452.187 529.231
2022 0 94.3731 12.3976 1170 50.8145 452.276 527.826
2023 0 98.1916 12.496 1227 51.3741 451.482 525.87
2024 0 101.453 12.8138 1300 51.4815 451.369 525.671
2025 0 102.599 12.3881 1271 52.2297 451.626 524.655
2026 0 106.855 13.0458 1394 51.406 450.857 520.038
2027 0 108.346 13.2354 1434 51.5342 451.243 521.415
2028 0 112.705 13.7705 1552 51.5709 451.099 517.962
2029 0 114.545 13.4271 1538 52.2867 450.57 519.515
2030 0 120.689 13.0252 1572 52.2977 450.54 516.494
2031 0 120.713 12.2439 1478 53.8119 451.061 510.867
2032 0 126.63 13.9145 1762 52.5698 450.657 507.862
2033 0 130.881 13.6689 1789 53.1129 451.362 506.799
2034 0 132.899 13.3936 1780 53.8197 450.92 505.236
2035 1 74.6365 10.5712 789 51.4854 450.76 538.317
2036 0 74.8899 10.4153 780 52.2179 450.755 535.394
2037 0 76.4106 10.6399 813 51.7466 450.954 536.354
2038 0 78.43 11.5262 904 51.6504 450.308 535.179
2039 0 81.6458 12.0888 987 51.1368 450.685 532.828
2040 0 82.6481 12.5472 1037 52.324 450.632 530.258
2041 0 87.5276 12.9331 1132 51.0194 450.918 531.155
2042 0 88.5536 12.3428 1093 52.193 450.94 530.871
2043 0 91.4521 12.5749 1150 52.213 450.965 528.783
2044 0 93.3789 11.8121 1103 53.0045 450.649 529.727
2045 0 96.2953 12.8044 1233 52.5199 450.02 528.485
2046 0 99.444 12.1677 1210 53.0322 450.755 524.436
2047 0 101.571 12.0999 1229 53.795 450.493 522.911
2048 0 104.601 13.1643 1377 52.8468 450.359 523.442
2049 0 108.344 12.7649 1383 53.5336 449.941 523.03
2050 0 109.308 12.7987 1399 54.1351 449.565 522.648
2051 0 112.173 12.5967 1413 54.4168 449.593 523.312
2052 0 113.373 12.5603 1424 55.3778 449.457 516.438
2053 0 118.326 13.3952 1585 54.5079 449.372 518.539
2054 0 119.337 12.7203 1518 57.3735 449.348 518.182
2055 0 122.315 12.6395 1546 58.0453 449.281 510.891
2056 0 127.472 13.1794 1680 57.3012 448.926 511.143
2057 0 129.291 12.0735 1561 59.2812 449.2 509.094
2058 0 135.436 12.7884 1732 57.9053 449.458 508.355
2059 1 15.0038 7.79803 117 48.7949 450.838 570.359
2060 0 20.0444 7.23395 145 50.2276 449.986 568.393
2061 0 17.0075 5.99736 102 51.6275 450.157 569.039
2062 0 16.006 6.93492 111 50.3604 450.09 569.495
2063 0 12.0036 5.99821 72 50.2639 449.736 571.403
2064 0 17.0147 6.22991 106 49.8585 449.698 570.877
2065 0 14.0144 7.27823 102 49.9216 449.471 572.029
2066 0 15.0007 6.19973 93 48.957 449.237 572.473
2067 0 16.0107 5.62122 90 50.8667 448.689 570.789
2068 0 18.0085 6.49695 117 51.3675 447.803 569.966
2069 0 16.0136 5.74511 92 51.5435 448.402 570.935
2070 0 19.0026 7.26216 138 51.087 448.696 569.37
2071 0 15.0452 6.58018 99 52.0505 447.949 571.03
2072 0 15.0093 6.46266 97 52.0103 448.144 570.918
2073 0 10.0066 5.39644 54 51.2778 447.926 573.019
2074 1 128.182 12.0843 1549 61.3738 449.462 512.598
2075 0 131.309 12.8933 1693 60.1441 450.145 511.438
2076 0 135.333 12.8498 1739 60.1225 449.873 509.676
2077 0 138.306 12.9568 1792 60.5229 449.936 507.087
2078 1 88.2444 10.9922 970 57.9948 450.315 534.903
2079 0 89.263 10.105 902 57.99 450.831 534.5
2080 0 91.2141 11.6649 1064 56.5273 450.613 531.905
2081 0 92.1282 10.9521 1009 57.7483 451.284 527.249
2082 0 95.0766 11.233 1068 57.7275 451.601 526.148
2083 0 99.0732 11.7388 1163 59.0249 451.325 529.629
2084 0 101.259 12.7692 1293 58.1763 451.255 527.214
2085 0 107.106 12.3429 1322 58.4531 450.929 525.581
2086 0 108.169 12.8225 1387 58.1716 451.149 522.446
2087 0 109.196 12.4363 1358 59.0434 451.266 521.418
2088 0 114.339 12.4542 1424 59.1103 451.582 518.8
2089 0 116.192 13.1678 1530 58.5575 451.574 517.653
2090 0 120.272 12.5299 1507 59.2734 451.833 518.115
2091 0 123.384 12.4084 1531 59.6101 451.492 512.666
2092 0 126.282 12.8839 1627 58.4917 452.171 512.114
2093 0 130.405 12.9903 1694 58.6517 452.075 509.468
2094 0 134.397 13.0657 1756 58.3536 451.752 509.159
2095 0 137.31 13.4295 1844 57.9458 452.135 505.819
2096 1 83.1031 10.7818 896 56.4542 451.452 535.689
2097 0 84.2233 10.1278 853 57.4408 451.441 534.12
2098 0 89.1368 11.645 1038 55.7909 451.993 533.065
2099 0 90.1947 11.7302 1058 56.5104 453.515 530.649
2100 0 93.093 12.2028 1136 56.4331 454.002 529.148
2101 0 97.1587 12.4436 1209 55.8478 454.032 528.626
2102 0 100.205 12.0653 1209 55.7891 454.923 526.94
2103 0 101.167 12.4447 1259 56.2645 454.775 523.431
2104 0 105.157 12.8569 1352 55.7922 454.642 523.448
2105 0 106.177 12.6298 1341 56.39 454.979 522.04
2106 0 111.09 13.6196 1513 55.2756 455.159 520.966
2107 0 112.144 12.9566 1453 56.7054 454.883 517.008
2108 0 115.175 13.2842 1530 56.5516 455.212 516.477
2109 0 119.312 12.5051 1492 57.7111 455.176 516.226
2110 0 122.245 13.6284 1666 56.8517 455.127 514.108
2111 0 126.248 13.0616 1649 57.2784 455.112 512.525
2112 0 128.261 12.919 1657 58.3096 455.514 509.859
2113 0 131.273 13.1634 1728 58.3652 455.226 507.282
2114 0 135.208 13.8379 1871 57.7189 455.338 507.073
2115 0 136.286 12.7746 1741 59.1591 455.162 505.287
2116 0 142.223 13.3733 1902 57.9522 455.378 504.09
2117 1 84.1833 10.3346 870 57.5805 455.403 532.583
2118 0 88.2843 12.086 1067 56.6617 455.012 530.12
2119 0 88.0988 11.0898 977 57.9191 454.293 530.735
2120 0 92.0985 12.1066 1115 57.3202 454.526 525.678
2121 0 93.0946 12.2349 1139 57.3433 455.018 525.973
2122 0 98.0994 13.5373 1328 56.0301 454.569 525.816
2123 0 101.109 13.1739 1332 56.4414 454.443 523.621
2124 0 103.272 12.9657 1339 57.2143 454.123 520.937
2125 0 107.112 13.6867 1466 55.7913 453.991 521.607
2126 0 108.145 13.112 1418 56.2228 453.037 520.172
2127 0 111.157 12.235 1360 57.0941 453.071 519.1
2128 0 116.084 13.1456 1526 56.2333 452.689 515.416
2129 0 119.188 13.4493 1603 55.9021 452.236 515.403
2130 0 121.118 13.6148 1649 56.1662 452.03 512.713
2131 0 124.223 13.2826 1650 56.2648 452.397 512.431
2132 0 129.288 13.6826 1769 56.1577 452.508 509.922
2133 0 132.233 13.2645 1754 56.5553 451.8 509.952
2134 0 136.248 14.7012 2003 55.3235 452.498 507.42
2135 0 140.161 14.0981 1976 55.8902 452.221 505.503
2136 0 143.223 14.2854 2046 55.8622 452.143 502.804
2137 0 146.198 13.8852 2030 56.0773 451.768 501.063
2138 0 152.259 14.4425 2199 55.8108 451.762 496.247
2139 1 89.0903 12.2236 1089 54.3866 451.669 534.112
2140 0 91.0888 12.7129 1158 54.7409 451.898 532.864
2141 0 94.1965 12.8243 1208 55.2012 451.182 530.094
2142 0 98.2002 12.6476 1242 55.3655 451.337 529.555
2143 0 103.14 13.5641 1399 54.3002 451.092 527.684
2144 0 103.292 12.5469 1296 55.8912 451.387 527.187
2145 0 106.211 13.5768 1442 55.396 450.999 525.014
2146 0 109.257 13.5826 1484 55.4616 450.475 524.933
2147 0 112.341 13.3255 1497 55.9659 450.545 522.365
2148 0 114.384 13.6645 1563 56.1657 450.847 520.948
2149 0 117.456 13.9882 1643 56.5551 451.072 520.637
2150 0 121.275 13.1024 1589 57.815 450.896 518.605
2151 0 124.255 13.4723 1674 57.8996 451.128 518.247
2152 0 127.287 14.4006 1833 57.3399 451.175 514.258
2153 0 130.261 13.5344 1763 58.177 451.177 514.109
2154 0 135.411 14.2307 1927 57.6502 450.702 511.858
2155 1 75.273 10.9867 827 58.0411 450.963 544.005
2156 0 77.2183 11.6164 897 56.6979 450.404 541.957
2157 0 78.1269 12.0957 945 57.8243 450.388 542.117
2158 0 82.1278 13.3085 1093 56.6441 450.102 540.691
2159 0 83.2772 12.9928 1082 57.5065 450.646 538.158
2160 0 85.2496 13.6892 1167 56.174 450.574 539.822
2161 0 88.3466 13.5602 1198 57.1436 450.701 536.015
2162 0 92.3945 13.4207 1240 57.0879 450.76 536.103
2163 0 94.419 14.1603 1337 56.5961 450.613 534.536
2164 0 96.3816 12.5854 1213 58.4031 449.832 534.953
2165 0 99.4285 13.6279 1355 58.2428 449.489 530.343
2166 0 104.342 13.4462 1403 58.2701 450.333 531.656
2167 1 60.2893 12.1746 734 58.4755 449.561 554.218
2168 0 60.166 11.0029 662 60.1737 449.542 553.912
2169 0 62.2728 12.3489 769 59.6515 449.56 552.421
2170 0 63.1727 12.9961 821 59.9306 449.596 550.493
2171 0 64.3366 13.7402 884 59.1991 449.417 548.236
2172 0 66.3127 13.4967 895 59.4771 449.276 547.488
2173 0 69.3815 13.5483 940 59.5234 449.229 545.45
2174 0 71.441 13.8016 986 59.6734 449.019 544.905
2175 0 72.4624 13.8693 1005 59.803 449.24 543.385
2176 0 76.4482 14.3627 1098 58.6703 449.993 542.832
2177 0 77.2944 13.4809 1042 61.094 450.147 540.369
2178 0 78.3299 13.7751 1079 61.1084 450.084 538.282
2179 0 81.5272 14.3633 1171 59.9112 449.954 538.909
2180 0 84.4743 14.1226 1193 61.1852 450.096 536.778
2181 0 86.4648 14.2139 1229 61.2937 450.234 535.995
2182 0 89.4236 14.2803 1277 60.8371 449.884 537.268
2183 0 92.2881 14.2055 1311 61.5553 449.674 536.899
2184 0 96.2619 14.0346 1351 61.4693 450.21 535.677
2185 0 97.3573 14.1438 1377 61.7829 450.171 532.89
2186 0 103.32 14.218 1469 61.2505 450.535 532.014
2187 0 103.228 14.0466 1450 62.491 450.885 530.213
2188 0 108.252 14.9097 1614 61.5898 450.999 528.574
2189 0 110.2 14.5645 1605 62.1732 451.396 527.563
2190 0 114.294 15.1802 1735 61.1735 451.098 526.078
2191 0 115.277 14.3654 1656 63.0791 451.551 524.448
2192 0 120.257 14.8599 1787 62.4359 451.365 521.044
2193 0 122.207 14.9991 1833 62.5963 451.883 520.62
2194 0 128.144 14.3822 1843 62.9582 452.086 517.308
2195 0 131.238 14.9651 1964 62.4898 452.445 515.237
2196 0 136.176 15.5166 2113 61.283 452.439 513.752
2197 1 77.1835 12.9561 1000 63.295 452.317 542.473
2198 0 80.1985 12.7434 1022 64.9344 452.488 537.605
2199 0 83.0819 14.0103 1164 63.4914 452.763 536.979
2200 0 86.1923 13.8876 1197 62.5572 452.936 535.893
2201 0 86.1905 13.737 1184 63.6444 452.996 531.97
2202 0 91.2418 14.5657 1329 62.0391 452.583 532.003
2203 0 95.262 13.9195 1326 63.1237 452.004 528.873
2204 0 96.1961 14.3041 1376 63.1323 452.406 528.023
2205 0 101.267 14.8321 1502 62.1145 452.643 527.238
2206 0 105.224 14.6069 1537 62.2349 452.648 523.737
2207 0 108.23 14.5708 1577 62.4014 453.168 522.94
2208 0 109.217 14.3934 1572 63.4758 453.119 522.249
2209 0 112.387 14.281 1605 63.7464 453.776 519.064
2210 0 115.224 13.8859 1600 64.425 453.556 517.101
2211 0 121.236 15.1192 1833 62.2149 454.168 512.529
2212 0 126.211 14.9591 1888 61.2797 454.209 512.525
2213 0 130.206 14.6152 1903 62.2785 453.875 510.878
2214 0 135.287 14.946 2022 61.2735 454.504 508.462
2215 0 138.359 14.6141 2022 61.9926 454.492 506.44
2216 0 145.326 15.3035 2224 61.1021 454.616 502.611
2217 1 88.1617 11.9893 1057 62.5705 454.439 530.983
2218 0 89.1091 12.7484 1136 62.2755 455.011 528.883
2219 0 92.0768 13.4236 1236 61.6675 454.696 527.674
2220 0 95.1582 13.1675 1253 62.6201 454.438 525.767
2221 0 99.2603 13.3588 1326 62.9525 454.193 525.474
2222 0 102.183 13.5835 1388 62.8076 454.552 522.949
2223 0 105.143 13.5245 1422 62.8875 454.729 521.953
2224 0 108.347 14.4074 1561 62.1403 455.126 521.048
2225 0 110.247 13.9687 1540 63.2091 454.491 517.358
2226 0 114.278 13.8171 1579 63.7505 454.397 514.373
2227 0 117.242 13.5958 1594 64.0916 454.746 514.018
2228 0 122.411 13.9367 1706 63.6829 455.079 511.011
2229 0 127.249 14.0433 1787 64.7459 455.082 510.41
2230 0 131.269 14.497 1903 64.0909 454.846 508.378
2231 0 135.255 13.5448 1832 65.8008 454.851 503.773
2232 0 137.281 14.3356 1968 64.4411 454.737 502.738
2233 0 142.242 14.2222 2023 64.4251 454.287 500.937
2234 0 145.377 13.9844 2033 65.6134 454.188 497.3
2235 0 151.433 14.31 2167 64.6585 454.04 498.221
2236 0 156.426 14.3582 2246 64.9528 453.74 492.454
2237 0 161.48 14.2618 2303 65.0395 453.647 491.414
2238 0 168.459 13.7482 2316 65.3152 453.205 490.712
2239 0 173.521 14.8858 2583 64.2416 453.379 482.957
2240 1 100.359 10.7913 1083 65.9437 453.521 522.187
2241 0 105.239 11.7732 1239 64.5424 453.575 520.01
2242 0 108.203 12.6522 1369 63.5573 453.307 519.2
2243 0 110.106 12.4788 1374 64.0939 453.588 516.514
2244 0 113.24 13.5818 1538 62.5819 454.179 513.486
2245 0 117.235 13.7331 1610 62.5043 453.246 510.931
2246 0 121.172 12.9321 1567 63.5182 452.761 510.02
2247 0 124.341 13.4309 1670 62.8413 453.168 508.72
2248 0 129.282 13.0877 1692 63.1407 452.831 504.739
2249 0 134.323 13.1325 1764 63.0873 452.627 504.371
2250 0 140.415 13.4672 1891 62.4659 452.653 502.059
2251 0 144.629 13.0887 1893 62.9989 452.666 498.81
2252 0 149.599 14.4186 2157 61.561 452.995 497.156
2253 0 153.371 13.9922 2146 62.1253 452.57 494.419
2254 0 157.383 14.0867 2217 62.3608 452.55 493.765
2255 0 163.312 13.961 2280 62.3518 452.362 490.576
2256 0 166.385 13.8414 2303 62.7017 452.637 487.889
2257 0 172.538 13.6955 2363 62.7952 452.171 485.405
2258 0 176.566 12.9696 2290 63.8122 452.378 478.613
2259 0 186.417 14.1403 2636 61.7075 452.477 479.12
2260 0 189.414 13.8585 2625 62.6084 452.646 476.728
2261 0 196.434 14.0811 2766 62.5304 452.608 472.967
2262 0 203.476 14.3506 2920 61.8812 453.043 469.7
2263 0 207.279 13.4022 2778 63.2358 452.46 466.039
2264 0 213.533 13.7871 2944 62.6658 452.347 463.225
2265 0 221.366 13.9091 3079 62.3586 452.297 461.462
2266 1 40.0539 7.51487 301 49.2492 451.934 555.681
2267 0 47.0492 8.90558 419 51.1241 453.024 555.504
2268 0 50.1262 10.0746 505 50.6158 452.327 553.212
2269 0 50.0939 10.3406 518 49.5328 451.884 551.23
2270 0 51.1443 10.6561 545 49.5963 452.084 552.963
2271 0 51.1204 9.72214 497 50.7062 452.225 553.362
2272 0 51.2289 9.68204 496 50.8185 452.794 550.948
2273 0 53.2004 9.5488 508 50.75 452.89 550.805
2274 0 53.2462 9.84107 524 50.834 452.788 553.038
2275 0 53.2141 9.82822 523 50.2161 453.13 551.373
2276 0 56.1826 10.7151 602 49.4884 453.058 550.352
2277 0 55.2755 8.86468 490 52.5592 453.106 550.439
2278 0 56.1452 9.19045 516 51.7674 452.731 550.556
2279 0 57.2536 10.2526 587 50.6593 453.348 549.879
2280 1 40.211 9.15172 368 51.9185 453.584 557.416
2281 0 39.1938 9.4913 372 51.8495 452.815 558.831
2282 0 43.0771 9.26247 399 50.6842 452.554 558.684
2283 0 41.2333 8.51254 351 51.5242 451.821 558.801
2284 0 41.2461 10.1585 419 51.0668 451.998 557.874
2285 0 42.2518 10.5084 444 50.9865 452.426 558.207
2286 0 42.2445 11.3151 478 50.3117 452.203 557.195
2287 0 42.2706 10.7876 456 55.6667 452.693 557.509
2288 0 43.2261 11.0119 476 55.6828 452.746 556.637
2289 0 45.3361 10.5435 478 55.8285 452.387 558.169
2290 0 43.259 11.4889 497 55.7565 452.742 555.785
2291 0 45.2391 10.5219 476 56.9055 452.231 557.269
2292 0 44.2689 12.4241 550 54.8491 452.305 557.916
2293 0 46.3042 10.5606 489 57.3988 452.358 558.364
2294 0 45.1385 11.4979 519 56.9557 452.252 557.397
2295 0 46.3306 11.8712 550 56.3709 452.929 557.056
2296 0 47.2697 11.6354 550 57.0091 452.533 557.951
2297 0 46.1713 12.6702 585 56.1658 452.315 558.224
