time division length width area intensity CMx CMy
0 0 62.0462 13.216 820 70.9646 380.083 553.738
1 0 64.0368 12.2273 783 73.47 379.469 553.327
2 0 67.0907 13.2209 887 72.8038 379.291 552.386
3 0 69.158 12.9558 896 73.9955 379.289 550.828
4 0 70.1139 13.1786 924 73.9545 379.015 549.287
5 0 73.148 12.9464 947 73.7191 378.223 547.819
6 0 75.2057 12.6985 955 73.8921 378.417 548.263
7 0 80.2725 12.5323 1006 74.0845 378.58 544.446
8 1 42.0804 10.1948 429 76.2704 379.133 562.287
9 0 43.1097 11.7375 506 75.6462 379.069 561.387
10 0 44.2278 9.85804 436 79.3234 379.67 561.917
11 0 46.0814 12.3911 571 76.0963 379.559 560.168
12 0 47.0612 12.2394 576 77.4792 379.632 558.408
13 0 48.0693 12.2115 587 77.3884 379.376 557.796
14 0 53.083 12.7725 678 74.2301 380.071 555.575
15 0 54.1039 13.8622 750 72.7613 380.101 554.523
16 0 54.1744 13.0135 705 74.7135 380.101 553.935
17 0 55.1327 13.1501 725 74.0166 380.359 553.808
18 0 58.1087 13.5952 790 71.8127 380.354 552.306
19 0 58.0289 13.8207 802 71.3217 380.268 552.071
20 0 60.0502 13.5553 814 71.8636 380.613 552.1
21 0 62.0992 13.8005 857 71.7725 380.712 550.537
22 0 64.1033 13.8214 886 72.3318 380.751 550.31
23 0 66.1041 13.9326 921 72.6243 380.991 550.767
24 0 69.0558 14.9589 1033 71.3543 380.919 549.437
25 0 71.077 14.3788 1022 73.002 381.046 547.469
26 0 74.1162 14.5447 1078 73.2876 381.049 546.18
27 0 75.0702 14.573 1094 74.4406 380.91 544.494
28 0 76.1281 13.9896 1065 75.6695 381.013 545.187
29 0 80.095 14.3455 1149 75.255 381.336 543.299
30 0 83.1443 14.3846 1196 75.3177 381.332 542.412
31 0 85.0837 14.809 1260 74.7675 381.597 542.178
32 0 88.1148 14.0839 1241 76.3884 381.762 539.956
33 0 92.0675 14.6957 1353 74.4642 381.97 540.149
34 1 47.1256 11.3738 536 75.7202 382.037 561.026
35 0 46.0721 11.2867 520 76.3442 381.635 559.337
36 0 48.0333 11.3463 545 76.5101 381.327 559.543
37 0 50.0348 12.2515 613 75.1142 381.657 558.724
38 0 52.0487 13.2952 692 73.3194 381.762 557.049
39 0 53.0239 12.9376 686 74.035 380.746 555.972
40 0 56.1188 14.202 797 70.9849 381.115 554.664
41 0 57.0461 13.1297 749 72.243 381.118 554.064
42 0 58.0385 13.2498 769 72.1951 381.446 552.384
43 0 61.0317 12.9933 793 71.6709 381.325 552.696
44 0 62.0433 13.3939 831 71.1986 381.504 551.954
45 0 64.0339 12.8838 825 71.2024 381.789 551.634
46 0 69.1034 14.1527 978 68.225 381.802 550.786
47 0 70.0306 13.5369 948 70.2859 381.734 547.674
48 0 72.0814 12.4304 896 71.6161 381.552 546.879
49 0 75.1355 13.1097 985 70.4294 381.675 546.092
50 0 79.0925 13.3135 1053 69.566 381.278 543.652
51 1 40.0551 11.0348 442 71.4344 382.038 561.188
52 0 44.0327 11.6277 512 69.5469 381.477 561.125
53 0 45.0591 11.4516 516 70.75 381.442 559.793
54 0 45.0244 10.9496 493 69.3185 380.876 559.726
55 0 47.0743 11.2376 529 63.087 380.834 558.624
56 0 48.0191 13.099 629 61.876 381.142 557.27
57 0 50.0712 12.8218 642 62.5654 381.069 557.098
58 0 51.1769 13.6194 697 62.3587 380.897 555.102
59 0 53.0563 12.4019 658 63.6109 380.88 555.919
60 0 54.0866 11.722 634 64.2871 381.719 556.525
61 0 54.1472 12.8354 695 63.7396 381.847 554.541
62 0 58.1025 14.5433 845 61.8734 381.692 552.116
63 0 60.0927 13.5291 813 62.8167 381.001 552.914
64 0 61.1937 13.6452 835 63.4192 381.37 551.164
65 0 63.0695 13.0015 820 64.5756 381.538 549.668
66 0 66.0526 12.2781 811 64.7127 381.456 549.53
67 0 68.1399 14.4556 985 62.5056 381.961 547.975
68 0 69.0356 13.312 919 64.5147 382.355 547.432
69 0 72.0972 12.497 901 64.636 382.925 547.362
70 0 73.1126 13.6365 997 64.2046 382.688 543.818
71 0 78.1229 13.658 1067 63.3299 382.177 544.164
72 0 81.1255 13.7565 1116 63.5726 382.718 541.97
73 0 81.0475 12.8937 1045 65.0689 382.938 539.897
74 0 83.1545 13.9139 1157 64.0242 382.726 539.558
75 0 88.0739 13.3524 1176 64.7542 383.787 536.471
76 0 92.1391 15.2053 1401 62.1185 383.61 537.141
77 0 90.1216 12.6496 1140 66.7825 383.625 533.475
78 0 95.1345 13.5597 1290 65.0388 383.428 533.638
79 0 98.0828 13.091 1284 65.0646 383.916 534.029
80 0 103.161 13.9782 1442 64.1817 384.33 529.544
81 0 106.266 14.3319 1523 64.0893 384.687 528.909
82 0 109.218 14.2833 1560 64.366 384.755 526.74
83 0 113.204 14.7874 1674 64.175 384.803 523.603
84 0 116.155 14.4204 1675 65.0143 384.847 518.518
85 0 119.177 14.3568 1711 65.0362 384.854 517.164
86 1 52.0887 11.0197 574 63.845 384.908 552.948
87 0 55.0661 12.712 700 62.0057 385.131 550.193
88 0 56.0513 13.0595 732 60.2828 385.112 548.281
89 0 59.0586 14.6634 866 57.4018 385.488 547.348
90 0 61.0645 14.4765 884 58.3088 385.77 544.623
91 0 64.0457 13.0844 838 64.1062 386.448 544.544
92 0 68.1162 13.1246 894 67.0951 387.002 541.96
93 0 70.0794 13.5275 948 66.1793 386.874 540.697
94 0 71.0477 13.878 986 64.211 386.753 541.43
95 0 74.0765 13.7965 1022 62.4638 386.484 540.287
96 0 79.0809 14.5927 1154 60.318 386.781 538.065
97 0 81.1923 13.9545 1133 84.4422 386.605 536.582
98 0 82.1336 13.2954 1092 61.9817 385.992 535.311
99 0 86.1566 13.4523 1159 62.1001 386.282 533.178
100 1 45.0687 9.9182 447 62.7987 387.02 554.993
101 0 47.0509 11.5195 542 59.286 387.424 555.934
102 0 47.0267 12.4397 585 59.2034 387.325 552.923
103 0 51.0526 12.3402 630 59.1857 387.413 552.508
104 0 52.0538 12.4487 648 60.8133 387.29 550.261
105 0 53.0548 11.5729 614 63.7003 387.894 547.734
106 0 54.1565 12.7593 691 63.1071 388.069 547.881
107 0 55.0428 12.3359 679 64.0059 387.694 547.763
108 0 58.0732 12.4326 722 62.5055 387.65 546.716
109 0 60.0433 12.9906 780 59.6795 388.396 545.609
110 0 59.0596 12.716 751 58.1198 387.931 544.268
111 0 62.0514 14.1657 879 56.4972 387.614 542.685
112 0 64.0924 13.3089 853 57.6928 387.455 542.989
113 0 67.0501 12.5876 844 57.5071 387.617 543.168
114 0 69.0703 12.538 866 57.5647 387.291 541.313
115 0 72.0318 12.5778 906 57.9603 387.108 536.914
116 1 39.0354 9.83723 384 56.9245 387.362 555.534
117 0 39.0237 10.1989 398 56.9523 387.555 555.06
118 0 39.0188 12.0455 470 55.4064 387.249 554.034
119 0 42.0497 12.0334 506 55.7747 387.376 553.245
120 0 44.0269 10.857 478 55.9435 387.205 553.038
121 0 43.104 11.2983 487 56.4887 386.199 551.918
122 0 46.1584 12.6521 584 55.3185 385.95 550.05
123 0 44.1161 11.6738 515 57.0447 386.105 551.588
124 0 45.1598 11.2711 509 57.9823 386.024 551.631
125 0 49.119 12.032 591 57.3621 386.602 549.271
126 0 47.0571 11.1142 523 58.9446 386.12 549.01
127 0 50.0797 12.54 628 57.2755 386.298 549.188
128 0 53.0918 11.9416 634 58.0584 386.424 548.517
129 0 53.1007 12.1467 645 58.9659 386.887 546.958
130 0 54.0965 11.4425 619 60.063 386.426 547.276
131 0 56.0873 11.91 668 59.4386 386.404 547.805
132 0 57.0594 12.6009 719 59.7566 385.69 547.011
133 0 60.088 12.0656 725 59.5959 385.404 547.385
134 0 61.074 12.1001 739 60.1922 385.503 545.188
135 0 63.0215 12.8528 810 60.0543 385.689 544.127
136 0 65.0504 13.7432 894 59.4139 385.98 541.054
137 0 67.036 13.8284 927 59.7756 385.736 539.507
138 0 67.0736 12.3894 831 61.4224 385.759 540.909
139 0 71.1398 14.0428 999 59.3073 385.292 540.293
140 0 72.1814 12.1222 875 62.016 385.058 538.986
141 0 74.1508 13.2163 980 61.2582 384.954 538.907
142 0 76.1629 13.4186 1022 60.5842 384.87 538.6
143 0 81.2496 14.2893 1161 59.5771 385.164 535.851
144 0 82.1475 12.9645 1065 61.7737 384.423 534.35
145 1 42.0884 11.262 474 60.0359 384.76 554.011
146 0 41.1844 11.315 466 60.5236 384.586 553.182
147 0 45.0715 11.4707 517 59.1025 385.19 552.652
148 0 44.135 10.8757 480 60.1292 385.094 552.296
149 0 48.0817 10.8149 520 59.6731 385.104 551.452
150 0 48.1245 11.3664 547 60.1243 385.799 549.596
151 0 48.0985 11.3725 547 60.1865 385.92 550.356
152 0 52.1002 12.3416 643 58.6594 385.944 549.843
153 0 51.0551 11.3799 581 60.4251 385.551 549.208
154 0 54.1315 11.6753 632 60.6203 385.94 548.046
155 0 53.0749 12.6425 671 60.4203 385.475 548.814
156 0 54.1717 12.165 659 60.9332 385.578 547.306
157 0 57.1063 13.0458 745 59.557 386.068 546.574
158 0 59.1418 11.6669 690 61.3449 386.245 545.065
159 0 58.2444 11.8123 688 61.3285 386.359 543.647
160 0 62.1829 11.6592 725 60.8248 386.466 545.895
161 0 63.2881 12.6406 800 59.8188 386.488 544.644
162 0 64.1378 10.8516 696 61.9339 386.093 543.228
163 0 67.3012 12.4812 840 60.7036 386.318 541.668
164 0 69.2158 13.9852 968 59.2552 386.561 540.187
165 0 69.2954 12.6127 874 60.9096 386.572 537.585
166 0 73.3186 13.4072 983 60.2299 387.092 536.782
167 0 76.299 12.5034 954 61.3753 387.192 536.75
168 0 79.1675 13.7304 1087 60.2042 386.932 535.637
169 0 79.2163 13.4694 1067 60.9906 387.104 534.966
170 1 41.1341 9.89447 407 61.6609 386.995 552.958
171 0 43.1339 9.76031 421 146.207 386.91 552.401
172 0 49.0867 13.3234 654 57.8486 387.456 550.761
173 0 47.0234 10.7606 506 61.3597 387.879 550.124
174 0 48.0511 11.3837 547 61.5192 388.252 548.731
175 0 52.109 12.6082 657 60.242 388.385 547.901
176 0 52.0324 13.3763 696 59.8865 388.504 547.43
177 0 54.041 14.0264 758 59.5607 388.615 545.024
178 0 55.0336 13.0102 716 60.8114 388.317 545.399
179 0 58.09 13.3414 775 60.2813 388.286 544.448
180 0 58.2379 13.1529 766 61.0418 388.277 544.315
181 0 60.1309 13.4041 806 61.4293 388.576 543.617
182 0 62.1197 13.4257 834 61.5707 388.621 542.522
183 0 64.1614 13.4505 863 61.3279 388.711 540.657
184 0 68.0878 13.4092 913 61.1796 389 541.713
185 0 69.0893 14.0109 968 61.0165 389.278 539.002
186 0 71.1627 14.9938 1067 60.0197 389.583 539.158
187 0 74.2256 13.9844 1038 61.42 389.282 536.279
188 0 75.1318 13.829 1039 62.052 389.79 535.039
189 0 78.1218 13.6454 1066 62.4916 390.048 534.088
190 0 82.1971 14.3557 1180 61.8254 389.875 532.45
191 1 43.0533 10.1967 439 65.082 390.287 551.749
192 0 44.0767 11.2531 496 65.2056 390.893 550.69
193 0 47.1034 11.8887 560 62.7196 390.771 549.262
194 0 48.0488 13.5071 649 60.1418 390.72 547.915
195 0 49.0596 13.1065 643 61.3079 390.467 546.392
196 0 50.0446 12.0493 603 63.6468 390.045 544.995
197 0 54.0974 12.4775 675 63.2222 389.996 544.77
198 0 55.097 13.8483 763 63.5321 390.11 542.561
199 0 57.0591 12.6711 723 64.5256 390.447 544.534
200 0 59.0363 13.5849 802 63.6022 390.718 542.333
201 0 61.0314 13.7962 842 63.2435 391.113 541.365
202 0 62.0487 13.9245 864 62.8611 391.244 540.483
203 0 65.1128 13.3614 870 63.4954 390.686 539.542
204 0 66.1161 15.3064 1012 61.6868 391.198 538.397
205 0 70.1967 13.334 936 63.2265 391.378 537.73
206 0 69.1436 12.597 871 65.9862 391.315 536.351
207 0 74.1312 14.2315 1055 62.4332 391.349 536.086
208 0 75.1064 13.3544 1003 64.8953 390.924 532.943
209 0 78.0974 13.9185 1087 64.057 390.764 532.806
210 0 81.1378 14.5308 1179 63.5131 390.807 531.212
211 0 84.0276 14.0311 1179 64.2383 390.086 528.701
212 1 45.3016 10.9709 497 64.3964 390.217 548.61
213 0 46.0148 11.3876 524 64.7023 390.435 548.721
214 0 50.0206 12.215 611 63.2537 390.175 547.637
215 0 48.0448 12.301 591 64.2047 389.973 547.256
216 0 52.1077 13.7024 714 61.8473 388.776 546.126
217 0 53.0429 12.9518 687 63.4381 388.852 544.828
218 0 53.1009 12.7305 676 64.2825 389.021 543.641
219 0 55.0856 12.5804 693 64.1126 388.799 544.134
220 0 57.1347 12.9694 741 63.7679 388.788 543.009
221 0 60.0508 13.7717 827 62.1874 388.513 542.924
222 0 61.0636 14.706 898 61.5256 388.293 540.03
223 0 65.0624 14.3247 932 61.6159 388.363 540.385
224 0 67.0811 13.9085 933 62.3923 388.809 539.727
225 0 69.0722 13.7972 953 62.043 389.029 539.895
226 0 72.084 13.5952 980 63.3357 388.486 536.724
227 0 73.0567 13.469 984 63.4136 388.642 536.921
228 0 76.0664 13.9615 1062 62.9162 388.234 537.562
229 0 80.1076 13.2072 1058 64.4641 388.406 534.009
230 0 81.0982 13.9954 1135 64.5339 388.378 532.337
231 0 84.0869 14.2472 1198 64.7053 388.007 530.407
232 1 43.1583 12.0255 519 64.501 388.455 552.175
233 0 44.1606 13.1565 581 63.5766 387.606 551.145
234 0 45.178 13.6349 616 63.2695 387.534 550.464
235 0 46.1674 12.0865 558 66 387.746 550.312
236 0 47.1904 12.7992 604 65.0132 387.899 550.29
237 0 49.0996 12.9736 637 64.978 387.925 548.903
238 0 50.4215 13.0103 656 65.247 387.341 548.626
239 0 52.0378 13.1635 685 64.3942 388.134 547.236
240 0 54.0705 12.8906 697 64.2267 387.43 548.118
241 0 56.0685 13.5905 762 63.164 387.656 548.576
242 0 56.1016 12.62 708 65.5452 387.921 546.291
243 0 59.0675 13.3407 788 63.802 387.409 545.626
244 0 59.0413 14.7863 873 62.764 387.06 545.537
245 0 60.1078 14.2411 856 63.5397 387.563 546.363
246 0 63.0819 13.0782 825 64.6739 387.742 544.959
247 0 65.0184 14.5497 946 63.1543 387.22 543.881
248 0 64.0249 13.7447 880 64.5807 387.21 543.176
249 0 66.1186 13.3548 883 65.0895 387.053 542.651
250 0 70.045 14.1338 990 63.5697 387.047 538.404
251 0 72.0321 13.73 989 64.003 387.093 538.875
252 0 75.0381 13.9396 1046 63.3461 386.985 537.092
253 0 76.1265 12.847 978 64.7945 387.356 536.054
254 0 81.1029 13.2054 1071 63.3838 386.739 537.19
255 0 84.2038 13.4555 1133 63.1165 386.958 534.785
256 0 88.047 14.3219 1261 61.7875 387.148 532.757
257 1 43.0518 10.1273 436 64.8486 386.622 554.365
258 0 45.0999 11.0422 498 63.9418 386.167 553.181
259 0 47.0873 13.5281 637 60.562 386.333 552.688
260 0 48.0574 11.6735 561 63.2353 386.162 553.089
261 0 48.0417 12.5932 605 62.8231 385.793 552.302
262 0 50.031 13.1718 659 61.9256 385.838 551.364
263 0 52.0687 12.253 638 62.8276 385.748 550.569
264 0 54.0854 12.6467 684 62.2632 385.716 549.273
265 0 56.0471 12.775 716 62.0656 385.918 548.862
266 0 57.0998 12.3643 706 63.3329 385.568 548.333
267 0 60.4726 11.6747 706 64.7748 385.33 544.076
268 0 61.0889 12.8829 787 63.3011 385.922 544.648
269 0 65.025 14.3791 935 61.3155 386.265 543.212
270 0 65.0403 12.5922 819 64.5043 386.679 543.386
271 0 67.0344 12.7397 854 64.2178 386.851 543.725
272 0 70.0707 14.2428 998 62.8697 386.503 539.648
273 0 74.0585 14.5021 1074 62.2626 386.065 539.344
274 0 78.0291 13.6488 1065 63.6263 386.682 539.626
275 0 78.198 14.5272 1136 63.1276 386.673 537.601
276 0 82.0404 14.1881 1164 63.6409 386.99 537.36
277 1 43.0384 10.9437 471 67.0064 386.703 554.355
278 0 45.0558 11.3415 511 66.0313 386.744 553.828
279 0 45.0332 11.3916 513 67.0955 387.257 551.778
280 0 48.0772 12.6463 608 65.8931 386.982 550.505
281 0 50.0287 13.1125 656 65.4497 387.224 549.906
282 0 52.1629 13.8221 721 64.6741 387.515 548.917
283 0 54.1534 13.0555 707 65.0354 387.327 548.337
284 0 56.078 12.4826 700 66.6129 387.211 547.673
285 0 56.0667 13.3234 747 65.6292 387.098 547.39
286 0 60.0844 14.7958 889 63.4792 387.927 545.414
287 0 62.1187 13.8284 859 64.1548 387.744 546.97
288 0 63.0779 13.6022 858 65.1084 388.141 545.177
289 0 64.0722 13.0634 837 65.9283 388.099 542.571
290 0 69.0915 14.5315 1004 63.0966 388.878 541.802
291 0 72.0434 13.4363 968 64.312 389.12 539.783
292 0 73.0699 15.1225 1105 62.6932 389.224 538.424
293 0 76.0489 14.0567 1069 63.739 388.79 537.782
294 1 43.0142 11.3451 488 64.2357 389.301 554.043
295 0 43.016 11.6003 499 65.0421 389.269 552.497
296 0 44.0759 12.2516 540 63.8333 389.719 552.009
297 0 46.0361 12.8378 591 63.4704 389.86 550.484
298 0 48.0371 12.1156 582 64.6478 390.139 549.421
299 0 48.0533 13.4642 647 63.4668 390.266 548.342
300 0 51.068 12.4148 634 64.7618 390.104 547.786
301 0 51.1555 13.2146 676 64.3994 390.169 547.55
302 0 54.1756 13.7331 744 63.6774 390.374 545.812
303 0 53.1994 13.9475 742 64.1779 390.121 544.558
304 0 56.147 14.4086 809 63.2373 390.278 543.82
305 0 58.2735 12.51 729 65.9067 390.576 542.482
306 0 61.1435 13.3457 816 63.902 390.749 542.936
307 0 61.2074 14.0833 862 63.1311 390.63 541.938
308 0 64.0664 13.9074 891 62.9383 390.45 540.917
309 0 68.0944 14.7883 1007 62.1112 391.196 537.868
310 0 68.114 13.8004 940 63.6181 391.306 535.718
311 0 71.0814 13.2383 941 64.3305 390.553 535.612
312 1 36.05 10.9847 396 63.2222 391.124 552.705
313 0 38.0452 9.56756 364 65.0412 391.308 551.923
314 0 41.0725 10.9319 449 62.7194 390.555 551.401
315 0 41.0872 11.6825 480 63.3021 389.91 550.321
316 0 42.0691 12.4557 524 62.0706 390.366 550.626
317 0 44.1316 12.6893 560 61.775 390.468 550.977
318 0 46.0655 12.6125 581 62.0224 390.179 549.146
319 0 48.113 13.2604 638 61.4969 390.408 548.193
320 0 50.1851 14.0281 704 60.4616 389.943 547.712
321 0 50.2003 13.8047 693 61.7388 390.124 545.13
322 0 52.1807 13.3191 695 62.0245 390.16 545.643
323 0 52.2059 12.8338 670 63.0612 389.846 545.331
324 0 51.1821 12.6216 646 64.1842 389.789 543.398
325 0 56.2361 12.3408 694 63.0432 389.425 542.679
326 0 56.2009 12.9891 730 62.9068 389.696 541.19
327 0 58.2702 13.1971 769 61.8414 390.129 543.386
328 0 61.2528 13.4851 826 61.7676 389.876 539.4
329 0 62.194 13.6187 847 61.9752 389.534 538.623
330 0 65.2375 13.4432 877 61.1722 389.452 539.132
331 0 67.1611 12.6561 850 62.2824 389.532 537.973
332 0 70.3808 13.9242 980 60.6184 389.859 537.681
333 0 71.3706 13.7031 978 60.9724 389.63 536.016
334 0 74.2383 13.982 1038 60.8256 389.257 536.205
335 1 39.0454 11.8836 464 61.8815 389.55 551.356
336 0 39.0454 11.8836 464 159.338 389.55 551.356
337 0 41.3345 11.5884 479 62.0981 389.286 551.614
338 0 44.1548 11.505 508 62.872 388.774 550.12
339 0 44.0853 13.1109 578 61.0952 388.415 550.228
340 0 46.1066 13.5555 625 60.7136 388.464 549.736
341 0 48.1733 13.2023 636 61.9984 388.099 548.719
342 0 49.2634 12.7884 630 62.4841 388.254 548.241
343 0 49.2215 13.2259 651 63.1029 388.12 547.605
344 0 52.212 14.7476 770 60.7065 387.813 548.791
345 0 52.1405 12.8499 670 63.9313 387.575 546.757
346 0 55.2315 13.4163 741 62.3441 387.486 546.198
347 0 57.2285 13.7519 787 62.4371 387.867 547.362
348 0 58.202 13.2985 774 63.8695 387.809 545.585
349 0 60.298 13.0187 785 64.6713 388.014 544.391
350 0 63.3066 14.8484 940 61.9117 387.797 543.661
351 0 64.2973 12.5511 807 65.9232 387.421 542.165
352 0 67.2135 14.9523 1005 63.2139 386.938 540.624
353 0 70.2634 13.5917 955 64.5152 386.663 541.842
354 1 35.0251 10.5068 368 66.6467 387.022 556.663
355 0 35.1447 11.9222 419 67.222 386.699 555.656
356 0 37.0768 10.7615 399 67.9123 386.328 555.586
357 0 38.039 11.4619 436 67.883 386.271 554.328
358 0 38.0982 12.9402 493 67.3144 385.678 554.16
359 0 40.1304 12.8581 516 67.4419 386.455 553.322
360 0 43.1 11.8098 509 68.4774 386.758 552.092
361 0 42.0544 12.46 524 68.8473 386.611 551.158
362 0 45.2148 12.4959 565 68.1009 387.235 551.266
363 0 47.1705 13.1226 619 67.3037 386.801 549.273
364 0 46.1447 12.1791 562 69.3221 387.528 548.322
365 0 50.2359 13.0584 656 67.2988 387.47 548.006
366 0 51.3205 12.3927 636 68.0755 387.579 548.094
367 0 54.1672 12.7937 693 67.1183 387.322 547.821
368 0 54.1524 13.185 714 67.423 387.38 545.605
369 0 56.4595 12.9296 730 66.9973 387.84 546.194
370 0 58.1345 12.9699 754 66.9032 387.902 543.631
371 0 60.0944 12.8631 773 67.1526 387.246 541.383
372 0 63.315 13.346 845 65.9917 387.908 541.554
373 0 64.2681 11.7321 754 68.7202 387.869 539.812
374 0 68.1507 14.6587 999 64.048 388.467 539.885
375 0 68.1172 13.0217 887 67.0237 388.29 537.867
376 1 37.0365 9.20714 341 64.8563 388.238 555.07
377 0 40.0937 10.9244 438 62.0023 388.043 553.829
378 0 39.0286 11.3763 444 61.6059 388.275 554.099
379 0 41.1261 10.7231 441 62.6032 388.376 551.821
380 0 40.0088 10.0478 402 64.2139 388.179 550.527
381 0 43.0874 11.5115 496 63.1694 388.849 550.079
382 0 45.2513 12.1986 552 62.4855 389.149 549.344
383 0 47.2327 11.0093 520 64.1865 388.988 548.81
384 0 47.1977 11.2506 531 64.339 388.96 548.104
385 0 50.1514 12.8012 642 63.2399 388.721 547.079
386 0 51.0959 11.4491 585 64.6872 388.844 546.552
387 0 52.1784 10.9432 571 65.7933 389.256 547.038
388 0 53.1789 11.9784 637 64.967 389.576 545.019
389 0 54.2575 11.7219 636 65.6336 390.09 545.061
390 0 56.1219 13.0609 733 64.3233 389.516 542.722
391 0 57.1617 11.9486 683 66.3895 389.486 540.795
392 0 60.0926 12.098 727 65.6286 389.865 542.466
393 0 61.1598 12.3938 758 65.6689 390.529 540.012
394 0 63.1679 12.4747 788 65.0495 390.456 540.916
395 0 66.1738 12.3463 817 65.727 390.648 536.585
396 0 66.1376 12.096 800 66.385 390.836 537.212
397 0 70.1483 13.3289 935 64.6321 390.721 535.427
398 0 72.2536 12.3593 893 65.8119 390.991 534.842
399 0 74.1061 12.8869 955 65.1634 390.926 534.714
400 0 75.2427 12.1075 911 66.2843 391.03 532.335
401 0 78.1493 12.8728 1006 65.1978 391.128 531.855
402 0 84.1932 13.9085 1171 63.0273 391.383 530.677
403 0 86.1728 13.0552 1125 64.1049 391.242 528.753
404 0 90.2069 14.9213 1346 61.6649 391.054 526.184
405 0 93.2193 13.9456 1300 63.2069 391.115 523.696
406 1 45.0978 9.84526 444 64.8086 391.874 545.77
407 0 49.0435 10.5417 517 63.5068 391.872 546.18
408 0 50.0872 10.1223 507 62.7022 391.696 547.215
409 0 52.0092 11.0365 574 62.5732 391.176 544.667
410 0 55.2122 10.9939 607 62.9325 390.888 543.692
411 0 56.2008 10.4091 585 64.1402 391.092 543.361
412 0 60.1655 12.0335 724 61.5815 391.073 541.436
413 0 58.1688 11.6042 675 63.6074 391.098 541.117
414 0 60.1338 11.674 702 63.7194 391.036 538.715
415 0 64.2408 11.8149 759 62.6337 390.901 539.935
416 0 67.1402 12.5856 845 62.2675 391.188 537.011
417 0 67.0787 11.6579 782 64.1049 390.575 537.386
418 0 69.2363 10.7169 742 65.7278 389.728 536.158
419 0 71.0593 12.8343 912 62.9463 389.708 535.957
420 0 74.1802 12.1461 901 63.6537 389.467 534.276
421 0 78.1568 13.3578 1044 62.068 389.033 532.749
422 0 78.2814 11.7397 919 64.9075 388.26 531.666
423 1 40.047 9.71359 389 62.1877 388.707 552.861
424 0 41.0545 9.93801 408 63.799 389.15 549.524
425 0 44.1542 9.64801 426 63.0775 388.488 550.739
426 0 46.0599 11.0074 507 61.0789 389.284 551.085
427 0 47.0401 12.1811 573 59.9878 389.265 549.229
428 0 48.0413 11.5942 557 61.3196 389.014 547.273
429 0 49.1787 11.9564 588 60.8895 387.413 547.932
430 0 51.1731 12.0767 618 61.712 388.735 545.189
431 0 53.1339 12.2332 650 61.2585 388.248 545.715
432 0 54.0918 12.3124 666 61.4565 388.35 544.794
433 0 57.0894 11.4557 654 61.3853 387.743 545.425
434 0 59.0876 12.3038 727 60.2655 387.063 544.587
435 0 58.1347 10.9057 634 62.8107 387.09 542.989
436 0 60.0284 12.8606 772 60.5453 387.477 540.924
437 0 60.1078 11.2132 674 62.8605 387.547 539.372
438 0 63.1106 12.8663 812 61.0382 386.901 537.132
439 0 65.122 12.7146 828 60.9952 386.541 536.588
440 0 67.1321 12.6467 849 60.7915 386.345 536.294
441 0 70.0827 13.2558 929 59.9537 386.166 536.213
442 0 71.1368 12.4549 886 61.0508 386.97 535.678
443 0 72.0646 12.3778 892 61.8363 386.767 534.948
444 0 76.0702 13.4087 1020 60.0343 386.433 536.379
445 0 78.1037 13.5589 1059 60.2398 386.746 535.037
446 1 42.0422 10.9414 460 60.787 387.074 552.633
447 0 43.0623 10.868 468 61.0577 386.59 551.955
448 0 45.0252 12.9483 583 58.9674 388.141 550.314
449 0 45.0143 12.1073 545 60.611 388.163 550.996
450 0 47.031 12.226 575 60.9444 387.821 550.278
451 0 46.0503 12.8772 593 61.1012 387.106 550.465
452 0 48.0191 12.2868 590 62.4576 387.507 549.634
453 0 49.0446 12.5192 614 62.4186 387.262 548.35
454 0 48.1231 12.2187 588 63.9864 387.4 547.866
455 0 51.0859 13.3892 684 62.576 387.583 547.734
456 0 53.0796 14.3181 760 61.6329 387.841 545.983
457 0 53.0422 13.7061 727 62.967 387.389 545.722
458 0 55.1765 13.3209 735 63.449 387.782 544.944
459 0 57.0248 13.2048 753 63.7464 387.798 545.555
460 0 57.1591 14.5384 831 62.994 387.639 543.939
461 0 59.0318 14.4329 852 63.3826 387.412 543.764
462 0 61.1304 13.7575 841 64.8169 387.464 543.614
463 0 62.2517 13.5739 845 64.7112 387.204 543.704
464 0 65.0938 14.2717 929 63.5113 387.544 541.16
465 0 66.1272 13.8975 919 64.8128 387.141 540.076
466 0 68.0805 14.0569 957 64.9864 387.379 539.598
467 0 72.1298 14.2798 1030 63.668 386.901 539.193
468 0 73.164 14.5837 1067 63.4424 387.308 537.979
469 0 74.1084 13.7906 1022 64.8855 387.439 535.732
470 0 77.0893 13.8281 1066 64.4625 387.534 534.053
471 1 40.0364 10.0908 404 65.0767 387.681 553.213
472 0 43.0372 10.2469 441 64.1723 387.467 553.338
473 0 44.034 11.3549 500 63.748 387.596 551.732
474 0 46.042 11.0768 510 63.8274 387.78 551.592
475 0 47.0493 12.0299 566 62.7244 387.765 551.343
476 0 50.0504 13.0668 654 61.1101 387.94 550.229
477 0 49.1597 11.8797 584 64.7774 386.772 548.575
478 0 55.062 14.3475 790 59.9215 386.366 549.071
479 0 54.0842 13.9967 757 61.2166 386.774 549.229
480 0 55.1186 13.6433 752 62.3098 386.944 546.902
481 0 58.0563 13.3491 775 61.6464 387.267 547.796
482 0 58.062 13.5028 784 62.3469 387.176 546.092
483 0 58.1079 12.5284 728 64.081 387.166 546.012
484 0 61.1246 12.8099 783 63.7267 387.088 544.031
485 0 62.0632 13.8407 859 61.8813 387.186 545.015
486 0 64.1232 14.862 953 61.6495 387.188 541.503
487 0 66.2736 12.8558 852 63.7641 387.12 542.635
488 0 69.2299 13.0724 905 63.9315 386.674 540.983
489 0 70.0903 13.7251 962 63.2859 386.807 540.695
490 0 74.1893 14.2608 1058 62.9026 387.3 539.801
491 0 74.2002 12.9784 963 65.189 387.683 538.19
492 1 40.0702 10.232 410 64.9976 388.034 555.659
493 0 41.1957 11.2633 464 64.5388 388.228 554.931
494 0 42.1411 12.2683 517 64.029 388.162 553
495 0 45.1793 12.3729 559 64.4973 388.15 551.014
496 0 45.2355 12.0923 547 65.2267 388.627 551.457
497 0 47.1641 13.0396 615 64.1398 388.446 550.128
498 0 48.1944 12.8023 617 64.7828 388.841 549.626
499 0 49.061 12.8615 631 65.6355 388.334 547.228
500 0 51.0881 12.9189 660 65.4227 388.908 548.156
501 0 52.0957 13.1681 686 65.0146 388.95 548.555
502 0 53.0591 13.0986 695 65.4504 388.875 546.63
503 0 56.0689 14.1611 794 64.335 388.902 545.475
504 0 57.0203 13.6092 776 65.5786 389.134 544.49
505 0 56.0694 14.1788 795 65.9195 389.39 543.483
506 0 59.1214 13.3285 788 66.8388 389.065 543.174
507 0 62.0719 13.5166 839 66.1728 388.653 542.557
508 0 63.0904 14.2494 899 65.0946 389.393 542.46
509 0 65.0309 14.4547 940 64.8734 389.33 542.467
510 0 65.1697 14.1784 924 66.2814 389.227 540.433
511 0 67.031 13.7996 925 66.5784 389.173 539.59
512 0 69.2316 13.7076 949 67.0116 389.012 538.962
513 0 72.1072 14.2982 1031 66.6722 389.079 537.658
514 0 74.0981 14.0759 1043 66.7354 388.228 536.68
515 0 77.1933 14.0686 1086 66.9908 388.58 535.734
516 0 78.0629 13.3098 1039 67.128 388.658 533.669
517 0 80.091 13.7469 1101 66.4514 388.871 532.758
518 0 85.0514 14.7793 1257 64.6038 388.55 530.734
519 1 43.0543 10.4519 450 68.4689 388.971 549.998
520 0 45.0483 12.0759 544 66.3015 389.39 550.254
521 0 48.0293 12.3675 594 65.702 389.298 550.658
522 0 48.0314 12.7625 613 65.8989 389.907 547.956
523 0 51.0475 13.6148 695 64.3281 390.017 545.917
524 0 53.0375 13.6507 724 64.0884 390.093 546.561
525 0 55.0452 14.0975 776 63.5528 389.87 545.582
526 0 57.1757 14.0444 803 63.3001 390.438 544.167
527 0 59.1038 13.7386 812 63.4643 389.668 544.211
528 0 60.0523 12.639 759 65.1726 390.188 542.611
529 0 60.1064 14.5076 872 63.1984 389.98 542.003
530 0 63.0957 12.4414 785 65.2943 390.343 542.014
531 0 65.0551 13.5116 879 63.6587 390.548 541.044
532 0 68.0718 13.9852 952 63.5588 390.621 537.502
533 0 70.0834 13.7693 965 63.3326 391.068 537.459
534 0 72.0374 13.6457 983 63.5178 391.362 537.654
535 0 74.0503 13.8825 1028 63.3171 391.537 534.042
536 0 76.0858 13.9711 1063 63.7187 391.607 532.534
537 0 80.1365 14.0885 1129 62.6678 391.67 532.375
538 0 83.1593 14.5384 1209 62.2779 391.95 529.345
539 0 84.0912 13.8659 1166 62.9726 391.686 529.515
540 0 89.1116 15.3628 1369 61.1775 391.646 526.909
541 1 44.0282 11.1746 492 62.9045 391.4 550.537
542 0 47.0635 12.3238 580 61.6983 391.455 548.714
543 0 50.09 12.4177 622 60.7942 391.376 548.079
544 0 49.0711 12.4106 609 61.7964 391.005 546.667
545 0 50.08 13.2588 664 60.5512 390.83 547.372
546 0 52.085 12.1532 633 62.0916 390.024 545.96
547 0 54.0736 12.52 677 61.4668 389.445 544.931
548 0 58.0917 12.9795 754 59.7838 389.435 543.625
549 0 58.1072 13.0449 758 60.2441 389.363 541.72
550 0 61.1149 13.401 819 59.3028 389.493 540.694
551 0 63.1699 13.6141 860 59.0256 389.336 542.03
552 0 67.0756 13.8799 931 58.4071 389.58 541.075
553 0 66.0772 13.1664 870 60.4471 389.68 539.43
554 0 69.1214 13.6571 944 59.2744 389.269 540.332
555 0 71.1788 13.6838 974 60.2669 390.185 537.913
556 0 73.1826 12.7626 934 61.4229 389.593 536.785
557 0 75.0574 13.2832 997 60.9719 389.348 535.663
558 0 78.2814 12.685 993 63.426 389.816 535.43
559 0 78.1177 13.7997 1078 60.5937 389.734 532.176
560 0 81.159 13.0115 1056 61.839 389.92 530.631
561 0 87.0909 13.905 1211 60.1288 389.7 530.432
562 0 88.0949 12.8044 1128 61.4521 389.536 529.479
563 1 48.0647 10.6107 510 59.8431 390.173 548.884
564 0 48.033 12.0126 577 59.7972 390.397 548.412
565 0 51.0113 11.7621 600 59.845 389.968 547.597
566 0 50.0853 12.6784 635 59.5055 389.148 545.458
567 0 52.097 12.8798 671 59.1371 388.875 545.052
568 0 56.0516 12.2744 688 59.6366 389.372 544.828
569 0 56.0927 13.1925 740 58.6581 389.578 543.174
570 0 56.0772 12.4828 700 59.2629 389.121 544.113
571 0 61.1336 13.6913 837 57.5066 389.278 543.214
572 0 62.166 13.4318 835 57.8252 388.701 541.34
573 0 63.2217 13.2866 840 58.6869 388.721 539.758
574 0 65.1101 13.8227 900 58.0333 388.583 539.639
575 0 66.2077 13.5785 899 59.3537 387.994 536.694
576 0 68.2605 12.8918 880 60.6511 387.858 537.262
577 0 71.2017 12.6261 899 60.7942 387.413 536.245
578 0 70.2046 13.19 926 60.8812 387.005 536.741
579 0 73.4236 12.816 941 61.1158 387.222 535.136
580 0 79.224 13.7332 1088 59.3373 387.238 535.255
581 0 78.375 12.9123 1012 60.7273 387.507 533.45
582 0 80.1854 13.2817 1065 60.7099 387.621 531.373
583 0 84.3722 13.4049 1131 60.5889 387.246 529.23
584 0 87.1781 13.4208 1170 60.347 387.875 528.879
585 0 90.1798 13.6061 1227 60.1304 386.912 528.023
586 0 95.2057 14.6735 1397 58.7058 386.447 526.953
587 0 97.3343 13.6745 1331 60.118 386.707 524.418
588 0 99.1751 13.451 1334 60.7369 386.847 524.457
589 0 102.199 13.9727 1428 60.6176 386.676 521.451
590 0 107.251 14.508 1556 59.3419 386.486 522.717
591 0 111.182 14.1749 1576 59.8071 386.149 519.183
592 0 112.289 15.0504 1690 58.7343 386.683 518.739
593 0 117.245 14.2011 1665 59.797 386.821 515.784
594 0 121.261 13.5823 1647 59.9168 386.676 513.744
595 1 71.2356 11.7778 839 58.3778 386.255 541.318
596 0 71.0854 11.8871 845 58.3645 386.27 539.147
597 0 76.1896 12.9152 984 56.187 386.318 540.127
598 0 76.2559 12.8646 981 56.9582 386.539 537.821
599 0 78.1081 12.5723 982 58.4379 385.748 537.066
600 0 80.1845 12.8454 1030 58.3107 386.174 533.451
601 0 85.1575 12.7294 1084 56.7149 385.482 533.978
602 0 88.1712 13.9842 1233 55.7242 385.834 531.828
603 0 88.213 14.1816 1251 55.6906 385.957 529.493
604 0 91.0842 13.8663 1263 55.2621 385.922 528.045
605 0 92.3152 12.5873 1162 55.8804 386.673 529.182
606 0 97.0986 12.9044 1253 55.0742 385.86 530.704
607 0 101.243 13.7985 1397 55.7695 386.495 528.81
608 0 103.239 13.7835 1423 57.6725 386.176 524.178
609 0 105.106 13.1582 1383 59.0311 386.484 522.332
610 0 110.24 13.7155 1512 58.3909 386.537 521.477
611 0 113.303 13.3447 1512 60.256 386.301 518.445
612 0 117.249 13.2282 1551 59.8633 386.798 518.575
613 0 120.281 14.2583 1715 59.786 386.506 515.822
614 0 123.328 13.5654 1673 61.1034 386.735 513.154
615 0 128.376 14.2862 1834 59.8479 387.13 511.216
616 1 65.2608 11.6609 761 62.1971 386.666 544.756
617 0 66.1204 12.8402 849 60.205 386.259 544.794
618 0 70.0998 13.0814 917 60.6369 386.445 541.375
619 0 72.1108 12.5917 908 60.7665 386.754 541.347
620 0 74.1093 13.3047 986 60.1978 386.464 538.071
621 0 76.202 13.0968 998 60.4008 386.465 538.041
622 0 78.1637 14.1498 1106 59.8345 387.022 536.194
623 0 80.1105 13.1943 1057 60.7559 387.341 535.787
624 0 84.0592 13.1574 1106 60.5081 387.074 534.604
625 0 89.1414 14.7855 1318 58.5539 387.458 531.536
626 0 92.0932 13.1389 1210 60.9479 388.06 529.104
627 0 94.3617 13.1303 1239 61.4891 387.881 528.804
628 0 97.1036 14.9531 1452 59.6942 388.3 526.813
629 0 99.2212 15.027 1491 59.9879 387.982 524.731
630 0 101.101 14.4706 1463 61.2338 388.042 523.527
631 0 105.114 14.5461 1529 60.7547 387.716 522.738
632 0 108.173 14.0885 1524 61.6575 387.606 520.154
633 0 112.222 14.7743 1658 60.5386 388.209 518.317
634 0 115.303 15.2641 1760 60.0722 388.381 517.477
635 0 117.328 14.5234 1704 61.7166 388.575 514.996
636 0 121.282 14.454 1753 61.9378 388.728 510.713
637 0 124.215 13.9919 1738 62.4033 388.774 510.843
638 0 130.337 15.1607 1976 60.9281 390.034 509.859
639 0 132.225 15.0199 1986 61.4869 389.5 507.42
640 0 135.432 14.2138 1925 62.6914 390.055 506.805
641 0 139.43 14.9107 2079 61.8158 390.071 504.732
642 0 145.288 14.9634 2174 61.8132 389.939 501.716
643 0 147.545 14.7684 2179 62.2451 390.456 500.951
644 0 152.309 15.5342 2366 61.8043 390.107 495.101
645 0 154.322 15.3251 2365 62.4254 390.389 494.258
646 0 159.329 14.6803 2339 63.0881 390.123 489.336
647 0 164.529 15.9121 2618 61.2976 390.427 490.618
648 0 168.515 14.5685 2455 63.3841 390.849 483.982
649 0 176.659 15.8894 2807 61.1781 389.992 481.355
650 0 181.749 16.3027 2963 60.7162 389.701 477.315
651 0 186.447 14.9372 2785 62.3066 389.658 472.765
652 1 42.0914 10.1921 429 58.5361 390.408 544.802
653 0 46.1366 11.7261 541 55.8798 389.649 546.148
654 0 46.3703 11.7748 546 56.5 389.967 543.74
655 0 44.1011 11.7911 520 57.6692 390.387 541.969
656 0 48.234 12.0247 580 56.5069 389.991 541.607
657 0 51.1921 10.6462 545 57.2018 390.242 541.578
658 0 52.0574 12.2941 640 56.0859 390.27 538.547
659 0 53.2196 11.4244 608 56.6003 389.859 538.941
660 0 58.1814 12.3063 716 55.5056 390.175 539.18
661 0 58.3782 11.9223 696 56.4497 389.875 538.881
662 0 62.3922 12.0848 754 55.4363 390.123 540.244
663 0 64.3007 13.188 848 55.1486 390.163 536.062
664 0 67.362 12.5887 848 55.6274 390.712 534.14
665 0 68.3454 12.9782 887 56.1094 390.94 532.905
666 1 35.2166 8.85945 312 57.9391 391.782 550.413
667 0 36.1436 11.0116 398 55.5603 391.284 550.324
668 0 38.0111 11.1283 423 54.9598 391.799 549.792
669 0 40.0286 10.8922 436 55.0459 391.839 550.72
670 0 41.0463 11.7672 483 53.9482 390.832 550.284
671 0 41.0977 11.2658 463 54.851 390.879 549.151
672 0 42.142 12.5291 528 53.9224 391.028 549.669
673 0 43.2019 11.319 489 55.5092 390.984 549.278
674 0 46.0539 12.0945 557 55.0844 391.248 547.309
675 0 48.1031 11.3506 546 55.1996 391.22 547.198
676 0 47.1022 11.5918 546 55.8718 391.595 546.095
677 0 50.1133 12.4518 624 55.0513 391.425 545.136
678 0 53.1415 12.0621 641 54.7535 390.959 544.3
679 0 53.0955 11.5076 611 56.5499 391.074 541.368
680 0 58.1056 12.4429 723 54.7095 391.526 542.322
681 0 56.102 11.7286 658 56.6778 392.152 541.064
682 0 59.0521 13.0563 771 56.0259 391.99 533.139
683 0 60.1929 12.0612 726 55.8981 393.032 535.893
684 0 60.1338 11.5742 696 58.6437 392.795 537.315
685 0 63.0758 13.3966 845 56.8568 392.418 539.142
686 0 65.1544 11.68 761 58.4389 391.536 539.795
687 0 67.1389 13.4199 901 56.8768 391.706 538.435
688 0 69.2641 12.6906 879 58.1263 391.121 535.587
689 0 66.2612 13.3713 886 58.307 391.56 534.13
690 1 37.0614 10.631 394 59.368 390.926 549.937
691 0 34.0784 10.5932 361 61.2382 390.914 547.773
692 0 39.0497 10.8323 423 59.8061 391.936 547.324
693 0 37.0705 10.9251 405 59.1309 392.832 544.506
694 0 42.013 11.9725 503 57.9602 392.763 543.924
695 0 42.0461 11.5112 484 59.1756 392.14 543.492
696 0 43.0724 12.746 549 57.8087 392.131 541.816
697 0 48.0199 13.2029 634 58.7082 392.67 546.092
698 0 49.108 12.7474 626 59.0895 392.47 545.27
699 0 49.0435 12.1525 596 61.0017 392.503 542.794
700 0 52.0328 14.068 732 58.3238 391.407 544.526
701 0 52.0834 13.44 700 59.4057 391.03 544.436
702 0 55.0753 14.0353 773 58.859 391.166 541.155
703 0 57.0408 14.0952 804 58.8333 391.061 541.654
704 0 57.1116 14.3228 818 60.1088 391.23 540.367
705 0 59.1815 13.9064 823 60.0292 390.609 540.203
706 0 62.1757 14.3464 892 59.3722 391.044 538.638
707 0 63.1542 13.1266 829 60.6104 390.433 538.404
708 0 66.2387 14.2213 942 59.1571 390.252 538.349
709 0 66.1957 13.9737 925 59.6346 390.023 538.505
710 0 68.147 14.0725 959 59.4911 389.809 537.08
711 0 68.0732 13.5296 921 61.329 389.615 533.67
712 0 73.1409 14.2055 1039 59.5679 389.98 534.995
713 0 74.1294 14.097 1045 60.5378 389.75 532.534
714 0 78.1755 14.6082 1142 59.1638 389.507 532.56
715 0 82.1925 14.5877 1199 59.0083 389.537 529.984
716 0 83.2014 14.2305 1184 59.9367 389.139 528.182
717 0 88.2286 15.7999 1394 57.7597 389.275 527.41
718 0 90.2969 13.8432 1250 60.024 388.789 524.822
719 0 92.3642 13.4793 1245 60.4313 388.974 524.256
720 1 52.1696 12.3827 646 58.2121 388.497 545.854
721 0 52.0987 11.8045 615 58.4764 388.249 547.395
722 0 53.1072 12.5219 665 58.9835 387.63 545.317
723 0 56.1063 13.1001 735 58.6286 387.339 544.508
724 0 56.0471 11.758 659 59.4264 387.381 543.619
725 0 59.0603 12.3772 731 59.6662 387.661 543.536
726 0 60.0711 13.1844 792 58.1502 387.645 539.886
727 0 62.0937 13.1092 814 57.9717 388.069 540.477
728 0 64.128 13.8473 888 57.3209 387.858 541.204
729 0 68.0882 14.3637 978 56.0123 387.83 538.902
730 0 70.0806 14.8115 1038 55.1686 387.712 538.46
731 0 73.0418 15.9772 1167 53.916 388.171 537.662
732 0 74.1196 14.9623 1109 55.1145 387.553 535.254
733 0 78.0775 13.4866 1053 55.8984 387.959 536.378
734 0 78.0844 14.241 1112 56.179 387.443 534.696
735 0 84.0376 13.839 1163 56.0163 386.564 531.619
736 0 84.0545 14.1337 1188 56.053 386.546 532.694
737 0 87.2174 14.825 1293 55.5391 386.613 531.633
738 0 89.1569 15.2764 1362 54.6968 386.304 530.324
739 0 93.1073 15.4338 1437 54.2422 385.912 527.659
740 0 93.0829 14.9437 1391 55.1042 386.07 527.576
741 0 98.0726 14.7646 1448 55.3108 386.549 525.635
742 0 100.049 14.243 1425 55.9151 386.126 524.707
743 0 105.144 15.4931 1629 54.8619 386.275 520.619
744 0 111.237 14.6444 1629 54.8969 386.595 523.078
745 0 112.321 15.2776 1716 54.8013 385.997 519.418
746 0 114.225 15.3995 1759 55.2422 386.163 515.185
747 0 115.299 14.2586 1644 55.868 385.934 519.72
748 1 59.2648 13.1275 778 54.446 385.69 545.447
749 0 60.2586 12.0481 726 56.2645 385.583 543.249
750 0 64.0612 14.0647 901 53.7259 385.71 540.259
751 0 66.1497 13.2427 876 54.4486 385.557 541.381
752 0 69.1617 14.6324 1012 53.6897 385.429 540.56
753 0 70.1498 13.4569 944 55.1822 385.207 539.307
754 0 70.2439 13.6524 959 55.9416 385.644 535.282
755 0 74.3981 13.8579 1031 55.5141 385.347 538.292
756 0 76.2044 14.4874 1104 55.625 386.164 535.373
757 0 77.1995 14.1063 1089 56.4922 386.25 533.812
758 0 81.1929 14.6565 1190 55.658 386.399 532.216
759 0 84.1721 13.6744 1151 56.8862 386.42 531.136
760 0 85.1043 14.6408 1246 56.7648 385.903 529.219
761 0 90.0683 13.7673 1240 56.7823 385.59 530.162
762 0 92.1673 14.7449 1359 56.5548 385.656 527.721
763 0 93.1689 14.1678 1320 57.4038 385.336 529.497
764 0 98.1123 14.8503 1457 56.4235 385.097 526.936
765 0 99.125 15.0517 1492 56.5442 385.12 525.294
766 0 102.168 14.2706 1458 57.5247 384.792 522.276
767 0 106.326 14.8882 1583 56.8857 385.008 520.901
768 0 110.222 14.6522 1615 57.2966 385.063 518.97
769 0 114.245 14.4602 1652 56.796 385.401 518.522
770 1 58.1352 10.9228 635 58.0488 385.066 545.899
771 0 58.3213 12.294 717 56.7015 384.83 547.696
772 0 61.288 13.5263 829 56.4958 385.332 542.433
773 0 62.21 12.8114 797 57.2183 385.008 543.538
774 0 66.1134 13.0382 862 56.4745 384.806 541.776
775 0 68.1073 12.9208 880 56.2057 384.484 543.87
776 0 69.0846 13.1867 911 56.5324 385.113 542.472
777 0 75.194 13.4186 1009 55.6938 384.923 540.864
778 0 75.1964 12.9794 976 56.9027 385.667 536.097
779 0 78.3024 13.6522 1069 56.1338 385.358 536.759
780 0 80.1932 13.6296 1093 56.7036 385.315 534.449
781 0 85.0866 14.1503 1204 55.5008 385.248 535.772
782 0 86.2316 13.6725 1179 57.0602 386.011 532.746
783 0 90.1918 14.9238 1346 55.3923 386.517 531.584
784 0 90.1605 13.1543 1186 58.3364 386.58 529.038
785 0 95.3859 13.2934 1268 58.3478 386.338 528.392
786 0 96.3383 14.4698 1394 57.2597 386.909 527.471
787 0 99.2929 13.6666 1357 58.549 387.095 525.128
788 0 102.371 13.7148 1404 58.5698 386.823 524.392
789 1 53.2402 10.9316 582 57.2302 386.948 550.682
790 0 54.168 12.0182 651 58.0937 387.468 547.447
791 0 55.2684 11.9598 661 57.9365 387.523 544.688
792 0 60.1704 13.7443 827 55.7122 387.95 544.225
793 0 61.1847 12.6993 777 57.5624 387.528 543.712
794 0 63.2833 13.6371 863 56.2735 388.051 543.054
795 0 65.473 13.2115 865 56.8347 387.778 540.222
796 0 68.14 14.0153 955 56.0848 387.89 539.615
797 0 71.2321 13.2665 945 56.6296 387.829 539.672
798 0 73.2198 13.7941 1010 56.5891 388.329 536.877
799 0 73.2059 12.9771 950 58.0916 388.98 537.535
800 0 78.4023 14.9485 1172 55.5034 388.707 534.747
801 0 81.2825 14.4558 1175 56.2315 388.472 533.296
802 0 82.3113 13.6676 1125 56.9644 388.774 533.234
803 0 84.4117 13.4342 1134 57.8616 388.748 527.939
804 0 86.3791 12.9198 1116 58.8952 389.031 530.589
805 0 92.3833 14.4398 1334 56.7309 388.819 526.505
806 1 141.513 12.9034 1826 58.0624 389.169 508.712
807 1 97.4955 13.098 1277 57.058 389.311 523.82
808 1 50.3565 10.942 551 57.5463 388.327 546.748
809 0 51.3024 12.3191 632 55.3022 388.555 548.199
810 0 50.3623 11.7548 592 57.9172 388.586 544.72
811 0 53.2925 12.6659 675 55.7215 388.77 546.684
812 0 55.2904 12.8955 713 55.3338 389.077 546.557
813 0 56.0518 11.9889 672 56.0759 390.356 547.088
814 0 59.1535 13.3551 790 55.1228 389.189 544.405
815 0 61.0986 13.6173 832 55.0505 389.876 544.506
816 0 61.0672 13.1167 801 55.804 389.513 540.916
817 0 65.054 13.4965 878 55.3417 389.24 540.317
818 0 67.2074 12.2457 823 55.9927 389.152 541.916
819 0 69.2023 14.2047 983 54.296 389.428 541.935
820 0 70.2804 14.4422 1015 54.2434 389.378 537.906
821 0 72.2793 13.4617 973 55.1829 388.949 539.316
822 0 75.2937 12.9891 978 55.8344 389.049 537.501
823 1 39.2344 9.86378 387 55.6667 388.866 555.083
824 0 41.2833 10.4885 433 55.6928 388.707 552.416
825 0 42.1121 11.9206 502 54.6912 388.719 552.056
826 0 42.2123 10.9921 464 56.0517 388.927 551.741
827 0 44.0934 12.0199 530 53.6887 388.317 552.542
828 0 48.0835 12.9566 623 52.3467 389.034 551.077
829 0 48.1303 12.0922 582 53.8247 388.857 549.704
830 0 48.0852 12.0619 580 54.419 388.626 549.445
831 0 49.0305 12.2577 601 54.3261 388.436 549.378
832 0 50.0872 12.059 604 55.0381 388.611 548.954
833 0 52.1969 12.7402 665 54.7534 387.943 547.558
834 0 52.32 12.7294 666 55.6742 388.464 545.249
835 0 53.1518 13.2451 704 54.5114 388.402 547.08
836 0 57.2479 13.5376 775 54 387.991 544.668
837 0 57.1903 13.3414 763 54.5636 387.841 542.25
838 0 59.1807 12.6393 748 55.2981 387.553 544.808
839 0 61.3975 14.1211 867 54.1269 387.803 542.593
840 0 63.1553 14.4406 912 53.591 387.473 541.216
841 0 64.15 13.2502 850 55.4024 388.193 540.312
842 0 65.2794 13.6031 888 55.0856 387.788 540.638
843 0 68.1197 13.6965 933 54.7299 387.75 540.692
844 0 69.1501 12.4512 861 56.892 387.41 539.216
845 1 36.0226 10.6877 385 55.7766 388.403 554.706
846 0 36.1558 10.4548 378 57.1534 387.59 554.743
847 0 39.2375 11.1628 438 56.3904 386.628 554.432
848 0 38.2305 11.7446 449 56.9777 386.726 551.234
849 0 41.2194 12.3243 508 56.1614 386.817 551.474
850 0 42.2431 12.5938 532 55.4887 386.447 553.308
851 0 44.1988 12.7832 565 56.5044 386.83 550.961
852 0 45.2655 13.2109 598 55.9314 386.51 550.689
853 0 47.1821 12.3564 583 56.9382 387.146 549.933
854 0 47.1241 13.4326 633 55.9558 387.359 550.142
855 0 50.1404 13.881 696 55.6882 387.369 548.486
856 0 51.1422 13.7069 701 56.2282 386.725 548.409
857 0 52.2304 14.3403 749 55.9106 386.569 546.64
858 0 53.0748 14.2817 758 56.4974 386.723 547.668
859 0 57.1446 13.5271 773 55.9884 386.212 547.124
860 0 58.0845 13.7386 798 56.0351 386.1 545.994
861 0 58.1499 13.3448 776 57.1134 386.323 545.352
862 0 58.1295 13.7968 802 57.6608 386.09 542.71
863 0 60.1942 12.144 731 59.7592 386.94 541.789
864 0 63.1895 13.958 882 57.3197 386.412 541.792
865 0 65.2737 14.4775 945 56.455 386.415 542.438
866 0 68.3904 14.4465 988 56.9858 386.092 539.335
867 0 70.3986 14.5742 1026 56.9961 385.499 538.807
868 0 69.3537 14.0728 976 58.4232 385.918 536.386
869 0 74.2754 14.8232 1101 57.8665 385.9 537.225
870 1 39.315 9.7164 382 61.7382 384.592 553.953
871 0 43.158 10.7048 462 61.2662 384.327 552.563
872 0 44.1398 11.7581 519 59.4682 385.326 553.403
873 0 46.1304 12.2479 565 60.4761 385.476 549.441
874 0 48.15 12.6064 607 60.7875 384.893 548.104
875 0 47.1371 12.5803 593 61.6627 384.895 548.415
876 0 52.1742 12.9183 674 59.7789 385.344 549.601
877 0 51.1279 13.1435 672 60.4256 385.082 548.415
878 0 51.1103 12.7567 652 62.4172 385.293 546.44
879 0 54.2009 12.509 678 62.8378 384.994 545.926
880 0 57.136 14.0892 805 61.3031 384.748 544.224
881 0 59.3386 13.246 786 62.5 384.761 543.888
882 0 60.2956 13.268 800 62.3175 384.746 543.228
883 0 62.4064 13.364 834 61.5959 384.808 545.098
884 0 63.4931 14.1275 897 62.3991 384.708 542.475
885 0 66.3941 12.7421 846 64.896 384.629 541
886 0 66.36 12.2815 815 67.8638 385.551 540.431
887 0 71.4687 13.3345 953 68.5582 385.445 538.714
888 0 72.303 12.7796 924 70.3517 385.853 539.216
889 0 76.4152 14.9839 1145 72.3755 385.14 538.612
890 0 76.5348 13.5625 1038 93.975 385.855 533.905
891 1 44.2547 11.1175 492 74.6768 385.474 551.837
892 0 45.3496 11.268 511 61.863 385.352 551.315
893 0 47.3063 13.3597 632 60.1646 385.796 548.467
894 0 47.5052 12.6092 599 58.783 385.95 548.756
895 0 49.3321 12.3652 610 59.1934 385.892 546.566
896 0 51.2213 13.7443 704 58.5199 387.071 548.142
897 0 50.0614 13.4834 675 60.3807 386.803 546.542
898 0 53.0488 13.0446 692 60.8454 387.217 544.394
899 0 53.0496 13.6288 723 60.0208 387.53 544.997
900 0 56.1976 12.9365 727 60.7785 387.773 544.162
901 0 59.0565 13.0553 771 60.9352 388.157 542.293
902 0 59.0347 14.0595 830 60.0241 388.352 542.52
903 0 61.0637 12.9864 793 61.1665 388.165 539.463
904 0 64.1241 14.9554 959 59.0052 388.158 539.164
905 0 66.1023 14.1296 934 59.8158 388.558 539.425
906 0 68.1577 13.7622 938 60.145 388.472 538.287
907 0 68.1516 12.6189 860 62.4209 388.684 535.33
908 0 72.1773 14.7692 1066 59.5338 388.787 534.108
909 0 76.1176 14.136 1076 59.3271 388.763 535.732
910 1 39.0057 9.51142 371 63.1051 389.42 551.41
911 0 42.0407 12.3928 521 58.7697 389.9 551.453
912 0 45.0245 12.371 557 59.3393 389.682 550.707
913 0 44.0687 12.9117 569 60.0053 389.455 548.689
914 0 46.0202 12.4293 572 60.3934 389.928 548.93
915 0 47.1657 12.9331 610 61.0098 389.438 547.152
916 0 51.1162 13.0096 665 59.9068 389.771 546.612
917 0 51.1156 12.1489 621 60.8229 389.71 545.903
918 0 52.2314 12.4638 651 60.679 390.137 545.214
919 0 53.2428 12.5839 670 61.2642 390.067 543.182
920 0 57.2076 12.1138 693 60.0447 390.362 544.478
921 0 57.1722 12.4886 714 60.881 390.027 542.241
922 0 60.0833 13.0153 782 60.4783 390.229 541.01
923 0 61.2299 13.2288 810 60.421 390.147 539.126
924 0 62.1685 13.2221 822 60.7153 390.552 538.352
925 0 64.3399 13.3354 858 59.4977 390.583 536.915
926 0 67.3755 14.011 944 58.9661 389.953 538.163
927 0 69.3849 13.2161 917 60.0916 390.996 534.616
928 0 71.328 13.7954 984 59.4492 390.943 534.914
929 0 74.3932 12.9851 966 60.3975 390.364 534.521
930 0 75.382 13.1729 993 60.5861 390.761 533.559
931 1 40.2365 11.2833 454 60.9493 390.328 550.207
932 0 41.5064 9.97435 414 63.5242 390.188 548.529
933 0 42.5424 11.0478 470 61.8085 389.617 548.645
934 0 42.4124 11.4589 486 62.3313 389.626 547.881
935 0 44.638 12.4781 557 61.7271 389.463 545.415
936 0 47.0608 13.3444 628 60.406 389.916 548.183
937 0 47.2056 13.0493 616 61.7955 390.086 548.058
938 0 50.2321 12.4024 623 62.6308 389.43 545.549
939 0 50.1571 12.9992 652 62.9064 389.114 545.11
940 0 52.2807 12.9111 675 62.7985 389.693 544.65
941 0 55.2482 14.0095 774 61.6434 389.568 543.779
942 0 55.2953 13.2199 731 63.275 389.053 540.974
943 0 59.1667 14.4338 854 61.6534 388.897 541.131
944 0 60.4014 13.3606 807 63.4981 388.368 540.186
945 0 61.422 13.5294 831 63.7304 388.122 538.665
946 0 63.3613 13.8886 880 63.4977 388.135 537.416
947 0 65.497 13.0846 857 65.0082 387.912 537.342
948 0 66.4351 15.7898 1049 61.0515 388.091 537.34
949 0 69.4891 13.441 934 64.3105 388.049 534.342
950 0 72.5079 14.1502 1026 63.0117 387.471 533.99
951 0 71.4151 13.6666 976 64.9201 387.567 532.226
952 0 76.7121 14.4697 1110 63.691 387.483 533.627
953 0 75.3055 13.7971 1039 66.0038 387.677 531.144
954 0 77.4485 13.6349 1056 65.6562 387.665 529.635
955 0 81.5594 14.3699 1172 64.1015 387.56 528.559
956 0 86.6571 15.4402 1338 62.6114 387.623 528.322
957 0 84.56 13.1859 1115 67.0341 387.787 524.891
958 0 89.7157 14.5794 1308 63.8876 387.858 524.431
959 0 91.4993 13.705 1254 65.8126 387.65 522.856
960 1 50.2272 12.2444 615 65.3415 387.637 544.959
961 0 54.3563 14.3682 781 62.0461 387.389 543.383
962 0 56.4682 14.4506 816 62.7169 387.304 543.526
963 0 57.3098 15.0934 865 62.6809 387.615 542.421
964 0 57.4004 13.6236 782 65.0269 387.376 542.078
965 0 59.3801 12.9168 767 65.7301 387.06 540.858
966 0 61.4973 14.1632 871 64.3995 387.22 539.512
967 0 62.6949 13.6694 857 65.084 387.138 539.504
968 0 64.5909 14.8163 957 63.7555 387.366 537.87
969 0 67.535 14.4074 973 64.0134 386.975 537.991
970 0 68.7535 14.1375 972 65.6173 387.399 536.107
971 0 71.643 13.5533 971 66.3491 387.509 534.708
972 0 75.6546 15.2932 1157 62.9559 387.285 535.374
973 0 76.8531 14.1309 1086 66.0617 387.424 532.48
974 0 77.6056 14.5479 1129 65.6829 387.553 531.128
975 0 82.6929 14.3301 1185 65.1544 387.061 530.76
976 1 41.3234 12.4143 513 66.3333 386.193 548.842
977 0 42.458 11.7292 498 68.008 385.54 547.984
978 0 44.4651 11.4697 510 69.0059 385.751 547.453
979 0 45.4149 11.9784 544 68.3107 385.509 547.502
980 0 49.4586 13.1827 652 66.4156 385.068 546.08
981 0 48.3659 12.7363 616 67.3036 385.006 543.943
982 0 51.3234 14.1846 728 64.1923 385.269 543.683
983 0 52.3016 13.403 701 65.816 385.174 542.592
984 0 52.1978 13.5063 705 65.7447 385.373 542.828
985 0 55.3946 14.4057 798 63.807 385.565 541.608
986 0 55.4225 12.3415 684 67.136 385.371 540.899
987 0 58.3141 14.3019 834 64.253 385.387 538.716
988 0 58.2971 13.7743 803 64.812 385.234 538.853
989 0 63.3376 13.878 879 63.8146 384.83 539.13
990 0 63.3641 14.2036 900 63.8022 384.793 537.863
991 0 67.607 13.8743 938 63.5032 385.119 536.989
992 0 69.3248 14.0354 973 63.6249 385.13 533.964
993 0 68.4256 13.8691 949 65.0717 384.933 533.772
994 0 71.3034 13.9404 994 64.5252 385.266 534.673
995 0 73.4679 14.3192 1052 64.8907 385.362 532.09
996 0 74.3461 13.9348 1036 65.2741 385.516 532.14
997 0 78.1994 14.4758 1132 64.1325 385.423 532.638
998 0 82.2027 14.6467 1204 63.6055 385.729 530.922
999 0 83.1598 13.1915 1097 66.4421 385.043 529.596
1000 0 84.1569 13.9026 1170 65.4966 385.91 526.703
1001 0 88.1456 13.7273 1210 65.4793 385.649 526.677
1002 0 91.2407 15.1906 1386 62.9055 385.344 526.374
1003 0 94.2931 14.1368 1333 64.4449 385.062 524.211
1004 1 50.018 10.0764 504 66.2381 384.843 547.131
1005 0 55.2181 11.6266 642 64.2804 384.989 546.604
1006 0 57.2341 11.8111 676 64.8314 385.546 546.266
1007 0 59.1204 12.3138 728 64.5783 385.738 544.666
1008 0 61.0574 12.9714 792 63.7235 385.756 545.403
1009 0 62.1325 13.3425 829 64.0965 385.756 543.501
1010 0 65.1485 13.7992 899 63.7486 386.085 543.484
1011 0 67.1216 14.8834 999 63.3443 386.275 544.049
1012 0 69.1207 15.2198 1052 62.6787 385.724 542.405
1013 0 71.1181 14.9892 1066 64.0319 385.55 541.101
1014 0 73.1928 14.7146 1077 63.9647 385.697 539.887
1015 0 76.1604 13.8261 1053 64.8205 385.703 538.079
1016 0 77.0778 13.6615 1053 65.5204 385.898 537.106
1017 0 80.1614 13.7473 1102 65.3448 385.538 535.304
1018 0 82.179 13.4219 1103 65.4615 386.016 534.729
1019 0 86.1543 14.1955 1223 64.6787 386.332 533.12
1020 0 89.1557 14.5924 1301 64.269 386.334 529.049
1021 0 92.1216 15.0019 1382 63.6143 386.635 529.162
1022 1 49.1527 10.6403 523 65.8681 385.893 551.396
1023 0 50.129 11.1712 560 65.3446 385.741 550.714
1024 0 50.1472 10.8481 544 66.8621 385.862 549.138
1025 0 52.167 11.7891 615 65.787 385.964 548.394
1026 0 56.2679 13.4713 758 62.4868 386.22 547.95
1027 0 56.1008 12.8875 723 64.3375 385.985 546.96
1028 0 59.1737 13.9251 824 63.1966 386.868 545.186
1029 0 59.0961 13.2327 782 64.1432 387.111 544.364
1030 0 63.1151 13.0555 824 64.0631 387.214 543.036
1031 0 62.0962 11.9975 745 66.1557 387.22 541.84
1032 0 67.2431 14.916 1003 61.0389 387.172 541.64
1033 0 67.2493 13.1451 884 63.3213 387.344 541.709
1034 0 71.3468 13.5115 964 62.5187 387.57 539.149
1035 0 75.2607 14.1109 1062 61.6638 387.71 537.521
1036 0 77.239 13.9049 1074 62.054 387.92 538.357
1037 0 79.3389 13.4108 1064 63.1222 388.331 535.188
1038 1 41.2145 9.63253 397 66.3149 388.008 552.171
1039 0 44.1878 12.4921 552 61.9964 388.487 552.524
1040 0 42.187 12.1127 511 64 388.654 551.117
1041 0 47.2173 13.0249 615 61.0293 388.797 550.413
1042 0 48.0683 13.2312 636 60.4497 389.514 549.904
1043 0 49.1297 13.3321 655 60.3435 389.481 548.686
1044 0 50.0651 14.0218 702 60.2991 388.967 547.315
1045 0 53.2554 14.008 746 58.8887 388.773 547.574
1046 0 53.1242 14.0237 745 58.9718 389.689 546.478
1047 0 54.2298 13.3875 726 59.7906 389.264 546.417
1048 0 55.306 13.2716 734 60.2193 389.09 544.327
1049 0 56.1086 14.0264 787 59.6379 389.942 542.607
1050 0 59.2334 14.5188 860 58.4058 389.484 544.376
1051 0 60.1408 15.0314 904 58.6759 389.784 542.655
1052 0 63.131 13.765 869 59.4534 390.342 542.78
1053 0 65.2818 14.5982 953 58.7282 390.299 541.338
1054 0 65.1136 14.3288 933 59.7428 390.049 540.765
1055 0 67.2172 14.3118 962 60.0353 390.455 538.361
1056 0 68.0923 15.2881 1041 59.317 390.111 539.289
1057 0 70.2829 13.6022 956 61.5031 389.667 537.639
1058 0 75.0731 15.8779 1192 58.6191 389.716 534.625
1059 0 75.0798 15.0906 1133 59.9903 389.571 534.868
1060 0 79.076 14.5303 1149 60.2924 389.632 534.046
1061 0 81.1677 14.082 1143 60.5354 389.785 533.738
1062 1 44.0575 11.6893 515 62.6544 388.709 551.542
1063 0 46.0935 13.5377 624 60.3974 388.941 550.49
1064 0 48.0884 12.9345 622 61.7814 389.37 548.596
1065 0 49.2128 14.7116 724 60.1326 389.558 549.403
1066 0 50.2481 13.5527 681 62.4949 389.549 546.097
1067 0 52.2433 13.3988 700 62.7486 389.784 547.146
1068 0 52.2758 14.2513 745 62.4658 389.295 545.538
1069 0 54.2656 13.8762 753 63.1275 389.189 543.794
1070 0 57.237 14.1866 812 62.2414 389.009 544.598
1071 0 59.3099 16.6751 989 59.2538 388.83 541.282
1072 0 60.4591 15.9281 963 60.6906 389.12 540.234
1073 0 62.4259 13.9846 873 63.4273 388.8 540.395
1074 0 65.3141 15.0657 984 61.5224 389.019 539.393
1075 0 64.3568 14.575 938 63.4328 388.332 538.378
1076 0 68.495 15.2128 1042 61.7639 387.957 538.226
1077 0 70.3065 15.0768 1060 62.167 388.534 537.677
1078 0 73.5113 14.7052 1081 62.6799 388.463 534.984
1079 0 76.3679 15.242 1164 61.9648 387.863 534.562
1080 0 79.7413 14.685 1171 61.8446 387.955 534.558
1081 0 82.4716 15.6417 1290 60.5233 387.811 532.822
1082 1 41.2102 13.7345 566 63.8145 386.712 551.763
1083 0 42.3121 15.4802 655 62.7496 386.896 550.431
1084 0 44.6016 15.3582 685 62.8964 387.263 548.387
1085 0 46.3387 16.5736 768 60.8568 387.066 549.87
1086 0 47.4765 15.1022 717 63.3822 387.053 546.575
1087 0 49.5119 15.5518 770 62.5844 387.288 546.543
1088 0 48.669 16.0266 780 62.5282 387.656 546.376
1089 0 53.7157 16.6432 894 60.538 388.115 547.031
1090 0 51.6089 14.9974 774 64.0698 386.983 544.886
1091 0 53.4742 18.1209 969 60.1238 387.466 545.915
1092 0 56.558 16.5847 938 61.8934 387.503 545.631
1093 0 57.7427 16.5909 958 61.7923 387.325 544.5
1094 0 59.3444 16.9856 1008 62.0268 386.605 544.235
1095 0 61.0756 16.9462 1035 62.1903 386.961 542.622
1096 0 63.6692 17.3396 1104 61.471 386.654 542.422
1097 0 66.7509 15.7301 1050 63.0533 387.214 541.519
1098 0 68.6759 16.9929 1167 61.401 387.206 540.975
1099 0 69.973 16.7065 1169 62.2857 387.823 540.735
1100 0 71.7108 17.5287 1257 61.6205 387.74 538.762
1101 1 32.3558 15.2677 494 68.2328 386.962 554.866
1102 0 32.7406 12.9808 425 70.3459 386.534 555.292
1103 0 35.6002 14.9999 534 68.191 386.483 554.794
1104 0 34.439 15.5928 537 69.2197 386.488 553.637
1105 0 40.4372 14.1454 572 68.4441 386.399 554.745
1106 0 38.6384 15.9168 615 67.813 385.979 553.268
1107 0 40.4935 16.1014 652 67.8727 385.988 552.574
1108 0 42.3919 16.7721 711 66.8706 385.788 552.18
1109 0 43.6499 16.4262 717 67.696 386.035 552.336
1110 0 46.5811 16.745 780 66.5526 386.006 551.035
1111 0 46.3858 16.1472 749 68.247 386.397 550.465
1112 0 50.8248 16.3109 829 66.5103 387.09 550.674
1113 0 49.9433 15.898 794 68.2872 386.55 549.412
1114 0 51.6022 16.6078 857 67.6523 386.785 548.993
1115 0 54.7162 17.3441 949 64.9241 386.663 549.78
1116 0 55.86 17.7766 993 64.9778 385.814 548.394
1117 0 58.7657 17.1018 1005 65.6796 385.826 547.073
1118 0 60.8801 17.362 1057 65.2166 385.871 546.382
1119 0 62.5924 17.5101 1096 65.1953 385.904 544.902
1120 0 64.5139 17.5156 1130 65.3212 385.802 545.69
1121 0 66.4436 16.2995 1083 67.2567 386.285 543.95
1122 0 68.5148 16.3031 1117 67.3939 386.513 542.296
1123 1 31.2969 14.0908 441 70.6916 384.968 558.297
1124 0 34.2303 15.3665 526 67.9354 385.378 558.863
1125 0 36.3221 15.1973 552 68.5 385.85 557.799
1126 0 35.3268 15.9369 563 69.3162 386.071 557.906
1127 0 36.4241 16.4451 599 68.5309 385.554 556.957
1128 0 37.3523 15.394 575 70.0244 385.567 558.212
1129 0 38.4331 17.2507 663 68.0588 385.43 556.819
1130 0 39.3421 17.0301 670 67.4403 385.448 557.307
1131 0 40.3233 15.6237 630 69.8587 385.264 557.214
1132 0 39.4553 16.9052 667 68.6162 385.582 556.992
1133 0 41.3969 17.0303 705 68.5858 385.599 555.479
1134 0 42.7338 15.7018 671 69.9911 385.551 556.967
1135 0 42.4061 16.8608 715 69.779 385.537 556.113
1136 0 43.3074 16.7639 726 69.5565 385.521 555.522
1137 0 45.2594 16.7479 758 70.1069 386.175 555.822
1138 0 47.4034 17.7835 843 69.1032 386.947 554.091
1139 0 47.5758 17.0045 809 70.0729 386.967 553.71
1140 0 48.3523 17.5793 850 69.9882 387.275 552.411
1141 0 51.4214 18.1442 933 70.1919 386.925 552.328
1142 0 52.2542 17.5297 916 72.1616 387.088 551.481
1143 0 54.3336 16.8956 918 72.7004 386.926 550.29
1144 0 57.3394 17.3354 994 72.0292 387.011 548.995
1145 0 58.4916 18.2932 1070 70.685 387.06 547.889
1146 0 61.682 17.4443 1076 72.1645 386.817 545.969
1147 0 64.6312 17.7933 1150 71.1356 387.445 546.285
1148 0 66.7318 17.4729 1166 71.3173 387.513 544.063
1149 0 67.1926 18.4693 1241 70.6906 387.465 545.075
1150 0 69.5216 17.4622 1214 71.8114 387.881 543.636
1151 0 72.5483 17.9742 1304 71.3558 388.532 542.169
1152 0 73.8262 17.2432 1273 71.9914 388.6 543.469
1153 0 76.4052 17.9569 1372 71.2777 389.179 540.111
1154 0 77.3122 17.0607 1319 72.8105 389.196 540.277
1155 0 80.4512 17.3024 1392 72.1509 389.675 538.862
1156 0 84.4771 17.993 1520 71.3467 389.331 537.179
1157 0 85.6583 16.7993 1439 73.4482 390.12 535.883
1158 0 88.6224 17.8172 1579 71.4547 390.189 534.157
1159 0 92.6261 16.7123 1548 73.239 390.826 531.512
1160 0 96.5536 16.8404 1626 72.8856 391.004 529.285
1161 0 99.648 17.622 1756 71.693 390.776 529.121
1162 0 103.562 18.192 1884 70.4777 391.057 529.007
1163 0 106.694 16.8238 1795 73.0423 391.464 524.074
1164 1 50.2318 17.2799 868 74.7074 390.918 549.899
1165 0 54.2044 17.1019 927 74.5814 391.201 548.255
1166 0 57.3074 17.4149 998 73.6423 388.328 548.024
1167 0 57.3691 17.2567 990 75.1515 389.741 546.579
1168 0 61.2029 17.4665 1069 74.1712 390.648 545.004
1169 0 64.4204 17.7739 1145 72.6795 390.703 544.164
1170 0 65.3444 18.2265 1191 73.0437 390.794 544.002
1171 0 68.3142 17.7855 1215 72.9951 391.406 541.77
1172 0 71.5714 17.7585 1271 72.1518 391.541 540.785
1173 0 75.4077 18.6984 1410 70.5135 391.618 538.517
1174 0 76.4348 19.1405 1463 70.0991 392.595 538.809
1175 0 80.514 19.3879 1561 68.8264 392.476 536.449
1176 0 83.5575 19.2921 1612 68.5012 392.584 534.8
1177 0 87.4965 19.4294 1700 67.7735 392.686 531.631
1178 0 90.3622 20.6834 1869 66.0209 392.569 530.147
1179 1 38.2685 14.738 564 71.2057 392.197 553.915
1180 0 40.2798 14.4489 582 70.3883 391.701 553.809
1181 0 45.4747 14.2277 647 69.4003 390.986 552.119
1182 0 41.1255 14.2734 587 69.8773 391.155 554.816
1183 0 42.2447 14.2266 601 70.604 391.143 553.176
1184 0 48.2974 13.5825 656 69.189 391.088 551.424
1185 0 47.0621 15.2565 718 67.3914 390.797 551.309
1186 0 51.2439 14.9286 765 67.0157 391.358 550.157
1187 0 52.3004 15.8507 829 66.5549 390.755 548.743
1188 0 51.1427 14.5475 744 69.164 391.281 549.289
1189 0 53.1395 14.6784 780 69.45 391.319 548.285
1190 0 55.1165 13.9523 769 70.0832 391.205 547.808
1191 0 55.2696 14.6193 808 70.6819 390.923 546.291
1192 0 57.1682 15.4631 884 69.414 390.906 545.329
1193 0 59.1716 14.3481 849 70.9234 390.77 545.397
1194 0 62.3973 14.9365 932 70.3391 390.943 543.511
1195 0 64.2042 14.1268 907 70.6097 390.803 545.101
1196 0 64.2268 15.274 981 70.5199 388.441 543.399
1197 0 66.1473 14.9817 991 70.6963 389.394 543.202
1198 0 67.3055 14.0107 943 71.9788 389.443 541.925
1199 1 34.0204 13.8446 471 72.8854 390.749 557.316
1200 0 35.043 15.2955 536 70.9739 390.297 556.963
1201 0 37.1254 15.0032 557 71.6176 390.163 555.996
1202 0 36.0451 14.0657 507 74.2663 390.302 556.101
1203 0 38.1043 14.8277 565 72.8496 389.864 554.795
1204 0 38.0683 15.3671 585 72.9726 389.526 554.617
1205 0 39.1271 14.3634 562 73.8007 389.456 555.155
1206 0 42.1678 14.9166 629 72.8108 389.674 554.307
1207 0 42.1782 15.0078 633 74.2133 389.619 553.063
1208 0 42.0933 15.4181 649 74.5716 389.479 552.881
1209 0 46.1524 15.6872 724 73.6782 389.116 551.996
1210 0 46.089 14.7758 681 74.4317 387.709 552.151
1211 0 47.0858 14.8452 699 75.0315 388.21 551.536
1212 0 50.1446 15.7744 791 73.8091 387.799 551.842
1213 0 50.1145 15.5244 778 75.4871 388.091 551.188
1214 0 51.1881 14.6714 751 77.0586 388.462 551.615
1215 0 54.2737 15.127 821 76.799 388.153 550.635
1216 0 54.1818 15.0419 815 77.7472 387.638 550.557
1217 0 58.0726 15.7734 916 76.4498 387.904 549.124
1218 0 59.2636 15.1189 896 76.9554 387.644 549.541
1219 0 62.186 15.0999 939 77.6219 387.512 546.125
1220 0 65.222 16.0069 1044 76.0029 387.597 544.384
1221 1 30.1932 14.6391 442 81.1471 387.722 559.204
1222 0 33.0575 15.2764 505 79.3564 387.58 558.263
1223 0 32.2596 14.6933 474 80.7489 386.148 558.968
1224 0 34.1961 15.4403 528 80.8731 386.879 558.114
1225 0 34.2587 14.8283 508 81.5965 385.185 559.754
1226 0 35.3306 14.888 526 83.7205 386.078 557.876
1227 0 37.3876 15.7271 588 81.1037 387.354 557.355
1228 0 37.1904 16.1601 601 81.386 387.373 556.985
1229 0 39.3443 15.6567 616 82.4156 387.049 555.589
1230 0 41.2811 15.4066 636 82.4198 387.321 556.621
1231 0 41.3464 14.8985 616 84.4091 387.287 556.002
1232 0 43.5497 15.4077 671 83.1237 387.042 554.538
1233 0 45.3405 16.4092 744 81.9005 387.048 554.522
1234 0 44.3805 16.3135 724 82.8564 384.615 554.471
1235 0 46.2832 16.9824 786 83.0585 385.286 553.683
1236 0 47.4152 17.3784 824 82.9066 386.011 553.762
1237 0 51.2643 16.6783 855 82.793 386.405 553.669
1238 0 49.2762 17.8585 880 83.6659 386.539 553.206
1239 0 51.1903 17.0736 874 85.7254 386.122 551.855
1240 0 53.113 17.4345 926 85.7808 386.3 552.628
1241 0 54.3255 17.1927 934 87.2538 386.076 551.183
1242 0 55.3268 17.2792 956 87.0868 386.423 550.269
1243 0 55.3137 17.2832 956 88.3096 387.5 551.918
1244 0 59.2031 17.3302 1026 87.2758 387.317 549.893
1245 0 58.2923 16.6231 969 90.4933 387.223 550.824
1246 0 61.2969 17.0971 1048 89.23 386.451 549.212
1247 0 64.2343 17.8565 1147 87.5135 386.905 549.041
1248 0 65.1913 17.395 1134 91.2813 386.594 546.997
1249 0 68.4103 17.205 1177 92.2753 386.613 546.372
1250 0 69.3854 17.0785 1185 93.2616 386.14 544.084
1251 0 72.4823 17.5767 1274 91.9388 385.71 544.521
1252 0 73.5069 17.6174 1295 92.6927 386.424 544.163
1253 0 77.2358 17.3495 1340 93.3 384.896 542.017
1254 0 78.1703 18.2294 1425 92.906 385.689 539.553
1255 0 80.2545 17.8308 1431 93.8512 386.131 539.227
1256 0 81.255 16.8605 1370 96.7263 386.654 538.858
1257 0 85.4472 17.976 1536 93.8236 387.373 537.202
1258 0 87.516 18.0881 1583 94.2382 388.05 536.112
1259 0 89.1904 17.9391 1600 94.42 386.802 535.449
1260 0 92.3525 18.7001 1727 92.1754 387.408 534.708
1261 0 94.315 18.3322 1729 93.8658 387.529 532.611
1262 0 96.3945 18.1857 1753 93.9766 387.2 532.013
1263 0 101.269 18.446 1868 92.8978 387.654 529.681
1264 0 103.348 17.7169 1831 95.1016 388.393 528.683
1265 0 107.494 17.9545 1930 94.0767 388.398 526.895
1266 1 46.2235 17.4587 807 98.3271 388.187 554.797
1267 0 45.0361 17.0974 770 99.4234 388.317 553.795
1268 0 46.2205 17.979 831 98.9278 388.445 553.089
1269 0 48.2551 17.8841 863 98.9467 388.701 551.72
1270 0 51.2344 18.3666 941 96.7481 389.01 551.159
1271 0 52.2485 17.9527 938 97.6514 389.56 550.802
1272 0 52.1934 17.9525 937 98.1409 389.964 549.347
1273 0 55.264 18.3121 1012 96.3745 390.469 549.262
1274 0 57.1918 18.3243 1048 95.7386 390.526 548.224
1275 0 60.1889 18.1096 1090 94.6239 390.549 547.484
1276 0 61.412 19.3448 1188 92.5926 390.456 546.316
1277 0 64.2955 18.3217 1178 92.9643 391.037 544.092
1278 0 65.2169 18.3388 1196 92.5502 391.11 542.974
1279 0 68.2118 18.0027 1228 92.0741 391.522 543.927
1280 0 69.3822 17.9441 1245 93.2 391.745 542.031
1281 0 70.1515 17.5905 1234 93.7666 391.623 541.357
1282 0 74.3406 17.6888 1315 92.0213 391.785 539.658
1283 0 76.3472 17.7479 1355 91.6398 392.351 536.827
1284 0 78.8037 17.7783 1401 90.5289 392.72 536.046
1285 0 83.4859 18.3145 1529 88.5278 392.954 535.148
1286 0 84.3522 17.7115 1494 90.7128 390.721 532.982
1287 0 89.2128 17.6544 1575 89.4083 391.376 531.15
1288 0 90.4377 17.0725 1544 90.9858 391.619 530.499
1289 0 95.1981 17.6054 1676 89.818 392.097 528.894
1290 0 97.2172 18.1552 1765 89.1331 391.974 527.501
1291 0 100.284 17.8294 1788 89.7019 391.865 525.857
1292 0 101.22 18.1782 1840 90.2908 391.464 525.338
1293 0 105.368 17.1969 1812 91.8957 391.887 523.302
1294 0 107.188 17.4927 1875 91.3819 391.61 521.811
1295 0 110.386 18.39 2030 90.0192 391.322 520.544
1296 0 115.178 17.7291 2042 91.8276 391.997 518.336
1297 0 118.248 17.7677 2101 92.3032 392.461 516.877
1298 0 121.49 17.5735 2135 92.9705 392.744 514.891
1299 0 124.221 17.9278 2227 91.3417 392.882 514.464
1300 0 127.235 17.3694 2210 93.6072 392.732 511.162
1301 0 132.497 17.9476 2378 91.8099 392.748 510.215
1302 0 137.235 17.7505 2436 92.2492 392.363 508.576
1303 0 141.295 17.4103 2460 92.8581 392.658 505.804
1304 0 146.264 17.7692 2599 91.0304 392.872 502.903
1305 1 82.1436 14.9981 1232 91.9708 392.407 535.04
1306 0 86.1026 14.5292 1251 92.5596 391.931 534.971
1307 0 87.2013 15.6076 1361 91.7744 392.048 533.013
1308 0 88.1221 15.2516 1344 93.2998 391.699 530.91
1309 0 92.2048 15.0534 1388 92.513 391.614 530.458
1310 0 97.2882 15.3564 1494 91.7872 391.527 529.68
1311 0 98.3185 15.4294 1517 91.4456 391.069 528.077
1312 0 103.274 14.7859 1527 92.1559 390.891 525.615
1313 1 52.1496 14.0557 733 91.4161 390.367 549.801
1314 0 55.0762 14.4346 795 90.6063 390.338 547.024
1315 0 57.0987 14.869 849 89.8174 390.16 546.936
1316 0 58.113 15.0741 876 90.5183 389.627 548.392
1317 0 60.2579 13.9567 841 91.2866 389.438 547.977
1318 0 59.2734 15.0995 895 160.773 388.47 546.969
1319 0 63.2025 14.7621 933 90.4105 389.7 544.013
1320 0 66.2157 14.1658 938 90.9222 388.756 546.203
1321 0 68.1726 15.1087 1030 90.6476 388.457 543.082
1322 0 68.0432 14.3585 977 92.0123 388.472 545.201
1323 0 67.0875 14.3246 961 93.9032 388.019 543.883
1324 0 73.1366 14.8763 1088 91.4458 388.433 542.843
1325 0 74.2434 14.7623 1096 93.4535 388.272 542.479
1326 1 145.406 15.0201 2184 96.1506 388.117 509.402
1327 0 146.32 15.4114 2255 97.69 387.835 509.438
1328 0 147.349 15.3716 2265 98.9245 388.2 507.897
1329 0 149.589 15.576 2330 99.8631 388.103 508.069
1330 0 156.34 15.5366 2429 98.4504 388.507 503.249
1331 0 157.42 15.3284 2413 99.7576 388.145 505.462
1332 0 164.648 15.4572 2545 97.0075 388.303 500.6
1333 0 165.641 15.8234 2621 100.953 387.887 501.221
1334 0 165.526 15.2604 2526 105.335 388.274 501.371
1335 0 174.085 15.1937 2645 103.104 388.532 497.431
1336 1 140.964 14.7555 2080 101.993 388.339 512.903
1337 1 94.5961 14.768 1397 102.007 387.742 533.756
1338 0 99.9068 15.3143 1530 99.0471 387.963 532.745
1339 1 71.7927 14.0822 1011 104.216 387.769 543.789
1340 1 19.5456 12.6371 247 96.5385 387.85 566.385
1341 0 22.5192 12.7447 287 95.4181 387.923 564.47
1342 0 24.4597 12.4286 304 93.5132 388.602 563.829
1343 0 27.4384 11.3345 311 92.3794 388.051 561.685
1344 0 28.3805 13.1781 374 90.1417 387.505 560.206
1345 0 30.3296 13.3862 406 90.165 387.906 559.36
1346 0 30.3688 13.6982 416 90.7163 387.716 558.62
1347 0 31.0644 13.3271 414 91.1377 388.686 560.147
1348 0 33.0542 13.8863 459 89.3399 388.401 560.111
1349 0 33.3199 13.2954 443 91.7698 388.625 557.745
1350 0 34.1365 13.7976 471 90.6093 387.735 559.35
1351 0 35.1979 14.6031 514 89.5603 387.434 557.65
1352 0 35.084 14.28 501 91.0738 387.533 557.443
1353 0 37.3251 13.4762 503 91.5646 387.515 557.694
1354 0 38.2246 13.2375 506 91.9921 386.974 557.686
1355 0 38.2472 14.171 542 91.107 386.758 557.439
1356 0 37.1218 14.0888 523 93.0076 387.006 556.897
1357 0 40.1766 13.8638 557 92.5314 386.964 557.163
1358 0 40.1791 13.4896 542 93.7288 387.304 557.007
1359 0 41.1738 14.8395 611 90.5401 386.772 555.913
1360 0 42.1575 13.9714 589 93.1562 386.779 555.716
1361 0 43.2302 13.9486 603 93.4859 386.501 555.199
1362 0 45.1092 14.077 635 92.452 386.994 554.655
1363 0 46.0843 13.497 622 92.5048 386.461 555.638
1364 0 47.1739 13.4608 635 93.5087 386.82 552.902
1365 0 48.1714 13.8256 666 93.4264 386.55 552.68
1366 1 25.1666 10.8477 273 96.0073 387.315 564.344
1367 0 26.0127 11.0331 287 95.7387 387.15 563.993
1368 0 26.0074 13.0348 339 93.472 386.46 563.13
1369 0 26.0507 11.9767 312 95.218 386.359 563.112
1370 0 29.002 11.6544 338 95.1036 386.817 562.086
1371 0 28.0218 13.3467 374 92.8262 386.529 561.235
1372 0 30.0333 11.8202 355 93.9606 386.203 561.859
1373 0 31.0665 13.1653 409 91.2787 386.65 560.778
1374 0 31.2153 13.6792 427 88.1991 386.607 558.044
1375 0 31.3088 13.1593 412 88.8204 386.388 557.199
1376 0 34.3864 13.6682 470 86.5808 385.932 556.981
1377 0 35.2275 13.6825 482 87.0415 386.085 556.502
1378 0 35.2689 11.2847 398 91.6156 386.309 555.382
1379 0 37.5133 13.4352 504 86.1647 385.631 556.667
1380 0 38.4438 13.3442 513 85.306 385.786 554.852
1381 0 39.4308 13.4666 531 84.1902 385.992 555.045
1382 0 42.5866 13.4549 573 77.733 384.782 554.827
1383 0 43.6438 14.0226 612 75.8807 385.889 553.279
1384 0 44.6278 13.2205 590 81.4475 385.575 552.236
1385 0 46.4885 12.8419 597 81.0302 385.777 550.429
1386 0 47.2813 14.1282 668 79.6527 385.897 550.334
1387 0 48.4703 13.6991 664 79.622 385.864 549.994
1388 0 49.6826 14.5524 723 77.5795 386.141 549.806
1389 0 50.7691 15.4819 786 75.5662 387.023 549.794
1390 0 53.804 14.3484 772 76.7966 387.506 549.858
1391 0 51.5214 13.7807 710 78.6845 387.614 548.387
1392 0 56.6769 15.1031 856 74.8925 387.887 546.346
1393 0 56.5299 15.3193 866 74.7125 387.864 546.559
1394 0 57.6988 13.7785 795 77.2792 388.111 545.706
1395 0 58.6395 14.8535 871 75.8588 388.139 545.112
1396 0 59.6166 14.761 880 75.5932 388.276 544.626
1397 0 61.7424 14.5767 900 75.0433 388.399 545.721
1398 0 63.6925 14.727 938 75.3294 388.675 543.956
1399 0 65.7637 14.4153 948 75.4388 388.612 543.092
1400 0 66.7469 15.0269 1003 75.0279 388.887 540.853
1401 0 69.5856 16.0234 1115 72.6682 389.157 540.882
1402 0 73.9401 16.4728 1218 71.3415 389.507 539.353
1403 0 76.7222 16.4229 1260 70.7627 389.767 535.893
1404 0 76.8751 15.1935 1168 73.7217 389.618 536.148
1405 0 80.722 16.2409 1311 71.2326 389.918 533.285
1406 0 81.5383 15.3547 1252 72.98 390.49 532.422
1407 1 42.5515 12.808 545 74.5688 390.011 551.71
1408 0 42.8525 12.6014 540 75.1111 390.287 551.244
1409 0 45.6555 13.7114 626 72.6054 390.645 550.796
1410 0 44.8198 13.8332 620 75.2113 390.587 549.781
1411 0 46.5972 13.7562 641 74.7956 390.799 549.172
1412 0 48.5421 14.5647 707 72.8925 391.266 548.397
1413 0 50.9485 13.7001 698 73.4198 391.083 547.619
1414 0 54.0131 15.126 817 70.4639 390.936 548.312
1415 0 54.6498 15.2791 835 70.7461 391.663 546.828
1416 0 53.6479 14.5579 781 73.2254 391.488 544.503
1417 0 57.7642 14.8708 859 71.3027 392.113 545.582
1418 0 59.7509 15.9328 952 70.6418 391.513 544.176
1419 0 59.6249 15.5807 929 71.6663 392.232 543.493
1420 0 62.8332 15.4059 968 71.0537 391.524 542.895
1421 0 62.7475 15.0444 944 72.572 392.092 540.649
1422 0 65.5468 15.6682 1027 71.89 391.913 539.886
1423 0 67.5901 15.6828 1060 71.3585 391.769 539.403
1424 0 71.7826 15.324 1100 71.8191 391.722 537.222
1425 0 72.7615 16.4235 1195 69.6067 391.567 537.721
1426 0 76.6898 15.7518 1208 70.7103 391.698 535.407
1427 0 79.0732 14.8217 1172 70.9778 391.742 534.896
1428 0 80.1023 15.0308 1204 70.8297 392.006 532.813
1429 0 85.2912 15.6171 1332 67.9309 392.179 531.556
1430 1 45.7606 12.6965 581 68.0138 391.313 550.127
1431 0 45.8533 12.4964 573 68.7295 391.398 550.204
1432 0 47.678 13.5283 645 68.1194 390.881 548.659
1433 0 46.8049 14.1011 660 67.7667 391.182 549.738
1434 0 50.628 14.5374 736 68.1304 391.088 548.454
1435 0 51.8522 14.6763 761 68.0986 390.934 548.012
1436 0 53.6841 13.8775 745 68.9718 390.886 547.216
1437 0 53.6866 14.7523 792 68.0947 391.136 546.55
1438 0 56.5824 14.2271 805 68.8137 390.585 544.555
1439 0 58.6223 15.0114 880 67.2409 390.15 544.555
1440 0 60.9312 15.0334 916 66.4378 390.046 543.346
1441 0 62.6362 13.8099 865 68.1121 389.932 542.644
1442 0 63.8969 15.8537 1013 64.3208 389.939 543.124
1443 0 65.8272 15.3736 1012 64.7026 389.738 541.718
1444 0 69.2322 15.0219 1040 65.0269 389.902 539.788
1445 0 69.7389 14.3822 1003 65.7936 389.619 539.209
1446 0 71.6659 14.8746 1066 65.6388 389.962 538.287
1447 0 73.8679 13.8897 1026 67.1579 389.657 535.845
1448 0 75.8013 15.7121 1191 64.5029 389.765 536.268
1449 0 79.7363 14.7988 1180 65.2822 389.402 533.907
1450 0 80.6997 14.3743 1160 66.3655 389.348 533.009
1451 0 85.231 15.2175 1297 64.8396 389.278 530.412
1452 0 89.7366 14.3754 1290 64.8853 389.011 530.792
1453 0 91.7414 14.9006 1367 64.7191 388.673 527.509
1454 1 54.7959 11.771 645 66.5566 388.299 547.974
1455 0 57.0616 12.8458 733 65.4038 388.303 546.963
1456 0 57.7613 13.625 787 65.5807 387.962 545.496
1457 0 61.2167 14.5548 891 65.0326 388.71 544.034
1458 0 62.0087 14.7237 913 64.4852 388.24 545.136
1459 0 64.081 13.6078 872 66.7007 388.182 543.867
1460 0 66.2775 13.7603 912 66.2774 388.289 542.1
1461 0 67.8237 14.1249 958 66.167 388.285 542.057
1462 0 73.0049 15.6839 1145 62.9258 387.714 540.71
1463 0 70.9251 14.2263 1009 66.6016 388.138 538.402
1464 0 74.9265 14.7478 1105 65.6624 387.56 538.032
1465 0 77.0732 15.9589 1230 63.8187 387.545 537.32
1466 0 78.1235 13.7475 1074 67.3929 387.48 535.104
1467 0 82.0008 15.3657 1260 65.627 387.534 535.187
1468 0 83.9601 14.6855 1233 66.0243 387.488 533.805
1469 0 87.3893 14.6814 1283 66.5791 387.72 531.74
1470 0 90.2788 15.3081 1382 66.063 387.266 529.989
1471 0 94.1146 15.8211 1489 64.5937 386.998 528.517
1472 0 98.5325 15.3452 1512 64.8571 386.845 527.733
1473 1 40.0628 10.9828 440 64.0705 386.473 556.07
1474 0 41.9635 12.3679 519 63.6493 387.177 555.056
1475 0 43.7334 13.0793 572 65.2657 386.951 553.886
1476 0 45.7287 13.602 622 65.2347 387.084 553.458
1477 0 46.9585 12.4578 585 65.4547 387.058 551.183
1478 0 49.1858 14.9637 736 61.659 386.14 552.539
1479 0 50.8969 13.6747 696 63.6968 385.875 550.44
1480 0 52.4756 13.511 709 63.3272 386.343 550.118
1481 0 53.8533 13.1282 707 64.6704 386.164 548.852
1482 0 53.6952 14.5078 779 64.2798 386.782 548.902
1483 0 55.3673 13.2569 734 66.2902 386.642 548.447
1484 0 59.0824 13.3034 786 65.8537 386.151 548.337
1485 0 59.8512 13.4333 804 66.0896 385.795 546.07
1486 0 62.2023 14.2439 886 64.9752 386.14 544.184
1487 0 64.848 13.4006 869 65.8308 386.404 543.11
1488 0 67.4582 13.6084 918 65.5403 385.526 541.723
1489 0 68.884 14.4155 993 64.9658 386.039 540.417
1490 0 73.3773 14.1188 1036 64.7568 386.294 540.356
1491 0 75.7816 14.1459 1072 64.8909 386.487 539.843
1492 0 77.4885 13.744 1065 65.8779 386.298 539.176
1493 1 40.4538 11.8407 479 66.5699 387.136 556.015
1494 0 42.0506 11.6289 489 65.274 386.556 555.517
1495 0 43.267 13.6363 590 63.9966 386.422 554.359
1496 0 45.5781 13.2959 606 64.7046 387.459 552.015
1497 0 45.5141 13.9297 634 64.2224 386.957 553.566
1498 0 46.9385 13.5922 638 64.4483 387.061 551.6
1499 0 49.6062 12.9823 644 65.6693 387.37 550.416
1500 0 51.3243 14.2623 732 64.4563 387.593 551.145
1501 0 51.6488 13.9209 719 65.3227 387.694 548.858
1502 0 51.9048 13.0431 677 67.3855 387.762 549.49
1503 0 53.9755 13.6173 735 66.8952 388.17 549.491
1504 0 54.528 14.3963 785 66.0701 388.27 547.454
1505 0 58.1732 13.9239 810 65.7086 388.653 546.673
1506 0 59.891 14.9271 894 65.3389 388.536 545.678
1507 0 59.1768 14.0089 829 67.5332 388.853 545.158
1508 0 61.4936 12.8794 792 69.0278 388.572 544.813
1509 0 62.4991 14.8962 931 66.0032 388.581 543.374
1510 0 63.9754 14.1773 907 66.1764 389.214 542.73
1511 0 66.7098 14.4357 963 65.5317 388.935 541.985
1512 0 67.4953 14.401 972 66.3899 389.707 540.273
1513 0 70.6449 14.6366 1034 65.8994 389.826 538.814
1514 0 73.3556 14.7228 1080 65.663 389.871 539.458
1515 0 73.663 14.3084 1054 66.9459 390.238 537.648
1516 0 78.6688 14.7581 1161 65.5426 390.292 536.726
1517 1 43.6768 12.5009 546 65.1868 390.581 553.652
1518 0 43.9319 12.2462 538 66.7268 390.586 552.53
1519 0 44.1131 12.7173 561 66.2567 390.808 551.483
1520 0 46.3808 13.9066 645 64.6186 390.806 549.264
1521 0 46.6538 13.9967 653 64.951 391.006 548.865
1522 0 50.0938 14.2333 713 63.4376 391.122 548.7
1523 0 50.9227 14.8068 754 62.6698 391.256 547.293
1524 0 52.6997 14.7629 778 62.4884 391.856 547.343
1525 0 53.2767 14.0399 748 63.0682 391.869 544.824
1526 0 56.7044 14.1788 804 61.7015 392.311 544.587
1527 0 57.3263 14.1122 809 61.5216 391.464 544.534
1528 0 57.8364 13.763 796 62.2889 392.574 543.466
1529 0 58.8492 14.8685 875 60.9463 392.481 543.445
1530 0 64.1136 15.4413 990 59.3404 392.631 543.864
1531 0 66.5172 14.9886 997 60.3079 392.888 540.545
1532 0 67.4262 13.5111 911 63.5928 392.876 538.155
1533 0 68.0168 13.3938 911 63.8485 392.89 537.514
1534 0 72.2634 13.5615 980 63.5306 392.867 535.646
1535 0 75.0049 14.0391 1053 62.4103 392.47 535.747
1536 0 74.4055 13.5205 1006 63.7763 392.441 533.592
1537 0 79.8375 14.3166 1143 61.6868 392.544 534.643
1538 0 79.7683 14.3666 1146 62.1361 392.126 532.38
1539 1 42.5521 13.2074 562 60.5089 392.192 552.632
1540 0 42.9709 11.8685 510 62.1039 391.91 551.137
1541 0 44.1189 13.3503 589 61.1239 392.126 549.168
1542 0 45.8918 12.4641 572 61.3776 391.362 549.965
1543 0 48.1757 13.43 647 60.2133 392.091 548.062
1544 0 49.4439 15.1485 749 59.0507 391.777 546.969
1545 0 51.5706 14.5044 748 60.5094 391.77 547.259
1546 0 51.7227 13.7851 713 61.6339 391.799 546.245
1547 0 55.4395 14.4662 802 59.2968 391.411 546.029
1548 0 57.0348 15.0084 856 58.889 391.355 545.092
1549 0 56.3252 14.221 801 59.97 391.025 546.12
1550 0 57.4505 14.0817 809 60.8714 390.952 544.492
1551 0 62.2521 14.1361 880 60.0534 391.131 543.799
1552 0 62.5616 14.5137 908 60.2203 390.569 542.736
1553 0 63.2122 13.5733 858 61.8403 390.368 542.661
1554 0 65.3555 13.7249 897 61.3824 390.686 540.661
1555 0 68.2028 14.2516 972 60.9897 390.548 541.02
1556 0 72.2871 14.5669 1053 60.0142 390.63 539.066
1557 1 37.0455 10.1767 377 62.9629 390.355 555.082
1558 0 39.2556 10.5717 415 63.3157 390.494 553.39
1559 0 41.2592 12.6517 522 61.1743 390.391 553.1
1560 0 42.607 12.3219 525 60.2495 390.587 553.989
1561 0 41.7428 12.1937 509 62.2141 390.464 552.153
1562 0 46.1224 12.3367 569 61.3532 389.814 551.033
1563 0 46.3728 13.9306 646 61.0031 389.181 551.95
1564 0 49.2242 13.855 682 61.088 388.757 549.186
1565 0 50.9767 13.7318 700 61.0686 388.291 549.183
1566 0 50.9543 13.9733 712 61.5337 388.333 548.522
1567 0 53.2929 13.3601 712 61.9494 388.132 548.869
1568 0 56.0567 13.9323 781 61.4738 388.476 544.926
1569 0 59.3763 14.7028 873 60.7423 388.425 543.645
1570 0 59.2928 13.5598 804 62.7998 388.544 544.159
1571 0 61.04 14.0727 859 61.617 388.697 543.235
1572 0 63.0002 14.1111 889 61.8695 388.895 541.212
1573 0 65.3784 14.1025 922 61.884 388.652 540.612
1574 0 64.8486 13.6009 882 63.3991 388.451 539.348
1575 0 69.0662 14.8987 1029 60.6968 388.331 539.547
1576 0 69.0867 14.489 1001 62.4076 389.325 537.136
1577 0 72.0827 14.1227 1018 62.7967 388.991 537.497
1578 0 73.3343 14.2634 1046 63.3317 389.06 536.965
1579 0 76.2398 15.7005 1197 61.5272 387.776 537.333
1580 0 76.2251 14.3653 1095 64.4292 387.949 535.013
1581 0 79.9771 14.8918 1191 63.5877 387.798 535.044
1582 0 81.3343 14.3113 1164 65.0662 387.492 533.877
1583 0 84.2494 14.006 1180 65.6822 387.886 531.006
1584 0 86.4898 13.5623 1173 66.2029 387.245 531.774
1585 1 46.2872 12.4656 577 63.2288 387.156 553.697
1586 0 47.242 12.4042 586 64.9522 387.02 551.568
1587 0 49.7575 13.405 667 63.5937 387.217 550.507
1588 0 49.0604 12.5152 614 66.1319 386.796 549.604
1589 0 52.3023 13.6514 714 63.7059 386.625 549.185
1590 0 51.8745 13.1086 680 65.3632 386.647 548.732
1591 0 51.1999 13.5938 696 65.9569 386.928 548.983
1592 0 53.3315 14.363 766 65.0222 386.813 548.796
1593 0 57.4372 14.0153 805 64.5913 386.943 547.337
1594 0 59.2096 14.3558 850 63.3647 386.909 546.502
1595 0 60.4736 14.5353 879 63.2969 387.342 544.959
1596 0 61.1622 13.4233 821 64.2534 387.519 545.376
1597 0 65.1168 14.9577 974 62.0349 387.799 542.504
1598 0 67.1599 14.8898 1000 62.422 387.33 540.702
1599 0 69.2006 14.234 985 62.602 387.668 542.423
1600 0 70.0325 13.3509 935 64.2674 388.045 539.673
1601 0 72.1334 13.3641 964 64.1909 387.796 539.39
1602 0 75.7658 14.0961 1068 63.6835 387.947 536.216
1603 0 76.7964 15.0528 1156 62.3218 387.592 536.008
1604 0 80.3939 14.7524 1186 62.7218 388.066 534.384
1605 0 83.5343 14.6407 1223 62.6746 388.39 532.165
1606 0 84.3728 14.0685 1187 63.2746 388.269 532.276
1607 0 89.1973 13.9018 1240 62.8121 389.165 530.755
1608 0 91.3036 13.9863 1277 62.3915 389.197 529.354
1609 1 52.1936 13.2583 692 60.3714 389.548 549.406
1610 0 54.0987 12.2184 661 61.3101 389.219 547.962
1611 0 53.157 13.6388 725 59.5503 389.281 548.388
1612 0 58.292 14.8048 863 57.6674 389.399 546.822
1613 0 57.2548 14.5315 832 58.5986 389.804 545.618
1614 0 59.1079 13.8391 818 59.78 390.539 543.639
1615 0 61.1245 14.8713 909 58.6062 390.443 542.801
1616 0 63.078 13.9668 881 59.3246 390.703 542.447
1617 0 65.1383 14.876 969 58.9247 391.196 541.449
1618 0 67.3229 14.1111 950 60.5379 390.972 540.408
1619 0 67.0884 13.5791 911 62.0505 391.451 537.96
1620 0 69.272 13.9595 967 61.6887 391.799 536.37
1621 0 72.2577 13.9362 1007 61.8421 391.644 536.012
1622 0 76.1667 14.9672 1140 59.8535 391.589 536.666
1623 0 78.1415 15.024 1174 59.8092 391.847 533.87
1624 0 81.1886 14.7188 1195 60.2787 391.888 531.118
1625 0 84.0916 14.2701 1200 60.5175 392.058 530.141
1626 0 87.2044 13.9786 1219 60.3126 392.249 529.152
1627 1 49.1193 12.093 594 58.1784 392.652 548.168
1628 0 48.1877 11.642 561 59.4955 392.993 547.435
1629 0 50.1295 13.7245 688 57.1279 393.477 547.43
1630 0 52.0394 14.0855 733 57.0109 393.201 546.478
1631 0 53.1868 14.0448 747 57.7296 393.244 544.601
1632 0 54.1689 14.3256 776 57.5528 393.13 546.696
1633 0 54.0752 13.7771 745 58.7893 392.702 543.899
1634 0 57.242 14.3077 819 58.3004 392.985 541.994
1635 0 58.1491 14.0157 815 58.2798 392.872 542.123
1636 0 61.2041 14.5415 890 57.9876 392.871 541.685
1637 0 61.3582 13.8857 852 59.1737 392.945 540.849
1638 0 64.1587 15.5864 1000 56.617 392.847 540.592
1639 0 64.4046 13.9586 899 59.2926 393.198 538.06
1640 0 67.2906 14.1476 952 59.0861 392.492 537.961
1641 0 68.2085 14.5143 990 58.6535 392.894 536.694
1642 0 70.359 13.9144 979 58.9734 393.197 536.258
1643 0 73.4853 14.6152 1074 58.4842 392.994 534.682
1644 1 39.3529 11.7145 461 59.2907 393.013 551.846
1645 0 43.2608 12.0432 521 58.5739 393.182 549.559
1646 0 42.2676 11.9004 503 59.2366 393.123 550.835
1647 0 42.194 12.3714 522 59.5862 392.969 550.795
1648 0 46.2302 12.6541 585 59.5231 392.713 549.145
1649 0 46.1312 12.5078 577 60.4922 392.199 547.879
1650 0 47.1079 13.5222 637 58.5714 392.05 549.031
1651 0 49.1141 13.1327 645 58.7922 392.033 548.023
1652 0 50.3061 13.6365 686 59.6399 392.181 547.268
1653 0 50.1635 14.4527 725 59.1352 391.546 546.432
1654 0 50.1531 13.2793 666 60.5465 392.029 545.17
1655 0 52.2125 13.943 728 59.7472 391.435 545.217
1656 0 53.2677 13.7982 735 60.049 390.946 543.721
1657 0 54.1535 13.7387 744 60.5269 390.894 544.036
1658 0 57.2392 15.0596 862 58.2332 390.847 544.896
1659 0 62.1473 14.884 925 57.9395 391.225 542.73
1660 0 61.1975 13.8241 846 60.422 391.202 542.495
1661 0 64.1402 15.4973 994 58.331 391.084 541.062
1662 0 64.0677 14.5783 934 60.0118 390.999 540.713
1663 0 65.1157 14.5741 949 60.6438 391.007 540.718
1664 0 66.3877 15.2588 1013 60.7038 391.012 537.74
1665 0 67.4424 14.2937 964 62.9481 390.864 537.796
1666 0 71.5013 15.6641 1120 60.7196 391.036 536.86
1667 0 75.1317 16.0252 1204 59.3356 390.671 537.86
1668 0 75.15 15.316 1151 60.6264 390.687 536.833
1669 0 78.3106 15.8982 1245 59.6964 390.662 534.498
1670 0 81.5571 15.4983 1264 59.8687 390.272 532.794
1671 0 82.5081 15.5742 1285 59.8786 390.458 532.113
1672 0 84.2281 14.4014 1213 61.7931 390.416 531.738
1673 0 86.6518 13.9986 1213 62.0173 390.13 529.115
1674 0 89.6546 14.9351 1339 60.6931 390.282 529.836
1675 0 91.5998 15.131 1386 60.7352 389.703 527.092
1676 0 97.2684 15.2568 1484 60.157 389.552 527.811
1677 0 98.2323 16.064 1578 59.6964 389.845 525.037
1678 0 101.268 15.227 1542 60.7445 389.51 523.953
1679 0 105.094 15.5574 1635 60.2122 389.307 521.908
1680 1 53.1446 15.4108 819 59.8669 389.789 547.582
1681 0 55.141 14.5445 802 60.707 389.777 547.005
1682 0 55.3573 14.1625 784 61.8878 389.158 546.156
1683 0 58.1871 14.4362 840 61.1298 389.037 545.588
1684 0 60.0961 15.6083 938 58.3614 389.582 545.005
1685 0 62.1038 14.5402 903 59.7874 389.066 542.212
1686 0 63.7334 15.0941 962 58.9834 389.027 540.865
1687 0 66.3654 14.7366 978 59.226 388.992 541.636
1688 0 69.9841 15.0891 1056 58.5663 388.546 538.971
1689 0 70.1693 13.7097 962 60.6185 388.11 537.273
1690 0 73.7326 14.8374 1094 58.7824 387.613 537.856
1691 0 76.3959 15.0663 1151 58.404 387.337 536.156
1692 1 41.383 10.874 450 59.6044 386.747 553.189
1693 0 43.8958 13.0081 571 57.6935 386.998 552.084
1694 0 44.482 12.0498 536 59.2388 387.118 551.636
1695 0 46.0246 13.08 602 56.9302 387.076 551.679
1696 0 47.0655 14.278 672 56.8214 387.379 549.912
1697 0 48.21 14.2502 687 58.3071 387.662 550.948
1698 0 49.1133 13.5198 664 58.8479 387.605 551.279
1699 0 51.2001 14.1992 727 58.9601 387.624 549.607
1700 0 53.1783 14.3668 764 58.8809 387.349 548.628
1701 0 56.0934 14.5472 816 58.2672 386.929 549.194
1702 0 55.1777 13.7012 756 60.3148 386.914 548.153
1703 0 58.1636 14.0466 817 59.9229 386.763 548.88
1704 0 60.0932 14.9268 897 59.0357 386.695 548.6
1705 0 60.1144 13.7238 825 60.4885 387.095 549.115
1706 0 62.1835 14.2481 886 60.2968 387.474 548.007
1707 0 62.1835 14.1838 882 167.033 388.48 548.028
1708 0 64.0752 14.7951 948 60.7722 386.998 545.02
1709 0 66.1395 13.5471 896 61.817 387.468 543.629
1710 0 70.1337 13.9733 980 60.5429 387.523 544.294
1711 0 70.1786 12.8957 905 62.7094 387.2 540.059
1712 0 71.2749 13.6935 976 62.2049 387.411 539.61
1713 0 74.0867 14.1726 1050 60.8581 387.612 539.178
1714 0 79.1938 14.5718 1154 60.0693 387.639 537.312
1715 0 79.1244 15.444 1222 59.4542 387.669 536.124
1716 0 82.28 14.0253 1154 61.24 388.289 534.609
1717 0 85.2238 14.9371 1273 59.989 388.52 534.163
1718 0 87.2539 15.3346 1338 59.7205 388.674 529.36
1719 0 91.1468 14.7674 1346 60.0416 388.886 527.907
1720 1 48.1812 11.3115 545 60.5798 389.739 550.354
1721 0 47.2433 11.663 551 61.5281 389.348 547.846
1722 0 51.1783 12.8179 656 59.1662 389.287 549.613
1723 0 51.139 12.6714 648 60.9259 389.16 548.685
1724 0 55.1966 14.4936 800 58.8512 389.075 547.038
1725 0 57.5642 14.2797 822 59.1277 389.498 546.012
1726 0 57.1306 14.038 802 60.3516 389.873 544.545
1727 0 59.1092 13.3989 792 60.87 389.855 545.179
1728 0 64.135 13.7211 880 58.3125 390.056 543.861
1729 0 66.2344 15.3999 1020 55.6784 390.072 543.874
1730 0 66.0744 13.0762 864 58.5718 390.171 541.679
1731 0 67.2501 14.7509 992 56.0958 390.5 541.341
1732 0 71.2329 15.1896 1082 55.3189 390.676 539.907
1733 0 72.0976 14.6329 1055 56.2948 390.9 538.859
1734 0 75.1705 14.4605 1087 57.828 391.352 537.792
1735 0 75.1705 13.649 1026 161.017 392.393 536.8
1736 0 80.0488 13.954 1117 61.4002 392.085 533.825
1737 0 81.106 13.4269 1089 63.9982 392.339 532.006
1738 0 84.2326 13.1541 1108 64.5117 392.375 530.011
1739 0 86.2762 13.3756 1154 63.4688 392.653 528.484
1740 0 89.1614 13.3914 1194 63.2915 392.637 529.936
1741 0 92.104 14.0711 1296 61.4105 392.71 527.799
1742 1 48.024 12.577 604 60.7583 393.151 550.957
1743 0 48.0481 11.9464 574 61.8571 393.596 550.359
1744 0 49.0712 12.9608 636 59.3616 393.62 549.634
1745 0 51.1087 12.581 643 59.4821 393.955 547.67
1746 0 50.1473 13.4404 674 59.2952 393.408 547.088
1747 0 53.3052 13.9011 741 57.8124 392.903 546.24
1748 0 53.1191 13.7427 730 58.5959 393.136 545.111
1749 0 56.1842 13.5803 763 58.6068 393.591 544.353
1750 0 54.1912 11.9946 650 60.94 394.154 540.471
1751 0 60.1395 12.8534 773 59.304 394.109 542.885
1752 0 61.0968 13.8305 845 58.4923 394.198 541.741
1753 0 62.1668 13.3673 831 58.7184 394.081 539.966
1754 0 64.1535 13.4833 865 58.5191 393.674 539.284
1755 0 66.1622 13.4669 891 58.3603 393.96 538.376
1756 0 67.1085 14.0072 940 58.3106 393.822 538.6
1757 0 70.3039 13.1714 926 59.351 393.929 536.093
1758 0 72.1751 13.869 1001 58.8791 393.943 534.824
1759 0 76.102 14.52 1105 57.2489 393.928 532.862
1760 0 77.211 13.4048 1035 58.7604 394.363 531.814
1761 0 79.2031 14.1409 1120 58.2634 394.573 529.943
1762 0 80.1634 12.8488 1030 59.8767 394.433 531.411
1763 0 85.3818 14.1951 1212 57.5107 394.641 530.268
1764 0 86.324 12.928 1116 59.3513 394.204 529.42
1765 0 88.5685 12.4649 1104 59.9357 394.187 526.762
1766 1 48.1946 11.2461 542 57.9705 394.446 547.286
1767 0 50.2484 11.0849 557 58.6607 394.321 545.759
1768 0 50.1519 11.864 595 57.758 394.171 545.726
1769 0 54.5825 12.8246 700 55.51 393.739 545.406
1770 0 55.2382 12.5638 694 57.987 393.746 543.859
1771 0 57.1822 13.2909 760 57.6184 393.775 540.983
1772 0 59.1282 13.6145 805 58.0683 393.417 543.499
1773 0 60.1436 13.7837 829 58.9385 393.037 541.326
1774 0 63.2477 14.1033 892 58.9664 393.36 541.093
1775 0 64.1285 14.4709 928 59.6843 393.194 540.727
1776 0 63.1924 13.5143 854 60.4321 392.773 539.628
1777 0 67.2274 13.3874 900 60.2278 392.839 538.211
1778 0 70.0952 14.5659 1021 59.6356 392.467 537.414
1779 0 72.2864 13.3497 965 60.9181 392.84 537.109
1780 0 73.1251 14.0308 1026 59.654 392.708 537.092
1781 0 74.1845 14.1674 1051 59.5814 392.405 534.718
1782 0 77.1268 13.964 1077 59.4624 392.342 533.926
1783 0 80.1182 15.0278 1204 58.1769 392.698 532.002
1784 0 82.2801 14.3777 1183 58.6399 391.737 530.478
1785 0 85.2403 14.1248 1204 58.4144 391.733 529.44
1786 1 47.1307 12.5396 591 58.7648 391.259 548.694
1787 0 48.2125 12.5694 606 58.7508 391.158 548.847
1788 0 49.1622 11.9604 588 61.1565 390.918 545.866
1789 0 54.3305 13.9332 757 57.7067 390.552 545.79
1790 0 55.1528 14.5233 801 57.9413 390.467 543.644
1791 0 56.1622 14.9032 837 57.7814 390.375 545.363
1792 0 57.2222 14.4524 827 58.5901 390.658 543.773
1793 0 59.259 15.2382 903 58.0343 390.787 542.929
1794 0 61.1725 13.4864 825 59.703 390.996 541.278
1795 0 62.0829 14.3357 890 59.0933 390.89 540.494
1796 0 64.199 13.8787 891 59.6622 390.845 541.048
1797 0 65.2184 15.4098 1005 58.3761 390.274 541.338
1798 0 67.2469 13.9635 939 60.3642 390.448 539.012
1799 0 69.1963 14.3938 996 59.9458 389.872 539.514
1800 0 70.2139 14.8689 1044 59.2529 390.006 538.469
1801 0 72.1575 14.7594 1065 59.5887 389.867 539.806
1802 0 74.3111 15.5697 1157 58.9853 389.799 536.564
1803 0 76.2741 14.4741 1104 60.423 389.464 537.302
1804 0 80.2567 14.2418 1143 60.8749 389.493 535.057
1805 0 83.188 15.5671 1295 59.1174 389.476 533.727
1806 0 87.171 14.8559 1295 59.7189 389.12 533.9
1807 0 87.3469 14.5741 1273 60.6897 389.446 529.978
1808 0 93.4028 15.4813 1446 58.6093 389.655 530.52
1809 1 49.0497 12.6402 620 60.6903 389.526 550.173
1810 0 51.1144 12.4818 638 59.8464 389.398 551.647
1811 0 53.1196 13.3661 710 59.2986 389.101 549.959
1812 0 54.1097 13.8607 750 59.3013 389.245 548.331
1813 0 57.1504 14.6106 835 58.2707 389.108 546.816
1814 0 59.0442 13.9556 824 58.9551 389.134 545.933
1815 0 59.1361 14.3398 848 59.0413 388.438 544.662
1816 0 63.1624 15.2306 962 56.9699 388.574 543.727
1817 0 64.225 14.6049 938 58.0171 388.373 543.646
1818 0 64.3982 14.6122 941 58.3156 388.369 541.484
1819 0 68.2978 14.6564 1001 57.7882 388.478 539.844
1820 0 73.2644 14.5227 1064 56.9577 388.731 539.032
1821 0 73.3216 15.3706 1127 56.3061 388.702 537.912
1822 0 73.3216 15.357 1126 157.134 388.712 537.89
1823 0 77.2298 15.2143 1175 56.9923 389.157 535.608
1824 0 80.3694 15.7647 1267 56.4017 389.792 533.178
1825 0 80.2125 14.7359 1182 57.687 389.794 532.854
1826 0 84.255 15.2513 1285 57.0202 389.85 530.451
1827 0 85.282 15.6422 1334 57.1094 389.29 529.945
1828 0 87.344 14.1738 1238 58.7367 389.733 529.549
1829 0 93.3091 14.4359 1347 57.588 389.641 526.88
1830 0 94.1412 15.6892 1477 56.455 390.063 523.417
1831 0 97.3603 14.2255 1385 58.0036 389.776 523.975
1832 0 100.131 14.9404 1496 57.268 390.513 524.247
1833 0 102.295 15.2011 1555 57.2225 390.419 520.912
1834 0 106.295 15.1559 1611 56.7517 390.412 522.619
1835 1 58.1536 12.6733 737 57.787 390.609 543.855
1836 0 61.1795 13.0109 796 56.5729 390.714 541.987
1837 0 62.2362 13.3684 832 56.1022 390.371 541.895
1838 0 65.2388 13.9794 912 55.2807 390.696 540.753
1839 0 67.2656 14.2272 957 55.1682 391.385 540.809
1840 0 71.3249 14.5672 1039 54.435 391.602 539.229
1841 0 72.4293 14.6902 1064 54.3985 391.454 536.539
1842 0 75.5911 14.0228 1060 54.7424 391.958 534.854
1843 0 78.5973 14.0336 1103 54.4578 392.523 533.914
1844 0 81.4437 14.157 1153 54.2628 393.216 531.37
1845 0 84.5323 14.1839 1199 54.0284 393.172 532.19
1846 0 87.9395 14.8625 1307 53.1102 392.744 530.135
1847 0 90.3202 14.0943 1273 53.6481 392.994 528.714
1848 0 93.9194 14.4273 1355 53.3424 393.018 524.928
1849 0 97.311 13.8833 1351 54.1029 393.315 524.45
1850 1 53.9367 9.84487 531 56.3691 392.96 543.849
1851 0 57.0435 13.2706 757 52.3765 393.098 543.823
1852 0 55.3288 12.3625 684 54.4328 393.471 539.731
1853 0 60.762 12.623 767 52.1186 393.836 540.91
1854 0 62.2298 13.6751 851 51.0905 393.626 540.113
1855 0 62.1206 13.4416 835 52.1593 393.099 538.774
1856 0 65.9883 13.1842 870 52.2644 392.933 538.382
1857 0 66.5627 14.107 939 51.1736 392.92 537.872
1858 0 69.5374 13.9206 968 51.061 393.253 538.282
1859 0 70.7799 14.1001 998 51.1202 392.347 537.522
1860 0 72.2421 15.3788 1111 50.3771 392.374 534.609
1861 0 76.0827 13.2619 1009 51.8583 392.014 533.327
1862 0 78.0508 14.2215 1110 51.5577 391.699 532.082
1863 0 79.4755 14.9606 1189 50.4979 391.801 532.053
1864 0 82.7318 12.9334 1070 52.5159 391.811 529.68
1865 0 85.1075 14.4641 1231 51.2754 391.68 529.649
1866 0 87.4907 14.6073 1278 51.3537 392.04 528.783
1867 0 91.3175 14.3017 1306 51.9878 391.628 524.923
1868 0 93.4466 14.0722 1315 52.4365 391.316 525.325
1869 0 97.3569 15.4894 1508 50.9131 391.875 523.398
1870 0 99.3879 14.4283 1434 52.1813 391.315 522.448
1871 0 101.321 13.8076 1399 52.4796 391.063 519.79
1872 0 106.499 14.5729 1552 51.5954 391.099 518.06
1873 0 108.06 14.8344 1603 51.9651 390.381 517.306
1874 1 59.3128 11.6501 691 52.5427 390.465 541.524
1875 0 61.6258 12.1702 750 51.9413 390.493 542.516
1876 0 63.408 13.0898 830 52.2096 390.366 540.292
1877 0 65.5873 12.6549 830 53.2843 390.606 538.926
1878 0 68.8182 14.0951 970 51.9979 390.396 536.653
1879 0 72.0569 13.8363 997 52.8907 390.811 535.623
1880 0 73.3278 15.192 1114 51.7118 391.373 535.078
1881 0 73.407 13.1459 965 54.7513 391.238 533.775
1882 0 76.8333 13.6009 1045 54.2067 390.643 533.15
1883 0 79.2982 14.6283 1160 52.981 390.703 534.542
1884 0 83.3788 14.4281 1203 53.6983 390.968 533.818
1885 0 85.223 14.1394 1205 54.5178 391.112 531.069
1886 0 87.3102 14.8093 1293 54.0974 390.987 530.132
1887 0 91.0971 14.4681 1318 54.2997 390.692 531.854
1888 0 94.1972 15.1915 1431 53.9224 390.672 528.594
1889 0 95.4388 13.4536 1284 56.6122 390.641 523.953
1890 0 98.3565 14.9965 1475 55.0258 390.488 525.304
1891 1 57.1178 11.9577 683 55.2943 390.786 548.23
1892 0 56.3546 12.581 709 55.4753 391.137 547.471
1893 0 59.0947 11.9977 709 56.33 391.087 546.347
1894 0 59.4866 13.8182 822 54.9976 390.693 543.942
1895 0 60.5086 13.3204 806 54.6303 390.617 543.98
1896 0 62.5226 13.7071 857 55.3022 390.063 544.755
1897 0 62.152 12.5982 783 56.8978 390.042 545.179
1898 0 65.3475 13.4359 878 55.7415 390.243 542.796
1899 0 68.1903 13.3303 909 55.6095 389.378 541.254
1900 0 70.3444 14.2016 999 54.8328 389.45 540.302
1901 0 73.3491 13.5516 994 55.2696 389.075 538.866
1902 0 74.2961 13.9711 1038 54.7852 389.402 537.778
1903 0 74.0028 13.4184 993 55.7986 388.986 536.82
1904 0 78.285 13.2465 1037 55.9238 388.882 535.27
1905 0 81.3023 13.1485 1069 56.0356 389.42 535.05
1906 0 83.5542 13.8593 1158 55.1062 388.817 534.06
1907 0 84.809 13.9136 1180 54.5203 388.65 533.983
1908 0 88.9173 14.3167 1273 54.3849 388.749 530.157
1909 0 92.74 14.2873 1325 54.1924 388.688 529.912
1910 0 91.6519 12.4493 1141 56.1367 388.667 529.336
1911 1 52.1482 12.0618 629 53.8967 388.238 551.676
1912 0 52.0629 10.8907 567 56.0529 388.192 547.693
1913 0 54.9704 12.4249 683 54.0073 388.407 548.303
1914 0 55.3951 12.7268 705 53.7688 388.136 547.434
1915 0 56.4949 12.9746 733 53.9372 387.764 544.752
1916 0 57.5114 13.5799 781 53.2727 387.661 547.374
1917 0 60.1133 12.909 776 54.0657 386.936 545.335
1918 0 63.4194 13.7655 873 53.4777 387.148 544.448
1919 0 64.5473 13.8968 897 54.0022 387.584 542.387
1920 0 67.2028 13.7048 921 53.8719 388.249 541.749
1921 0 68.5416 13.8602 950 53.4937 387.1 540.559
1922 0 69.7608 14.5067 1012 53.0287 387.251 540.052
1923 0 71.8078 14.0514 1009 53.8504 387.054 539.182
1924 0 76.1792 13.9408 1062 53.2458 387.17 538.829
1925 0 76.4337 15.5691 1190 52.0857 387.392 537.755
1926 0 77.4554 13.5562 1050 54.4086 387.493 537.788
1927 0 81.2873 14.5656 1184 52.9806 387.81 536.261
1928 0 84.6888 14.819 1255 52.2016 387.415 533.376
1929 1 45.7756 10.2893 471 53.0892 387.42 553.087
1930 0 48.5361 11.8675 576 53.0035 387.698 552.285
1931 0 47.6655 12.4199 592 52.799 387.863 552.959
1932 0 50.213 11.1126 558 54.0609 387.616 549.751
1933 0 52.5556 12.3108 647 53.3849 387.909 549.816
1934 0 56.2539 13.2435 745 51.6389 387.811 549.209
1935 0 57.4069 11.8627 681 51.8928 387.885 546.269
1936 0 59.9788 12.5711 754 51.8302 386.881 545.576
1937 0 61.2714 12.0284 737 52.1208 386.563 544.35
1938 0 64.0399 14.1318 905 50.3072 386.966 543.029
1939 0 65.7197 13.801 907 51.0198 387 541.957
1940 0 68.0169 12.5116 851 52.0834 387.095 542.921
1941 0 68.2109 13.1064 894 52.2215 387.142 540.278
1942 0 69.1026 13.1688 910 52.433 387.291 537.223
1943 0 73.4008 13.1742 967 52.8738 387.367 535.235
1944 0 76.77 14.0419 1078 50.6865 387.151 536.556
1945 0 79.0512 14.9523 1182 49.8173 387.458 535.861
1946 0 80.355 13.4155 1078 51.4712 387.696 533.281
1947 0 83.819 13.3383 1118 51.3685 387.508 531.589
1948 0 83.819 13.3383 1118 136.742 386.508 531.589
1949 0 90.9101 15.1688 1379 49.4895 387.189 528.847
1950 1 46.0572 12.3325 568 50.463 387.375 549.981
1951 0 47.1717 11.2144 529 51.8696 387.49 550.302
1952 0 49.0832 11.2666 553 51.8156 387.761 548.02
1953 0 46.4553 14.3148 665 50.591 388.262 546.707
1954 0 47.938 13.6844 656 50.8415 388.09 548.259
1955 0 52.0222 14.5899 759 49.7312 388.289 548.228
1956 0 54.0354 12.7509 689 51.5835 388.897 545.721
1957 0 55.2835 15.1582 838 49.5644 388.973 545.03
1958 0 55.3558 14.1087 781 51.3713 389.392 544.492
1959 0 57.9 14.3351 830 50.9675 389.116 542.557
1960 0 58.6169 12.1296 711 53.1983 389.527 542.714
1961 0 62.4344 13.9827 873 50.8855 389.514 543.919
1962 0 62.0569 13.4554 835 52.3449 389.63 541.696
1963 0 64.7546 14.2847 925 51.4876 390.038 541.304
1964 0 67.0428 14.7965 992 51.1714 390.287 539.844
1965 0 68.2495 15.3554 1048 50.8807 390.075 538.178
1966 0 69.6416 14.0864 981 52.6086 390.876 537.985
1967 0 73.7876 14.5688 1075 51.9228 391.204 536.056
1968 0 76.0428 16.3987 1247 50.0994 391.669 535.617
1969 0 77.997 15.0647 1175 51.9251 391.976 534.611
1970 0 79.8466 15.2042 1214 52.4415 392.057 532.763
1971 0 80.2823 15.2338 1223 53.2878 392.401 531.836
1972 0 85.644 14.9923 1284 53.1745 391.988 531.09
1973 0 87.2014 15.4126 1344 53.0312 392.577 530.423
1974 0 90.4196 14.8308 1341 53.8837 392.733 527.398
1975 1 49.1661 12.3662 608 54.6184 392.719 548.298
1976 0 50.3369 13.4891 679 54.489 392.396 546.695
1977 0 50.2948 12.3472 621 56.1916 392.862 545.646
1978 0 52.714 13.1464 693 55.0693 392.508 545.416
1979 0 54.0741 14.961 809 54.2954 392.147 543.18
1980 0 56.4196 14.4099 813 55.1488 392.49 542.988
1981 0 56.189 14.3089 804 55.8097 392.662 542.642
1982 0 57.1917 15.0371 860 55.1744 393.346 542.845
1983 0 59.1206 14.4958 857 56.0968 392.934 541.303
1984 0 61.1731 15.3826 941 54.8427 392.982 540.867
1985 0 65.1685 14.639 954 55.8029 393.168 538.304
1986 0 65.2005 14.5551 949 56.4826 393.516 537.079
1987 0 68.1551 15.5087 1057 55.3992 393.018 534.979
1988 0 71.3636 14.9936 1070 55.872 393.066 534.395
1989 0 74.3602 14.887 1107 55.5004 393.084 534.111
1990 0 74.3322 15.1348 1125 55.8853 392.9 532.378
1991 0 77.5974 15.3227 1189 55.6804 392.766 531.7
1992 0 78.2727 15.2927 1197 56.1136 392.735 529.871
1993 0 82.2472 15.1008 1242 55.8559 392.472 529.767
1994 0 85.3648 14.7485 1259 56.0492 392.195 528.463
1995 0 87.3058 14.81 1293 55.9265 393.328 526.54
1996 0 89.4421 14.5569 1302 56.4332 393.447 522.369
1997 0 93.5708 14.3741 1345 56.3086 392.688 523.236
1998 1 51.7132 13.3622 691 54.1925 392.428 544.745
1999 0 50.792 13.3486 678 54.6077 392.652 543.034
2000 0 54.6564 12.0022 656 55.2851 392.465 541.968
2001 0 55.9214 12.5712 703 55.0612 392.272 542.168
2002 0 57.937 14.7056 852 52.5211 391.979 541.526
2003 0 57.6936 12.7051 733 55.1992 392.015 540.625
2004 0 62.1398 14.8536 923 52.8429 391.345 539.983
2005 0 62.0652 13.4375 834 54.9652 391.231 538.255
2006 0 64.6419 13.598 879 54.4778 390.866 539.704
2007 0 68.2138 14.6451 999 53.046 391.142 539.161
2008 0 68.2821 13.2831 907 55.065 390.965 535.488
2009 0 70.5733 13.2911 938 55.0011 390.375 535.985
2010 0 70.2151 12.889 905 55.9359 391.015 532.482
2011 0 73.4252 13.6329 1001 55.1269 391.06 532.123
2012 0 76.078 13.3021 1012 54.9071 391.171 532.131
2013 0 82.2778 13.2964 1094 54.17 391.063 531.405
2014 0 82.4903 13.7592 1135 54.5533 391.174 527.625
2015 0 85.6969 14.633 1254 53.075 390.792 528.721
2016 0 89.4349 13.0262 1165 54.9562 390.771 527.534
2017 0 93.0789 14.5146 1351 53.3664 390.973 525.944
2018 1 49.9928 11.9617 598 52.4732 390.973 547.216
2019 0 52.3339 11.675 611 53.6939 390.776 545.113
2020 0 53.0074 11.5644 613 53.4698 390.656 544.232
2021 0 54.0625 11.1723 604 54.6523 390.97 542.838
2022 0 57.6107 13.192 760 52.3816 390.597 542.563
2023 0 58.7887 14.2034 835 52.3557 390.628 541.223
2024 0 59.2134 13.3922 793 53.7944 390.023 542.562
2025 0 59.2118 14.0006 829 53.4391 390.291 540.469
2026 0 62.1253 12.5392 779 54.2028 390.298 539.958
2027 0 66.7095 13.941 930 52.6559 390.096 538.476
2028 0 67.8016 13.5248 917 53.5682 390.138 538.618
2029 0 69.2734 12.9776 899 54.0356 389.73 538.196
2030 0 72.6899 14.2798 1038 52.5472 390.054 536.478
2031 0 77.1462 14.9586 1154 51.331 389.834 535.718
2032 0 77.5412 14.1086 1094 52.9314 390.098 534.327
2033 0 78.7859 14.3046 1127 52.9459 389.595 534.125
2034 0 81.5691 13.792 1125 53.5956 389.771 530.121
2035 0 85.6589 13.7639 1179 53.6039 389.165 530.69
2036 0 87.982 15.4691 1361 51.986 389.195 528.327
2037 0 89.985 13.6356 1227 54.2095 389.152 528.021
2038 0 94.1197 14.8428 1397 52.8082 388.885 526.395
2039 0 95.5825 14.0716 1345 54.1509 388.712 524.403
2040 0 99.3873 14.197 1411 53.8058 388.454 524.719
2041 0 99.5881 14.7508 1469 53.4234 388.291 522.602
2042 0 103.847 13.6836 1421 54.798 388.813 519.393
2043 0 108.034 13.8012 1491 54.5131 388.198 519.586
2044 0 112.231 13.8821 1558 54.3081 388.178 516.543
2045 1 64.6056 13.4818 871 52.8152 388.064 542.338
2046 0 65.3826 11.2109 733 54.2224 388.184 542.895
2047 0 67.9718 12.6523 860 53.7791 388.052 538.621
2048 0 72.0001 14.4722 1042 51.7159 387.727 537.596
2049 0 73.1165 13.9914 1023 52.4506 387.414 537.95
2050 0 76.1745 13.9023 1059 52.5543 387.649 536.588
2051 0 78.1952 14.2592 1115 52.5534 387.573 533.092
2052 0 81.1303 13.8666 1125 53.2453 387.022 532.426
2053 0 84.5912 14.505 1227 52.0114 387.206 533.148
2054 0 86.1597 13.5794 1170 55.1966 387.15 529.332
2055 0 89.2079 13.5414 1208 55.3104 386.863 529.316
2056 1 49.5188 11.4906 569 54.1582 386.501 550.787
2057 0 50.3712 10.2241 515 56.235 386.666 549.986
2058 0 52.2411 11.9446 624 54.5513 386.614 549.32
2059 0 55.6136 11.7957 656 55.1951 386.742 547.649
2060 0 55.6149 11.6695 649 55.8675 386.159 546.038
2061 0 58.429 11.7236 685 56.5606 386.619 543.09
2062 0 59.2535 12.9781 769 55.1248 386.94 544.116
2063 0 60.3928 13.0148 786 55.2481 386.073 543.558
2064 0 62.5299 13.8494 866 54.4792 386.449 542.789
2065 0 65.4545 13.3222 872 55.4128 386.597 542.058
2066 0 67.9481 12.5243 851 56.3584 386.591 540.779
2067 0 68.7171 13.5046 928 56.1778 386.8 540.262
2068 0 69.3782 13.1598 913 57.3406 387.026 540.407
2069 0 71.4421 13.2695 948 57.9662 386.942 536.93
2070 0 73.7595 13.2322 976 58.1557 387.205 537.751
2071 0 75.5342 13.2523 1001 58.9141 386.835 536.59
2072 0 77.1792 12.5163 966 60.6574 387.345 533.493
2073 0 79.4732 13.6398 1084 59.3542 387.022 532.11
2074 0 84.5911 13.2638 1122 60.0125 387.349 530.56
2075 1 49.4883 11.6391 576 59.3108 387.589 549.587
2076 0 48.3014 11.2626 544 60.3511 387.656 549.63
2077 0 50.3098 11.3497 571 61.0613 388.194 547.047
2078 0 53.2916 11.559 616 61.0341 388.526 545.286
2079 0 51.9522 10.7599 559 63.2916 388.667 543.982
2080 0 56.244 12.9614 729 60.3882 388.749 543.894
2081 0 55.6448 13.1908 734 60.0068 388.339 544.256
2082 0 58.3051 12.5546 732 61.3538 389.258 543.208
2083 0 59.7665 12.0971 723 62.7109 389.167 540.669
2084 0 62.1713 13.302 827 60.7521 389.445 541.399
2085 0 63.303 12.8272 812 61.5948 389.025 539.871
2086 0 66.2072 13.4578 891 60.7598 389.135 538.288
2087 0 68.289 13.3697 913 61.1939 389.456 536.639
2088 0 69.1526 13.463 931 61.3287 389.407 536.281
2089 0 72.2374 14.0094 1012 60.6087 389.453 535.332
2090 0 73.7273 13.4279 990 61.8586 389.399 533.104
2091 0 76.8466 14.0279 1078 61.3108 389.401 532.383
2092 0 76.912 12.9889 999 63.5345 390.194 531.176
2093 0 81.6779 14.949 1221 60.9713 389.816 529.372
2094 0 81.6136 13.7354 1121 63.0776 390.034 529.736
2095 0 86.6745 14.2949 1239 62.1308 390.6 527.889
2096 1 96.9308 13.2775 1287 62.0482 390.154 519.29
2097 0 99.8874 14.3261 1431 60.9154 389.858 519.078
2098 0 97.9818 12.9106 1265 64.5059 390.188 515.181
2099 0 102.977 13.333 1373 63.74 390.592 516.213
2100 0 103.461 13.29 1375 64.9731 390.764 514.102
2101 0 109.626 13.4001 1469 64.1048 390.463 516.077
2102 0 110.716 13.8011 1528 64.3528 390.929 511.776
2103 1 61.4055 10.2434 629 65.0572 390.286 535.768
2104 0 62.5242 9.94815 622 65.5836 391.572 536.145
2105 0 60.0521 11.2069 673 64.4383 391.707 540.507
2106 0 63.05 13.5131 852 62.527 392.164 539.008
2107 0 65.1174 14.0669 916 62.0022 392.223 537.884
2108 0 66.1617 14.4948 959 61.6413 392.343 538.783
2109 0 66.0548 14.1095 932 63.7135 392.325 535.334
2110 0 70.1307 14.0595 986 63.6826 392.201 533.644
2111 0 72.1181 14.1157 1018 63.7318 392.579 532.234
2112 0 75.0679 14.3603 1078 63.4072 392.262 531.602
2113 0 77.1938 14.3146 1105 63.7665 392.361 530.495
2114 0 79.1802 14.4481 1144 63.9869 392.644 529.087
2115 0 84.1802 14.469 1218 62.8842 392.278 528.245
2116 0 87.1783 14.7055 1282 61.9719 392.237 527.666
2117 0 88.29 14.6109 1290 62.4217 391.941 525.729
2118 0 91.1512 14.9203 1360 62.5022 392.254 522.346
2119 0 93.1193 14.2076 1323 63.3091 391.921 522.249
2120 0 96.2316 14.7353 1418 62.3406 392.004 521.956
2121 0 100.322 14.9618 1501 62.5037 392.244 518.883
2122 0 102.156 14.282 1459 63.8177 391.763 517.913
2123 0 107.242 14.6025 1566 62.7484 391.964 516.814
2124 1 57.0822 10.7915 616 62.1477 391.573 542.591
2125 0 60.2123 12.157 732 61.6694 391.889 542.087
2126 0 60.1712 12.398 746 61.1381 391.434 540.692
2127 0 62.0456 12.926 802 61.6945 390.783 538.554
2128 0 63.0898 12.7279 803 61.0797 390.821 539.035
2129 0 68.1948 13.6374 930 60.1914 390.47 537.491
2130 0 69.168 13.3154 921 60.5103 390.416 536.777
2131 0 71.1075 13.9366 991 60.2513 390.614 536.007
2132 0 73.0939 13.982 1022 60.0284 390.853 534.702
2133 0 74.1041 14.1288 1047 60.0105 391.015 534.416
2134 0 78.1326 14.5394 1136 59.2298 391.514 532.511
2135 0 80.3241 13.0222 1046 60.6185 391.378 531.394
2136 0 83.4277 14.0481 1172 59.0529 390.089 529.944
2137 0 84.3961 12.8205 1082 60.9187 390.937 528.247
2138 0 88.1505 13.3181 1174 61.3722 390.719 527.706
2139 0 91.1861 14.6623 1337 60.2722 390.948 529.58
2140 0 94.1355 15.2546 1436 59.9359 390.409 529.575
2141 0 96.1684 14.9529 1438 60.9012 390.546 526.88
2142 0 100.158 14.3373 1436 61.3391 390.446 526.137
2143 0 103.259 14.3329 1480 61.0682 390.522 524.88
2144 0 106.378 15.0313 1599 60.9393 390.588 523.645
2145 1 57.0788 11.2301 641 62.4228 390.055 549.549
2146 0 58.168 12.3092 716 62.4372 390.134 545.925
2147 0 62.0778 12.0011 745 62.7114 389.992 546.342
2148 0 64.1358 13.6897 878 60.91 389.407 545.428
2149 0 65.1694 13.4266 875 62.1577 389.911 543.206
2150 0 66.2704 13.5656 899 62.3738 390.178 544.858
2151 0 69.1365 13.8133 955 62.801 389.363 543.175
2152 0 71.1387 14.3101 1018 62.4686 389.568 542.632
2153 0 71.153 13.9137 990 63.6465 389.555 540.829
2154 0 74.1378 13.9605 1035 64.3488 389.361 539.014
2155 0 77.2136 13.236 1022 64.3356 389.271 538.693
2156 0 81.2216 13.7648 1118 63.7209 389.174 536.576
2157 0 84.2899 14.3671 1211 63.0099 389.198 535.08
2158 0 87.2035 14.1967 1238 63.4136 389.22 531.959
2159 0 90.1853 14.4259 1301 63.0184 389.263 531.656
2160 0 92.0694 13.9895 1288 63.7943 389.554 530.976
2161 1 52.1636 12.4033 647 63.7944 388.983 550.742
2162 0 54.1224 13.3032 720 62.8472 389.317 549.342
2163 0 56.1487 13.0012 730 63.6027 389.178 548.416
2164 0 58.1752 14.0953 820 62.3268 388.73 547.65
2165 0 58.2014 13.5392 788 63.5266 388.513 546.756
2166 0 60.0518 14.2044 853 62.8488 388.771 544.607
2167 0 62.0774 13.9987 869 62.9287 388.88 544.948
2168 0 62.0974 13.4949 838 64.1253 388.893 543.918
2169 0 65.1014 13.7171 893 64.0526 388.577 542.836
2170 0 68.0928 14.0103 954 63.3438 388.73 541.854
2171 0 67.0982 13.0257 874 64.6281 388.644 540.245
2172 0 70.3452 13.8886 977 62.9386 388.249 540.117
2173 0 71.2522 13.2066 941 64.6196 388.511 536.939
2174 0 74.1767 13.6566 1013 63.998 387.858 536.183
2175 0 76.4105 14.3043 1093 63.3614 388.188 533.534
2176 0 78.6604 13.8189 1087 63.4278 387.689 534.656
2177 0 78.6604 13.8443 1089 161.628 387.677 534.673
2178 0 84.3223 14.3616 1211 63.2007 388.411 533.229
2179 0 86.7096 13.6317 1182 63.934 387.412 529.18
2180 0 90.3304 14.4691 1307 63.1744 387.923 528.501
2181 1 47.1854 11.4654 541 62.9168 387.512 550.237
2182 0 49.0973 10.9375 537 64.2309 388.017 549.179
2183 0 52.1975 13.5447 707 62.1132 387.789 547.031
2184 0 54.1102 13.528 732 62.0342 388.359 546.44
2185 0 56.0987 14.0288 787 60.6531 388.137 548.172
2186 0 56.1415 13.1988 741 62.3738 388.493 544.935
2187 0 59.0927 13.8596 819 61.1062 388.801 545.701
2188 0 60.0283 14.3432 861 60.4901 388.636 543.492
2189 0 62.1479 15.1091 939 59.3365 388.781 543.307
2190 0 64.0601 14.3771 921 60.0728 388.837 542.609
2191 0 66.1888 14.2773 945 59.9862 389.838 542.38
2192 0 66.1402 13.3958 886 62.0429 389.686 539.442
2193 0 70.1387 15.3125 1074 59.3436 389.935 538.014
2194 0 72.1776 15.0878 1089 59.2314 390.224 539.237
2195 0 72.1084 14.7417 1063 60.2474 390.559 537.829
2196 0 76.4158 14.6043 1116 59.7446 391.009 536.098
2197 0 78.187 15.399 1204 58.6561 390.727 533.656
2198 0 78.0721 14.73 1150 60.0939 391.412 532.253
2199 0 82.266 15.9726 1314 58.3661 391.391 531.059
2200 0 84.2895 14.7468 1243 59.5374 391.681 529.245
2201 0 85.3738 15.0046 1281 59.847 391.727 528.185
2202 0 89.3316 15.2578 1363 58.7366 392.216 526.469
2203 0 94.7236 15.4977 1468 58.6022 391.972 525.715
2204 0 94.2902 14.816 1397 60.189 392.485 522.636
2205 1 51.9365 13.2662 689 59.6226 391.762 545.787
2206 0 53.675 12.7434 684 59.7471 391.968 545.813
2207 0 54.8071 13.2282 725 60.2083 392.47 542.834
2208 0 54.7737 13.2545 726 60.5826 392.259 542.961
2209 0 57.262 13.1501 753 60.9163 392.835 540.385
2210 0 62.9969 14.5721 918 58.4096 392.709 538.793
2211 0 63.2728 14.3822 910 59.0626 392.368 537.891
2212 0 65.471 13.9298 912 58.5296 392.808 536.162
2213 0 66.6559 14.4023 960 58.2812 392.675 537.312
2214 0 67.8007 13.7757 934 58.8726 393.362 536.673
2215 0 71.9047 13.4623 968 58.5527 393.104 534.652
2216 0 74.824 14.7145 1101 56.7411 393.547 533.271
2217 0 76.0756 14.249 1084 57.5913 393.58 530.738
2218 0 77.9545 13.8029 1076 57.6747 394.248 529.368
2219 0 82.9226 14.4954 1202 56.327 394.227 527.833
2220 0 85.1102 13.2652 1129 57.6678 393.233 527.549
2221 0 89.2384 14.7358 1315 56.4897 393.769 524.94
2222 0 92.1789 13.4955 1244 57.5844 393.92 524.408
2223 0 94.2457 14.3985 1357 56.6102 394.11 522.29
2224 0 95.2114 14.0319 1336 57.3638 394.124 521.129
2225 0 101.616 14.5056 1474 56.2449 394.039 520.362
2226 1 52.5452 12.6558 665 57.394 393.639 542.144
2227 0 52.6963 13.834 729 56.3841 393.45 541.684
2228 0 55.9954 13.0189 729 57.0508 393.786 541.796
2229 0 58.0414 13.4732 782 58.2558 393.367 540.396
2230 0 58.7773 13.7468 808 58.6411 393.338 539.428
2231 0 63.2057 14.7297 931 56.5199 393.581 538.113
2232 0 66.0936 13.9953 925 57.4292 392.956 537.429
2233 0 65.6218 15.1931 997 56.7964 393.071 536.576
2234 0 68.7554 14.4716 995 57.1869 392.213 535.34
2235 0 70.7781 14.0863 997 58.2949 392.108 533.751
2236 0 73.6598 13.7931 1016 58.94 391.976 531.567
2237 0 76.8846 13.917 1070 58.0878 391.792 532.372
2238 0 79.6849 14.3942 1147 57.8989 391.859 530.766
2239 0 82.8585 13.6739 1133 58.5719 391.785 528.723
2240 0 84.9468 14.2677 1212 58.5437 391.698 528.173
2241 0 88.1127 14.9922 1321 57.4868 392.219 526.185
2242 0 92.0444 14.1671 1304 58.0038 391.971 524.542
2243 0 93.7594 14.9532 1402 57.6997 392.513 523.846
2244 0 96.7239 14.5983 1412 58.08 393.326 520.227
2245 0 100.824 13.6674 1378 58.9478 392.394 517.787
2246 0 104.941 14.9417 1568 57.5574 391.498 516.974
2247 1 54.3825 12.8534 699 57.9499 391.279 541.724
2248 0 60.7741 12.1104 736 57.4416 390.632 541.836
2249 0 60.6436 13.0929 794 58.6675 390.812 538.971
2250 0 64.7132 13.6294 882 57.2245 391.08 537.224
2251 0 65.8504 12.7866 842 58.4549 391.165 533.82
2252 0 66.7624 13.226 883 58.5832 391.472 532.445
2253 0 69.8189 12.6757 885 58.8486 390.849 531.328
2254 0 76.0786 13.8278 1052 57.0618 390.963 531.972
2255 0 76.0786 13.8278 1052 155.247 390.963 531.972
2256 0 78.7132 13.8605 1091 58.593 390.906 529.539
2257 0 80.7036 14.1505 1142 58.7049 390.696 527.835
2258 0 83.8922 14.471 1214 58.2331 390.476 527.694
2259 0 86.2031 14.7559 1272 58.4969 390.386 522.936
2260 0 89.8723 13.942 1253 60.2474 390.377 522.747
2261 0 92.957 13.9204 1294 60.2372 390.14 524.867
2262 0 95.9183 15.3047 1468 59.1873 390.678 522.236
2263 1 52.9438 11.1628 591 60.5584 390.159 543.107
2264 0 54.9402 11.74 645 60.6667 390.357 543.471
2265 0 59.1793 11.1863 662 62.6057 390.538 538.849
2266 0 59.93 13.6493 818 59.1614 390.094 541.835
2267 0 58.3733 13.2081 771 61.7289 390.938 540.335
2268 0 62.2056 14.0502 874 59.9691 391.065 538.517
2269 0 65.246 13.5181 882 60.4138 391.108 538.306
2270 0 65.8899 13.6136 897 61.3233 390.993 537.091
2271 0 67.3968 13.9176 938 61.0458 391.403 534.47
2272 0 70.3881 14.3348 1009 62.1982 391.9 532.118
2273 0 72.4269 14.2626 1033 62.5895 391.398 532.526
2274 0 76.4242 15.27 1167 60.9057 391.373 534.068
2275 0 77.3232 14.5493 1125 62.0036 391.104 533.996
2276 0 81.3589 15.278 1243 60.9718 390.746 533.685
2277 0 84.2793 14.8791 1254 62.2169 390.482 530.418
2278 0 87.3 14.5704 1272 62.4426 390.668 528.168
2279 0 89.3094 16.0117 1430 60.6119 390.952 529.253
2280 0 93.1834 14.9275 1391 61.7419 390.682 527.584
2281 0 95.2151 14.63 1393 62.514 390.805 525.2
2282 0 98.1925 15.0113 1474 62.5522 390.645 524.594
2283 0 100.283 14.8978 1494 62.2718 390.264 522.882
2284 0 105.177 15.374 1617 61.9784 390.512 521.101
2285 0 107.138 14.7193 1577 62.9791 390.198 519.443
2286 0 110.19 14.8289 1634 62.7968 390.371 517.332
2287 0 114.206 13.4143 1532 64.6123 389.845 514.931
2288 1 61.0844 10.3463 632 64.2199 390.598 544.158
2289 0 64.0889 12.5607 805 61.8323 390.226 544.684
2290 0 65.0559 12.3432 803 62.5019 390.425 541.687
2291 0 69.0806 14.085 973 60.149 389.922 541.159
2292 0 70.0913 12.6692 888 61.3772 389.984 537.689
2293 0 73.0345 13.9249 1017 59.9331 389.427 538.883
2294 0 75.1306 13.0573 981 61.4587 388.908 535.917
2295 0 78.0637 13.7452 1073 60.4315 389.716 535.198
2296 0 79.1256 13.3585 1057 60.3538 389.802 534.344
2297 0 83.1001 14.4164 1198 58.8982 389.592 534.649
2298 0 87.2088 14.2761 1245 59.2699 389.745 534.298
2299 0 88.0853 13.4869 1188 60.3434 389.692 531.391
2300 0 92.085 14.2043 1308 59.0329 389.676 530.407
2301 0 94.2019 14.4901 1365 58.6278 389.3 528.081
2302 0 96.1511 13.718 1319 59.9484 389.804 525.403
2303 0 101.13 15.4356 1561 58.1448 389.415 524.338
2304 0 101.169 13.6207 1378 60.9884 389.259 522.219
2305 0 106.115 14.9555 1587 59.1897 389.304 522.41
2306 0 109.087 13.9613 1523 60.3953 389.058 521.946
2307 0 112.214 14.9536 1678 59.4219 389.172 518.479
2308 0 116.284 14.4645 1682 60.2253 388.675 515.218
2309 0 121.185 14.9193 1808 59.3081 389.105 515.077
2310 1 73.1641 10.784 789 60.9835 389.215 539.084
2311 0 74.125 11.4941 852 60.919 389.158 536.815
2312 0 77.0426 13.3173 1026 58.4727 388.948 538.213
2313 0 81.0592 13.3976 1086 58.4668 389.378 533.987
2314 0 82.1055 12.4839 1025 60.0585 389.513 531.065
2315 0 85.0486 14.0038 1191 57.9748 389.807 529.699
2316 0 89.1601 14.0758 1255 58.0382 389.968 528.335
2317 0 92.0536 14.3503 1321 57.4958 389.759 528.093
2318 0 95.096 13.6914 1302 58.7512 390.217 526.558
2319 0 97.1098 13.5002 1311 59.7849 390.425 522.858
2320 0 100.112 14.4638 1448 58.9931 390.734 522.17
2321 0 102.325 14.278 1461 59.2676 390.942 521.71
2322 0 107.166 14.2489 1527 59.1447 390.919 519.228
2323 0 109.225 13.8246 1510 60.0662 391.138 518.374
2324 0 114.263 13.8628 1584 60.3977 391.6 516.007
2325 0 117.229 14.9537 1753 59.0416 391.951 513.735
2326 1 71.0773 10.8755 773 59.5097 392.034 539.389
2327 0 70.0393 11.4793 804 60.2761 392.724 534.012
2328 0 72.1195 12.2297 882 58.4773 392.046 532.914
2329 0 75.0561 12.7105 954 58.8302 392.24 531.843
2330 0 80.1794 14.0809 1129 57.5562 391.908 532.124
2331 0 81.0891 13.4297 1089 59.2167 392.525 530.32
2332 0 82.1521 12.5742 1033 60.7164 392.602 530.053
2333 0 86.2993 14.0326 1211 59.0091 392.203 530.312
2334 0 87.1328 13.9901 1219 59.4799 392.106 529.481
2335 0 90.1078 14.2496 1284 59.5576 392.362 525.474
2336 0 93.1845 13.1782 1228 61.0969 392.733 523.914
2337 0 94.228 13.3294 1256 61.1011 392.568 523.12
2338 0 100.35 14.6289 1468 59.4108 392.745 522.367
2339 0 101.214 13.1207 1328 61.6453 392.865 522.126
2340 0 105.229 13.827 1455 60.7505 392.658 519.729
2341 1 60.177 9.97059 600 60.69 392.957 543.7
2342 0 60.0424 10.9922 660 61.703 393.794 539.497
2343 0 62.0336 12.0096 745 60.0564 393.878 538.369
2344 0 65.1366 13.3565 870 57.2908 393.654 539.82
2345 0 65.0683 13.1247 854 58.9895 393.81 536.767
2346 0 68.1855 14.1086 962 57.9823 393.385 536.131
2347 0 68.225 13.2503 904 59.3241 393.29 536.144
2348 0 70.0808 13.9981 981 58.5902 393.849 536.337
2349 0 74.1164 14.828 1099 57.0455 394.018 535.028
2350 0 73.1338 13.4001 980 59.801 394.227 533.644
2351 0 76.1128 13.6245 1037 60.0405 393.495 532.999
2352 0 78.0741 14.166 1106 59.5452 393.847 532.393
2353 0 79.0835 13.707 1084 60.6079 393.968 531.708
2354 0 82.2114 13.8667 1140 60.7149 393.399 529.375
2355 0 85.1769 13.5952 1158 61.3342 393.317 528.615
2356 0 88.0657 14.5005 1277 60.5082 393.729 525.81
2357 0 90.1615 13.8307 1247 61.1764 393.59 525.121
2358 0 93.0781 14.4502 1345 61.4364 393.564 523.964
2359 0 96.2544 14.1292 1360 61.7353 393.565 521.704
2360 0 98.1879 14.7065 1444 61.7244 392.983 520.386
2361 0 100.215 14.449 1448 62.9724 392.671 518.966
2362 0 102.294 14.1845 1451 63.9635 393.052 516.542
2363 1 59.3205 10.4011 617 63.1896 393.01 541.219
2364 0 59.2422 11.0394 654 63.0459 392.446 540.661
2365 0 61.1492 12.445 761 60.724 391.991 541.87
2366 0 63.1048 12.8992 814 61.7138 392.3 538.569
2367 0 64.2944 12.7849 822 62.7591 392.191 536.771
2368 0 67.1194 13.2451 889 62.0956 392.055 536.645
2369 0 69.0987 13.6906 946 61.9704 391.986 535.414
2370 0 72.2156 14.4706 1045 60.9263 391.9 534.553
2371 0 75.3608 13.9462 1051 61.1418 391.387 533.832
2372 0 76.3314 14.175 1082 61.3401 391.388 532.358
2373 0 78.4695 13.9035 1091 62.0642 391.28 530.742
2374 0 78.2869 12.9396 1013 63.7088 391.089 529.021
2375 0 82.3632 14.3511 1182 61.6413 391.189 529.427
2376 0 84.2869 13.0388 1099 63.5114 391.146 528.091
2377 0 89.2218 14.8618 1326 60.6516 390.971 527.014
2378 0 91.2051 14.6154 1333 60.7344 391.411 525.966
2379 0 93.102 13.6087 1267 61.8887 391.045 525.636
2380 0 96.2368 13.7473 1323 62.257 391.231 522.919
2381 0 98.2659 13.8604 1362 59.3737 390.89 519.976
2382 0 102.237 14.398 1472 58.4022 391.166 521.197
2383 1 58.0982 11.4634 666 58.045 391.009 542.893
2384 0 59.0796 11.0021 650 58.0062 391.3 545.168
2385 0 61.1254 12.5153 765 56.2471 391.374 543.746
2386 0 63.0806 12.3334 778 57.4614 391.442 540.985
2387 0 65.123 12.4226 809 57.1112 391.672 541.141
2388 0 68.0763 13.7493 936 55.9113 391.589 540.346
2389 0 68.1326 12.6812 864 57.7558 391.861 538.513
2390 0 70.0632 12.8598 901 57.4084 391.936 536.596
2391 0 73.2002 13.0054 952 56.8582 391.894 535.255
2392 0 77.0602 13.5608 1045 56.0335 391.308 534.632
2393 0 78.0897 13.0235 1017 56.824 391.829 533.589
2394 0 81.1042 12.5641 1019 57.3896 391.448 531.41
2395 0 85.1479 13.87 1181 55.8298 391.478 530.607
2396 0 87.1393 12.371 1078 57.9249 391.964 529.122
2397 1 52.1443 11.9093 621 55.4766 392.179 547.638
2398 0 50.0682 9.80663 491 58.2098 392.536 547.666
2399 0 52.1872 11.3246 591 57.3841 392.46 547.046
2400 0 56.0964 11.7476 659 56.8209 390.85 546.12
2401 0 59.1333 13.3089 787 54.8412 390.875 546.127
2402 0 60.2095 13.4198 808 54.9332 390.826 544.787
2403 0 61.1172 12.5006 764 56.3613 390.774 544.931
2404 0 62.1673 13.4154 834 55.5288 389.95 543.972
2405 0 63.099 12.4566 786 56.9758 390.031 542.439
2406 0 63.1753 12.4099 784 56.9375 390.434 542.057
2407 0 66.1334 12.3538 817 57 389.956 540.745
2408 0 68.2497 12.3078 840 57.1298 390.039 539.164
2409 0 69.1769 12.9378 895 57.1207 389.638 539.842
2410 0 74.1554 13.8088 1024 56.1865 389.063 538.357
2411 0 74.1326 13.9884 1037 55.9749 389.383 536.104
2412 0 76.1982 12.6118 961 57.8991 389.494 535.092
2413 0 78.1214 13.5046 1055 57.3735 389.479 533.496
2414 0 81.0902 13.7995 1119 57.2806 389.458 533.008
2415 0 83.1113 13.3917 1113 57.8814 389.264 532.522
2416 0 83.1217 13.6787 1137 58.2436 389.879 531.776
2417 0 88.2972 14.0322 1239 57.473 389.709 529.873
2418 0 92.2249 13.8683 1279 57.3651 389.896 530.148
2419 1 51.0307 11.9928 612 55.1765 389.523 552.864
2420 0 52.119 11.2627 587 57.4242 389.647 549.429
2421 0 53.0837 11.7927 626 57.3227 389.756 547.105
2422 0 55.1581 12.5276 691 56.4486 389.922 546.763
2423 0 56.0989 12.9236 725 55.2069 389.488 545.774
2424 0 55.0568 11.5154 634 57.9038 389.716 543.965
2425 0 58.0813 12.121 704 57.4957 389.516 543.997
2426 0 63.0779 12.9522 817 55.672 388.914 545.102
2427 0 63.0757 13.8881 876 55.1119 389.065 544.217
2428 0 63.0757 13.8881 876 147.447 389.065 544.217
2429 0 67.0633 14.5832 978 53.8057 389.034 540.794
2430 0 67.0611 13.6592 916 55.048 388.936 540.849
2431 0 67.1331 14.2106 954 54.8931 388.727 539.23
2432 0 68.1085 13.0233 887 56.4634 389.439 539.618
2433 0 70.0566 13.5747 951 55.7466 389.375 537.858
2434 0 72.0491 13.81 995 55.5055 389.583 537.289
2435 0 76.0633 14.3696 1093 54.3248 389.375 535.509
2436 0 80.0969 12.9468 1037 55.4696 389.659 534.906
2437 0 81.1297 14.3351 1163 54.3508 389.282 533.943
2438 0 83.1403 14.4094 1198 54.2871 389.653 531.437
2439 0 86.143 13.6169 1173 54.9506 389.618 529.034
2440 0 89.3223 14.4533 1291 54.0976 389.756 528.187
2441 0 91.2177 14.3064 1305 54.3969 389.403 526.299
2442 0 95.4332 13.926 1329 55.1445 389.617 526.006
2443 0 96.4118 13.8676 1337 55.7868 389.603 523.368
2444 1 52.2957 9.90521 518 56.5985 389.421 546.046
2445 0 58.1409 12.9513 753 53.3599 389.494 545.339
2446 0 56.1042 11.6925 656 55.872 389.188 543.017
2447 0 60.0988 12.9786 780 54.7641 389.117 542.228
2448 0 62.3902 14.5215 906 53.0618 389.031 541.446
2449 0 63.246 14.325 906 53.0331 389.125 541.962
2450 0 66.1512 13.4994 893 53.953 389.496 541.053
2451 0 70.0836 14.3543 1006 52.8767 389.79 539.045
2452 0 68.1253 13.5339 922 54.9371 389.779 537.51
2453 0 72.1495 14.2066 1025 54.4459 389.827 535.36
2454 0 72.3292 14.199 1027 53.6076 390.468 534.432
2455 0 75.1554 14.4234 1084 53.1292 390.712 534.082
2456 0 78.0769 14.4473 1128 53.234 390.827 532.528
2457 0 80.1701 13.4339 1077 55.0279 390.867 531.643
2458 0 82.2818 13.1135 1079 55.797 391.084 528.609
2459 0 87.2042 14.7699 1288 53.8843 391.087 530.354
2460 0 87.2048 14.6322 1276 54.5878 391.303 528.086
2461 0 88.2754 13.877 1225 55.8278 390.914 527.04
2462 0 93.1875 13.9718 1302 56.0914 391.234 524.411
2463 0 93.2386 14.3396 1337 56.3897 391.565 523.278
2464 0 98.3643 14.9444 1470 55.3524 392.393 523.932
2465 0 100.298 14.5167 1456 56.5611 392.272 522.571
2466 0 105.351 14.8362 1563 56.0813 392.782 519.913
2467 0 106.232 14.8825 1581 56.7261 393.258 517.173
2468 0 110.312 15.1117 1667 56.0882 393.404 518.34
2469 0 113.281 15.0511 1705 56.7238 393.385 512.579
2470 1 62.1084 11.9146 740 57.7311 393.603 538.28
2471 0 62.2151 10.753 669 59.0942 393.496 539.48
2472 0 65.175 14.1926 925 54.8951 393.499 538.68
2473 0 66.105 13.2516 876 57.6518 394.054 535.66
2474 0 68.1167 13.5796 925 57.1914 394.576 536.041
2475 0 69.1263 13.092 905 57.4818 394.251 536.83
2476 0 73.1506 13.8618 1014 56.8935 394.307 535.457
2477 0 74.1186 13.4244 995 58.208 394.165 532.019
2478 0 77.1414 14.3762 1109 57.3345 393.915 531.658
2479 0 77.2349 14.4494 1116 57.8423 394.019 531.247
2480 0 82.1362 14.4151 1184 57.9265 393.834 530.595
2481 0 84.1493 14.7714 1243 58.0724 394.161 528.521
2482 0 86.1548 14.2302 1226 59.367 394.199 527.788
2483 0 89.0992 14.7027 1310 58.8809 394.287 527.335
2484 0 90.2214 13.7994 1245 61.4626 393.773 524.553
2485 0 94.1884 14.3648 1353 60.6046 394.11 522.375
2486 0 97.1247 14.5689 1415 60.3943 393.795 521.464
2487 0 99.3765 14.8124 1472 60.7928 393.984 520.911
2488 0 102.324 14.4833 1482 60.921 393.993 519.592
2489 0 105.289 13.9805 1472 62.0102 393.95 518.61
2490 0 108.219 14.9235 1615 61.1003 393.735 516.183
2491 0 111.228 13.7106 1525 62.581 393.351 513.504
2492 1 65.0665 11.7418 764 60.3351 393.702 539.89
2493 0 66.2109 12.3998 821 59.4434 393.022 540.782
2494 0 69.2654 11.2755 781 60.4648 393.14 538.858
2495 0 68.3303 12.3664 845 59.9858 392.89 537.379
2496 0 70.179 13.0666 917 58.9869 392.838 535.993
2497 0 72.2344 13.1101 947 58.9535 393.006 534.95
2498 0 76.2113 13.8169 1053 57.416 392.859 534.411
2499 0 78.2239 13.8832 1086 57.605 392.85 534.009
2500 0 80.2966 13.7864 1107 57.8374 392.862 530.9
2501 0 81.3456 13.4242 1092 58.2482 392.626 530.933
2502 0 83.2455 13.322 1109 58.6177 392.329 529.306
2503 0 86.3204 13.1719 1137 58.9314 392.269 527.483
2504 0 89.3221 13.5577 1211 58.2452 392.071 525.964
2505 0 92.2455 13.4099 1237 58.2716 392.649 523.221
2506 0 96.2936 13.9573 1344 57.1964 392.025 523.7
2507 0 96.245 12.7279 1225 59.3878 392.47 522.635
2508 0 102.206 13.9327 1424 57.1784 392.039 521.035
2509 1 57.1708 10.7747 616 57.8149 392.31 543.11
2510 0 60.0994 11.1316 669 56.562 392.266 544.623
2511 0 61.1903 11.1946 685 57.8584 392.267 541.613
2512 0 64.0939 13.1214 841 56.4007 391.843 540.741
2513 0 65.2142 13.3406 870 56.8138 391.531 538.766
2514 0 66.1251 12.9905 859 57.241 391.547 539.281
2515 0 67.0944 12.6538 849 58.1908 391.812 537.759
2516 0 70.1286 13.3612 937 57.7812 391.851 537.139
2517 0 71.1273 13.3142 947 57.9905 391.936 537.109
2518 0 75.0576 13.3231 1000 57.846 391.917 534.632
2519 0 76.1936 13.3213 1015 57.7704 391.636 533.653
2520 0 79.0965 14.1094 1116 57.4122 392.462 533.154
2521 0 80.2035 12.8797 1033 59.1491 392.362 530.957
2522 0 86.1834 15.2582 1315 55.9057 391.987 529.155
2523 0 88.1942 14.366 1267 57.4822 392.384 528.036
2524 0 90.1514 14.0541 1267 58.1326 391.389 528.694
2525 0 95.1662 14.7321 1402 57.2589 391.125 527.103
2526 0 95.1354 13.9696 1329 59.064 391.293 523.741
2527 0 98.1425 13.9185 1366 59.1464 391.132 523.114
2528 0 103.133 14.0596 1450 58.7372 390.412 521.603
2529 0 105.398 14.2033 1497 59.0975 391.064 521.309
2530 0 109.354 14.165 1549 59.4338 390.885 519.416
2531 0 112.548 14.2428 1603 59.305 390.79 516.247
2532 0 115.351 13.2032 1523 60.8076 390.871 516.662
2533 0 118.59 13.9726 1657 60.064 391.074 513.243
2534 1 63.5425 11.8976 756 61.1005 390.423 540.522
2535 0 66.1471 12.4722 825 60.5455 390.238 539.398
2536 0 65.3597 13.3875 875 60.8423 389.799 537.96
2537 0 71.6611 14.0243 1005 59.401 390.168 538.502
2538 0 72.5927 14.1612 1028 60.858 390.267 537.874
2539 0 73.5313 13.3277 980 62.7347 390.408 536.214
2540 0 75.5306 13.9678 1055 61.946 389.906 535.763
2541 0 81.7506 14.1528 1157 60.9533 389.482 533.902
2542 0 83.477 14.1117 1178 61.1732 389.512 532.878
2543 0 86.6875 14.8464 1287 60.4973 389.119 531.848
2544 0 87.4277 13.7371 1201 62.6611 389.73 529.812
2545 0 91.5813 14.6427 1341 60.8665 389.831 529.74
2546 0 94.524 14.3138 1353 61.2432 390.05 527.526
2547 0 99.2994 13.4744 1338 62.2309 389.984 525.401
2548 0 101.53 13.9269 1414 61.553 389.861 523.491
2549 0 104.888 14.3201 1502 61.3276 389.991 521.757
2550 0 106.885 14.4455 1544 60.7902 389.841 520.87
2551 0 112.944 15.0606 1701 59.7825 389.385 519.212
2552 1 64.4626 12.038 776 61.4549 389.138 540.923
2553 0 66.6742 11.6537 777 62.7478 389.564 538.411
2554 0 68.4335 12.1724 833 62.5762 389.531 535.816
2555 0 72.6349 13.3269 968 60.1322 389.603 537.422
2556 0 72.4979 12.8142 929 62.0398 390.377 531.7
2557 0 74.5727 13.1147 978 61.4867 390.06 531.762
2558 0 78.8938 13.7527 1085 60.1244 389.488 533.011
2559 0 79.8631 13.473 1076 61.2323 389.659 528.667
2560 0 85.7334 13.9619 1197 59.9766 390.038 527.442
2561 0 90.734 14.7023 1334 58.1094 390.024 527.757
2562 0 91.528 13.9739 1279 59.4511 389.844 526.858
2563 0 95.9526 13.7568 1320 59.9553 389.851 523.952
2564 0 95.6004 13.661 1306 60.9234 389.768 523.151
2565 0 100.217 13.7302 1376 60.9106 389.417 520.289
2566 0 104.611 14.1572 1481 61.5982 389.42 520.219
2567 0 108.046 14.4013 1556 61.403 389.274 518.961
2568 0 109.906 13.548 1489 64.0309 389.327 512.426
2569 0 114.676 14.1965 1628 63.0055 389.287 512.918
2570 0 118.802 13.1732 1565 64.7502 388.898 510.315
2571 0 122.866 14.3409 1762 63.2276 388.734 508.586
2572 1 64.7846 9.95607 645 65.262 388.817 538.826
2573 0 70.8072 12.3858 877 62.0912 388.618 538.754
2574 0 69.6692 11.813 823 63.983 388.99 536.999
2575 0 72.5534 12.7768 927 63.1855 388.478 536.127
2576 0 74.4157 12.8468 956 63.0523 388.67 535.341
2577 0 79.616 14.3815 1145 59.6419 388.195 535.004
2578 0 80.544 13.682 1102 61.2868 388.542 532.565
2579 0 82.9536 12.6336 1048 62.8483 388.345 529.95
2580 0 87.8674 13.5317 1189 60.767 388.418 527.177
2581 0 90.771 12.7574 1158 62.1857 388.269 524.997
2582 0 94.9626 13.0472 1239 61.5763 388.069 522.889
2583 0 96.6561 13.5325 1308 60.9419 388.103 520.988
2584 0 100.755 12.8827 1298 61.3444 388.965 518.212
2585 0 102.727 13.015 1337 61.7824 389.545 515.11
2586 0 106.774 13.7675 1470 61.0041 389.778 513.655
2587 0 112.916 13.3905 1512 61.2599 389.757 513.131
2588 1 65.1772 10.203 665 61.5218 389.743 535.928
2589 0 66.9796 10.8839 729 61.1166 389.723 533.39
2590 0 68.236 11.9438 815 60.0675 389.653 533.794
2591 0 70.035 12.7936 896 59.4275 389.635 533.653
2592 0 75.1312 12.9107 970 59.3588 389.562 532.718
2593 0 78.1901 13.5695 1061 58.673 389.974 529.963
2594 0 78.1868 12.2143 955 61.2262 389.996 527.444
2595 0 82.3192 12.5973 1037 60.5391 390.158 527.287
2596 0 83.1344 13.0391 1084 60.8681 390.124 527.922
2597 0 84.1832 13.0786 1101 61.4232 390.493 525.252
2598 0 89.9338 14.5885 1312 58.9101 390.495 524.91
2599 0 91.0844 13.7674 1254 60.567 390.495 521.153
2600 0 95.0404 14.0782 1338 60.3991 390.863 518.342
2601 0 94.8074 13.9862 1326 61.3243 391.427 521.063
2602 0 98.9316 13.9692 1382 61.4986 391.929 516.472
2603 0 102.878 14.7456 1517 60.149 391.995 517.047
2604 0 104.823 14.2431 1493 61.4213 391.762 516.502
2605 0 107.971 14.8651 1605 60.9464 392.129 512.515
2606 0 113.078 14.459 1635 61.2979 392.306 512.421
2607 0 113.719 13.6389 1551 63.1844 392.577 508.858
2608 0 120.05 14.3523 1723 61.8607 392.678 508.135
2609 0 121.769 13.8787 1690 63.5509 392.883 505.356
2610 1 70.8053 11.6517 825 62.6558 393.539 532.884
2611 0 72.0071 11.0545 796 63.696 393.731 532.319
2612 0 72.6883 12.2028 887 62.9707 393.596 529.513
2613 0 75.754 12.7914 969 62.9092 393.669 527.758
2614 0 75.6068 13.4247 1015 62.4975 394.106 525.562
2615 0 79.8145 14.4335 1152 61.0434 394.048 528.288
2616 0 80.7021 14.2871 1153 61.4024 394.802 526.444
2617 0 82.7623 13.9315 1153 61.6054 394.104 525.983
2618 0 84.6396 13.3271 1128 63.1268 394.333 523.337
2619 0 84.7993 13.4907 1144 62.9449 394.856 522.161
2620 0 87.9015 13.6403 1199 62.9174 394.806 520.502
2621 0 91.9208 14.5887 1341 61.255 394.419 519.77
2622 0 93.6859 13.8655 1299 62.7506 394.786 516.577
2623 0 99.9556 14.4364 1443 61.1441 394.703 517.333
2624 0 101.523 14.7553 1498 61.3905 394.535 513.976
2625 0 102.795 13.9792 1437 63.0939 394.482 511.047
2626 0 105.617 14.0886 1488 62.5739 394.686 512.438
2627 0 108.575 14.3311 1556 61.8329 394.582 511.088
2628 0 111.521 14.0243 1564 62.1899 394.327 507.957
2629 0 115.574 14.7784 1708 60.9573 394.11 507.529
2630 0 115.942 13.6707 1585 62.8202 393.852 506.115
2631 0 120.913 15.11 1827 60.7624 393.634 505.54
2632 0 123.777 14.2918 1769 61.6891 393.403 502.594
2633 0 125.596 14.1725 1780 62.2792 393.792 501.842
2634 0 131.494 14.8144 1948 60.7074 393.554 500.38
2635 0 133.592 13.9754 1867 61.6347 393.651 499.094
2636 0 139.955 15.312 2143 60.0565 393.891 498.458
2637 0 144.743 14.999 2171 60.2552 393.864 494.566
2638 0 146.702 14.1035 2069 61.3359 393.966 491.768
2639 0 151.461 14.2347 2156 61.2069 393.984 488.131
2640 0 160.787 14.9142 2398 59.5655 393.992 488.789
2641 0 163.65 14.201 2324 60.9518 393.65 482.844
2642 1 96.6842 12.7011 1228 60.3412 393.878 519.286
2643 0 100.413 12.3889 1244 62.0603 394.08 514.132
2644 0 102.635 14.157 1453 59.3861 393.557 516.114
2645 0 106.4 14.859 1581 58.456 393.664 513.632
2646 0 108.512 13.6299 1479 60.357 393.304 510.594
2647 0 111.312 13.8799 1545 60.2369 393.448 509.053
2648 0 113.386 13.1322 1489 61.5151 393.197 506.798
2649 0 120.233 14.8046 1780 58.8652 392.968 508.432
2650 0 123.42 14.9327 1843 55.8806 392.651 507.061
2651 0 128.381 14.5037 1862 56.2331 393.046 504.262
2652 0 130.32 13.0601 1702 58.3138 392.589 500.552
2653 0 137.424 14.7354 2025 56.121 392.675 500.282
2654 1 71.1703 10.1306 721 56.301 393.8 531.979
2655 0 71.4032 10.9939 785 55.2611 393.492 532.471
2656 0 74.1288 13.3956 993 53.9114 393.725 532.379
2657 0 76.328 12.5642 959 55.025 393.627 530.38
2658 0 76.1541 11.6737 889 56.5107 393.412 526.913
2659 0 80.112 12.5824 1008 55.6825 393.703 527.046
2660 0 81.1542 12.0758 980 57.0143 393.58 524.901
2661 0 86.4101 14.489 1252 53.8858 393.339 525.891
2662 1 40.0186 7.37157 295 51.8915 394.461 549.637
2663 0 40.0424 7.06751 283 52.6042 394.466 549.908
2664 0 40.052 8.03956 322 51.7329 394.189 549.665
2665 0 42.0592 8.63069 363 51.4904 393.81 547.645
2666 0 45.0736 9.05187 408 51.3971 393.581 547.885
2667 0 46.1377 9.9268 458 51.3624 392.535 547.548
2668 0 46.0798 10.395 479 51.3215 393.054 548.528
2669 0 45.1087 10.3528 467 52.0171 392.902 547.936
2670 0 46.1669 10.2454 473 51.6829 393.228 547.431
2671 0 46.1723 10.006 462 52.0022 393.303 547.188
2672 0 47.1284 10.4608 493 51.4483 393.063 548.815
2673 0 47.1536 10.9642 517 51.9342 392.909 547.636
2674 0 47.1523 10.9433 516 52.0446 392.862 548.252
2675 0 47.2311 9.61231 454 54.2181 393.015 547.079
2676 0 47.0806 9.45188 445 54.2045 393.144 548.045
2677 0 48.1275 9.72417 468 54.4936 393.293 546.25
2678 0 49.0934 9.85875 484 53.6591 392.907 547.178
2679 0 48.0112 9.5811 460 55.3413 393.043 545.652
2680 0 49.0582 9.94737 488 55.0881 392.795 545.912
2681 0 48.0996 9.16847 441 55.9773 392.723 545.585
2682 0 48.0605 9.71693 467 54.9379 392.287 546.739
2683 0 50.0781 9.94447 498 55.4558 392.096 546.068
2684 0 50.0933 9.72186 487 56.308 392.222 546.53
2685 0 49.219 9.20376 453 55.7417 392.216 547.09
2686 1 25.0153 8.67469 217 53.7788 391.857 558.263
2687 0 21.0485 8.26661 174 54.0632 391.914 560.052
2688 0 22.149 8.62342 191 53.8482 391.937 558.754
2689 0 24.2138 9.7052 235 52.6 391.281 559.987
2690 0 25.1163 8.32129 209 54.8278 391.852 559.282
2691 0 24.1236 8.29064 200 55.905 391.415 558.835
2692 0 25.1265 9.23327 232 54.0733 391.582 558.978
2693 0 23.1743 8.846 205 56.2878 391.541 560.049
2694 0 25.0045 9.15834 229 54.7467 391.581 560.21
2695 0 23.0638 10.9262 252 54.496 390.246 560.012
2696 0 24.0393 10.5244 253 54.5376 390.557 562.13
2697 0 25.0388 9.74487 244 55.7295 390.791 560.049
2698 0 23.0276 9.6406 222 56.0766 390.644 560.261
2699 0 24.0062 9.66419 232 55.9483 390.573 559.703
