time division length width area intensity CMx CMy
0 0 54.2021 12.6563 686 65.4169 456.599 557.407
1 0 56.3837 13.1953 744 65.8616 456.07 556.711
2 0 55.1871 12.3942 684 68.0102 455.92 556.221
3 0 57.3096 13.3137 763 66.5413 456.187 555.241
4 0 58.0816 12.7923 743 67.1965 455.969 553.215
5 0 62.0896 14.157 879 63.9374 455.271 553.311
6 0 64.1221 13.5211 867 64.6228 455.326 551.944
7 0 66.1436 14.015 927 64.3754 455.531 549.848
8 0 68.2071 13.9722 953 64.8846 456.197 549.718
9 0 70.3161 13.9655 982 65.8676 456.014 548.345
10 0 72.3113 13.4281 971 67.8157 456.5 546.807
11 0 75.1537 14.2242 1069 67.1459 456.543 544.636
12 0 77.2644 13.7062 1059 68.0652 456.479 542.484
13 0 80.1093 13.207 1058 68.0974 456.343 543.633
14 0 81.3303 13.3161 1083 67.9067 456.976 541.685
15 0 86.3469 13.828 1194 67.2864 456.806 540.081
16 0 90.5434 13.0435 1181 67.282 456.808 540.606
17 1 47.3744 9.81542 465 68.0323 457.559 561.03
18 0 49.3228 11.9418 589 65.0815 457.306 558.647
19 0 50.265 11.9168 599 65.6761 456.993 557.077
20 0 50.1776 12.117 608 65.875 457.406 557.334
21 0 52.4849 12.7275 668 64.7829 457.552 555.888
22 0 53.2781 13.1198 699 64.2904 457.654 556.268
23 0 57.2561 13.8151 791 63.4362 457.953 555.426
24 0 56.2947 12.5234 705 65.5035 457.623 555.086
25 0 60.1963 13.6553 822 64.5353 458.045 552.331
26 0 61.1766 12.9461 792 65.8914 458.029 550.898
27 0 64.1631 12.9669 832 65.893 457.774 550.719
28 0 66.2454 12.2273 810 66.8333 457.646 549.389
29 0 69.2748 12.371 857 66.4761 458.084 549.963
30 0 71.2036 13.3842 953 66.5488 457.884 546.976
31 0 73.3127 12.7399 934 67.3394 458.14 547.521
32 1 39.25 10.4968 412 67.1141 458.9 563.638
33 0 41.2034 9.44098 389 68.0925 459.062 564.272
34 0 44.1552 11.6634 515 66.035 459.243 561.662
35 0 45.1371 11.9857 541 66.7024 458.869 559.494
36 0 46.1275 12.1403 560 66.4036 458.695 559.436
37 0 48.2334 10.5321 508 67.813 458.1 560.606
38 0 48.2984 11.2633 544 67.8842 458.055 557.724
39 0 51.315 12.3161 632 66.5016 457.454 557.351
40 0 53.1834 12.4475 662 65.8988 457.789 555.754
41 0 53.2496 12.1879 649 67.2419 457.498 554.259
42 0 57.2138 12.5319 717 66.2134 457.753 553.356
43 0 58.2672 13.0434 760 65.379 457.701 552.529
44 0 59.3033 13.0516 774 65.1925 457.82 552.975
45 0 61.1343 13.3967 819 65.2149 458.327 551.022
46 0 63.3642 13.0831 829 65.3052 458.15 551.18
47 0 65.3084 13.7961 901 65.1199 458.054 548.875
48 0 69.3304 14.1496 981 64.5606 457.828 547.964
49 0 71.414 12.6306 902 66.2251 457.953 546.834
50 0 74.5603 12.6743 945 66.4603 457.673 543.768
51 0 74.2968 13.648 1014 65.7318 458.088 544.453
52 0 77.4834 13.8868 1076 65.5725 457.547 543.101
53 0 81.5404 13.1959 1076 66.3206 457.547 542.872
54 1 43.358 10.4248 452 65.3518 457.4 562.13
55 0 45.4044 10.7258 487 59.3634 457.466 561.938
56 0 49.2844 11.9308 588 58.7041 457.561 558.939
57 0 51.3384 12.5637 645 58.2388 457.726 558.95
58 0 51.3331 12.4286 638 59.7429 457.691 556.599
59 0 51.2763 11.9939 615 60.7252 457.434 557.642
60 0 54.4388 12.5095 681 60.1175 458.207 556.09
61 0 55.2384 13.1611 727 59.8377 458.245 555.446
62 0 56.3102 13.7986 777 59.2342 458.246 554.015
63 0 57.3282 13.6059 780 59.791 457.437 553.378
64 0 59.143 13.4082 793 60.0467 457.706 552.813
65 0 60.3838 13.2817 802 60.5112 458.012 551.004
66 0 61.2662 13.0741 801 61.0212 457.816 549.703
67 0 64.2531 12.7465 819 61.3602 458.17 549.153
68 0 65.1938 12.1331 791 62.1087 458.641 548.321
69 0 67.4825 13.3664 902 60.7761 459.359 547.672
70 0 71.348 13.5953 970 60.0773 459.182 545.985
71 0 72.2693 13.6157 984 60.3344 458.723 543.502
72 0 73.2327 13.6551 1000 60.637 459.226 544.1
73 0 77.2406 13.9823 1080 60.0232 459.474 542.627
74 0 80.3614 14.4597 1162 59.3898 459.334 540.466
75 0 83.2601 14.9171 1242 59.3116 460.316 537.728
76 0 86.3187 13.7745 1189 60.7746 460.222 537.033
77 0 88.3174 14.7649 1304 60.0667 460.314 535.013
78 0 91.3003 14.2716 1303 60.264 460.279 534.722
79 0 94.3489 14.5312 1371 60.1182 460.54 531.91
80 0 97.3974 14.3844 1401 60.3754 460.958 530.293
81 0 99.3743 14.0781 1399 61.0543 461.229 529.362
82 1 51.3766 10.6663 548 62.5237 461.757 552.398
83 0 53.1518 12.1727 647 61.544 461.671 551.331
84 0 54.138 11.914 645 62.3132 461.513 548.541
85 0 58.3061 12.1257 707 61.6294 461.569 548.588
86 0 59.1959 12.3319 730 61.1658 461.785 546.147
87 0 60.2727 13.2232 797 60.0652 462.12 545.478
88 0 62.1412 12.5842 782 59.2698 462.214 545.286
89 0 66.3369 13.0696 867 57.0911 462.445 543.632
90 0 65.304 12.6792 828 59.32 462.762 541.684
91 0 67.2705 13.0072 875 63.1829 463.466 540.707
92 0 71.4676 12.775 913 66.3855 464.077 540.566
93 0 74.262 12.7522 947 66.5607 463.946 538.152
94 0 74.2458 12.5664 933 65.865 463.687 537.178
95 0 77.3964 12.4941 967 63.9576 463.288 535.364
96 0 81.3112 13.2208 1075 61.4158 463.598 535.585
97 0 84.3331 13.9328 1175 83.2408 463.478 534.321
98 0 86.2376 13.3237 1149 61.06 462.641 531.329
99 0 89.2653 13.3086 1188 61.6843 462.863 529.367
100 0 94.3463 14.362 1355 60.7373 463.534 527.509
101 0 91.1355 11.9273 1087 63.4894 463.856 528.968
102 1 51.1901 10.8419 555 58.827 464.211 547.701
103 0 51.065 10.4964 536 60.7537 464.194 545.644
104 0 54.0623 11.8382 640 59.8797 464.155 545.442
105 0 56.1057 12.3517 693 60.6089 464.574 542.795
106 0 57.151 11.7758 673 63.4755 464.547 543.364
107 0 61.1422 13.0188 796 62.1319 464.329 542.255
108 0 60.1586 12.1678 732 62.8347 464.239 541.624
109 0 61.2016 11.6827 715 62.0028 465.083 540.129
110 0 64.189 13.6628 877 57.7697 464.605 539.401
111 0 67.1595 12.5671 844 58.3946 464.674 538.378
112 0 71.1639 13.9678 994 57.3078 464.531 539.068
113 0 68.1698 12.8796 878 60.0205 464.474 535.29
114 0 71.1243 12.443 885 60.3864 464.134 535.655
115 0 75.2205 12.5498 944 59.821 464.084 535.522
116 0 75.2577 13.0618 983 60.5839 464.051 533.049
117 0 80.3195 11.8651 953 62.4271 463.757 529.004
118 0 85.3137 14.8511 1267 58.5351 463.952 531.2
119 1 44.2231 9.76865 432 61.4259 464.826 549.993
120 0 48.2185 10.4109 502 58.3247 464.534 549.251
121 0 49.1854 10.9179 537 58.568 464.363 548.032
122 0 49.1098 12.1157 595 56.9698 464.148 546.618
123 0 50.1036 11.1569 559 58.3649 464.286 547.045
124 0 52.0976 12.6877 661 58.0121 464.157 545.598
125 0 53.071 12.3796 657 58.4034 464.612 543.793
126 0 56.128 12.4715 700 57.7557 464.164 544.821
127 0 58.1388 13.0378 758 56.9433 464.12 544.883
128 0 59.1046 12.1987 721 58.6241 464.333 543.712
129 0 58.2935 11.3735 663 60.1267 464.744 543.297
130 0 63.1041 13.2163 834 57.9844 463.891 542.864
131 0 65.4095 12.3071 805 58.7913 463.232 542.973
132 0 65.2702 12.4866 815 60.0442 462.178 540.33
133 0 66.2563 13.9157 922 59.1367 461.946 538.693
134 0 67.5477 13.2055 892 59.7422 461.77 538.127
135 0 70.2678 11.94 839 61.0667 461.6 538.013
136 0 73.4719 12.9301 950 60.6105 461.899 536.115
137 0 74.2004 12.2506 909 61.725 461.585 532.764
138 0 78.4975 13.4144 1053 60.0703 461.881 533.631
139 0 81.4343 13.0903 1066 59.9887 461.513 534.734
140 1 42.5064 10.469 445 59.1348 461.915 553.094
141 0 43.5282 11.4638 499 58.5491 461.699 552.756
142 0 46.316 11.8533 549 57.3188 461.721 551.628
143 0 45.3828 11.5683 525 59.1505 461.789 550.387
144 0 46.3343 11.5034 533 59.3696 461.004 550.67
145 0 47.357 11.445 542 60.2196 461.799 549.513
146 0 49.4484 12.235 605 59.8512 461.822 549.456
147 0 49.3676 11.1814 552 62.0417 462.165 547.219
148 0 53.3278 14.0452 749 58.5581 462.375 546.833
149 0 52.3033 12.9629 678 61.2153 462.283 546.435
150 0 55.1076 12.7931 705 61.3745 463.816 545.862
151 0 56.2503 14.5066 816 60.4203 463.957 544.45
152 0 55.2056 13.169 727 63.2971 463.703 544.187
153 0 59.4197 13.0596 776 63.2487 463.509 544.961
154 0 60.2976 13.2012 796 63.6746 463.773 543.894
155 0 62.2014 13.5206 841 64.2533 463.403 542.922
156 0 64.1892 13.32 855 64.2561 463.448 543.347
157 0 67.2446 14.0234 943 63.7169 463.579 540.619
158 0 68.2094 13.1067 894 65.3277 463.298 538.631
159 0 72.298 13.8593 1002 63.3643 463.3 538.998
160 1 40.2671 10.8525 437 64.1716 464.053 554.803
161 0 42.323 9.92369 420 65.2405 463.81 554.264
162 0 41.3255 10.6956 442 65.2036 463.613 553.299
163 0 42.2976 11.1117 470 64.2128 463.687 553.249
164 0 44.3105 11.4194 506 63.4289 463.704 551.913
165 0 46.3334 11.0072 510 63.0196 463.861 550.571
166 0 47.2911 12.3913 586 62.3601 464 549.539
167 0 47.3044 12.3456 584 63.125 464.084 549.252
168 0 50.335 12.8141 645 62.2078 463.857 549.205
169 0 52.3405 12.6862 664 62.3464 463.931 548.688
170 0 51.2864 13.0054 667 62.6762 463.978 546.192
171 0 51.2864 13.0444 669 151.94 463.958 546.223
172 0 54.2332 12.5753 682 63.4032 464.21 545.383
173 0 55.3429 13.588 752 61.9428 464.428 544.87
174 0 58.2343 13.9093 810 61.6012 464.649 544.241
175 0 59.2968 13.0361 773 62.6636 464.803 544.088
176 0 59.2331 13.6748 810 62.6383 464.952 542.544
177 0 61.3248 13.9095 853 62.2462 464.828 539.018
178 0 65.2946 14.335 936 60.6336 464.907 542.024
179 0 65.2412 13.3811 873 62.7342 464.91 538.648
180 0 67.3446 13.5868 915 62.2492 465.332 539.602
181 0 68.1676 12.8947 879 64.2082 465.759 536.466
182 0 70.2338 14.0815 989 62.1496 465.768 536.566
183 0 72.2126 13.6264 984 63.1535 465.778 534.764
184 0 75.2601 14.3768 1082 62.5628 465.726 531.547
185 0 78.2206 13.9222 1089 62.4114 465.907 532.187
186 0 79.1751 13.2617 1050 63.6705 466.23 529.846
187 0 82.2275 14.168 1165 62.8652 465.997 524.982
188 0 85.169 12.8568 1095 64.1279 466.274 526.86
189 1 45.1209 10.6159 479 62.7662 467.081 547.424
190 0 45.058 10.542 475 64.1705 466.897 545.787
191 0 47.1337 10.9051 514 64.4981 467.333 546.708
192 0 50.1365 11.3889 571 63.641 467.778 545.739
193 0 50.0678 12.6029 631 60.7417 467.813 545.2
194 0 51.0592 12.8282 655 59.7786 467.521 542.46
195 0 50.1598 12.6396 634 60.6372 466.986 542.27
196 0 54.1597 13.2571 718 60.4805 467.045 540.631
197 0 55.1703 13.4493 742 61.1766 467.007 540.383
198 0 56.1825 12.6552 711 63.2461 467.025 540.184
199 0 60.1263 14.6359 880 60.15 467.286 541.192
200 0 59.1739 13.2829 786 62.3295 467.538 540.332
201 0 62.1182 15.6637 973 59.48 467.779 537.595
202 0 63.1462 12.8432 811 62.4316 467.779 538.233
203 0 65.0717 12.9242 841 62.5291 467.144 535.464
204 0 67.1343 12.7655 857 62.8845 467.651 535.302
205 0 67.064 13.0025 872 63.4335 467.714 532.93
206 0 72.0317 13.0082 937 64.0768 467.732 532.526
207 0 73.1937 14.1815 1038 62.4037 467.676 530.947
208 0 77.1014 14.2669 1100 62.1073 467.26 529.985
209 0 78.0759 13.8071 1078 63.1512 467.218 528.931
210 0 81.0933 14.2182 1153 62.3799 467.277 529.696
211 0 85.1073 14.8871 1267 61.4436 466.565 524.547
212 0 88.0929 13.9625 1230 62.9089 466.316 523.415
213 0 90.1234 14.8685 1340 62.159 466.538 524.185
214 0 93.1398 14.6232 1362 62.5786 466.27 522.092
215 1 47.1382 10.1616 479 66.1608 466.424 542.668
216 0 51.1473 11.1443 570 64.3158 465.8 542.826
217 0 53.1756 10.7568 572 64.0804 465.811 543.885
218 0 53.2005 10.921 581 64.6781 466.115 543.489
219 0 55.212 11.3019 624 64.8333 465.558 540.965
220 0 58.1047 12.3398 717 63.3835 465.456 540.668
221 0 60.1356 12.3221 741 63.081 465.148 539.897
222 0 62.1346 13.503 839 61.9213 464.888 537.062
223 0 64.1283 12.4126 796 62.8706 464.83 537.466
224 0 65.1007 13.0413 849 62.7409 465.214 535.296
225 0 67.0484 13.7065 919 62.0054 465.397 535.204
226 0 69.0466 13.4692 930 62.857 464.944 533.784
227 0 72.067 13.6817 986 62.4949 465.027 531.446
228 0 74.0785 13.5532 1004 63.3227 464.554 530.809
229 0 75.1371 13.6284 1024 63.9434 464.657 529.566
230 0 80.151 13.799 1106 63.642 464.709 529.086
231 0 83.0719 14.8426 1233 62.4323 464.316 528.507
232 0 84.096 12.9614 1090 65.6771 464.754 526.806
233 0 87.0868 12.9985 1132 65.4214 464.553 528.013
234 1 46.0689 10.3975 479 63.5678 464.96 548.601
235 0 47.0173 9.74109 458 66.0546 465.312 545.862
236 0 50.0424 11.1306 557 63.3914 465.264 546.382
237 0 52.0063 11.4602 596 64.5386 465.302 543.678
238 0 53.029 11.8426 628 65.1083 464.74 542.771
239 0 54.0885 12.1468 657 64.7154 464.76 542.248
240 0 55.1703 12.2892 678 64.8761 463.695 542.007
241 0 59.1774 12.5048 740 64.5905 463.964 542.172
242 0 62.1492 13.5159 840 63.0393 464.169 540.098
243 0 63.0958 13.1387 829 63.0905 463.648 540.527
244 0 63.1158 13.499 852 63.6115 463.404 538.957
245 0 67.1028 13.2334 888 63.7962 463.828 537.43
246 0 70.116 13.6203 955 62.4848 464.159 539.732
247 0 69.1053 13.2551 916 64.1867 463.621 537.998
248 0 73.187 12.7618 934 64.5332 463.784 537.302
249 0 78.1959 13.7987 1079 63.2363 463.634 535.599
250 0 76.1318 13.0169 991 65.1029 463.512 533.398
251 0 81.1419 12.0283 976 66.5123 463.47 531.112
252 0 84.2221 14.1531 1192 63.9169 463.4 528.674
253 0 87.2996 13.7 1196 64.3771 463.883 529.094
254 0 89.179 13.0075 1160 65.2155 463.397 530.537
255 0 92.3021 13.4558 1242 65.1232 463.481 527.039
256 0 96.2001 13.3472 1284 65.1526 463.516 523.84
257 1 50.0884 11.899 596 63.2987 463.933 549.309
258 0 51.07 11.0437 564 64.3333 463.77 548.599
259 0 53.0592 11.5154 611 64.5679 463.861 547.339
260 0 56.1095 11.9231 669 63.429 463.7 547.912
261 0 55.2066 11.8645 655 64.4244 463.092 546.954
262 0 58.1858 12.4257 723 63.343 462.804 545.476
263 0 60.1647 12.6652 762 63.5945 462.438 544.507
264 0 62.1536 12.5335 779 63.9243 462.53 543.675
265 0 65.2166 11.9141 777 64.2806 462.655 542.363
266 0 66.2046 12.2499 811 65.619 462.422 539.912
267 0 70.2399 13.5251 950 63.481 462.356 541.115
268 0 72.1792 13.8128 997 63.8907 462.575 538.522
269 0 73.2425 13.5714 994 64.7757 462.93 536.384
270 0 77.3123 13.9822 1081 63.9639 463.205 535.351
271 0 79.2546 13.9803 1108 63.9061 463.374 535.137
272 0 81.1834 13.3155 1081 64.938 463.012 532.826
273 0 85.1634 13.5269 1152 64.5113 462.604 530.603
274 0 88.2552 14.5487 1284 63.7017 463.442 530.554
275 0 90.1951 14.3134 1291 63.6654 463.218 527.746
276 1 47.1179 10.4419 492 64.3679 464.27 550.425
277 0 46.0986 8.95907 413 66.6295 463.983 548.724
278 0 48.233 10.4493 504 64.5258 464.034 548.623
279 0 52.1298 12.1044 631 62.3027 464.303 548.642
280 0 52.1975 12.5868 657 62.9528 464.047 546.565
281 0 54.0615 12.6523 684 63.2866 464.444 544.953
282 0 57.2061 11.8519 678 63.9336 464.823 543.302
283 0 57.1536 12.2302 699 63.6738 464.568 542.711
284 0 60.0998 13.1115 788 62.5609 464.382 543.354
285 0 62.1723 13.543 842 62.0439 463.939 541.441
286 0 63.1796 11.5702 731 64.327 464.219 542.357
287 0 64.2123 13.907 893 62.9328 464.068 539.536
288 0 67.1817 13.7686 925 63.1914 464.349 538.76
289 0 69.3761 13.1169 910 64.2077 464.303 535.326
290 0 72.2855 13.1977 954 63.9853 464.997 536.915
291 0 72.3676 12.4503 901 66.3885 465.326 533.64
292 0 78.2304 12.3737 968 66.0258 465.363 531.731
293 0 80.3022 13.7107 1101 64.4196 465.076 532.098
294 1 46.2384 10.5973 490 64.5469 465.473 549.833
295 0 43.2447 9.98967 432 67.7153 465.449 546.764
296 0 47.1692 11.1089 524 65.3473 465.676 546.317
297 0 50.158 11.6033 582 63.9399 465.919 545.026
298 0 51.1118 12.4238 635 62.3606 465.85 543.968
299 0 50.1511 12.5421 629 63.6582 466.213 543.31
300 0 51.1118 11.9151 609 66.0016 466.279 540.842
301 0 55.1127 11.286 622 65.3022 466.707 542.804
302 0 55.1127 11.3223 624 146.8 466.716 542.928
303 0 58.1896 12.717 740 64.873 466.566 538.954
304 0 60.2284 12.8511 774 64.1899 466.7 538.575
305 0 61.194 12.7627 781 65.3099 467.15 538.748
306 0 62.0849 12.4185 771 66.0441 467.341 537.454
307 0 64.1913 13.0859 840 64.6036 467.204 537.404
308 0 66.1702 13.1328 869 65.5282 466.956 534.492
309 0 67.1962 12.4858 839 66.7569 467.548 532.936
310 0 71.1278 13.6374 970 65.2093 467.729 531.53
311 0 72.2124 13.0033 939 66.1544 467.141 531.846
312 0 76.1446 13.3693 1018 65.498 467.124 530.916
313 0 80.1335 13.7271 1100 64.57 467.407 530.889
314 0 79.2031 13.5601 1074 65.7961 467.137 527.186
315 0 84.2342 13.7236 1156 65.6799 466.798 525.916
316 0 85.1325 12.968 1104 67.1005 467.088 526.332
317 0 89.2227 14.122 1260 65.0921 467.007 524.246
318 0 92.186 15.6748 1445 62.9045 466.663 522.028
319 1 46.2147 10.8407 501 65.8523 467.08 544.24
320 0 49.2088 11.6239 572 64.0629 466.657 545.145
321 0 51.2112 11.4233 585 65.4171 466.891 543.287
322 0 50.1678 12.2987 617 65.2188 466.747 542.674
323 0 52.1577 12.8073 668 64.271 466.716 541.822
324 0 54.1607 11.5951 628 65.2755 466.666 540.962
325 0 56.1514 13.0718 734 63.9305 466.365 540.172
326 0 55.1605 11.5481 637 66.9199 466.494 539.56
327 0 59.1683 14.1968 840 62.9643 466.852 538.106
328 0 62.1392 12.6168 784 64.4413 466.649 537.269
329 0 64.1396 13.0808 839 64.1657 466.16 536.646
330 0 64.1592 12.4066 796 66.0377 466.117 534.931
331 0 67.2779 13.6449 918 63.7168 466.161 536.613
332 0 68.2923 12.8858 880 65.3898 466.512 534.717
333 0 70.166 12.5987 884 65.9389 466.287 533.193
334 0 74.2034 12.7218 944 66.0106 465.832 532.731
335 0 76.2286 13.8793 1058 64.0926 465.775 531.795
336 0 76.2286 13.8662 1057 163.813 466.768 531.812
337 0 81.3753 12.301 1001 65.2238 465.682 530.575
338 1 42.2921 10.1201 428 65.6355 465.78 547.439
339 0 44.3432 11.6816 518 62.6564 465.272 547.645
340 0 44.1919 10.2508 453 65.3223 465.435 547.338
341 0 48.1607 11.6277 560 63.3411 465.111 546.121
342 0 50.3099 11.946 601 62.4077 465.088 545.431
343 0 51.1921 13.1466 673 62.419 465.058 544.196
344 0 53.1848 12.7292 677 62.5835 464.817 543.548
345 0 55.1807 12.9574 715 62.7846 464.148 541.785
346 0 55.2061 12.9515 715 62.4084 464.27 542.196
347 0 57.0618 12.8457 733 61.7476 464.885 543.364
348 0 58.0861 12.9979 755 62.3881 464.768 541.033
349 0 58.0548 12.8155 744 62.4839 465.043 541.302
350 0 60.164 14.0782 847 61.6057 464.639 538.558
351 0 62.0802 13.5631 842 61.7957 463.78 538.881
352 0 66.129 14.3659 950 60.6147 463.283 537.943
353 0 66.0966 14.9781 990 60.7919 463.096 537.852
354 0 67.0945 13.3841 898 63.4109 463.051 535.921
355 0 71.1334 14.1003 1003 62.7248 462.673 534.348
356 0 74.137 14.3248 1062 62.0913 462.613 533.353
357 0 79.1582 14.351 1136 61.0792 462.42 533.588
358 0 80.0771 14.7608 1182 61.747 461.959 531.164
359 0 81.1041 14.0437 1139 62.9394 462.743 529.017
360 1 40.0686 11.0061 441 63.2154 462.773 548.646
361 0 41.0807 10.4185 428 63.4813 462.89 548.572
362 0 41.0316 11.9177 489 62.5787 463.62 548.775
363 0 45.0706 12.4471 561 61.5169 463.143 547.433
364 0 45.0184 12.6837 571 61.5692 463.672 546.322
365 0 46.1024 13.6435 629 60.539 463.564 545.639
366 0 47.0114 11.8269 556 63.2446 463.2 545.406
367 0 49.0367 12.664 621 62.058 463.013 544.887
368 0 52.0416 13.6814 712 60.0379 463.351 545.711
369 0 53.038 13.5375 718 61.0265 463.877 544.23
370 0 53.226 13.0951 697 61.5811 463.95 542.129
371 0 55.1368 14.4912 799 60.7998 463.225 541.722
372 0 55.0939 13.4316 740 62.7419 463.974 541.003
373 0 59.0322 14.2465 841 61.1998 463.949 539.834
374 0 59.1084 14.7864 874 61.4142 464.525 538.133
375 0 62.0339 13.4443 834 62.5324 464.222 537.912
376 0 63.105 14.0718 888 61.1126 464.207 538.261
377 0 65.1802 13.2709 865 61.8994 464.123 536.257
378 0 66.0713 13.9092 919 61.4799 464.273 534.589
379 0 68.1219 14.019 955 61.5529 464.418 532.329
380 0 71.1604 14.1371 1006 60.826 464.039 532.43
381 0 76.1833 14.137 1077 60.3036 464.677 532.329
382 0 78.1385 13.1049 1024 61.7393 464.817 530.872
383 0 81.1581 13.9604 1133 60.6364 464.462 526.673
384 1 38.0685 10.7175 408 59.6618 464.01 547.314
385 0 41.1589 10.4959 432 61.9028 465.347 546.947
386 0 44.1915 11.6765 516 59.0601 465.667 547.3
387 0 46.1994 11.7967 545 59.033 465.969 546.587
388 0 47.1386 12.092 570 59.4947 466.182 544.033
389 0 49.1268 11.684 574 59.547 466.587 543.375
390 0 48.1652 11.9173 574 60.2648 466.108 541.981
391 0 51.1465 12.2393 626 59.3578 466.085 541.952
392 0 54.0597 12.4862 675 59.0904 466.321 540.927
393 0 54.0496 11.0824 599 61.2621 466.937 539.583
394 0 57.2314 12.8601 736 58.1603 466.708 540.482
395 0 56.0574 10.6141 595 61.3647 466.65 535.652
396 0 58.0893 11.3274 658 60.5562 466.53 534.21
397 0 62.0511 12.4575 773 58.7956 466.338 534.109
398 0 61.0679 12.5762 768 59.5026 466.598 534.514
399 0 65.046 12.4681 811 59.5857 466.408 533.412
400 0 68.0382 12.7281 866 58.9457 466.607 531.244
401 0 70.0668 12.7164 891 59.2761 466.731 529.597
402 1 37.0306 8.39847 311 59.3891 466.582 547.106
403 0 39.0098 11.4843 448 56.4955 466.632 547.085
404 0 40.0123 11.7464 470 57.4383 466.583 544.685
405 0 40.0239 10.8185 433 57.9215 466.436 544.06
406 0 40.0248 10.1687 407 59.0835 466.482 543.428
407 0 42.0801 10.5513 444 59.1419 466.55 542.928
408 0 43.0246 10.5521 454 59.4978 466.295 541.244
409 0 46.026 11.8194 544 57.6066 466.018 541.476
410 0 45.0239 12.3712 557 58.0987 466.531 541.42
411 0 48.0234 11.7026 562 58.3203 466.699 540.612
412 0 48.0237 12.1398 583 58.446 466.655 538.096
413 0 51.0612 12.4556 636 57.6714 466.994 540.291
414 0 54.057 13.5043 730 56.289 466.73 539.448
415 0 53.0657 10.9864 583 60.4202 466.89 538.252
416 0 58.0837 13.8249 803 56.9988 467.076 536.902
417 0 60.0743 12.8674 773 57.8098 466.631 534.617
418 0 61.0416 14.9898 915 56.2448 465.876 535.52
419 0 62.0907 13.5286 840 57.5083 465.711 535.268
420 0 66.0278 14.6756 969 55.9959 465.591 533.095
421 0 67.0666 12.8082 859 58.0512 465.135 533.417
422 0 70.078 14.9262 1046 55.7505 464.368 534.314
423 0 72.0641 13.4325 968 57.6002 464.378 531.458
424 0 74.0306 13.5214 1001 57.4056 464.764 531.023
425 0 77.1586 14.0749 1086 57.1823 464.134 528.052
426 0 79.0604 14.5332 1149 56.8938 464.59 529.876
427 0 79.0604 14.5585 1151 148.055 465.604 529.892
428 1 43.0091 10.2769 442 58.1742 464.686 547.414
429 0 45.0452 11.6772 526 57.943 464.127 545.899
430 0 47.0961 12.7611 601 58.1847 464.852 543.291
431 0 49.0723 12.5733 617 58.2042 464.363 544.451
432 0 49.05 12.8033 628 57.9857 464.191 544.809
433 0 51.0524 13.6722 698 57.5344 463.62 542.361
434 0 54.0854 14.0703 761 56.7503 463.034 542.911
435 0 56.0216 13.4591 754 57.3011 463.05 541.991
436 0 55.0742 12.8009 705 59.0525 463.173 541.142
437 0 59.1245 11.4842 679 59.2784 463.153 542.823
438 0 59.0338 13.6532 806 58.665 462.757 538.957
439 0 61.1283 14.7395 901 57.7136 462.314 536.108
440 0 63.0622 14.5253 916 57.7718 462.23 537.787
441 0 65.1773 14.3148 933 58.3794 462.133 534.765
442 0 68.1386 13.678 932 59.0279 462.691 536.122
443 0 67.1131 13.5741 911 60.045 462.463 534.744
444 0 72.1555 13.6926 988 58.8553 462.033 536.45
445 0 74.2604 14.8801 1105 58.1095 462.709 533.842
446 0 75.2028 13.7894 1037 59.6818 463.072 533.346
447 0 80.1822 15.1156 1212 57.8168 462.632 531.469
448 0 81.2412 14.3031 1162 58.6489 463.818 532.077
449 1 43.1474 12.4225 536 57.0933 463.612 549.183
450 0 41.1899 9.61402 396 60.2348 463.283 549.202
451 0 41.2244 10.8916 449 59.4788 462.481 548.864
452 0 45.1671 12.9741 586 57.7167 462.968 547.084
453 0 47.1175 12.3096 580 58.3517 462.488 546.6
454 0 49.1686 12.1419 597 58.1038 462.759 546.156
455 0 49.0819 12.9783 637 57.9356 463.108 544.402
456 0 51.0884 12.8405 656 57.4131 463.489 543.771
457 0 55.0436 14.2251 783 55.2848 462.861 544.863
458 0 55.1222 13.4247 740 57.1014 463.468 541.609
459 0 58.1464 13.5864 790 56.1076 463.354 543.42
460 0 59.1371 13.8492 819 56.9414 463.399 541.348
461 0 61.2182 13.3294 816 57.7941 463.108 541.142
462 0 63.0588 15.1763 957 56.534 463.476 536.881
463 0 64.1464 12.4403 798 59.5075 463.038 538.039
464 0 64.0943 12.622 809 59.9839 463.336 536.409
465 0 70.0991 13.8518 971 58.1823 462.703 536.309
466 0 72.041 14.9915 1080 57.6491 462.909 535.078
467 0 74.117 13.4517 997 59.4373 462.472 533.733
468 0 75.1933 14.3231 1077 58.7363 462.856 531.77
469 0 79.085 13.5803 1074 59.7635 463.003 531.463
470 0 80.1311 14.1393 1133 59.5181 463.229 528.394
471 0 83.1747 15.0166 1249 58.5476 463.067 528.562
472 0 86.1553 14.1721 1221 59.4054 462.992 528.293
473 0 89.1131 14.1954 1265 59.9257 463.03 526.017
474 0 92.2301 14.7566 1361 59.3512 463.286 525.038
475 0 95.1615 14.7644 1405 59.4833 463.354 524.485
476 0 96.1991 14.9586 1439 59.7901 463.68 521.997
477 0 100.17 14.665 1469 60.3519 463.389 521.153
478 0 103.258 14.1975 1466 60.8322 463.052 519.581
479 0 107.314 14.6113 1568 60.3093 463.279 518.643
480 1 62.1625 12.4512 774 60.7687 463.226 540.128
481 0 65.0622 11.2047 729 62.0357 463.575 539.383
482 0 67.1512 11.3177 760 62.3421 463.578 537.122
483 0 69.1656 13.1135 907 60.0165 463.552 536.476
484 0 71.1045 13.7966 981 60.1121 463.378 533.916
485 0 71.087 13.1107 932 61.6288 463.28 533.563
486 0 74.072 14.1889 1051 59.9277 463.401 532.955
487 0 77.1138 13.9015 1072 61.7108 463.339 531.051
488 0 78.1128 13.8646 1083 61.9308 462.872 531.766
489 0 80.115 14.0673 1127 62.1455 462.851 530.862
490 0 84.086 13.8192 1162 62.6437 463.449 530.522
491 0 84.0785 13.7372 1155 63.5437 463.772 527.974
492 0 87.0716 14.5283 1265 63.0158 463.859 527.412
493 0 91.0668 13.814 1258 63.7226 464.054 527.298
494 0 90.1804 13.3621 1205 65.5236 464.076 523.043
495 0 95.0725 14.6204 1390 63.9648 464.292 521.56
496 0 98.2549 13.2716 1304 65.0752 464.534 521.428
497 0 104.274 14.203 1481 63.3896 464.511 520.406
498 0 105.224 14.512 1527 63.812 464.968 517.035
499 0 112.37 15.271 1716 62.2727 464.548 514.996
500 1 64.0399 13.4291 860 63.1895 464.602 536.977
501 0 63.0989 11.791 744 65.3105 464.696 536.499
502 0 66.1487 12.6382 836 64.3744 464.599 535.528
503 0 70.1342 12.0768 847 65.0472 464.581 534.642
504 0 73.0493 12.7859 934 63.5803 464.531 533.575
505 0 74.0734 13.0411 966 63.9617 465.076 531.326
506 0 78.0562 13.2981 1038 63.0925 464.8 531.083
507 0 78.2568 13.149 1029 63.3324 464.444 530.726
508 0 82.0914 13.9844 1148 62.2456 465.191 527.919
509 0 84.1481 13.2148 1112 63.4047 465.196 526.364
510 0 87.1101 12.7425 1110 64.0532 465 525.678
511 0 91.286 14.0109 1279 61.9906 465.052 522.461
512 0 93.1463 12.5931 1173 63.8039 465.05 522.471
513 0 97.1452 12.5071 1215 63.7045 464.984 522.451
514 0 101.162 13.9479 1411 61.7534 464.09 520.125
515 0 102.144 13.2558 1354 63.048 464.308 517.112
516 0 106.132 12.409 1317 63.145 464.357 514.428
517 0 109.128 12.9114 1409 62.6125 464.672 510.72
518 0 115.192 14.8448 1710 59.5404 464.241 512
519 0 118.233 12.8306 1517 61.7093 464.596 509.01
520 0 123.119 14.0189 1726 60.1947 465.133 508.811
521 0 126.282 13.2164 1669 61.1438 465.123 506.727
522 0 128.167 13.0923 1678 61.6603 465.625 500.409
523 0 133.375 13.7882 1839 60.453 465.881 498.489
524 0 137.194 13.1128 1799 61.3669 465.941 493.434
525 0 142.261 13.5947 1934 60.348 465.674 495.869
526 1 85.0815 9.21469 784 61.463 466.045 526.652
527 0 89.1138 12.1867 1086 59.2072 465.427 521.249
528 0 94.2016 12.4414 1172 58.9462 465.801 521.661
529 0 95.1112 13.6262 1296 57.6003 465.548 520.838
530 0 98.221 11.973 1176 59.5374 466.048 515.734
531 0 103.14 13.409 1383 57.9928 466.257 512.907
532 0 106.216 12.0604 1281 59.4036 466.365 511.388
533 0 112.183 14.4675 1623 56.8466 466.725 509.116
534 0 115.256 14.1337 1629 57.4432 467.077 505.523
535 0 120.186 13.113 1576 58.1142 467.064 502.745
536 0 126.329 13.2115 1669 58.2445 467.04 500.452
537 0 128.148 13.4688 1726 58.23 466.987 500.768
538 0 132.239 13.6269 1802 58.1648 467.392 499.241
539 0 138.421 13.4733 1865 58.1239 467.151 495.67
540 0 142.211 13.3956 1905 58.5113 467.143 491.821
541 0 149.342 15.3139 2287 56.4373 466.718 492.906
542 1 83.3464 11.6742 973 56.6608 467.222 525.599
543 0 83.3705 11.6348 970 57.3278 466.619 524.415
544 0 87.3508 12.2266 1068 57.1994 466.512 520.725
545 0 92.412 14.5219 1342 54.0134 466.394 522.252
546 0 93.2197 12.0575 1124 56.9528 466.412 519.185
547 0 97.3481 13.4363 1308 55.3387 465.683 515.225
548 0 102.343 13.4548 1377 54.3515 465.646 516.158
549 0 105.319 12.9227 1361 55.4181 465.605 512.686
550 0 108.191 13.3283 1442 55.0832 465.682 511.24
551 0 113.389 14.7633 1674 53.8321 465.536 511.476
552 0 117.298 14.4419 1694 54.3754 465.819 506.935
553 0 120.27 15.4486 1858 53.3805 465.882 507.276
554 0 124.246 13.4814 1675 55.4776 465.477 504.626
555 0 128.271 12.5983 1616 56.9684 466.387 501.913
556 0 135.422 15.6916 2125 53.6776 465.757 502.351
557 0 141.271 14.5324 2053 55.0141 465.455 497.967
558 0 144.306 13.0002 1876 58.9035 465.928 497.966
559 0 150.364 13.5405 2036 56.6002 465.838 493.474
560 0 157.178 15.5111 2438 54.4619 466.105 491.287
561 0 161.246 14.4252 2326 55.6234 465.658 492.742
562 0 165.323 13.2468 2190 57.2772 465.339 485.137
563 0 223.135 12.6515 2823 53.5608 465.514 475.13
564 0 225.874 20.2414 4572 45.4169 465.071 463.134
565 0 224.704 17.8145 4003 48.4079 465.419 464.254
566 0 223.799 21.0412 4709 45.5931 464.577 446.858
567 0 220.849 19.1307 4225 48.8052 464.815 454.077
568 1 101.272 12.2344 1239 55.7668 466.036 518.475
569 0 103.145 11.4499 1181 56.7587 466.227 515.491
570 0 108.116 12.0149 1299 56.1155 465.952 517.657
571 0 110.136 14.0463 1547 55.331 465.762 512.593
572 0 116.184 14.2533 1656 55.2615 465.36 513.224
573 0 119.226 12.4805 1488 57.8763 464.692 510.612
574 0 121.136 13.9265 1687 56.5803 464.704 505.394
575 0 124.169 13.3528 1658 57.6206 464.648 504.374
576 0 129.197 14.9384 1930 56.7404 464.248 504.577
577 0 134.199 13.7557 1846 57.8164 463.907 503.64
578 0 136.204 13.8836 1891 58.2729 463.543 500.804
579 0 142.5 13.1017 1867 58.8645 463.534 498.309
580 0 146.49 12.8951 1889 59.7565 463.512 495.785
581 0 152.47 14.3045 2181 58.2251 463.816 491.837
582 0 156.458 13.697 2143 59.0691 463.829 490.738
583 0 161.324 13.4884 2176 59.7721 463.354 486.42
584 0 168.476 14.6549 2469 57.7076 463.819 488.274
585 0 175.56 14.6731 2576 58.0877 462.681 483.962
586 0 179.381 15.7096 2818 57.1391 462.219 482.966
587 0 182.377 14.3001 2608 58.8133 462.51 477.976
588 0 187.295 14.6561 2745 58.8608 462.616 477.377
589 0 192.521 14.6062 2812 58.8183 462.457 473.724
590 0 192.521 14.6062 2812 164.751 461.457 473.724
591 1 118.274 8.66632 1025 61.1171 461.726 519.573
592 0 119.169 9.12148 1087 59.7028 462.205 520.165
593 0 116.113 9.66303 1122 61.4037 462.635 510.471
594 0 120.142 12.1273 1457 57.8648 462.357 512.896
595 1 48.1011 13.4508 647 50.5935 461.484 548.508
596 0 50.0434 13.0287 652 50.7883 462.245 547.508
597 0 50.242 12.1611 611 53.7316 463.568 546.411
598 0 51.2272 12.2786 629 52.9905 463.701 546.533
599 0 53.0753 12.4163 659 53.3247 462.765 546.174
600 0 54.1237 11.9356 646 54.3622 463.444 543.961
601 0 57.1268 12.3585 706 52.6997 462.637 544.636
602 0 57.0711 12.5458 716 53.6397 463.053 542.247
603 0 59.0777 12.272 725 53.1752 462.876 542.863
604 0 63.0855 11.8728 749 52.2603 462.841 540.539
605 0 67.1686 12.7143 854 50.7026 463.336 540.05
606 0 70.2472 14.1358 993 49.3092 462.352 539.428
607 0 70.2272 12.5308 880 52.4909 462.935 537.188
608 1 36.3542 11.3604 413 52.2712 460.99 553.676
609 0 38.1823 10.3189 394 53.4848 462.353 553.622
610 0 39.1227 10.352 405 52.5383 461.956 553.721
611 0 40.0403 10.3895 416 53.399 461.721 551.935
612 0 42.0569 10.7236 451 52.9889 462.124 553.395
613 0 42.038 11.2279 472 53.9025 462.186 551.843
614 0 42.1708 11.2874 476 53.9013 463.345 548.155
615 0 48.0964 12.267 590 51.7746 463.39 537.219
616 0 46.0218 11.4728 528 53.7273 463.58 537.049
617 0 49.0761 12.2463 601 52.2862 463.504 537.621
618 0 50.0442 12.6088 631 53.1949 463.591 536.802
619 0 52.055 12.8134 667 52.4483 463.798 541.747
620 0 55.0395 12.7726 703 51.9317 463.387 545.531
621 0 53.08 12.7732 678 52.3215 463.621 547.116
622 0 55.0695 12.0393 663 53.3002 464.035 546.407
623 0 54.0499 12.692 686 52.6589 464.456 544.439
624 0 58.0522 13.9185 808 51.0532 464.028 544.106
625 0 60.0558 14.0536 844 51.0225 464.378 543.417
626 0 59.0603 13.7148 810 52.058 465.043 542.094
627 0 62.0935 13.8501 860 52.6186 464.676 541.863
628 0 64.1909 12.7744 820 53.8427 465.187 541.566
629 0 67.1006 14.128 948 52.7743 464.285 539.508
630 0 69.1704 13.7776 953 53.2592 464.28 540.97
631 0 70.1321 13.5031 947 54.1975 463.875 536.38
632 0 72.1471 13.5695 979 54.1164 463.705 534.707
633 0 73.1504 13.274 971 54.2884 464.219 534.396
634 0 76.1032 13.4948 1027 53.8462 464.316 533.655
635 0 78.1753 13.329 1042 54.1536 464.537 531.991
636 0 82.2264 13.8398 1138 53.5439 464.748 529.266
637 0 85.0645 13.5074 1149 53.4056 464.705 528.562
638 0 86.2485 13.1712 1136 53.9023 466.096 527.631
639 0 90.1242 13.7477 1239 52.954 465.564 525.986
640 1 46.0711 10.0063 461 55.6226 466.241 545.178
641 0 52.0343 11.3387 590 54.2864 466.198 542.564
642 0 55.0561 14.131 778 51.4987 466.096 541.582
643 0 55.0554 11.9879 660 53.7227 466.771 540.568
644 0 56.0699 12.3952 695 53.7065 466.273 538.994
645 0 58.0969 12.9267 751 52.8961 466.276 539.008
646 0 59.0164 12.0306 710 53.6211 465.877 539.716
647 0 60.079 13.1993 793 53.0277 466.106 537.463
648 0 63.045 11.7218 739 54.4384 466.774 536.345
649 0 67.2074 14.6561 985 51.4518 466.025 534.612
650 0 68.1202 12.9624 883 53.5074 465.785 533.113
651 0 68.0691 13.2953 905 53.8619 465.918 530.502
652 0 75.1557 15.1552 1139 51.3898 465.604 532.285
653 0 75.1212 13.8443 1040 53.7404 465.793 529.245
654 0 80.1396 14.5247 1164 52.701 466.111 526.095
655 0 82.2457 15.4172 1268 52.5189 466.605 524.45
656 0 85.056 14.1319 1202 53.6955 466.142 523.2
657 0 88.1164 14.5489 1282 53.6303 466.352 523.86
658 0 90.101 14.7279 1327 54.1515 466.246 518.335
659 0 92.1144 14.1889 1307 54.9204 466.121 518.016
660 0 97.1114 14.4061 1399 54.7091 466.164 522.392
661 0 99.0928 13.0686 1295 56.7699 465.863 516.41
662 0 104.154 14.9874 1561 54.255 466.11 515.336
663 1 53.0946 10.3589 550 56.0909 465.86 540.616
664 0 54.0801 12.3336 667 53.4258 466.276 541.835
665 0 56.1456 11.3455 637 54.4631 466.603 539.835
666 0 59.0528 12.1925 720 54.2833 467.365 536.954
667 0 59.0836 13.3878 791 53.5664 466.932 536.424
668 0 62.1361 13.0359 810 53.1679 467.072 537.237
669 0 63.0747 11.8748 749 55.1989 466.988 534.817
670 0 66.1536 12.3349 816 54.7757 467.168 533.031
671 0 67.0905 12.6546 849 54.8292 467.329 532.135
672 0 69.1262 13.4103 927 54.123 467.537 531.846
673 0 72.0509 13.3794 964 54.3402 467.497 530.55
674 0 73.0574 12.4696 911 55.9506 467.728 528.091
675 0 76.1644 13.287 1012 55.1196 467.627 526.038
676 0 79.165 13.0487 1033 55.847 468.078 525.282
677 0 81.0354 13.7347 1113 55.5085 467.969 524.818
678 0 83.0679 12.6403 1050 56.9543 467.617 523.961
679 0 85.0998 12.1152 1031 57.5247 467.866 523.432
680 0 89.0383 13.0843 1165 57.3099 468.415 520.141
681 0 90.1962 13.138 1185 57.2768 468.821 521.403
682 0 93.0855 13.3211 1240 57.7048 468.965 521.456
683 0 94.1373 13.0235 1226 58.7194 469.06 516.261
684 0 99.1604 12.5252 1242 59.6828 469.697 515.819
685 1 52.06 10.9105 568 56.7412 469.504 542.431
686 0 54.0397 12.0097 649 55.9753 468.482 540.584
687 0 56.0889 11.9988 673 55.6731 468.504 540.05
688 0 58.0581 12.5392 728 55.8269 466.775 538.338
689 0 59.0392 12.0937 714 56.9916 467.018 538.814
690 0 61.0605 12.4958 763 57.2359 466.759 536.885
691 0 62.1084 13.4442 835 56.1066 466.69 535.564
692 0 65.0618 12.7571 830 57.1506 467.712 534.022
693 0 64.0742 11.237 720 59.6917 467.658 533.047
694 0 68.0749 13.8524 943 56.7635 467.384 532.906
695 0 71.0373 15.6538 1112 55.0423 466.996 531.035
696 0 74.052 12.3157 912 59.136 467.185 529.626
697 0 73.0553 12.3879 905 59.7392 467.113 531.6
698 0 78.1404 14.2692 1115 57.7309 467.428 527.43
699 0 81.0374 14.5612 1180 57.7983 467.552 528.097
700 0 81.0298 13.711 1111 59.6706 466.412 525.898
701 0 84.0794 13.963 1174 60.1576 465.981 523.864
702 0 86.1525 13.685 1179 60.2341 466.319 524.821
703 1 44.0196 9.63207 424 61.3184 465.8 547.271
704 0 46.0307 10.4278 480 62.1667 466.154 546.583
705 0 45.0402 10.5683 476 62.0252 465.523 546.607
706 0 45.0829 9.51581 429 63.6923 466.268 543.958
707 0 47.0732 10.8342 510 62.5804 466.108 542.288
708 0 51.0492 11.6358 594 61.766 466.074 543.818
709 0 51.0996 11.8005 603 61.3764 465.932 542.907
710 0 53.1049 12.6542 672 59.7351 465.65 541.525
711 0 54.1328 12.3585 669 59.7982 465.589 540.407
712 0 55.1693 13.1232 724 59.2265 465.988 540.442
713 0 56.2067 15.5675 875 56.9143 465.91 539.064
714 0 60.0688 12.7687 767 59.5619 465.748 538.561
715 0 61.1614 13.6524 835 58.982 465.583 536.38
716 0 61.0741 11.7562 718 61.5989 465.121 537.946
717 0 64.1477 12.9389 830 60.4277 465.19 536.761
718 0 66.0621 13.5025 892 60.454 464.959 535.294
719 0 69.1014 12.2863 849 62.1496 465.139 535.664
720 0 71.246 13.0674 931 60.6015 464.508 533.705
721 0 73.3661 12.5535 921 61.4864 464.129 533.061
722 0 75.3446 13.5776 1023 59.956 464.24 533.976
723 0 78.2766 12.9541 1014 61.0523 463.931 532.206
724 1 43.1469 9.64148 416 59.8245 464.017 549.757
725 0 45.1794 10.2259 462 59.5541 464.682 549.392
726 0 44.2232 10.1983 451 59.3082 464.104 549.093
727 0 45.1174 12.5229 565 57.7752 464.421 547.527
728 0 49.1644 10.9022 536 59.7202 464.006 547.06
729 0 50.1146 12.0125 602 58.5316 463.904 545.409
730 0 50.0999 11.5369 578 60.0086 464.247 544.024
731 0 54.2575 11.814 641 58.4384 464.501 545.309
732 0 55.0879 12.6525 697 57.7561 463.914 543.925
733 0 56.2086 12.5604 706 58.0822 464.378 541.789
734 0 59.2386 13.8423 820 56.2817 463.983 543.404
735 0 61.168 15.0733 922 54.6996 463.307 541.459
736 0 61.2889 14.7335 903 55.8029 463.137 540.823
737 0 63.1285 14.3041 903 56.6766 463.154 541.584
738 0 64.1448 11.4429 734 59.4237 462.73 541.193
739 0 67.1928 12.918 868 58.0518 462.516 539.757
740 0 70.173 14.3217 1005 56.604 462.719 539.163
741 0 71.1167 14.1739 1008 58.1448 463.168 537.317
742 0 71.1783 13.4311 956 59.931 462.36 536.02
743 0 74.1773 13.7913 1023 59.5191 462.531 533.36
744 0 78.2473 13.5468 1060 59.7811 462.694 531.874
745 0 82.1717 13.7639 1131 59.2378 461.946 531.598
746 1 43.0419 10.6408 458 58.4389 461.41 552.129
747 0 44.0585 10.3272 455 60.3253 461.264 549.815
748 0 45.0344 11.4579 516 58.6957 461.103 550.033
749 0 47.0769 11.3431 534 58.0955 460.706 548.625
750 0 47.164 12.2127 576 57.9688 461.432 545.245
751 0 48.1046 12.1818 586 57.9147 461.096 546.95
752 0 49.181 11.8948 585 58.8923 460.942 546.597
753 0 52.062 11.8705 618 58.699 460.824 546.191
754 0 53.1477 12.343 656 58.9466 461.381 543.925
755 0 56.1428 13.1272 737 57.6974 460.883 544.242
756 0 58.1522 11.8654 690 58.4348 461.735 544.004
757 0 59.1084 12.3502 730 58.6753 461.708 542.06
758 0 62.1309 14.5177 902 55.7539 461.952 542.009
759 0 63.187 13.4363 849 57.6643 461.974 541.941
760 0 64.1654 12.4522 799 59.3442 461.269 540.715
761 0 68.2071 13.0192 888 57.9932 461.004 538.956
762 0 68.1375 12.7243 867 58.9273 461.108 539.451
763 0 72.1385 12.6008 909 59.4367 460.633 537.025
764 1 41.086 9.17588 377 57.8727 460.061 555.069
765 0 39.0415 9.32341 364 61.0659 460.225 553.286
766 0 41.1356 10.2588 422 60.5071 460.488 554.623
767 0 45.2309 11.0986 502 59.5139 460.725 553.496
768 0 45.1339 10.4578 472 60.6377 461.028 552.508
769 0 46.2073 11.1887 517 58.9594 461.348 553.089
770 0 48.0733 11.8777 571 58.972 461.158 551.496
771 0 48.2502 11.6476 562 59.5908 461.096 550.626
772 0 49.1298 12.4975 614 58.6564 461.443 550.722
773 0 52.105 12.0334 627 59.4545 461.035 549.27
774 0 53.1705 13.0147 692 57.8136 461.095 548.842
775 0 54.1144 12.7877 692 58.8974 460.949 548.942
776 0 54.0909 11.9614 647 60.1005 461.539 549.172
777 0 58.1385 12.6766 737 58.2592 461.182 548.062
778 0 57.0887 13.2075 754 58.3289 461.901 546.707
779 0 60.1184 12.991 781 58.2356 461.825 546.038
780 0 62.1491 13.0493 811 58.8594 461.697 544.797
781 0 62.1547 13.5147 840 58.8607 461.606 543.421
782 0 66.1451 14.2868 945 57.6878 462.46 542.041
783 0 68.2174 14.0727 960 57.5406 462.879 541.617
784 0 69.1445 13.8406 957 58.744 462.902 539.97
785 0 69.2017 13.1644 911 60.2503 462.712 538.694
786 0 71.2226 13.9562 994 59.2314 463.122 538.485
787 0 73.217 13.8356 1013 60.8825 463.448 536.421
788 0 77.2461 15.1723 1172 58.6143 463.289 535.914
789 0 79.3964 14.8369 1178 58.7199 463.341 535.71
790 0 80.2119 14.2622 1144 60.1818 463.873 532.992
791 0 84.4243 14.8891 1257 59.074 463.71 530.192
792 0 86.4083 13.5867 1174 60.8492 464.158 529.26
793 0 89.5974 14.5317 1302 59.4731 463.82 528.403
794 1 43.4374 11.9943 521 61.3263 464.035 549.2
795 0 45.6413 11.1522 509 60.8193 463.521 549.552
796 0 46.4615 11.4073 530 59.8924 463.343 549.636
797 0 47.44 11.5514 548 60.3394 463.496 548.799
798 0 49.3652 12.4582 615 60.1268 464.187 545.655
799 0 54.0837 13.627 737 58.6635 465.592 544.912
800 0 55.1469 12.7478 703 59.1081 465.361 545.222
801 0 56.0546 13.5582 760 57.0342 464.787 543.907
802 0 60.0963 14.2771 858 54.817 465.146 544.491
803 0 61.1326 13.3807 818 55.9352 465.3 541.599
804 0 63.2348 13.015 823 56.1033 465.406 541.928
805 0 65.2781 12.868 840 56.4131 465.418 538.629
806 0 65.229 13.5676 885 55.6068 465.635 537.337
807 0 71.2793 14.5905 1040 52.8856 465.657 535.752
808 0 73.5741 14.1626 1042 53.2514 464.937 534.872
809 0 77.6323 13.5897 1055 53.8085 465.466 533.965
810 0 80.6659 14.6034 1178 52.7886 465.25 530.803
811 0 81.5191 14.6223 1192 52.7525 465.487 532.733
812 0 83.4433 13.2425 1105 54.448 465.776 529.999
813 0 86.4033 13.4833 1165 54.3888 465.965 524.317
814 1 45.3695 11.0647 502 55.6175 465.189 548.054
815 0 49.3625 13.0868 646 52.6827 465.676 548.604
816 0 49.2709 11.9746 590 53.6864 465.586 546.437
817 0 53.1772 13.0131 692 52.552 466.178 544.312
818 0 54.1535 12.9447 701 52.6277 466.187 545.81
819 0 55.204 12.5716 694 53.3314 466.182 544.186
820 0 57.1685 14.3086 818 51.7433 466.059 541.872
821 0 59.0818 13.5236 799 52.8761 465.725 540.756
822 0 61.146 13.2633 811 53.1344 465.768 541.182
823 0 63.1411 12.5117 790 53.2899 465.322 541.542
824 0 64.1222 12.7101 815 53.216 465.345 538.998
825 0 66.2698 13.0678 866 53.1039 465.58 536.98
826 0 69.132 13.4236 928 53.2834 465.564 535.189
827 0 72.0945 12.8997 930 53.5516 465.446 536.458
828 0 74.1815 14.3971 1068 52.0974 466.058 535.334
829 0 78.2368 13.9321 1090 52.6229 465.973 532.988
830 0 80.1966 13.9283 1117 53.2829 465.653 530.792
831 0 83.1783 13.429 1117 53.7055 465.273 529.43
832 0 85.193 13.2405 1128 54.2057 465.362 528.638
833 0 89.2137 14.1346 1261 53.1031 464.834 529.55
834 1 46.0776 11.1985 516 54.2636 464.762 547.62
835 0 47.2084 11.2904 533 53.8818 464.053 545.34
836 0 49.2356 12.1254 597 53.5896 464.052 543.836
837 0 51.0847 13.3308 681 52.5742 463.674 544.025
838 0 53.1441 12.9083 686 53.6443 464.041 544.605
839 0 57.0725 13.1587 751 52.9108 464.085 544.836
840 0 56.1874 13.2414 744 53.7433 463.62 543.637
841 0 56.1171 13.1689 739 54.8065 464.129 540.568
842 0 61.1003 12.324 753 54.2151 463.792 540.85
843 0 62.2155 14.2408 886 52.6874 463.859 540.906
844 0 63.3101 13.0153 824 54.5595 463.471 538.208
845 0 66.1534 13.0303 862 54.3828 463.93 537.356
846 0 67.1887 13.023 875 54.1977 463.737 537.701
847 0 69.1585 13.7076 948 53.7468 463.094 537.669
848 0 74.1482 14.3362 1063 52.9464 463.135 534.001
849 0 77.1602 13.297 1026 53.7778 463.28 534.516
850 0 77.1619 14.1391 1091 53.5445 462.906 532.477
851 0 80.2089 14.537 1166 53.1046 463.151 533.61
852 0 84.2784 14.7606 1244 52.8047 462.903 530.118
853 0 85.2022 14.6592 1249 53.3595 463.109 527.96
854 0 87.1675 13.7895 1202 54.3361 463.381 527.469
855 0 93.2028 17.9072 1669 49.9473 463.36 527.08
856 0 94.1726 13.7513 1295 54.3954 462.619 525.046
857 0 97.2018 14.4236 1402 53.8481 462.539 522.346
858 0 100.194 15.2703 1530 53.4346 462.697 522.425
859 0 104.192 13.9359 1452 54.1405 462.359 522.514
860 1 55.0792 12.9995 716 53.6886 462.007 543.972
861 0 60.0918 12.9968 781 53.2638 462.312 544.488
862 0 61.0504 13.9229 850 53.3035 462.525 543.088
863 0 63.0494 14.6076 921 53.6091 464.157 539.468
864 0 63.0521 13.4175 846 55.0532 463.414 540.699
865 0 64.0606 12.8628 824 55.4393 463.155 541.214
866 0 69.029 14.4577 998 54.6593 462.734 537.956
867 0 67.1347 13.1974 886 56.4932 462.132 537.866
868 0 73.0815 15.3664 1123 53.6091 462.603 537.522
869 0 75.0838 13.7446 1032 56.8101 462.687 536.649
870 0 75.1191 13.9246 1046 57.7189 462.052 536.289
871 0 78.1787 14.8122 1158 57.7832 461.706 533.711
872 0 81.0806 14.4794 1174 58.161 462.267 533.62
873 0 86.1259 15.7096 1353 56.5277 462.025 530.741
874 0 86.0853 14.2998 1231 59.2372 461.575 529.606
875 0 90.2192 15.1187 1364 58.14 461.499 529.1
876 0 93.1101 15.6159 1454 57.9766 462.066 526.677
877 0 96.136 14.4587 1390 59.5036 461.73 526.337
878 1 50.032 12.0123 601 60.0366 461.541 549.464
879 0 51.0142 10.7029 546 62.7601 461.211 547.832
880 0 52.0287 12.4547 648 61.5664 460.952 546.847
881 0 55.046 13.5523 746 60.3271 460.887 547.044
882 0 55.2966 12.7494 705 60.5915 461.15 546.139
883 0 59.1712 12.6075 746 61.0563 461.535 545.559
884 0 60.1474 12.5026 752 62.4854 461.42 544.371
885 0 62.0866 13.304 826 62.724 461.398 543.495
886 0 64.1005 12.7144 815 64.9988 462.272 541.999
887 0 68.349 13.9724 955 65.1581 462.059 540.259
888 0 68.0622 13.0322 887 68.0079 462.421 540.052
889 0 72.1535 14.1365 1020 71.8294 461.692 537.862
890 0 74.252 14.2218 1056 90.3561 462.421 535.443
891 0 75.2279 13.0537 982 73.4165 462.05 534.662
892 0 80.1729 13.6455 1094 58.4022 462.369 534.435
893 0 83.2486 13.6579 1137 57.7845 462.529 533.137
894 1 42.1225 11.2766 475 57.9621 462.625 551.505
895 0 44.3212 11.6648 517 56.8917 463.029 550.665
896 0 45.2089 11.6349 526 56.154 462.985 550.97
897 0 47.2154 11.4793 542 56.0775 463.157 549.507
898 0 45.0618 12.6271 569 57.8963 463.142 547.483
899 0 46.0701 12.2856 566 57.7915 463.426 547.47
900 0 49.0909 12.9148 634 56.7792 463.426 547.907
901 0 51.1278 14.5518 744 56.0914 463.911 544.039
902 0 53.0574 13.4948 716 56.7807 464.084 546.309
903 0 53.0612 11.4019 605 58.2281 464.03 544.008
904 0 58.2518 15.5188 904 53.1704 464.305 540.227
905 0 60.1125 15.4377 928 53.917 464.851 540.296
906 0 59.1816 13.0446 772 57.7642 464.587 540.696
907 0 61.1656 13.6842 837 57.5699 464.741 541.031
908 0 62.3159 13.3834 834 58.524 464.781 538.956
909 0 64.1362 13.7832 884 58.1052 464.623 537.535
910 0 69.223 15.3706 1064 56.3186 465.272 535.054
911 0 70.106 14.0644 986 58.1744 465.579 536.27
912 0 74.1365 16.0919 1193 56.456 465.868 534.709
913 1 37.2334 10.2596 382 60.7356 465.759 551.61
914 0 39.1155 10.354 405 59.7728 466.049 553.012
915 0 39.1339 10.7324 420 60.5595 466.536 551.636
916 0 42.2015 12.8905 544 58.9448 466.757 548.101
917 0 43.2945 12.4496 539 59.7848 466.006 547.694
918 0 45.1132 12.3689 558 61.7186 466.029 548.16
919 0 46.1159 14.4202 665 60.0586 465.953 547.287
920 0 48.1706 11.6876 563 63.2611 466.345 546.419
921 0 49.1805 12.4846 614 63.2671 466.28 546.314
922 0 51.0966 15.1869 776 60.2758 466.508 544.209
923 0 52.0724 12.521 652 63.9356 466.448 544.02
924 0 55.1492 14.7962 816 60.5809 466.866 543.213
925 0 55.0841 14.0331 773 61.7516 467.232 541.95
926 0 57.0997 14.8687 849 61.3675 466.696 541.101
927 0 58.2669 14.4679 843 61.8885 467.734 541.765
928 0 61.0894 14.4379 882 62.203 467.635 540.251
929 0 62.1403 15.2075 945 61.5005 467.065 539.636
930 0 66.1172 15.654 1035 60.5449 467.484 538.328
931 0 68.1402 15.3654 1047 61.1796 467.418 538.653
932 0 68.1422 14.4991 988 63.9575 467.416 537.659
933 0 68.1481 13.9402 950 65.4032 467.371 535.718
934 0 73.1394 14.9714 1095 63.6858 467.441 534.135
935 0 74.254 14.9622 1111 64.1845 466.898 533.306
936 0 77.1405 16.282 1256 62.6768 466.522 532.625
937 0 80.1003 14.8189 1187 64.9402 466.614 531.858
938 0 82.1805 14.6872 1207 64.8094 466.148 531.219
939 0 85.1578 15.1131 1287 64.763 465.776 528.405
940 0 88.1334 15.9871 1409 63.384 466.582 526.913
941 0 91.1238 15.8905 1448 63.3833 466.571 526.271
942 1 45.2289 12.2709 555 67.0613 466.065 547.912
943 0 47.0797 13.0417 614 66.2964 465.862 546.572
944 0 48.1228 12.6551 609 66.8112 465.532 546.924
945 0 47.0427 13.4771 634 66.03 465.511 546.868
946 0 52.0476 13.5261 704 65.4673 465.341 545.607
947 0 53.0629 14.7938 785 64.8573 465.289 544.152
948 0 54.0317 14.0473 759 65.3953 465.332 543.534
949 0 57.1188 15.5816 890 63.9135 465.276 540.82
950 0 58.0721 14.327 832 65.8389 464.785 540.077
951 0 60.1248 13.8046 830 66.047 464.614 540.676
952 0 65.1676 14.9461 974 64.5811 464.554 540.744
953 0 65.0372 14.2534 927 65.8544 464.373 539.321
954 0 68.0882 14.2169 968 65.2717 464.402 537.642
955 0 70.1573 15.2657 1071 63.8852 464.134 536.246
956 0 72.1282 14.4188 1040 65.7635 464.175 534.77
957 0 76.2297 16.2535 1239 62.8846 464.276 534.949
958 0 78.1587 14.445 1129 64.5642 464.385 533.98
959 1 38.032 11.8584 451 67.102 464.016 552.417
960 0 41.0194 12.0674 495 65.4828 464.228 552.661
961 0 41.1585 11.3464 467 66.606 463.58 552.475
962 0 43.0556 12.8671 554 65.3538 463.648 550.108
963 0 45.0998 13.3925 604 64.3328 464.44 550.594
964 0 43.0203 12.4825 537 67.095 463.79 548.663
965 0 46.0195 13.4726 620 65.1306 463.406 547.831
966 0 48.0831 13.5807 653 64.2466 463.449 547.767
967 0 49.0528 13.7811 676 64.0311 463.464 546.941
968 0 50.0471 14.6262 732 63.1926 463.888 545.295
969 0 52.0813 12.9989 677 64.6337 463.498 545.573
970 0 55.0782 14.434 795 62.761 463.938 545.452
971 0 57.1412 14.9979 857 61.9207 464.001 544.467
972 0 58.0667 14.7589 857 62.0922 463.775 543.585
973 0 60.0981 13.4114 806 63.3486 464 542.713
974 0 63.1461 13.6667 863 63.3523 464.088 539.109
975 0 66.1193 13.8386 915 62.6393 463.657 540.351
976 0 66.0348 13.5989 898 63.5134 463.549 537.891
977 0 70.1333 14.6435 1027 61.8773 462.953 537.539
978 1 33.0329 10.6863 353 65.4674 463.139 555.122
979 0 35.0963 10.5139 369 66.4119 462.748 554.518
980 0 39.0181 11.9944 468 63.3782 462.927 553.842
981 0 38.0959 12.9935 495 63.5252 462.895 552.374
982 0 40.1049 13.2652 532 62.0883 463.164 552.126
983 0 43.043 12.987 559 62.5886 462.712 550.816
984 0 42.0392 13.3685 562 62.8879 462.635 551.758
985 0 44.0548 13.4378 592 63.1267 462.828 551.084
986 0 45.0242 14.7476 664 61.0422 462.556 551.193
987 0 47.0416 14.7104 692 61.8656 462.584 549.451
988 0 50.1012 14.7302 738 60.7534 462.264 549.076
989 0 50.113 14.8664 745 61.4577 462.048 548.509
990 0 52.0647 13.5408 705 63.3305 461.776 547.441
991 0 52.0655 13.5598 706 63.6586 462.074 546.727
992 0 55.0531 14.2771 786 62.0611 461.836 547.302
993 0 56.0197 14.3342 803 62.7472 461.905 546.707
994 0 59.0689 14.6947 868 61.8744 462.315 546.154
995 0 60.0926 14.8604 893 62.2217 462.306 545.53
996 0 62.218 15.1564 943 61.4666 462.637 544.896
997 0 63.0587 15.2239 960 62.5448 462.525 542.927
998 0 66.1725 15.7769 1044 62.0814 462.781 542.111
999 0 65.2544 14.4358 942 65.173 462.035 541.27
1000 0 69.1271 16.3467 1130 62.8035 462.882 538.743
1001 0 72.0822 15.4407 1113 63.9218 462.608 537.96
1002 0 73.3136 15.4269 1131 63.7648 462.176 538.328
1003 0 78.2659 15.7157 1230 63.3098 461.815 536.475
1004 0 80.1787 16.2761 1305 63.4889 462.202 534.92
1005 1 41.1126 12.9644 533 68.015 462.111 554.493
1006 0 43.288 13.3062 576 68.2083 462.691 552.939
1007 0 44.3658 13.5465 601 67.985 462.707 552.04
1008 0 46.3728 14.4481 670 66.703 462.566 553.019
1009 0 47.2913 13.9984 662 68.5302 462.798 551.295
1010 0 49.4855 14.9539 740 67.1554 462.611 551.084
1011 0 48.2265 14.8674 717 70.0697 462.796 549.947
1012 0 53.3907 14.628 781 68.7337 462.406 549.448
1013 0 52.3045 14.6068 764 70.6702 462.442 548.048
1014 0 55.218 15.8282 874 68.786 462.515 545.833
1015 0 55.4138 15.2309 844 69.2228 462.584 546.923
1016 0 58.0992 15.7834 917 68.2061 462.792 543.791
1017 0 62.3953 15.8185 987 67.1489 462.52 544.544
1018 0 62.2203 14.9147 928 68.5916 463.059 542.681
1019 0 66.3338 15.5124 1029 67.6812 463.418 541.837
1020 0 69.3065 15.0058 1040 68.3048 463.441 540.388
1021 0 70.3177 15.6006 1097 67.732 463.755 539.177
1022 0 73.2921 15.8953 1165 66.9734 463.471 537.413
1023 0 75.2236 15.1282 1138 69.0791 463.207 534.789
1024 0 78.2302 15.4799 1211 68.1206 463.348 535.879
1025 1 41.1969 12.8893 531 71.3578 463.765 551.716
1026 0 43.2051 12.9383 559 70.1288 464.002 552.361
1027 0 42.5021 13.0582 555 71.173 464.079 552.778
1028 0 44.2189 14.089 623 71.2841 464.518 551.207
1029 0 46.403 14.999 696 70.1164 464.895 549.399
1030 0 49.4113 14.4501 714 70.7157 464.941 548.7
1031 0 47.2206 13.8922 656 73.0244 464.784 548.799
1032 0 50.259 14.8829 748 70.1872 464.682 548.937
1033 0 51.1642 14.7955 757 70.6922 464.831 547.49
1034 0 55.2718 15.3062 846 69.0993 464.892 545.026
1035 0 55.3936 15.2545 845 70.1278 465.007 544.497
1036 0 59.7897 13.8987 831 71.1637 465.291 544.606
1037 0 62.3608 14.7689 921 69.9642 465.342 543.186
1038 0 62.7337 15.1912 953 70.0881 465.679 538.946
1039 0 65.4336 15.3285 1003 69.2203 465.879 539.672
1040 0 65.2799 13.9859 913 72.0767 466.042 537.91
1041 0 70.3924 15.4988 1091 68.4207 466.332 537.176
1042 0 71.3774 15.5091 1107 68.944 466.695 536.53
1043 0 75.5565 15.3263 1158 68.4983 466.95 534.991
1044 0 77.4472 14.7714 1144 69.9082 466.47 534.254
1045 0 79.3387 14.8477 1178 69.7886 466.113 531.428
1046 0 80.3806 15.0285 1208 68.6987 466.945 528.854
1047 1 38.2059 11.9877 458 71.7773 466.908 551.155
1048 0 41.2895 13.8534 572 68.75 466.694 550.766
1049 0 41.209 13.1767 543 70.2726 467.339 549.843
1050 0 41.2559 13.1133 541 70.878 466.893 549.762
1051 0 45.1189 14.6502 661 68.82 466.98 548.259
1052 0 45.3533 14.0012 635 70.2646 467.68 547.291
1053 0 47.1041 14.2875 673 69.1857 467.692 547.807
1054 0 50.3204 13.9705 703 69.1337 467.452 546.331
1055 0 51.3041 15.2425 782 67.7903 467.922 544.371
1056 0 53.1227 14.25 757 68.3408 467.581 545.97
1057 0 55.2586 15.9794 883 66.1971 467.112 543.609
1058 0 55.2262 14.7937 817 68.3109 466.952 542.228
1059 0 59.1021 15.0756 891 67.0718 466.824 541.214
1060 0 60.1192 14.621 879 67.6655 466.662 540.946
1061 0 62.0752 14.9496 928 67.0485 466.996 539.964
1062 0 64.1068 16.0981 1032 65.8411 466.399 538.365
1063 0 67.1003 15.678 1052 66.4202 466.716 536.843
1064 0 69.0845 15.7199 1086 66.489 466.926 535.423
1065 0 73.0346 15.4447 1128 66.3378 467.022 535.816
1066 0 72.097 13.9812 1008 69.12 467.032 533.114
1067 0 75.1364 14.2408 1070 68.6701 467.268 532.762
1068 0 77.0995 13.8782 1070 69.2243 466.753 530.803
1069 1 36.0277 11.741 423 65.5012 467.213 552.839
1070 0 39.0587 9.49853 371 66.9218 466.766 552.609
1071 0 41.0267 11.8216 485 63.9113 466.39 551.901
1072 0 42.0954 10.4524 440 67.1023 466.725 548.834
1073 0 43.0583 10.5439 454 66.8744 466.423 549.8
1074 0 45.0885 11.7547 530 65.4415 466.258 548.168
1075 0 46.1449 12.4174 573 64.9215 465.684 548.853
1076 0 47.1751 11.4679 541 66.3383 465.22 547.527
1077 0 50.2046 12.6283 634 64.5757 465.82 545.754
1078 0 52.1599 12.1549 634 64.9653 465.721 545.196
1079 0 54.1173 12.3436 668 64.7246 465.127 544.439
1080 0 55.0906 13.4324 740 63.6014 465.068 543.947
1081 0 57.1239 12.6042 720 64.4708 464.917 543.703
1082 0 56.1047 12.8331 720 65.3583 464.658 542.558
1083 0 59.0495 11.3634 671 66.0328 464.627 543.019
1084 0 59.0403 11.5684 683 66.9678 465.212 539.713
1085 0 63.0637 13.5101 852 64.1819 464.931 539.689
1086 0 65.0292 12.0869 786 65.3575 464.57 539.952
1087 0 68.1288 12.858 876 64.5388 464.105 538.073
1088 0 71.1142 13.19 938 63.9797 464.593 536.539
1089 1 38.1995 10.9164 417 63.3477 464.278 551.966
1090 0 39.0695 10.2638 401 63.6409 463.254 551.254
1091 0 40.2208 10.2435 412 63.3422 463.658 551.442
1092 0 42.0751 10.8378 456 63.1096 463.732 552.669
1093 0 42.1815 11.0238 465 63.0151 463.551 550.458
1094 0 44.0428 11.3753 501 62.8164 462.836 550.559
1095 0 44.0417 10.6944 471 64.828 463.089 548.624
1096 0 48.0959 11.9553 575 62.4696 462.81 547.875
1097 0 50.1988 11.9724 601 61.8852 463.403 547.742
1098 0 50.1514 11.7444 589 61.9796 463.367 547.384
1099 0 51.1294 11.0308 564 63.4326 463.972 546.551
1100 0 53.222 12.6076 671 61.7109 463.806 546.547
1101 0 54.1075 11.8098 639 63.3099 463.808 545.036
1102 0 54.0861 11.6296 629 64.7377 463.975 543.8
1103 0 57.3003 11.8848 681 63.8399 463.957 542.667
1104 0 59.3383 12.9933 771 62.3761 463.925 542.908
1105 0 60.1855 12.7938 770 62.8727 463.782 543.265
1106 0 60.1896 11.6299 700 64.5686 463.339 540.583
1107 0 63.2554 11.0504 699 65.0286 463.285 541.1
1108 0 67.15 12.8965 866 62.2564 463.009 538.797
1109 0 68.1184 12.86 876 62.992 463.205 539.304
1110 0 69.1351 12.7287 880 62.9932 463.089 538.744
1111 0 73.376 12.5518 921 62.9088 463.336 537.082
1112 0 75.2146 12.7103 956 62.5481 463.971 536.815
1113 0 76.331 12.8126 978 63.0798 463.409 534.082
1114 0 80.2967 13.3505 1072 62.069 463.633 534.312
1115 0 83.3723 13.7576 1147 61.0305 463.352 531.934
1116 0 86.2997 13.1866 1138 61.9666 462.54 530.344
1117 0 87.3038 12.8746 1124 62.6166 462.517 528.795
1118 0 90.2212 12.3696 1116 62.9041 462.34 530.403
1119 0 92.139 12.937 1192 62.2081 462.45 527.825
1120 1 49.1039 9.69373 476 61.8508 462.147 551.366
1121 0 49.1833 10.9183 537 61.9199 462.883 549.732
1122 0 51.0958 10.6662 545 62.822 462.974 547.87
1123 0 54.0959 12.94 700 58.5371 462.341 547.439
1124 0 54.1721 11.6665 632 60.8829 462.766 546.671
1125 0 57.2719 12.2748 703 59.2034 463.193 547.272
1126 0 57.3609 13.1971 757 59.3302 463.416 546.62
1127 0 57.2595 11.8758 680 61.9103 462.835 544.175
1128 0 60.2631 13.1756 794 60.3778 462.924 544.223
1129 0 61.3076 13.0816 802 60.894 462.773 543.884
1130 0 61.1372 12.1857 745 62.7973 462.596 542.227
1131 0 65.2082 13.1579 858 61.2576 462.457 540.838
1132 0 67.158 13.1481 883 61.4338 462.751 540.745
1133 0 69.2277 14.3006 990 60.8909 462.757 538.314
1134 0 72.2318 13.5536 979 61.8805 462.828 538.288
1135 0 74.2797 13.9607 1037 62.0829 462.775 536.554
1136 0 75.5791 13.6149 1029 63.1613 462.883 533.844
1137 0 78.4089 14.0418 1101 62.4678 463.503 534.862
1138 0 82.3773 15.2469 1256 60.8463 464.071 531.048
1139 0 84.6081 14.1949 1201 62.1049 464.166 530.617
1140 0 87.3157 13.7776 1203 63.1197 464.5 527.995
1141 0 89.4149 13.7561 1230 64.352 464.246 527.939
1142 1 50.181 10.3226 518 66.4575 464.884 548.444
1143 0 48.1239 10.5145 506 66.8992 464.781 547.939
1144 0 52.1473 10.9498 571 65.8844 464.965 546.536
1145 0 52.0598 10.7569 560 67.15 464.914 545.696
1146 0 55.0803 12.5453 691 65.4226 464.246 544.318
1147 0 57.0845 12.3151 703 65.8009 464.893 543.312
1148 0 57.1066 12.5029 714 66.7745 464.902 539.367
1149 0 58.1536 13.3268 775 65.8877 464.956 541.348
1150 0 61.0352 11.7801 719 66.8484 465.161 542.349
1151 0 64.0786 13.9672 895 64.6268 465.637 539.371
1152 0 65.0314 13.2551 862 65.4548 465.517 540.302
1153 0 68.0752 13.8817 945 64.4984 465.912 538.398
1154 0 69.1552 14.0553 972 64.4074 466.021 538.199
1155 0 71.2712 13.0768 932 66.0612 466.297 535.432
1156 0 74.1586 14.1049 1046 64.7237 465.918 533.802
1157 0 76.0979 13.4038 1020 65.1745 466.786 535.273
1158 0 78.3224 14.6829 1150 63.7304 466.828 531.478
1159 0 80.2245 13.1506 1055 66.4303 467.614 528.838
1160 0 82.2242 13.4997 1110 65.5504 467.652 528.738
1161 0 85.2046 12.9688 1105 66.3032 467.305 527.626
1162 0 88.2764 13.0726 1154 65.5875 467.817 525.474
1163 0 90.2426 13.8183 1247 65.3849 468.03 523.215
1164 1 48.0292 9.43176 453 66.1435 468.278 545.848
1165 0 48.0655 9.6535 464 65.5302 468.994 545.16
1166 0 49.1552 11.2094 551 64.2813 465.964 545.105
1167 0 51.0648 12.4939 638 62.8041 467.364 543.489
1168 0 51.032 9.95454 508 66.2106 467.99 542.886
1169 0 52.0875 11.4231 595 65.0403 467.587 541.027
1170 0 54.2081 11.4743 622 64.664 467.522 542.632
1171 0 55.0628 12.1679 670 63.697 468.102 535.842
1172 0 59.0278 12.5873 743 61.8129 467.887 537.829
1173 0 59.0914 12.8614 760 61.8829 467.151 538.763
1174 0 59.0442 13.4814 796 61.5151 468.252 539.254
1175 0 63.0315 13.1997 832 61.6851 468.208 535.769
1176 0 66.1371 13.5174 894 63.8344 468.865 536.76
1177 0 68.1431 14.7337 1004 62.3954 468.927 535.718
1178 0 70.1038 13.7796 966 63.8178 468.85 536.864
1179 0 72.0704 12.7931 922 65.3319 469.011 533.552
1180 0 71.1422 12.5523 893 66.4849 468.645 532.512
1181 0 76.0721 13.4346 1022 64.8425 467.611 533.692
1182 0 78.0337 14.2503 1112 64.1933 468.064 530.996
1183 0 80.1394 13.227 1060 65.517 468.026 529.951
1184 0 82.1154 12.6286 1037 66.6191 467.849 527.868
1185 0 85.0966 14.1369 1203 64.3308 467.612 526.211
1186 0 88.066 14.0917 1241 64.498 468.195 523.519
1187 0 92.057 13.6329 1255 64.588 467.585 524.15
1188 1 45.0105 9.90879 446 65.5718 468.049 547.303
1189 0 46.0281 11.3626 523 63.9465 468.011 546.4
1190 0 47.0742 11.0889 522 63.6839 467.475 546.345
1191 0 47.0354 10.9067 513 61.3489 466.248 545.099
1192 0 50.0361 12.0113 601 59.4526 466.348 543.812
1193 0 51.0242 11.8375 604 61.5265 466.439 543.811
1194 0 50.0383 12.1907 610 61.877 466.489 542.067
1195 0 53.024 11.5985 615 61.7122 466.546 543.836
1196 0 54.1618 11.1333 603 62.005 465.134 542.318
1197 0 55.0798 11.565 637 61.4976 466.27 541.338
1198 0 56.0883 11.9098 668 61.6437 466.256 539.353
1199 0 59.0886 12.422 734 60.2139 467.428 538.187
1200 0 59.1059 11.5725 684 61.4722 467.187 538.876
1201 0 61.0655 11.9708 731 60.8618 467.119 536.843
1202 0 65.1293 12.4214 809 59.6947 466.975 536.456
1203 0 65.0791 12.3849 806 59.8338 466.521 535.934
1204 0 67.1256 11.0837 744 61.5766 466.074 534.304
1205 0 72.1612 12.0286 868 59.9343 465.82 534.123
1206 0 74.0791 12.4732 924 58.7067 466.222 532.535
1207 1 42.0034 10.2849 432 56.6042 464.866 549.176
1208 0 42.0323 10.6109 446 57.5022 464.791 548.094
1209 0 44.0953 10.0011 441 57.1791 464.671 548.689
1210 0 47.0393 11.9049 560 55.5268 463.679 548.882
1211 0 47.0608 10.7946 508 56.8484 464.181 547.715
1212 0 48.0782 11.5645 556 56.4604 463.887 547.489
1213 0 50.0914 11.2794 565 56.823 464.241 547.558
1214 0 51.1208 11.9716 612 56.7484 464.57 546.145
1215 0 51.0372 12.3635 631 56.5468 465.653 546.437
1216 0 52.0107 11.9398 621 56.9952 465.119 547.3
1217 0 55.054 12.4423 685 56.8102 465.463 544.533
1218 0 53.039 12.0855 641 58.273 464.938 545.176
1219 0 55.0448 12.1356 668 58.6722 464.775 541.885
1220 0 56.0347 11.939 669 59.3871 464.698 542.193
1221 0 60.0347 13.9253 836 56.4139 464.715 540.592
1222 0 61.0289 12.1254 740 58.1054 464.719 543.177
1223 0 64.0892 12.623 809 57.3103 463.061 540.199
1224 0 67.0529 13.7802 924 56.4805 464.248 540.653
1225 0 69.064 14.4069 995 56.0573 462.241 539.442
1226 0 69.0464 12.9333 893 58.9194 462.825 536.776
1227 0 72.0483 12.4916 900 58.9644 464.392 535.96
1228 0 73.0992 13.5296 989 58.1284 464.333 534.904
1229 1 38.0178 9.54817 363 61.3388 463.65 550.559
1230 0 42.0144 11.5675 486 58.2922 464.134 551.926
1231 0 45.0132 10.7302 483 59.6294 464.039 550.65
1232 0 44.1047 11.9942 529 58.0454 463.909 549.849
1233 0 45.0602 11.8508 534 59.1517 464.017 549.363
1234 0 45.3581 12.4123 563 58.1847 460.886 549.634
1235 0 47.1749 12.2099 576 59.0365 461.415 548.458
1236 0 48.0852 11.7708 566 59.5972 462.541 550.018
1237 0 48.1069 12.0981 582 59.5756 462.981 548.777
1238 0 51.164 13.271 679 57.7275 462.975 547.626
1239 0 52.1094 12.9919 677 58.1787 462.456 546.049
1240 0 53.1757 12.6562 673 59.3878 462.541 546.062
1241 0 54.1374 13.0594 707 58.9958 462.185 544.233
1242 0 57.2041 13.4081 767 57.0508 462.25 545.025
1243 0 59.1516 13.812 817 57.0967 463.67 544.195
1244 0 59.1383 13.1894 780 58.2385 463.513 543.865
1245 0 62.1538 13.3057 827 57.7944 463.428 543.642
1246 0 64.1667 13.9948 898 56.9955 462.724 539.479
1247 0 67.1776 15.392 1034 54.8849 463.161 538.008
1248 0 65.1494 12.9702 845 59.5586 462.694 537.28
1249 0 69.1075 13.8914 960 58.4625 462.741 537.359
1250 0 72.1195 13.9629 1007 57.9911 462.189 537.491
1251 0 73.0735 13.1922 964 59.9678 461.831 533.804
1252 0 76.1334 14.711 1120 57.7527 462.544 534.8
1253 0 78.1279 14.0155 1095 58.7717 461.012 531.897
1254 0 83.049 14.7865 1228 57.2329 462.379 528.104
1255 1 45.0182 11.8619 534 58.7434 463.33 547.775
1256 0 44.0669 11.2783 497 59.7505 463.785 547.553
1257 0 48.1018 11.6004 558 58.4212 464.577 547.303
1258 0 47.0214 10.2719 483 60.234 465.468 547.497
1259 0 50.1245 12.2894 616 57.5292 464.076 545.343
1260 0 51.0418 12.813 654 57.0184 464.427 544.289
1261 0 52.0373 12.8946 671 57.7869 463.455 542.94
1262 0 56.1111 12.9386 726 57.6336 463.172 545.572
1263 0 56.1152 13.5079 758 57.5686 463.835 545.084
1264 0 57.0692 14.0005 799 57.2641 464.426 544.426
1265 0 58.0563 14.3309 832 57.3978 464.386 540.873
1266 0 60.0706 13.2844 798 58.49 464.294 541.469
1267 0 62.0492 13.9244 864 57.9306 464.55 541.145
1268 0 63.1222 13.2442 836 58.7763 464.516 539.892
1269 0 67.0434 13.1557 882 58.2902 464.813 538.477
1270 0 68.0499 13.0933 891 58.6768 465.198 536.163
1271 0 68.1496 12.4872 851 60.2209 465.825 535.891
1272 0 72.0544 13.7396 990 58.1677 466.277 534.888
1273 0 76.0577 15.0675 1146 56.8421 466.887 533.29
1274 0 78.0975 14.2386 1112 57.9281 466.938 532.087
1275 0 80.0899 14.3714 1151 57.6038 466.852 532.586
1276 0 83.0462 12.7158 1056 59.9347 466.757 530.562
1277 0 86.194 12.9359 1115 59.7964 467.323 526.564
1278 0 88.1342 12.5944 1110 59.6559 467.409 526.811
1279 0 90.2468 12.4104 1120 60.2839 468.036 524.094
1280 0 94.1005 14.1445 1331 58.6521 468.252 524.633
1281 0 99.2135 14.6653 1455 57.9141 468.214 523.979
1282 0 100.132 13.8716 1389 59.7394 468.289 520.51
1283 1 54.0979 12.4959 676 59.6938 469.03 542.189
1284 0 55.0461 12.3169 678 59.0516 469.454 543.28
1285 0 57.082 13.1215 749 58.227 469.49 543.004
1286 0 58.096 12.9269 751 59.4727 467.376 540.02
1287 0 60.139 12.5044 752 59.8258 467.798 538.132
1288 0 63.1362 14.049 887 58.3484 467.948 537.766
1289 0 66.1943 13.2942 880 59.0443 468.393 537.603
1290 0 66.2124 14.2269 942 58.742 468.183 535.658
1291 0 69.0987 14.0089 968 59.2128 468.073 533.404
1292 0 70.1609 13.526 949 59.9347 467.595 535.202
1293 0 75.3565 14.0399 1058 59.2883 468.075 532.804
1294 0 76.2366 13.8254 1054 59.5968 467.834 531.531
1295 0 76.322 13.3644 1020 60.799 467.441 529.474
1296 0 81.6484 15.0646 1230 58.7065 468.009 526.509
1297 0 80.1927 12.9314 1037 61.5227 468.768 524.819
1298 0 86.2752 15.2651 1317 56.7904 469.17 524.061
1299 0 84.1571 12.9638 1091 60.3914 469.201 521.355
1300 0 83.2618 12.9111 1075 61.4009 469.126 521.196
1301 1 47.0811 10.7687 507 58.8205 468.402 543.974
1302 0 49.041 10.2771 504 60.0833 467.885 541.595
1303 0 53.0298 13.3698 709 57.1692 468.013 542.378
1304 0 53.0276 11.164 592 59.2044 468.275 540.831
1305 0 57.2836 13.3197 763 56.1625 468.258 540.733
1306 0 57.1082 12.1524 694 58.3084 468.179 539.843
1307 0 59.1879 12.587 745 58.1705 468.42 539.672
1308 0 61.1608 13.7997 844 56.6173 467.762 540.089
1309 0 63.1828 12.8674 813 58.1168 467.636 539.322
1310 0 63.1329 12.2915 776 59.3286 467.365 538.784
1311 0 65.0577 13.757 895 58.1866 466.998 537.256
1312 0 67.0853 12.9984 872 59.1434 466.686 536.229
1313 0 69.1011 12.8218 886 59.8679 466.221 536.558
1314 0 71.0775 12.2542 871 60.7245 466.305 535.924
1315 0 74.1522 12.9059 957 60.2571 466.22 533.32
1316 0 75.1697 13.0904 984 60.7043 465.906 534.931
1317 0 78.1255 13.9775 1092 59.9203 465.668 532.769
1318 0 82.111 13.5548 1113 60.3729 465.64 532.54
1319 0 83.0661 13.1582 1093 60.9232 466.096 528.137
1320 0 86.1672 12.2204 1053 62.3808 465.285 526.616
1321 0 89.1549 13.1681 1174 61.4404 465.047 525.376
1322 0 92.1482 13.6302 1256 61.0398 465.08 524.474
1323 0 95.0326 12.6693 1204 62.5955 464.778 522.588
1324 0 96.1316 12.6909 1220 62.4713 465.197 522.791
1325 0 100.046 12.7442 1275 62.3404 465.215 520.932
1326 1 55.0392 11.083 610 58.9869 465.164 545.907
1327 0 56.0398 11.6881 655 59.3924 464.751 545.195
1328 0 54.1079 10.4606 566 61.136 465.489 543.567
1329 0 57.1558 12.1073 692 59.4639 464.974 540.487
1330 0 61.1211 11.7308 717 58.6095 465.396 540.616
1331 0 62.1141 11.8331 735 59.1646 465.148 539.624
1332 0 64.1456 11.2401 721 58.8571 464.893 540.454
1333 0 66.1121 12.3881 819 59.1148 464.468 540.985
1334 0 66.1868 12.7065 841 60.6088 464.933 538.359
1335 0 68.1714 11.9845 817 60.5202 465.132 539.06
1336 0 73.1885 12.215 894 59.8714 464.808 535.649
1337 0 75.145 12.5624 944 59.5064 464.135 533.033
1338 0 77.0956 13.2692 1023 58.4545 464.31 532.419
1339 0 78.092 12.3956 968 59.5279 464.15 532.435
1340 0 81.2384 12.2725 997 59.3982 464.009 530.663
1341 0 86.1356 13.3278 1148 57.8153 463.963 529.875
1342 0 88.2612 13.9472 1231 57.1584 464.705 525.872
1343 0 88.185 12.0655 1064 60.4314 464.609 523.933
1344 0 92.2645 12.3233 1137 59.365 464.201 522.938
1345 1 52.1473 10.8347 565 59.0602 464.726 546.743
1346 0 53.0908 10.774 572 59.3794 463.914 546.558
1347 0 52.1071 10.7471 560 59.7839 464.35 545.912
1348 0 55.0525 11.2438 619 59.357 464.351 544.213
1349 0 57.0899 11.0177 629 59.4292 464.316 543.666
1350 0 58.0833 11.8278 687 57.9651 462.761 541.924
1351 0 59.0741 11.274 666 59.6201 463.167 543.002
1352 0 59.0362 11.5014 679 59.6259 463.228 541.259
1353 0 62.0402 12.3468 766 58.4295 463.313 540.791
1354 0 62.0402 12.3307 765 145.281 464.305 540.771
1355 0 67.1026 11.7581 789 59.1407 462.735 539.596
1356 0 67.096 11.8338 794 59.5264 462.99 539.236
1357 0 71.0975 13.0666 929 57.6943 463.127 538.419
1358 0 72.0573 12.6982 915 58.2131 463.334 537.131
1359 0 75.1277 12.126 911 58.5928 462.751 535.096
1360 0 76.0245 11.8778 903 59.5138 462.564 534.337
1361 0 77.0843 13.1933 1017 57.4936 462.771 533.993
1362 1 42.0152 9.66317 406 59.1601 463.202 553.68
1363 0 43.0671 8.777 378 60.1164 462.762 553.196
1364 0 43.1213 9.78635 422 59.737 462.877 550.879
1365 0 44.0778 9.93697 438 58.7397 462.767 551.441
1366 0 46.2623 10.7431 497 58.5272 461.64 550.37
1367 0 47.2888 9.91778 469 59.1898 460.964 550.808
1368 0 49.378 11.7461 580 57.7776 460.819 548.538
1369 0 51.1165 11.9922 613 58.31 462.481 548.608
1370 0 53.1539 13.3574 710 56.3887 462.879 546.214
1371 0 61.2378 13.7823 844 53.0735 462.744 543.583
1372 0 68.4273 14.3071 979 50.669 462.381 540.259
1373 0 67.232 18.3692 1235 46.9806 462.44 535.358
1374 0 72.2338 14.3562 1037 51.3616 463.119 538.28
1375 0 76.1899 16.6426 1268 47.8494 463.125 532.916
1376 0 72.115 16.238 1171 50.6149 462.588 537.578
1377 0 73.128 16.6557 1218 50.991 462.273 536.931
1378 0 72.1141 17.7496 1280 50.6305 462.305 535.374
1379 0 72.0972 16.2142 1169 53.6287 462.008 537.5
1380 0 75.1898 16.465 1238 52.8934 462.32 538.234
1381 0 73.095 15.7056 1148 54.797 462.545 535.387
1382 0 70.1226 12.9487 908 55.9515 462.22 531.224
1383 0 71.0501 13.202 938 55.2303 463.141 533.15
1384 0 74.225 12.3543 917 59.2759 462.916 534.124
1385 0 75.2482 12.9704 976 58.624 463.154 530.172
1386 0 79.2438 13.4269 1064 58.6767 463.16 529.637
1387 0 83.2733 13.2696 1105 58.1692 463.177 528.314
1388 1 44.0514 9.3981 414 58.9275 464.082 548.213
1389 0 47.0831 10.4496 492 60.8537 465.065 547.996
1390 0 48.0616 11.7974 567 59.127 465.547 549.644
1391 0 51.0568 11.8887 607 59.3031 464.979 548.41
1392 0 50.2588 11.6795 587 59.3015 464.007 545.981
1393 0 54.096 11.4981 622 59.9003 465.174 546.481
1394 0 57.1267 13.1812 753 57.3798 465.024 546.125
1395 0 58.0637 13.3646 776 57.6405 465.209 544.754
1396 0 58.1385 12.5906 732 59.3019 465.262 544.69
1397 0 58.0889 12.1882 708 60.2867 464.308 543.239
1398 0 62.0706 14.2096 882 57.1701 464.618 542.766
1399 0 64.1196 12.5858 807 59.575 464.497 539.968
1400 0 63.0825 13.0464 823 59.5565 464.728 540.482
1401 0 66.1536 13.3477 883 58.6727 465.006 540.888
1402 0 67.1069 12.562 843 60.2171 465.236 538.688
1403 0 69.0543 13.6559 943 58.6257 465.612 536.47
1404 0 71.0684 13.3815 951 58.8265 465.567 536.189
1405 0 74.1087 13.939 1033 57.91 466.147 531.962
1406 0 74.0469 13.2213 979 59.0031 466.888 532.252
1407 0 78.101 12.7527 996 58.8735 466.9 532.709
1408 0 81.1732 13.231 1074 58.4376 466.916 528.87
1409 0 85.1151 13.5464 1153 57.2246 467.192 530.132
1410 1 47.0605 9.98714 470 59.3745 466.872 547.826
1411 0 46.0927 10.0016 461 58.8265 467.163 545.718
1412 0 47.0874 10.2575 483 57.8551 467.4 544.956
1413 0 49.1097 10.5071 516 57.3043 467.169 546.252
1414 0 51.1405 11.1262 569 56.1828 467.109 545.139
1415 0 53.1382 9.86107 524 58.1412 467.605 545.712
1416 0 56.0609 11.7908 661 54.8169 467.794 543.652
1417 0 56.0863 11.3397 636 56.6179 468.544 542.576
1418 0 58.1066 13.3204 774 54.9664 468.145 542.074
1419 0 61.0885 12.6374 772 55.3433 469.259 542.285
1420 0 61.0988 11.8988 727 56.1155 468.48 540.806
1421 0 63.0921 11.8398 747 56.407 469.017 537.936
1422 0 65.0962 13.1498 856 55.0175 468.907 538.707
1423 0 65.0721 13.2929 865 55.2925 468.766 536.056
1424 0 69.1124 13.9194 962 54.0239 468.904 537.61
1425 0 71.0891 12.5617 893 55.4356 468.748 535.735
1426 0 71.1862 12.3339 878 56.0991 468.876 535.825
1427 0 73.1032 12.6533 925 55.8638 469.001 534.032
1428 0 77.1427 13.326 1028 54.8891 469.117 533.635
1429 0 80.0938 13.1096 1050 54.3057 469.235 531.608
1430 0 82.0645 15.2563 1252 52.4609 468.657 528.698
1431 0 85.1789 13.5127 1151 54.2328 468.726 528.434
1432 0 87.1229 14.1295 1231 53.9171 467.982 527.872
1433 0 90.0605 13.7352 1237 54.734 468.323 527.23
1434 0 91.1335 12.1141 1104 57.2382 468.114 525.304
1435 0 97.1441 13.691 1330 55.3692 467.902 524.456
1436 1 50.0463 10.0307 502 56.2669 468.122 546.839
1437 0 52.028 10.4175 542 57.1624 468.603 543.539
1438 0 57.0828 11.7899 673 54.6018 468.312 545.214
1439 0 59.0174 13.3012 785 53.3809 467.46 542.087
1440 0 61.0477 12.0398 735 54.7551 466.728 541.81
1441 0 62.041 11.4118 708 55.2316 466.771 542.476
1442 0 64.0551 11.6774 748 54.9559 466.338 540.025
1443 0 67.0662 13.3748 897 52.9298 466.108 538.404
1444 0 66.1192 12.8102 847 54.5903 466.328 537.426
1445 0 70.1022 13.2521 929 53.8009 466.635 535.559
1446 0 73.1345 13.1812 964 54.0187 466.922 532.694
1447 0 75.0652 13.5349 1016 53.8238 466.507 532.271
1448 0 76.1312 12.7674 972 55.0463 466.686 530.158
1449 0 81.1411 13.7292 1114 53.8725 466.197 528.727
1450 0 83.0896 14.5746 1211 53.4633 466.258 525.874
1451 0 86.1086 14.1798 1221 53.9263 465.967 527.457
1452 0 88.1965 12.7443 1124 55.8318 465.619 525.648
1453 0 94.1848 13.1019 1234 55.2472 465.133 523.719
1454 0 95.1219 13.7297 1306 55.1884 465.391 523.883
1455 0 97.3438 13.3856 1303 56.0154 465.375 521.167
1456 1 56.0571 10.1325 568 57.1444 464.833 544.046
1457 0 57.0401 11.939 681 55.6417 465.53 543.812
1458 0 58.1226 12.2156 710 56.1507 465.284 541.717
1459 0 59.1105 11.267 666 57.2297 465.293 542.039
1460 0 61.0998 10.9493 669 57.9611 465.433 540.423
1461 0 62.2613 11.6766 727 57.3329 465.499 538.301
1462 0 62.2613 11.6766 727 156.332 465.499 538.301
1463 0 67.0978 12.9513 869 56.038 465.348 540.533
1464 0 68.1175 12.1408 827 57.555 464.79 538.894
1465 0 71.0423 13.8509 984 55.5894 464.625 536.259
1466 0 74.0782 13.2023 978 56.1227 464.559 535.679
1467 0 73.1374 12.374 905 58.4254 464.539 536.654
1468 0 75.1249 12.1132 910 58.6011 463.646 535.382
1469 0 79.0603 12.4715 986 58.8621 463.542 532.507
1470 0 83.1246 13.5339 1125 57.5689 463.178 532.84
1471 0 86.1733 13.0551 1125 58.5067 462.9 530.429
1472 0 87.1479 12.1977 1063 59.8899 462.766 531.153
1473 0 91.1289 13.1791 1201 58.348 462.89 527.571
1474 0 95.1003 12.797 1217 58.8028 463.808 527.228
1475 1 51.03 11.2483 574 59.3397 463.101 546.66
1476 0 52.0308 9.6289 501 59.3453 462.631 546.206
1477 0 54.0763 10.5776 572 58.8479 462.916 546.748
1478 0 55.1193 10.8129 596 57.6024 462.549 546.693
1479 0 58.0254 11.9775 695 57.0273 462.445 543.909
1480 0 59.0699 11.6134 686 57.0743 463.656 544.309
1481 0 62.0394 13.8299 858 55.6515 463.92 543.028
1482 0 62.0986 12.6251 784 57.7066 464.36 542.617
1483 0 64.0952 12.5438 804 57.2413 464.159 540.837
1484 0 66.1597 12.3036 814 57.4558 463.57 541.731
1485 0 68.1196 12.6983 865 56.8035 463.177 540.14
1486 0 70.1117 12.3802 868 57.3399 463.611 538.665
1487 0 72.0883 12.9563 934 57.0878 463.769 539.244
1488 0 73.2148 13.5765 994 56.4668 462.864 536.739
1489 0 75.237 12.6135 949 57.7987 463.22 536.115
1490 0 78.0812 12.1668 950 58.0284 463.508 535.363
1491 0 81.2341 11.6823 949 58.607 463.634 533.707
1492 0 84.166 12.9268 1088 57.3097 463.303 532.298
1493 0 86.1691 12.3594 1065 58.0667 464 530.007
1494 0 89.0278 12.176 1084 58.2371 463.469 528.454
1495 1 49.1709 9.61952 473 58.0063 463.516 548.863
1496 0 52.3921 10.0015 524 58.416 464.473 548.574
1497 0 52.125 11.6067 605 57.4727 464.208 546.8
1498 0 56.2902 10.9255 615 58.1008 464.473 546.844
1499 0 54.214 11.0119 597 59.866 464.831 545.296
1500 0 56.2932 11.6178 654 59.2248 464.719 545.151
1501 0 58.1069 11.7198 681 59 464.787 543.495
1502 0 60.2415 12.2507 738 58.2344 465.099 545.121
1503 0 60.2555 12.2312 737 59.7544 465.46 541.516
1504 0 65.1834 12.3037 802 59.414 465.377 539.343
1505 0 66.1985 12.9459 857 58.3431 465.736 540.964
1506 0 65.1761 11.6761 761 61.1038 465.604 539.997
1507 0 66.2487 12.121 803 61.1171 465.872 538.498
1508 0 71.2918 13.031 929 59.6114 465.468 536.344
1509 0 72.3793 12.8352 929 59.8698 465.616 535.927
1510 0 76.3067 13.5375 1033 58.2517 465.943 533.859
1511 0 78.4595 12.5033 981 59.5097 465.786 533.58
1512 0 81.383 13.8727 1129 58.2179 466.214 531.05
1513 1 43.3034 10.7151 464 60.5172 466.17 549.381
1514 0 45.3791 10.0266 455 60.833 465.692 549.47
1515 0 46.3196 10.2332 474 61.9114 466.207 546.584
1516 0 47.4681 10.5755 502 61.0837 465.964 546.633
1517 0 51.1381 12.2414 626 59.1805 467.548 545.046
1518 0 53.0768 12.3971 658 57.7857 466.93 546.242
1519 0 51.0583 12.0255 614 59.3502 467.178 544.577
1520 0 55.0917 11.8167 651 59.063 467.091 543.744
1521 0 58.1803 13.8363 805 56.1938 467.456 543.441
1522 0 58.0818 12.9128 750 57.8053 468.179 541.977
1523 0 58.1037 11.8065 686 59.3615 468.455 540.859
1524 0 61.1516 13.4911 825 56.6885 468.575 542.073
1525 0 61.1612 11.7068 716 58.9413 468.932 539.5
1526 0 66.3266 13.6597 906 55.3245 469.181 539.522
1527 0 68.2689 13.1978 901 55.6981 468.435 537.684
1528 0 68.1628 13.9226 949 54.9747 469.283 539.786
1529 0 69.2635 13.1238 909 55.3586 469.178 537.436
1530 0 70.1648 11.6725 819 57.5702 469.455 536.832
1531 0 72.273 13.0477 943 56.5917 469.468 531.631
1532 0 75.1816 12.9021 970 57.4629 469.379 531.466
1533 0 77.2285 13.3759 1033 57.031 469.312 531.318
1534 0 78.2581 13.251 1037 57.1697 469.432 530.456
1535 0 83.2699 13.5223 1126 56.2194 468.956 529.089
1536 0 86.2181 13.7442 1185 55.8785 468.857 525.72
1537 0 87.2299 14.5019 1265 55.4545 468.949 527.731
1538 0 90.2926 14.154 1278 55.7269 468.328 524.258
1539 0 92.3699 13.0021 1201 57.5246 468.33 523.196
1540 0 97.365 12.8588 1252 56.9704 467.998 521.242
1541 0 97.3174 12.8754 1253 57.5379 467.943 520.481
1542 0 103.462 13.5895 1406 56.3755 467.368 517.222
1543 1 56.099 9.39411 527 57.0455 467.245 542.869
1544 0 58.1674 9.8337 572 57.771 467.496 538.802
1545 0 61.2217 12.5282 767 54.4355 468.829 540.168
1546 0 64.0731 12.8291 822 54.663 468.835 539
1547 0 63.0958 11.6807 737 56.5088 468.624 537.119
1548 0 66.112 13.2502 876 54.6975 468.354 535.828
1549 0 67.1166 13.1562 883 54.7735 468.348 535.432
1550 0 71.086 13.1812 937 54.2124 467.912 534.893
1551 0 72.1413 12.4617 899 55.6552 467.878 532.525
1552 0 76.1616 13.4976 1028 54.357 467.395 530.916
1553 0 76.176 13.8364 1054 54.4943 467.262 530.325
1554 0 80.0933 13.2221 1059 55.0397 467.567 530.937
1555 0 82.1527 13.1341 1079 55.4004 467.174 527.646
1556 0 82.1776 12.6068 1036 56.9392 467.312 525.648
1557 0 89.1951 14.2721 1273 54.6551 466.936 524.567
1558 0 89.2362 12.9656 1157 56.8876 466.943 521.743
1559 0 92.2414 12.3697 1141 57.9281 466.758 523.329
1560 0 97.1639 13.4618 1308 57.0466 466.82 520.269
1561 0 100.216 13.1915 1322 57.3495 466.502 520.273
1562 1 54.0718 10.2456 554 58.648 465.897 542.312
1563 0 55.0744 11.5299 635 56.7181 465.109 541.718
1564 0 59.0352 10.0618 594 57.9798 465.635 544.234
1565 0 60.0359 10.4271 626 58.9393 464.778 540.091
1566 0 61.0205 12.2418 747 57.4056 464.735 540.428
1567 0 64.0384 12.2583 785 57.0726 464.596 540.334
1568 0 66.0352 12.4631 823 56.6088 464.601 537.148
1569 0 70.054 12.9329 906 56.3322 464.392 536.164
1570 0 70.0801 13.028 913 57.0197 464.437 536.124
1571 0 73.0732 12.9596 947 56.7043 464.499 533.657
1572 0 75.1048 13.0218 978 56.729 464.878 534.111
1573 0 77.2266 12.4051 958 58.2296 465.513 530.684
1574 0 80.214 11.7187 940 58.6234 465.062 531.363
1575 0 83.1438 13.639 1134 56.6993 464.767 529.323
1576 0 87.1327 13.1983 1150 57.3087 465.669 528.256
1577 0 88.1156 13.3802 1179 57.4614 465.311 526.041
1578 0 91.1501 13.2748 1210 58.0744 464.824 524.684
1579 0 95.179 12.7864 1217 58.4002 463.796 524.214
1580 0 100.233 13.2392 1327 58.202 463.921 524.362
1581 1 55.0977 9.34703 515 58.7398 464.748 544.443
1582 0 56.1113 10.3366 580 58.0552 464.384 542.514
1583 0 56.1699 10.1834 572 57.6311 464.339 541.678
1584 0 58.1954 11.2552 655 55.6962 464.171 542.965
1585 0 59.2043 11.0127 652 56.7669 464.94 541.528
1586 0 62.1751 11.8375 736 56.8573 463.307 542.572
1587 0 64.0473 12.9904 832 55.1983 463.464 540.8
1588 0 64.0471 11.7257 751 56.9561 462.899 540.898
1589 0 65.0932 11.0918 722 57.7839 462.751 539.817
1590 0 68.0855 12.7781 870 56.2782 462.844 538.726
1591 0 70.2615 12.9658 911 56.6784 463.943 538.21
1592 0 70.1302 12.3627 867 58.2122 464.111 537.603
1593 0 76.1116 12.6525 963 57.1568 464.15 535.539
1594 0 78.1793 12.4585 974 57.0637 464.082 534.644
1595 0 79.144 13.229 1047 56.6963 464.432 534.57
1596 0 83.1316 12.2817 1021 58.048 464.438 531.854
1597 0 85.1931 13.3462 1137 57.204 464.363 530.119
1598 0 86.2204 11.7953 1017 59.7178 463.883 526.459
1599 0 91.3927 13.2396 1210 57.6554 464.177 525.393
1600 0 94.2969 13.6802 1290 57.3899 464.408 523.818
1601 1 53.2057 9.58544 510 59.0392 464.22 544.931
1602 0 56.2829 10.0208 564 58.5284 464.106 543.927
1603 0 56.1642 10.6295 597 59.6281 464.477 541.534
1604 0 60.3085 12.0049 724 58.8895 464.467 543.192
1605 0 60.2337 11.1731 673 60.6389 465.168 540.11
1606 0 61.0944 12.1942 745 58.5745 464.423 541.799
1607 0 62.1515 11.9868 745 61.0832 465.47 539.84
1608 0 66.0414 13.1281 867 58.94 465.453 539.336
1609 0 68.0763 11.6487 793 60.6154 465.9 537.275
1610 0 68.0564 12.6072 858 59.9149 465.89 537.862
1611 0 71.0599 12.3276 876 60.089 466.13 535.017
1612 0 72.0646 13.0577 941 59.8055 466.158 535.239
1613 0 74.084 12.2024 904 60.9912 466.417 533.838
1614 0 76.1049 12.7193 968 60.6467 467.385 534.082
1615 0 78.0907 13.1642 1028 61.0399 467.183 530.931
1616 0 81.0992 12.2319 992 62.3014 467.407 530.551
1617 0 84.095 13.6512 1148 61.3868 468.017 529.81
1618 0 87.1459 12.6684 1104 63.4203 467.825 527.808
1619 1 47.1415 9.94876 469 64.774 468.279 546.661
1620 0 50.181 9.62516 483 65.2236 468.3 546.089
1621 0 50.1846 11.1189 558 64.8781 468.335 542.536
1622 0 50.1789 10.5024 527 65.3985 468.038 543.835
1623 0 54.1474 11.7642 637 63.3909 468.575 541.98
1624 0 54.0645 11.3013 611 62.7169 469.002 541.792
1625 0 57.0631 12.2846 701 61.2325 469.297 540.994
1626 0 58.0981 11.6183 675 62.5689 469.446 540.221
1627 0 60.0374 12.9586 778 61.5013 469.674 539.897
1628 0 60.1248 11.6258 699 63.927 469.614 538.794
1629 0 63.0867 13.2199 834 61.4748 469.878 537.824
1630 0 63.1072 12.7561 805 62.5727 469.68 537.46
1631 0 65.1376 13.0646 851 62.2938 469.757 536.474
1632 0 66.0477 11.9459 789 64.6882 469.831 536.578
1633 0 68.276 12.5666 858 63.6876 469.068 534.196
1634 0 70.2329 13.384 940 63.1628 469.503 532.615
1635 0 72.1859 13.1466 949 63.2561 469.474 530.78
1636 0 74.2241 13.7691 1022 62.8386 469.575 532.873
1637 0 77.2235 14.9307 1153 61.9644 469.456 529.94
1638 0 79.2769 14.4304 1144 63.0839 469.348 528.114
1639 0 80.1821 14.1553 1135 64.9163 469.616 525.889
1640 0 84.2922 14.0701 1186 64.8196 469.196 525.691
1641 0 87.4086 14.518 1269 63.513 468.83 523.06
1642 0 88.2893 14.3392 1266 64.1469 469.017 523.953
1643 0 92.3641 14.432 1333 64.4599 468.993 521.034
1644 0 94.2867 14.4347 1361 65.1411 468.99 518.689
1645 0 98.435 14.6696 1444 64.1094 469.159 518.057
1646 0 101.273 13.9623 1414 65.93 468.81 516.219
1647 1 51.0883 10.1002 516 68.1318 467.922 542.041
1648 0 57.0318 12.2037 696 64.8879 468.369 541.096
1649 0 58.1266 13.1953 767 63.7614 468.993 537.834
1650 0 60.1267 11.7252 705 65.634 468.854 539.562
1651 0 59.1008 13.1978 780 64.1641 468.995 539.635
1652 0 62.0678 14.5486 903 61.6501 469.117 539.607
1653 0 62.045 12.5393 778 64.9293 468.611 537.334
1654 0 64.1561 12.906 828 64.3949 469.098 535.803
1655 0 68.0383 13.5659 923 63.0531 468.696 536.105
1656 0 70.0584 13.7457 963 62.7248 468.163 533.871
1657 0 72.0987 13.3151 960 63.6542 467.962 532
1658 0 73.1138 13.8004 1009 62.5976 467.975 533.465
1659 0 75.0586 13.3229 1000 62.959 468.182 532.753
1660 0 77.0549 14.7687 1138 61.9025 468.148 530.014
1661 0 80.1671 14.0956 1130 62.2451 467.797 528.765
1662 0 83.2146 14.697 1223 61.2592 467.564 526.527
1663 0 87.3744 15.0044 1311 60.4737 467.532 526.878
1664 0 88.2331 14.6657 1294 61.2883 467.515 525.157
1665 0 89.3228 13.927 1244 62.8786 467.387 525.314
1666 0 93.6346 14.0012 1311 62.135 467.738 522.233
1667 0 96.2901 15.1729 1461 59.7639 467.218 523.813
1668 0 98.3595 14.8943 1465 59.9625 467.253 520.024
1669 0 100.303 14.0175 1406 60.9772 467.241 518.363
1670 0 104.408 14.6636 1531 59.9059 466.697 516.695
1671 0 106.456 14.0998 1501 60.4704 466.89 512.43
1672 0 109.558 14.1204 1547 60.6445 466.762 514.955
1673 0 114.408 15.6632 1792 57.817 466.556 514.315
1674 0 117.495 14.307 1681 59.4575 466.795 511.982
1675 0 118.41 13.5546 1605 61.1146 466.29 508.072
1676 1 67.4703 10.8492 732 60.7978 465.779 538.419
1677 0 71.5226 12.4017 887 59.1804 465.984 535.63
1678 0 74.5666 12.2575 914 59.5481 465.796 533.918
1679 0 74.5581 12.8222 956 59.7479 465.609 529.517
1680 0 79.5814 13.4454 1070 58.1383 466.008 533.44
1681 0 81.2329 13.3197 1082 59.1137 466.089 530.561
1682 0 84.3566 12.6724 1069 60.3143 465.469 529.466
1683 0 85.3105 13.2457 1130 59.931 465.359 528.92
1684 0 88.5353 12.6503 1120 59.5839 465.732 527.623
1685 0 91.3462 12.7865 1168 59.4872 465.217 523.134
1686 0 96.4314 13.3774 1290 58.714 465.04 522.339
1687 0 99.2827 13.4364 1334 58.8733 465.284 519.699
1688 1 56.3366 10.9165 615 59.0537 464.528 542.61
1689 0 56.1905 11.1585 627 59.9984 464.263 539.957
1690 0 58.1123 12.0973 703 58.7411 464.124 541.007
1691 0 60.1156 12.11 728 58.4615 463.845 541.713
1692 0 62.2313 12.2607 763 59.021 463.959 538.52
1693 0 66.0763 12.198 806 58.9566 464.168 540.195
1694 0 66.1214 13.9592 923 58.026 464.2 539.28
1695 0 70.1652 13.853 972 58.1512 464.413 537.331
1696 0 73.1896 13.2396 969 57.9123 464.485 539.67
1697 0 75.2607 13.4067 1009 58.1051 464.314 537.583
1698 0 76.227 12.8826 982 58.6955 464.351 535.817
1699 0 78.209 13.0164 1018 58.6778 464.466 533.617
1700 0 83.3737 13.9852 1166 57.1364 464.062 531.815
1701 0 85.218 14.3162 1220 56.5779 463.594 532.904
1702 0 88.2705 13.7192 1211 56.8382 463.751 528.742
1703 0 91.2666 13.7948 1259 56.7188 463.7 529.749
1704 0 93.2393 12.2588 1143 58.3482 463.536 529.599
1705 1 52.1844 10.4437 545 57.3761 463.941 549.536
1706 0 53.0946 10.453 555 59.0324 464.326 547.861
1707 0 53.0946 10.34 549 163.262 465.337 548.098
1708 0 58.2633 12.7181 741 56.9352 464.026 545.516
1709 0 61.2974 12.3333 756 56.9312 464.561 543.956
1710 0 64.2092 12.9421 831 55.7449 464.379 544.373
1711 0 67.2193 13.0617 878 55.754 464.065 540.923
1712 0 69.1994 13.266 918 55.1895 464.115 539.862
1713 0 70.1346 12.4047 870 56.5287 464.548 539.491
1714 0 72.1197 13.02 939 55.9894 464.622 537.149
1715 0 73.1275 13.3329 975 55.5251 464.455 536.7
1716 0 78.1834 14.6067 1142 53.6524 465.068 533.948
1717 0 78.2027 12.4037 970 56.5876 465.211 534.013
1718 0 81.1629 13.898 1128 53.9433 465.214 533.34
1719 0 83.1145 12.8377 1067 55.6467 465.444 531.769
1720 0 85.291 12.9908 1108 55.9215 466.049 531.029
1721 0 90.324 14.0605 1270 54.5677 465.612 529.552
1722 0 93.2158 14.2465 1328 54.8283 465.776 526.636
1723 0 94.2025 13.0888 1233 56.4477 465.908 527.527
1724 1 53.2637 12.1096 645 55.4108 466.09 546.888
1725 0 56.0802 11.3052 634 56.8249 466.26 546.983
1726 0 58.2219 13.4485 783 54.1303 466.278 545.548
1727 0 58.2408 12.5342 730 55.1137 466.038 544.568
1728 0 60.2979 13.3172 803 54.3537 466.391 543.547
1729 0 62.3799 12.6964 792 53.5164 466.266 542.598
1730 0 64.2629 12.5889 809 54.7417 466.321 539.58
1731 0 66.306 13.5282 897 52.291 466.507 540.252
1732 0 67.2961 13.5818 914 52.3534 466.526 538.045
1733 0 68.4534 13.2207 905 52.7138 466.781 537.381
1734 0 71.7695 13.5712 974 53.7166 467.263 535.463
1735 0 71.7695 13.418 963 161.652 467.245 535.452
1736 0 75.2813 13.4562 1013 56.7799 467.891 532.137
1737 0 79.4707 13.8919 1104 56.779 467.951 532.973
1738 0 79.4588 13.5039 1073 58.5517 468.251 528.926
1739 0 82.492 12.874 1062 58.4284 468.434 528.18
1740 0 86.4759 14.3161 1238 56.0234 468.342 527.906
1741 0 88.5229 13.9851 1238 55.933 468.5 525.533
1742 0 90.3354 13.5716 1226 58.4445 468.752 524.697
1743 0 96.5015 14.9946 1447 55.537 469.189 523.605
1744 1 51.5351 10.4201 537 58.013 469.015 544.603
1745 0 54.2506 11.2073 608 56.102 469.11 544.189
1746 0 55.3126 12.9446 716 55.2095 469.634 542.02
1747 0 56.4557 11.9563 675 55.3941 469.173 543.055
1748 0 58.3456 12.1689 710 55.6451 469.796 541.008
1749 0 57.1493 11.8637 678 57.1091 469.801 538.708
1750 0 62.3079 13.8506 863 54.1877 470.143 537.173
1751 0 63.256 12.6945 803 56.0349 470.313 538.352
1752 0 64.1835 12.5422 805 56.9491 470.394 535.644
1753 0 67.1779 13.1889 886 55.7325 470.343 536.728
1754 0 69.3574 13.5241 938 55.049 469.854 535.447
1755 0 71.1955 12.9222 920 56.1772 470.374 532.662
1756 0 72.1053 13.1613 949 56.8072 470.256 531.531
1757 0 76.236 13.3664 1019 55.9166 470.148 531.62
1758 0 77.2753 12.7078 982 57.2658 470.393 528.482
1759 0 81.3376 13.5362 1101 55.7829 470.533 525.304
1760 0 82.2591 14.1139 1161 55.2868 470.909 525.66
1761 0 86.2348 14.4373 1245 54.9711 471.172 523.964
1762 0 89.1784 14.2187 1268 55.291 471.047 524.74
1763 0 92.2466 15.361 1417 54.2703 471.207 521.696
1764 0 94.1909 13.961 1315 56.3011 470.845 522.35
1765 0 98.1781 15.8997 1561 53.975 470.855 520.913
1766 0 100.169 14.1761 1420 56.4528 470.935 518.732
1767 0 101.386 14.5187 1472 56.572 470.99 517.013
1768 0 107.318 14.2846 1533 55.9661 470.823 516.797
1769 0 111.355 14.7367 1641 54.8653 470.536 516.389
1770 1 58.1715 10.6066 617 57.8152 470.391 540.347
1771 0 61.338 11.0372 677 57.223 470.651 537.901
1772 0 62.4031 11.8584 740 57.8595 470.014 539.927
1773 0 63.2491 12.4903 790 58.1392 469.797 537.14
1774 0 66.3543 12.8402 852 58.48 469.917 536.992
1775 0 68.2699 14.0765 961 57.6129 469.898 536.074
1776 0 70.287 13.1461 924 57.6071 469.36 535.747
1777 0 73.2996 14.202 1041 56.4534 469.51 534.027
1778 0 73.3687 13.0301 956 59.3734 469.131 532.456
1779 0 74.3182 12.3927 921 60.3366 469.404 532.326
1780 0 80.2836 13.2281 1062 57.9802 469.308 531.58
1781 0 82.3996 14.7452 1215 55.9465 469.051 530.082
1782 0 83.3246 13.7294 1144 57.5149 468.939 528.435
1783 0 87.2896 14.6524 1279 56.1884 469.224 528.037
1784 0 88.2756 13.6164 1202 57.4809 468.35 527.19
1785 0 91.3174 13.9951 1278 57.3255 468.254 523.401
1786 0 93.462 13.4065 1253 58.3647 468.046 521.029
1787 0 96.315 14.1203 1360 57.5669 467.767 522.146
1788 0 100.567 14.3585 1444 57.7909 467.554 520.49
1789 0 101.294 14.6603 1485 58.0074 467.236 519.821
1790 0 106.469 15.3848 1638 56.8114 467.301 517.6
1791 0 108.263 14.4186 1561 58.1115 466.857 515.685
1792 1 62.2161 11.9422 743 58.066 467.349 541.088
1793 0 62.2013 12.4274 773 57.1708 467.449 542.986
1794 0 64.142 12.4255 797 57.6198 467.609 540.639
1795 0 68.2527 13.6258 930 55.9344 467.583 539.029
1796 0 69.3597 13.812 958 56.1889 467.408 538.675
1797 0 71.2239 13.9279 992 57.1845 466.931 536.428
1798 0 72.1508 13.8737 1001 57.1139 467.108 534.635
1799 0 75.3283 12.877 970 58.2361 466.524 534.39
1800 0 79.1586 14.313 1133 56.0035 466.65 532.446
1801 0 79.1895 13.6508 1081 57.3034 466.613 531.409
1802 0 82.2245 14.8253 1219 55.2207 466.305 532.881
1803 0 86.286 14.6026 1260 55.6405 466.125 527.423
1804 0 89.2437 14.4212 1287 55.7552 466.033 527.124
1805 0 94.1512 13.3296 1255 56.2988 465.844 527.387
1806 0 95.1063 13.5848 1292 56.3344 465.633 525.59
1807 0 99.1503 14.5234 1440 54.6076 465.797 525.251
1808 0 102.356 14.0881 1442 55.077 465.917 521.392
1809 1 53.053 11.1775 593 55.9578 465.604 547.648
1810 0 55.2303 12.6018 696 54.8506 465.588 546.374
1811 0 55.2121 12.6603 699 55.3777 465.272 545.419
1812 0 59.1818 13.0615 773 54.2044 465.543 544.071
1813 0 58.2226 12.7957 745 54.5987 465.564 543.09
1814 0 62.3158 12.8218 799 54.0701 465.362 542.678
1815 0 64.1949 13.9263 894 53.4553 465.343 540.276
1816 0 64.13 12.537 804 55.3918 465.241 539.959
1817 0 67.459 13.8158 932 53.6985 465.163 538.848
1818 0 69.1953 12.8477 889 54.6817 465.028 537.775
1819 0 71.4708 14.4395 1032 53.4709 465.062 535.746
1820 0 72.3406 14.3903 1041 53.8492 465.448 534.163
1821 0 74.2516 13.8583 1029 54.8309 465.288 532.401
1822 0 74.2516 13.9391 1035 163.873 465.317 532.33
1823 0 79.3267 14.1945 1126 55.3037 465.734 529.849
1824 0 81.3013 14.5508 1183 54.8605 466.346 530.295
1825 0 83.2431 14.2714 1188 54.9731 466.141 528.579
1826 0 87.3776 14.7978 1293 54.3473 466.351 527.302
1827 0 90.382 14.14 1278 54.9476 465.727 527.793
1828 0 91.2558 14.8155 1352 54.878 466.08 525.801
1829 0 93.4629 14.0484 1313 55.3762 466.086 522.704
1830 0 98.4636 15.2341 1500 54.036 466.445 522.025
1831 0 101.355 14.8586 1506 54.4462 466.292 519.981
1832 0 101.25 14.8939 1508 55.1406 467.052 518.154
1833 0 108.546 14.8416 1611 54.3998 466.999 516.786
1834 0 109.303 15.1231 1653 54.4858 467.063 516.1
1835 0 112.36 14.9608 1681 55.0952 467.285 515.044
1836 0 119.268 16.0144 1910 52.9461 467.309 510.862
1837 0 121.399 14.3659 1744 54.7357 467.117 509.291
1838 1 70.446 12.0376 848 54.5637 467.921 538.05
1839 0 69.3173 12.8828 893 55.327 468.106 536.142
1840 0 74.2663 13.9767 1038 54.7389 468.265 533.537
1841 0 75.2457 13.9543 1050 54.8419 468.063 532.85
1842 0 79.2393 14.1849 1124 54.4253 468.763 531.587
1843 0 81.2317 14.0955 1145 55.0716 469.294 529.212
1844 0 82.1464 13.7924 1133 55.9665 469.962 527.079
1845 0 85.2122 13.7656 1173 56.5482 469.957 525.486
1846 0 88.2314 13.3513 1178 56.8379 469.5 525.141
1847 0 92.2882 14.3247 1322 55.8495 469.719 523.493
1848 0 95.3099 14.9512 1425 55.1916 469.667 522.715
1849 0 98.1508 14.1619 1390 56.4475 469.994 520.944
1850 0 99.2281 14.6733 1456 56.3722 469.514 519.201
1851 0 103.214 14.688 1516 56.1603 469.732 516.139
1852 0 108.244 14.7075 1592 55.897 469.894 514.705
1853 0 110.181 14.4489 1592 54.9378 470.285 516.239
1854 0 113.229 14.3515 1625 55.0228 470.13 511.655
1855 1 62.0483 10.9592 680 56.2868 469.559 537.71
1856 0 64.0471 12.7562 817 54.202 469.318 538.641
1857 0 67.0976 12.3402 828 54.8333 469.383 536.599
1858 0 69.1375 13.1188 907 54.0033 469.929 535.225
1859 0 71.1158 13.3304 948 53.8935 468.492 532.639
1860 0 75.1192 14.5768 1095 52.5626 468.571 531.455
1861 0 77.2017 13.4323 1037 53.5661 468.383 531.838
1862 0 78.2325 14.2524 1115 53.8332 468.262 528.531
1863 0 82.1057 13.6775 1123 53.3829 468.434 529.547
1864 0 82.169 14.604 1200 53.4692 468.519 524.578
1865 0 84.1741 13.6978 1153 54.6661 468.434 523.227
1866 0 89.2187 14.145 1262 53.7805 468.719 524.258
1867 0 92.3601 15.1364 1398 52.7468 468.375 523.899
1868 0 94.2554 14.5032 1367 54.545 468.056 518.683
1869 0 97.3981 13.6861 1333 55.2318 468.629 518.997
1870 0 100.394 14.0247 1408 54.5497 468.191 517.978
1871 0 104.304 14.381 1500 53.4293 468.011 516.878
1872 1 60.3003 10.0663 607 54.3707 468.285 540.863
1873 0 61.3118 11.6617 715 53.5482 467.378 540.424
1874 0 62.4051 10.9767 685 54.9285 467.38 536.905
1875 0 64.3001 12.7527 820 53.5671 467.27 535.856
1876 0 68.3691 12.8567 879 53.1081 466.898 533.969
1877 0 70.3733 12.931 910 53.1066 467.003 533.626
1878 0 70.3165 13.2259 930 53.3452 466.998 531.452
1879 0 75.4085 13.2478 999 52.7558 467.296 531.109
1880 0 77.4053 13.397 1037 52.8293 467.75 530.25
1881 0 81.4333 13.6308 1110 52.3504 467.558 530.323
1882 0 81.3891 12.9378 1053 53.9012 466.784 529.046
1883 0 83.3981 13.6574 1139 53.0799 466.932 529.565
1884 0 86.4936 13.3767 1157 54.0804 466.992 527.332
1885 0 89.3573 12.7242 1137 54.81 467.002 526.013
1886 0 93.3041 15.2726 1425 52.1712 466.874 524.873
1887 0 96.2066 13.6165 1310 53.9641 466.502 525.267
1888 0 97.2306 12.6503 1230 55.0293 466.33 524.789
1889 0 100.279 13.5722 1361 54.676 466.228 520.787
1890 0 103.185 14.7018 1517 53.8484 466.132 518.78
1891 0 106.212 14.4334 1533 53.9243 466.517 519.623
1892 1 59.2054 9.84707 583 53.9211 466.94 543.997
1893 0 61.085 11.8851 726 52.573 466.701 541.642
1894 0 62.1422 11.9565 743 52.6353 466.499 541.818
1895 0 65.1107 11.3806 741 52.7018 466.417 542.436
1896 0 65.1264 10.8865 709 54.3921 467.278 539.907
1897 0 69.0302 12.7625 881 52.5698 467.069 538.993
1898 0 71.1192 12.3455 878 52.9453 467.212 538.973
1899 0 71.1125 12.5857 895 53.0335 465.888 537.334
1900 0 75.17 13.2633 997 52.5828 465.813 536.942
1901 0 75.1483 12.5618 944 53.7384 465.621 535.001
1902 0 78.223 13.1036 1025 53.32 465.926 533.1
1903 0 79.1422 11.4351 905 55.1635 465.336 531.593
1904 0 81.2074 13.4224 1090 53.2569 465.263 533.897
1905 0 85.1566 13.0818 1114 53.8833 465.531 531.576
1906 0 86.2309 12.7796 1102 54.6951 465.211 529.319
1907 0 91.3447 15.2061 1389 51.8589 465.058 527.482
1908 0 92.2983 12.8821 1189 54.8335 465.181 527.763
1909 0 95.2766 13.8754 1322 54.031 465.039 525.088
1910 0 95.1123 12.6903 1207 55.6587 465.099 525.816
1911 0 99.3224 12.5651 1248 55.726 464.954 523.908
1912 1 57.1666 10.4956 600 54.0833 465.035 548.022
1913 0 58.0646 9.7822 568 55.8838 465.232 545.916
1914 0 63.1443 12.0359 760 53.7092 464.753 544.147
1915 0 64.1076 12.6038 808 53.021 464.475 542.92
1916 0 66.0832 12.1967 806 54.0223 464.587 542.597
1917 0 67.1778 11.611 780 54.7628 463.732 541.151
1918 0 70.1091 12.5661 881 55.0091 463.911 538.513
1919 0 71.1094 12.0519 857 55.9358 464.411 537.628
1920 0 72.214 12.1029 874 56.5149 465.14 536.157
1921 0 73.3426 12.9802 952 56.0714 463.931 535.331
1922 0 77.3532 12.3072 952 56.7258 464.055 535.001
1923 0 79.3949 13.3762 1062 56.1478 463.721 533.319
1924 0 81.4991 12.1719 992 57.4385 463.89 532.869
1925 0 84.2689 13.0416 1099 56.7925 463.888 530.754
1926 0 87.2217 12.9211 1127 57.1491 464.091 528.659
1927 0 89.1635 13.2117 1178 57.2776 464.121 525.808
1928 0 90.3135 12.9327 1168 58.0034 463.839 527.743
1929 1 49.2904 10.8946 537 57.6164 463.644 548.209
1930 0 52.4094 11.0858 581 57.1446 462.964 546.057
1931 0 52.265 11.1164 581 57.5336 463.792 548.377
1932 0 57.1592 12.2465 700 57.1029 463.376 546.536
1933 0 55.1433 12.0414 664 59.0136 463.724 545.595
1934 0 58.0994 13.6662 794 56.8967 463.656 543.773
1935 0 59.2567 12.7918 758 57.5251 463.537 544.251
1936 0 60.1317 12.4726 750 58.7493 463.387 543.481
1937 0 63.1947 14.4158 911 56.3546 463.151 541.56
1938 0 65.3592 13.6477 892 57.296 463.263 541.395
1939 0 66.2945 13.968 926 58.6156 463.318 539.128
1940 0 68.479 13.7852 944 58.3782 463.574 537.722
1941 0 69.2627 12.9362 896 60.0491 463.375 537.964
1942 0 73.4103 14.7799 1085 57.4074 463.509 536.542
1943 0 75.3253 13.9661 1052 59.1027 463.765 533.746
1944 0 77.4676 14.1866 1099 57.6324 463.669 533.086
1945 0 79.4474 13.8456 1100 57.8345 463.915 532.294
1946 0 80.3972 13.9184 1119 57.9151 464.091 531.497
1947 0 82.4434 13.4638 1110 58.5793 463.996 528.833
1948 0 87.3343 14.1182 1233 57.3706 463.702 528.964
1949 0 88.3555 14.1474 1250 57.684 463.841 525.771
1950 0 90.2988 13.9205 1257 58.3095 464.298 524.248
1951 0 96.4302 14.6012 1408 56.8061 464.311 523.75
1952 0 97.2296 15.2423 1482 56.3961 464.532 520.939
1953 0 101.558 14.6714 1490 57.1778 464.773 520.153
1954 0 102.216 14.1759 1449 57.9268 465.029 520.115
1955 0 107.275 14.8218 1590 57.066 465.438 518.365
1956 1 59.1348 12.1925 721 56.7268 465.656 542.067
1957 0 61.247 12.3598 757 56.6803 465.732 540.745
1958 0 63.1939 12.343 780 56.6897 466.073 539.199
1959 0 67.0714 13.9702 937 54.5048 465.991 536.852
1960 0 69.0731 13.7536 950 55.1632 466.194 534.637
1961 0 72.0842 12.7767 921 55.6178 466.384 535.162
1962 0 73.0983 14.1727 1036 54.8417 466.434 533.593
1963 0 76.2566 13.5333 1032 55.2742 466.724 533.136
1964 0 79.1434 12.7237 1007 56.291 467.101 532.662
1965 0 81.2062 13.2748 1078 55.9583 466.804 529.783
1966 0 85.0957 14.6188 1244 54.2484 467.686 526.967
1967 0 85.3154 11.9556 1020 57.1069 467.883 528.276
1968 0 89.285 13.0705 1167 55.6864 468.264 526.063
1969 0 89.2427 11.9001 1062 57.8088 468.689 521.461
1970 0 97.2494 14.1183 1373 54.59 468.621 522.9
1971 0 97.2498 13.9023 1352 56.054 468.897 517.177
1972 0 101.277 14.327 1451 55.6837 468.512 518.136
1973 0 105.384 14.1578 1492 55.624 468.953 518.826
1974 0 108.186 13.865 1500 56.128 469.149 516.141
1975 0 110.197 13.6936 1509 56.8449 469.392 512.459
1976 0 113.211 13.2408 1499 57.3182 469.35 508.933
1977 0 120.138 15.1242 1817 54.8409 469.634 511.146
1978 0 122.252 15.0018 1834 55.3757 469.588 506.001
1979 1 67.1407 11.9897 805 56.1044 469.158 533.284
1980 0 69.0685 11.5248 796 57.1332 469.608 535.27
1981 0 72.1874 12.3429 891 56.8216 469.598 532.258
1982 0 73.17 13.4481 984 55.8659 470.163 531.642
1983 0 77.1502 13.4802 1040 55.5798 469.812 530.56
1984 0 79.1139 13.7902 1091 55.5032 469.734 528.544
1985 0 81.271 12.8336 1043 57.3279 469.721 526.244
1986 0 83.2872 12.8111 1067 57.5483 469.816 524.467
1987 0 87.3027 14.2149 1241 56.0572 469.258 521.07
1988 0 90.1792 12.6858 1144 57.8663 469.286 520.639
1989 0 92.2104 12.992 1198 57.6853 469.327 519.729
1990 0 96.2264 13.728 1321 56.7123 469.014 518.87
1991 0 100.261 13.6842 1372 56.7165 468.854 517.762
1992 0 105.107 14.7088 1546 55.5323 468.401 515.058
1993 0 107.143 13.9253 1492 56.7936 468.294 514.599
1994 1 60.0648 11.8705 713 56.1515 467.548 539.283
1995 0 60.1367 11.5736 696 56.4612 468.726 538.241
1996 0 62.0473 11.6202 721 56.9001 468.878 536.816
1997 0 61.0818 11.6729 713 57.6157 468.332 534.572
1998 0 66.0538 12.3536 816 56.0135 468.374 535.086
1999 0 68.0899 13.5262 921 54.3822 469.163 534.195
2000 0 70.0853 12.3421 865 55.9272 468.946 530.453
2001 0 71.1116 12.4171 883 55.7067 468.815 531.822
2002 0 73.0844 12.9439 946 54.9302 468.552 532.01
2003 0 76.2113 12.6884 967 55.0031 468.498 531.861
2004 0 79.0424 11.8544 937 55.9306 468.027 531.137
2005 0 81.1606 12.0132 975 56.6841 467.878 530.081
2006 0 83.1335 12.7385 1059 55.5401 467.575 527.514
2007 0 87.106 12.8235 1117 55.3304 467.601 526.452
2008 0 89.1171 13.3196 1187 55.1938 467.261 522.308
2009 0 92.1043 13.691 1261 54.59 466.578 523.721
2010 0 94.1169 14.652 1379 53.4982 466.908 522.347
2011 0 96.1591 12.2297 1176 56.2508 466.984 519.897
2012 0 98.1148 13.1886 1294 55.2465 466.939 519.953
2013 0 103.109 13.4518 1387 54.9128 466.808 517.404
2014 0 106.161 13.3947 1422 55.5689 466.949 515.247
2015 1 60.0205 10.3298 620 54.3048 466.447 541.295
2016 0 60.1322 11.6244 699 53.9714 466.303 538.795
2017 0 63.0683 9.35494 590 55.4186 466.424 539.703
2018 0 63.0683 9.38666 592 148.581 466.422 539.691
2019 0 67.0509 11.8417 794 54.1196 466.895 537.859
2020 0 68.1054 12.5247 853 54.0457 466.87 535.156
2021 0 70.1248 11.7647 825 54.9867 467.038 533.839
2022 0 72.1018 12.7043 916 53.9967 466.861 533.902
2023 0 75.0916 13.1839 990 53.8636 466.961 532.335
2024 0 78.177 12.8299 1003 54.3141 466.323 531.191
2025 0 79.1736 12.3652 979 54.9775 466.67 530.22
2026 0 82.1224 11.6046 953 55.6222 466.593 529.191
2027 0 87.1554 13.7341 1197 52.9967 465.945 528.432
2028 0 86.1104 13.3433 1149 54.3577 465.962 525.754
2029 0 90.1911 12.3959 1118 55.1127 465.784 525.419
2030 0 92.1398 12.2314 1127 55.4942 466.122 524.029
2031 0 96.2194 13.251 1275 54.4682 465.914 523.093
2032 1 53.1887 11.2242 597 54.0754 466.367 545.652
2033 0 57.1057 10.2442 585 54.6786 465.609 546.138
2034 0 57.2992 11.8501 679 53.7968 465.872 544.06
2035 0 58.1634 12.3273 717 54.2427 465.029 543.393
2036 0 58.1006 11.2908 656 55.4543 464.979 541.128
2037 0 61.1552 11.4463 700 54.7714 465.387 541.019
2038 0 61.1554 11.7896 721 55.5007 465.112 540.505
2039 0 63.1459 12.9541 818 53.6626 464.806 540.276
2040 0 64.0969 12.7931 820 54.7293 464.627 538.893
2041 0 68.1714 13.114 894 53.3199 464.238 539.597
2042 0 67.1099 11.7717 790 55.6861 464.714 537.929
2043 0 70.1292 11.5929 813 56.0959 464.224 536.466
2044 0 72.1443 12.1978 880 55.9659 464.161 535.36
2045 0 74.1008 12.2671 909 55.8493 464.153 536.999
2046 0 76.1348 12.8588 979 55.8274 464.525 533.092
2047 0 78.1131 12.8916 1007 55.9702 464.329 532.652
2048 0 80.1503 13.1628 1055 55.8654 464.162 533.109
2049 0 81.0536 12.5843 1020 57.2265 463.705 528.832
2050 0 84.2481 13.116 1105 56.6706 463.9 528.846
2051 0 89.067 13.6526 1216 55.4572 463.892 529.173
2052 0 88.0632 13.513 1190 56.8336 463.271 527.827
2053 0 92.3147 12.2299 1129 57.8911 463.317 527.426
2054 0 94.1306 13.7893 1298 58.9884 463.341 524.129
2055 0 96.1039 13.6311 1310 59.2779 463.047 525.326
2056 0 101.222 13.9198 1409 59.1001 462.864 523.425
2057 0 102.265 13.1325 1343 60.4609 462.916 521.118
2058 0 106.258 13.5237 1437 59.7376 463.025 520.545
2059 0 109.206 14.4222 1575 58.7841 463.275 517.633
2060 0 112.187 13.638 1530 59.7948 462.562 517.771
2061 0 113.14 14.0357 1588 59.7979 462.7 515.538
2062 0 118.228 13.4063 1585 60.4208 463.017 513.917
2063 1 65.0722 9.83524 640 60.4172 462.056 543.978
2064 0 69.1163 11.0683 765 59.2562 462.58 541.914
2065 0 71.1285 12.7375 906 58.0287 462.948 540.38
2066 0 74.0868 13.3357 988 57.2814 463.11 537.221
2067 0 76.041 13.2034 1004 57.8496 463.349 536.65
2068 0 79.0615 13.1164 1037 58.4619 463.635 534.201
2069 0 81.2132 13.5938 1104 58.2817 463.46 532.686
2070 0 83.1969 13.2337 1101 59.3034 463.577 531.798
2071 0 86.1947 13.9336 1201 58.9917 463.296 530.202
2072 0 91.1484 13.7578 1254 59.1738 463.714 529.518
2073 0 92.2012 13.438 1239 60.176 463.447 526.668
2074 0 95.1709 14.4267 1373 59.713 463.706 525.552
2075 0 97.2459 13.543 1317 61.0562 464.418 524.547
2076 0 101.162 14.1259 1429 60.2197 464.51 524.16
2077 0 104.169 13.8429 1442 60.8024 464.912 523.347
2078 0 103.143 13.8351 1427 62.4324 465.108 518.198
2079 0 108.155 12.8427 1389 63.5781 465.232 516.599
2080 0 112.294 14.088 1582 62.2699 465.618 515.1
2081 1 65.2078 10.5202 686 63.051 465.283 540.803
2082 0 67.0842 12.2234 820 61.861 466.276 540.673
2083 0 68.1348 12.3138 839 62.4124 466.074 539.231
2084 0 70.1823 12.9947 912 62.4792 466.432 536.527
2085 0 72.1975 12.7567 921 63.0423 466.025 535.469
2086 0 75.0962 13.8889 1043 61.8111 465.972 534.054
2087 0 76.3264 13.2588 1012 63.1591 466.15 533.53
2088 0 77.3466 13.5623 1049 63.2345 466.265 530.839
2089 0 81.1369 13.5573 1100 63.2618 466.444 530.008
2090 0 83.2303 14.4058 1199 62.8249 466.435 527.114
2091 0 84.2752 12.7796 1077 65.3918 466.341 526.516
2092 0 87.2609 14.8749 1298 63.5801 467.2 524.765
2093 0 90.2784 13.4584 1215 65.6486 466.876 523.329
2094 0 95.184 14.4142 1372 63.7136 466.884 522.214
2095 0 98.1557 14.5178 1425 63.4484 467.4 523.293
2096 0 100.529 14.1153 1419 64.5779 467.478 517.91
2097 0 102.226 14.0963 1441 64.8473 467.191 519.44
2098 0 104.238 14.6684 1529 64.446 467.199 518.288
2099 0 108.208 14.3057 1548 64.8637 467.711 516.713
2100 0 111.123 14.0384 1560 65.5686 467.758 514.9
2101 1 60.1631 10.5546 635 67.2819 467.476 540.539
2102 0 65.1378 11.3145 737 66.2904 467.825 539.271
2103 0 64.1097 11.4803 736 66.8533 467.505 537.357
2104 0 68.2366 13.4092 915 64.6426 468.566 535.618
2105 0 71.1276 13.2298 941 65.0701 468.546 534.255
2106 0 74.2305 13.1482 976 64.5994 469.159 531.267
2107 0 77.2228 14.4517 1116 62.9919 469.401 530.601
2108 0 81.288 13.3599 1086 63.8361 469.43 531.656
2109 0 82.0998 12.9598 1064 65.2857 469.421 528.057
2110 0 86.2082 12.8874 1111 65.3087 469.159 525.408
2111 0 88.1777 14.6976 1296 62.973 469.603 524.184
2112 0 92.3067 14.701 1357 62.6699 469.236 523.542
2113 0 92.4211 13.1355 1214 65.257 469.286 522.898
2114 0 96.2524 13.9425 1342 63.8547 469.566 519.896
2115 0 102.305 14.232 1456 62.6422 469.171 519.141
2116 0 105.399 14.298 1507 62.2794 469.005 516.809
2117 1 56.3615 10.4149 587 64.4123 468.44 540.806
2118 0 59.3999 11.7677 699 62.2246 468.154 539.728
2119 0 58.5012 11.6579 682 63.1173 467.968 539.342
2120 0 62.3553 13.1825 822 61.1837 468.31 536.824
2121 0 63.3954 12.9189 819 62.0635 468.462 536.796
2122 0 65.1954 12.1021 789 63.3663 468.466 535.63
2123 0 69.0704 13.7686 951 60.6709 468.57 534.673
2124 0 70.2955 13.0734 919 62.062 468.319 533.086
2125 0 72.1787 13.6051 982 61.2688 468.469 533.575
2126 0 74.1588 12.5541 931 62.5757 467.988 530.203
2127 0 76.1455 12.7519 971 62.2976 467.393 531.663
2128 0 79.2344 12.8984 1022 61.8258 467.449 530.736
2129 0 81.1594 13.7754 1118 61.2728 467.006 526.427
2130 0 83.097 13.3819 1112 61.3867 466.883 524.138
2131 0 88.0976 13.7461 1211 60.3526 467.149 526.292
2132 0 90.2689 13.8918 1254 60.3341 467.286 523.453
2133 0 93.1507 13.6016 1267 60.7466 467.3 522.676
2134 0 94.1132 12.5806 1184 62.4671 467.923 520.639
2135 0 99.2711 13.1962 1310 60.558 467.804 521.706
2136 0 100.223 13.6695 1370 60.3161 466.593 516.107
2137 0 104.231 13.1919 1375 60.1462 467.292 514.839
2138 0 108.199 14.3255 1550 58.8226 466.781 514.627
2139 0 109.14 12.681 1384 61.1655 466.747 513.208
2140 1 63.1188 10.7575 679 59.5965 466.178 539.514
2141 0 66.0714 10.6097 701 60.7546 466.136 535.531
2142 0 69.0908 11.304 781 60.539 465.963 534.648
2143 0 72.051 13.4072 966 57.8395 466.919 534.787
2144 0 72.051 13.4766 971 140.289 466.926 534.78
2145 0 74.1567 12.541 930 60.2312 466.21 534.264
2146 0 78.132 12.8117 1001 59.8502 466.161 532.48
2147 0 81.1849 12.7979 1039 59.4601 465.914 532.77
2148 0 83.0741 13.2653 1102 59.4628 465.574 530.037
2149 0 87.1208 12.4769 1087 60.4811 466.178 528.447
2150 0 88.2414 13.6671 1206 59.3914 466.523 528.856
2151 0 93.1273 13.2614 1235 59.9263 465.696 528.459
2152 0 95.2604 13.4893 1285 60.4117 465.944 524.406
2153 0 97.0867 13.2253 1284 60.8832 465.881 523.149
2154 0 101.159 13.6122 1377 60.6877 465.699 520.747
2155 0 104.237 13.1719 1373 61.059 465.691 519.156
2156 0 106.126 13.6254 1446 61.0443 465.527 516.356
2157 0 109.163 13.7501 1501 61.2265 465.472 517.546
2158 1 60.0825 10.7186 644 62.9503 465.384 538.27
2159 0 63.2178 10.2345 647 62.6785 465.592 540.031
2160 0 64.0601 10.2404 656 61.747 465.357 539.567
2161 0 66.1147 10.875 719 61.8428 464.669 537.353
2162 0 68.2057 11.9198 813 60.4588 465.367 534.501
2163 0 69.2388 12.1175 839 61.3552 464.739 534.667
2164 0 74.1132 12.9666 961 59.5047 464.585 534.248
2165 0 75.2121 13.0165 979 59.9612 464.605 532.987
2166 0 78.1124 13.3526 1043 59.5887 464.908 532.294
2167 0 79.1597 12.7338 1008 60.9008 464.923 531.099
2168 0 81.0935 13.4536 1091 60.0862 465.26 527.811
2169 0 86.1479 13.5233 1165 59.9099 464.976 528.886
2170 0 87.1641 13.3541 1164 60.5249 465.056 525.924
2171 0 89.2193 13.6854 1221 60.1851 465.038 523.348
2172 0 90.1601 13.5759 1224 60.6544 464.814 522.496
2173 0 95.2598 13.7099 1306 60.1593 465.149 521.9
2174 0 98.0976 13.5375 1328 60.4586 464.529 521.767
2175 0 101.153 13.9986 1416 59.8178 464.944 518.014
2176 0 104.251 14.1677 1477 59.4083 464.49 517.656
2177 0 106.126 13.2956 1411 61.1687 465.247 517.449
2178 0 110.273 14.0016 1544 60.4514 465.178 516.273
2179 0 112.296 13.9987 1572 60.3085 464.223 512.211
2180 0 117.221 15.4324 1809 58.9795 464.711 513.933
2181 0 119.21 14.3528 1711 60.7282 464.48 511.373
2182 0 123.147 14.4299 1777 60.7096 464.597 508.019
2183 0 128.222 14.3345 1838 60.7111 464.356 505.833
2184 0 130.231 13.7601 1792 61.5597 464.767 504.553
2185 1 72.2609 11.7353 848 60.862 464.663 535.167
2186 0 77.4623 11.3862 882 60.5306 464.697 533.211
2187 0 78.2966 11.4181 894 61.0548 465.26 531.526
2188 0 81.2201 12.5338 1018 59.334 465.07 529.104
2189 0 84.2599 12.9006 1087 58.8059 465.458 528.592
2190 0 85.1599 12.7173 1083 59.3555 465.562 525.238
2191 0 90.3643 13.6337 1232 59.0747 466.085 526.94
2192 0 92.4812 13.4622 1245 59.8594 465.978 525.374
2193 0 97.4356 14.4403 1407 58.5707 466.173 522.873
2194 0 98.4212 13.3406 1313 59.5842 466.156 523.436
2195 0 101.4 12.7219 1290 60.7884 466.367 519.104
2196 0 104.328 13.4768 1406 59.8542 467.109 519.401
2197 0 108.303 13.9793 1514 58.8289 466.933 516.797
2198 0 111.344 13.8849 1546 59.1442 467.508 514.888
2199 0 111.342 12.3852 1379 61.5105 467.509 511.515
2200 0 118.204 14.4495 1708 58.2272 467.795 511.821
2201 0 119.233 12.6559 1509 60.841 467.736 510.097
2202 0 125.167 13.9494 1746 58.3476 468.477 507.963
2203 0 128.238 13.3501 1712 59.8306 468.246 506.73
2204 0 131.266 13.865 1820 59.5467 468.584 505.496
2205 0 135.168 14.1824 1917 59.2134 468.389 501.789
2206 0 140.345 14.1865 1991 58.9257 468.474 498.071
2207 0 142.299 13.3803 1904 60.2794 469.038 496.656
2208 0 147.203 14.9386 2199 58.2688 468.958 496.175
2209 0 149.182 12.7026 1895 61.2902 469.476 494.34
2210 0 157.323 14.4734 2277 58.9043 469.125 490.347
2211 0 160.15 13.4374 2152 60.6194 468.723 487.517
2212 0 165.162 14.0226 2316 59.0376 469.068 483.982
2213 1 94.073 11.4592 1078 59.8219 469.012 520.157
2214 0 98.3647 11.3659 1118 59.3891 469.998 520.815
2215 0 101.151 12.3083 1245 57.8699 469.641 521.243
2216 0 103.142 12.3131 1270 58.211 470.127 518.758
2217 0 109.164 14.0431 1533 56.6888 469.948 514.819
2218 0 111.29 13.1638 1465 57.7891 470.73 511.939
2219 0 114.152 12.5272 1430 58.207 470.563 514.608
2220 0 117.253 12.4432 1459 59.1145 469.692 509.319
2221 0 121.328 13.1379 1594 58.579 470.028 508.147
2222 0 124.246 13.5054 1678 57.8343 470.149 508.065
2223 0 128.308 14.2158 1824 57.3366 470.366 503.857
2224 0 132.304 13.333 1764 58.4104 470.528 502.384
2225 0 136.285 13.4424 1832 58.0328 470.359 497.844
2226 0 141.294 14.0629 1987 57.4082 470.246 496.909
2227 1 78.1557 11.106 868 57.9493 469.995 527.429
2228 0 81.1819 10.7659 874 57.5503 469.982 529.545
2229 0 82.1551 10.9184 897 58.5619 469.915 529.584
2230 0 86.0885 11.372 979 57.9316 470.1 528.461
2231 0 89.1507 11.3067 1008 58.371 470.556 523.848
2232 0 92.2225 12.7735 1178 56.0823 469.884 523.025
2233 0 96.1654 12.1561 1169 56.8186 470.276 523.543
2234 0 100.205 13.6121 1364 55.0638 469.396 519.971
2235 0 101.17 12.7409 1289 56.1862 468.892 518.436
2236 0 104.399 13.0365 1361 55.8597 468.616 517.126
2237 0 108.122 13.383 1447 55.5819 468.613 513.115
2238 0 112.206 13.7426 1542 55.0506 468.518 515.923
2239 0 116.184 14.193 1649 54.3766 468.337 513.36
2240 0 117.178 12.784 1498 56.4306 468.298 512.819
2241 0 122.28 13.649 1669 55.3277 468.723 507.765
2242 0 126.389 13.7116 1733 55.1096 468.372 505.831
2243 0 128.621 13.5281 1740 55.5397 468.918 505.424
2244 0 131.463 12.8629 1691 56.6872 469.682 502.486
2245 0 136.431 13.6993 1869 55.6378 468.916 499.945
2246 1 78.2247 10.521 823 54.7546 467.736 532.484
2247 0 81.2816 11.9215 969 54.4159 468.312 528.457
2248 0 82.421 11.9751 987 53.6251 467.789 530.525
2249 0 85.2513 11.8356 1009 54.78 467.612 527.551
2250 0 87.1258 13.1993 1150 54.2609 468.144 524.562
2251 0 90.1469 13.8995 1253 53.4637 468.049 523.616
2252 0 92.2679 12.4745 1151 55.3562 468.107 524.568
2253 0 96.1728 13.7149 1319 54.9454 467.182 521.673
2254 0 98.2549 12.7322 1251 56.51 467.263 519.871
2255 0 101.165 13.5521 1371 56.3311 467.132 520.502
2256 0 104.229 13.9405 1453 56.201 467.01 520.335
2257 0 107.289 13.7106 1471 56.7138 466.725 519.308
2258 0 110.19 13.3497 1471 57.6628 466.695 516.997
2259 0 114.245 13.0509 1491 58.446 466.385 511.552
2260 0 117.197 13.6011 1594 58.2785 466.516 511.963
2261 1 67.134 11.0972 745 59.0617 465.987 537.411
2262 0 71.0949 11.8011 839 57.9642 466.273 537.538
2263 0 71.1418 12.1588 865 58.2821 466.543 536.586
2264 0 73.1125 12.1867 891 60.468 467.057 536.567
2265 0 75.0804 12.4933 938 59.8497 467.613 533.654
2266 0 77.0657 12.9889 1001 59.4146 467.152 533.28
2267 0 80.0873 13.9723 1119 58.6193 468.44 533.252
2268 0 83.072 14.1082 1172 58.8669 468.158 532.849
2269 0 85.1856 13.8756 1182 59.2242 468.166 532.163
2270 0 87.0912 14.3528 1250 59.2456 467.939 529.744
2271 0 88.2211 12.7974 1129 61.9052 467.882 529.355
2272 0 93.2387 13.7068 1278 60.1792 467.954 526.081
2273 0 93.3886 14.081 1315 60.9057 467.406 524.995
2274 0 97.2911 13.3825 1302 61.8187 467.36 525.528
2275 0 100.195 14.4418 1447 60.5225 467.093 524.15
2276 0 102.226 14.3994 1472 61.4321 466.842 520.884
2277 0 105.32 14.812 1560 61.1096 466.38 520.947
2278 0 105.32 14.7645 1555 155.324 466.386 520.943
2279 0 110.183 13.8224 1523 62.5568 466.838 517.431
2280 0 113.218 14.1762 1605 62.2748 466.442 514.869
2281 0 118.272 14.2299 1683 62.0879 466.444 512.395
2282 0 120.383 14.1132 1699 62.9706 466.453 510.976
2283 0 123.466 14.3684 1774 62.425 466.123 507.661
2284 0 129.353 14.3638 1858 62.6421 466.292 505.588
2285 0 132.624 14.477 1920 62.7312 465.927 502.061
2286 0 137.572 14.8649 2045 61.7658 466.199 501.21
2287 1 74.7424 12.6167 943 63.5557 465.406 531.637
2288 0 76.7703 12.6611 972 63.7304 465.899 531.175
2289 0 79.4911 14.0519 1117 62.9955 465.88 528.615
2290 0 80.4939 13.4793 1085 63.9567 465.879 527.477
2291 0 84.5421 13.7683 1164 63.244 465.617 526.168
2292 0 87.4245 14.218 1243 62.4095 466.009 523.73
2293 0 91.75 14.0599 1290 62.2558 465.695 522.669
2294 0 95.4991 15.0787 1440 61.4181 465.214 520.674
2295 0 96.8053 14.555 1409 62.2853 466.049 518.716
2296 0 100.666 14.563 1466 61.6808 466.254 517.795
2297 0 100.348 14.7586 1481 62.526 466.176 517.467
2298 0 106.526 14.5693 1552 62.7784 466.23 515.474
2299 0 108.531 14.2263 1544 62.9851 466.135 514.58
2300 0 114.465 15.0701 1725 61.0244 466.011 513.366
2301 0 118.608 15.5217 1841 60.2526 465.844 506.24
2302 0 121.546 14.727 1790 61.6045 466.189 507.672
2303 0 125.468 14.8802 1867 61.7788 465.822 505.953
2304 0 128.566 15.5407 1998 60.9755 465.616 503.947
2305 0 132.461 14.4571 1915 62.318 465.719 503.203
2306 0 137.32 15.686 2154 60.7219 465.472 499.587
2307 0 139.379 13.5889 1894 63.6035 465.607 498.432
2308 1 79.3861 12.1306 963 63.9657 465.156 528.342
2309 0 81.384 13.5039 1099 62.6406 465.429 527.169
2310 0 82.2015 13.0776 1075 64.1935 465.561 524.328
2311 0 87.2602 13.878 1211 62.9505 465.412 524.666
2312 0 91.3643 14.4039 1316 62.3321 465.235 523.146
2313 0 94.4767 13.9823 1321 63.1226 465.647 520.38
2314 0 97.2254 14.1733 1378 62.8911 465.565 518.954
2315 0 101.448 14.3818 1459 62.5565 465.713 517.066
2316 0 103.412 14.2827 1477 63.7536 465.789 514.867
2317 0 107.377 14.2862 1534 63.914 465.604 514.654
2318 0 110.243 14.5134 1600 64.2112 465.975 512.011
2319 0 115.347 14.3047 1650 65.1097 466.144 508.024
2320 0 117.353 14.188 1665 65.7363 466.488 507.43
2321 0 121.337 14.7441 1789 64.6713 466.694 507.576
2322 0 127.34 14.7793 1882 64.6817 466.647 503.874
2323 0 130.365 15.1958 1981 64.4977 466.55 503.016
2324 0 133.238 14.4253 1922 66.2997 467.081 497.888
2325 0 139.243 13.9971 1949 66.6208 467.42 498.54
2326 0 143.327 15.182 2176 65.2045 466.925 493.584
2327 0 148.634 15.0706 2240 65.8165 467.858 490.891
2328 0 154.242 14.8792 2295 66.1298 467.816 486.241
2329 1 82.1482 11.321 930 69.357 467.617 521.91
2330 0 85.3929 11.8043 1008 68.8641 467.741 519.351
2331 0 92.0895 13.1503 1211 66.526 468.243 518.786
2332 0 93.1958 13.9384 1299 66.6551 468.34 518.009
2333 0 98.2739 14.5613 1431 65.8246 468.064 517.606
2334 0 99.3279 13.5712 1348 68.2337 467.999 514.391
2335 0 104.234 14.1413 1474 67.1296 468.172 513.001
2336 0 106.16 14.4028 1529 67.5481 468.282 510.506
2337 0 111.342 14.1276 1573 67.616 468.046 508.538
2338 0 114.416 13.7131 1569 68.5054 468.303 507.814
2339 0 119.39 14.2558 1702 67.9565 468.529 506.478
2340 0 123.401 15.7212 1940 65.484 468.398 504.749
2341 0 128.248 14.9086 1912 67.1271 468.27 501.779
2342 0 129.152 13.5731 1753 69.8003 468.979 497.975
2343 0 136.214 14.3744 1958 67.7191 469.117 495.875
2344 0 141.49 14.8844 2106 67.2013 469.147 492.18
2345 0 146.188 14.1941 2075 67.4357 469.12 492.895
2346 0 150.302 14.1049 2120 68.2009 469.259 488.306
2347 1 85.177 12.8086 1091 67.5408 468.998 521.787
2348 0 89.1418 12.7886 1140 67.7246 469.617 521.825
2349 0 91.086 13.4159 1222 67.239 469.845 520.375
2350 0 96.0904 13.7787 1324 66.781 469.928 517.743
2351 0 97.1427 13.1765 1280 68.5375 469.467 514.494
2352 0 99.1065 13.43 1331 68.7468 469.667 515.272
2353 0 104.191 14.4734 1508 66.9993 469.757 512.641
2354 0 107.157 14.4368 1547 67.8171 469.341 510.462
2355 0 109.095 13.2178 1442 69.6449 469.357 508.555
2356 0 113.119 12.8626 1455 70.123 469.591 508.436
2357 0 120.249 15.5678 1872 65.7981 469.57 506.517
2358 0 122.125 14.6244 1786 68.6204 469.78 504.965
2359 0 127.21 14.9202 1898 67.6491 469.79 501.436
2360 0 130.231 14.5664 1897 69.1745 469.325 500.593
2361 0 134.202 14.9402 2005 68.9267 469.006 500.474
2362 0 139.122 14.6849 2043 69.8135 469.332 495.67
2363 0 144.175 14.2812 2059 69.6003 469.423 494.003
2364 0 147.22 15.0659 2218 69.1285 469.052 490.406
2365 0 153.178 15.766 2415 68.0095 468.675 490.953
2366 0 157.214 14.4453 2271 70.5751 468.745 485.746
2367 0 164.18 14.5328 2386 70.0583 468.427 484.597
2368 0 168.298 15.1696 2553 69.8962 468.26 482.648
2369 0 172.201 14.7502 2540 70.9874 468.246 479.916
2370 0 177.212 14.7451 2613 71.5603 468.326 477.558
2371 0 185.234 16.3523 3029 68.0829 467.911 471.427
2372 0 189.29 15.1514 2868 70.7312 467.803 469.347
2373 0 196.246 15.6181 3065 70.3426 467.743 467.022
2374 0 202.211 14.5047 2933 72.5721 467.432 462.705
2375 0 208.214 14.7349 3068 72.5704 467.646 456.818
2376 0 213.424 15.9916 3413 70.4647 467.518 458.875
2377 1 43.029 8.06434 347 60.8934 467.648 546.369
2378 0 47.0581 8.28763 390 59.0949 468.338 547.897
2379 0 46.0364 9.9921 460 58.0956 468.063 546.059
2380 0 43.028 8.55257 368 59.8668 468.663 547.799
2381 0 45.0266 9.32783 420 56.9071 468.031 547.664
2382 0 46.0662 9.52976 439 57.1982 468.446 546.754
2383 0 49.0383 9.82905 482 56.6452 468.241 547.442
2384 0 46.0561 9.68385 446 58.4013 468.605 548.453
2385 0 49.0124 10.9768 538 57.3364 468.634 547.42
2386 0 46.0763 10.2005 470 59.7872 468.164 548.528
2387 0 47.0497 9.88317 465 60.6022 468.761 548.411
2388 0 46.0436 10.338 476 61.3235 468.45 547.733
2389 0 49.0405 10.8686 533 60.516 468.644 548.19
2390 0 49.0576 9.82518 482 62.4419 466.902 548.419
2391 0 49.115 10.6078 521 62.1344 466.954 547.877
2392 0 50.0465 11.2895 565 61.5522 466.45 548.467
2393 0 48.1081 10.4141 501 63.7884 466.774 547.491
2394 0 49.1349 10.3796 510 64.2412 466.384 548.273
2395 0 50.1739 10.9818 551 64.1016 466.715 547.476
2396 0 50.207 10.2177 513 65.5595 466.949 548.207
2397 0 51.1924 10.8805 557 65.237 466.917 547.691
2398 0 51.1492 11.8086 604 64.3212 467.134 547.508
2399 0 49.1024 10.8141 531 66.5122 467.181 548.516
2400 0 50.1626 10.6254 533 67.1538 466.315 548.336
2401 0 53.0298 11.3521 602 65.7392 466.384 548.706
