time division length width area intensity CMx CMy
0 0 43.0875 11.465 494 88.5364 151.409 582.648
1 0 44.0603 10.8942 480 88.8062 151.181 583.421
2 0 45.0381 12.3229 555 87.0685 151.533 582.005
3 0 47.1356 12.1564 573 86.6422 150.885 581.949
4 0 49.0905 11.4075 560 88.875 150.998 579.436
5 0 51.1119 12.5607 642 86.014 151.022 579.34
6 0 50.0786 12.0011 601 87.817 150.844 578.135
7 0 54.1323 13.116 710 84.3746 150.939 576.144
8 0 57.132 12.2698 701 85.4608 151.262 576.501
9 0 57.1093 12.1346 693 86.9365 151.082 575.395
10 0 60.1616 13.2144 795 84.5006 151.604 575.049
11 0 61.1238 13.3172 814 85.7445 151.361 572.128
12 0 65.1073 12.6253 822 85.8114 151.002 571.641
13 0 66.2322 12.7883 847 85.7532 150.857 570.358
14 0 70.2126 12.8325 901 85.6582 150.596 568.21
15 0 71.1674 12.6322 899 85.9533 151.227 568.136
16 1 35.1403 9.98852 351 87.3846 151.946 585.077
17 0 39.2166 11.3217 444 82.6261 151.394 584.441
18 0 40.3425 10.7579 434 84.1429 151.933 582.968
19 0 41.1966 12.1612 501 81.5569 151.796 582.435
20 0 40.2096 11.7882 474 84.2553 152.158 582.076
21 0 44.2325 11.6882 517 84.6074 151.824 580.847
22 0 45.2417 12.3117 557 84.0808 151.957 580.77
23 0 47.2214 12.092 571 84.4816 152.431 579.124
24 0 47.1989 11.2926 533 87.2233 152.032 578.936
25 0 50.2029 12.4694 626 84.3355 152.471 578.248
26 0 51.2993 12.4173 637 84.8618 152.436 576.915
27 0 53.2589 12.2233 651 85.0737 152.803 576.65
28 0 55.3266 12.9413 716 83.2765 152.271 575.542
29 0 56.198 12.3314 693 85.2078 152.413 575.079
30 0 58.2171 13.3294 776 82.9523 152.523 574.661
31 0 58.1573 12.6725 737 85.3121 152.659 574.019
32 0 61.257 13.5168 828 83.3007 152.559 571.206
33 0 65.2345 13.0606 852 82.743 152.905 572.016
34 1 32.0918 10.2207 328 87.0152 153.881 585.787
35 0 34.1255 9.40645 321 87.6947 154.003 586.38
36 0 36.0691 10.674 385 84.4234 153.886 585.548
37 0 36.1261 10.8509 392 84.2296 153.957 584.967
38 0 38.1315 11.6177 443 83.2506 153.833 584.027
39 0 40.1234 12.2123 490 82.5816 153.327 582.251
40 0 40.1726 12.5707 505 81.8376 153.002 583.123
41 0 43.2409 11.9794 518 80.7046 153.635 582.647
42 0 44.2825 12.2622 543 81.046 153.525 581.74
43 0 44.2445 12.9056 571 80.7023 152.981 581.515
44 0 44.1316 12.5987 556 82.313 153.205 581.074
45 0 46.1434 12.2878 567 82.2981 153.954 580.855
46 0 48.1761 13.3054 641 80.546 153.56 579.326
47 0 48.1883 12.8662 620 82.371 153.347 579.069
48 0 49.186 12.2596 603 84.7794 153.073 577.109
49 0 51.241 13.5634 695 81.9712 152.999 577.368
50 0 53.254 13.5952 724 80.9972 152.297 577.362
51 0 53.1874 13.3302 709 83.1566 152.54 576.68
52 0 55.2384 13.5594 749 81.4766 152.806 577.417
53 0 57.2668 14.0919 807 81.1041 152.154 575.218
54 0 58.1331 13.9679 812 72.633 151.711 573.712
55 0 59.1874 13.9726 827 73.4462 151.93 573.578
56 0 61.1654 13.8477 847 74.7273 152.149 571.653
57 0 62.1197 12.7979 795 75.5799 152.433 570.416
58 0 65.1315 13.9257 907 72.8765 152.34 570.445
59 0 68.1396 13.4136 914 74.0908 152.236 569.135
60 0 70.2415 13.2685 932 75.1459 152.654 568.512
61 0 71.1592 13.4768 959 75.9583 152.566 566.249
62 0 75.1864 14.3244 1077 73.3658 152.603 565.889
63 1 39.0797 10.2611 401 77.9077 152.596 583.534
64 0 39.1112 11.5312 451 77.0066 152.896 582.02
65 0 40.0931 11.2987 453 77.4746 153.082 581.424
66 0 43.2092 11.5716 500 75.404 152.9 581.594
67 0 44.1992 12.1043 535 75.9645 152.955 579.688
68 0 45.1895 12.2816 555 75.1712 153.059 579.739
69 0 47.2081 13.0062 614 73.259 153.503 578.855
70 0 46.1512 12.8274 592 75.7449 153.715 577.985
71 0 47.125 12.4775 588 76.6122 154.015 577.117
72 0 50.205 13.2258 664 74.1672 154.209 576.217
73 0 49.1373 12.5974 619 76.0678 154.246 575.299
74 0 53.1952 12.6139 671 75.3085 154.408 574.759
75 0 54.1225 13.026 705 74.6043 154.816 572.725
76 0 56.1057 12.5834 706 74.9632 154.908 573.496
77 0 57.1155 13.8316 790 73.0696 155.175 571.413
78 0 58.1984 13.4024 780 72.891 154.904 571.453
79 0 59.1718 13.2833 786 73.8906 155.151 569.517
80 0 61.241 13.2428 811 73.3452 155.31 568.306
81 0 65.1463 13.0015 847 73.3943 155.479 566.214
82 0 66.2312 13.5435 897 72.0914 155.803 564.972
83 0 68.2453 13.554 925 72.2703 156.286 563.774
84 0 70.3337 13.5355 952 72.5525 156.464 561.92
85 0 73.3505 13.6195 999 72.1231 156.855 559.869
86 0 77.4622 13.5937 1053 71.4122 156.958 557.712
87 0 79.2791 13.4462 1066 71.5572 156.873 556.713
88 1 40.3684 10.7758 435 73.269 157.749 574.963
89 0 43.2133 10.992 475 70.6905 157.741 574.75
90 0 45.2225 12.1842 551 69.9111 157.328 572.408
91 0 46.157 11.9808 553 72.1863 157.75 571.519
92 0 48.2145 11.5111 555 72.7099 157.832 571.744
93 0 48.0789 12.1883 586 72.0205 157.985 570.72
94 0 48.1384 12.381 596 72.2232 158.089 570.609
95 0 50.1414 12.6044 632 71.4335 158.214 568.581
96 0 53.2497 13.4085 714 69.1429 158.578 568.483
97 0 54.1392 13.1697 713 93.8443 158.438 569.363
98 0 56.2246 14.3354 806 67.3722 158.431 568.455
99 0 57.1766 12.785 731 70.0684 158.208 566.776
100 0 59.2561 13.0957 776 70.4832 158.646 565.415
101 0 61.2359 13.0479 799 70.6145 158.791 563.78
102 0 62.2812 13.7281 855 69.7836 158.835 561.84
103 0 64.3538 13.2393 852 71.1174 159.005 561.406
104 0 65.4336 13.2501 867 72.1119 159.035 561.166
105 0 67.262 13.7819 927 72.534 159.337 559.207
106 0 70.53 14.2634 1006 72.4771 159.585 556.72
107 0 73.4464 13.4248 986 73.9533 159.512 556.453
108 0 76.5223 13.7346 1051 72.8411 159.114 554.859
109 0 77.1964 13.239 1022 73.4491 159.594 554.836
110 1 42.2822 11.305 478 73.7803 159.751 572.236
111 0 44.1555 11.4142 504 73.9167 159.069 571.714
112 0 45.1579 12.3345 557 74.3878 159.221 569.415
113 0 47.1598 11.9806 565 74.4956 159.039 569.692
114 0 48.2082 12.7572 615 73.4683 159.377 569.015
115 0 50.1714 12.5171 628 74.5653 159.072 567.172
116 0 53.2791 12.9319 689 73.6241 159.3 566.525
117 0 53.154 12.8683 684 74.4225 159.148 565.728
118 0 56.1931 13.4002 753 73.1315 159.089 564.255
119 0 58.1329 13.5895 790 72.9937 158.808 563.684
120 0 59.1953 13.599 805 73.5155 158.839 562.663
121 0 60.1156 13.9897 841 72.9512 158.901 561.702
122 0 63.1299 12.799 808 74.3267 159.01 560.135
123 0 65.101 13.3639 870 73.6012 159.259 559.192
124 0 68.2543 13.8746 947 72.3305 158.785 559.278
125 0 69.1781 13.4147 928 73.6336 158.864 557.825
126 0 71.1782 12.9394 921 74.3854 158.936 557.258
127 0 74.2373 13.6858 1016 73.69 158.685 555.365
128 0 77.168 12.881 994 74.9034 158.609 553.634
129 0 80.3606 13.8003 1109 73.4157 158.829 551.859
130 0 83.2689 13.8587 1154 73.1499 158.679 550.817
131 0 85.191 13.8512 1180 73.4729 158.216 550.785
132 0 88.2639 13.5956 1200 74.1267 157.838 548.182
133 1 47.0944 10.7868 508 75.1457 158.291 569.77
134 0 50.1541 11.4248 573 74.2513 158.138 568.442
135 0 51.072 11.2195 573 74.6649 158.154 567.688
136 0 51.1151 11.7186 599 74.5559 157.888 566.389
137 0 53.0888 12.1871 647 74.3246 157.658 564.277
138 0 56.0833 11.9109 668 73.8264 157.826 564.795
139 0 59.0605 12.5803 743 72.3284 157.487 563.502
140 0 59.0726 12.527 740 73.1459 157.151 561.97
141 0 60.1353 12.3555 743 73.3944 157.156 563.279
142 0 62.1482 12.5185 778 72.9332 157.278 562.32
143 0 65.1588 13.352 870 71.3506 157.014 560.636
144 0 67.1424 12.9724 871 72.3513 157.103 560.541
145 0 69.1985 13.165 911 72.4984 157.614 558.829
146 0 71.1228 12.7104 904 73.3219 157.142 558.708
147 0 74.2004 14.0026 1039 71.5168 157.576 556.248
148 0 77.139 13.6248 1051 72.3368 157.542 555.618
149 0 79.1191 13.0057 1029 73.8795 157.613 553.436
150 0 81.1414 13.2238 1073 73.4911 157.696 553.431
151 0 84.1804 13.8987 1170 72.9923 157.713 551.489
152 0 87.1542 13.5507 1181 73.7798 157.709 548.043
153 0 90.1829 13.8385 1248 73.4575 157.645 547.422
154 0 93.1099 13.8116 1286 73.5303 157.997 546.756
155 1 47.0469 10.4364 491 73.8697 159.033 570.77
156 0 50.0991 10.0201 502 74.504 159.147 571.092
157 0 52.1228 12.0293 627 72.6236 159.211 567.77
158 0 52.0659 11.9272 621 72.9436 158.966 567.042
159 0 54.0473 11.86 641 72.507 158.95 566.619
160 0 55.0835 12.3449 680 71.9309 158.606 565.39
161 0 58.0896 11.8094 686 72.1516 157.844 563.669
162 0 61.1501 12.8045 783 69.8761 157.779 563.029
163 0 62.0983 12.0132 746 71.0483 157.375 562.637
164 0 64.1096 12.3227 790 71.3747 157.32 560.234
165 0 66.165 12.9978 860 69.7221 157.716 558.77
166 0 66.1457 12.8051 847 70.5325 157.569 558.084
167 0 71.2111 11.8942 847 70.8512 157.952 558.123
168 0 73.235 12.9446 948 69.7194 158.782 556.731
169 0 76.3029 12.5683 959 70.3577 158.444 553.232
170 0 80.1363 13.9512 1118 67.39 158.644 553.308
171 0 81.3065 12.2253 994 70.3873 159.109 551.476
172 0 85.3114 13.0815 1116 69.0161 158.689 550.983
173 0 85.3599 11.9611 1021 71.4594 158.814 549.25
174 1 44.256 10.8912 482 68.6183 158.983 570.131
175 0 47.1798 11.0005 519 68.6224 159.077 569.054
176 0 46.1629 11.3078 522 69.4732 159.458 568.314
177 0 49.2539 11.6133 572 68.6469 159.33 566.416
178 0 51.1663 11.9024 609 68.9376 159.525 565.135
179 0 52.1068 11.8986 620 69.4758 159.247 565.589
180 0 53.1876 11.8449 630 70.0905 159.419 564.952
181 0 54.2048 12.6188 684 69.5512 159.386 564.21
182 0 56.1652 11.9113 669 70.4021 159.526 561.735
183 0 57.279 13.1287 752 69.0692 159.129 561.049
184 0 57.184 12.4685 713 70.4544 159.892 561.344
185 0 59.1564 12.6106 746 70.3579 159.551 559.823
186 0 64.2651 13.3354 857 68.0723 160.109 558.464
187 0 65.2784 12.822 837 68.5568 160.125 556.48
188 0 66.161 12.8172 848 68.7818 160.315 555.91
189 0 69.266 13.2388 917 68.4864 160.213 554.157
190 0 72.5054 13.4335 974 68.3029 160.291 553.884
191 0 74.2311 13.1212 974 69.0339 160.358 552.993
192 0 78.2296 13.5754 1062 67.8964 160.833 551.964
193 0 78.1492 13.3463 1043 67.8677 160.736 550.884
194 0 81.3183 13.8345 1125 65.9884 160.796 549.073
195 0 85.3234 13.2906 1134 65.8951 161.407 547.705
196 0 88.308 13.5775 1199 66.4237 161.092 545.018
197 0 90.336 13.5273 1222 68.2979 160.934 544.119
198 1 48.2711 10.7725 520 69.7385 161.652 565.756
199 0 49.2229 11.7831 580 69.0276 161.155 564.733
200 0 53.1847 11.8267 629 68.5437 161.458 563.064
201 0 54.1614 11.4473 620 69.9145 161.608 563.323
202 0 54.1798 12.034 652 70.0859 161.305 563.1
203 0 58.0925 12.6522 735 68.3279 161.652 562.128
204 0 59.1693 12.929 765 68.268 161.531 561.336
205 0 59.2135 12.6491 749 69.231 161.429 560.124
206 0 61.1301 13.1032 801 68.9713 161.404 559.361
207 0 63.0959 13.107 827 68.8597 161.393 558.306
208 0 64.2411 13.2781 853 68.6811 161.778 557.2
209 0 66.2951 12.9421 858 69.1923 161.508 555.752
210 0 70.244 13.4816 947 67.8448 161.49 554.375
211 0 71.346 13.7919 984 67.2896 161.345 553.203
212 0 73.219 13.4938 988 67.8036 161.059 552.976
213 0 75.2062 13.3766 1006 67.6889 161.221 553.994
214 0 78.3102 12.8719 1008 68.5734 161.33 551.106
215 1 43.1343 10.3862 448 68.3326 161.665 569.484
216 0 46.1454 11.2471 519 67.8651 161.638 568.092
217 0 45.0955 10.755 485 69.2804 161.447 567.386
218 0 49.1686 10.5148 517 69.412 161.147 566.818
219 0 49.0866 11.4492 562 68.6512 160.934 565.89
220 0 51.1999 12.0313 616 68.8263 160.055 563.841
221 0 52.1176 12.0113 626 68.992 160.035 564.5
222 0 55.2916 13.1304 726 67.146 159.572 562.689
223 0 56.2319 12.6441 711 68.2335 159.397 563.501
224 0 58.1473 12.9843 755 68.2252 159.702 560.781
225 0 60.1989 12.8241 772 68.0972 159.402 560.258
226 0 61.2295 12.494 765 69.3856 159.167 559.422
227 0 61.1529 12.526 766 69.1828 158.869 560.533
228 0 64.2074 12.8178 823 69.1968 158.6 557.377
229 0 67.1818 12.7862 859 68.7311 158.881 557.389
230 0 69.1506 12.7548 882 68.576 158.892 556.579
231 0 71.184 12.9524 922 68.9284 158.758 554.952
232 0 75.1822 13.4074 1008 68.1131 158.36 552.734
233 0 77.1361 12.7048 980 69.3561 158.669 551.611
234 0 80.2228 12.914 1036 68.5994 158.554 552.242
235 1 41.1833 10.3683 427 68.8899 159.326 570.754
236 0 42.2308 11.2477 475 69.1579 159.488 568.838
237 0 44.1607 9.39749 415 70.8482 159.296 570.113
238 0 47.1026 11.1671 526 69.576 158.865 567.81
239 0 49.1055 11.8724 583 68.4357 158.894 567.036
240 0 50.2073 13.026 654 66.8257 158.581 566.318
241 0 49.2698 12.3402 608 68.972 158.194 566.067
242 0 52.2378 12.4814 652 68.1472 157.94 565.244
243 0 52.218 11.9499 624 69.3558 157.827 566.245
244 0 55.1923 12.5561 693 68.3636 157.68 564.916
245 0 56.2169 12.9854 730 67.589 157.929 565.923
246 0 57.2587 11.614 665 70.4286 157.588 563.735
247 0 59.1969 12.45 737 69.038 157.598 562.384
248 0 61.3136 12.9172 792 68.4255 157.638 562.583
249 0 61.1691 13.1439 804 68.7923 157.669 562.203
250 0 65.1975 14.065 917 66.4678 157.69 561.442
251 0 65.1922 12.8696 839 69.8427 157.585 559.437
252 0 66.1025 13.0101 860 69.3593 157.824 558.896
253 0 71.1355 13.6219 969 68.0918 157.958 557.409
254 0 71.1616 13.0688 930 69.8624 157.996 557.359
255 0 75.2075 14.0146 1054 68.5342 158.231 556.358
256 0 76.1419 13.1859 1004 69.9801 157.998 555.923
257 0 79.1797 13.4504 1065 69.9596 157.889 554.291
258 1 41.0683 11.1035 456 72.5395 158.651 572.05
259 0 43.0439 12.1504 523 69.9159 158.633 572.434
260 0 43.0387 12.3377 531 70.725 157.945 571.326
261 0 46.0552 11.5514 532 72.2782 157.919 571.068
262 0 49.2073 12.2746 604 71.1209 157.255 569.712
263 0 47.0603 12.3034 579 72.601 157.256 570.269
264 0 49.2141 13.4311 661 70.6611 156.998 568.837
265 0 52.162 11.8094 616 72.5097 157.068 569.247
266 0 51.243 12.1383 622 73.6768 156.859 567.542
267 0 54.1742 12.3306 668 72.8638 156.849 567.26
268 0 55.2084 12.1902 673 73.4725 157.199 566.215
269 0 58.1562 12.3117 716 72.8827 157.211 564.202
270 0 60.1237 13.1396 790 71.4 157.475 564.092
271 0 60.1175 12.5255 753 72.9097 157.687 563.112
272 0 63.2071 13.0207 823 71.8481 157.481 561.871
273 0 65.135 13.2494 863 71.5794 157.66 560.341
274 0 67.1698 13.1011 880 71.7284 157.836 560.741
275 0 69.1578 13.1583 910 71.9528 158.429 559.085
276 0 72.1596 13.6087 982 71.1853 158.48 558.31
277 0 73.1103 13.0488 954 71.9507 158.668 558.015
278 0 77.1886 13.3439 1030 71.3369 158.813 555.308
279 0 79.1225 13.22 1046 71.7275 158.642 555.021
280 0 80.1553 12.5756 1008 73.0397 158.992 552.961
281 0 83.0906 12.4803 1037 72.6519 159.004 551.476
282 0 86.1535 13.6385 1175 71.2298 159.361 549.5
283 0 90.1842 13.6831 1234 70.8736 159.257 547.766
284 0 90.209 12.7703 1152 72.7943 159.194 548.149
285 0 94.297 13.2454 1249 71.7358 159.024 546.591
286 1 46.1203 10.6894 493 73.5923 160.343 569.505
287 0 47.1337 10.502 495 74.1212 159.984 569.178
288 0 52.1428 11.0466 576 72.8576 160.023 566.72
289 0 54.1366 12.413 672 70.6994 160.138 565.278
290 0 53.0634 12.193 647 72.3246 160.329 564.073
291 0 56.1419 13.0206 731 70.8728 160.74 562.514
292 0 57.2686 12.747 730 71.8192 160.649 561.484
293 0 57.2686 12.7819 732 153.496 160.671 561.518
294 0 63.2049 12.6414 799 71.3805 160.851 559.844
295 0 65.2144 12.6812 827 71.0846 160.935 558.04
296 0 67.2052 13.0645 878 70.7403 161.199 556.887
297 0 69.1283 13.569 938 70.549 161.186 555.402
298 0 69.1219 12.5575 868 72.4205 161.082 555.874
299 0 71.2334 12.8591 916 72.4683 161.42 554.17
300 0 75.1283 12.5386 942 73.0817 161.571 551.942
301 0 78.2705 12.7123 995 72.0844 161.805 552.284
302 0 83.1229 13.9192 1157 69.7381 161.849 549.963
303 0 83.2993 13.3975 1116 71.5484 162.209 547.894
304 0 85.3068 13.7504 1173 70.9335 161.926 546.696
305 0 91.2456 13.6445 1245 70.5904 162.602 545.078
306 1 48.0539 10.5299 506 73.2154 163.138 565.563
307 0 49.1671 11.4101 561 72.8075 163.146 563.989
308 0 51.0249 12.6409 645 71.2078 163.336 562.98
309 0 53.0674 13.1719 699 70.764 163.411 561.741
310 0 55.1536 12.8369 708 70.2966 162.665 561.247
311 0 55.2247 12.7298 703 71.1195 161.936 560.252
312 0 58.2226 13.1736 767 70.043 161.932 559.531
313 0 61.1268 13.3657 817 68.8213 162.132 559.356
314 0 62.1281 13.3273 828 69.0085 162.165 558.095
315 0 63.1117 12.6601 799 70.1627 161.876 557.478
316 0 66.114 13.6734 904 68.1195 162.156 555.355
317 0 66.1336 13.0191 861 70.1243 161.911 555.202
318 0 69.0691 12.5961 870 69.892 162.213 554.216
319 0 73.0731 14.027 1025 67.4224 162.175 551.98
320 0 73.1567 13.2182 967 69.3619 161.926 550.849
321 0 78.1312 13.5029 1055 68.1592 162.066 549.652
322 0 79.114 13.1709 1042 68.8292 161.814 548.606
323 1 42.0357 10.9906 462 69.0844 162.545 566.84
324 0 42.0822 10.9547 461 67.4751 161.896 567.05
325 0 44.0821 11.7054 516 67.0523 161.446 563.948
326 0 45.1153 12.1023 546 65.9542 161.079 564.216
327 0 45.1202 11.2588 508 67.3504 161.215 564.53
328 0 48.3036 12.3593 597 66.7186 161.523 563.859
329 0 46.2266 12.3738 572 68.1731 161.245 563.988
330 0 49.2352 12.1458 598 67.3712 160.921 563.699
331 0 51.1572 12.4518 637 67.4192 160.184 562.077
332 0 54.3192 12.2793 667 66.9205 160.738 561.73
333 0 54.2788 12.2516 665 67.6165 160.683 561.292
334 0 55.266 12.9374 715 67.551 160.087 560.178
335 0 57.3164 12.4397 713 67.7756 160.122 560.647
336 0 61.225 13.1646 806 66.0769 159.766 559.262
337 0 61.2946 12.3665 758 67.909 159.606 558.698
338 0 62.2919 12.4093 773 67.9754 159.573 558.568
339 0 65.2013 12.9292 843 66.9324 159.217 558.06
340 0 69.2188 13.7391 951 65.9821 159.174 556.451
341 0 70.1619 13.141 922 67.7213 158.93 556.564
342 0 71.1718 13.1794 938 67.9424 159.329 554.337
343 0 75.1476 14.5048 1090 66.078 159.178 553.638
344 0 77.1597 14.4376 1114 66.2998 158.884 552.206
345 0 78.1758 12.5358 980 69.3265 158.86 552.09
346 0 82.1384 14.0982 1158 66.7763 159.073 550.417
347 0 85.1934 13.9682 1190 67.5613 158.622 549.535
348 0 89.1067 14.8923 1327 66.0452 158.717 548.934
349 0 90.4329 13.3911 1211 68.6895 158.556 546.51
350 1 45.1699 11.49 519 69.3179 159.867 568.507
351 0 48.2734 11.8078 570 68.8579 159.526 565.756
352 0 50.2739 12.3722 622 68.2379 159.537 566.031
353 0 51.2126 13.1999 676 67.5592 159.101 565.365
354 0 53.2197 13.153 700 67.5629 159.404 565.901
355 0 53.1477 12.5688 668 69.0689 159.413 565.385
356 0 55.1605 12.7628 704 69.0994 158.609 564.092
357 0 58.1615 12.9123 751 68.4447 158.033 563.153
358 0 59.1808 12.842 760 68.1684 157.417 563.986
359 0 61.1751 13.0936 801 67.9451 157.821 562.302
360 0 63.1802 12.6464 799 68.4105 158.186 561.124
361 0 65.1603 12.8452 837 68.2234 158.111 559.466
362 0 69.117 12.978 897 67.9052 157.984 558.398
363 0 72.1777 13.6884 988 67.0324 157.96 555.77
364 0 74.0816 13.4851 999 67.6597 158.082 555.689
365 0 76.0706 13.9344 1060 67.167 158.082 553.874
366 0 79.0896 13.491 1067 68.1162 158.648 552.458
367 0 80.1074 13.1823 1056 69.5199 158.533 551.762
368 1 44.0257 12.152 535 69.1608 158.95 569.695
369 0 46.1378 12.3543 570 69.0965 159.404 569.693
370 0 48.0995 12.7028 611 68.6039 159.925 568.607
371 0 51.0601 13.5135 690 68.0594 159.691 567.388
372 0 52.1171 12.0306 627 71.8804 159.898 566.244
373 0 53.1114 12.8409 682 71.5469 159.802 565.378
374 0 54.1172 13.0642 707 72.2815 159.331 564.453
375 0 57.2465 13.1362 752 71.8577 158.786 563.847
376 0 59.1659 13.4875 798 71.2519 158.614 562.041
377 0 61.1361 13.9361 852 70.5282 158.239 561.752
378 0 62.1084 13.6213 846 72.4303 158.829 559.896
379 0 62.1485 13.3551 830 74.4566 158.819 557.857
380 0 67.2075 13.8675 932 72.8659 159.016 557.313
381 0 68.3228 13.7582 940 74.4883 159.584 556.798
382 0 71.2854 13.5652 967 75.1582 159.619 555.673
383 0 73.2426 13.271 972 76.0864 159.471 554.576
384 0 77.2716 13.5237 1045 75.4794 159.913 552.473
385 0 81.3664 14.0353 1142 74.6909 159.922 550.473
386 0 82.3338 13.5667 1117 75.4575 160.417 549.384
387 1 44.1656 11.1173 491 75.0509 160.976 569.169
388 0 44.1961 10.7023 473 77.1142 161.159 568.326
389 0 47.212 11.7131 553 75.7975 160.854 567.005
390 0 48.2163 12.9002 622 75.5354 160.772 563.831
391 0 52.1964 12.7978 668 74.5419 161.205 564.242
392 0 52.1057 12.1292 632 76.9778 161.035 564.123
393 0 53.1136 12.4638 662 77.1662 161.199 562.956
394 0 56.0886 13.4609 755 74.804 161.282 561.711
395 0 58.1788 12.7882 744 75.7218 161.341 559.966
396 0 58.1811 12.3236 717 77.7922 162.211 558.604
397 0 60.3502 13.3885 808 74.8119 162.033 559.286
398 0 63.4561 13.269 842 75.2043 162.671 558.419
399 0 64.2287 13.4831 866 75.4792 162.043 556.819
400 0 67.2484 13.2048 888 75.5428 162.41 554.55
401 0 70.294 13.2159 929 75.1109 162.369 552.886
402 0 72.315 13.8699 1003 73.8933 162.538 551.026
403 0 74.1494 12.9468 960 75.725 162.268 550.469
404 1 38.1379 10.5407 402 74.5896 162.881 569.639
405 0 40.2399 10.512 423 75.5556 162.298 567.414
406 0 41.1996 10.6069 437 75.3959 162.84 567.7
407 0 40.1015 11.0968 445 76.3753 162.937 566.652
408 0 43.0767 11.6072 500 74.606 163.132 566.62
409 0 44.1519 11.5737 511 74.6693 163.168 565.487
410 0 47.0171 11.783 554 71.7184 163.731 565.845
411 0 48.0704 11.7536 565 71.6991 163.473 565.641
412 0 48.1588 11.379 548 72.9544 162.474 564.155
413 0 49.1634 11.9398 587 72.8194 162.32 562.075
414 0 51.16 11.9038 609 72.9195 162.012 561.235
415 0 54.1579 12.1681 659 72.4643 161.885 561.798
416 0 53.277 11.8438 631 74.2346 161.99 559.607
417 0 55.127 11.664 643 74.6034 162.207 559.953
418 0 57.1887 12.5374 717 73.1437 161.866 559.241
419 0 60.2632 12.3127 742 72.7345 161.709 558.5
420 0 61.1746 12.7994 783 72.037 161.284 557.742
421 0 63.1834 13.0572 825 70.4 161.101 558.604
422 0 65.1281 12.8669 838 71.7076 160.39 556.794
423 0 67.2474 12.9819 873 71.2623 159.852 556.113
424 0 67.2572 12.2217 822 72.809 159.928 555.72
425 0 70.1548 12.1161 850 72.6765 159.534 555.274
426 0 73.2353 13.4361 984 70.9045 159.223 552.868
427 0 74.2009 12.6279 937 72.5998 159.172 551.061
428 0 78.1775 13.9426 1090 69.9908 158.94 549.19
429 0 81.1597 13.2948 1079 71.3911 159.108 548.318
430 0 84.2555 13.103 1104 71.3822 159.195 548.12
431 0 86.1218 13.2138 1138 71.7021 158.845 545.124
432 1 47.2138 10.7172 506 72.0929 159.407 566.425
433 0 49.1922 10.9977 541 71.7116 159.087 564.93
434 0 49.1297 11.2966 555 71.7189 159.018 564.773
435 0 51.1879 11.3699 582 70.7766 158.739 564.124
436 0 54.117 11.549 625 70.056 159.443 562.968
437 0 55.274 12.3385 682 69.6525 159.084 562.585
438 0 57.2492 11.8779 680 70.5632 158.768 560.653
439 0 60.1861 13.0429 785 67.7656 158.662 560.056
440 0 59.2402 11.9513 708 70.1299 158.473 558.298
441 0 63.1811 12.9944 821 67.0828 158.513 558.083
442 0 66.1939 12.9921 860 67.0372 158.214 556.558
443 0 66.1301 12.9291 855 67.7696 158.212 556.487
444 0 69.217 13.4938 934 66.4229 158.647 556.352
445 0 72.1306 13.4062 967 66.1954 159.455 557.018
446 0 74.1021 13.252 982 66.4124 158.928 554.901
447 0 76.0683 13.2775 1010 66.8881 158.608 553.09
448 0 78.2092 13.8986 1087 66.2374 158.538 552.16
449 0 80.2635 13.2563 1064 67.1607 158.729 551.631
450 0 84.2794 14.1316 1191 65.8824 158.547 549.128
451 0 87.2631 13.9692 1219 66.2568 158.767 547.334
452 0 90.2221 13.9655 1260 66.3381 158.36 546.694
453 1 46.1482 10.4879 484 68.7479 157.806 568.545
454 0 47.2087 10.7607 508 69.0827 157.974 566.575
455 0 49.2057 10.5679 520 69.15 158.246 565.913
456 0 49.1659 11.0239 542 69.1402 158.142 565.522
457 0 54.3233 11.3027 614 67.9919 158.08 564.018
458 0 55.173 11.8355 653 68.4104 157.42 563.884
459 0 57.1405 11.953 683 68.6559 157.714 561.814
460 0 59.1747 12.1336 718 67.7423 158.755 561.999
461 0 60.1542 12.4679 750 67.8733 158.381 560.876
462 0 62.1898 11.9151 741 69.2213 158.634 561.084
463 0 62.1334 11.8616 737 70.175 158.046 560.182
464 0 67.1962 12.9025 867 67.4568 158.266 557.145
465 0 70.1595 12.3861 869 68.1818 158.409 556.315
466 0 72.1534 12.5427 905 67.4519 158.136 556.611
467 0 73.2045 12.8271 939 67.3408 158.027 555.06
468 0 77.1647 13.0241 1005 66.9562 157.53 553.842
469 0 79.1073 12.363 978 67.8119 157.966 553.714
470 0 80.1659 11.8255 948 69.2468 157.636 549.956
471 0 82.2022 12.7491 1048 67.6517 157.844 549.722
472 0 87.2079 12.9461 1129 66.9052 158.006 549.02
473 0 88.2121 12.4359 1097 68.3683 157.634 547.306
474 0 92.192 12.0943 1115 68.652 158.219 545.365
475 1 48.202 10.1448 489 66.9284 159.258 569.106
476 0 50.1172 10.3757 520 68.0038 159.185 566.44
477 0 51.1527 10.7717 551 66.677 159.183 567.08
478 0 54.1172 12.1588 658 65.4848 158.793 564.275
479 0 55.2295 12.095 668 66.5479 158.865 563.516
480 0 56.1867 12.1203 681 66.4493 158.715 563.789
481 0 59.2023 12.2461 725 65.8621 158.625 562.287
482 0 60.228 12.0044 723 66.6376 158.502 560.957
483 0 63.2439 12.1435 768 65.5755 158.48 559.672
484 0 64.2395 12.36 794 65.5277 158.198 559.499
485 0 67.2793 13.0352 877 64.6043 158.334 558.912
486 0 70.1944 12.5936 884 65.2104 158.568 556.829
487 0 72.2783 12.9084 933 65.0504 158.574 556.323
488 0 73.1906 12.7066 930 65.8624 158.443 556.153
489 0 73.1916 12.2282 895 67.1777 158.155 554.809
490 0 75.2341 12.8399 966 66.7008 158.18 553.652
491 0 80.3172 13.621 1094 65.0137 158.888 552.278
492 0 82.4871 12.7899 1055 66.8806 159.098 549.881
493 0 85.264 13.2412 1129 66.6475 158.995 548.348
494 1 44.3405 10.4194 462 67.5714 159.576 569.147
495 0 46.2123 11.577 535 66.9981 159.211 567.058
496 0 48.213 10.8684 524 67.3779 159.38 567.624
497 0 48.4555 11.1442 540 68.0963 158.959 565.235
498 0 49.262 11.6723 575 68.2661 159.445 564.779
499 0 51.1456 12.3373 631 67.5055 159.127 564.097
500 0 50.1795 11.8574 595 69.5244 159.442 562.862
501 0 53.1027 12.3534 656 68.4375 159.893 563.034
502 0 55.1128 12.048 664 68.6175 159.523 562.063
503 0 58.0353 12.6302 733 67.7667 159.348 560.689
504 0 59.1263 12.4141 734 68.1213 159.331 561.132
505 0 62.2194 12.3595 769 68.2055 159.68 559.147
506 0 63.0805 12.9517 817 68.1848 159.218 557.58
507 0 65.0882 12.7826 832 68.6839 159.873 557.067
508 0 68.1487 13.4119 914 67.4748 159.394 555.684
509 0 69.1331 12.9316 894 68.8758 159.418 555.162
510 0 72.1664 13.3719 965 68.2518 159.339 553.504
511 0 73.1957 13.8123 1011 67.9822 159.395 552.064
512 0 78.2267 13.0262 1019 68.1943 159.578 552.67
513 0 80.2537 13.1583 1056 69.0246 159.444 551.061
514 0 81.2039 12.6964 1031 70.1368 159.492 549.534
515 0 84.1462 13.1913 1110 69.3514 159.254 547.995
516 0 88.1793 13.6313 1202 67.5641 159.335 546.632
517 0 89.221 12.9342 1154 69.5121 159.348 543.789
518 0 91.3631 13.2439 1210 69.2008 159.341 542.607
519 1 48.3086 10.7434 519 70.2967 159.277 565.576
520 0 50.2328 10.3916 522 70.6226 159.653 565.117
521 0 52.141 11.2771 588 69.6633 159.714 564.286
522 0 52.2402 11.3131 591 69.8832 159.926 562.814
523 0 55.1759 12.5236 691 68.5326 160.645 561.287
524 0 57.1375 12.1986 697 69.6255 161.448 560.42
525 0 58.1237 12.6626 736 69.3872 161.5 559.886
526 0 60.2071 12.7892 770 68.3247 161.271 558.129
527 0 63.194 12.4854 789 68.2256 161.593 559.52
528 0 63.0835 12.9352 816 68.7414 161.762 556.009
529 0 67.2089 12.4388 836 68.4031 162.108 555.669
530 0 69.1894 13.557 938 66.8369 161.717 554.295
531 0 70.1116 12.9365 907 67.9504 162.007 552.922
532 0 71.1177 13.555 964 66.9533 161.793 553.001
533 0 75.2149 13.8403 1041 66.2277 162.028 550.338
534 0 79.0666 13.3432 1055 66.1792 162.47 550.024
535 0 80.1622 13.9218 1116 65.7016 162.159 546.76
536 0 84.0974 13.8768 1167 66.1285 162.057 545.602
537 0 85.1916 13.8394 1179 66.4266 161.716 544.224
538 0 90.1556 14.0979 1271 65.5767 162.253 542.695
539 1 47.068 11.1753 526 67.8954 162.797 563.949
540 0 51.088 9.7479 498 69.4639 162.335 564.201
541 0 52.0827 11.2705 587 68.3015 162.56 562.741
542 0 54.0596 12.3752 669 67.1958 161.985 560.538
543 0 56.1016 11.7465 659 68.5387 162.123 561.061
544 0 57.1494 12.4586 712 67.8581 161.017 559.23
545 0 59.1409 12.3265 729 68.5007 161.346 559.2
546 0 59.1656 11.696 692 70.4465 161.052 558.425
547 0 60.1273 12.4569 749 69.3511 160.782 558.076
548 0 63.2475 12.6171 798 68.4286 160.912 555.876
549 0 67.1313 12.1106 813 68.6667 160.888 554.247
550 0 67.1529 12.3152 827 69.0097 160.705 554.632
551 0 70.2563 13.0807 919 67.6257 160.797 553.077
552 0 71.1411 12.6369 899 68.584 160.719 552.556
553 0 75.1423 13.4279 1009 67.1724 160.642 551.618
554 0 77.1226 12.8108 988 68.3502 160.191 549.844
555 0 79.0935 13.3134 1053 67.9107 161.023 547.736
556 0 84.0936 12.7834 1075 67.9312 160.8 547.443
557 0 86.1595 13.4286 1157 67.2628 160.37 544.755
558 0 90.1631 13.7861 1243 65.9582 160.621 544.698
559 0 92.168 13.4103 1236 66.8875 160.372 541.83
560 0 94.0694 12.916 1215 67.6543 160.478 540.227
561 1 49.044 10.6843 524 67.2405 160.832 563.63
562 0 52.077 10.2732 535 67.0224 160.778 564.202
563 0 53.052 11.1023 589 65.9406 160.251 563.747
564 0 56.0967 11.2128 629 65.7615 160.051 562.03
565 0 58.0314 12.8724 747 63.8755 159.747 560.131
566 0 60.1584 12.4172 747 63.502 158.993 560.455
567 0 59.1898 11.9277 706 64.5057 159.072 558.514
568 0 61.1652 12.0657 738 64.5203 159.535 558.182
569 0 64.1397 12.8314 823 62.9866 159.205 557.38
570 0 65.1846 11.5058 750 64.764 159.34 557.387
571 0 67.2192 12.7047 854 63.4707 159.237 556.424
572 0 69.1554 12.2767 849 63.5654 158.996 554.923
573 0 71.167 12.4496 886 63.4955 159.261 555.676
574 0 73.1378 12.5516 918 63.7146 159.227 552.712
575 0 77.1856 12.6578 977 63.4094 158.831 552.019
576 0 77.1645 12.3243 951 65.1136 158.814 549.878
577 0 80.1376 12.2914 985 64.5411 158.505 551.068
578 0 82.1434 11.9669 983 65.4618 158.027 548.858
579 0 85.1338 12.9561 1103 64.1723 158.529 548.199
580 1 43.0613 10.6128 457 65.3129 158.871 569.532
581 0 44.0626 10.19 449 66.7105 158.597 567.472
582 0 46.0196 10.213 470 65.4234 158.826 568.13
583 0 46.0439 11.4239 526 65.5779 158.215 565.599
584 0 48.0743 11.607 558 65.2616 158.505 567.124
585 0 51.0631 12.2202 624 64.4487 158.457 564.05
586 0 52.1887 11.7842 615 64.6049 158.033 564.263
587 0 54.2216 12.744 691 62.7467 157.117 562.353
588 0 57.2576 12.8018 733 62.8677 157.619 563.439
589 0 59.2585 12.7239 754 62.5517 157.562 561.863
590 0 60.1773 11.6988 704 63.9688 157.097 560.79
591 0 62.1315 12.7471 792 63.1806 156.893 560.172
592 0 64.248 13.0121 836 62.256 156.794 558.385
593 0 65.1592 12.5999 821 62.6918 156.812 559.201
594 0 69.1153 12.3706 855 62.0491 156.993 557.763
595 0 70.2496 12.2848 863 61.1842 157.036 558.553
596 0 72.137 12.4901 901 61.1176 157.048 556.466
597 0 75.1135 12.7807 960 60.9333 156.817 555.824
598 0 76.1445 12.4763 950 61.021 157.158 554.85
599 0 80.0799 12.7248 1019 61.0559 157.471 552.808
600 0 82.1466 12.9525 1064 61.0442 157.455 550.515
601 0 86.0525 12.7597 1098 60.5583 156.831 550.407
602 0 88.1038 13.4954 1189 59.5879 156.998 547.935
603 0 90.0583 13.1248 1182 60.4078 156.451 546.872
604 1 50.1997 11.4543 575 59.6487 156.191 569.388
605 0 51.1268 11.8529 606 59 156.723 568.814
606 0 53.1699 12.3378 656 58.3491 156.233 568.224
607 0 54.0658 14.1864 767 57.4785 156.442 566.635
608 0 54.1472 12.0043 650 61.3246 156.255 566.088
609 0 57.2048 12.2892 703 60.6643 156.595 565.038
610 0 58.1994 12.2166 711 61.0056 156.609 564.295
611 0 60.2375 12.3677 745 61.6846 156.275 562.14
612 0 63.1465 13.7141 866 59.7148 156.152 560.494
613 0 66.0668 13.4409 888 60.1734 156.824 559.936
614 0 66.1888 13.386 886 61.0813 156.702 558.704
615 0 66.1443 13.7124 907 61.4168 156.649 556.869
616 0 71.1644 13.3634 951 61.8559 156.342 556.084
617 0 71.3431 12.9795 926 62.9492 156.402 555.705
618 0 72.085 12.3327 889 64.1496 156.283 556.055
619 0 74.1657 12.6069 935 63.6246 156.475 554.123
620 0 78.2638 13.9911 1095 61.3324 156.625 552.318
621 0 81.4046 14.6798 1195 60.8644 156.3 551.819
622 0 84.1863 14.2779 1202 61.7987 156.859 552.036
623 0 85.5586 12.9969 1112 63.9281 157.017 550.432
624 0 89.3868 13.7828 1232 62.8742 156.635 547.156
625 1 45.2476 11.4923 520 62.025 156.902 569.388
626 0 44.1761 10.9109 482 64.4232 157.102 567.544
627 0 47.2548 12.3162 582 61.9553 157.588 567.656
628 0 50.1417 12.5444 629 61.5723 158.355 566.738
629 0 50.2063 12.8072 643 61.8694 158.454 566.407
630 0 51.1555 12.0613 617 62.8347 158.481 565.684
631 0 54.1839 13.3434 723 60.8243 158.228 564.685
632 0 55.2349 13.1439 726 61.3981 158.112 563.085
633 0 57.2606 12.9758 743 60.934 158.456 563.836
634 0 57.2079 13.1625 753 61.2669 158.056 562.462
635 0 60.3235 13.3281 804 60.8296 158.716 560.275
636 0 62.1975 13.023 810 61.0951 158.317 559.931
637 0 62.3099 13.1279 818 61.2751 158.658 558.775
638 0 65.4444 13.0951 857 61.1015 158.874 558.474
639 0 68.6684 13.6016 934 60.212 159.499 557.127
640 0 67.2622 13.1129 882 61.4512 159.339 556.871
641 0 72.3599 13.3638 967 60.7611 159.722 554.929
642 0 73.4615 13.4084 985 60.6792 160.373 555.095
643 0 76.4449 12.7412 974 61.2844 160.753 553.325
644 0 78.3677 13.7939 1081 60.7817 160.698 549.046
645 0 83.5308 13.073 1092 61.1951 160.985 549.281
646 0 85.5951 13.8676 1187 60.8172 161.06 546.107
647 1 40.3204 10.3422 417 61.1055 161.799 568.983
648 0 43.352 10.7723 467 61.1842 161.906 567.829
649 0 44.2553 10.5524 467 61.3897 161.18 568.713
650 0 47.1107 11.3562 535 61.0486 160.529 567.522
651 0 47.1183 12.1184 571 60.6305 159.986 566.518
652 0 51.2052 13.3385 683 58.4173 159.521 564.47
653 0 49.1078 12.1976 599 61.4892 159.576 564.454
654 0 52.2671 11.2308 587 61.9983 159.891 564.203
655 0 54.1075 12.4936 676 60.9837 160.42 561.905
656 0 54.0859 12.2768 664 61.7289 160.119 561.565
657 0 57.1222 12.7096 726 60.9807 160.168 560.438
658 0 60.1986 13.4389 809 59.9048 160.371 558.969
659 0 61.3345 12.815 786 60.7786 160.382 558.218
660 0 63.2942 12.6078 798 61.2356 160.881 557.479
661 0 65.2445 12.9513 845 60.8556 160.4 556.697
662 0 67.2737 13.1701 886 60.781 160.185 554.212
663 0 70.2348 12.7572 896 61.3482 160.406 554.494
664 0 73.2759 12.4871 915 62.0415 160.343 552.492
665 1 40.1887 10.6995 430 61.2349 160.57 569.598
666 0 41.2016 9.78118 403 63.062 160.826 568.69
667 0 41.2592 11.3429 468 62.8761 161.188 566.158
668 0 44.1964 11.4489 506 61.5929 162.081 565.281
669 0 46.1658 11.502 531 61.1846 161.557 566.092
670 0 46.254 11.5017 532 62.4323 161.434 565.571
671 0 46.1336 12.182 562 62.2242 161.575 562.827
672 0 50.0921 12.8364 643 60.9767 162.661 562.028
673 0 51.1548 11.6118 594 62.4242 162.463 563.599
674 0 53.2945 12.5717 670 61.5418 162.736 561.916
675 0 53.0984 12.3544 656 62.3735 162.863 559.689
676 0 54.1928 12.5109 678 62.649 162.709 560.06
677 0 57.2264 12.8612 736 61.6902 162.367 558.077
678 0 59.2411 12.3056 729 61.9877 162.112 556.716
679 0 60.2032 12.6571 762 61.2598 162.361 556.437
680 0 63.1715 12.5056 790 61.5392 162.072 555.28
681 0 64.2166 12.2865 789 62.0393 162.365 555.309
682 0 67.1942 12.4267 835 61.1174 162.206 556.252
683 0 68.298 12.7237 869 61.4557 162.703 553.705
684 0 70.1832 12.4246 872 62.6261 163.031 551.513
685 0 73.3544 12.0511 884 63.4299 162.975 550.167
686 0 76.2765 13.1495 1003 62.0608 162.755 549.937
687 0 79.1287 12.7767 1011 63.1157 162.665 548.739
688 1 40.1496 11.0836 445 64.8697 162.456 565.802
689 0 45.1286 11.3675 513 64.1579 162.234 564.035
690 0 45.1838 12.261 554 64.0542 162.612 563.536
691 0 47.1402 12.6431 596 63.099 162.208 563.747
692 0 49.1638 12.2041 600 63.6583 162.965 562.537
693 0 49.0646 12.0046 589 64.9881 162.958 561.362
694 0 52.0454 12.8542 669 63.3707 162.123 560.688
695 0 52.0542 12.0451 627 65.1196 162.419 561.045
696 0 52.0682 12.2532 638 65.0925 162.928 558.814
697 0 55.0687 12.6024 694 64.1542 162.862 557.719
698 0 58.16 12.9299 752 63.1463 162.789 558.25
699 0 58.0885 12.6359 734 64.2343 162.884 557.118
700 0 59.0643 12.2917 726 64.7562 162.295 557.714
701 0 62.1748 12.1271 754 64.5743 162.318 555.208
702 0 64.1155 12.8674 825 63.48 161.913 554.57
703 0 64.2652 12.9619 833 63.7815 161.325 554.457
704 0 68.0995 13.1279 894 63.3837 161.622 554.479
705 0 68.2248 13.1331 896 63.8728 161.041 552.721
706 0 70.2572 13.7779 968 63.1085 160.955 549.97
707 0 71.1342 13.5237 962 63.684 160.711 549.331
708 0 74.186 13.3583 991 63.5278 160.338 550.722
709 0 76.1648 12.7749 973 64.4584 160.217 548.3
710 0 80.1368 13.8264 1108 62.8141 160.084 545.955
711 0 81.1006 12.4413 1009 64.5649 159.904 546.314
712 0 85.2178 12.6499 1078 64.5686 159.563 545.571
713 0 86.117 13.0985 1128 64.3457 160.355 544.7
714 1 47.0628 11.0703 521 64.261 160.522 564.94
715 0 48.1232 11.2628 542 65.0055 160.435 564.061
716 0 49.0621 11.7606 577 65.1924 160.471 562.891
717 0 51.1314 12.5559 642 63.8988 160.248 562.078
718 0 52.1058 12.11 631 65.1315 159.822 560.227
719 0 52.0752 12.0595 628 65.9904 159.766 559.763
720 0 57.1363 12.829 733 63.7285 159.263 560.411
721 0 59.0995 12.9274 764 63.5615 159.448 558.969
722 0 61.1302 13.2504 810 62.9975 159.314 558.862
723 0 62.0741 12.8556 798 63.703 159.096 557.762
724 0 64.0852 13.1075 840 63.569 159.09 555.343
725 0 65.1137 13.0695 851 64.3807 159.126 554.991
726 0 69.1812 13.8477 958 62.4113 158.78 553.13
727 0 71.1486 13.3102 947 62.5755 158.618 554.666
728 0 75.0974 14.1017 1059 62.136 158.717 552.469
729 0 76.1482 13.5131 1029 63.0311 159.24 551.325
730 0 79.1411 13.1158 1038 63.3112 158.467 550.308
731 0 81.2108 13.5819 1103 62.6745 158.296 548.433
732 0 84.208 13.7279 1156 62.4325 157.958 547.67
733 0 87.3398 13.7165 1198 62.4282 158.073 546.612
734 0 91.3584 14.0983 1288 61.6856 157.954 545.312
735 1 50.235 11.924 599 61.798 158.053 566.693
736 0 49.3313 11.5951 572 63.8234 157.829 566.086
737 0 54.1672 12.9414 701 61.9315 157.609 565.111
738 0 53.1348 12.8165 681 63.2805 157.539 563.466
739 0 55.0682 13.0384 718 62.4889 157.184 562.056
740 0 59.153 13.2369 783 61.8544 156.669 561.309
741 0 58.183 12.8044 745 63.3879 157.138 560.31
742 0 62.1321 12.8919 801 62.6654 157.434 559.139
743 0 62.0731 13.1136 814 63.215 157.184 558.298
744 0 66.2187 13.8632 918 61.9913 157.235 557.051
745 0 68.1142 13.6682 931 61.5328 156.917 555.873
746 0 70.0994 13.0529 915 62.5825 157.386 554.608
747 0 72.1994 13.5874 981 61.6799 156.399 553.768
748 0 73.0512 12.2243 893 63.0885 157.198 553.828
749 0 77.1226 13.9648 1077 60.7428 156.925 551.793
750 0 77.343 13.0975 1013 62.1323 156.559 548.85
751 0 80.1298 12.1178 971 63.0165 156.311 549.631
752 0 84.1376 12.9074 1086 62.5958 155.672 547.483
753 1 43.0271 11.2952 486 62.2304 155.206 567.224
754 0 46.0425 11.3808 524 61.1011 155.448 566.59
755 0 46.104 11.0403 509 62.6483 155.255 564.831
756 0 49.0447 12.2745 602 62.1794 155.668 563.475
757 0 52.1916 12.5308 654 61.0826 156.492 563.538
758 0 52.1947 12.1851 636 61.7909 156.586 562.703
759 0 56.1366 12.5408 704 60.8111 156.027 561.956
760 0 59.1031 13.2988 786 60.1654 155.634 559.436
761 0 59.115 12.1458 718 62.0864 155.57 559.89
762 0 61.0794 12.5247 765 62.1007 155.407 558.461
763 0 63.053 12.7195 802 61.8591 155.481 558.466
764 0 64.0867 12.6547 811 63.0592 155.445 557.581
765 0 67.0948 13.399 899 61.5172 154.884 555.399
766 0 67.0728 12.9113 866 63.3095 154.449 555.528
767 0 70.1555 12.8572 902 63.867 154.708 554.132
768 0 74.1815 12.9682 962 62.8566 154.885 553.238
769 0 76.2242 13.9588 1064 62.4511 155.141 549.748
770 0 80.1683 13.6213 1092 62.7665 155.323 549.073
771 0 82.3991 12.0997 997 65.1414 155.907 550.115
772 0 85.3929 13.3969 1144 63.6477 156.184 547.655
773 0 88.3747 13.0128 1150 64.8504 155.682 545.204
774 1 48.3796 9.71484 470 62.8255 156.028 569.157
775 0 50.3976 10.3576 522 63.1992 155.925 568.241
776 0 51.2664 10.4552 536 63.6567 155.548 566.905
777 0 54.1114 11.7535 636 63.5299 155.036 567.561
778 0 56.1495 12.9654 728 61.7898 156.244 565.24
779 0 56.2814 11.8334 666 64.2973 156.297 564.613
780 0 58.1278 11.9048 692 64.328 156.048 563.864
781 0 59.1638 11.7471 695 64.7741 156.301 564.947
782 0 60.2414 11.4041 687 65.3115 156.718 562.802
783 0 63.1642 11.478 725 65.3724 157.037 561.434
784 0 67.1983 11.786 792 64.7361 157.677 560.683
785 0 67.1342 12.125 814 64.7899 157.588 559.392
786 0 68.1547 11.7673 802 65.5486 157.701 558.319
787 0 70.1554 12.4723 875 65.0606 157.715 556.99
788 0 75.1643 12.3995 932 64.471 157.76 557.107
789 0 75.19 11.3313 852 66.1338 157.977 556.006
790 0 80.1054 12.4461 997 64.2176 158.377 554.436
791 0 81.1107 12.0206 975 65.2841 158.563 551.685
792 0 84.1464 12.6327 1063 64.2785 159.005 548.841
793 0 87.2027 11.6854 1019 65.4259 159.537 548.422
794 0 91.1944 12.413 1132 64.4806 158.873 546.594
795 1 47.1026 10.785 508 64.4252 159.89 566.685
796 0 51.253 11.8237 606 62.3614 158.287 566.738
797 0 52.2663 10.3891 543 63.9834 159.028 566.856
798 0 55.1928 11.7407 648 60.0664 159.063 564.721
799 0 55.299 11.3203 626 61.7732 158.855 563.636
800 0 56.1972 11.4241 642 61.3193 159.196 563.892
801 0 59.2016 11.9929 710 60.3408 159.675 563.332
802 0 59.3254 11.0577 656 62.2759 159.223 561.146
803 0 61.2981 11.387 698 62.2822 159.646 559.02
804 0 64.2092 11.556 742 63.0418 159.372 558.825
805 0 68.1643 12.5139 853 60.1723 159.672 557.957
806 0 69.1966 12.5873 871 60.8198 159.67 555.342
807 0 71.1344 11.9492 850 61.3071 160.235 556.059
808 0 73.2817 12.3769 907 60.613 160.516 555.691
809 0 75.2289 12.442 936 60.7564 160.166 554.722
810 0 79.3597 11.8574 941 61.3188 160.285 554.05
811 0 82.2967 12.6251 1039 60.4716 160.229 551.133
812 0 82.1384 12.0528 990 62.3636 159.866 550.168
813 0 85.2106 12.7449 1086 60.8794 160.072 548.992
814 1 46.0848 9.9382 458 61.7162 160.509 569.395
815 0 48.032 10.3889 499 62.3707 160.854 567.08
816 0 50.0368 10.9719 549 59.2368 161.366 567.408
817 0 49.0593 11.3332 556 60.4478 160.353 565.236
818 0 52.0466 11.5281 600 59.4817 160.368 565.74
819 0 56.0926 12.8537 721 58.0042 160.011 564.806
820 0 55.2427 11.9292 659 61.4977 160.13 563.481
821 0 56.3237 11.7357 661 62.177 160.322 563.41
822 0 59.3769 12.6312 750 60.836 160.061 562.015
823 0 58.2869 13.1076 764 61.2722 159.919 560.017
824 0 61.1718 12.7183 778 61.4486 159.951 558.778
825 0 63.2704 12.3122 779 61.6547 159.96 559.978
826 0 65.1601 13.4285 875 60.9314 159.088 557.646
827 0 67.1222 12.738 855 61.3111 159.211 557.792
828 0 70.1042 12.7382 893 61.383 159.372 550.918
829 0 71.1916 12.5577 894 62.6432 159.17 541.858
830 0 73.2566 12.5586 920 62.7739 158.775 539.699
831 0 75.3234 12.2273 921 63.3735 158.739 538.728
832 0 77.227 12.5733 971 63.5901 158.421 540.001
833 1 40.2691 10.3553 417 65.1655 158.882 560.976
834 0 43.3043 10.6918 463 65.0605 157.929 561.335
835 0 43.1217 11.8502 511 64.7789 157.777 559.517
836 0 42.1718 11.3346 478 65.4623 157.795 562.211
837 0 44.4069 12.2278 543 64.2247 157.611 564.059
838 0 45.202 12.5879 569 63.3357 157.656 563.703
839 0 46.1626 11.8494 547 65.8227 157.263 562.521
840 0 48.3192 12.583 608 64.4227 157.207 560.367
841 0 48.1502 12.9802 625 63.976 157.733 562.002
842 0 51.1394 13.3166 681 63.5712 156.937 560.523
843 0 51.2663 12.7959 656 65.218 157.229 559.398
844 0 54.4364 13.7041 746 63.7131 156.815 557.634
845 0 56.2856 13.6802 770 63.6052 156.823 557.471
846 0 58.2664 13.404 781 63.863 157.173 556.584
847 0 59.4547 12.4128 738 65.21 156.795 557.077
848 0 60.4681 12.8167 775 64.8064 156.834 557.299
849 0 61.3582 13.576 833 64.3866 156.737 555.589
850 0 64.3342 13.0879 842 65.0321 156.711 554.634
851 0 65.4898 13.2082 865 64.7249 156.844 552.948
852 0 67.5838 13.5536 916 64.7205 156.585 551.302
853 0 72.6037 13.1398 954 64.6562 156.281 549.926
854 0 75.3504 13.4969 1017 64.0698 156.459 549.456
855 0 75.2328 13.3585 1005 64.8547 156.514 548.924
856 0 79.3671 14.0738 1117 64.2202 156.436 546.44
857 0 82.4082 13.1904 1087 64.6707 156.65 546.028
858 1 43.307 10.5064 455 65.8637 156.147 565.492
859 0 44.2133 11.1731 494 66.2854 155.615 564.057
860 0 48.2773 11.7239 566 64.4594 155.807 563.744
861 0 47.3958 11.4567 543 65.1105 156.228 563.414
862 0 48.1768 11.4163 550 65.3582 156.175 562.947
863 0 52.082 13.1715 686 62.2857 157.095 562.837
864 0 55.1336 12.8597 709 63.0564 156.821 562.413
865 0 55.141 12.7854 705 64.0128 156.204 561.562
866 0 56.2125 12.4883 702 67.7578 156.457 559.64
867 0 58.1562 12.604 733 67.5921 156.319 558.443
868 0 60.223 13.1511 792 67.2715 156.441 557.508
869 0 63.1571 12.0018 758 68.5805 156.27 558.575
870 0 66.3338 12.8893 855 67.4363 155.677 556.443
871 0 69.1823 13.4572 931 66.7154 155.348 555.376
872 0 69.1554 13.1298 908 67.4659 155.402 554.655
873 0 72.3924 12.5428 908 68.6035 155.351 551.369
874 0 74.2665 13.1419 976 68.1465 155.019 550.381
875 0 76.1967 13.7801 1050 67.2857 154.662 549.146
876 0 79.2397 12.4306 985 68.6264 155.029 549.379
877 0 83.1494 12.9646 1078 68.038 154.838 547.246
878 0 85.3158 13.6434 1164 69.6134 155.229 547.047
879 1 45.09 11.5768 522 74.4387 154.594 566.967
880 0 48.0826 11.6466 560 74.1857 154.564 564.682
881 0 48.0894 10.9796 528 75.1326 154.373 565.854
882 0 50.0395 11.7108 586 75.6382 154.503 565.689
883 0 51.0963 11.6838 597 76.7856 156.295 565.754
884 0 52.1714 12.3248 643 77.888 155.988 565.154
885 0 55.1416 12.6221 696 80.3664 156.063 563.829
886 0 57.1532 12.7377 728 82.4643 156.051 561.065
887 0 59.1296 13.2252 782 84.7762 155.747 560.15
888 0 59.2667 12.7053 753 93.0226 156.226 559.71
889 0 62.1046 14.0891 875 87.4663 156.675 558.437
890 0 64.2321 13.0776 840 64.1881 156.631 558.242
891 0 64.0911 13.2468 849 61.3934 156.803 556.476
892 0 66.2921 13.0332 864 61.3796 156.931 555.468
893 0 68.1163 13.0806 891 61.541 157.205 554.314
894 0 68.1163 13.0806 891 156.705 158.204 554.273
895 0 74.1575 13.3095 987 62.3728 157.023 550.67
896 0 76.2076 12.9515 987 63.5745 156.936 550.726
897 0 78.1175 12.9292 1010 64.1218 157.205 549.295
898 1 42.0439 10.2988 433 67.2702 158.314 568.857
899 0 45.0569 10.5644 476 66.7941 158.771 566.758
900 0 46.0145 11.8658 546 66.7711 159.117 565.293
901 0 49.077 12.4498 611 65.162 159.398 564.519
902 0 49.0705 12.105 594 64.303 158.894 565.008
903 0 52.0992 12.5722 655 65 159.344 561.458
904 0 52.0379 12.414 646 66.5341 159.715 560.692
905 0 56.2611 12.7442 717 67.7685 159.661 561.782
906 0 58.3163 13.5125 788 67.1155 159.567 560.157
907 0 58.3664 13.124 766 67.9125 159.325 560.661
908 0 60.273 12.9743 782 69.2161 158.87 557.524
909 0 63.2832 13.7003 867 67.6102 158.71 552.794
910 0 66.1867 13.0842 866 68.7714 158.935 553.693
911 0 67.1405 13.6728 918 68.5708 158.821 553.02
912 0 69.128 13.3231 921 68.4126 159.638 554.85
913 0 69.1417 13.5808 939 69.2034 159.782 553.2
914 0 72.1421 14.3883 1038 67.4634 159.207 550.307
915 0 73.1288 13.4831 986 70.2221 159.201 550.387
916 0 77.0842 13.4269 1035 69.8841 159.624 548.623
917 0 77.1524 13.2595 1023 71.7204 160.303 546.774
918 0 82.2143 13.3675 1099 70.4959 161.002 547.837
919 0 86.408 14.3968 1244 69.8248 160.738 545.866
920 0 90.5166 13.3898 1212 71.3358 161.018 544.752
921 0 91.4337 13.8898 1270 71.3968 160.94 541.46
922 0 94.4747 13.9085 1314 71.0898 160.934 538.64
923 1 48.3508 11.4786 555 73.8432 161.023 563.119
924 0 51.6348 11.194 578 74.3962 161.398 561.45
925 0 54.4305 12.9156 703 71.2063 161.565 561.546
926 0 55.3756 13.0744 724 71.6892 160.836 560.946
927 0 56.2112 13.2358 744 71.711 161.078 558.241
928 0 58.3148 13.5129 788 70.7411 161.577 558.826
929 0 60.3191 13.6109 821 70.6163 161.379 550.402
930 0 63.628 13.8932 884 69.2839 161.939 549.936
931 0 63.4275 13.4327 852 71.6185 161.923 552.244
932 0 66.364 13.9534 926 70.6695 161.799 554.167
933 0 68.5101 13.4579 922 71.1009 161.561 553.37
934 0 69.4355 13.4369 933 71.4094 161.909 552.861
935 0 71.3039 13.6178 971 71.1792 161.473 553.069
936 0 75.641 13.8681 1049 70.0658 161.588 551.237
937 0 78.4646 13.8661 1088 70.1305 161.16 549.793
938 0 80.2847 13.4148 1077 70.9554 160.53 547.131
939 0 82.1747 13.7877 1133 70.6443 160.705 546.722
940 0 87.497 13.6348 1193 69.8357 160.756 542.369
941 1 46.3704 11.1493 517 71.7718 160.663 562.598
942 0 48.3038 11.6554 563 71.4369 160.62 561.004
943 0 48.3517 12.2023 590 70.0661 160.98 563.132
944 0 50.391 12.7007 640 70.1391 160.228 561.908
945 0 53.2213 13.0023 692 69.4393 159.965 561.598
946 0 57.1496 13.9109 795 67.7006 160 560.56
947 0 56.2413 13.691 770 68.6805 159.434 559.104
948 0 57.1982 12.8501 735 70.615 159.444 560.249
949 0 60.2208 13.683 824 68.5291 159.672 558.177
950 0 64.2146 14.3737 923 66.442 159.35 557.204
951 0 64.1525 13.4835 865 68.4983 159.013 556.962
952 0 65.1829 13.7766 898 69.1091 158.676 555.824
953 0 69.2251 13.7089 949 68.6185 158.667 554.309
954 0 71.1959 13.5822 967 68.7032 158.429 552.689
955 0 74.4363 14.5359 1082 66.9695 158.379 552.972
956 0 77.2169 14.4528 1116 67.457 158.4 552.962
957 0 77.2351 13.6984 1058 69.7098 158.304 550.406
958 0 81.296 14.5641 1184 67.6292 158.212 550.128
959 0 83.2898 14.0834 1173 68.428 158.523 547.668
960 0 86.311 14.0191 1210 68.5372 158.333 545.466
961 1 47.1777 11.3189 534 67.9625 159.067 568.067
962 0 49.157 12.4703 613 68.7308 158.798 564.791
963 0 50.2631 12.5937 633 68.6809 159.205 563.779
964 0 52.1589 12.7878 667 68.3688 158.588 563.501
965 0 56.0979 13.5299 759 66.6443 158.032 562.922
966 0 55.1066 13.5193 745 67.8443 157.942 561.847
967 0 57.1732 13.9401 797 66.7616 157.996 560.824
968 0 59.0472 14.5985 862 65.9838 157.986 560.355
969 0 62.1358 14.0016 870 66.2667 157.808 559.293
970 0 65.191 14.3885 938 65.9168 157.564 558.526
971 0 65.0588 13.4494 875 68.3051 157.737 556.958
972 0 68.0334 14.2136 967 66.6567 157.948 555.25
973 0 72.1925 13.9627 1008 66.5982 157.995 554.629
974 0 73.2102 13.55 992 67.5212 157.773 555.3
975 0 78.2373 14.3282 1121 66.2453 157.619 553.935
976 0 77.1572 13.9585 1077 68.1606 157.046 551.096
977 0 82.1279 13.5764 1115 68.5686 156.625 549.185
978 0 86.3375 13.8989 1200 67.09 156.396 549.115
979 0 86.1327 14.1061 1215 68.3531 156.104 546.959
980 1 43.1155 11.9215 514 68.4961 156.255 569.412
981 0 45.2503 11.1822 506 69.6878 156.31 568.642
982 0 48.2352 11.1744 539 69.0779 155.668 568.356
983 0 49.3395 12.8295 633 66.6888 155.763 566.66
984 0 50.2495 12.8956 648 67.8117 155.787 564.856
985 0 49.3184 12.47 615 70.2341 156.249 565.54
986 0 54.3932 13.9172 757 66.9194 156.483 564.284
987 0 55.0969 13.3583 736 67.4742 156.678 564.874
988 0 56.3641 13.1644 742 67.6065 156.686 563.465
989 0 58.3712 13.3628 780 67.5141 156.081 561.935
990 0 59.1221 13.599 804 67.0585 155.959 562.698
991 0 63.2587 13.342 844 67.1552 155.944 560.978
992 0 65.2366 14.1025 920 65.6011 155.499 559.822
993 0 66.192 13.4155 888 66.759 155.363 559.239
994 0 68.2181 14.3657 980 65.5143 155.665 556.406
995 0 70.4821 13.2516 934 67.7709 155.919 557.829
996 0 71.3055 13.351 952 67.9328 155.928 555.319
997 0 74.3738 13.5263 1006 67.661 156.252 556.84
998 0 76.4027 13.2456 1012 68.0573 156.01 555.276
999 0 79.3224 12.8715 1021 68.4878 155.663 553.311
1000 0 80.263 13.3312 1070 68.3168 156.646 552.417
1001 0 84.3853 14.0309 1184 66.8514 156.332 550.973
1002 0 85.2316 13.1876 1124 68.2562 156.11 549.528
1003 0 90.5316 14.1166 1278 66.2191 155.691 547.278
1004 0 92.3018 13.7159 1266 67.0727 155.356 544.692
1005 1 47.1312 12.6243 595 69.2403 155.696 566.926
1006 0 50.1493 12.5226 628 68.6624 156.193 566.944
1007 0 52.1328 13.082 682 68.0894 156.594 564.858
1008 0 54.201 13.7451 745 67.1195 156.835 564.596
1009 0 56.2677 13.7379 773 66.9935 156.997 564.111
1010 0 56.2475 13.8317 778 67.5193 156.647 562.909
1011 0 61.2374 13.6191 834 67.97 156.899 562.343
1012 0 62.3193 14.8429 925 65.907 156.726 561.779
1013 0 65.2464 14.4836 945 66.3407 156.498 561.461
1014 0 67.2285 14.4879 974 66.6591 156.346 559.513
1015 0 69.3756 14.6449 1016 66.1329 156.42 558.332
1016 0 71.4058 15.4609 1104 65.0951 156.27 556.423
1017 0 74.1184 13.7213 1017 66.9223 156.482 556.517
1018 0 77.3482 14.2343 1101 66.059 157.035 554.356
1019 0 81.3606 14.4665 1177 65.4545 157.349 553.342
1020 0 83.2254 14.5749 1213 65.5573 157.017 551.42
1021 0 86.3102 14.332 1237 65.7074 157.041 551.164
1022 0 90.3085 15.2699 1379 63.8644 157.51 551.226
1023 1 46.2403 12.0674 558 69.1936 157.64 570.093
1024 0 46.2886 12.8973 597 70.0469 157.695 568.809
1025 0 49.2533 13.9686 688 67.0712 157.513 569.124
1026 0 51.2268 13.7623 705 67.3007 157.339 569.121
1027 0 51.087 14.1132 721 67.111 157.368 568.049
1028 0 53.1236 14.6074 776 66.4639 157.896 566.075
1029 0 56.2785 15.2101 856 65.1519 158.28 565.618
1030 0 58.05 14.6081 848 66.1073 158.177 563.3
1031 0 60.1144 15.5537 935 64.6963 158.121 560.835
1032 0 61.2697 14.7218 902 65.7517 158.116 561.112
1033 0 64.2067 14.0484 902 66.1674 158.327 560.428
1034 0 67.1648 14.4867 973 65.333 158.388 559.22
1035 0 68.2479 14.0957 962 66.6185 157.818 558.183
1036 0 71.1547 15.3468 1092 64.2875 158.441 557.5
1037 0 73.1808 15.2089 1113 65.5058 158.541 555.87
1038 1 37.0528 12.4147 460 67.9022 158.759 573.163
1039 0 39.0281 12.6832 495 66.9899 159.275 572.857
1040 0 39.0267 12.7605 498 67.5361 159.867 572.753
1041 0 41.0135 13.5565 556 67.8543 160.324 571.541
1042 0 44.0869 14.2219 627 66.1244 160.502 570.352
1043 0 44.2591 13.6469 604 67.9404 160.267 568.581
1044 0 48.0599 14.2739 686 66.5525 160.224 569.356
1045 0 48.1225 14.4839 697 67.0072 160.501 567.014
1046 0 49.0634 14.5118 712 67.0506 160.343 566.013
1047 0 51.2145 14.41 738 66.9946 160.198 566.489
1048 0 52.0739 14.4602 753 67.7397 160.276 564.467
1049 0 55.3106 15.1327 837 65.9104 160.174 563.933
1050 0 57.1079 15.0242 858 66.6061 160.469 562.607
1051 0 58.2244 14.8392 864 67.0694 160.215 561.14
1052 0 60.1684 15.0245 904 67.3927 160.719 561.338
1053 0 63.2358 14.7701 934 67.697 160.309 560.33
1054 0 65.2702 14.8919 972 67.713 160.939 559.121
1055 0 68.2012 14.8971 1016 67.6732 160.736 557.996
1056 0 69.2619 14.3225 992 69.1683 160.966 556.358
1057 0 71.1248 14.7768 1051 68.9229 160.838 555.212
1058 0 75.2386 15.3379 1154 67.8978 160.841 553.501
1059 0 77.2611 14.0692 1087 69.6716 160.454 553.034
1060 0 81.2855 15.0457 1223 68.1472 160.521 550.788
1061 0 84.2228 14.901 1255 68.0892 160.324 550.365
1062 1 41.2372 11.7855 486 71.4732 160.029 571.317
1063 0 43.2294 12.6534 547 70.8208 159.682 569.525
1064 0 44.0562 13.3239 587 70.9847 159.882 568.634
1065 0 46.1431 13.3498 616 71.7354 160.132 569.057
1066 0 48.0871 13.7251 660 71.1788 160.147 567.505
1067 0 48.1164 15.4625 744 69.3306 160.573 566.503
1068 0 50.135 14.4011 722 70.4945 160.208 566.165
1069 0 55.3064 15.0977 835 67.9006 160.085 564.528
1070 0 56.205 15.6392 879 67.7656 159.738 563.135
1071 0 57.2398 14.1859 812 70.0222 159.894 561.856
1072 0 60.1173 15.2369 916 68.3188 160.108 561.39
1073 0 61.1572 15.1904 929 68.9419 159.874 560.56
1074 0 65.2565 15.2628 996 67.7088 159.734 558.241
1075 0 66.3488 14.6951 975 68.6718 159.059 558.592
1076 0 70.4523 14.9463 1053 67.5916 159.147 557.074
1077 0 71.2603 14.3839 1025 69.5346 158.918 555.172
1078 0 72.128 14.5159 1047 69.8233 159.02 553.476
1079 0 77.4357 14.8381 1149 68.3098 159.238 553.773
1080 0 78.3877 14.6324 1147 69.3758 159.011 550.808
1081 1 38.4615 12.246 471 71.4289 159.085 570.777
1082 0 40.752 12.392 505 71.4713 159.271 570.117
1083 0 41.484 12.8483 533 72.9137 159.27 568.734
1084 0 44.4979 13.8658 617 69.8347 159.483 568.601
1085 0 45.3661 13.7107 622 72.3939 159.455 567.812
1086 0 45.4426 14.9199 678 71.969 159.323 565.308
1087 0 48.5315 14.0733 683 72.4832 159.113 566.102
1088 0 49.4899 15.0132 743 71.4051 158.868 565.004
1089 0 49.5402 15.1796 752 72.0838 158.831 565.558
1090 0 52.572 15.3694 808 71.4418 158.796 564.397
1091 0 53.5364 14.831 794 72.7418 159.067 563.916
1092 0 54.3619 15.1393 823 72.9259 159.221 564.027
1093 0 57.5438 15.5707 896 72.0536 159.095 562.172
1094 0 58.7776 15.6692 921 72.4484 158.783 561.843
1095 0 61.6445 14.973 923 73.8082 158.715 560.386
1096 0 63.759 14.7587 941 74.1212 158.307 560.261
1097 0 66.7828 14.7194 983 74.6043 158.266 558.42
1098 0 68.679 15.2885 1050 73.9762 158.744 556.827
1099 0 71.8379 15.9804 1148 72.8972 158.449 556.393
1100 0 75.6139 14.5476 1100 75.2373 158.643 555.376
1101 0 74.3928 15.0955 1123 76.3713 158.074 554.301
1102 0 77.7004 14.8262 1152 76.5156 158.252 554.718
1103 1 37.3518 12.3957 463 81.4946 158.577 571.443
1104 0 38.4954 12.495 481 81.4262 158.649 571.798
1105 0 39.5512 13.1475 520 81.1981 158.496 571.1
1106 0 40.3269 13.4154 541 81.4196 158.416 570.161
1107 0 43.4267 14.3 621 79.351 158.283 569.734
1108 0 42.3277 13.7262 581 81.0723 158.212 569.649
1109 0 45.3134 14.2783 647 80.5147 157.972 570.601
1110 0 48.6524 14.3056 696 79.5575 158.306 566.803
1111 0 48.3807 14.0552 680 80.8 158.163 568.522
1112 0 51.4002 14.6887 755 79.302 158.152 567.548
1113 0 53.3284 14.6451 781 80.1191 158.215 566.667
1114 0 53.321 14.5909 778 81.1427 158.351 565.731
1115 0 55.5822 14.663 815 80.4969 157.58 566.558
1116 0 57.4051 14.8419 852 80.4002 157.407 565.088
1117 0 60.6711 14.2242 863 81.3662 157.431 563.532
1118 0 62.4767 14.9015 931 79.7035 157.359 563.414
1119 0 65.3318 13.9442 911 81.3337 157.237 560.03
1120 0 66.468 14.4129 958 81.477 157.312 558.806
1121 0 68.3431 14.3833 983 81.707 157.44 559.982
1122 0 71.4216 14.4914 1035 81.3362 157.279 555.597
1123 0 74.2698 13.9626 1037 81.1061 156.689 556.795
1124 1 37.2569 11.6488 434 84.9355 157.585 572.53
1125 0 38.1189 12.3298 470 83.0808 157.823 571.345
1126 0 42.1278 13.0793 551 81.6788 157.753 571.098
1127 0 41.177 13.2355 545 82.7706 157.237 569.442
1128 0 43.0649 13.4913 581 81.9346 157.112 569.599
1129 0 45.2511 13.9002 629 80.3736 156.719 570.305
1130 0 43.1471 13.6742 590 82.8034 157.227 571.063
1131 0 47.1079 13.6283 642 81.5701 157.206 570.478
1132 0 48.1861 13.9459 672 80.8155 157.555 569.135
1133 0 48.1539 13.3738 644 82.472 156.772 568.309
1134 0 52.303 14.3204 749 79.5981 157.231 567.287
1135 0 52.189 14.3517 749 80.7664 156.967 564.401
1136 0 55.0483 14.2784 786 79.9237 156.454 564.104
1137 0 57.1869 13.8843 794 80.7494 156.783 563.843
1138 0 58.1368 13.9327 810 81.4704 157.285 561.268
1139 0 60.1293 13.2049 794 82.6108 157.218 560.816
1140 0 61.1046 13.6651 835 82.2575 157.583 559.244
1141 0 64.1305 14.2054 911 83.1142 157.887 556.898
1142 0 69.1489 13.9265 963 82.6366 157.945 556.103
1143 0 71.181 13.4727 959 83.3399 157.822 554.781
1144 1 39.0487 10.1412 396 82.3788 157.528 572.252
1145 0 39.0243 10.3269 403 82.7519 157.382 571.325
1146 0 42.0683 11.1961 471 82.3418 157.127 569.344
1147 0 42.05 10.6778 449 82.5011 157.301 568.677
1148 0 43.1175 11.6658 503 82.1769 157.264 567.833
1149 0 45.1274 12.5423 566 81.2562 158.166 565.686
1150 0 48.0954 11.9554 575 80.6748 158.397 567.044
1151 0 48.187 11.8497 571 82.2224 158.739 563.672
1152 0 50.2503 12.9352 650 79.1615 159.452 563.871
1153 0 52.3603 12.7769 669 78.1749 159.994 564.604
1154 0 53.2265 12.7568 679 77.9823 160.158 563.059
1155 0 55.4964 12.9198 717 77.4059 160.119 562.722
1156 0 54.1203 12.5461 679 78.7968 160.513 560.713
1157 0 57.2372 12.6142 722 77.8906 160.756 558.877
1158 0 60.4831 12.9788 785 76.3019 160.888 556.526
1159 0 62.2617 12.2708 764 76.75 160.919 556.122
1160 0 64.655 12.5435 811 76.725 161.424 554.324
1161 0 67.6966 12.2606 830 76.5819 161.282 553.494
1162 0 70.7345 11.9037 842 76.9157 161.474 552.58
1163 0 72.4536 11.6626 845 77.6805 161.362 550.301
1164 0 75.4423 12.4466 939 75.8317 161.456 547.954
1165 0 78.4632 12.1586 954 75.3889 161.289 548.059
1166 1 42.5084 10.2803 437 75.7529 158.114 563.442
1167 0 44.6194 10.7576 480 74.0917 160.208 563.867
1168 0 46.4781 10.5856 492 74.7744 162.799 563.852
1169 0 45.4627 9.9862 454 76.5044 162.447 563.452
1170 0 47.8511 12.0164 575 73.68 162.948 560.524
1171 0 48.2883 11.9905 579 73.7876 162.703 561.523
1172 0 50.5567 11.8481 599 73.0017 162.412 559.553
1173 0 53.5316 12.2544 656 71.9985 162.366 559.098
1174 0 55.8045 11.6836 652 72.9801 162.474 558.462
1175 0 57.5088 12.0503 693 72.1804 162.442 557.55
1176 0 57.4202 12.7655 733 72.0641 162.835 555.282
1177 0 59.467 12.5111 744 72.1384 162.905 555.277
1178 0 61.6441 11.9395 736 73.1685 163.023 554.079
1179 0 64.7041 12.194 789 72.3523 163.191 552.63
1180 0 65.8244 11.3484 747 74.3347 163.107 551.929
1181 0 67.7074 12.362 837 72.8793 163.277 551.726
1182 0 67.7539 11.955 810 74.1444 163.086 549.932
1183 0 70.6566 11.9592 845 74.0118 162.707 549.625
1184 0 74.8396 12.5067 936 72.7137 161.947 547.647
1185 0 77.4767 12.5844 975 72.921 161.886 544.555
1186 0 78.6946 12.4024 976 73.5492 162.135 543.03
1187 0 83.7287 12.863 1077 72.2544 162.281 543.539
1188 1 44.5332 9.94762 443 73.8081 162.472 560.603
1189 0 48.5043 8.84457 429 74.359 162.359 561.471
1190 0 48.5314 9.8493 478 72.9121 162.092 561.692
1191 0 49.3766 10.1465 501 72.2555 162.385 559.136
1192 0 51.1941 10.4895 537 73.1564 161.97 556.993
1193 0 53.1409 11.1778 594 71.2879 160.788 558.157
1194 0 54.1745 11.0753 600 70.6083 160.798 558.17
1195 0 56.0545 11.1677 626 71.7508 160.704 557.299
1196 0 58.1308 11.1817 650 72.3369 158.088 555.525
1197 0 60.2044 10.946 659 72.7906 158.812 556.546
1198 0 61.2494 11.9675 733 71.2974 158.94 556.986
1199 0 62.2144 11.7658 732 72.7145 159.316 554.601
1200 0 62.3669 11.5766 722 73.4986 159.737 552.558
1201 0 66.3802 11.6902 776 73.1302 159.822 553.604
1202 0 67.2826 12.0536 811 73.2108 159.92 551.931
1203 0 71.3599 12.2197 872 72.0768 160.617 546.927
1204 0 74.5124 11.7027 872 74.3234 160.548 549.212
1205 0 77.6599 12.001 932 74.7457 159.823 549.653
1206 0 80.5718 12.5602 1012 73.3666 160.055 548.968
1207 0 82.3473 12.0465 992 74.4234 159.925 549.128
1208 0 85.2884 12.2643 1046 74.1864 159.397 547.079
1209 1 43.1105 9.90478 427 75.5129 160.311 565.74
1210 0 44.2491 10.0115 443 74.1828 160.582 565.172
1211 0 45.2189 9.99582 452 74.75 159.558 565.88
1212 0 49.0588 11.0684 543 72.3333 158.65 564.972
1213 0 51.0509 11.4592 585 72.3009 158.976 563.506
1214 0 53.0856 11.7358 623 73.1541 158.96 563.393
1215 0 54.1273 11.3251 613 71.863 157.667 564.571
1216 0 55.1699 11.3286 625 72.2976 157.57 563.704
1217 0 57.087 10.9132 623 72.6613 157.815 563.111
1218 0 58.1452 10.8005 628 73.3264 157.619 561.597
1219 0 60.1154 11.4114 686 72.051 157.926 561.516
1220 0 62.1316 11.7653 731 71.1423 157.996 560.408
1221 0 62.1058 11.8185 734 72.1594 157.989 558.552
1222 0 63.1572 11.986 757 71.9842 158.223 558.372
1223 0 67.0825 12.8498 862 69.6032 156.845 557.263
1224 0 68.1072 11.8343 806 71.7655 157.057 555.589
1225 0 69.0667 11.4672 792 72.5732 154.965 554.924
1226 0 73.1655 12.7109 930 70.2688 155.783 555.451
1227 0 74.1555 11.6377 863 72.4936 156.879 553.992
1228 0 78.1902 12.6614 990 70.2374 157.288 552.7
1229 0 81.1347 12.3622 1003 70.6471 156.857 552.187
1230 0 82.12 12.0799 992 71.6452 157.106 549.478
1231 0 84.1254 12.5765 1058 70.7221 156.878 549.698
1232 0 87.2035 12.7862 1115 70.6161 156.761 546.578
1233 0 87.1883 12.3984 1081 71.876 156.523 547.187
1234 0 90.061 12.536 1129 71.3756 155.706 545.43
1235 0 92.1557 12.544 1156 71.9697 155.882 543.636
1236 0 97.0684 12.2491 1189 71.2044 156.75 540.071
1237 0 100.123 12.8043 1282 70.1108 156.318 541.172
1238 0 103.122 12.9556 1336 70.0868 156.579 539.701
1239 0 106.241 13.2811 1411 70.2077 156.236 538.162
1240 0 109.215 13.1575 1437 70.5685 157.022 537.652
1241 0 114.104 12.8479 1466 70.7237 156.306 535.358
1242 1 58.0785 10.0554 584 70.2192 156.271 564.128
1243 0 58.0932 11.4471 665 68.603 157.126 564.8
1244 0 62.1663 11.4371 711 66.9423 156.679 563.153
1245 0 62.1247 11.5413 717 68.0404 157.317 561.594
1246 0 64.1419 11.724 752 67.1862 156.492 560.451
1247 0 64.0919 12.1388 778 67.7854 156.581 558.527
1248 0 68.1292 11.8892 810 68.7062 156.517 558.407
1249 0 70.2506 12.6974 892 67.5751 156.378 556.917
1250 0 73.2009 13.1419 962 66.8753 156.474 555.068
1251 0 75.1476 12.4289 934 68.3854 156.134 554.093
1252 0 78.1333 12.5811 983 67.8861 157.122 551.845
1253 0 80.2944 13.0395 1047 67.3324 157.137 550.083
1254 0 81.3796 12.8165 1043 69.9875 156.948 548.503
1255 0 88.5018 12.1692 1077 68.7846 157.14 544.856
1256 1 46.3109 10.2784 476 69.6408 158.065 561.097
1257 0 47.3354 10.3939 492 70.5691 158.26 560
1258 0 49.3435 11.268 556 69.5216 158.995 561.309
1259 0 50.3696 12.2693 618 68.0809 158.88 560.82
1260 0 53.3742 12.1969 651 67.8264 159.751 563.538
1261 0 53.4042 12.3211 658 69.0881 159.21 562.161
1262 0 55.3349 12.2527 678 69.2035 159.034 562.835
1263 0 55.0714 12.9468 713 69.0519 158.554 562.189
1264 0 58.1349 12.7462 741 69.0121 158.351 560.488
1265 0 61.2393 12.443 762 68.5696 158.744 560.345
1266 0 61.0864 12.556 767 69.5828 158.948 557.186
1267 0 61.0891 12.4408 760 70.2487 159.057 557.801
1268 0 65.1626 13.1978 860 68.0942 159.066 559.305
1269 0 67.1689 12.9078 867 68.5363 159.189 557.559
1270 0 69.032 12.7187 878 69.3064 159.516 555.886
1271 0 71.164 12.3377 878 70.008 160.068 553.682
1272 0 74.1336 13.4487 997 67.8746 160.265 550.62
1273 0 78.1566 13.6649 1068 67.2762 160.986 551.156
1274 0 77.3032 12.4833 965 69.7741 161.382 550.265
1275 0 81.2278 13.2098 1073 68.9553 161.9 548.023
1276 1 41.0694 10.0561 413 70.4286 163.266 568.952
1277 0 43.0144 10.2059 439 69.2893 163.232 567.729
1278 0 44.0285 11.061 487 68.4333 163.692 566.942
1279 0 45.0267 11.1267 501 67.6367 163.297 566.892
1280 0 46.0959 12.0835 557 66.7145 162.616 567.413
1281 0 48.0455 11.5932 557 67.5206 162.752 567.03
1282 0 49.1314 11.7847 579 67.3782 162.807 564.829
1283 0 51.0763 12.1779 622 66.5579 163.167 563.74
1284 0 52.0325 12.3 640 67.2906 163.414 562.991
1285 0 53.0865 12.3572 656 66.8567 162.931 563.556
1286 0 54.0292 12.8079 692 66.9913 161.882 563.188
1287 0 54.0814 12.3148 666 68.3769 162.339 561.574
1288 0 57.1045 12.2057 697 68.2539 162.395 561.796
1289 0 57.0321 13.4661 768 67.5195 162.668 561.094
1290 0 57.0662 12.4242 709 69.5416 162.804 560.405
1291 0 61.1179 12.2386 748 69.3516 162.587 559.834
1292 0 63.0371 12.913 814 68.683 162.679 559.307
1293 0 63.0947 12.6001 795 70.3572 162.75 557.216
1294 0 66.1599 13.2255 875 68.584 162.634 556.785
1295 0 67.1083 13.2621 890 68.7876 162.643 556.73
1296 0 70.0973 13.0818 917 69.9498 162.407 553.598
1297 0 72.2186 13.1268 948 69.9293 162.42 552.809
1298 0 75.1085 13.2209 993 69.5096 162.834 551.365
1299 1 40.0365 10.0908 404 72.2574 162.983 570.5
1300 0 40.0421 10.489 420 71.9881 163.14 570.771
1301 0 43.0528 11.8459 510 69.9059 163.367 568.665
1302 0 43.0726 12.4209 535 69.9794 163.501 568.333
1303 0 45.1087 11.7272 529 71.034 164.242 567.603
1304 0 45.1255 12.3877 559 69.6404 163.859 568.181
1305 0 47.1482 12.4713 588 69.8469 163.344 566.371
1306 0 49.1108 12.0136 590 70.8085 163.047 566.68
1307 0 49.1595 11.7576 578 72.1626 163.069 564.751
1308 0 50.1814 12.9131 648 70.6759 162.475 564.083
1309 0 53.1273 12.4606 662 70.5861 162.091 564.409
1310 0 52.1786 12.5722 656 71.6128 162.37 562.919
1311 0 54.1041 12.7717 691 71.6208 162.388 561.783
1312 0 55.0839 12.49 688 72.0087 161.852 561.342
1313 0 57.2396 12.8058 733 71.5552 161.806 561.595
1314 0 58.0962 12.7719 742 71.9272 161.484 560.204
1315 0 61.135 12.9386 791 70.3868 161.252 559.807
1316 0 62.1787 13.2039 821 70.9622 160.534 560.503
1317 0 64.1666 12.2182 784 72.1645 160.557 561.018
1318 0 66.1466 12.9863 859 71.2468 160.313 559.155
1319 0 69.1564 12.5513 868 71.6682 159.975 553.68
1320 0 69.2035 13.1496 910 71.5912 159.825 556.963
1321 0 72.0649 13.1964 951 71.3333 159.971 554.529
1322 0 73.1621 12.3698 905 72.842 159.254 554.386
1323 0 76.1706 13.1416 1001 71.4346 159.457 551.966
1324 1 41.0158 10.63 436 71.3463 159.865 572.881
1325 0 40.0209 10.2696 411 72.2725 159.526 572.358
1326 0 40.0281 9.99299 400 73.3875 159.42 570.682
1327 0 43.0692 10.7501 463 73.2246 158.734 569.821
1328 0 43.0985 11.6477 502 71.6753 158.482 568.669
1329 0 47.1472 12.7685 602 68.9336 159.784 567.879
1330 0 48.181 12.5361 604 69.5132 159.818 567.093
1331 0 49.1954 12.0946 595 69.8824 159.578 567.684
1332 0 50.2368 12.0032 603 69.4013 159.26 566.158
1333 0 51.1058 12.6405 646 70.4365 158.604 565.728
1334 0 51.2033 11.2688 577 74.7036 159.324 566.281
1335 0 52.1486 11.8699 619 73.4766 159.153 565.039
1336 0 54.1892 11.995 650 72.6338 159.078 564.691
1337 0 57.121 13.13 750 70.076 158.697 563.773
1338 0 58.0773 12.0357 699 71.8941 158.707 563.434
1339 0 60.0917 11.9318 717 71.9233 158.989 561.492
1340 0 62.1131 12.3967 770 70.0974 158.744 562.051
1341 0 65.1786 12.6729 826 69.1416 158.608 560.86
1342 0 66.1358 12.2778 812 70.1404 159.117 556.557
1343 0 69.0685 11.8578 819 69.7888 158.61 555.965
1344 0 71.2003 11.9382 850 69.36 158.244 556.987
1345 0 75.1089 12.7282 956 67.6234 158.426 554.502
1346 1 41.0312 9.57808 393 68.9975 159.069 572.888
1347 0 41.0176 9.09365 373 70.1099 159.164 571.18
1348 0 44.0249 10.8348 477 67.2138 159.302 571.633
1349 0 44.0452 11.3974 502 67.8665 158.968 569.418
1350 0 44.0337 11.6275 512 67.4961 158.281 569.305
1351 0 48.0622 12.3174 592 65.4054 158.242 568.334
1352 0 47.0398 11.2671 530 68.2057 158.383 566.483
1353 0 51.0785 11.7466 600 66.39 156.91 568.023
1354 0 51.0722 10.7886 551 67.8294 157.045 567.666
1355 0 54.0764 11.5762 626 66.1358 156.636 566.256
1356 0 54.1054 11.9397 646 66.8437 156.526 565.328
1357 0 54.164 12.0929 655 66.7374 156.047 565.415
1358 0 56.0584 11.6129 651 66.6359 156.544 565.356
1359 0 58.0597 12.1427 705 65.8525 156.294 563.316
1360 0 62.0746 12.8877 800 63.8425 156.64 561.778
1361 0 60.2224 11.4409 689 67.18 156.586 562.35
1362 0 62.0796 10.9698 681 68.0308 156.815 562.034
1363 0 66.1306 12.0065 794 65.5919 156.737 560.775
1364 0 66.0946 12.2249 808 66.2698 156.861 560.243
1365 0 69.136 11.7016 809 66.9543 156.613 559.852
1366 0 71.1527 12.1991 868 66.1083 156.462 558.139
1367 1 38.0086 11.0501 420 66.4714 157.143 575.071
1368 0 40.0845 10.1535 407 66.742 156.17 574.636
1369 0 37.0238 10.7228 397 68.1108 156.335 573.536
1370 0 40.0573 10.8844 436 68.2133 156.729 571.546
1371 0 42.0158 10.3057 433 68.0323 156.97 573.393
1372 0 44.0984 11.8825 524 65.4733 155.424 573.437
1373 0 44.0807 11.5697 510 67.2333 156.118 571.186
1374 0 44.1199 11.7861 520 67.0885 156.279 571.083
1375 0 46.1785 11.0441 510 68.7059 156.573 570.102
1376 0 49.1677 11.6947 575 66.9878 156.697 570.419
1377 0 48.0905 11.6863 562 67.6192 156.674 569.183
1378 0 51.2338 11.6329 596 67.3624 156.591 568.748
1379 0 52.1156 12.031 627 66.7448 156.407 568.542
1380 0 52.1366 12.0453 628 67.9904 156.331 568.024
1381 0 53.2203 12.157 647 67.694 156.706 568.113
1382 0 56.1859 12.3341 693 64.9206 156.307 565.442
1383 0 58.1833 12.9934 756 63.3029 156.722 566.46
1384 0 57.1009 11.6986 668 67.3832 156.379 564.277
1385 0 61.1132 12.6487 773 67.4722 156.494 562.028
1386 0 61.0942 12.3743 756 68.2884 156.796 561.806
1387 0 64.2298 12.4086 797 67.3062 156.765 560.806
1388 0 68.1241 13.5635 924 64.9708 156.733 559.657
1389 0 70.0757 12.5008 876 66.6906 157.193 559.203
1390 0 70.1441 12.7452 894 67.2673 157.658 557.562
1391 0 74.2253 13.1896 979 66.0899 157.705 556.931
1392 0 75.097 13.1164 985 67.064 158.205 555.993
1393 1 39.043 10.4244 407 68.4103 158.477 573.111
1394 0 44.046 11.6242 512 65.8535 158.508 573.068
1395 0 43.097 10.9984 474 68.2131 158.774 572.013
1396 0 45.0127 11.7078 527 66.6167 159.307 570.676
1397 0 45.0127 11.7744 530 152.357 160.277 570.576
1398 0 49.045 11.9278 585 66.0068 160.183 568.523
1399 0 49.0686 12.7984 628 65.7691 160.014 568.049
1400 0 52.0569 13.0626 680 64.1824 160.146 567.184
1401 0 53.037 13.2172 701 64.3395 160.465 565.544
1402 0 55.0324 12.7743 703 64.7269 160.292 564.441
1403 0 57.0823 12.6659 723 63.6888 160.178 564.155
1404 0 56.0834 12.8737 722 64.3407 160.406 563.632
1405 0 57.0283 12.6955 724 64.4033 160.612 561.957
1406 0 61.0279 13.0924 799 63.0313 161.016 559.79
1407 0 62.0652 13.3408 828 62.5785 161.331 558.45
1408 0 65.0295 13.2094 859 61.8882 161.976 557.789
1409 0 65.051 12.4056 807 63.3086 161.934 557.317
1410 0 69.0357 13.1961 911 61.7486 162.003 555.641
1411 0 69.1425 12.4236 859 63.1234 162.399 554.789
1412 0 74.0632 13.1644 975 61.7908 162.465 553.436
1413 0 74.1183 12.7904 948 62.2352 162.343 552.827
1414 0 78.0492 12.3384 963 62.1662 162.133 552.534
1415 1 45.0478 11.9651 539 60.9722 161.82 570.143
1416 0 47.0471 12.2643 577 61.6586 161.764 568.068
1417 0 50.0747 11.7025 586 61.8498 161.749 567.401
1418 0 50.0603 11.5461 578 62.6246 161.635 567.737
1419 0 50.1675 12.3387 619 61.8433 161.552 564.708
1420 0 52.119 13.0471 680 61.0338 161.318 564.557
1421 0 54.0727 12.2428 662 62.1813 161.869 563.754
1422 0 57.0458 13.0772 746 61.3418 161.796 562.67
1423 0 58.0675 13.2949 772 60.9158 161.843 564.095
1424 0 59.0811 13.1853 779 62.5058 161.949 560.203
1425 0 60.0923 13.3128 800 62.2612 161.665 559.852
1426 0 62.1083 13.2832 825 63.2703 161.568 558.555
1427 0 63.0828 13.5378 854 63.3513 161.425 557.662
1428 0 69.0677 14.3048 988 60.8826 161.713 557.078
1429 0 71.1019 13.5439 963 62.0446 161.486 555.127
1430 0 74.1444 14.202 1053 61.2906 161.209 554.571
1431 0 75.1122 13.7794 1035 62.6696 160.945 553.054
1432 0 78.1364 13.95 1090 62.7119 160.622 551.857
1433 0 83.0838 14.2988 1188 61.7904 160.806 552.056
1434 0 84.2285 14.0689 1185 63.827 161.59 550.17
1435 0 86.1468 13.3145 1147 65.4534 161.866 549.27
1436 1 44.0442 11.443 504 67.4524 161.115 570.064
1437 0 43.0654 11.9818 516 67.2868 161.279 570.322
1438 0 46.1747 12.8642 594 66.2677 161.729 567.205
1439 0 48.1917 13.0935 631 65.9319 161.536 567.426
1440 0 48.0583 12.6513 608 66.6316 160.084 565.893
1441 0 51.0208 13.7787 703 64.9644 161.004 566.272
1442 0 53.024 13.2581 703 65.4125 160.966 565.405
1443 0 56.0526 14.201 796 63.8317 160.535 565.175
1444 0 56.0281 13.5468 759 65.0843 160.096 563.726
1445 0 57.0526 13.1282 749 66.0294 159.652 562.523
1446 0 58.0437 13.3692 776 66.3518 159.956 560.76
1447 0 61.0818 13.7357 839 64.9738 160.141 561.138
1448 0 64.0707 13.7348 880 64.7398 160.81 559.45
1449 0 66.0851 13.5129 893 65.0179 160.398 558.053
1450 0 68.0443 13.7263 934 64.5728 160.366 556.973
1451 0 71.1306 13.7634 979 65.189 160.051 555.274
1452 0 73.1414 13.4261 982 65.3401 159.72 554.224
1453 0 74.1459 13.6218 1010 66.0931 159.298 552.892
1454 0 78.0691 14.0388 1096 64.9407 159.575 553.347
1455 0 80.1373 13.7888 1105 65.5466 159.151 551.629
1456 0 84.1593 13.7002 1153 66.0729 158.7 550.245
1457 0 84.0615 13.5734 1141 67.0421 159.007 549.572
1458 0 89.1201 14.5422 1296 65.4352 159.067 547.809
1459 0 91.1384 14.9333 1361 65.5018 158.731 546.27
1460 0 94.1025 14.3886 1354 66.7496 158.989 544.996
1461 0 98.1949 14.074 1382 66.9226 158.79 544.636
1462 0 99.2324 13.8967 1379 67.541 158.542 541.478
1463 0 103.176 13.8114 1425 68.0007 158.938 540.469
1464 0 106.176 14.7962 1571 66.6607 157.949 537.205
1465 0 110.275 14.482 1597 67.2423 157.917 533.823
1466 1 57.0554 10.1656 580 69.4379 157.579 563.857
1467 0 60.1188 11.6935 703 68.6088 157.257 562.909
1468 0 61.137 11.5969 709 69.2243 157.164 560.506
1469 0 62.0793 12.7901 794 67.6839 156.82 558.641
1470 0 62.0624 12.3424 766 70.0026 157.717 559.347
1471 0 65.1257 12.9749 845 68.6083 157.323 557.305
1472 0 67.0958 13.2348 888 68.3086 157.467 557.805
1473 0 71.0931 12.9126 918 68.1449 157.615 555.463
1474 0 74.0912 12.9705 961 68.2445 157.368 555.675
1475 0 77.1263 12.8491 991 68.8012 157.076 554.573
1476 0 78.1586 12.7689 998 69.5361 156.929 551.594
1477 0 80.2144 13.3268 1069 68.8157 157.19 553.112
1478 0 84.1023 13.6263 1146 67.9782 157.147 548.503
1479 0 87.0505 12.9006 1123 69.3678 156.3 548.036
1480 0 90.0915 13.6861 1233 68.1987 156.288 547.62
1481 0 93.1951 12.9191 1204 69.8488 156.39 545.397
1482 0 96.0927 13.9345 1339 68.823 157.028 544.376
1483 0 98.2558 13.5157 1328 70.055 156.506 541.265
1484 0 101.289 13.18 1335 70.6172 156.305 541.019
1485 1 54.1386 10.8425 587 70.5162 155.889 565.649
1486 0 54.1032 9.92548 537 72.1862 156.104 566.538
1487 0 57.1166 11.4503 654 69.8165 155.974 562.329
1488 0 59.1045 12.5879 744 67.9368 155.78 563.813
1489 0 59.101 12.1995 721 69.2039 156.183 561.85
1490 0 64.1574 11.9861 769 68.1378 156.268 562.088
1491 0 65.1689 12.3679 806 67.7332 156.261 561.132
1492 0 66.1741 12.4218 822 68.6728 156.238 558.687
1493 0 70.1387 12.846 901 67.3074 156.353 557.704
1494 0 73.2286 13.2052 967 66.9504 156.329 556.178
1495 0 73.1701 13.1748 964 67.9544 156.419 556.138
1496 0 75.1858 13.5664 1020 68.0304 156.467 553.893
1497 0 78.192 12.6356 988 69.3856 156.654 552.658
1498 0 80.3016 12.9512 1040 69.1952 157.305 551.382
1499 0 84.1875 13.1848 1110 68.8036 157.585 551.13
1500 0 87.2979 12.3943 1082 70.6978 158.464 547.679
1501 0 88.4116 13.3693 1182 69.2614 158.398 547.013
1502 0 90.4653 12.6457 1144 70.8191 158.96 546.085
1503 0 94.2916 12.8007 1207 70.5501 159.553 543.524
1504 1 50.2711 11.0401 555 68.627 159.881 567.196
1505 0 49.2077 10.5065 517 70.6248 159.824 564.899
1506 0 53.3644 10.6251 567 70.7284 159.314 565.035
1507 0 56.3233 11.3452 639 68.1518 158.742 564.858
1508 0 56.195 11.5135 647 69.1159 158.807 564.428
1509 0 56.0993 11.8896 667 68.9895 158.861 563.793
1510 0 60.1758 11.9483 719 68.1836 158.821 562.42
1511 0 60.2119 12.1903 734 68.267 158.931 561.703
1512 0 61.1481 12.3307 754 68.1326 159.647 560.581
1513 0 63.2185 11.9427 755 69.3735 159.918 560.344
1514 0 67.2699 12.7992 861 67.9094 160.447 557.729
1515 0 67.4578 11.9334 805 69.9739 160.292 557.604
1516 0 69.4344 12.1554 844 69.6718 160.886 557.655
1517 0 73.281 13.1003 960 68.4698 161.217 554.939
1518 0 73.4687 12.6721 931 69.8271 161.291 554.018
1519 0 77.4588 12.9488 1003 69.1565 161.672 554.062
1520 0 78.5034 12.8147 1006 69.4026 161.334 552.532
1521 0 79.3588 13.3444 1059 70.0406 161.682 549.037
1522 1 41.2644 9.83898 406 71.7906 162.544 569.877
1523 0 43.3897 11.2239 487 69.6283 162.834 568.667
1524 0 46.4774 11.3604 528 70.1383 162.807 565.614
1525 0 48.297 11.8227 571 69.0193 162.356 566.469
1526 0 49.133 12.3135 605 68.1289 162.395 566.967
1527 0 50.1209 12.5896 631 67.4342 161.775 566.856
1528 0 52.0647 12.8302 668 67.4072 162.247 565.34
1529 0 53.1375 12.7782 679 67.3652 162.389 565.44
1530 0 53.215 13.2857 707 67.9208 162.975 563.686
1531 0 57.1108 13.36 763 66.7667 162.997 563.067
1532 0 58.122 12.5598 730 68.8123 163.158 562.738
1533 0 59.1213 13.3285 788 67.9175 163.61 561.143
1534 0 62.0796 13.1927 819 67.7863 163.374 560.581
1535 0 63.2228 13.4445 850 67.3094 163.048 559.069
1536 0 65.2404 12.4156 810 69.0062 163.352 558.925
1537 0 66.2651 12.7669 846 69.052 163.595 557.303
1538 0 69.2861 13.6824 948 67.6319 163.377 556.52
1539 0 69.2115 13.2926 920 69.1739 163.484 555.546
1540 0 73.1731 13.5432 991 67.6448 162.609 555.814
1541 0 75.1522 14.1846 1066 67.1614 162.587 552.434
1542 0 78.0643 13.4633 1051 68.2103 162.44 552.637
1543 0 78.1545 12.5777 983 70.0285 162.645 551.671
1544 0 82.1749 14.0067 1151 67.6985 162.797 549.863
1545 1 40.0326 11.5156 461 70.5618 162.98 568.933
1546 0 44.0251 10.5849 466 69.9914 162.914 569.571
1547 0 45.0387 12.4116 559 67.7692 162.562 568.286
1548 0 45.0217 12.4162 559 68.5635 163.039 567.513
1549 0 46.0571 12.5279 577 68.0919 162.598 566.766
1550 0 49.0458 13.049 640 66.7141 162.458 566.153
1551 0 51.0409 13.7537 702 65.3761 161.808 565.528
1552 0 52.0342 13.2605 690 66.7681 161.18 564.071
1553 0 52.0893 13.3617 696 67.2342 160.921 563.312
1554 0 54.0574 13.1157 709 67.4584 160.793 563.104
1555 0 55.0654 13.4567 741 67.0999 161.175 563.109
1556 0 59.0909 13.6908 809 66.3671 161.226 560.77
1557 0 60.0401 13.2578 796 67.1219 160.568 560.834
1558 0 61.0846 13.5222 826 66.8414 160.702 559.866
1559 0 62.0386 13.6044 844 67.5687 161.034 556.423
1560 0 65.0771 13.7068 892 67.3935 161.574 556.317
1561 0 65.1105 14.007 912 67.7478 160.93 557.377
1562 0 68.0969 13.5395 922 67.9382 160.911 556.053
1563 0 72.0495 14.2818 1029 66.3605 160.464 554.191
1564 0 74.0726 13.5408 1003 67.9671 159.892 553.201
1565 0 77.1027 13.709 1057 67.6831 159.606 550.757
1566 0 78.1081 13.0972 1023 69.2121 159.323 551.17
1567 1 46.0572 11.9634 551 68.971 159.693 568.688
1568 0 44.0805 10.8892 480 69.9167 159.546 569.754
1569 0 45.0757 11.159 503 71.4374 159.519 568.734
1570 0 47.031 11.9921 564 70.523 159.718 566.55
1571 0 49.0286 11.5443 566 69.3304 159.392 566.733
1572 0 50.0547 12.9658 649 68.8675 159.324 565.528
1573 0 52.0584 12.6589 659 68.9363 159.176 564.34
1574 0 54.1243 13.432 727 68.6699 158.827 562.821
1575 0 57.0822 14.2076 811 66.6671 159.075 562.212
1576 0 58.1629 13.7373 799 67.6608 159.567 561.947
1577 0 60.0497 13.3556 802 68.8342 159.678 560.888
1578 0 62.1187 12.8303 797 69.4354 159.926 560.396
1579 0 65.0857 13.7665 896 67.3616 159.856 559.604
1580 0 69.1411 13.9425 964 66.2106 158.929 558.746
1581 0 70.2081 12.8902 905 68.379 158.861 558.026
1582 0 71.198 13.5116 962 67.7734 158.394 556.188
1583 0 74.1523 13.1756 977 67.737 158.496 556.124
1584 0 76.2667 12.2727 936 68.9295 158.369 553.795
1585 0 79.1057 14.1836 1122 65.5348 157.702 553.201
1586 1 40.0561 9.26202 371 69.6496 158.825 571.674
1587 0 41.0769 10.6629 438 68.6712 158.895 570.505
1588 0 45.1096 10.9289 493 66.9777 158.809 571.298
1589 0 45.0259 11.2602 507 66.3807 158.923 570.54
1590 0 44.0585 11.2351 495 67.0141 158.941 570.246
1591 0 46.0673 11.7654 542 65.9723 158.216 569.387
1592 0 49.2098 12.4162 611 64.6858 157.786 567.607
1593 0 49.1213 11.5428 567 66.6578 158.125 567.109
1594 0 52.1404 11.9677 624 64.468 157.702 566.848
1595 0 54.1671 12.6276 684 63.5877 157.849 564.564
1596 0 53.0696 11.7393 623 65.3563 157.356 564.477
1597 0 57.0613 12.5654 717 63.4728 157.431 563.1
1598 0 58.0281 12.4939 725 64.4041 158.192 561.397
1599 0 61.0943 12.6198 771 64.1466 158.746 561.145
1600 0 61.0943 12.5544 767 147.356 158.73 561.155
1601 0 64.0461 12.7252 815 64.4025 158.171 559.509
1602 0 68.1109 14.0359 956 62.3347 158.509 558.394
1603 0 68.1642 11.6043 791 65.938 158.411 557.049
1604 0 71.091 13.1662 936 63.6838 158.42 556.562
1605 0 73.1344 12.4839 913 65.0843 158.526 553.813
1606 0 75.1499 12.9075 970 64.632 157.939 551.991
1607 0 79.1537 13.6191 1078 63.3544 158.252 549.107
1608 0 80.1714 12.6853 1017 65.35 158.823 548.113
1609 0 84.2111 12.433 1047 65.618 159.057 546.467
1610 0 87.1934 13.0859 1141 64.5425 159.345 545.07
1611 1 46.1264 11.7286 541 64.6636 159.32 565.928
1612 0 47.1464 10.9234 515 66.0427 159.654 567.054
1613 0 48.0249 12.2853 590 65.1915 160.347 564.944
1614 0 49.0106 12.1606 596 65.9362 160.569 563.18
1615 0 50.1176 12.5305 628 65.035 161.653 563.166
1616 0 53.2269 13.1888 702 64.245 161.239 563.083
1617 0 55.0439 12.808 705 65.2638 161.918 561.579
1618 0 57.0905 13.4523 768 64.4674 162.193 559.693
1619 0 56.0223 13.334 747 65.7711 162.403 560.576
1620 0 59.055 13.1234 775 65.5884 162.804 559.828
1621 0 61.1136 12.9758 793 66.8802 162.997 557.706
1622 0 64.1482 13.2506 850 66.1871 163.016 558.132
1623 0 64.1247 12.9279 829 67.4753 163.312 556.423
1624 0 67.2286 14.0417 944 65.9629 163.261 554.192
1625 0 68.1538 13.9978 954 66.3176 163.157 553.995
1626 0 71.2034 13.5808 967 66.848 162.966 552.456
1627 0 75.1414 13.8539 1041 65.8559 163.259 551.929
1628 0 77.1174 13.3952 1033 66.8703 163.553 550.622
1629 0 81.1625 13.9966 1136 65.6347 163.695 548.913
1630 0 84.1694 14.8985 1254 64.1571 164.097 545.121
1631 0 85.2387 14.2306 1213 65.7494 163.878 545.35
1632 0 89.1471 14.1564 1262 65.5689 164.231 543.975
1633 0 92.0735 14.6513 1349 65.0852 163.735 542.225
1634 1 51.0586 11.5554 590 67.9542 164.153 563.834
1635 0 53.0671 10.9107 579 69.2366 164.162 561.356
1636 0 53.0639 11.9855 636 68.3443 163.898 560.58
1637 0 57.1206 13.1651 752 65.9242 163.568 559.114
1638 0 60.3252 13.6593 824 64.7233 163.089 558.635
1639 0 61.2294 13.5229 828 64.9191 163.541 557.839
1640 0 64.3763 13.39 862 64.8562 163.266 555.799
1641 0 66.1612 13.8601 917 63.3588 163.619 553.826
1642 0 68.4816 13.5073 925 63.7027 163.517 553.122
1643 0 69.263 13.9757 968 63.5134 163.512 552.557
1644 0 70.4966 13.9439 983 63.5982 162.986 551.613
1645 0 72.6378 13.9459 1013 63.8055 163.049 549.832
1646 0 75.2578 13.7793 1037 64.0935 163.064 548.364
1647 0 79.3594 13.9996 1111 63.703 163.18 548.626
1648 0 79.5026 13.8486 1101 64.1562 163.025 545.788
1649 0 84.5811 14.0812 1191 63.2594 162.458 544.32
1650 0 86.6454 14.0804 1220 63.0328 161.996 544.234
1651 0 90.725 14.5605 1321 62.0235 161.465 541.671
1652 0 91.7168 13.7379 1260 63.2151 161.417 542.114
1653 1 48.4134 12.3726 599 62.9215 161.372 562.601
1654 0 49.3019 11.9874 591 63.2166 161.428 560.795
1655 0 51.3347 12.0971 621 63.2721 161.438 560.768
1656 0 52.3286 11.9629 626 63.762 161.607 560.179
1657 0 55.5029 12.612 700 62.3914 161.701 559.071
1658 0 56.3362 12.3899 698 62.3539 161.607 559.348
1659 0 59.1215 12.821 758 62.0303 162.037 557.898
1660 0 61.1253 13.1206 802 61.5436 161.574 556.585
1661 0 62.1291 12.4579 774 62.2041 161.441 555.105
1662 0 65.1952 13.0378 850 60.8082 161.482 554.193
1663 0 65.3216 12.2318 799 62.3342 160.711 552.155
1664 0 70.3061 12.6163 887 61.0676 160.729 551.833
1665 0 71.3601 13.1026 935 60.4866 160.31 552.17
1666 0 74.156 13.3907 993 59.8026 160.762 550.143
1667 0 76.298 13.5914 1037 58.5439 160.893 549.04
1668 0 78.3338 11.9744 938 60.4723 160.682 548.344
1669 0 79.2953 12.712 1008 60.2272 160.526 545.965
1670 0 85.2719 14.0375 1197 57.8454 160.046 543.432
1671 0 87.3401 13.3501 1166 58.5051 160.401 541.644
1672 0 92.4612 13.4759 1246 58.6236 159.962 541.963
1673 0 93.4522 13.2046 1234 59.6629 159.87 539.3
1674 0 95.201 13.2562 1262 59.7845 159.656 538.994
1675 1 51.1853 12.1715 623 58.7432 159.971 561.65
1676 0 50.2653 10.9817 552 60.9837 159.728 560.96
1677 0 52.3504 11.5185 603 60.8308 159.677 559.972
1678 0 53.2708 12.5397 668 59.7814 159.422 560.042
1679 0 54.1711 13.0513 707 59.7596 159.423 558.59
1680 0 59.4843 13.1968 785 59.3554 158.945 558.419
1681 0 58.6906 12.9322 759 60.9802 158.781 556.976
1682 0 63.7612 13.4094 855 60.0328 159.677 557.138
1683 0 62.9593 13.2625 835 60.8108 159.503 557.16
1684 0 65.7464 13.1718 866 60.597 159.782 555.259
1685 0 67.7629 13.8276 937 60.2956 158.84 554.635
1686 0 70.6074 13.5963 960 60.5302 159.267 552.734
1687 0 70.3873 13.2268 931 62.2546 159.329 554.343
1688 0 72.5547 13.1487 954 62.8889 158.874 552.237
1689 0 77.583 14.217 1103 61.8377 158.465 551.334
1690 0 79.5576 13.5751 1080 63.2259 158.451 549.439
1691 0 80.7235 13.7506 1110 63.8369 158.196 547.81
1692 0 85.6411 14.1054 1208 63.0886 157.724 545.57
1693 0 86.4472 13.5227 1169 64.5441 157.619 544.586
1694 0 89.5452 13.5462 1213 64.8739 157.422 543.664
1695 0 91.5441 14.2991 1309 64.8923 157.451 541.164
1696 0 94.4972 14.1803 1340 65.1388 158.551 541.158
1697 1 49.3792 11.0573 546 67.0604 157.925 563.476
1698 0 52.2213 12.1406 634 66.3013 158.314 561.808
1699 0 54.1238 11.8986 644 67.3338 158.248 560.719
1700 0 57.1043 12.7836 730 66.9 158.388 561.479
1701 0 58.1579 12.5692 731 67.4487 157.845 561.412
1702 0 62.1517 12.8396 798 67.3559 157.981 560.106
1703 0 64.0893 12.779 819 67.2576 157.41 560.733
1704 0 65.2001 13.0368 850 67.6235 156.616 557.762
1705 0 66.2046 13.0958 867 67.9331 157.21 558.384
1706 0 70.1501 13.0292 914 67.0405 157.031 557.94
1707 0 74.2967 13.0558 970 67.2093 157.123 556.002
1708 0 75.2426 13.2239 995 68.1658 157.312 553.481
1709 0 77.3493 14.3763 1112 66.7383 157.535 551.502
1710 0 81.3977 13.305 1083 68.1006 157.393 552.235
1711 0 82.2832 13.4657 1108 68.2148 157.515 548.231
1712 0 84.2617 13.0664 1101 69.1181 157.81 548.175
1713 0 89.4518 14.1641 1267 66.3102 157.421 545.934
1714 1 45.189 10.4893 474 69.038 156.15 567.916
1715 0 46.0887 10.5232 485 69.2268 156.433 566.043
1716 0 50.0309 11.9726 599 67.6511 157.599 566.08
1717 0 51.063 12.7685 652 66.1932 158.023 566.48
1718 0 53.1067 12.4466 661 65.6853 158.79 566.141
1719 0 53.1184 12.2368 650 66.5169 158.808 565.625
1720 0 55.0684 12.203 672 66.7277 159.24 565.115
1721 0 57.0477 12.9891 741 65.7746 159.347 563.453
1722 0 61.0598 13.1019 800 64.3975 159.476 563.996
1723 0 62.0847 13.401 832 64.619 159.694 561.224
1724 0 63.0359 12.8498 810 65.5482 159.863 560.399
1725 0 64.0438 13.2409 848 66.546 160.11 559.804
1726 0 67.057 12.9591 869 66.8021 159.853 558.061
1727 0 70.0365 13.0075 911 66.5697 159.654 556.203
1728 0 71.1572 12.8307 913 67.0646 160.041 556.693
1729 0 74.0827 13.5929 1007 65.7339 160.048 554.006
1730 0 75.0434 13.4056 1006 66.2376 160.191 551.884
1731 0 76.0412 12.5195 952 68.5357 160.097 552.144
1732 0 82.1119 13.4572 1105 65.9701 161.295 551.072
1733 0 84.1338 13.7044 1153 66.0659 160.969 549.088
1734 0 86.0543 13.3985 1153 67.1466 161.113 549.087
1735 0 91.0679 13.6931 1247 66.7233 161.635 546.283
1736 1 47.0226 10.3355 486 67.9732 161.321 570.22
1737 0 49.0707 12.0642 592 66.5304 162.419 565.486
1738 0 50.0311 12.7321 637 64.0455 162.79 566.512
1739 0 51.0963 13.0538 667 64.3373 162.28 565.844
1740 0 54.2254 12.2821 666 64.6862 162.89 564.17
1741 0 54.2253 12.7431 691 64.7887 163.096 563.023
1742 0 56.1504 13.4994 758 62.777 163.61 561.996
1743 0 56.1995 12.4734 701 64.7532 163.148 558.342
1744 0 59.1967 12.6358 748 64.3877 163.849 559.901
1745 0 63.1153 13.0079 821 63.8977 163.417 558.688
1746 0 66.1809 13.6897 906 61.7428 163.166 556.437
1747 0 65.2189 12.6344 824 63.6638 163.016 555.284
1748 0 66.1933 12.8412 850 64.1224 163.369 553.911
1749 0 70.2793 12.8772 905 63.5326 163.802 553.002
1750 0 73.3606 13.3859 982 63.11 164.12 551.675
1751 0 73.195 13.143 962 64.185 164.499 549.792
1752 0 76.3257 12.8659 982 64.1375 164.96 549.514
1753 0 79.3417 13.4356 1066 63.0985 164.68 547.352
1754 0 82.3549 12.6161 1039 63.5948 164.192 547.197
1755 1 44.2882 11.1994 496 63.9113 164.312 565.736
1756 0 47.1351 11.1806 527 63.6319 164.554 564.034
1757 0 50.268 11.6973 588 63.0629 163.786 563.777
1758 0 51.1367 12.2221 625 63.3248 163.614 561.611
1759 0 53.0814 12.754 677 62.5288 164.363 561.496
1760 0 55.1003 12.8674 709 62.3921 164.362 560.381
1761 0 57.0504 12.8833 735 62.5537 164.686 559.751
1762 0 57.08 12.281 701 64.0471 164.72 559.703
1763 0 60.1611 13.6966 824 61.807 164.592 558.479
1764 0 62.1758 13.6709 850 61.6141 164.473 556.562
1765 0 62.269 13.4096 835 62.8299 164.537 555.163
1766 0 66.2722 13.3389 884 62.026 164.49 553.707
1767 0 68.1761 13.5091 921 61.8274 164.633 552.93
1768 0 70.1825 13.9493 979 61.2543 164.546 552.804
1769 0 71.3439 13.2177 943 61.9046 164.362 552.276
1770 0 74.5236 13.5259 1008 61.1617 164.449 550.459
1771 0 77.3407 13.99 1082 60.7588 164.123 547.46
1772 1 38.3076 11.3294 434 64.5576 164.8 567.348
1773 0 41.3498 12.3096 509 63.4401 164.509 566.829
1774 0 44.2516 11.9318 528 63.9489 163.9 565.585
1775 0 44.2319 12.344 546 63.8571 163.733 564.976
1776 0 46.199 14.0479 649 61.5824 162.653 564.04
1777 0 49.3362 13.3168 657 61.9939 163.056 563.297
1778 0 50.0802 13.4584 674 63.2018 162.942 562.18
1779 0 52.1443 13.175 687 63.805 162.917 561.59
1780 0 54.1077 13.7688 745 63.0698 163.019 561.764
1781 0 57.2009 14.8949 852 61.446 162.779 559.968
1782 0 59.2622 14.2587 845 62.6627 163.17 558.472
1783 0 60.2677 15.3482 925 61.027 163.012 557.315
1784 0 62.1352 14.5811 906 62.1291 162.304 556.893
1785 0 62.162 14.0761 875 62.5189 162.431 557.367
1786 0 66.1004 14.1451 935 62.3893 162.452 555.4
1787 0 67.1934 14.8378 997 61.6108 161.966 554.496
1788 0 75.1527 18.1364 1363 55.3272 161.695 549.127
1789 0 74.164 16.8276 1248 58.2043 161.47 551.163
1790 0 75.5224 15.5715 1176 60.7424 160.683 549.33
1791 0 78.3476 14.7292 1154 61.6508 160.535 550.255
1792 0 82.4458 14.7976 1220 61.1844 160.532 549.622
1793 0 85.3411 14.6471 1250 61.068 160.478 547.489
1794 0 86.4301 14.4278 1247 61.9719 160.731 547.343
1795 0 90.2176 14.8751 1342 60.9903 160.731 544.75
1796 1 45.1578 11.2937 510 65.1412 160.631 566.859
1797 0 48.158 11.4623 552 65.4167 160.618 566.23
1798 0 49.1876 11.568 569 65.1107 160.508 566.047
1799 0 50.0526 12.9663 649 65.0401 160.378 563.678
1800 0 53.1072 13.7081 728 62.9052 160.056 563.364
1801 0 56.1058 14.1697 795 62.2818 160.278 562.327
1802 0 57.2927 14.4346 827 62.2394 160.306 560.449
1803 0 58.1888 13.903 809 62.9703 159.881 560.655
1804 0 60.0933 14.1613 851 62.8508 159.333 560.133
1805 0 62.1784 13.8633 862 63.3039 159.68 558.6
1806 0 63.0456 14.0375 885 63.2136 159.154 558.219
1807 0 65.0819 13.967 909 63.2992 159.12 556.158
1808 0 68.0455 14.1376 962 62.2609 159.148 555.14
1809 0 71.0408 14.2594 1013 61.9447 159.637 553.622
1810 0 75.144 14.0929 1059 61.5798 159.092 553.085
1811 0 74.0919 14.0906 1044 62.5077 159.071 551.488
1812 0 77.1088 13.8895 1071 62.4995 159.598 552.139
1813 0 81.0868 14.7373 1195 60.9649 159.266 548.295
1814 0 85.2718 14.0023 1194 61.8777 159.446 546.775
1815 0 87.2129 14.4015 1256 61.4053 159.473 545.065
1816 0 91.2438 14.1489 1291 61.4802 159.256 545.72
1817 1 46.1286 11.3379 523 63.5105 159.35 566.862
1818 0 48.1958 11.0383 532 62.5489 158.84 566.248
1819 0 48.2923 12.1551 587 62.6695 158.935 564.535
1820 0 49.1487 12.4113 610 62.7361 159.097 563.38
1821 0 52.2061 12.7954 668 62.0165 158.904 561.916
1822 0 52.4815 13.2046 693 61.9004 158.696 562.801
1823 0 55.6033 14.0999 784 60.8036 159.221 560.765
1824 0 56.3962 13.7775 777 61.5856 159.858 559.178
1825 0 57.4068 13.535 777 62.7349 159.607 558.284
1826 0 60.7539 13.3819 813 62.7232 159.772 557.344
1827 0 61.2888 13.5588 831 63.1191 159.271 557.297
1828 0 62.9647 14.262 898 62.6559 159.114 554.712
1829 0 65.412 14.2482 932 62.8991 159.26 551.881
1830 0 70.4924 14.8385 1046 61.2696 159.177 553.269
1831 0 70.5924 12.7917 903 64.9247 159.391 551.718
1832 0 72.5929 13.8305 1004 63.6096 159.559 552.082
1833 0 76.4546 14.6623 1121 63.0018 159.967 548.866
1834 0 79.8048 14.7861 1180 62.7805 160.35 548.141
1835 0 81.946 13.8018 1131 64.9814 160.514 546.84
1836 0 82.843 15.0405 1246 63.4157 160.264 546.676
1837 0 88.089 14.9962 1321 62.9001 160.8 544.585
1838 0 88.6579 15.4865 1373 63.1122 161.029 542.993
1839 0 89.5364 14.7314 1319 64.2449 160.976 542.97
1840 0 95.8157 14.7471 1413 63.9335 161.111 541.335
1841 0 96.7453 14.564 1409 64.3669 160.984 540.414
1842 0 101.961 14.7507 1504 63.9914 161.27 536.104
1843 0 105.599 14.4604 1527 64.2436 161.487 535.8
1844 0 111.821 15.3191 1713 62.7239 162.023 534.951
1845 1 57.6216 11.9573 689 67.0334 161.942 558.406
1846 0 63.9077 12.8936 824 65.2124 162.171 558.032
1847 0 65.8329 13.5798 894 65.0984 162.581 555.43
1848 0 67.9533 13.9802 950 64.221 162.333 553.312
1849 0 68.7688 13.858 953 64.9129 163.015 551.902
1850 0 71.6786 14.2302 1020 63.9471 162.169 551.216
1851 0 75.9618 14.8891 1131 62.7348 162.157 547.604
1852 0 79.1045 14.2596 1128 62.8333 162.113 546.43
1853 0 80.8333 14.4495 1168 61.7166 162.92 543.688
1854 0 83.7651 14.5884 1222 61.0466 163.034 542.483
1855 0 88.6821 14.5802 1293 60.297 162.844 540.961
1856 0 91.6669 14.4218 1322 60.3654 162.796 540.659
1857 0 94.6418 15.6379 1480 58.8703 162.528 537.341
1858 0 96.8888 13.9232 1349 60.7109 163.176 538.774
1859 0 97.6289 14.4117 1407 60.4918 162.903 535.972
1860 1 52.8357 11.356 600 60.1367 162.287 560.52
1861 0 54.484 12.389 675 58.7911 162.385 559.763
1862 0 56.8157 11.4933 653 60.5972 162.237 558.568
1863 0 57.6025 12.8467 740 59.0081 162.578 556.714
1864 0 58.4498 12.4551 728 59.4272 162.327 556.475
1865 0 62.5159 12.1729 761 59.2562 161.979 556.591
1866 0 64.5712 12.0797 780 59.4256 161.706 553.835
1867 0 67.5811 12.7698 863 57.9988 161.475 553.061
1868 0 69.3783 13.9237 966 57.1884 161.52 551.166
1869 0 70.7697 12.4488 881 58.7798 161.247 550.993
1870 0 74.6109 13.4297 1002 57.2246 160.628 547.427
1871 0 76.5425 13.0254 997 57.0692 161.5 547.436
1872 0 79.5314 12.4102 987 57.6353 161.14 546.738
1873 0 82.5757 12.5824 1039 57.4196 161.112 543.653
1874 0 84.26 12.9006 1087 56.8362 161.142 543.275
1875 0 87.5255 12.7506 1116 56.6425 160.374 543.584
1876 0 90.5636 13.3718 1211 55.9628 159.724 540.874
1877 1 47.2442 10.5833 500 56.536 160.446 562.68
1878 0 48.3587 10.298 498 56.8032 160.285 562.616
1879 0 52.3884 11.0711 580 54.8931 160.826 563.033
1880 0 51.3493 12.1715 625 54.7792 161.44 560.256
1881 0 53.4813 11.7985 631 55.1062 161.843 558.857
1882 0 54.1167 12.7687 691 54.2185 161.632 559.822
1883 0 56.3352 12.7451 718 54.0334 161.233 559.32
1884 0 59.7164 12.1072 723 54.6293 161.213 558.914
1885 0 60.3382 12.1316 732 55.332 161.589 555.408
1886 0 63.4221 13.2761 842 53.5641 160.746 555.058
1887 0 64.4331 12.3384 795 54.4063 160.634 554.375
1888 0 66.319 13.1636 873 53.2554 160.666 553.904
1889 0 68.5737 13.0808 897 53.0223 160.245 552.93
1890 0 70.5465 14.1467 998 52.024 160.027 551.171
1891 0 70.4258 13.7592 969 52.2167 159.875 548.644
1892 0 70.4961 11.7595 829 54.1218 159.855 549.312
1893 0 76.5385 13.7055 1049 51.5558 160.116 546.883
1894 0 76.4328 12.2853 939 52.4452 160.018 547.439
1895 0 79.3136 14.0707 1116 51.034 160.144 545.413
1896 0 81.2291 13.6897 1112 50.7095 160.609 547.576
1897 0 82.3323 13.6156 1121 50.5772 160.425 546.022
1898 0 83.1948 14.2797 1188 50.154 160.444 544.279
1899 0 85.3789 13.6451 1165 49.9846 159.955 544.736
1900 0 88.2052 13.9788 1233 49.4371 159.808 545.135
1901 0 90.2633 13.3277 1203 49.4223 159.442 542.101
1902 0 91.2964 14.3927 1314 48.5959 159.495 538.438
1903 0 93.1614 13.7289 1279 48.4316 159.065 538.315
1904 0 95.1687 14.5006 1380 47.8043 158.829 540.294
1905 0 98.1354 14.0418 1378 47.6691 158.623 538.809
1906 0 99.2675 12.7031 1261 48.0936 158.074 542.159
1907 0 101.312 14.49 1468 46.5606 157.973 537.642
1908 0 103.25 14.092 1455 46.7986 158.35 538.094
1909 0 106.1 14.458 1534 46.5939 157.983 536.822
1910 0 106.397 13.9478 1484 46.5296 157.698 533.943
1911 0 109.11 14.939 1630 45.7939 157.792 534.883
1912 0 110.176 13.4966 1487 46.495 157.772 533.902
1913 0 114.476 15.156 1735 45.1193 158.295 531.94
1914 0 116.295 14.7986 1721 45.0308 157.738 531.318
1915 0 119.207 15.1753 1809 44.6374 157.366 529.894
1916 0 122.303 15.2572 1866 44.3333 157.482 527.27
1917 0 120.155 13.4743 1619 45.307 156.642 525.824
1918 0 125.168 14.6683 1836 45.1149 156.56 527.397
1919 0 125.546 14.1143 1772 45.4221 157.131 520.102
1920 0 128.299 14.3259 1838 45.0027 158.197 523.455
1921 0 130.173 12.5141 1629 45.9595 157.544 518.562
1922 0 136.563 13.2174 1805 45.0537 156.989 518.962
1923 0 137.168 13.1299 1801 45.0461 157.304 519.77
1924 0 139.376 13.5748 1892 44.4487 157.269 517.106
1925 0 141.183 12.4165 1753 44.8534 157.337 517.748
1926 0 140.262 12.4552 1747 44.5489 157.442 514.918
1927 0 139.273 9.95885 1387 45.3201 156.903 517.658
1928 0 134.147 11.2265 1506 44.3811 156.988 524.973