time division length width area intensity CMx CMy
0 0 99.2135 13.1635 1306 77.0276 839.171 550.325
1 0 102.153 12.8532 1313 78.2544 838.909 548.495
2 0 107.212 14.5319 1558 74.8858 839.092 546.954
3 0 108.111 13.0329 1409 78.626 838.989 544.477
4 0 113.207 13.5946 1539 77.1774 839.098 542.853
5 0 116.103 13.6258 1582 77.1561 839.223 540.669
6 0 120.151 14.074 1691 75.5038 838.979 538.881
7 0 125.188 13.6515 1709 75.4541 839.023 537.173
8 0 128.23 13.7253 1760 76.8159 839.48 532.805
9 0 132.179 14.2988 1890 76.0153 839.19 530.378
10 0 135.315 13.9527 1888 77.9809 839.745 528.156
11 0 140.2 13.7518 1928 78.5607 839.81 526.178
12 0 144.226 13.5898 1960 79.1255 839.426 524.14
13 0 151.301 15.1684 2295 75.6915 839.595 520.32
14 1 69.0589 10.4983 725 78.9669 839.47 563.509
15 0 69.0918 11.0577 764 77.9162 840.05 562.207
16 0 74.0785 12.0953 896 75.1094 840.095 560.558
17 0 75.2097 12.2856 924 74.2305 839.215 559.232
18 0 77.0637 12.4443 959 74.5057 839.77 558.47
19 0 81.1183 13.2769 1077 71.8682 839.965 558.527
20 0 82.1323 12.5042 1027 73.3311 840.131 557.771
21 0 87.1311 13.5084 1177 70.8071 840.043 555.728
22 0 89.1771 13.5012 1204 70.745 840.097 555.87
23 0 90.0838 12.7881 1152 71.9071 840.373 553.835
24 0 92.1877 12.8651 1186 71.9157 840.006 552.497
25 0 94.159 12.755 1201 72.448 840.392 551.32
26 0 97.1035 13.2642 1288 71.6297 840.295 548.565
27 0 102.117 13.181 1346 71.2964 840.731 548.205
28 0 105.237 13.1038 1379 71.3365 840.189 545.88
29 0 107.159 12.9434 1387 71.8039 840.224 544.647
30 0 112.192 13.7264 1540 70.5149 840.463 543.562
31 0 115.176 12.902 1486 72.3439 840.754 542.501
32 0 119.222 14.1081 1682 70.6314 840.949 539.139
33 0 122.173 13.5546 1656 71.6558 841.159 538.333
34 0 127.133 13.2145 1680 72.4054 841.294 534.484
35 0 132.125 13.5402 1789 72.3566 841.447 532.935
36 0 135.188 13.4331 1816 73.06 841.476 530.366
37 1 75.0397 11.0075 826 74.0085 841.926 559.946
38 0 78.0769 11.4118 891 73.1392 841.914 560.147
39 0 82.0434 12.0424 988 72.2925 841.376 558.637
40 0 83.0891 12.0112 998 74.3567 841.136 556.924
41 0 86.1367 12.6195 1087 73.1113 841.443 556.161
42 0 89.0859 12.415 1106 73.5145 841.305 554.097
43 0 91.1968 13.3009 1213 72.0989 840.627 553.345
44 0 95.2426 12.1479 1157 74.1685 840.849 552.347
45 0 97.2464 13.4401 1307 71.4461 841.739 551.986
46 0 100.194 12.7352 1276 72.9091 841.295 547.402
47 0 103.338 13.3446 1379 71.0551 842.046 544.97
48 1 51.3241 9.74201 500 69.798 842.418 570.958
49 0 52.1047 10.4405 544 68.5368 842.643 569.908
50 0 53.0686 10.835 575 67.8696 840.497 571.452
51 0 54.1 11.3863 616 69.1899 841.104 571.36
52 0 58.0621 11.1432 647 67.2658 841.447 570.686
53 0 58.0474 11.8524 688 66.0073 840.847 570.865
54 0 61.0344 12.0424 735 59.3374 840.291 567.97
55 0 62.0817 12.1936 757 60.8666 840.481 567.485
56 0 64.0239 11.2927 723 63.0941 840.653 566.515
57 0 64.1135 10.9181 700 63.5043 840.823 565.58
58 0 68.1027 11.5708 788 61.6447 840.811 564.477
59 0 72.1134 12.1475 876 61.3436 840.68 563.7
60 0 71.0591 11.2864 802 63.7955 840.892 561.395
61 0 75.178 12.3839 931 62.0354 840.945 559.234
62 0 76.1092 11.1944 852 63.7676 840.832 558.281
63 0 79.1897 12.4385 985 61.3868 840.419 557.412
64 0 82.3365 11.9024 980 61.6969 841.248 555.863
65 1 45.0431 9.058 408 60.7721 842.61 573.926
66 0 44.0689 9.28093 409 59.4254 842.589 576.166
67 0 44.0908 7.87012 347 61.17 843.354 575.167
68 0 45.1326 9.28376 419 59.9069 843.411 572.811
69 0 47.0218 10.123 476 58.9643 843.826 570.225
70 0 49.0573 11.0891 544 57.9559 843.842 569.544
71 0 49.015 10.8742 533 57.2383 843.827 569.713
72 0 51.0477 11.0681 565 56.823 843.604 570.214
73 0 51.0749 11.3167 578 57.1003 843.692 568.772
74 0 53.0469 11.9894 636 56.5597 843.715 568.896
75 0 56.0874 11.4821 644 57.2391 844.089 565.665
76 0 58.058 11.8847 690 56.8464 844.126 566.468
77 0 58.0553 11.9197 692 57.2457 844.257 566.045
78 0 60.1472 12.6523 761 56.7924 844.193 562.986
79 0 62.0504 12.2481 760 57.5145 844.639 561.999
80 0 62.0778 12.0494 748 58.1671 843.746 560.682
81 0 65.0509 11.6524 758 58.5066 844.029 560.322
82 0 66.05 12.9902 858 57.2214 844.332 557.814
83 0 67.0457 12.0962 811 58.8496 844.766 557.657
84 0 69.0864 11.985 828 59.0628 844.905 555.033
85 0 70.0547 12.2761 860 59.2326 845.392 554.058
86 0 74.0787 12.4732 924 57.9264 845.496 553.195
87 0 75.0269 12.8221 962 57.8202 845.287 550.471
88 0 78.0902 13.3179 1040 56.725 845.678 551.791
89 0 79.0488 11.9926 948 58.6181 845.862 549.855
90 0 82.1063 13.4825 1107 57.6829 845.916 546.969
91 0 86.0908 13.66 1176 59.0179 846.185 546.554
92 0 88.0924 13.4518 1185 60.243 846.152 544.568
93 0 91.0895 14.3266 1305 58.8291 846.279 543.88
94 0 95.1677 14.3431 1365 58.0593 846.571 542.49
95 0 97.1525 13.8648 1347 58.4157 846.82 540.658
96 0 101.282 14.04 1422 57.9395 847.244 540.011
97 0 104.361 14.8906 1554 83.4775 847.059 539.767
98 1 56.2134 11.1361 626 58.7125 847.38 564.45
99 0 58.1209 11.7342 682 58.5381 846.893 563.284
100 0 61.084 12.6547 773 58.3765 847.56 562.01
101 0 63.0985 13.0748 825 57.6412 847.406 560.383
102 0 63.0708 12.6683 799 59.4293 848.428 558.046
103 0 65.0379 12.5773 818 59.9535 848.578 556.769
104 0 68.0364 13.5369 921 58.7687 848.615 556.246
105 0 71.129 13.1732 937 60.1078 848.842 554.907
106 0 69.0757 12.537 866 62.537 849.199 552.672
107 0 74.1048 12.9006 956 61.591 848.984 552.299
108 0 76.1967 13.2683 1011 61.0465 848.254 550.281
109 0 79.1017 13.4131 1061 59.8784 848.311 549.558
110 0 83.1745 12.7563 1061 60.5815 848.412 548.685
111 0 84.1102 12.9473 1089 61.5005 847.694 545.187
112 0 86.1346 12.2947 1059 62.1095 847.868 546.331
113 0 88.2997 12.5029 1104 61.9909 847.815 544.608
114 0 93.1153 14.423 1343 59.1966 848.101 541.868
115 0 95.1645 13.1667 1253 61.4749 847.927 540.439
116 0 98.3519 13.5534 1333 60.937 848.054 540.704
117 0 101.221 13.6335 1380 61.4442 847.883 538.515
118 0 106.149 13.5658 1440 61.8632 847.793 535.574
119 1 57.1838 11.2794 645 63.0217 848.065 559.98
120 0 60.0568 11.6556 700 62.6686 847.974 559.266
121 0 61.0545 11.5634 706 63.1303 848.04 558.404
122 0 65.0906 11.9987 781 62.6389 848.218 557.012
123 0 67.1272 12.2752 824 62.8604 848.481 555.43
124 0 68.1236 12.6388 861 63.1266 848.045 554.576
125 0 71.1616 13.0829 931 62.8829 847.96 552.13
126 0 74.0515 12.9099 956 63.5617 847.88 551.588
127 0 75.0497 12.8581 965 64.171 847.474 550.993
128 0 77.0562 12.2767 946 66.0011 847.411 549.707
129 0 81.1288 13.041 1058 65.1919 847.58 548.471
130 0 84.0964 13.7105 1153 64.7069 847.462 547.751
131 0 83.1152 12.7534 1060 67.9679 846.951 546.852
132 0 87.0569 13.7841 1200 67.1208 846.585 544.273
133 0 92.0885 13.3676 1231 67.5134 846.348 544.754
134 0 91.1647 12.79 1166 70.3585 846.196 540.996
135 0 95.0943 13.1869 1254 69.8915 846.199 541.551
136 0 97.062 13.0947 1271 70.6845 845.943 538.392
137 1 51.0376 9.7575 498 70.7329 845.904 564.355
138 0 55.0404 11.9367 657 67.5784 846.353 563.355
139 0 56.0221 12.0845 677 68.1049 846.145 562.018
140 0 57.0722 12.0724 689 68.1916 845.704 561.167
141 0 58.032 12.0623 700 68.6343 846.001 560.947
142 0 59.089 11.7619 695 69.8777 846.357 559.227
143 0 61.0634 11.9548 730 69.5973 845.995 558.396
144 0 63.0721 12.0339 759 69.3663 845.95 558.968
145 0 64.1002 12.5585 805 69.0075 846.48 556.857
146 0 68.0552 12.7544 868 67.9217 846.039 556.259
147 0 70.0486 12.4057 869 69.0058 846.259 553.505
148 0 73.1598 12.9443 947 68.1478 846.164 553.469
149 0 72.2327 12.5151 904 69.917 846.149 551.146
150 0 77.0448 12.7848 985 69.5848 846.297 549.727
151 0 80.1538 13.2745 1064 68.6701 846.28 548.765
152 0 83.0768 13.2287 1099 67.7607 846.2 548.595
153 0 84.1237 13.0403 1097 69.2598 846.061 546.141
154 0 88.0431 13.448 1184 68.5186 846.522 545.454
155 0 91.0385 13.2032 1202 68.7737 847.014 544.158
156 1 47.0212 10.7824 507 69.8225 846.972 566.949
157 0 47.0595 10.9436 515 70.501 847.037 565.656
158 0 51.0882 11.5095 588 68.2653 847.014 565.296
159 0 54.0555 12.4317 672 65.5208 847.147 563.917
160 0 53.0203 11.3919 604 68.2533 846.914 562.732
161 0 57.0766 12.0715 689 65.5878 846.702 563.366
162 0 58.0332 12.6996 737 65.5767 846.772 560.602
163 0 60.0397 12.9748 779 65.2965 846.322 560.191
164 0 61.0632 12.4461 760 66.9816 846.247 560.086
165 0 62.0694 12.4699 774 67.0349 846.739 558.344
166 0 63.2048 12.8471 812 66.5271 846.462 558.523
167 0 67.1452 13.4782 905 65.7724 847.015 556.099
168 0 69.1219 13.2809 918 66.4466 847.672 555.325
169 0 69.098 13.5026 933 66.8114 847.382 555.087
170 0 72.0732 13.3059 959 66.9635 847.46 553.867
171 0 75.0966 13.8755 1042 66.4107 847.847 551.991
172 0 75.1551 13.5187 1016 67.9626 847.484 551.317
173 0 78.1706 12.8949 1008 68.9901 847.715 550.362
174 0 79.2962 12.9514 1027 69.3593 847.792 549.556
175 0 82.3103 13.437 1106 68.302 847.896 548.796
176 0 82.2083 13.332 1096 70.1186 848.372 545.511
177 0 86.1735 12.9042 1112 70.5009 848.191 543.277
178 0 90.1592 13.6425 1230 68.9789 848.394 543.124
179 0 93.2499 13.362 1246 70.1685 847.967 539.376
180 0 94.1511 13.4571 1267 70.5754 848.335 539.818
181 1 53.2173 10.7484 572 71.7517 848.565 561.509
182 0 53.0676 11.5325 612 72.4314 848.417 558.918
183 0 57.0905 11.6832 667 70.8171 848.057 559.637
184 0 58.1661 12.4127 722 71.205 849.018 556.949
185 0 60.128 12.9391 778 70.4871 848.702 557.292
186 0 62.1065 13.026 809 70.9197 849.035 556.106
187 0 65.063 13.1718 857 70.2625 849.057 553.657
188 0 66.1913 13.7782 912 69.5691 849.163 553.2
189 0 67.1437 13.136 882 72.0102 849.29 550.427
190 0 72.1195 13.7272 990 70.301 849.498 549.864
191 0 71.1342 13.4535 957 72.1473 849.591 549.44
192 0 72.0751 13.8605 999 71.8208 850.053 546.824
193 0 76.3234 13.8359 1056 70.0748 850.184 547.616
194 0 78.2293 13.7161 1073 69.3709 850.292 546.431
195 0 79.2656 13.562 1075 69.013 850.811 544.513
196 0 79.2656 13.6125 1079 176.108 850.81 544.469
197 0 85.2509 14.0292 1196 69.3696 850.198 541.778
198 0 89.299 14.1771 1266 70.7378 850.385 540.824
199 0 89.1593 13.8853 1238 73.025 850.098 539.51
200 0 93.3486 13.7335 1282 73.1942 850.307 537.381
201 0 96.2647 13.9303 1341 73.4743 850.438 536.314
202 0 101.22 13.8411 1401 72.7994 850.203 535.107
203 1 51.1506 10.2638 525 73.8933 850.678 561.276
204 0 53.1996 11.4099 607 72.8814 850.596 559.173
205 0 55.0536 11.1164 612 73.049 850.76 558.752
206 0 56.1451 11.6484 654 73.3012 850.445 556.781
207 0 57.1226 11.8517 677 73.291 850.691 557.31
208 0 59.1609 12.1364 718 73.0613 851.199 555.889
209 0 61.0778 12.6069 770 72.0701 850.982 554.473
210 0 62.0939 12.8837 800 71.9425 850.942 553.317
211 0 65.1475 12.4487 811 71.307 850.639 552.916
212 0 67.0831 12.969 870 69.7368 850.123 554.155
213 0 70.1464 13.1724 924 69.5238 850.21 553.847
214 0 71.18 12.9952 925 69.8195 850.389 551.539
215 0 73.2021 12.5543 919 71.5038 849.96 547.902
216 0 75.0691 12.5884 945 71.3132 849.971 548.374
217 0 77.1038 13.5532 1045 69.6593 849.675 547.575
218 0 81.1582 12.7898 1038 71.0347 849.445 545.691
219 0 82.1491 12.4286 1021 71.5348 849.135 545.522
220 0 85.057 12.9913 1105 71.0552 848.506 543.74
221 0 89.1461 13.046 1163 69.8409 848.567 543.464
222 0 92.1986 13.3299 1229 69.869 848.409 539.801
223 0 97.2944 13.4643 1310 68.5962 848.231 541.02
224 1 53.0462 10.4249 553 70.5841 848.967 559.627
225 0 55.0332 10.8117 595 70.2555 848.703 558.2
226 0 55.0819 10.3664 571 69.289 848.482 560.513
227 0 55.0823 10.2755 566 168.627 847.502 560.551
228 0 59.1987 11.1151 658 69.5623 847.822 557.638
229 0 61.0795 12.3446 754 67.7281 848.208 557.003
230 0 63.0816 11.3662 717 68.1688 847.508 557.6
231 0 65.0975 12.6119 821 67.0305 847.525 555.317
232 0 65.0887 11.8761 773 69.1617 847.129 554.784
233 0 68.1053 11.9814 816 68.0797 847.491 555.039
234 0 70.193 13.2207 928 66.0905 847.369 553.769
235 0 71.1966 12.1073 862 68.2633 847.555 552.081
236 0 73.1301 12.6897 928 67.8815 847.741 551.251
237 0 75.2226 11.8581 892 69.7623 847.482 549.201
238 0 79.1204 12.5126 990 69.0778 847.246 547.142
239 0 80.1473 11.9031 954 70.2086 847.215 546.769
240 0 84.2679 12.211 1029 68.8863 847.181 545.92
241 0 86.1412 12.4679 1074 68.405 846.754 545.439
242 1 48.0706 9.19482 442 70.2511 846.706 564.812
243 0 47.0653 10.4111 490 70.1224 846.71 563.541
244 0 52.0211 11.6299 605 67.6959 846.623 561.985
245 0 54.0601 12.2641 663 67.5068 846.799 561.477
246 0 53.0489 11.4234 606 69.5248 846.591 562.069
247 0 54.103 11.3857 616 69.9773 845.737 560.641
248 0 56.0887 11.3927 639 70.2973 845.915 561.344
249 0 58.1285 11.595 674 69.6009 846.009 559.277
250 0 58.1629 12.3446 718 68.7382 846.242 557.649
251 0 60.2924 11.892 717 69.4463 846.247 557.7
252 0 61.0769 12.1814 744 68.6868 846.659 556.587
253 0 63.3068 12.6527 801 67.5144 846.895 556.999
254 0 64.16 12.1415 779 68.1951 846.866 555.606
255 0 66.1191 12.417 821 67.9476 847.1 554.312
256 0 70.2939 12.8318 902 66.5887 846.714 552.665
257 0 73.2754 12.7601 935 66.585 846.593 552.495
258 0 73.3593 12.0094 881 68.3053 846.934 551.222
259 0 78.205 12.7485 997 66.3962 846.896 550.98
260 0 79.4187 12.6544 1005 66.8189 846.303 548.902
261 0 82.2125 12.6258 1038 67.3102 846.319 546.131
262 0 86.1775 13.0429 1124 66.8523 846.041 544.891
263 0 86.1304 11.7496 1012 69.1206 846.14 545.712
264 1 46.0987 10.4775 483 66.3354 846.331 567.772
265 0 45.1122 9.35446 422 67.9218 846.263 567.576
266 0 47.0548 10.6897 503 66.9304 846.276 567.183
267 0 48.095 10.6248 511 68.3914 846.082 564.554
268 0 52.0257 11.4367 595 66.7042 846.573 564.447
269 0 51.0878 12.1947 623 66.3628 846.515 561.775
270 0 52.0964 11.7091 610 67.1623 846.731 563.574
271 0 53.1057 11.2606 598 67.9114 846.888 562.824
272 0 56.0625 12.6823 711 65.5471 846.648 560.298
273 0 58.032 12.4586 723 65.5671 846.631 560.308
274 0 59.0464 11.9906 708 66.4788 846.617 560.314
275 0 63.0474 12.7999 807 64.347 847.007 559.725
276 0 64.0996 12.8706 825 64.4291 846.896 557.836
277 0 64.1387 12.5665 806 66.0347 846.994 556.903
278 0 66.0716 13.1524 869 65.1899 847.106 555.682
279 0 68.1064 13.1412 895 65.6816 846.809 553.616
280 0 71.0901 13.0679 929 65.0398 847.315 553.884
281 0 73.1372 13.2217 967 65.1934 847.423 551.487
282 0 74.1148 12.6156 935 66.3401 848.062 549.86
283 0 77.3499 13.1998 1021 65.095 848.431 548.954
284 0 79.2768 12.3744 981 66.9613 848.528 546.785
285 0 82.2656 12.6663 1042 65.9155 848.689 545.709
286 0 86.3436 13.5389 1169 64.5295 849.138 543.287
287 0 89.2378 13.3015 1187 64.4254 848.762 544.127
288 1 51.0514 10.8322 553 64.2333 849.472 563.835
289 0 52.04 10.588 551 64.3249 848.949 562.2
290 0 53.0899 11.3769 604 64 848.98 561.81
291 0 55.0428 11.9543 658 63.5608 849.378 559.164
292 0 57.0618 12.2499 699 62.5336 849.971 559.299
293 0 57.0618 12.2674 700 152.86 849.98 559.32
294 0 59.0827 12.2879 726 62.5565 849.97 557.431
295 0 60.0486 12.5898 756 62.7183 849.971 555.808
296 0 63.0919 12.1569 767 63.0365 850.119 554.986
297 0 65.0861 12.4604 811 62.4587 850.178 554.27
298 0 66.0944 11.6046 767 63.7771 849.992 551.329
299 0 69.1422 12.3948 857 61.9533 850.016 552.38
300 0 70.159 12.3719 868 62.7293 850.29 550.065
301 0 72.2814 12.2991 889 62.919 850.386 549.826
302 0 72.1977 12.2026 881 63.5687 850.368 548.569
303 0 76.1914 12.4424 948 63.0612 850.58 547.631
304 0 79.1618 13.3398 1056 61.7481 850.147 545.031
305 0 81.1452 12.1141 983 63.5198 850.603 543.701
306 0 85.1451 11.5802 986 63.5984 850.588 542.455
307 0 88.3531 12.4953 1104 62.7554 850.807 539.864
308 0 90.3726 12.9021 1166 62.4846 850.949 539.578
309 0 93.2451 12.9444 1207 62.8368 851.118 537.703
310 0 93.2304 12.8713 1200 63.27 851.065 535.922
311 0 97.1213 12.7367 1237 63.7332 850.532 535.105
312 0 97.1213 12.7161 1235 155.037 849.531 535.083
313 0 103.274 13.0139 1344 63.311 850.658 533.516
314 0 107.171 12.9607 1389 63.7754 850.614 530.734
315 0 110.392 13.6514 1507 62.9701 850.327 529.33
316 0 109.392 13.1637 1440 152.657 849.316 528.391
317 0 117.218 12.6943 1488 64.7177 850.143 527.187
318 0 122.248 13.6935 1674 63.5753 850.415 522.182
319 0 125.278 13.2745 1663 64.4384 850.524 521.113
320 1 67.149 11.1692 750 64.276 850.188 551.477
321 0 72.0793 11.8203 852 63.3016 850.447 548.903
322 0 72.1289 12.3113 888 63.5845 850.297 547.688
323 0 75.0907 12.4516 935 63.3893 850.353 547.427
324 0 78.1064 13.5584 1059 62.5996 849.631 543.303
325 0 80.0955 13.0095 1042 63.2764 849.363 542.476
326 0 83.0664 12.9655 1077 63.5487 849.252 541.947
327 0 83.0707 12.3389 1025 65.2059 849.344 541.7
328 0 89.1859 12.6814 1131 64.0637 849.227 541.716
329 0 91.2326 12.2763 1120 65.2295 849.014 539.206
330 0 92.167 12.0976 1115 65.9821 848.511 535.838
331 0 97.1745 13.3163 1294 64.1005 848.007 535.655
332 0 100.146 13.0908 1311 64.5591 848.617 534.767
333 1 57.1139 9.8575 563 66.4103 849.178 556.02
334 0 61.1037 11.8323 723 63.9239 848.545 556.416
335 0 62.0794 11.5819 719 64.6287 848.448 555.213
336 0 62.1142 12.1389 754 64.1963 848.321 553.383
337 0 64.1008 11.8719 761 64.0999 848.767 554.1
338 0 66.0527 12.3386 815 63.9018 848.947 552.107
339 0 69.1518 13.0004 899 62.574 848.521 551.878
340 0 73.1038 13.0773 956 62.0753 848.419 551.577
341 0 76.2926 13.6186 1039 61.7498 848.223 548.955
342 0 76.0746 12.7769 972 63.4064 848.498 548.935
343 0 78.3097 12.4761 977 64.5885 848.322 546.983
344 0 82.2577 12.935 1064 63.7848 848.048 545.363
345 0 83.1904 13.0424 1085 64.3115 847.69 544.147
346 0 88.1791 13.3478 1177 63.5556 848.048 543.287
347 0 90.2866 14.454 1305 62.8184 847.69 542.674
348 0 93.3767 13.0118 1215 65.0156 847.699 541.668
349 0 95.3515 12.6689 1208 65.6507 847.635 540.126
350 0 98.2575 13.4239 1319 64.6694 848.581 538.64
351 0 102.325 13.6916 1401 63.7359 848.211 536.57
352 0 107.248 13.977 1499 62.9593 848.285 535.089
353 1 55.2135 8.85654 489 66.2311 848.245 559.789
354 0 59.282 9.86809 585 66.1658 848.768 558.954
355 0 62.115 11.2211 697 65.6514 848.739 557.452
356 0 63.1166 11.4075 720 65.3 848.143 558.667
357 0 65.1586 12.4466 811 64.4155 847.513 556.348
358 0 69.2321 12.8986 893 64.0605 846.852 555.094
359 0 69.2047 12.5425 868 65.091 846.975 552.984
360 0 73.2585 13.0497 956 63.7479 847.47 552.38
361 0 75.1984 12.6864 954 64.5954 847.385 550.996
362 0 76.1831 12.9425 986 65.2535 847.282 549.135
363 0 78.2187 12.3883 969 66.2188 847.231 546.955
364 0 81.2625 12.8719 1046 65.5354 847.34 547.143
365 0 86.1339 13.7228 1182 64.1607 847.212 546.376
366 0 87.2296 12.8282 1119 66.1349 847.903 544.899
367 0 88.1678 12.9866 1145 66.5939 847.757 542.2
368 0 92.1765 13.3223 1228 66.057 847.653 542.103
369 0 92.1312 13.0575 1203 67.1762 848.293 541.155
370 0 98.0888 13.6917 1343 65.519 848.79 537.456
371 0 101.146 12.6451 1279 67.2995 848.352 536.315
372 0 106.158 13.527 1436 65.5007 848.628 536.167
373 0 109.18 13.4182 1465 65.7304 848.599 533.663
374 1 60.0889 10.4845 630 67.1698 848.687 556.843
375 0 61.0512 10.5813 646 66.5155 848.376 557.731
376 0 63.0724 11.796 744 63.6331 848.239 554.977
377 0 64.1102 10.9343 701 63.5777 847.842 556.531
378 0 67.0969 11.4312 767 63.4459 848.065 553.449
379 0 71.11 12.1502 864 61.353 848.135 552.416
380 0 71.1218 12.7106 904 60.6051 848.351 550.538
381 0 75.1466 12.4024 932 60.5912 848.998 550.148
382 0 76.1098 11.8382 901 60.8724 849.13 550.972
383 0 79.1483 12.1418 961 60.6379 849.023 547.92
384 0 81.1754 11.9618 971 60.7302 849.465 546.524
385 0 84.2112 12.7418 1073 60.0075 849.276 543.658
386 0 88.1446 12.4114 1094 59.8784 849.77 542.615
387 0 90.1732 12.2431 1104 60.4783 850.208 540.668
388 0 93.1725 12.4393 1159 59.415 850.545 540.832
389 1 51.0639 11.3779 581 58.5835 850.816 561.73
390 0 52.0108 11.0169 573 59.4764 850.867 559.78
391 0 54.0435 10.399 562 60.6459 851.1 559.543
392 0 57.0418 11.3075 645 59.1891 850.994 558.826
393 0 55.0599 11.4421 630 60 851.038 558.303
394 0 57.1248 12.5515 717 59.1576 851.17 556.347
395 0 58.1594 11.8811 691 59.026 851.123 556.25
396 0 61.132 12.792 782 57.9003 851.992 554.294
397 0 61.0643 12.1347 741 59.5992 851.563 555.117
398 0 63.073 12.8581 811 58.9026 852.221 553.125
399 0 66.1056 12.3741 818 59.5782 851.753 552.8
400 0 65.076 12.3394 803 60.4259 852.098 550.3
401 0 68.073 13.1623 896 59.3694 852.124 549.672
402 0 71.0843 13.2941 945 59.5915 852.28 546.914
403 0 73.1032 13.1732 963 60.298 852.063 547.572
404 0 76.0994 13.4298 1022 59.7622 852.289 544.581
405 0 79.1371 13.5208 1070 59.6692 852.004 543.884
406 0 81.063 13.0886 1061 60.9529 852.218 542.925
407 0 82.1914 12.8846 1059 61.9849 851.974 542.591
408 0 86.265 12.821 1106 62.0886 851.925 539.532
409 0 88.1995 13.3107 1174 61.5903 851.55 539.888
410 0 92.2881 13.7504 1269 60.8621 851.662 538.608
411 1 51.0235 9.9758 509 64.3379 851.664 560.132
412 0 52.0867 11.3273 590 63.1203 851.405 558.419
413 0 53.1599 11.0798 589 64.073 851.022 557.995
414 0 53.0641 11.4767 609 64.8834 850.696 556.92
415 0 57.0669 13.2827 758 62.7691 850.656 554.863
416 0 59.1273 13.1242 776 61.9253 850.339 554.92
417 0 60.1323 13.0712 786 62.785 850.372 554.202
418 0 63.1679 13.2979 840 62.2274 850.202 552.757
419 0 64.2237 13.235 850 62.0671 850.504 552.405
420 0 66.0706 13.1829 871 63.1183 850.048 550.844
421 0 67.1463 13.7312 922 62.4534 849.989 550.427
422 0 70.1066 13.8931 974 63.1099 849.315 550.167
423 0 72.1386 13.2107 953 64.3861 848.654 549.289
424 0 75.2534 13.7004 1031 63.872 848.844 547.413
425 0 78.3913 14.1342 1108 63.2085 848.497 546.337
426 0 78.309 13.7149 1074 64.6825 848.506 543.979
427 0 83.419 14.625 1220 62.2311 848.668 543.161
428 0 85.5034 13.6252 1165 64.1948 848.429 540.599
429 0 87.3653 13.1288 1147 65.0915 848.763 539.853
430 0 91.4161 13.5862 1242 64.0081 848.75 539.75
431 1 46.5772 10.1767 474 66.1118 849.099 560.357
432 0 49.54 10.9406 542 64.8137 849.225 560.268
433 0 52.3757 12.9831 680 62.4279 848.668 557.182
434 0 52.1929 12.5496 655 63.5099 848.536 556.884
435 0 56.0768 13.2497 743 63.0525 847.88 556.841
436 0 58.0736 13.6379 792 62.1376 848.006 556.73
437 0 58.1173 13.5416 787 62.8463 847.865 555.873
438 0 62.1927 13.619 847 62.2656 847.511 554.26
439 0 63.1204 13.5297 854 62.5878 847.391 553.105
440 0 63.0876 13.7111 865 62.7376 847.294 551.994
441 0 68.115 12.7725 870 62.9862 847.348 551.675
442 0 68.0943 13.5547 923 62.6923 847.042 550.638
443 0 72.0945 13.7736 993 61.5408 846.909 550.79
444 0 72.1857 13.4099 968 62.53 847.315 550.323
445 0 78.1887 13.0454 1020 62.2265 847.583 550.302
446 0 80.1648 14.1708 1136 60.5748 847.341 548.452
447 0 80.1469 13.4129 1075 62.0437 846.988 547.493
448 0 85.1955 14.0735 1199 59.9133 846.921 546.186
449 0 86.0751 13.0467 1123 61.7453 847.162 543.177
450 0 92.1173 13.9279 1283 59.8815 847.078 541.133
451 1 48.0396 11.7403 564 59.273 847.629 563.09
452 0 49.1422 12.2095 600 58.9133 847.233 562.583
453 0 51.1768 12.447 637 59.1115 846.317 561.308
454 0 53.0782 11.7939 626 59.353 846.441 560.165
455 0 55.0403 11.6642 642 59.7305 847.66 559.386
456 0 57.032 13.8343 789 57.1343 847.43 557.965
457 0 59.0317 13.2302 781 57.7017 847.434 556.956
458 0 60.066 13.019 782 57.8657 847.364 557.807
459 0 63.0521 12.8307 809 57.9889 847.622 555.842
460 0 65.0704 12.6171 821 58.525 848.21 556.146
461 0 66.035 13.9169 919 57.482 847.654 553.945
462 0 69.0224 13.4884 931 58.1622 847.983 553.861
463 0 70.1146 13.6491 957 58.8276 847.238 552.131
464 0 71.0786 13.1122 932 60.1727 847.511 550.975
465 0 76.0679 14.6054 1111 58.0504 847.606 550.507
466 0 75.0841 13.0121 977 61.3439 846.981 549.54
467 0 80.15 13.6993 1098 60.0674 846.754 548.127
468 0 84.2064 14.2982 1204 58.9676 846.287 547.047
469 0 85.2884 13.683 1167 60.5861 846.689 544.306
470 1 48.0594 10.279 494 62.496 846.96 565.194
471 0 49.0672 11.4741 563 61.5684 847.048 563.14
472 0 52.1563 11.6956 610 61.5377 847.192 562.436
473 0 53.1674 11.9434 635 61.7465 846.896 562.86
474 0 56.126 12.8283 720 61.8653 847.322 562.379
475 0 56.1343 12.5235 703 63.0228 847.358 561.704
476 0 57.1331 12.9697 741 62.6478 847.238 559.757
477 0 59.2075 13.1233 777 62.7297 847.295 558.758
478 0 61.1091 13.075 799 63.1665 847.148 558.529
479 0 65.0871 13.6125 886 61.7223 847.091 558.993
480 0 67.1504 14.1027 947 61.2503 847.638 557.885
481 0 68.1136 12.9196 880 64.033 847.399 555.641
482 0 72.2408 13.718 991 62.3986 847.562 555.848
483 0 72.2813 13.0739 945 64.6476 847.406 553.368
484 0 75.1724 13.2894 999 64.5536 847.236 552.733
485 0 77.3164 12.9985 1005 65.0368 847.542 550.649
486 0 79.1536 12.7726 1011 66.276 847.647 549.22
487 0 84.3174 12.9985 1096 65.5027 847.682 548.476
488 0 85.2121 13.883 1183 65.1429 847.77 546.842
489 0 88.1925 13.5272 1193 65.1006 847.727 546.44
490 0 92.2331 14.008 1292 64.2755 847.762 545.25
491 1 47.058 11.2839 531 66.0847 848.399 566.685
492 0 49.0662 11.6577 572 65.4755 848.544 566.649
493 0 49.1084 12.3604 607 65.6096 848.178 564.58
494 0 50.0387 13.4096 671 65.0075 847.855 563.124
495 0 53.036 12.9346 686 65.7784 848.13 562.797
496 0 54.244 12.4806 677 66.1625 848.235 562.245
497 0 55.2796 12.1021 669 67.0433 847.855 560.933
498 0 57.1731 13.2055 755 66.3616 848.49 558.834
499 0 58.2336 12.9135 752 67.1356 848.166 558.17
500 0 61.1259 13.3004 813 65.9213 848.29 558.087
501 0 63.1328 13.5587 856 65.3727 848.661 556.926
502 0 63.0818 14.6635 925 64.3741 848.342 556.877
503 0 67.2087 14.1053 948 64.7342 848.308 555.888
504 0 68.3254 13.7138 937 65.3821 848.287 555.016
505 0 71.4528 13.8413 989 65.3974 848.464 552.718
506 0 71.0904 13.8134 982 66.0591 847.833 549.091
507 0 74.1532 13.7553 1020 65.9775 848.462 548.375
508 0 77.1377 14.0139 1081 65.6068 848.138 546.077
509 0 80.2583 13.4815 1082 66.7006 848.254 546.226
510 0 81.1691 14.3404 1164 66.2371 848.145 544.501
511 0 84.1415 14.2617 1200 66.2667 848.232 543.5
512 0 87.0869 14.0664 1225 66.7535 848.422 542.468
513 0 91.1539 14.2835 1302 66.3564 848.418 543.103
514 0 95.1178 14.6029 1389 65.8272 848.484 538.762
515 1 49.0721 12.4511 611 67.9329 848.516 560.286
516 0 51.0893 13.1926 674 65.6766 848.496 559.924
517 0 52.0762 12.981 676 66.4186 848.497 559.124
518 0 55.0765 12.8185 706 66.8414 848.191 557.793
519 0 57.0978 14.4664 826 64.3475 847.617 557.573
520 0 58.2305 13.9446 812 65.4015 848.063 555.78
521 0 61.0427 13.3513 815 66.3423 848.052 554.249
522 0 63.1132 14.2759 901 64.9334 848.37 552.795
523 0 65.1575 13.736 895 64.8257 849.392 553.597
524 0 67.1685 14.5306 976 64.5 849.461 551.162
525 0 71.1921 14.6224 1041 63.8463 849.624 550.768
526 0 71.3586 15.1348 1080 63.5639 849.819 549.369
527 0 72.3266 14.2963 1034 65.4139 850.12 548.527
528 0 75.2291 14.4625 1088 64.921 850.142 546.84
529 0 78.2775 14.8191 1160 64.425 850.411 545.288
530 0 81.2176 15.0337 1221 64.104 850.05 543.548
531 0 85.293 15.4761 1320 62.722 850.237 543.321
532 0 87.142 14.6313 1275 64.6392 850.008 541.337
533 0 90.1405 14.5329 1310 64.1427 850.144 540.694
534 0 93.1613 14.8345 1382 63.6679 850.444 538.419
535 0 95.3058 15.0043 1430 63.6168 850.274 536.441
536 1 50.1311 12.4075 622 67.2235 850.434 558.145
537 0 52.0933 12.3432 643 66.9378 850.218 555.546
538 0 54.1314 13.1901 714 65.4454 850.73 554.531
539 0 57.3242 14.0255 804 63.7351 850.888 553.787
540 0 59.0937 14.3332 847 63.327 850.385 552.544
541 0 61.0663 13.7719 841 63.5957 850.398 553.459
542 0 62.0686 13.9201 864 63.7975 849.905 551.295
543 0 64.1344 13.768 883 64.1721 849.883 550.421
544 0 69.2961 14.6473 1015 61.934 849.467 547.408
545 0 71.1073 14.3164 1018 62.1267 849.523 548.103
546 0 72.1401 14.4857 1045 62.4096 849.355 545.883
547 0 78.2626 14.8986 1166 60.1552 848.971 546.938
548 0 78.4341 14.4197 1131 61.4147 849.262 543.743
549 0 81.4108 14.8998 1213 60.8153 849.35 541.255
550 0 82.3079 13.899 1144 62.6608 849.057 540.823
551 0 85.1959 14.543 1239 61.6303 849.332 540.525
552 0 90.3998 14.9115 1348 60.7604 849.178 539.259
553 0 89.3273 14.1614 1265 62.4008 849.077 537.572
554 0 96.1815 15.1276 1455 60.4735 848.567 536.444
555 0 98.5695 15.2075 1499 60.4983 849.426 534.243
556 0 101.323 14.3402 1453 61.1734 849.248 533.493
557 1 52.1891 11.0943 579 62.7444 848.813 558.777
558 0 56.2994 11.5454 650 61.7477 849.072 557.18
559 0 55.2038 12.9158 713 62.223 849.043 554.188
560 0 60.389 12.8831 778 60.653 849.098 553.208
561 0 62.4049 13.172 822 60.4124 848.909 551.462
562 0 64.2443 14.1024 906 58.9393 848.585 551.549
563 0 68.2834 13.6197 930 59.471 848.269 551.126
564 0 68.5092 13.0639 895 60.3598 848.172 550.616
565 0 69.2229 12.7848 885 61.2452 848.005 548.679
566 0 74.7826 13.2919 994 60.2455 847.847 546.429
567 0 77.4662 13.4898 1045 59.6507 847.965 546.408
568 0 79.4363 14.4141 1145 59.0122 848.357 543.121
569 0 83.3425 13.3545 1113 59.8518 848.071 543.223
570 0 85.2681 13.6862 1167 60.2836 848.165 540.799
571 0 87.1966 13.4868 1176 60.8265 848.215 539.4
572 0 93.242 13.481 1257 59.9101 848.011 538.833
573 0 93.1789 13.2326 1233 60.9092 848.147 537.32
574 0 98.4083 14.0842 1386 59.5144 848.12 535.803
575 1 51.3022 11.4225 586 60.2679 847.49 559.478
576 0 50.2433 11.1856 562 62.2509 847.523 557.568
577 0 54.0905 11.7581 636 60.9167 847.042 557.612
578 0 56.2478 12.8716 724 60.1436 846.68 556.185
579 0 59.2575 13.3316 790 59.5709 847.332 554.235
580 0 63.4283 13.2433 840 59.1762 846.685 553.617
581 0 66.2882 12.7172 843 59.2633 846.687 553.318
582 0 67.4816 13.7519 928 58.4612 846.911 552.387
583 0 70.2098 12.249 860 60.7256 846.435 550.956
584 0 70.2973 13.0873 920 60.775 846.49 549.275
585 0 72.2882 12.4778 902 62.3581 846.633 547.214
586 0 78.3212 13.8277 1083 60.1311 846.971 547.48
587 0 79.2807 13.0801 1037 61.3983 846.011 545.99
588 0 80.3676 13.1645 1058 62.7363 846.549 545.302
589 0 83.295 12.8219 1068 62.4007 846.56 544.545
590 0 88.2716 13.8889 1226 61.0106 846.013 541.706
591 0 90.2681 12.4518 1124 63.4537 845.87 541.2
592 0 94.3004 13.5949 1282 61.7426 845.566 539.763
593 0 98.5042 14.4765 1426 60.5827 845.479 538.624
594 0 102.349 14.2649 1460 60.5699 845.6 537.259
595 1 52.2244 10.723 560 61.8429 845.971 561.591
596 0 54.2348 10.7864 585 62.2838 846.06 560.797
597 0 56.2014 11.6367 654 61.5443 845.784 559.817
598 0 59.3123 11.7682 698 60.6662 845.781 559.526
599 0 60.356 12.0452 727 60.8542 845.754 556.763
600 0 62.4438 13.1478 821 59.5932 845.714 554.664
601 0 66.351 12.5695 834 59.7206 845.032 554.656
602 0 67.4333 12.0712 814 60.2838 845.307 555.617
603 0 70.2368 12.1019 850 60.1506 845.356 553.422
604 0 74.2873 13.2593 985 58.2061 845.137 551.794
605 0 75.4163 12.5304 945 59.8529 845.819 549.56
606 0 78.4578 11.4201 896 61.0893 845.547 548.381
607 0 82.4334 12.7497 1051 59.8069 845.587 547.248
608 0 85.3816 13.2581 1132 59.9655 845.323 546.57
609 0 88.2459 13.2131 1166 59.9271 845.425 543.312
610 0 94.4093 12.6153 1191 60.4391 845.639 543.687
611 0 94.3687 13.0976 1236 61.4272 845.342 539.935
612 1 48.1417 10.116 487 63.0513 845.312 564.501
613 0 51.1056 11.6426 595 62.3412 846.182 561.985
614 0 53.0837 12.2448 650 61.3046 846.155 562.992
615 0 53.039 13.0658 693 61.2352 845.442 561.929
616 0 54.098 13.4386 727 62.1073 845.331 562.253
617 0 58.169 13.5983 791 60.7674 845.788 561.939
618 0 55.1746 11.8533 654 65.208 845.836 560.034
619 0 59.2646 13.3301 790 61.6949 845.949 560.141
620 0 59.4062 12.8438 763 63.5754 845.915 558.165
621 0 63.2265 13.3646 845 62.4959 845.457 557.387
622 0 66.4066 12.4084 824 64.2197 845.893 556.511
623 0 66.3472 13.5349 898 63.9232 846.1 554.332
624 0 69.3438 13.2961 922 64.1139 845.667 552.886
625 0 74.5274 13.8607 1033 62.183 845.726 552.504
626 0 76.4582 13.6676 1045 62.7866 846.224 551.433
627 0 77.5453 12.3799 960 65.8198 846.589 549.885
628 0 81.4747 12.6665 1032 65.6085 846.934 547.885
629 0 83.6239 12.8791 1077 65.9461 846.878 546.731
630 1 42.2607 11.5237 487 65.6263 846.959 567.207
631 0 43.1408 11.1264 480 66.9896 846.894 565.498
632 0 44.4617 12.0553 536 65.5131 847.701 563.172
633 0 47.6887 12.6235 602 63.9867 848.12 562.558
634 0 49.136 12.1906 599 65.4307 846.873 563.543
635 0 50.0634 12.6839 635 65.5307 847.496 560.863
636 0 51.1476 13.4122 686 64.344 847.264 561.159
637 0 53.0901 13.0156 691 64.6035 847.615 559.111
638 0 53.1933 12.9528 689 65.1698 847.993 557.833
639 0 56.2132 12.8262 721 64.8239 848.494 556.495
640 0 58.4907 13.1132 767 64.1591 848.425 556.705
641 0 58.36 13.7766 804 62.7662 849.239 553.751
642 0 59.445 13.4074 797 64.1832 849.78 552.537
643 0 61.6042 13.0998 807 64.4783 849.999 552.366
644 0 63.3722 14.2491 903 62.8649 850.025 551.839
645 0 66.5317 12.851 855 65.4737 850.004 549.166
646 0 66.4836 13.462 895 65.0804 850.045 548.527
647 0 69.4472 13.6363 947 64.5681 850.579 547.435
648 1 38.3781 9.51063 365 65.063 851.759 563.474
649 0 40.3162 10.7649 434 62.0207 851.567 564.671
650 0 40.3686 11.0482 446 63.1704 851.07 563.103
651 0 42.3369 10.9833 465 63.6323 850.492 562.09
652 0 42.2165 11.9148 503 64.9304 849.68 561.008
653 0 45.0418 12.3885 558 64.2168 848.163 563.459
654 0 47.0529 11.859 558 64.9176 849.575 563.839
655 0 48.048 12.3626 594 64.7525 850.237 562.524
656 0 49.0397 12.602 618 64.9515 849.693 561.416
657 0 50.039 12.5902 630 64.4349 849.998 562.038
658 0 53.0373 12.0104 637 64.4631 850.025 560.055
659 0 53.1088 12.9357 687 64.0801 850.028 560
660 0 53.0631 12.6076 669 64.9567 850.472 560.036
661 0 55.0151 13.2873 731 64.067 850.148 558.807
662 0 58.0534 13.1258 762 64.21 849.854 557.249
663 0 58.1077 13.5438 787 64.1957 849.98 556.473
664 0 61.0874 13.0796 799 64.4706 849.771 555.706
665 0 60.1021 13.4771 810 64.8815 849.885 554.985
666 0 64.2594 13.2432 851 64.6451 850.137 553.653
667 0 65.1507 13.415 874 64.9931 850.152 551.372
668 0 67.1969 13.5125 908 64.935 850.635 552.148
669 0 68.1187 12.6103 859 67.0489 850.384 549.349
670 0 72.2594 13.3131 962 65.8212 850.367 549.514
671 0 72.1602 14.0521 1014 65.2919 850.539 547.646
672 0 74.3226 13.9258 1035 65.4676 850.815 547.4
673 0 80.287 13.5016 1084 65.6375 850.869 546.34
674 0 81.1313 13.8171 1121 65.7074 851.191 544.419
675 0 82.1102 13.4941 1108 66.5866 851.116 542.597
676 0 85.1964 12.7822 1089 67.573 851.061 540.613
677 0 92.2198 14.2269 1312 64.1509 850.812 540.409
678 1 48.0638 11.3807 547 66.3473 850.764 559.355
679 0 49.0295 11.1566 547 66.3218 850.993 559.194
680 0 51.0947 11.8995 608 65.199 851.081 559.242
681 0 52.0501 12.7377 663 64.9653 851.457 558.22
682 0 54.0873 12.2949 665 65.4015 852.033 558.198
683 0 55.1257 12.5713 693 65.2727 852.486 557.328
684 0 56.028 12.4937 700 65.8943 852.861 554.124
685 0 59.0194 12.5552 741 64.9555 852.619 554.993
686 0 61.0914 12.1948 745 65.6872 852.287 553.968
687 0 63.0799 12.5397 791 64.914 852.355 553.435
688 0 63.0829 12.6183 796 65.343 852.251 550.825
689 0 68.1355 13.0475 889 64.189 851.981 549.53
690 0 69.1103 12.2124 844 64.9751 851.628 549.991
691 0 70.04 12.8641 901 64.9323 851.67 547.987
692 0 74.0664 12.0162 890 64.3494 851.512 548.954
693 0 77.1013 13.2812 1024 62.21 851.6 546.521
694 0 78.0794 12.1159 946 64.1744 850.97 543.706
695 0 81.0374 12.8829 1044 62.3295 851.108 543.128
696 0 84.1297 12.6828 1067 62.433 851.393 540.571
697 0 85.112 12.0547 1026 62.9912 851.59 541.64
698 1 48.0308 10.3475 497 61.2414 851.441 560.109
699 0 47.0381 10.2683 483 61.0145 851.671 561.155
700 0 50.0352 11.412 571 58.7758 850.602 561.32
701 0 49.073 10.8614 533 60.3809 850.54 559.062
702 0 51.1169 11.4248 584 59.2483 850.305 558.723
703 0 52.1652 10.9076 569 60.1511 849.937 557.972
704 0 54.0421 11.3245 612 60.2435 849.975 558.477
705 0 55.0462 11.4631 631 59.9984 849.545 557.227
706 0 59.1039 10.5577 624 60.5577 849.551 554.596
707 0 59.1182 11.4178 675 59.3126 849.606 553.916
708 0 62.1022 12.415 771 57.8534 849.058 554.025
709 0 63.1298 11.8169 746 58.9236 848.997 553.214
710 0 65.1884 11.996 782 58.2123 848.73 552.02
711 0 68.0975 11.6891 796 58.4937 848.56 551.641
712 0 70.1639 12.7701 896 57.1998 848.606 551.217
713 0 71.1462 12.7765 909 57.6282 849.509 549.849
714 0 73.2047 11.9801 877 58.6192 849.326 548.137
715 0 76.1049 12.7193 968 57.7655 849.036 547.748
716 1 41.0322 10.6989 439 58.3531 849.861 566.651
717 0 41.0713 10.494 431 59.1346 849.91 565.067
718 0 44.0403 10.6039 467 58.3062 849.58 564.722
719 0 47.1112 10.6981 504 58.7738 849.365 563.05
720 0 48.0755 11.6275 559 57.7138 848.93 562.497
721 0 50.0551 12.0667 604 57.6275 849.005 563.119
722 0 49.1073 12.9105 634 57.765 848.97 560.312
723 0 52.1265 12.6807 661 57.4705 847.646 560.844
724 0 53.1416 11.4411 608 58.8651 847.76 560.505
725 0 55.2609 11.9976 663 57.7179 847.994 559.419
726 0 56.1025 12.1028 679 56.4742 847.52 560.429
727 0 58.1252 12.1806 708 57.1525 847.28 558.171
728 0 57.1469 12.4066 709 58.5867 847.282 557.138
729 0 61.1335 12.3173 753 58.5936 847.647 555.491
730 0 61.0572 13.0042 794 57.9345 847.251 555.296
731 0 65.1918 12.5629 819 57.746 847.009 555.068
732 0 66.1005 12.2692 811 58.3305 846.676 552.846
733 0 68.1321 13.2243 901 57.0355 846.729 553.245
734 0 70.1292 12.7051 891 58.459 846.568 550.866
735 0 71.0798 12.296 874 58.1682 846.539 552.392
736 0 75.1138 13.0735 982 57.7872 846.373 550.968
737 0 75.1201 12.5932 946 58.8879 846.332 550.643
738 0 77.1944 12.7082 981 58.8858 846.336 550.238
739 0 80.2057 12.4929 1002 59.014 846.022 547.361
740 0 83.2119 12.5463 1044 59.0967 845.557 548.233
741 0 87.1166 13.9353 1214 57.8748 845.997 545.444
742 0 90.2194 12.8686 1161 59.261 846.235 545.341
743 0 90.1798 13.5064 1218 59.5476 846.164 541.461
744 0 95.1248 13.7924 1312 59.0938 846.207 542.502
745 0 96.2314 13.9455 1342 59.3256 845.99 540.075
746 1 52.0351 11.2616 586 61.9096 846.848 562.749
747 0 53.0602 11.3833 604 61.3493 846.397 563.265
748 0 54.0628 12.4115 671 61.0849 846.173 561.879
749 0 56.1305 11.9365 670 61.3746 845.552 560.676
750 0 59.0943 13.4023 792 59.4192 845.242 558.25
751 0 59.1158 13.076 773 60.5485 845.075 558.23
752 0 60.1406 12.7036 764 61.9882 844.784 557.679
753 0 64.0424 12.6635 811 61.7448 844.609 556.036
754 0 67.2776 12.5748 846 61.6631 844.858 553.734
755 0 69.0692 13.5806 938 60.5629 844.571 552.762
756 0 72.1516 12.9727 936 61.5662 844.072 552.668
757 0 74.1529 13.1215 973 61.6074 844.391 551.982
758 0 75.0728 13.0407 979 62.1052 844.523 550.173
759 0 79.1816 13.5259 1071 61.5107 844.647 549.573
760 0 82.3642 13.3675 1101 61.7248 844.412 548.047
761 1 44.1391 11.0333 487 62.0287 845.111 566.429
762 0 46.1204 10.6894 493 62.4807 844.937 566.071
763 0 47.1899 10.7438 507 62.7949 844.828 566.231
764 0 49.0597 11.5573 567 61.5467 844.656 566.737
765 0 48.063 10.5695 508 63.6713 844 564.411
766 0 53.0501 12.5353 665 60.382 843.719 563.926
767 0 55.1962 12.5009 690 60.9159 843.878 563.48
768 0 55.1463 12.5666 693 61.3983 844.329 561.639
769 0 57.0866 12.7175 726 61.0937 844.247 561.729
770 0 57.0993 12.2418 699 61.6395 844.176 562.109
771 0 60.1104 12.6434 760 61.7934 844.768 560.262
772 0 62.0959 12.4807 775 61.6245 845.009 559.516
773 0 63.1002 13.3597 843 61.3416 844.338 557.539
774 0 65.0937 12.3975 807 62.5105 844.337 557.58
775 0 67.3705 13.4035 903 60.763 844.732 558.037
776 0 69.1243 12.8175 886 61.9515 844.985 555.831
777 0 72.1174 13.4364 969 61.258 844.911 553.656
778 0 75.1019 13.5949 1021 60.2723 845.103 552.61
779 0 78.0913 13.433 1049 60.122 845.159 551.608
780 0 79.2522 12.7063 1007 61.6862 845.213 548.192
781 0 82.2699 12.6778 1043 61.7776 844.66 548.136
782 0 87.2043 12.2242 1066 61.7233 845.007 548.543
783 0 90.3949 13.2861 1201 60.5362 845.164 544.152
784 0 92.2176 11.95 1102 62.569 845.709 542.262
785 1 50.1616 11.0044 552 61.5652 845.257 563.491
786 0 51.0901 10.6283 543 61.7201 845.267 563.263
787 0 54.021 11.3845 615 61.8423 845.272 562.382
788 0 54.0353 12.0107 649 63.8629 845.542 561.877
789 0 59.0815 13.4052 792 59.7904 845.753 561.764
790 0 59.1215 14.4956 857 59.3827 846.68 561.02
791 0 60.2089 12.6227 760 61.9934 846.559 560.45
792 0 62.2069 12.8764 801 62.5243 847.026 558.396
793 0 63.0598 13.1304 828 62.6993 847.542 557.171
794 0 66.2012 13.2022 874 62.238 846.719 556.76
795 0 69.2286 12.1626 842 63.9667 847.005 554.982
796 0 69.1696 13.1416 909 62.6513 846.62 555.152
797 0 71.2212 13.1843 939 63.3823 847.262 552.883
798 0 73.1924 12.6789 928 63.0603 847.404 551.395
799 0 77.2603 13.4869 1042 61.6468 847.311 551.799
800 0 78.2708 13.2106 1034 62.5058 847.577 550.41
801 0 83.2105 13.3156 1108 61.6525 848.15 549.264
802 0 84.1585 12.7141 1070 62.9196 847.9 546.851
803 0 90.1893 12.9395 1167 61.886 848.386 545.692
804 1 48.1485 11.3607 547 61.9689 848.356 565.702
805 0 51.3427 10.6344 546 62.8205 848.969 563.293
806 0 52.1997 11.1112 580 61.8845 849.174 562.764
807 0 53.1838 11.0936 590 61.5203 849.547 561.876
808 0 58.1815 12.2548 713 60.345 849.453 560.018
809 0 57.0959 12.4177 709 61.859 848.869 561.061
810 0 59.108 12.6548 748 61.9225 848.747 559.094
811 0 60.1756 12.6796 763 61.8257 848.754 559.241
812 0 62.277 12.0109 748 62.9626 848.814 557.877
813 0 65.1789 13.0564 851 61.5793 849.141 556.38
814 0 66.1553 12.38 819 62.1758 849.038 556.534
815 0 67.1916 12.8439 863 62.4612 849.489 553.882
816 0 70.3453 13.0073 915 61.6459 849.843 553.798
817 0 72.1958 12.5215 904 63.0631 848.929 551.921
818 0 73.3499 13.2379 971 62.4717 848.877 550.03
819 0 76.265 12.8761 982 63.1721 849.279 550.314
820 0 78.1372 12.99 1015 62.7261 848.937 549.683
821 0 80.2291 13.0875 1050 63.659 849.087 548.491
822 0 82.3963 12.7918 1054 64.0512 848.898 546.943
823 0 86.3882 13.9024 1201 62.4371 848.997 543.995
824 0 89.1873 13.2642 1183 63.6889 849.244 542.735
825 0 91.3146 13.2947 1214 63.9069 849.014 543.411
826 0 93.4494 13.0231 1217 64.7371 848.164 540.332
827 0 98.2105 13.5016 1326 63.2428 848.177 539.891
828 1 54.217 12.4315 674 63.8872 849.266 560.067
829 0 56.2885 12.0273 677 64.2777 848.929 560.052
830 0 58.1475 12.1243 705 63.8865 848.624 559.254
831 0 57.0668 12.9147 737 62.2754 847.482 559.065
832 0 61.1093 13.2549 810 61.8272 847.323 557.707
833 0 60.1304 12.1237 729 63.7325 847.608 557.818
834 0 62.1008 12.4314 772 63.6114 847.184 555.499
835 0 64.0385 12.5706 805 62.9627 847.089 553.771
836 0 68.1214 13.1824 898 62.2027 847.226 552.314
837 0 70.1021 12.7528 894 62.7875 846.991 552.35
838 0 71.2284 13.3514 951 62.7529 847.192 551.069
839 0 73.178 13.0914 958 63.0334 847.134 546.627
840 0 76.1644 13.6809 1042 61.8964 846.894 546.301
841 0 80.0952 14.9073 1194 59.026 847.248 544.843
842 0 79.2655 12.906 1023 63.2884 846.519 544.234
843 0 83.2098 13.1235 1092 62.0266 846.728 544.244
844 0 87.15 13.1038 1142 62.0622 846.616 542.061
845 0 89.1752 13.8043 1231 61.2145 846.657 539.256
846 0 92.2618 13.4617 1242 61.5499 846.944 538.363
847 0 96.3125 14.048 1353 60.0761 846.462 538.072
848 0 100.229 14.2573 1429 59.5668 846.809 535.853
849 1 54.1516 10.3783 562 62.4662 846.883 559.482
850 0 55.1307 9.86747 544 62.954 846.597 558.75
851 0 60.1413 11.3566 683 61.1083 846.423 557.82
852 0 60.1586 11.0874 667 62.2549 846.01 555.276
853 0 62.2381 12.4361 774 60.3876 845.279 551.212
854 0 65.1773 12.3509 805 60.6795 845.537 550.637
855 0 70.5224 12.6201 890 60.1719 846.173 554.018
856 0 71.2847 13.9581 995 58.8874 846.157 553.686
857 0 73.1905 13.0208 953 60.0346 846.31 551.933
858 0 76.3295 12.8784 983 59.7009 846.07 550.966
859 0 77.3024 11.6814 903 62.3101 845.615 549.666
860 0 83.2867 13.7477 1145 58.1022 845.893 548.003
861 0 84.3707 13.7251 1158 58.4352 846.046 546.927
862 0 85.1359 12.5329 1067 60.2202 845.833 547.386
863 0 90.4038 13.6609 1235 58.8858 846.177 545.747
864 0 92.3803 13.9207 1286 59.0016 845.968 542.086
865 0 96.4685 14.0357 1354 58.8567 845.453 540.413
866 0 97.4153 12.6058 1228 62.2378 845.632 537.424
867 0 101.476 12.8898 1308 62.0864 845.591 536.495
868 1 53.0905 11.0001 584 60.8322 846.26 563.896
869 0 53.1366 12.6655 673 60.4651 846.303 561.373
870 0 55.1025 12.1047 667 61.5097 846.031 560.432
871 0 56.076 11.6984 656 62.1662 845.613 561.244
872 0 60.12 12.2755 738 61.1382 845.612 559.5
873 0 61.1221 12.3687 756 61.6111 845.422 556.488
874 0 65.0662 11.8034 768 61.9922 845.128 556.251
875 0 65.1575 12.4314 810 61.442 843.951 554.979
876 0 69.1192 12.6593 875 61.1451 845.137 553.63
877 0 69.3458 12.5602 871 62.4225 845.029 554.109
878 0 72.2098 13.3777 966 62.9928 845.378 554.406
879 0 74.1649 12.7958 949 68.2961 845.305 553.588
880 0 77.2374 12.2091 943 69.052 844.984 550.896
881 0 80.3229 13.4955 1084 67.7841 844.82 549.551
882 0 82.2016 13.8562 1139 67.7147 844.932 549.322
883 0 85.2281 12.4607 1062 69.6874 845.234 549.338
884 0 88.1809 13.1775 1162 70.3701 844.851 547.506
885 0 91.4214 13.1479 1202 72.8894 844.765 544.759
886 0 94.2683 13.5146 1274 75.4427 844.899 542.167
887 0 97.3889 12.5374 1221 79.3309 844.683 542.704
888 1 51.2709 10.4738 537 85.1527 845.892 563.685
889 0 49.102 10.4476 513 94.1033 845.858 563.302
890 0 56.2693 12.3513 695 67.3223 846.312 561.706
891 0 56.2988 11.5633 651 57.9616 846.244 562.642
892 0 57.1287 12.7081 726 57.2727 846.358 558.833
893 0 58.1763 12.5996 733 57.9932 846.735 558.061
894 0 58.1763 12.5481 730 157.244 846.707 558.066
895 0 62.2301 12.1645 757 58.4346 845.967 557.293
896 0 63.2955 12.9235 818 58.3594 845.892 554.99
897 0 66.3172 12.4704 827 58.5768 845.901 554.31
898 0 67.4704 12.6426 853 59.2063 846.237 553.072
899 0 70.3376 12.767 898 58.3731 846.57 552.486
900 0 72.1772 12.9958 938 58.7356 846.941 549.61
901 0 74.402 12.7685 950 59.0621 847.432 547.951
902 0 77.3347 12.3748 957 59.9112 847.566 546.432
903 0 80.2471 13.0597 1048 58.8998 847.872 546.132
904 0 84.3978 13.6852 1155 57.8926 848.204 546.268
905 0 86.5656 12.7187 1101 59.7184 848.475 542.937
906 1 46.1407 10.3163 476 61.3845 848.658 562.086
907 0 48.118 10.3911 500 60.98 848.474 563.596
908 0 51.3307 10.9486 562 60.6851 848.112 561.032
909 0 53.3288 12.4511 664 59.4443 848.429 559.998
910 0 54.3264 12.3144 669 60.2407 848.623 558.674
911 0 55.3435 12.576 696 60.3621 848.688 558.562
912 0 57.1154 12.5885 719 61.7469 848.535 557.576
913 0 57.3068 12.5989 722 62.5734 848.763 555.6
914 0 61.497 13.1063 806 61.1452 848.993 556.124
915 0 62.3954 13.1099 818 62.1064 849.198 554.328
916 0 65.5946 12.8669 844 61.4206 849.575 553.046
917 0 63.3353 12.7575 808 62.479 849.436 549.361
918 0 68.3616 13.5603 927 61.849 849.902 550.094
919 0 68.3315 12.4101 848 63.9269 849.435 549.233
920 0 73.363 13.181 967 61.971 849.658 548.087
921 0 75.2077 13.0838 984 62.8018 849.759 545.654
922 0 76.3305 13.7036 1046 61.7141 850.011 543.661
923 0 79.2029 13.1182 1039 62.3292 850.2 543.004
924 0 80.2568 13.0082 1044 62.7663 850.421 543.235
925 0 83.1313 12.6306 1050 63.201 850.558 540.255
926 0 85.1953 12.5359 1068 64.1217 850.026 539.853
927 0 91.1706 14.3138 1305 60.7847 849.692 537.775
928 1 50.0753 11.1432 558 63.1129 850.192 557.566
929 0 49.0536 10.7637 528 63.6496 849.936 557.464
930 0 52.068 10.6975 557 63.3393 850.666 557.562
931 0 54.1571 11.2081 607 63.5552 850.204 554.98
932 0 53.1691 11.9618 636 62.7248 849.676 554.915
933 0 55.2629 11.382 629 63.5262 849.892 553.79
934 0 59.2031 12.6682 750 61.8507 850.868 554.581
935 0 61.1311 11.8434 724 63.0994 850.356 554.906
936 0 61.2184 12.0389 737 63.4817 850.3 554.471
937 0 62.2785 12.0748 752 63.7726 850.008 554.153
938 0 65.0963 12.1819 793 63.2156 849.342 554.579
939 0 69.0808 13.1585 909 62.11 849.43 551.075
940 0 71.2198 12.2719 874 63.135 849.416 550.61
941 0 73.2803 13.0458 956 62.2981 849.019 548.984
942 0 73.1218 12.8416 939 63.3333 849.075 547.05
943 0 79.1489 13.1019 1037 62.6442 849.209 546.56
944 0 78.1836 13.0718 1022 63.7133 848.98 545.846
945 0 83.0917 13.1421 1092 62.957 849.017 545.842
946 0 86.2184 13.5122 1165 62.6858 848.936 544.758
947 0 87.1162 13.1204 1143 64.0376 848.358 541.332
949 0 91.2353 12.7034 1159 64.2355 848.462 541.222
950 0 94.2189 12.991 1224 64.192 848.519 537.819
951 0 98.1925 13.3208 1308 63.1995 848.161 538.416
952 0 99.217 12.9313 1283 64.0398 847.861 535.613
953 1 51.0346 10.3655 529 65.4783 847.669 561.191
954 0 53.0366 11.2941 599 63.9316 847.376 560.207
955 0 58.0535 11.7995 685 62.4453 847.296 558.731
956 0 59.0731 12.4083 733 62.9686 847.914 556.6
957 0 61.0608 12.3975 757 62.6592 846.373 555.643
958 0 64.0589 12.0826 774 62.9767 846.093 556.092
959 0 64.0476 12.6625 811 62.8101 846.416 554.343
960 0 66.0755 12.8187 847 62.5053 846.321 553.726
961 0 70.081 12.2858 861 61.8641 846.426 553.184
962 0 73.0226 12.9138 943 60.8409 846.504 551.621
963 0 75.1286 12.3655 929 61.239 847.188 548.253
964 0 77.2947 12.7952 989 61.4742 847.746 548.393
965 0 79.191 12.7792 1012 61.6868 847.693 546.995
966 0 82.1654 12.6087 1036 61.9131 847.671 544.357
967 0 85.2697 12.8299 1094 61.3437 847.541 542.73
968 0 88.2388 13.0781 1154 59.6603 847.277 543.425
969 1 50.1013 10.4389 523 61.5163 847.671 562.537
970 0 50.0651 10.0469 503 60.336 847.099 564.012
971 0 53.0445 11.2735 598 59.1288 847.283 562.803
972 0 55.0582 11.6241 640 59.8359 847.68 559.072
973 0 55.0777 11.3658 626 59.3019 847.516 560.867
974 0 57.1041 10.9449 625 60.4384 847.158 558.19
975 0 58.1687 12.6701 737 58.6676 847.115 556.769
976 0 60.1712 12.3813 745 59.1503 846.678 556.086
977 0 61.0956 11.8503 724 60.4199 846.181 554.895
978 0 63.2251 12.416 785 59.0344 845.781 553.042
979 0 64.1912 11.0607 710 61.2873 845.446 552.379
980 0 66.2651 11.9067 789 60.2548 845.785 552.8
981 0 68.1327 12.2408 834 59.7578 845.619 551.74
982 0 73.1411 13.0706 956 57.4916 844.919 551.991
983 0 74.2296 12.7847 949 58.8535 844.855 549.457
984 0 76.15 12.7774 973 59.2333 844.914 548.188
985 0 77.1916 11.9443 922 61.09 845.243 548.505
986 0 80.2082 13.3153 1068 59.1882 845.346 545.898
987 0 84.1932 13.1483 1107 58.6558 845.59 547.66
988 0 85.2012 12.7111 1083 59.1505 845.582 546.349
989 0 88.2648 12.859 1135 58.9313 844.98 544.666
990 0 91.1118 12.8414 1170 59.1214 844.876 544.363
991 0 95.3233 13.449 1282 58.2652 844.885 541.395
992 0 96.2601 12.9545 1247 59.2446 844.374 539.123
993 0 99.2331 13.302 1320 58.6871 844.361 539.139
994 0 102.278 13.1504 1345 58.9524 844.714 536.387
995 0 106.206 13.5021 1434 58.6583 844.888 534.861
996 1 59.0781 9.88522 584 59.101 845.603 562.003
997 0 61.1653 11.3627 695 58.5079 845.725 559.199
998 0 62.16 10.5534 656 58.8643 845.605 559.503
999 0 65.2178 11.7453 766 58.1227 845.255 555.636
1000 0 64.2591 11.9361 767 59.2621 846.113 555.302
1001 0 68.2863 13.0626 892 56.7556 845.706 552.663
1002 0 69.2906 12.7723 885 57.6621 845.444 553.858
1003 0 71.3092 11.5132 821 58.6577 844.786 553.548
1004 0 73.2255 12.6186 924 57.7035 844.448 551.682
1005 0 77.3475 13.3036 1029 56.6997 844.465 551.543
1006 0 78.2863 12.6076 987 57.8582 844.778 550.778
1007 0 82.2942 13.1601 1083 56.9437 845.159 549.726
1008 0 84.3613 13.9163 1174 56.5128 845.159 547.016
1009 0 88.2835 14.2269 1256 55.9944 845.303 546.967
1010 0 87.3274 13.0658 1141 58.8843 845.041 545.644
1011 0 92.2206 13.8906 1281 58.9945 845.252 545.431
1012 0 93.3191 13.3199 1243 59.8729 845.019 543.307
1013 0 96.266 13.1303 1264 60.6274 844.788 541.279
1014 0 98.3463 13.2491 1303 59.8987 844.492 539.869
1015 0 101.32 12.7911 1296 60.5787 844.63 537.28
1016 1 53.3282 11.3448 605 59.4364 844.23 561
1017 0 55.2605 10.8215 598 60.4264 844.366 560.42
1018 0 57.3233 12.4033 711 59.8031 845.138 556.861
1019 0 59.4437 12.4151 738 60.1355 845.19 557.499
1020 0 60.2327 12.9166 778 60.2609 845.131 554.356
1021 0 61.3876 12.5432 770 60.5883 845.242 554.974
1022 0 66.136 13.7595 910 59.9659 846.138 557.63
1023 0 67.247 13.2199 889 61.6097 845.99 556.151
1024 0 69.2445 13.5751 940 61.5404 846.164 555.65
1025 0 68.1775 13.6995 934 62.5011 846.045 555.123
1026 0 72.17 13.3851 966 62.7785 845.944 554.802
1027 0 74.3688 13.46 1001 61.6194 845.789 550.678
1028 0 77.3693 13.7651 1065 61.7315 846.414 549.303
1029 0 78.4672 13.6108 1068 62.9419 846.846 547.827
1030 0 79.4234 13.4595 1069 63.5519 846.85 545.229
1031 0 82.4264 13.4544 1109 63.9468 846.667 544.31
1032 0 84.3744 13.5349 1142 64.3651 846.618 542.103
1033 0 88.548 13.3939 1186 64.0219 846.912 542.597
1034 0 92.5889 15.0018 1389 61.7855 847.012 539.15
1035 0 94.4307 13.3749 1263 64.8448 846.534 539.708
1036 0 97.4464 13.9564 1360 63.9515 847.082 537.876
1037 1 52.2188 11.0114 575 66.9826 847.136 560.125
1038 0 54.2485 10.157 551 67.931 847.405 559.735
1039 0 55.2545 12.2524 677 65.9483 848.402 558.573
1040 0 57.1477 13.1589 752 64.9096 847.508 555.984
1041 0 60.1672 13.6952 824 63.7585 847.833 555.826
1042 0 60.1844 13.1596 792 65.8194 848.282 554.958
1043 0 63.2126 12.7823 808 65.5124 849.144 554.697
1044 0 67.0889 13.4001 899 66.0456 849.341 557.493
1045 0 68.1294 13.1955 899 66.7742 849.449 553.991
1046 0 71.1651 13.7286 977 64.9857 849.353 553.027
1047 0 72.2359 13.8989 1004 65.4801 849.139 552.737
1048 0 74.1696 13.4691 999 66.2673 849.308 551.803
1049 0 76.2387 14.1267 1077 65.5599 849.275 549.473
1050 0 80.2696 14.1399 1135 65.0247 849.264 549.14
1051 0 83.1598 14.0092 1165 65.1777 849.025 545.13
1052 0 85.2004 14.3309 1221 65.2916 849.557 544.849
1053 0 87.2582 14.1534 1235 65.587 849.197 544.512
1054 0 90.2552 13.5837 1226 67.2757 849.803 543.851
1055 1 45.133 11.588 523 67.0497 849.6 564.21
1056 0 45.1723 10.4267 471 68.7941 849.951 564.752
1057 0 45.1723 10.4267 471 174.628 849.966 564.69
1058 0 48.1691 11.9786 577 67.1542 850.208 562.776
1059 0 51.0631 11.9264 609 66.7783 850.131 562.19
1060 0 52.0503 13.1603 685 65.1445 849.672 562.115
1061 0 54.0728 13.3154 720 64.3042 849.468 559.918
1062 0 57.0543 12.3566 705 65.2837 849.062 560.133
1063 0 58.0702 12.7776 742 65.0337 848.726 558.805
1064 0 59.0433 13.2445 782 64.7033 848.976 557.55
1065 0 62.0622 13.567 842 63.8029 848.496 557.513
1066 0 63.0812 12.8564 811 65.0321 848.7 556.279
1067 0 64.1725 13.6975 879 64.2298 849.02 555.997
1068 0 65.0807 12.9993 846 65.6418 848.7 554.585
1069 0 68.1147 13.4332 915 64.4885 848.483 553.907
1070 0 71.0702 13.1138 932 65.0161 848.165 553.231
1071 0 72.0977 13.9117 1003 64.2552 848.226 552.167
1072 0 74.0823 12.9181 957 66.3124 848.417 549.494
1073 0 76.1449 13.3561 1017 66.1613 848.431 547.835
1074 0 80.1668 13.7214 1100 65.1282 848.11 546.948
1075 0 83.1131 14.2938 1188 64.4992 847.402 547.152
1076 0 85.1195 14.4033 1226 63.9413 847.444 547.723
1077 0 89.0681 14.4159 1284 64.3107 847.164 546.363
1078 1 48.0188 11.7454 564 65.7411 847.179 564.727
1079 0 50.0534 11.0682 554 66.0758 847.144 565.184
1080 0 49.0159 11.2413 551 67.7241 846.946 561.906
1081 0 51.1449 11.4381 585 65.4838 848.065 562.379
1082 0 52.2211 12.2364 639 65.2019 848.746 560.18
1083 0 53.1598 13.3183 708 65.1412 848.25 560.058
1084 0 55.1428 13.0389 719 66.0153 847.72 558.904
1085 0 57.1134 13.3244 761 66.2234 847.752 559.761
1086 0 59.1643 13.7245 812 65.5357 847.767 558.071
1087 0 60.1948 13.6224 820 66.0537 847.628 558.021
1088 0 63.2154 14.3952 910 64.5297 847.563 556.602
1089 0 65.076 13.1539 856 66.5502 847.403 555.511
1090 0 67.1933 13.93 936 65.4893 847.493 554.625
1091 0 68.2404 13.3206 909 66.4829 847.648 554.061
1092 0 69.1356 13.4808 932 66.9388 847.946 553.708
1093 0 72.0814 14.3449 1034 65.3917 847.722 553.098
1094 0 72.277 13.2269 956 68.4236 847.311 550.309
1095 0 77.1732 13.3725 1032 67.1066 847.304 550.166
1096 0 79.1847 14.1441 1120 65.6098 846.996 548.328
1097 0 84.2075 13.8705 1168 65.3416 846.836 546.86
1098 1 45.0404 10.8569 489 67.6667 847.46 564.143
1099 0 47.3132 11.7303 555 66.9784 847.223 563.432
1100 0 50.0761 11.6423 583 66.8473 847.364 561.863
1101 0 50.11 11.3351 568 67.8398 847.648 561.981
1102 0 52.0538 13.1403 684 65.6725 847.789 560.971
1103 0 56.2547 12.7456 717 65.318 846.904 560.621
1104 0 58.1608 13.0672 760 64.3039 846.813 559.576
1105 0 58.2383 13.4619 784 64.1582 846.624 559.144
1106 0 61.2881 13.51 828 63.2415 846.499 557.256
1107 0 63.1963 13.8774 877 62.7925 846.477 556.705
1108 0 63.1145 13.0556 824 64.7524 846.1 554.693
1109 0 64.2717 13.3496 858 64.6713 846.003 555.923
1110 0 68.4168 13.6224 932 63.3552 846.369 552.052
1111 0 70.1704 13.1965 926 63.7279 846.179 552.163
1112 0 74.184 14.1001 1046 62.1816 846.354 551.38
1113 0 75.2135 13.6944 1030 63.2757 846.494 551.057
1114 0 76.4187 12.9942 993 63.9194 846.532 549.754
1115 0 81.291 15.2292 1238 60.0792 845.95 549.641
1116 0 81.3679 13.7155 1116 63.2348 845.704 546.88
1117 0 85.3411 13.1472 1122 63.3066 845.616 547.095
1118 1 47.2516 10.2219 483 64.1077 845.95 567.195
1119 0 50.1659 10.9836 551 63.9492 845.984 564.53
1120 0 52.3081 11.5661 605 63.0909 845.841 563.106
1121 0 51.1658 11.8438 606 64.0908 846.026 563.37
1122 0 55.2543 12.4877 690 62.5986 846.072 561.067
1123 0 56.2325 12.4839 702 62.4957 845.037 560.623
1124 0 56.214 13.751 773 61.3299 844.946 560.171
1125 0 59.166 13.2509 784 61.2985 845.511 558.81
1126 0 60.1265 12.7731 768 63.1471 845.719 557.954
1127 0 61.0591 13.708 837 61.4719 845.196 555.637
1128 0 63.1453 13.2868 839 62.5077 845.323 555.383
1129 0 68.3123 13.5261 924 60.7933 845.08 557.412
1130 0 67.2195 13.4336 903 62.7564 845.626 557.083
1131 0 70.3545 13.8584 975 61.8492 845.726 556.872
1132 0 70.2667 13.6907 962 63.4563 846.01 554.104
1133 0 71.4101 13.2754 948 64.7869 845.164 552.379
1134 0 74.1854 13.4663 999 65.02 845.595 551.775
1135 0 77.2868 14.7891 1143 63.1216 845.572 550.342
1136 0 78.272 13.9002 1088 65.6893 845.194 548.603
1137 0 82.5393 14.6233 1207 64.3695 845.738 549.498
1138 0 85.3234 13.9587 1191 66.1847 846.184 545.486
1139 0 87.4431 14.0777 1231 66.3006 846.175 544.05
1140 0 90.3845 13.7192 1240 67.2532 846.495 543.134
1141 0 92.4423 14.1169 1305 69.1739 846.793 539.48
1142 0 97.4053 14.5167 1414 68.5021 846.93 537.51
1143 1 50.3234 9.93574 500 69.954 847.72 563.812
1144 0 52.4778 11.1285 584 70.1027 847.557 560.606
1145 0 54.3865 12.6134 686 68.7668 847.343 557.991
1146 0 57.2375 12.9461 741 68.996 846.776 558.297
1147 0 59.1252 12.3974 733 69.8731 846.72 557.802
1148 0 59.1789 13.079 774 69.9561 846.479 557.128
1149 0 61.1104 13.3856 818 69.2237 846.883 556.011
1150 0 62.1771 13.4616 837 69.0454 847.112 556.415
1151 0 65.1476 13.2775 865 69.1584 847.317 554.534
1152 0 67.0609 12.7049 852 70.0563 847.918 553.805
1153 0 69.1593 13.346 923 68.8646 848.434 553.298
1154 0 72.2131 13.6402 985 68.6213 848.671 551.036
1155 0 74.1659 13.3619 991 68.7316 848.821 552.341
1156 0 75.0984 12.8631 966 70.8954 849.398 549.63
1157 0 79.1516 13.7205 1086 69.1455 849.567 547.638
1158 0 80.1089 13.7188 1099 69.1347 849.805 545.561
1159 0 82.2505 13.544 1114 69.5978 849.818 545.53
1160 0 87.1509 13.6086 1186 69.2243 850.297 543.813
1161 0 89.2491 13.7256 1225 69.3633 850.021 543.657
1162 0 90.1586 14.053 1267 69.3867 850.348 542.376
1163 0 94.2865 14.0741 1327 69.1635 850.479 539.242
1164 1 53.2917 10.9773 585 71.5795 850.393 557.986
1165 0 55.3903 11.6807 647 70.7743 850.255 558.604
1166 0 58.4535 13.4295 785 68.4561 847.469 556.315
1167 0 57.2437 12.6826 726 71.0413 849.131 554.439
1168 0 60.3459 13.3563 806 69.5174 851.804 556.556
1169 0 62.1603 13.0952 814 70.6179 851.742 554.165
1170 0 64.3073 12.9223 831 70.9085 852.105 553.094
1171 0 67.2961 12.6456 851 71.0012 851.837 552.655
1172 0 69.3282 13.6452 946 69.3002 851.692 550.97
1173 0 71.2234 13.7595 980 69.4194 851.534 548.827
1174 0 73.134 13.4411 983 70.3499 851.672 548.12
1175 0 75.0983 13.7553 1033 69.5566 851.582 547.504
1176 0 77.1325 13.4833 1040 70.8683 851.946 545.276
1177 0 80.1675 13.9084 1115 70.1668 852.247 545.474
1178 0 83.1864 13.7643 1145 70.3179 852.255 544.288
1179 0 84.2532 13.8749 1169 70.7399 852.541 543.692
1180 0 87.1955 14.3815 1254 70.2265 852.579 540.611
1181 0 91.2231 14.0973 1286 70.3103 852.666 540.901
1182 0 92.3136 13.9741 1290 71.207 852.409 538.017
1183 0 95.4617 14.0685 1343 70.9114 852.127 537.674
1184 0 100.416 15.0375 1510 68.8364 851.482 535.323
1185 0 99.433 14.3815 1430 70.893 851.21 532.118
1186 0 102.332 13.4073 1372 72.5831 851.265 532.929
1187 0 107.611 14.4687 1557 70.8035 851.703 530.622
1188 0 108.49 13.7432 1491 72.0215 851.62 528.964
1189 1 56.2383 11.7713 662 73.3172 851.447 554.239
1190 0 59.4134 11.7818 700 72.9029 851.53 554.089
1191 0 62.3283 12.7871 797 70.8645 851.478 553.808
1192 0 61.3836 12.8536 789 72.2864 851.359 552.986
1193 0 65.292 13.2329 864 72.2407 850.953 552.397
1194 0 66.2168 13.5011 894 72.7584 850.746 550.946
1195 0 70.1607 13.8539 972 71.6193 850.794 551.415
1196 0 71.315 14.0784 1004 71.4671 848.11 549.616
1197 0 73.1502 14.5044 1061 70.5523 848.942 550.084
1198 0 77.1771 14.0456 1084 71.2288 848.774 549.405
1199 0 77.2982 14.3988 1113 71.85 849.141 547.359
1200 0 81.2753 15.5644 1265 69.8213 849.488 545.256
1201 0 80.2939 14.1231 1134 73.8007 849.489 544.649
1202 0 85.3304 13.8052 1178 73.5263 849.57 544.87
1203 0 89.2398 14.6459 1307 71.6549 849.637 543.977
1204 0 91.1062 14.4886 1320 72.6735 849.567 541.473
1205 0 94.2342 14.517 1368 72.5446 849.139 540.482
1206 0 97.2399 14.963 1455 72.0467 849.379 539.484
1207 0 100.269 14.6506 1469 73.3043 849.315 537.58
1208 0 101.152 14.2854 1445 74.5349 848.608 536.504
1209 0 104.257 14.3779 1499 74.5604 848.319 534.836
1210 0 107.338 14.6919 1577 73.1141 848.383 533.263
1211 0 112.376 14.9409 1679 71.8916 847.115 533.591
1212 0 113.198 14.541 1646 73.2017 846.736 530.868
1213 0 117.224 14.5533 1706 72.7644 847.166 528.257
1214 0 120.172 13.9633 1678 73.5352 847.336 527.258
1215 0 127.303 14.8543 1891 71.3184 846.773 526.235
1216 0 127.261 14.6313 1862 72.3722 846.541 523.178
1217 0 131.216 14.3123 1878 73.1842 846.515 521.28
1218 0 136.376 14.6947 2004 72.3488 846.363 518.662
1219 0 140.253 14.1815 1989 72.9457 846.608 518.431
1220 0 146.431 14.4914 2122 72.1258 846.48 514.793
1221 0 149.54 14.3841 2151 72.4863 846.523 512.831
1222 0 156.38 14.5159 2270 71.5044 846.805 509.768
1223 0 164.496 15.2344 2506 69.6341 845.445 505.791
1224 0 168.357 14.9504 2517 70.3568 845.542 502.275
1225 1 97.3465 11.4128 1111 72.2079 844.077 541.424
1226 0 103.261 12.6475 1306 71.1018 844.989 537.904
1227 0 105.488 12.9778 1369 70.9869 846.07 535.531
1228 0 109.377 13.2752 1452 70.0792 846.301 534.394
1229 0 114.164 13.4719 1538 69.6196 845.861 532.478
1230 0 117.266 13.6527 1601 68.7901 846.189 531.688
1231 0 121.258 13.6403 1654 68.8694 846.076 529.476
1232 0 127.255 13.9248 1772 67.9927 845.948 526.07
1233 0 129.274 13.305 1720 69.4453 845.524 523.8
1234 0 135.231 13.599 1839 68.4018 844.878 523.527
1235 0 137.279 13.3451 1832 69.9187 845.204 520.029
1236 0 140.212 13.6721 1917 69.3208 845.997 518.103
1237 0 146.314 13.9836 2046 68.2615 845.58 516.196
1238 0 152.488 13.7912 2103 67.8431 845.989 514.508
1239 0 156.324 13.7407 2148 69.0894 845.644 508.575
1240 0 163.419 13.7744 2251 68.3643 846.274 507.41
1241 1 85.1818 11.7161 998 69.2074 846.379 545.883
1242 0 89.1545 12.0465 1074 67.5168 845.813 543.23
1243 0 89.2704 12.2773 1096 67.9909 846.599 542.502
1244 0 94.3239 13.2204 1247 66.1484 846.455 540.994
1245 0 97.2384 12.8447 1249 66.956 846.974 539.64
1246 0 99.311 12.3048 1222 67.0663 845.756 536.237
1247 0 100.152 12.451 1247 67.3601 846.05 531.435
1248 0 108.126 12.7813 1382 67.7562 845.933 529.9
1249 0 111.363 12.796 1425 67.5691 845.319 530.092
1250 0 115.352 12.7263 1468 67.3965 845.307 526.194
1251 0 120.225 13.0838 1573 66.8907 844.856 523.534
1252 1 68.1489 10.6238 724 68.4696 845.26 548.619
1253 0 72.2518 10.7264 775 68.6697 845.29 547.458
1254 0 74.1357 12.2478 908 66.2522 846.443 547.139
1255 0 79.0914 12.2896 972 67.2397 846.422 548.745
1256 0 80.1213 12.9803 1040 66.6894 846.94 546.26
1257 0 85.2111 13.3903 1141 65.4154 847.053 546.165
1258 0 85.2545 11.9994 1023 68.7752 847.833 545.833
1259 0 87.2165 12.7155 1109 67.3454 847.662 544.753
1260 0 92.233 13.1732 1215 66.5251 848.173 542.768
1261 0 92.124 12.7763 1177 68.2651 847.96 540.191
1262 0 94.1951 12.9518 1220 68.3607 847.6 538.859
1263 0 100.308 14.5153 1456 65.0261 847.707 538.245
1264 0 100.387 13.2687 1332 68.3799 848.042 533.913
1265 0 103.38 12.9522 1339 68.7095 848.43 532.113
1266 0 106.367 13.5099 1437 66.8831 848.026 528.246
1267 0 109.296 12.9648 1417 68.4792 848.171 527.32
1268 0 113.302 13.1419 1489 68.2888 848.003 525.329
1269 0 118.435 13.594 1610 66.8658 848.17 524.915
1270 0 121.616 12.9342 1573 68.2727 848.288 522.142
1271 0 125.432 13.8242 1734 67.0398 848.697 518.922
1272 0 128.35 13.4943 1732 67.4527 848.789 517.069
1273 0 131.449 14.0435 1846 66.9252 849.298 514.146
1274 0 136.537 13.6153 1859 67.1571 849.593 514.277
1275 0 139.387 13.8823 1935 67.493 849.76 510.796
1276 0 144.349 13.8207 1995 67.3078 849.874 510.728
1277 1 83.3668 9.60814 801 67.8539 849.975 542.519
1278 0 87.0861 11.1499 971 65.5077 851.203 541.112
1279 0 91.1352 12.443 1134 63.8827 852.054 539.782
1280 0 92.2368 11.8174 1090 65.2055 852.136 538.138
1281 0 97.0909 12.6891 1232 63.5706 850.899 538.429
1282 0 100.115 12.6255 1264 63.7176 850.598 535.991
1283 0 104.161 12.5287 1305 63.3533 851.073 533.613
1284 0 107.112 12.2862 1316 63.598 851.198 530.67
1285 0 112.243 13.2392 1486 61.3822 850.935 529.229
1286 0 114.212 12.7745 1459 62.9136 849.983 525.922
1287 0 116.155 12.182 1415 63.5088 850.417 525.656
1288 0 120.135 13.1435 1579 62.5332 850.518 524.98
1289 0 125.194 12.6604 1585 62.8984 850.764 523.453
1290 0 126.139 12.4069 1565 63.5636 850.825 520.197
1291 0 131.309 13.1065 1721 62.3603 850.564 517.912
1292 1 72.181 9.97493 720 62.8861 850.775 549.585
1293 0 75.1933 10.0541 756 62.0595 850.869 549.758
1294 0 80.3456 11.4879 923 61.1246 850.826 545.216
1295 0 79.203 11.4895 910 62.6253 850.693 543.752
1296 0 83.368 11.8511 988 61.5951 850.757 542.422
1297 0 87.3192 11.6927 1021 61.5279 850.894 540.812
1298 0 89.3217 12.2815 1097 60.3883 851.446 540.719
1299 0 92.2011 11.9847 1105 61.1394 851.452 537.74
1300 0 93.2785 11.8462 1105 61.4769 851.655 536.4
1301 0 98.3109 12.7453 1253 59.4062 851.161 537.258
1302 0 98.3862 11.9631 1177 61.3152 851.532 533.307
1303 0 103.423 13.469 1393 58.822 851.964 533.739
1304 0 105.368 12.8882 1358 59.4021 851.917 531.877
1305 0 109.444 12.3625 1353 59.9512 851.371 529.294
1306 0 114.528 12.7917 1465 59.4137 851.219 529.185
1307 0 117.541 13.3826 1573 59.0064 851.4 524.928
1308 0 121.567 13.6879 1664 58.8401 850.79 523.05
1309 0 124.481 13.1506 1637 59.7221 850.506 521.967
1310 0 128.5 12.8638 1653 59.8433 850.439 522.377
1311 0 131.456 12.7723 1679 60.4771 850.686 518.181
1312 0 136.391 13.0361 1778 60.2823 849.868 515.262
1313 0 137.393 12.6863 1743 61.864 849.251 514.503
1314 1 82.1251 9.6073 789 59.1774 849.549 548.452
1315 0 82.2563 11.4763 944 57.4227 849.591 544.675
1316 0 87.2581 10.9102 952 58.5704 849.595 544.151
1317 0 88.2008 12.0294 1061 57.6522 849.511 541.754
1318 0 91.0915 11.4391 1042 59.4213 849.995 539.115
1319 0 95.1521 12.2436 1165 58.1957 849.778 535.406
1320 0 97.2568 12.5955 1225 58.8229 849.63 537.072
1321 0 98.1129 12.1798 1195 59.5682 849.751 536.068
1322 0 103.315 12.2344 1264 58.7706 848.571 534.842
1323 0 107.216 12.3117 1320 59.078 848.532 530.24
1324 0 110.275 12.7953 1411 58.5223 848.898 530.532
1325 1 61.2729 10.4124 638 57.6129 848.622 557.049
1326 0 63.2912 10.9336 692 56.8251 848.725 556.53
1327 0 60.1494 9.67591 582 58.0584 847.866 557.595
1328 0 63.1383 10.4057 657 57.7139 847.181 555.553
1329 0 67.1424 11.6022 779 55.5122 847.539 555.067
1330 0 69.1895 11.4179 790 56.4418 847.961 553.396
1331 0 69.1723 12.187 843 55.9478 847.647 552.781
1332 0 72.1745 12.4559 899 53.782 847.485 552.778
1333 0 74.2105 12.5589 932 54.8176 846.971 552.886
1334 0 75.2739 12.2353 921 56.6439 847.295 551.288
1335 0 75.1331 11.9122 895 56.8156 847.225 549.832
1336 0 78.2605 12.2156 956 56.0356 847.186 547.169
1337 0 81.4795 11.4262 931 56.3663 846.946 546.286
1338 0 85.253 12.8089 1092 54.3773 847.106 546.15
1339 0 87.462 12.0167 1051 55.4167 847.642 544.619
1340 0 89.2357 12.6743 1131 54.2732 847.317 541.691
1341 0 92.2603 12.5189 1155 54.3203 847.364 542.368
1342 0 96.3379 12.3212 1187 54.2536 847.897 538.382
1343 0 98.3556 12.1091 1191 54.44 847.591 536.668
1344 1 55.3709 9.51763 527 53.7894 848.173 560.44
1345 0 58.2145 10.1693 592 52.5878 848.351 561.407
1346 0 56.378 9.54272 538 53.7602 848.221 559.476
1347 0 59.2699 10.1569 602 53.4718 848.018 556.865
1348 0 60.0795 10.3197 620 53.5887 846.077 557.618
1349 0 64.1015 11.6222 745 51.3141 845.75 557.985
1350 0 63.2 11.962 756 52.1561 846.253 554.033
1351 0 65.2713 10.9849 717 53.1813 845.768 555.971
1352 0 68.3149 11.8276 808 51.8676 845.92 554.209
1353 0 70.2388 11.105 780 52.8679 845.378 553.259
1354 0 72.3802 11.5225 834 52.7278 845.643 551.745
1355 0 74.1926 11.6858 867 52.5755 845.262 551.221
1356 0 76.2709 12.0885 922 52.8004 845.259 552.203
1357 0 77.3703 11.8909 920 53.3761 845.052 550.873
1358 0 78.1884 11.8048 923 54.7053 845.665 549.464
1359 0 82.228 12.4897 1027 53.9922 845.418 547.364
1360 0 86.3417 12.2884 1061 53.4354 845.747 545.946
1361 0 89.4239 12.301 1100 53.9473 845.765 544.895
1362 1 48.1982 10.1664 490 54.4143 845.716 564.784
1363 0 51.3254 10.1704 522 54.0096 845.803 542.632
1364 0 51.3761 10.1604 522 54.8889 845.966 542.352
1365 0 52.5173 10.7012 562 54.3452 845.957 543.737
1366 0 53.2566 10.8907 580 55.9914 846.391 538.371
1367 0 57.2915 11.5549 662 56.1178 847.462 539.071
1368 0 56.1621 11.1997 629 57.3164 846.711 538.184
1369 0 58.0831 11.9656 695 57.2345 846.909 538.442
1370 0 62.0713 11.4223 709 57.2877 847.093 539.182
1371 0 60.0579 12.0883 726 57.7617 847.189 537.394
1372 0 62.2057 11.6388 724 58.3536 846.448 539.818
1373 0 62.0985 11.9166 740 59.2892 846.707 538.941
1374 0 64.1712 13.1212 842 58.1342 846.663 534.318
1375 0 67.0512 12.1996 818 58.8655 847.002 536.79
1376 0 68.0922 13.0411 888 58.1126 846.993 537.141
1377 0 70.0983 12.4111 870 58.5816 847.018 542.749
1378 0 71.1091 11.63 827 59.7654 846.994 542.84
1379 0 71.1867 11.7297 835 60.4467 846.657 544.178
1380 0 74.0742 12.069 894 59.8378 846.606 542.516
1381 0 76.0691 11.3712 865 60.7075 846.784 541.742
1382 0 78.1277 12.0828 944 57.2818 846.374 540.229
1383 0 82.1141 12.5801 1033 56.6409 846.323 538.938
1384 0 83.1976 12.6326 1051 58.2388 846.026 540.627
1385 0 85.2484 12.4225 1059 59.3088 845.981 540.555
1386 1 44.1956 9.77473 432 59.7523 846.363 556.458
1387 0 47.3566 10.9805 520 58.3096 846.433 560.273
1388 0 48.2003 10.3319 498 59.257 845.912 565.207
1389 0 50.2787 10.7998 543 59.0184 846.276 562.337
1390 0 53.4868 11.199 599 58.5092 847.513 561.369
1391 0 55.4266 11.0416 612 58.9379 847.701 561.206
1392 0 56.0407 12.0984 678 59.3053 848.667 560.229
1393 0 57.0655 12.4068 708 58.8644 848.138 561.242
1394 0 59.1059 12.706 751 58.1518 848.842 558.258
1395 0 61.0727 12.6734 774 57.7506 848.815 559.393
1396 0 64.0746 12.7508 817 58.4627 848.764 557.043
1397 0 64.0285 12.3226 789 58.9658 849.157 556.298
1398 0 66.1133 12.6752 838 59.2399 848.76 555.754
1399 0 69.1548 14.1422 978 55.9622 849.658 554.167
1400 0 70.1626 13.1409 922 57.5163 849.728 554.593
1401 0 71.1347 13.6642 972 57.5093 849.8 551.752
1402 0 76.1294 14.0025 1066 56.2298 849.782 553.133
1403 0 76.2637 13.296 1014 57.8393 849.607 549.713
1404 0 76.1881 13.2698 1011 58.4085 849.803 549.46
1405 0 82.2035 13.4787 1108 57.5415 849.837 549.092
1406 0 85.2464 13.549 1155 57.3775 850.244 547.227
1407 0 86.3134 13.0455 1126 58.4423 850.009 543.459
1408 1 46.1085 10.6705 492 59.7012 851.644 564.766
1409 0 47.0581 11.1139 523 58.8815 852.033 564.964
1410 0 51.0788 10.9047 557 58.0485 852.061 563.309
1411 0 49.0922 11.6312 571 59.3748 852.359 562.8
1412 0 52.0812 12.4229 647 58.6105 852.124 561.196
1413 0 55.0947 12.6872 699 56.5565 851.668 561.116
1414 0 56.1358 12.3094 691 57.5745 850.902 559.376
1415 0 57.1591 12.4915 714 57.7941 850.574 559.357
1416 0 60.2364 12.1521 732 58.6175 850.781 558.593
1417 0 60.1621 12.1339 730 59.237 850.855 555.864
1418 0 63.1465 13.0332 823 58.096 850.627 556.875
1419 0 65.2101 12.8661 839 57.6329 850.499 555.901
1420 0 67.1919 13.0968 880 57.483 850.193 555.134
1421 0 68.2593 12.599 860 58.786 850.677 553.713
1422 0 70.1589 13.4837 946 57.9271 850.569 552.222
1423 0 72.2828 12.8938 932 58.7597 850.783 552.095
1424 0 76.1116 13.4145 1021 58.0167 851.047 550.016
1425 0 77.0989 13.113 1011 58.3966 850.843 548.952
1426 0 79.199 13.5608 1074 58.2188 850.723 546.155
1427 0 82.1367 12.4061 1019 59.4985 850.708 547.781
1428 0 87.1915 13.7972 1203 57.0141 851.045 545.406
1429 1 45.0693 10.6059 478 58.1276 849.795 565.126
1430 0 47.049 10.1809 479 58.81 849.582 564.173
1431 0 50.1457 10.9481 549 57.153 849.39 563.954
1432 0 50.0502 10.8691 544 57.9044 849.274 563.621
1433 0 53.0914 12.0924 642 56.9486 850.008 562.126
1434 0 54.0619 11.4683 620 59.1452 850.121 560.871
1435 0 55.1876 12.8652 710 58.6254 850.631 561.692
1436 0 56.0872 12.3379 692 60.1156 850.142 559.934
1437 0 60.1879 12.3281 742 59.8976 850.182 553.934
1438 0 61.2695 12.4858 765 60.3477 849.912 557.059
1439 0 66.1832 15.2607 1010 55.1574 849.709 553.345
1440 0 64.131 12.6148 809 59.6242 849.083 541.143
1441 0 68.1143 13.4186 914 58.9945 849.256 542.47
1442 0 68.1462 13.2803 905 58.8773 849.221 544.288
1443 0 70.1009 12.6532 887 60.2965 848.842 545.162
1444 0 71.1096 13.6409 970 59.3206 848.653 545.709
1445 0 73.21 13.3179 975 60.1969 848.33 546.821
1446 0 77.1334 12.8479 991 61.0272 848.885 548.713
1447 0 81.0639 14.0383 1138 59.1863 849.098 550.027
1448 0 82.119 13.6509 1121 60.2284 849.748 549.175
1449 0 84.1629 14.1868 1194 59.6943 849.459 546.31
1450 0 86.2415 13.3694 1153 61.2472 849.298 544.72
1451 0 90.2792 14.2004 1282 59.7777 849.038 544.313
1452 0 91.2106 13.7594 1255 60.9944 848.698 543.222
1453 0 95.2455 13.7854 1313 61.0868 848.302 540.94
1454 0 99.3298 14.1951 1410 59.995 848.594 541.867
1455 0 101.278 13.6456 1382 61.233 848.32 538.922
1456 0 103.24 13.1441 1357 62.9396 847.915 536.662
1457 1 55.2012 11.9382 659 63.6889 847.795 560.897
1458 0 57.132 12.1298 693 62.7489 847.974 560.791
1459 0 60.1641 12.0504 725 63.9614 847.876 557.23
1460 0 61.3166 12.411 761 63.615 848.088 554.925
1461 0 63.4242 12.9288 820 62.9585 847.857 554.027
1462 0 66.08 13.4685 890 61.7933 847.171 556.365
1463 0 67.2656 13.6622 919 62.0468 847.579 555.2
1464 0 69.2451 13.5172 936 62.265 846.79 552.829
1465 0 72.1493 13.5275 976 61.5297 846.919 551.958
1466 0 75.1802 13.6605 1027 61.2726 846.69 550.674
1467 0 76.2571 14.1102 1076 60.381 846.425 552.617
1468 0 78.2741 14.1298 1106 60.2315 846.496 549.603
1469 0 81.3548 13.1769 1072 61.5 846.427 546.866
1470 0 83.2719 13.9423 1161 61.0973 846.788 544.463
1471 0 87.3058 13.6761 1194 60.2864 846.667 544.996
1472 0 90.1864 13.5719 1224 60.2655 846.598 544.029
1473 0 94.3443 15.0195 1417 57.4411 847.113 538.863
1474 0 98.2887 14.5286 1428 58.5077 847.034 539.426
1475 0 99.3187 13.1295 1304 61.0314 846.756 538.735
1476 0 102.434 13.7357 1407 59.9524 846.711 536.498
1477 0 106.27 13.5692 1442 60.3599 846.962 535.328
1478 1 52.1545 11.2934 589 61.7674 847.649 561.319
1479 0 54.2065 11.4193 619 62.3732 846.774 560.389
1480 0 56.2152 11.6872 657 61.4581 846.616 560.682
1481 0 57.1564 11.8272 676 61.8905 846.683 559.973
1482 0 59.1229 12.4655 737 61.3569 847.201 558.696
1483 0 63.1251 15.4297 974 56.2166 845.842 557.178
1484 0 66.1756 14.8846 985 56.9848 845.679 556.636
1485 0 63.1473 12.7796 807 61.6815 845.375 557.748
1486 0 66.3116 14.1453 938 59.6013 846.408 555.143
1487 0 68.3849 13.307 910 60.9154 846.288 553.663
1488 0 71.221 13.746 979 60.4362 845.978 553.277
1489 0 74.2285 13.6336 1012 60.0188 846.317 553.071
1490 0 77.1167 13.3953 1033 60.5382 846.35 552.815
1491 0 77.1751 13.5925 1049 61.2355 846.329 551.378
1492 0 79.1919 13.0695 1035 61.9159 846.169 548.041
1493 0 83.2377 13.4554 1120 61.2554 845.441 549.05
1494 0 85.1535 13.3054 1133 61.5799 845.483 547.12
1495 0 89.2332 13.1005 1169 62.0094 845.629 544.802
1496 1 46.108 10.3453 477 63.8889 845.65 567.006
1497 0 47.1778 11.8488 559 62.4615 846.208 565.408
1498 0 50.1408 12.2455 614 61.3339 846.912 564.793
1499 0 51.0481 11.3031 577 62.7886 846.922 566.52
1500 0 51.0229 11.9554 610 65.0754 847.12 561.752
1501 0 53.0579 11.5723 614 65.2085 846.484 559.191
1502 0 56.1282 13.2197 742 62.5741 847.302 562.217
1503 0 58.1361 13.176 766 63.0522 848.009 559.591
1504 0 59.2327 13.4892 799 62.6095 847.872 558.588
1505 0 62.2061 13.1981 821 61.8526 847.893 558.549
1506 0 64.079 13.2493 849 62.4028 847.889 556.09
1507 0 65.1617 13.3667 871 62.1596 847.865 555.947
1508 0 68.2039 13.0344 889 61.9831 847.933 554.321
1509 0 71.1096 13.9644 993 60.0342 848.019 554.393
1510 0 72.1057 12.9532 934 61.6178 847.772 553.347
1511 0 74.0937 13.051 967 61.6846 847.793 554.028
1512 0 76.1358 13.3971 1020 61.8206 848.63 549.736
1513 1 40.1096 10.945 439 62.9841 849.121 569.909
1514 0 43.0631 11.2858 486 62.4239 849.23 567.578
1515 0 44.0753 11.9795 528 61.4148 849.125 567.354
1516 0 44.0521 12.2128 538 60.7361 849.539 566.719
1517 0 46.1527 11.9603 552 61.7228 850.417 566.411
1518 0 47.0814 13.2537 624 61.1282 850.663 563.354
1519 0 49.0717 12.6346 620 61.4339 849.724 564.934
1520 0 51.1424 13.4526 688 60.311 849.875 563.703
1521 0 51.124 13.0858 669 61.8042 850.166 562.392
1522 0 52.2018 13.5819 709 61.4542 850.078 561.89
1523 0 55.1197 13.6068 750 60.708 850.321 561.224
1524 0 53.1918 12.9907 691 63.1679 850.682 559.499
1525 0 58.0568 14.1069 819 60.4664 850.924 559.309
1526 0 60.2087 13.7189 826 60.8208 851.343 559.556
1527 0 60.0695 14.1336 849 60.9717 850.824 557.994
1528 0 62.177 14.1531 880 60.5705 851.365 556.749
1529 0 62.1833 13.6693 850 61.7824 851.406 556.741
1530 0 64.1399 14.0318 900 62.3111 852.074 554.681
1531 0 67.1045 14.2912 959 61.5391 852.015 555.161
1532 0 70.0771 14.6838 1029 62.241 851.999 552.991
1533 0 71.1002 15.1476 1077 62.883 852.452 550.663
1534 1 39.0469 12.1392 474 65.8586 852.127 569.2
1535 0 38.0307 12.4899 475 65.6421 851.632 568.025
1536 0 38.0827 10.7923 411 69.0852 851.912 568.168
1537 0 41.0536 11.8138 485 67.4557 852.097 566.637
1538 0 42.054 12.3413 519 68.4335 851.649 567.062
1539 0 46.0349 12.9684 597 66.9246 851.829 565.975
1540 0 47.0235 13.9505 656 66.2744 851.381 564.198
1541 0 48.0936 13.7648 662 66.8535 851.166 563.48
1542 0 49.079 13.1217 644 68.8571 850.762 561.887
1543 0 51.0467 13.5758 693 68.2684 851.007 561.247
1544 0 51.0613 14.4336 737 68.0801 851.194 560.799
1545 0 55.1056 13.9732 770 67.8377 851.074 560.649
1546 0 56.1144 14.6665 823 67.3888 851.192 559.135
1547 0 57.1426 14.0526 803 68.5791 850.853 558.624
1548 0 59.0788 14.2521 842 68.3527 851.081 558.418
1549 0 60.2811 14.2001 856 68.5047 850.796 557.27
1550 0 63.1829 14.0544 888 68.3198 850.863 556.642
1551 0 66.0949 14.5397 961 67.5588 850.594 554.314
1552 0 66.0859 14.4206 953 68.5278 850.14 553.905
1553 0 69.0824 14.6057 1009 68.1318 849.708 552.305
1554 0 71.0772 14.7586 1049 67.8465 849.627 552.65
1555 0 73.035 14.9654 1093 67.7347 849.958 551.842
1556 0 75.1633 14.4352 1085 69.3438 849.805 549.057
1557 0 79.2993 14.2876 1133 68.9497 849.402 549.124
1558 0 81.2011 14.2732 1159 68.8965 849.615 548.399
1559 0 84.0829 13.903 1169 70.0932 849.701 545.292
1560 1 43.0183 11.0418 475 72.1621 850.322 567.118
1561 0 44.1322 12.236 540 72.1537 849.874 566.185
1562 0 45.0287 12.3921 558 71.5932 849.717 565.708
1563 0 48.0221 12.4734 599 71.6912 849.352 562.947
1564 0 50.0617 13.8229 692 70.5636 848.984 561.906
1565 0 52.0481 14.2753 743 69.362 848.7 560.65
1566 0 53.1181 13.4982 717 70.8703 848.474 560.929
1567 0 57.1247 14.6171 835 68.0371 848.129 560.794
1568 0 58.0783 13.8778 806 69.598 848.2 559.849
1569 0 60.0915 14.195 853 69.2614 848.278 557.564
1570 0 64.0743 13.9994 897 69.0011 848.618 557.042
1571 0 63.1667 14.0897 890 68.8697 848.052 554.731
1572 0 67.0598 14.3007 959 67.9656 848.184 555.164
1573 0 69.2092 13.6976 948 68.5169 847.996 553.765
1574 0 70.1194 13.9619 979 69.0072 848.002 553.412
1575 0 75.1759 13.648 1026 68.0965 848.24 552.068
1576 0 78.033 13.7634 1074 67.9972 848.496 551.588
1577 0 77.0979 12.8927 994 70.492 848.656 548.566
1578 0 82.2389 13.8256 1137 68.7098 848.988 548.533
1579 0 86.2441 13.8792 1197 68.411 848.964 546.927
1580 1 42.0737 11.7651 495 69.9515 848.394 569.244
1581 0 44.136 11.9404 527 70.7249 848.104 567.67
1582 0 44.0448 12.0559 531 71.823 847.748 567.1
1583 0 47.0511 13.4747 634 69.0899 847.91 566.276
1584 0 47.2336 12.851 607 69.8913 847.679 565.661
1585 0 49.1313 13.4538 661 69.0242 847.136 565.722
1586 0 51.1951 13.1263 672 69.7173 847.83 563.03
1587 0 54.1175 14.45 782 67.3043 847.701 562.971
1588 0 54.2053 13.3197 722 69.8657 847.867 562.14
1589 0 55.0563 13.6951 754 69.1061 848.097 561.777
1590 0 59.1286 13.2931 786 68.9555 848.155 560.363
1591 0 62.1037 13.8317 859 67.4854 847.444 558.939
1592 0 61.0799 12.983 793 70.174 846.883 556.792
1593 0 65.1724 14.3159 933 67.4094 846.796 556.702
1594 0 69.1079 13.7611 951 66.7928 846.068 556.648
1595 0 69.1943 13.8451 958 67.6785 846.86 554.813
1596 0 72.0788 13.7627 992 67.6643 845.977 553.377
1597 0 74.3089 13.565 1008 67.9474 846.265 552.722
1598 1 40.0753 11.2538 451 69.8559 846.92 567.953
1599 0 43.0654 11.5174 496 68.0565 847.601 569.103
1600 0 43.0654 11.4477 493 172.13 847.586 569.17
1601 0 42.0287 11.6111 488 69.4467 846.846 567.969
1602 0 47.0598 12.4097 584 66.649 847.517 567
1603 0 49.048 12.8242 629 65.9173 848.024 565.021
1604 0 48.0789 12.9995 625 66.6176 848.501 563.87
1605 0 49.2208 12.8807 634 66.4732 847.8 562.697
1606 0 50.1162 12.5907 631 68.3312 847.77 562.956
1607 0 53.1101 12.6341 671 67.392 847.255 561.545
1608 0 55.0123 12.7608 702 67.0755 847.788 559.853
1609 0 57.0929 13.0489 745 66.8926 848.021 559.668
1610 0 59.1599 13.2522 784 66.4069 848.778 559.513
1611 0 59.145 13.4246 794 67.0378 849.214 559.062
1612 0 62.2113 13.6149 847 66.9929 849.476 556.876
1613 0 63.1139 13.5152 853 67.0973 850.199 555.45
1614 0 67.2619 13.1575 885 66.8757 850.554 554.769
1615 0 67.1935 13.0816 879 68.1468 850.121 553.629
1616 0 71.1673 13.9671 994 66.2254 850.188 553.702
1617 0 71.2027 13.9742 995 67.8322 850.361 550.565
1618 0 76.3495 14.3943 1099 66.1601 850.853 549.065
1619 0 77.3396 14.2618 1103 67.1822 850.719 548.406
1620 0 79.516 13.5444 1077 68.4364 851.053 547.81
1621 0 84.3649 14.6032 1232 66.5933 851.265 545.615
1622 0 85.4248 14.106 1205 67.5685 851.525 543.793
1623 0 89.6518 14.4782 1298 67.0092 851.707 541.644
1624 1 45.185 12.1501 549 69.9982 851.778 562.151
1625 0 50.1302 12.4675 625 69.1232 851.669 561.416
1626 0 50.3206 12.639 636 69.7186 852.036 561.156
1627 0 52.1889 12.5889 657 69.8143 851.781 560.155
1628 0 52.3131 13.6868 716 69.1662 852.342 558.517
1629 0 53.2274 13.6584 727 69.3343 852.508 557.356
1630 0 56.1735 13.9212 782 69.1957 852.682 557.219
1631 0 60.2131 14.6978 885 67.1548 852.296 556.008
1632 0 59.3027 14.3838 853 68.5229 852.648 555.17
1633 0 60.2955 13.5831 819 69.591 852.153 554.171
1634 0 64.374 13.8565 892 68.6087 852.175 551.781
1635 0 66.3024 13.9211 923 68.2156 852.218 551.855
1636 0 70.3783 14.2373 1002 66.9541 852.048 551.377
1637 0 71.419 13.6938 978 68.8579 851.92 549.078
1638 0 74.513 13.9841 1042 67.5902 851.701 548.602
1639 0 76.4752 14.1353 1081 67.2229 852.243 547.382
1640 0 78.3645 13.8838 1088 67.9118 851.857 544.885
1641 0 82.4856 13.7236 1132 67.1334 852.243 542.902
1642 1 42.3238 11.9554 506 67.5178 851.996 563.504
1643 0 43.3402 12.3211 534 68.3989 852.154 561.391
1644 0 45.2241 12.3385 558 67.7025 851.733 562.034
1645 0 45.0967 13.1717 594 67.4007 851.818 561.279
1646 0 47.1523 14.0396 662 66.5121 852.236 560.847
1647 0 49.3018 13.752 678 67.1327 852.139 560.631
1648 0 49.1555 14.1185 694 67.1023 851.941 559.925
1649 0 53.3197 14.7038 784 65.6594 851.204 559.105
1650 0 53.1168 13.7433 730 67.0096 850.853 558.168
1651 0 55.2393 14.7721 816 65.1066 850.533 557.512
1652 0 55.199 14.5836 805 66.3553 850.561 556.877
1653 0 57.1027 14.4652 826 65.5642 850.619 557.352
1654 0 59.1236 14.2244 841 64.9417 850.747 555.51
1655 0 61.3938 15.1644 931 63.7916 850.548 554.085
1656 0 63.399 15.3788 975 63.1856 850.504 553.37
1657 0 65.3817 15.5701 1018 62.4499 850.571 550.472
1658 0 67.1568 14.4736 972 64.0072 850.391 551.519
1659 0 68.1863 13.9471 951 65.1672 850.61 550.26
1660 0 71.4326 14.5592 1040 64.0933 850.147 550.705
1661 0 73.2862 14.8595 1089 63.3673 850.23 548.343
1662 0 79.3067 14.5637 1155 63.0043 850.301 547.44
1663 1 41.2268 12.2493 505 64.3861 849.525 565.487
1664 0 41.292 11.4066 471 65.8408 849.607 565.669
1665 0 41.1022 11.9215 490 65.402 849.159 566.149
1666 0 46.0798 12.9775 598 63.587 849.488 564.365
1667 0 48.1583 13.2064 636 62.239 849.679 563.149
1668 0 48.1224 13.2994 640 62.85 849.556 562.045
1669 0 50.0504 14.6053 731 61.2777 849.309 559.086
1670 0 52.0952 13.5329 705 62.8213 849.095 558.379
1671 0 56.0996 14.2604 800 60.7013 849.591 557.476
1672 0 58.0812 15.5816 905 59.5713 849.239 557.144
1673 0 59.107 14.9559 884 60.6776 849.11 555.843
1674 0 62.2139 14.3859 895 61.1475 849.047 554.467
1675 0 63.2264 14.5193 918 61.1373 849.185 553.212
1676 0 66.2068 14.9532 990 60.6384 848.916 551.84
1677 0 69.2202 15.0245 1040 60.6952 848.98 551.78
1678 0 71.0986 14.8667 1057 60.824 848.492 549.958
1679 0 74.2901 15.776 1172 59.5563 848.452 548.916
1680 0 74.1687 13.9277 1033 62.8848 848.505 547.909
1681 0 80.1655 14.258 1143 61.7568 848.448 547.009
1682 0 82.3699 14.8112 1220 61.5869 849.365 545.282
1683 0 83.3189 14.1985 1183 62.6855 849.273 545.27
1684 1 44.0375 11.6946 515 63.934 849.27 563.94
1685 0 46.0606 12.9612 597 62.3735 848.414 563.633
1686 0 48.2217 13.0024 627 62.571 848.774 561.182
1687 0 48.0591 14.1909 682 62.1906 848.966 562.172
1688 0 51.0444 15.4767 790 60.0228 848.541 561.43
1689 0 52.1558 14.8018 772 61.421 848.192 560.889
1690 0 54.0927 14.7524 798 61.3484 848.03 559.261
1691 0 54.1563 14.3474 777 61.7838 847.579 559.614
1692 0 57.108 13.8334 790 62.1747 847.113 557.867
1693 0 59.1827 15.2916 905 60.4276 846.968 557.359
1694 0 62.0847 15.801 981 59.7013 847.004 555.409
1695 0 64.2161 14.5602 935 60.908 847.045 554.94
1696 0 65.4759 15.0437 985 59.8569 848.164 554.813
1697 0 68.426 15.2281 1042 59.7083 847.65 553.185
1698 0 72.3206 14.7952 1070 59.172 847.861 552.861
1699 0 74.255 14.8812 1105 59.1158 847.834 549.373
1700 0 76.2602 15.1324 1154 58.6967 847.588 549.114
1701 1 36.2262 13.4157 486 61.9321 847.228 566.819
1702 0 39.2264 13.9447 547 60.7898 847.494 566.399
1703 0 41.261 13.4994 557 61.4111 847.18 566.045
1704 0 41.1604 14.6743 604 60.2003 846.467 565.768
1705 0 45.194 13.4531 608 60.7796 846.719 565.554
1706 0 44.3163 14.2385 631 61.0887 847.062 565.216
1707 0 49.4533 14.0335 694 60.0389 847.957 565.186
1708 0 50.2789 13.7831 693 60.5671 848.071 564.167
1709 0 49.1933 13.884 683 61.246 848.401 562.531
1710 0 52.1679 14.875 776 59.4897 848.244 561.956
1711 0 54.5335 14.7799 806 58.7878 848.431 560.056
1712 0 55.2103 14.9972 828 59.0785 848.579 559.649
1713 0 58.3156 15.4161 899 58.0334 848.275 558.685
1714 0 59.3104 14.7698 876 58.7842 847.63 558.352
1715 0 60.1639 15.0422 905 58.6409 847.657 556.43
1716 0 63.2529 15.1139 956 58.4623 847.684 556.9
1717 0 64.3695 14.6343 942 59.8928 848.076 555.417
1718 0 67.632 15.2147 1029 58.0845 848.035 555.992
1719 0 69.3873 14.4983 1006 59.2763 847.903 555.24
1720 0 73.0989 14.7882 1081 58.4755 848.204 553.516
1721 0 75.4533 14.9099 1125 58.6444 848.528 552.837
1722 0 76.5129 15.1478 1159 58.6635 848.538 549.735
1723 1 35.2509 12.6805 447 63.5391 849.633 569.034
1724 0 39.2619 14.2886 561 60.5829 849.93 567.467
1725 0 40.4031 14.6028 590 60.3475 849.793 567.846
1726 0 41.4707 14.1787 588 60.7976 849.752 566.956
1727 0 44.576 14.4921 646 59.8437 849.429 564.975
1728 0 46.6897 13.7718 643 60.0311 849.658 564.942
1729 0 47.5766 14.608 695 59.0978 849.862 563.508
1730 0 49.6338 15.1711 753 57.5485 849.886 563.266
1731 0 50.5751 14.691 743 58.4334 849.856 562.35
1732 0 54.6498 15.1693 829 56.5585 850.917 562.165
1733 0 56.7038 16.0659 911 55.5214 850.764 559.438
1734 0 54.6595 14.819 810 58.9383 850.902 560.31
1735 0 58.7277 15.0696 885 58.4644 851.36 558.715
1736 0 60.3526 15.0615 909 58.4587 851.102 558.568
1737 0 61.5965 15.3255 944 57.8729 852.079 556.788
1738 0 62.5097 15.3736 961 57.9802 852.109 555.087
1739 0 66.6537 15.303 1020 57.849 852.368 555.296
1740 0 70.5297 16.1918 1142 56.514 852.18 552.715
1741 0 70.8839 14.8835 1055 58.6171 852.525 552.921
1742 0 73.365 15.9477 1170 56.4607 852.997 550.519
1743 0 77.5715 15.9079 1234 56.3079 852.876 548.796
1744 0 79.7029 15.3194 1221 57.5799 853.564 547.918
1745 1 39.4795 12.1075 478 60.7155 854.109 566.464
1746 0 39.7362 13.0612 519 59.7881 853.786 565.1
1747 0 38.3911 12.8676 494 60.7186 853.733 564.107
1748 0 41.473 11.9596 496 62.3871 853.748 562.881
1749 0 43.4817 14.0059 609 59.8949 854.19 562.343
1750 0 47.5388 14.1779 674 58.7626 854.435 558.441
1751 0 49.5759 14.7047 729 58.2167 854.968 558.181
1752 0 50.6643 13.5599 687 60.0888 855.507 558.348
1753 0 50.3667 14.1562 713 60.0645 855.128 557.829
1754 0 52.2153 13.9614 729 60.1385 854.905 557.68
1755 0 54.3614 14.2932 777 59.9665 855.075 556.218
1756 0 57.2265 14.2242 814 59.6585 855.208 556.8
1757 0 58.3894 14.5403 849 59.927 854.804 556.737
1758 0 60.4539 14.755 892 59.9215 854.411 554.452
1759 0 63.415 14.1922 900 60.6856 854.427 552.992
1760 0 64.3545 13.7209 883 61.906 854.545 551.766
1761 0 65.2795 14.5528 950 61.42 854.451 551.24
1762 0 68.3232 14.812 1012 61.1334 854.373 551.493
1763 0 68.414 14.8508 1016 62.4616 854.144 550.241
1764 0 71.4144 14.5209 1037 62.6095 853.997 548.69
1765 0 74.4108 15.3472 1142 61.965 854.032 546.866
1766 0 79.4586 15.2029 1208 61.7235 853.807 546.311
1767 0 78.2181 14.14 1106 64.642 853.848 543.844
1768 0 79.3677 14.5777 1157 64.7882 853.59 544.842
1769 0 82.4779 14.8161 1222 64.5311 853.379 543.155
1770 0 83.4004 14.9879 1250 65.3432 853.43 541.253
1771 0 86.5834 15.2916 1324 64.889 853.114 540.251
1772 0 89.4755 15.4232 1380 65.7594 852.995 539.488
1773 0 91.5284 15.0117 1374 66.9898 852.645 538.808
1774 0 92.5087 15.2742 1413 67.3772 852.272 536.054
1775 0 95.4136 15.6267 1491 66.6613 852.052 536.114
1776 0 99.5087 16.29 1621 64.4238 851.421 533.941
1777 0 100.335 15.8967 1595 65.0433 851.256 532.453
1778 1 51.2718 11.0782 568 65.4137 850.908 560.764
1779 0 53.1617 12.1328 645 64.8155 851.135 558.14
1780 0 54.2712 12.069 655 66.3588 851.379 554.679
1781 0 58.1752 12.1014 704 64.7188 851.256 555.658
1782 0 60.1899 12.2113 735 63.9156 851.464 554.799
1783 0 61.1141 11.9449 730 64.9589 851.512 552.214
1784 0 64.1202 12.4922 801 63.5518 850.617 550.743
1785 0 67.3046 12.2577 825 63.1709 850.629 550.625
1786 0 69.2819 12.4852 865 62.9318 850.654 549.725
1787 1 40.1258 11.2646 452 61.1438 849.48 564.836
1788 0 40.0617 10.7834 432 62.4421 849.037 564.118
1789 0 43.0495 11.2197 483 61.0621 848.896 563.451
1790 0 43.1148 10.9939 474 61.443 848.458 563.049
1791 0 45.0772 12.29 554 60.37 848.839 561.904
1792 0 46.0803 12.6735 584 58.7774 848.738 561.947
1793 0 48.0635 12.6916 610 58.5934 848.851 562.356
1794 0 49.133 12.4764 613 58.8842 849.245 561.168
1795 0 50.057 12.5657 629 58.9364 849.223 559.995
1796 0 51.148 12.8842 659 58.7572 848.486 559.697
1797 0 53.2178 11.9133 634 59.7397 848.601 559.308
1798 0 55.2324 11.859 655 59.5679 848.554 560.847
1799 0 55.2398 12.8531 710 58.8887 848.835 556.459
1800 0 58.0978 12.3757 719 58.9764 848.818 558.022
1801 0 60.218 12.3551 744 58.5793 848.712 556.103
1802 0 61.2556 12.5213 767 58.2516 848.801 555.679
1803 0 63.1656 13.0767 826 57.8668 848.314 553.585
1804 0 65.1868 12.1957 795 59.1208 847.805 553.075
1805 0 66.2227 12.0049 795 59.5396 848.108 553.604
1806 0 69.2914 12.3248 854 59.1745 847.992 552.014
1807 0 72.1987 12.1055 874 59.0755 848.04 549.787
1808 1 38.2697 10.034 384 60.6328 847.846 566.542
1809 0 40.1584 11.9527 480 58.2729 848.352 566.492
1810 0 39.2319 11.1899 439 59.6993 847.991 564.863
1811 0 41.262 10.9786 453 59.6909 847.943 565.512
1812 0 44.166 12.1134 535 57.3121 848.14 567.398
1813 0 45.1374 13.049 589 55.9406 847.981 565.577
1814 0 45.2226 11.5429 522 58.9406 848.123 564.218
1815 0 45.2044 11.7466 531 58.9454 848.196 561.746
1816 0 48.3053 12.2968 594 57.9646 848.091 562.85
1817 0 49.1732 12.1611 598 58.286 848.244 561.129
1818 0 53.2226 11.3861 606 58.9653 847.696 560.256
1819 0 52.1779 13.6839 714 57.1289 847.828 558.046
1820 0 54.1726 12.3494 669 58.6712 848.036 557.897
1821 0 56.2192 11.9532 672 58.8601 847.879 558.186
1822 0 58.0977 12.9437 752 58.008 848.106 557.319
1823 0 61.1668 12.8828 788 57.8287 848.698 555.665
1824 0 61.2404 13.1939 808 58.323 849.351 554.041
1825 0 65.2535 13.0261 850 57.7988 849.126 554.014
1826 0 65.1213 13.375 871 58.4455 849.41 551.738
1827 0 69.1308 13.2213 914 58.2746 848.942 550.684
1828 0 73.2222 14.2033 1040 56.9635 848.975 550.366
1829 0 74.1152 14.0727 1043 57.4487 849.118 548.956
1830 0 77.2585 13.5648 1048 58.1145 849.09 548.381
1831 1 41.1997 11.2379 463 58.4147 848.605 565.683
1832 0 41.0284 11.1143 456 58.3158 848.923 565.908
1833 0 40.0141 11.446 458 59.7511 849.207 564.258
1834 0 46.1187 11.6872 539 57.9666 849.686 563.514
1835 0 46.1935 12.0363 556 59.027 849.759 563.865
1836 0 47.0962 12.2515 577 58.8614 849.619 563.688
1837 0 49.1113 12.7262 625 58.2208 850.25 561.259
1838 0 51.1816 12.9148 661 57.8669 850.651 561.262
1839 0 53.0781 12.5475 666 58.3213 850.64 560.45
1840 0 54.1412 13.945 755 57.2119 850.936 559.95
1841 0 56.2857 13.7868 776 57.4871 850.948 557.496
1842 0 56.1586 13.3194 748 58.4345 851.194 555.838
1843 0 60.2334 12.5844 758 58.2322 851.511 556.835
1844 0 61.2846 13.0538 800 58.1475 852.145 557.003
1845 0 62.2923 13.4688 839 58.0095 852.153 554.265
1846 0 65.4853 12.7051 832 58.4171 852.484 554.474
1847 0 66.3571 12.915 857 58.014 852.526 552.977
1848 0 69.5507 13.084 910 58.2231 852.34 550.868
1849 0 69.5034 12.7188 884 59.3925 852.781 550.646
1850 0 73.6106 12.9873 956 58.9331 851.882 548.026
1851 0 75.3794 13.107 988 58.3401 851.939 547.197
1852 0 77.4848 12.7896 991 58.9031 851.75 545.075
1853 0 79.4977 12.5412 997 57.9188 852.493 542.728
1854 1 46.3784 12.0315 558 56.4283 853.254 559.842
1855 0 48.1693 12.207 588 56.2704 852.991 559.299
1856 0 47.3653 10.5351 499 58.4589 852.954 559.852
1857 0 50.7125 10.6286 539 58.2746 852.737 557.59
1858 0 52.4239 12.6469 663 56.0392 853.202 556.658
1859 0 53.636 12.3797 664 57.622 852.932 556.578
1860 0 56.2978 12.7891 720 56.3458 852.521 556.394
1861 0 56.131 13.1834 740 56.4392 852.122 554.87
1862 0 59.141 13.1043 775 56.1303 851.854 556.742
1863 0 61.5038 13.9178 856 55.3037 852.215 553.342
1864 0 64.2286 13.125 843 56.2574 851.976 553.063
1865 0 66.3759 13.062 867 56.2987 851.788 552.49
1866 0 67.4279 13.0065 877 56.553 851.747 550.07
1867 0 69.1328 12.8882 891 56.9125 851.536 548.875
1868 0 70.3814 13.4268 945 56.3069 851.416 548.692
1869 0 72.2798 12.9497 936 57.0524 851.129 547.489
1870 0 74.5333 13.3766 997 56.6239 850.532 544.806
1871 0 78.6592 13.2089 1039 55.2945 851.341 544.627
1872 0 82.45 14.0449 1158 54.0812 850.997 543.396
1873 0 83.4219 13.7614 1148 55.0497 850.789 540.221
1874 0 89.626 13.1658 1180 54.3924 850.95 541.177
1875 0 90.4749 13.3407 1207 54.6843 850.289 540.331
1876 1 47.4954 11.8959 565 54.4035 850.242 562.069
1877 0 49.2803 12.0129 592 54.6216 850.698 560.01
1878 0 50.2257 12.4438 625 54.216 850.422 561.046
1879 0 52.0915 13.2459 690 53.0507 850.11 559.483
1880 0 53.1784 11.9974 638 54.6082 851.307 558.48
1881 0 57.1926 12.4142 710 53.7324 850.47 557.751
1882 0 58.0605 13.8821 806 52.2878 850.19 557.287
1883 0 60.0552 13.4376 807 52.829 850.099 556.511
1884 0 59.1031 12.6728 749 54.4846 850.15 555.577
1885 0 61.1637 12.6709 775 54.6387 850.555 554.028
1886 0 67.1892 13.9903 940 52.0085 850.098 554.009
1887 0 69.4045 13.4573 934 52.8458 850.157 552.801
1888 0 68.2732 13.5632 926 53.243 850.148 552.393
1889 0 71.3709 12.8904 920 53.8391 849.841 549.725
1890 0 76.4308 13.6725 1045 52.2048 849.826 549.677
1891 0 77.1668 13.6846 1056 53.1771 849.936 546.689
1892 0 78.1822 12.9697 1014 54.2406 849.758 546.619
1893 0 83.2071 14.3858 1197 52.4795 850.02 546.33
1894 0 86.5384 14.7218 1274 52.3964 849.859 543.509
1895 0 88.2472 14.2781 1260 53.4048 849.945 541.274
1896 0 91.4571 13.8207 1264 53.6646 850.372 542.303
1897 0 94.5505 13.9925 1323 53.7627 850.202 541.308
1898 0 96.3369 13.7953 1329 54.4891 850.282 538.833
1899 0 98.4531 13.6207 1341 54.7673 849.666 539.234
1900 0 102.761 13.7991 1418 54.8322 849.537 536.515
1901 0 106.489 15.3819 1638 52.6276 849.081 536.283
1902 0 109.694 14.5678 1598 54.1865 849.045 531.807
1903 0 113.628 14.7674 1678 53.73 848.368 533.418
1904 1 60.3469 11.6162 701 55.5464 848.372 558.395
1905 0 61.4814 11.9548 735 55.717 848.09 557.22
1906 0 63.2742 11.79 746 56.252 847.385 557.845
1907 0 66.1949 14.1854 939 53.394 847.256 555.627
1908 0 69.5152 12.8029 890 55.4494 847.242 555.196
1909 0 70.371 13.0594 919 56.0392 846.896 554.387
1910 0 72.3008 12.9874 939 56.5218 846.627 552.36
1911 0 76.4007 13.4423 1027 55.9124 846.445 552.999
1912 0 77.4104 14.1195 1093 55.3577 846.466 552.03
1913 0 80.3093 14.4193 1158 55.848 846.871 547.919
1914 0 81.2942 12.9899 1056 57.8428 846.385 548.419
1915 0 86.3697 14.739 1273 55.5295 846.046 547.822
1916 0 88.2489 13.7905 1217 57.6319 846.03 544.795
1917 0 88.33 14.0836 1244 57.7733 845.319 545.577
1918 0 94.4855 14.9123 1409 57.3442 845.367 544.932
1919 0 96.3174 13.2998 1281 60.4817 845.867 540.776
1920 0 99.2823 14.0408 1394 59.8242 846.961 537.821
1921 0 102.194 13.7582 1406 60.5768 846.447 538.701
1922 1 55.1594 10.4787 578 63.9204 845.81 559.903
1923 0 56.1855 10.2162 574 64.0819 846 561.021
1924 0 58.1375 12.5564 730 61.1315 846.033 560.021
1925 0 59.2756 13.6312 808 61.2797 846.564 560.093
1926 0 62.1102 13.7658 855 60.7251 846.613 560.119
1927 0 65.0635 12.7107 827 61.0653 845.701 559.421
1928 0 66.0829 12.2876 812 62.2808 845.687 558.94
1929 0 69.0441 13.3827 924 60.7392 845.397 557.461
1930 0 71.1453 13.0578 929 60.7191 845.628 557.326
1931 0 74.0739 13.176 976 61.002 845.571 554.868
1932 0 77.0999 13.1777 1016 61.2451 845.066 554.283
1933 0 80.1302 14.0272 1124 59.9822 845.53 552.827
1934 0 82.0795 12.963 1064 61.8111 845.82 552.052
1935 0 85.1215 13.3339 1135 61.637 845.597 548.473
1936 0 86.181 13.1932 1137 61.956 845.38 548.321
1937 0 91.1498 13.4614 1227 61.3015 845.509 545.273
1938 0 93.2527 13.5546 1264 61.1875 845.29 544.123
1939 0 97.3252 14.3334 1395 60.2638 845.691 543.939
1940 0 99.386 13.9456 1386 61.425 845.279 540.962
1941 0 102.224 14.0378 1435 61.6829 846.245 540.199
1942 0 106.254 13.7218 1458 61.786 845.967 536.995
1943 1 60.0946 11.8979 715 62.607 846.538 561.243
1944 0 59.1316 10.9417 647 61.6971 846.485 561.315
1945 0 62.1345 12.9397 804 59.8532 847.111 558.673
1946 0 64.2098 13.2846 853 59.4349 846.489 558.02
1947 0 66.1823 12.9642 858 59.7308 846.878 557.346
1948 0 68.0745 13.353 909 59.8724 847.047 555.303
1949 0 70.3282 13.6929 963 58.7425 847.131 554.537
1950 0 73.1344 13.9196 1018 58.7505 847.558 552.218
1951 0 76.155 13.4857 1027 58.9065 847.707 552.655
1952 0 77.1239 14.5351 1121 58.4211 847.847 550.267
1953 0 79.1209 13.5489 1072 59.2369 848.255 546.175
1954 0 83.1878 13.4755 1121 58.9857 848.741 545.299
1955 0 85.1753 12.8441 1094 59.4406 848.967 546.59
1956 0 88.1685 14.1887 1251 58.3541 848.82 544.786
1957 0 90.1026 14.1616 1276 58.4875 849.115 541.839
1958 0 94.2066 14.2028 1338 58.2706 849.422 539.806
1959 0 98.2848 15.8722 1560 55.4045 849.498 537.713
1960 0 102.169 13.3701 1366 58.3792 849.945 538.586
1961 1 53.2461 11.9445 636 60.2327 849.818 559.91
1962 0 56.1576 11.8239 664 59.8509 849.191 558.887
1963 0 57.1531 11.2155 641 60.7348 849.476 559.368
1964 0 61.1219 12.5814 769 59.4915 849.61 557.784
1965 0 62.2175 13.2117 822 58.7178 849.335 552.786
1966 0 64.2298 13.5762 872 58.133 849.835 556.21
1967 0 66.1978 12.9763 859 59.2736 850.194 554.242
1968 0 67.2 13.4821 906 58.7053 850.701 552.81
1969 0 70.2668 13.5199 950 58.5979 850.646 551.278
1970 0 73.2352 14.2827 1046 57.8633 851.348 549.415
1971 0 74.337 13.5733 1009 59.2854 851.43 549.624
1972 0 77.2524 14.3038 1105 58.2525 851.627 548.121
1973 0 77.112 13.6425 1052 59.7158 851.713 545.76
1974 0 82.2037 14.2938 1175 58.6077 852.244 543.683
1975 0 86.1899 14.3288 1235 58.2202 852.442 543.168
1976 0 88.4012 14.1514 1251 58.5492 852.599 542.023
1977 0 90.3663 14.6625 1325 58.2626 853.007 541.241
1978 0 92.2298 14.3988 1328 59.0218 852.54 539.433
1979 0 95.3093 14.4267 1375 58.7353 852.72 537.113
1980 0 99.1973 14.4359 1432 59.1809 852.482 535.059
1981 0 102.356 14.645 1499 58.9733 852.241 533.842
1982 0 106.277 14.3681 1527 59.5828 852.769 531.463
1983 0 108.243 14.9201 1615 58.93 852.65 531.656
1984 0 112.323 13.8885 1560 60.2974 852.696 529.197
1985 0 114.293 14.0953 1611 60.4289 852.512 526.107
1986 1 61.1652 11.9676 732 60.8087 852.445 553.314
1987 0 64.077 12.407 795 60.8176 852.306 553.006
1988 0 68.3056 11.1118 759 61.0408 852.145 552.547
1989 0 69.1744 13.0395 902 59.4035 851.901 549.473
1990 0 72.1605 13.3037 960 59.7052 851.612 547.414
1991 0 75.1935 13.698 1030 58.9913 852.116 545.571
1992 0 78.2726 13.734 1075 59.04 852.219 544.621
1993 0 81.327 14.0421 1142 58.4956 851.939 542.915
1994 0 82.2904 14.6797 1208 58.2301 851.289 540.329
1995 0 86.285 13.9885 1207 58.937 851.37 538.135
1996 0 88.2117 13.785 1216 59.4359 851.729 537.812
1997 0 93.259 14.9155 1391 57.4594 851.615 536.853
1998 0 95.1891 14.3504 1366 58.1091 851.552 534.693
1999 0 97.2749 14.238 1385 58.5783 851.394 531.894
2000 0 103.503 14.8402 1536 57.0547 851.456 532.029
2001 0 107.267 13.8067 1481 58.1958 851.322 530.263
2002 0 111.416 14.3426 1598 57.3479 851.054 529.917
2003 1 58.1542 10.8676 632 59.5585 851.226 552.81
2004 0 58.2108 11.2522 655 59.4458 850.782 552.562
2005 0 61.1556 11.5116 704 59.3722 850.717 552.185
2006 0 64.0431 12.757 817 58.131 849.494 552.087
2007 0 67.1285 13.0198 874 57.7254 849.865 551.719
2008 0 68.1601 13.0575 890 58.1169 849.655 549.696
2009 0 69.2571 13.0239 902 58.5809 849.266 548.987
2010 0 72.1881 12.6891 916 58.7969 849.929 549.898
2011 0 73.2545 12.5453 919 59.3254 850.499 547.567
2012 0 79.2539 13.829 1096 57.1852 850.484 546.171
2013 0 80.1582 13.9349 1117 57.5479 851.072 545.225
2014 0 83.1263 13.7862 1146 57.5148 850.728 545.058
2015 0 86.1321 13.34 1149 58.027 850.393 544.252
2016 0 88.1539 13.2495 1168 58.4229 849.768 542.104
2017 0 89.2093 13.1264 1171 59.2203 849.367 540.712
2018 0 95.1023 13.5538 1289 58.1901 849.86 539.996
2019 0 97.114 13.5923 1320 58.3091 849.002 538.053
2020 0 101.217 14.4639 1464 57.7398 849.274 536.413
2021 0 103.194 13.9058 1435 58.2132 849.22 533.652
2022 1 56.0871 10.9116 612 60.1961 848.874 557.337
2023 0 58.172 11.8442 689 58.8099 849.562 556.891
2024 0 58.0994 12.427 722 57.9432 849.461 557.418
2025 0 61.1951 12.1578 744 58.6613 849.851 555.362
2026 0 61.0939 12.7181 777 58.8996 849.644 554.52
2027 0 63.1543 13.0791 826 58.4467 850.021 551.669
2028 0 67.1347 13.4059 900 57.1978 849.252 553.321
2029 0 68.0489 13.7989 939 57.3536 848.913 550.983
2030 0 70.0831 14.1404 991 56.0505 848.708 551.231
2031 0 71.1531 13.1969 939 57.7774 848.765 549.096
2032 0 75.1122 13.4465 1010 57.4604 849.084 548.388
2033 0 77.1813 13.5914 1049 58.2688 848.802 549.498
2034 0 81.3129 13.7986 1122 57.7576 848.887 550.355
2035 0 82.2807 13.8429 1139 58.9298 848.618 546.268
2036 0 84.3438 13.9666 1178 58.5331 848.53 546.45
2037 0 84.2681 13.635 1149 59.8816 848.395 541.924
2038 0 91.4132 15.0853 1379 56.9101 848.26 540.768
2039 0 94.4499 14.9391 1411 57.1106 847.807 539.726
2040 0 97.3585 14.0922 1372 58.0423 847.891 539.487
2041 0 98.2673 14.369 1412 57.9122 847.702 536.732
2042 0 101.297 14.1564 1434 58.357 847.312 536.741
2043 0 105.29 14.9492 1574 56.8278 846.913 535.575
2044 0 108.292 13.9992 1516 58.1834 847.063 533.076
2045 1 60.0952 12.1474 730 57.4548 847.686 559.475
2046 0 62.1404 11.3775 707 58.1372 848.059 558.53
2047 0 61.16 11.1511 682 59.5191 847.997 557.953
2048 0 65.0339 12.1168 788 58.203 847.049 557.701
2049 0 66.0775 12.6518 836 57.8301 846.089 556.053
2050 0 67.0285 13.8001 925 56.2692 846.041 555.51
2051 0 70.0987 12.9532 908 57.2566 846.818 555.639
2052 0 72.146 13.8608 1000 56.022 847.126 555.941
2053 0 73.0777 12.8904 942 59.551 847.042 553.788
2054 0 78.0956 13.3298 1041 58.6158 846.536 552.679
2055 0 81.1055 13.7229 1113 58.0162 846.98 552.648
2056 0 83.096 13.6228 1132 58.5883 846.933 549.384
2057 0 86.1562 13.1041 1129 59.5137 846.617 549.944
2058 0 88.1405 13.4671 1187 59.0396 846.581 547.642
2059 0 89.1248 13.1052 1168 59.9983 846.61 547.653
2060 0 94.1003 13.475 1268 59.0189 846.567 546.819
2061 0 97.3174 13.8002 1343 58.7647 847.007 543.082
2062 0 99.116 13.0756 1296 59.8812 846.031 541.779
2063 1 54.1011 11.9406 646 59.8142 845.718 567.241
2064 0 54.0965 11.5534 625 60.5136 845.618 567.403
2065 0 54.0434 11.5463 624 61.7212 845.732 564.691
2066 0 58.0601 12.6765 736 59.4022 845.899 564.971
2067 0 60.076 13.6993 823 58.9392 846.448 562.934
2068 0 60.0726 12.5015 751 60.6019 845.743 560.647
2069 0 62.0403 13.056 810 59.9383 846.953 559.736
2070 0 64.0511 13.3175 853 59.9754 846.58 558.977
2071 0 66.0861 13.5883 898 60.4566 846.961 558.944
2072 0 69.2117 13.6827 947 60.3453 846.577 556.571
2073 0 70.0935 13.7103 961 60.6358 847.11 556.918
2074 0 70.0655 13.1734 923 62.3413 847.213 555.332
2075 0 76.0877 13.8524 1054 60.4687 846.66 554.459
2076 0 76.0877 13.8393 1053 160.199 845.669 554.445
2077 0 81.0958 13.5889 1102 61.0345 847.447 551.437
2078 0 84.1623 14.1988 1195 60.5155 847.52 547.914
2079 0 86.2555 13.8078 1191 61.178 847.488 547.863
2080 1 47.1809 10.6187 501 62.9281 847.625 569.072
2081 0 49.0908 12.976 637 61.1617 847.102 566.945
2082 0 50.2639 13.1108 659 61.3809 847.578 565.062
2083 0 53.384 13.5996 726 60.3375 848.901 563.099
2084 0 54.25 13.659 741 61.2767 848.066 562.661
2085 0 54.1312 13.2086 715 62.5846 848.238 563
2086 0 57.076 14.4544 825 60.0509 848.612 560.425
2087 0 60.1306 14.8011 890 59.2034 848.665 560.204
2088 0 61.0837 14.2755 872 60.4415 848.679 559.502
2089 0 62.101 13.3975 832 62.0132 848.556 559.331
2090 0 63.0803 14.2675 900 61.6556 848.701 557.154
2091 0 68.2053 15.5267 1059 59.2229 848.925 555.798
2092 0 67.1893 14.2731 959 62.0198 849.556 555.969
2093 0 69.25 14.2383 986 62.7931 849.686 552.735
2094 0 72.1887 13.8803 1002 63.5828 849.857 552.21
2095 0 72.2396 14.6596 1059 63.1501 850.022 551.176
2096 0 77.1732 14.7201 1136 62.6444 850.037 548.928
2097 0 79.1139 14.6371 1158 63.1019 850.313 549.283
2098 0 81.3321 14.9388 1215 63.1407 850.081 545.821
2099 0 84.4768 14.7141 1243 63.3411 850.718 545.132
2100 0 86.2314 14.1016 1216 64.4128 850.642 544.279
2101 0 91.627 14.9737 1372 62.5561 850.794 542.534
2102 1 46.1177 13.4439 620 66.071 851.811 563.335
2103 0 48.4601 13.0829 634 66.3927 851.565 562.032
2104 0 50.413 13.3101 671 66.6528 852.007 560.136
2105 0 51.4347 14.1539 728 65.7775 852.371 558.878
2106 0 55.3148 14.0469 777 65.5135 853.228 559.474
2107 0 55.4798 14.2034 788 66.1916 853.165 558.136
2108 0 56.4763 15.0683 851 65.8555 853.575 558.4
2109 0 58.712 14.3071 840 67.1143 853.563 556.64
2110 0 61.3639 15.3184 940 65.5223 853.851 555.155
2111 0 63.1909 14.923 943 66.122 853.81 554.103
2112 0 65.2646 15.5827 1017 65.4307 854.107 553.237
2113 0 67.608 14.9391 1010 66.3832 853.891 553.503
2114 0 69.4858 15.0822 1048 66.4189 853.918 551.965
2115 0 71.8761 14.845 1067 66.4583 852.811 551.037
2116 0 74.3969 14.7318 1096 65.875 852.651 548.233
2117 0 78.6346 15.2223 1197 64.6149 852.731 547.304
2118 0 79.6176 14.9967 1194 65.6817 852.649 545.062
2119 0 83.5122 14.6446 1223 65.3974 852.289 545.052
2120 0 86.6545 14.9906 1299 64.8499 852.177 542.339
2121 0 88.3916 14.5828 1289 65.6486 852.028 541.74
2122 0 91.5376 15.0649 1379 65.3024 852.015 539.751
2123 1 47.3544 12.9027 611 67.0442 852.628 560.601
2124 0 50.5178 12.3323 623 67.6742 852.523 559.849
2125 0 51.2597 13.4413 689 66.3919 852.347 558.618
2126 0 48.3991 13.616 659 67.7102 851.64 557.124
2127 0 53.2181 14.7882 787 64.9873 851.632 556.26
2128 0 53.262 14.6634 781 65.9334 851.074 555.392
2129 0 57.2797 14.5252 832 65.1274 851.525 554.269
2130 0 58.3586 14.7708 862 64.6044 851.032 553.389
2131 0 62.3224 15.0026 935 63.6278 851.095 552.904
2132 0 63.2143 14.3797 909 65.0198 851.216 552.404
2133 0 65.2851 14.3831 939 65.2386 850.883 553.341
2134 0 68.2488 15.0918 1030 64.1583 851.139 552.363
2135 0 70.3714 14.6651 1032 64.4118 850.736 551.748
2136 0 74.3281 14.5033 1078 64.1549 850.295 550.374
2137 0 74.146 15.1728 1125 63.8533 850.629 548.427
2138 0 78.1469 14.9974 1172 64.3754 850.543 547.183
2139 0 81.1342 14.7657 1198 64.2997 850.19 547.57
2140 0 82.0895 14.4598 1187 65.7178 849.836 544.19
2141 0 87.1489 14.217 1239 65.7659 850.291 545.356
2142 0 92.1411 15.1073 1392 64.2644 849.866 543.103
2143 1 49.0197 12.6684 621 65.8196 850.214 564.921
2144 0 53.055 13.9855 742 64.8571 850.403 563.074
2145 0 53.0156 12.2039 647 67.2968 849.773 564.363
2146 0 55.1312 12.7695 704 67.5114 848.804 559.055
2147 0 55.0289 12.8841 709 67.952 848.817 559.827
2148 0 58.054 13.3669 776 67.2719 848.789 559.64
2149 0 61.0499 13.3825 817 66.907 848.863 559.269
2150 0 63.0513 13.0211 821 68.1778 848.817 557.442
2151 0 64.0653 12.6902 813 69.1144 848.218 555.694
2152 0 67.0392 13.0073 872 68.6319 848.403 552.757
2153 0 69.2216 13.594 941 68.1562 848.425 553.479
2154 0 71.052 13.6801 972 68.6986 848.581 553.016
2155 0 76.0506 13.4779 1025 68.042 848.433 551.534
2156 0 77.1432 14.0777 1086 67.9429 848.681 548.071
2157 1 40.0274 9.21869 369 67.2114 848.77 569.648
2158 0 39.0353 9.70916 379 68.9921 848.799 567.127
2159 0 43.0783 9.44791 407 68.4816 848.747 568.01
2160 0 43.0195 9.90248 426 67.8897 848.845 566.939
2161 0 45.1899 10.8874 492 67.6199 848.813 565.183
2162 0 47.0228 11.3137 532 67.0526 847.695 564.397
2163 0 50.1434 12.0455 604 65.2715 847.368 564.401
2164 0 50.0868 11.3004 566 67.417 846.936 563.797
2165 0 51.0295 11.5619 590 67.8356 846.605 563.656
2166 0 53.0862 11.7356 623 67.4799 846.981 562.671
2167 0 56.0788 11.1807 627 68.5407 847.376 561.364
2168 0 56.0716 11.9847 672 67.3839 847.519 560.402
2169 0 59.0796 11.3068 668 68.479 847.096 558.597
2170 0 61.0859 12.4742 762 66.5367 847.139 558.908
2171 0 64.0435 12.5071 801 65.7803 847.919 559
2172 0 66.0316 11.8731 784 66.2207 847.943 559.043
2173 0 66.1047 11.3003 747 68.6145 847.592 555.746
2174 0 69.0307 12.2409 845 66.9278 846.802 555.187
2175 0 70.0463 11.8493 830 67.2096 847.263 554.971
2176 0 73.0889 12.4096 907 66.1687 847.192 551.674
2177 0 76.0903 12.196 928 66.5862 847.518 551.954
2178 1 43.0384 9.43344 406 66.0394 847.012 569.234
2179 0 44.0996 9.95474 439 64.3075 846.636 568.298
2180 0 44.0551 10.2372 451 65.5188 846.736 566.953
2181 0 45.0413 9.72442 438 64.2352 846.226 568.717
2182 0 46.1097 10.9738 506 63.33 846.457 567.543
2183 0 46.0507 10.5319 485 63.301 847.113 567.223
2184 0 46.0815 11.2193 517 63.2766 847.395 566.006
2185 0 47.1098 10.5498 497 64.6338 847.586 562.306
2186 0 48.2037 10.3726 500 64.352 847.664 563.372
2187 0 51.1645 10.8669 556 64.0144 847.908 562.585
2188 0 52.309 10.6865 559 63.5331 848.284 562.419
2189 0 56.1329 11.544 648 62.5062 848.806 562.002
2190 0 57.1135 11.7661 672 61.7396 848.673 561.366
2191 0 59.1675 11.4759 679 62.3019 849.169 558.879
2192 0 60.1887 10.9157 657 63.9102 849.046 558.775
2193 0 60.2419 11.0388 665 64.3519 849.132 557.149
2194 0 63.0722 11.8119 745 62.5691 849.421 555.73
2195 0 68.134 11.6975 797 61.9824 848.965 556.161
2196 0 69.126 12.7593 882 61.5646 849.711 552.277
2197 0 72.1014 12.2328 882 61.593 849.558 553.62
2198 0 73.1788 12.5446 918 61.5185 850.251 552.23
2199 0 74.1923 12.9933 964 61.7832 850.173 548.912
2200 0 76.3598 12.5983 962 61.9345 850.328 547.813
2201 0 80.3919 12.352 993 61.995 850.289 547.444
2202 0 82.1991 11.6911 961 62.7836 851.39 546.032
2203 0 85.2838 12.476 1064 63.3496 851.675 544.808
2204 0 88.3533 13.6724 1208 61.3228 851.834 542.841
2205 0 91.2414 13.0204 1188 62.6801 852.395 539.886
2206 1 46.2216 10.3848 480 63.4625 852.483 563.577
2207 0 50.2845 10.8781 547 62.7386 852.245 562.388
2208 0 51.4515 10.9035 561 63.7932 852.269 559.353
2209 0 51.369 11.0962 570 64.6439 852.179 559.123
2210 0 53.1259 11.8022 627 63.8692 852.03 559.123
2211 0 56.5243 12.9679 733 61.9836 851.945 557.06
2212 0 55.2253 12.4581 688 63.3067 852.102 556.656
2213 0 60.3265 12.6147 761 62.2286 851.878 556.745
2214 0 59.1841 12.8413 760 62.9145 852.342 555.638
2215 0 60.3651 12.441 751 64.036 852.602 553.939
2216 0 61.4781 12.8501 790 63.9747 853.184 553.129
2217 0 65.5056 12.7317 834 63.1355 853.259 553.066
2218 0 64.5083 13.2231 853 63.7304 853.487 551.287
2219 0 68.5763 13.6782 938 62.339 853.289 549.758
2220 0 69.415 13.729 953 62.723 853.233 548.532
2221 0 72.5451 13.757 998 62.9749 853.564 548.824
2222 0 75.38 13.359 1007 63.3496 853.442 547.457
2223 0 77.4505 13.8282 1071 63.0187 853.307 544.86
2224 0 78.7271 13.3372 1050 63.6943 853.168 541.352
2225 0 81.7215 13.6684 1117 63.3124 852.741 539.215
2226 0 83.8034 13.2811 1113 64.1842 853.019 539.141
2227 0 87.5377 14.3824 1259 62.4051 852.899 539.249
2228 0 89.8369 14.0254 1260 63.6452 852.383 536.51
2229 0 93.6158 14.5488 1362 63.6402 852.616 535.501
2230 1 46.4476 10.3342 480 67.4104 852.227 557.754
2231 0 49.4019 10.8498 536 67.0784 852.17 558.131
2232 0 49.4265 12.7057 628 64.1306 852.193 555.811
2233 0 51.4108 12.4293 639 65.1565 852.418 555.286
2234 0 52.1263 13.0069 678 64.2198 852.535 555.937
2235 0 54.3542 13.32 724 63.6892 852.17 557.394
2236 0 56.1975 12.9899 730 63.5822 851.968 555.612
2237 0 57.3176 12.7535 731 64.0766 851.35 554.785
2238 0 59.5052 13.377 796 62.1319 851.376 554.771
2239 0 62.4784 13.5087 844 61.6102 851.193 552.925
2240 0 64.626 13.1526 850 62.6141 851.107 551.452
2241 0 65.187 13.3922 873 61.748 851.502 550.627
2242 0 66.4852 13.2661 882 62.1746 851.443 549.355
2243 0 67.4924 13.0237 879 62.4733 852.067 549.56
2244 0 71.4737 13.5434 968 61.374 852.332 545.325
2245 0 72.5324 13.8007 1001 61.6873 851.676 543.428
2246 0 75.4909 13.2599 1001 62.2577 851.077 543.502
2247 0 77.5875 13.8553 1075 61.3005 851.286 541.347
2248 0 81.5257 13.6153 1110 61.3604 850.726 541.368
2249 0 81.5257 13.5785 1107 162.57 849.716 541.379
2250 0 87.4851 13.6823 1197 60.7419 850.464 537.825
2251 1 45.2528 10.6734 483 61.9979 850.172 560.004
2252 0 46.4466 10.7651 500 61.832 849.724 559.404
2253 0 50.3751 11.8709 598 60.4565 850.065 558.037
2254 0 51.122 13.0277 666 59.1336 850.944 558.207
2255 0 52.2316 12.8658 672 59.2381 850.74 559.065
2256 0 53.1727 12.6381 672 59.2991 850.49 559.765
2257 0 56.0697 12.0921 678 59.3628 850.51 558.643
2258 0 58.374 12.8311 749 57.9199 850.414 559.796
2259 0 58.2941 13.6034 793 57.9975 850.235 557.665
2260 0 60.3925 13.2798 802 58.601 850.262 557.698
2261 0 61.2478 13.176 807 59.4064 850.004 555.105
2262 0 62.3699 12.3778 772 60.5466 850.338 555.012
2263 0 66.542 13.4501 895 59.1363 850.035 551.19
2264 0 66.2137 12.6258 836 61.201 850.359 552.331
2265 0 71.4852 14.3246 1024 58.4551 849.978 549.801
2266 0 74.4517 13.8345 1030 59.3427 849.596 548.448
2267 0 73.6012 12.527 922 62.2007 850.222 548.389
2268 1 38.3726 11.258 432 61.3588 849.593 566.269
2269 0 40.5032 11.4312 463 61.1274 849.527 565.292
2270 0 42.5339 11.4497 487 61.1643 849.84 564.741
2271 0 42.2498 11.6213 491 62.2485 850.216 563.42
2272 0 46.1744 12.1929 563 60.286 850.687 563.03
2273 0 45.0449 12.2544 552 61.8297 850.764 561.069
2274 0 48.1472 11.8802 572 62.0699 850.024 565.208
2275 0 48.2055 13.0898 631 61.4073 849.8 563.71
2276 0 49.0858 13.0791 642 61.7181 849.695 563.333
2277 0 53.1742 13.1643 700 60.2629 849.3 562.879
2278 0 54.1391 12.5972 682 61.4062 848.761 560.868
2279 0 52.0922 12.3243 642 62.69 849.055 560.397
2280 0 55.0986 12.7045 700 62.5557 848.504 559.281
2281 0 57.1483 12.7563 729 61.7188 849.246 559.753
2282 0 60.1368 13.1201 789 60.8821 848.262 558.16
2283 0 59.0532 13.6318 805 61.1627 849.067 556.663
2284 0 63.2856 14.3003 905 59.8232 849.052 557.484
2285 0 64.1114 13.8977 891 60.7104 848.745 556.654
2286 0 65.2158 14.3677 937 60.8794 848.98 554.798
2287 0 64.2525 13.7115 881 62.8933 848.717 553.387
2288 0 69.1712 14.4569 1000 61.063 849.329 554.793
2289 0 70.3988 14.1906 999 62.037 849.039 551.948
2290 0 72.4072 13.6312 987 62.4184 848.729 551.351
2291 0 74.2855 13.9866 1039 62.59 848.415 550.288
2292 0 78.3016 14.0099 1097 62.2024 848.576 548.655
2293 0 79.3722 14.4635 1148 62.6193 848.296 547.276
2294 0 83.431 13.7479 1147 63.5711 848.51 543.662
2295 0 88.6135 14.9074 1321 61.3225 848.891 542.655
2296 0 90.449 14.7376 1333 61.7697 848.863 540.411
2297 0 92.323 13.9077 1284 63.4182 849.033 539.113
2298 0 95.3268 13.9625 1331 64.0609 849.171 539.871
2299 0 100.312 14.2655 1431 62.9057 849.58 538.811
2300 0 106.229 14.7229 1564 61.5716 848.985 538.226
2301 1 51.1778 11.7629 602 64.3605 847.736 563.257
2302 0 51.3002 12.3976 636 64.6069 848.214 561.742
2303 0 56.1154 13.0267 731 62.7469 848.254 561.517
2304 0 57.1409 13.283 759 62.7365 848.345 562.527
2305 0 59.1521 13.1018 775 62.9819 848.468 560.901
2306 0 60.149 12.7517 767 64.0991 848.027 559.192
2307 0 61.1034 12.6998 776 64.1044 848.24 558.879
2308 0 64.1178 12.4614 799 65.1815 847.977 555.935
2309 0 66.1574 12.9237 855 64.076 848.574 555.199
2310 0 68.1349 13.077 891 64.6094 848.26 553.97
2311 0 70.0852 12.7702 895 64.9408 848.875 553.706
2312 0 72.1188 12.7567 920 65.638 848.632 552.048
2313 0 77.1088 12.839 990 64.8343 848.358 550.117
2314 0 79.2811 12.7143 1008 65.0893 848.145 549.412
2315 0 80.2802 12.9173 1037 65.7811 848.397 547.175
2316 0 82.5438 12.9143 1066 66.6829 848.946 545.668
2317 0 87.3138 13.8352 1208 64.6366 848.872 545.227
2318 0 88.3974 13.1565 1163 66.8813 849.217 543.34
2319 1 50.215 11.5304 579 66.1503 849.225 562.29
2320 0 50.1571 11.4839 576 68.0243 849.747 559.498
2321 0 53.0819 12.3771 657 66.1309 850.135 559.779
2322 0 54.132 12.5804 681 65.6197 849.228 561.06
2323 0 57.1431 14.175 810 63.9617 849.217 559.34
2324 0 57.1396 12.8282 733 66.3629 849.472 558.528
2325 0 59.1452 12.258 725 67.109 849.492 558.759
2326 0 61.1185 12.9912 794 65.5353 849.309 558.327
2327 0 62.153 13.5633 843 65.0605 849.724 555.892
2328 0 64.2022 13.3484 857 64.9662 850.214 554.66
2329 0 66.142 13.5012 893 65.0381 850.59 551.456
2330 0 69.1325 13.2933 919 64.5941 850.555 553.018
2331 0 70.1016 13.566 951 65.0841 851.049 550.639
2332 0 72.2758 14.3201 1035 64.056 851.005 548.911
2333 0 76.0749 13.1581 1001 64.6533 851.198 550.044
2334 0 78.0934 13.6247 1064 63.593 850.852 548.105
2335 0 80.2355 13.074 1049 64.6806 850.913 545.561
2336 0 85.2322 13.6216 1161 62.9604 851.117 542.96
2337 0 87.1679 13.3765 1166 62.9614 850.735 541.468
2338 1 46.1087 10.4536 482 63.7324 851.311 562.085
2339 0 46.0811 11.5232 531 63.0942 851.337 560.772
2340 0 48.0593 11.902 572 61.6399 851.332 560.594
2341 0 48.1443 11.4655 552 62.5217 851.585 559.487
2342 0 50.0557 10.8479 543 63.4236 851.91 559.755
2343 0 52.0718 13.3662 696 59.9009 850.835 557.984
2344 0 53.0194 12.6935 673 61.0282 851.309 555.964
2345 0 53.0409 12.6318 670 61.5567 851.087 555.524
2346 0 57.0269 14.046 801 58.8764 851.407 554.733
2347 0 56.0523 12.5954 706 61.6572 851.477 552.85
2348 0 61.0585 12.922 789 60.1394 851.336 553.548
2349 0 63.1006 14.3422 905 58.0287 851.827 552.669
2350 0 65.0765 13.7992 898 59.0457 851.627 550.582
2351 0 66.181 14.1279 935 58.7829 851.749 549.418
2352 0 69.1683 13.3587 924 60.0952 852.074 549.92
2353 0 70.0779 12.5717 881 61.2452 851.915 549.409
2354 0 73.0816 13.4918 986 60.3884 852.09 548.142
2355 0 76.0406 13.2035 1004 60.3536 851.535 545.673
2356 0 77.0816 13.0641 1007 61.0367 852.075 545
2357 0 79.1481 13.3673 1058 61.3195 851.787 544.068
2358 0 82.1587 12.9019 1060 62.2453 851.452 543.132
2359 0 86.1535 13.7777 1187 61.1146 851.115 539.789
2360 0 89.0919 13.2784 1183 62.0228 851.243 539.691
2361 0 92.2783 13.0475 1204 62.6993 850.982 537.895
2362 1 48.0199 11.1829 537 62.7263 851.073 558.987
2363 0 49.149 11.1294 547 61.1865 851.446 559.711
2364 0 50.2833 12.0517 606 61.5479 852.355 558.302
2365 0 52.2674 13.1631 688 60.0073 851.656 557.801
2366 0 51.1908 12.1311 621 62.5845 851.813 557.145
2367 0 55.144 12.5127 690 61.9145 851.33 555.99
2368 0 57.2703 13.4799 772 60.6425 851.145 555.444
2369 0 58.4127 13.0109 760 61.6789 851.404 554.063
2370 0 59.3009 13.2207 784 61.9923 851.239 552.957
2371 0 62.2385 13.3358 830 61.1386 850.686 551.4
2372 0 64.3124 12.8591 827 62.1028 850.875 552.308
2373 0 67.239 12.8794 866 61.821 850.147 551.739
2374 0 69.4489 12.6712 880 62.6057 850.408 550.723
2375 0 68.3797 13.425 918 62.1797 850.075 548.906
2376 0 71.2729 13.287 947 63.0729 850.295 546.012
2377 0 74.2017 13.4768 1000 62.731 849.918 546.862
2378 0 77.4861 13.0733 1013 62.388 849.741 547.123
2379 0 81.3233 13.846 1126 61.2948 849.795 543.836
2380 0 82.2311 13.6445 1122 62.4403 849.726 543.693
2381 0 85.2771 13.72 1170 59.6231 849.659 541.846
2382 0 88.4704 14.2873 1264 58.5119 849.744 543.085
2383 0 90.4766 13.2963 1203 60.3017 849.81 540.618
2384 0 93.4688 13.6623 1277 59.6233 849.915 537.782
2385 0 96.4091 14.2725 1376 58.8888 850.184 538.398
2386 0 97.509 14.0192 1367 59.7593 850.239 536.7
2387 1 56.3307 11.397 642 59.6807 850.252 559.838
2388 0 56.2596 11.3936 641 61.1544 849.805 556.31
2389 0 58.3432 11.758 686 60.4067 850.028 555.911
2390 0 61.2524 12.8811 789 58.5589 850.421 556.041
2391 0 60.2087 12.274 739 60.433 850.765 554.61
2392 0 61.2115 12.9387 792 60.1326 851.061 554.576
2393 0 66.0713 12.7438 842 59.4347 850.4 553.284
2394 0 65.1933 12.1945 795 60.4893 850.265 552.79
2395 0 70.2708 13.4764 947 58.4034 850.048 550.074
2396 0 71.2424 13.6857 975 58.6862 849.922 549.716
2397 0 73.3184 13.4209 984 59.1362 849.48 548.597
2398 0 75.247 13.1965 993 59.137 849.158 547.901
2399 0 76.3172 14.2301 1086 58.3591 849.258 544.552
2400 0 78.2942 13.6664 1070 59.4159 848.993 544.553
2401 0 81.3539 14.0497 1143 58.7594 849.075 542.709
2402 0 84.3079 13.9014 1172 58.9445 849.132 540.438
2403 0 86.3932 13.4154 1159 59.5772 848.927 541.103
2404 0 90.3354 13.2949 1201 59.6919 848.732 537.918
2405 0 91.2005 13.6951 1249 59.4163 848.28 537.138
2406 0 94.4643 13.7618 1300 59.0377 848.708 536.175
2407 0 96.2583 13.2664 1277 60.1621 848.088 533.813
2408 1 51.162 11.0238 564 58.5319 847.645 557.344
2409 0 51.1137 11.0342 564 59.3262 847.53 558.34
2410 0 55.0185 10.0875 555 59.5063 847.238 557.744
2411 0 58.0669 12.3823 719 57.2796 847.505 554.935
2412 0 59.0421 12.8891 761 57.3167 848.117 553.092
2413 0 62.1114 13.1377 816 57.4387 847.751 555.969
2414 0 61.0849 12.589 769 58.9389 847.554 555.922
2415 0 65.0651 13.0946 852 58.385 847.211 553.755
2416 0 65.1194 12.8072 834 58.777 847.371 553.874
2417 0 68.2131 13.2819 906 57.681 847.476 554.638
2418 0 71.225 14.0681 1002 56.2655 848.112 552.533
2419 0 71.225 14.0681 1002 156.062 849.112 552.533
2420 0 78.2056 14.0271 1097 56.082 847.674 550.345
2421 0 78.2807 13.3622 1046 57.0746 847.993 548.655
2422 1 39.2642 10.1365 398 58.0879 847.907 567.558
2423 0 42.324 10.7268 454 56.837 847.621 566.247
2424 0 43.2925 10.4868 454 57.2731 847.403 565.139
2425 0 44.0599 10.8943 480 57.3792 847.227 565.19
2426 0 44.0471 11.8283 521 56.7774 846.718 564.351
2427 0 48.0615 12.0054 577 55.6187 847.218 564.468
2428 0 49.1005 12.6068 619 54.2876 847.081 564.258
2429 0 50.1155 11.7928 591 55.7631 847.401 562.384
2430 0 52.0598 13.4461 700 53.8257 847.311 560.09
2431 0 53.0661 13.6622 725 53.4552 847.243 560.843
2432 0 52.1534 10.8143 564 56.8741 847.915 558.83
2433 0 56.0825 11.8397 664 54.9563 848.074 559.179
2434 0 57.1384 11.9709 684 55.098 847.955 559.494
2435 0 61.1395 12.9376 791 53.4475 848.262 556.654
2436 0 63.1218 12.6581 799 53.3454 848.613 557.623
2437 0 63.2177 12.5914 796 54.0729 848.319 555.51
2438 0 66.1433 12.9114 854 53.3501 848.222 555.607
2439 0 67.0846 12.7451 855 53.4854 847.963 553.065
2440 0 68.1846 13.0675 891 54.064 848.176 549.224
2441 0 71.1151 12.6837 902 53.9579 848.466 548.804
2442 0 74.108 12.5493 930 54.9269 848.62 548.427
2443 0 75.0478 12.2855 922 55.398 848.4 548.581
2444 0 80.0821 14.0481 1125 53.6222 848.561 546.285
2445 0 82.2215 12.6001 1036 55.3369 848.185 545.451
2446 0 83.2809 12.728 1060 55.6123 848.18 543.496
2447 0 88.2225 13.7493 1213 54.1542 848.077 542.364
2448 1 50.1696 9.80674 492 56.498 847.795 561.364
2449 0 51.2513 11.4924 589 55.056 847.944 559.9
2450 0 54.1473 11.044 598 55.6472 848.156 559.49
2451 0 55.2711 12.2849 679 54.9323 848.191 556.579
2452 0 55.0899 12.3798 682 55.0484 848.713 557.884
2453 0 58.0564 13.1768 765 54.6144 848.246 557.046
2454 0 59.135 12.9027 763 53.675 848.24 556.923
2455 0 60.0886 13.7963 829 53.3739 848.474 555.014
2456 0 62.1771 14.0405 873 52.6506 848.889 555.495
2457 0 66.1136 13.8247 914 53.1838 848.93 552.639
2458 0 64.1148 12.8207 822 55.4647 849.319 551.588
2459 0 69.1594 13.3171 921 54.6688 849.167 552.327
2460 0 71.0449 14.2867 1015 54.0847 850.003 550.107
2461 0 73.2541 13.6375 999 55.2903 849.954 549.015
2462 0 76.1294 13.766 1048 55.25 849.704 548.492
2463 0 78.0735 13.3592 1043 55.9501 850.038 547.711
2464 0 81.1865 14.1403 1148 54.8632 850.593 546.593
2465 0 83.1795 13.1523 1094 56.4278 851.034 543.878
2466 0 86.1277 13.9212 1199 55.7982 851.293 543.133
2467 0 90.0773 13.7215 1236 55.394 851.949 542.386
2468 1 47.0231 10.0164 471 57.7686 851.469 561.577
2469 0 49.0579 12.0062 589 56.8472 851.722 558.958
2470 0 52.1504 11.2176 585 56.6427 851.653 557.836
2471 0 53.1603 12.1331 645 56.2667 851.913 555.643
2472 0 55.0291 12.8478 707 55.2221 852.866 554.525
2473 0 58.2679 13.5752 791 54.5107 852.014 556.449
2474 0 60.177 13.5932 818 54.4597 852.466 554.862
2475 0 61.1519 13.1476 804 54.9714 852.226 553.644
2476 0 64.164 13.3408 856 54.3984 852.568 552.254
2477 0 65.1313 13.2195 861 54.6794 852.717 551.981
2478 0 66.1704 13.1025 867 55.1661 852.546 550.551
2479 0 70.0474 13.7764 965 53.6456 852.065 550.807
2480 0 71.0523 13.8067 981 54.3894 851.706 547.299
2481 0 73.1388 13.5769 993 54.7805 852.133 547.093
2482 0 76.0662 13.9615 1062 54.1704 851.351 545.6
2483 0 78.1425 14.1792 1108 54.0532 851.807 544.475
2484 0 81.092 14.2924 1159 54.0828 851.808 543.041
2485 0 81.2059 13.866 1126 54.6776 852.127 541.684
2486 0 86.0998 14.0302 1208 53.9834 852.343 540.282
2487 0 87.1064 13.9599 1216 54.5773 851.607 538.212
2488 1 47.0563 10.6256 500 54.052 851.104 560.914
2489 0 47.1199 11.1842 527 55.7249 851.493 558.459
2490 0 48.3191 12.0656 583 54.6038 851.652 557.403
2491 0 50.1983 12.0721 606 54.6452 851.655 557.084
2492 0 52.072 12.886 671 53.5112 851.653 555.231
2493 0 52.1516 13.5758 708 53.6102 851.944 555.832
2494 0 56.17 13.566 762 52.8097 851.274 555.567
2495 0 56.1018 13.4398 754 53.0822 851.365 554.972
2496 0 60.1425 14.183 853 51.6495 851.314 554.477
2497 0 59.1114 13.4153 793 53.4098 851.487 552.603
2498 0 62.1454 13.919 865 52.5214 851.599 552.429
2499 0 61.0457 13.236 808 53.7884 851.709 551.178
2500 0 64.1651 13.1691 845 53.5893 851.651 553.098
2501 0 67.1232 13.721 921 52.6699 851.269 550.572
2502 0 68.2213 13.1777 899 53.8587 850.644 548.881
2503 0 71.0881 13.209 939 53.7433 850.765 548.18
2504 0 73.1916 14.4279 1056 52.3116 850.38 547.077
2505 0 77.109 13.9024 1072 52.8862 850.661 545.201
2506 0 77.0946 14.3979 1110 53.0838 850.3 543.11
2507 0 82.2963 12.4185 1022 54.4609 850.286 542.043
2508 0 83.1363 12.5096 1040 54.4038 850.563 540.866
2509 0 87.1059 13.5008 1176 53.3878 850.2 539.702
2510 0 89.0716 13.6856 1219 53.3593 850.18 536.59
2511 1 45.015 11.2851 508 54.4232 849.49 559.528
2512 0 48.0427 11.011 529 54.1229 849.535 560.2
2513 0 50.1296 12.0089 602 52.7957 849.792 560.44
2514 0 51.0998 11.957 611 52.7201 850.56 559.944
2515 0 53.1207 11.4645 609 52.8144 850.647 559.718
2516 0 53.0651 11.7591 624 53.1058 850.562 558.409
2517 0 56.048 12.3466 692 52.2616 850.952 556.516
2518 0 56.1056 12.6725 711 52.1603 849.992 555.817
2519 0 59.2076 13.9847 828 50.564 849.789 555.077
2520 0 60.1482 13.1675 792 51.4293 849.677 554.645
2521 0 64.0743 13.3283 854 50.7073 849.859 554.8
2522 0 63.1373 12.4016 783 52.3436 849.72 552.658
2523 0 67.0807 13.1931 885 50.8678 850.33 554.557
2524 0 69.0717 13.667 944 50.8972 849.849 551.88
2525 0 71.0825 13.6883 973 50.8818 849.748 549.959
2526 0 74.1116 14.5321 1077 49.9229 849.603 548.717
2527 0 75.18 12.8891 969 52.1455 849.747 547.553
2528 0 78.1013 13.4185 1048 51.3158 849.728 545.209
2529 0 81.2279 12.9758 1054 52.0171 849.553 542.871
2530 0 84.16 12.7258 1071 52.3427 849.005 542.519
2531 1 44.0607 10.2132 450 51.9556 848.582 565.604
2532 0 45.0388 11.6788 526 51.443 848.89 562.532
2533 0 44.0518 11.7135 516 52.719 849.213 561.647
2534 0 47.2056 11.3758 537 52.4507 848.43 561.168
2535 0 49.0813 12.408 609 51.3399 848.516 562.287
2536 0 51.0974 12.623 645 51.4248 847.89 560.605
2537 0 51.043 12.3425 630 52.5397 848.19 559.551
2538 0 53.0396 12.6509 671 53.2653 847.952 559.599
2539 0 56.0562 12.5588 704 53.4034 848.205 559.092
2540 0 54.0117 12.1085 654 54.815 848.203 559.124
2541 0 60.0533 13.7378 825 51.9624 847.433 559.642
2542 0 57.0958 12.19 696 55.1954 847.415 557.598
2543 0 62.0659 13.9368 865 52.6821 847.891 557.008
2544 0 63.0903 12.7595 805 55.2174 848.343 554.896
2545 0 62.157 12.3397 767 56.309 848.853 555.21
2546 0 66.0918 12.9971 859 55.5949 849.789 553.108
2547 0 68.1502 13.5436 923 54.8808 848.861 554.486
2548 0 70.1826 13.1229 921 55.4245 848.39 554.269
2549 0 72.1045 12.676 914 56.6761 848.732 551.916
2550 0 76.0875 13.905 1058 55.4159 849.063 549.054
2551 1 40.1573 10.9569 440 55.0114 849.323 568.505
2552 0 41.0869 10.417 428 57.2991 848.79 567.376
2553 0 42.0628 10.9598 461 57.2646 848.872 565.59
2554 0 44.2058 11.2202 496 56.9718 846.577 564.609
2555 0 45.1628 12.9088 583 55.4357 846.621 563.604
2556 0 47.0987 12.5481 591 55.3316 847.166 562.472
2557 0 46.2734 12.3397 571 56.2925 847.986 559.252
2558 0 48.3608 11.5383 558 56.9462 847.796 560.206
2559 0 49.4076 11.2128 554 57.6823 847.971 559.733
2560 0 52.3698 12.2781 643 56.3219 847.95 559.02
2561 0 51.3194 12.3735 635 57.2709 847.806 558.176
2562 0 53.2226 12.2317 651 57.7343 847.879 556.862
2563 0 54.4221 12.5317 682 57.7727 847.589 556.708
2564 0 56.4058 13.3851 755 56.7364 848.185 554.478
2565 0 57.3051 12.8959 739 57.7077 847.855 555.655
2566 0 62.2557 15.2597 950 54.7905 848.323 550.102
2567 0 60.3411 12.8934 778 59.5681 847.693 552.647
2568 0 61.2495 12.3266 755 61.1245 848.632 552.347
2569 0 65.0828 13.4444 875 59.5726 849.318 554.008
2570 0 66.0875 13.2552 876 60.0674 848.896 554.224
2571 0 69.1458 13.6668 945 59.6921 848.777 551.913
2572 0 70.0853 13.2838 931 60.6391 848.535 552.702
2573 0 72.1951 13.1449 949 61.3477 848.452 550.85
2574 0 79.3155 16.7054 1325 54.6687 848.292 546.579
2575 0 80.2374 15.0553 1208 57.8303 847.829 546.246
2576 0 78.3627 13.0164 1020 61.9 847.718 548.084
2577 0 83.1967 14.652 1219 59.5529 846.961 548.929
2578 1 43.2797 9.93538 430 62.814 846.926 566.872
2579 0 41.1118 10.5809 435 62.2253 847.223 566.938
2580 0 44.2936 10.2724 455 62.967 846.198 565.521
2581 0 46.2366 12.0684 558 60.3692 846.55 565.525
2582 0 48.2671 12.4723 602 60.2741 846.47 564.409
2583 0 50.3218 12.579 633 58.4376 846.152 561.806
2584 0 49.4354 11.1863 553 60.7486 846.615 559.931
2585 0 52.2952 12.2765 642 59.4346 847.023 557.998
2586 0 54.306 13.295 722 58.2147 847.172 558.691
2587 0 56.3891 12.2364 690 59.5913 847.316 558.849
2588 0 55.2364 11.6228 642 62.2991 847.611 557.696
2589 0 59.1343 12.9197 764 59.5537 848.772 558.63
2590 0 63.0856 13.7591 868 57.712 848.727 556.346
2591 0 64.1468 13.2353 849 59.0601 848.96 557.575
2592 0 65.0976 13.0419 849 59.5642 848.906 555.645
2593 0 66.1645 13.3153 881 59.5766 849.049 554.928
2594 0 68.5151 13.2088 905 59.5547 849.201 554.114
2595 0 69.276 13.2947 921 60.2823 848.901 553.031
2596 0 73.3473 13.2929 975 59.7877 848.918 551.31
2597 0 75.5726 13.8542 1047 59.5043 849.211 550.387
2598 1 40.1501 10.3611 416 62.5745 847.851 565.978
2599 0 42.1809 11.3559 479 61.0146 848.219 565.754
2600 0 43.1613 11.3759 491 62.053 848.422 563.033
2601 0 44.0936 11.9519 527 60.5028 849.18 564.757
2602 0 44.0602 13.2546 584 59.7432 851.235 562.009
2603 0 46.0222 11.8204 544 61.1691 851.568 562.134
2604 0 47.2353 13.274 627 59.6045 850.946 562.871
2605 0 49.1416 12.291 604 60.2699 851.455 561.909
2606 0 52.125 12.5276 653 59.17 851.709 561.436
2607 0 52.1918 13.4504 702 58.9615 851.792 559.583
2608 0 52.2009 12.9308 675 60.6207 852.079 558.341
2609 0 55.1666 13.4502 742 59.1806 852.836 559.462
2610 0 58.1832 13.6122 792 58.5922 852.754 558.846
2611 0 58.1832 12.7356 741 60.3509 852.744 558.134
2612 0 59.2789 13.4618 798 59.2882 852.335 554.84
2613 0 64.0759 13.3748 857 58.846 852.433 554.882
2614 0 65.093 14.1797 923 58.2167 852.063 552.956
2615 0 66.0978 13.6464 902 59.7506 851.835 552.47
2616 0 66.0417 14.8542 981 59.1509 852.207 552.623
2617 0 67.0377 14.4546 969 59.839 852.17 551.522
2618 0 70.2411 14.3648 1009 60.1992 852.404 550.828
2619 0 73.1683 14.7058 1076 59.3978 852.176 548.796
2620 0 74.0492 15.1656 1123 59.0793 852.102 548.541
2621 0 77.1081 14.551 1122 60.3021 852.277 546.635
2622 0 80.1195 14.7405 1181 60.1389 852.596 546.821
2623 0 82.0902 14.8982 1223 59.9526 852.359 545.972
2624 0 84.1934 15.1199 1273 60.8319 852.866 542.311
2625 1 48.0721 10.8171 520 64.3288 852.612 562.429
2626 0 47.0958 12.1455 572 63.4948 852.71 561.799
2627 0 49.048 12.5999 618 61.9628 852.419 563.335
2628 0 53.1008 13.2013 701 61.7504 852.559 559.951
2629 0 52.1385 12.6778 661 62.7474 852.637 559.204
2630 0 54.1601 13.4786 730 61.6068 852.522 558.655
2631 0 57.0973 14.1688 809 60.7775 852.106 557.658
2632 0 55.0937 13.1413 724 63.0801 851.798 557.423
2633 0 59.0649 14.0185 828 61.7729 852.062 555.854
2634 0 61.1027 13.9437 852 61.5822 851.552 554.802
2635 0 62.1379 14.1299 878 61.697 851.9 555.272
2636 0 65.0774 14.3982 937 61.4653 852.013 554.592
2637 0 67.1461 14.327 962 61.9085 852.466 553.811
2638 0 70.0726 14.3994 1009 61.0862 852.419 552.152
2639 0 71.0417 14.0199 996 62.1365 852.57 551.367
2640 0 74.0857 14.4292 1069 61.8746 852.094 549.215
2641 0 74.0492 14.2068 1052 63.0342 851.935 548.367
2642 0 78.1676 14.0723 1100 62.7127 851.87 547.316
2643 0 82.1616 15.5669 1279 61.6505 851.692 544.591
2644 0 83.1603 15.2236 1266 62.8009 852.159 541.577
2645 0 84.2341 14.3885 1212 64.0289 852.087 541.429
2646 0 88.2294 14.859 1311 63.598 852.276 539.038
2647 0 90.2645 14.5905 1317 63.6446 852.223 539.393
2648 1 47.1107 11.335 534 65.5375 852.699 561.146
2649 0 48.1226 12.8214 617 64.7942 852.159 560.233
2650 0 47.0703 12.152 572 63.3374 850.981 559.659
2651 0 50.1152 12.8704 645 62.2729 851.04 558.763
2652 0 54.1198 13.0636 707 60.6407 851.324 558.692
2653 0 55.0687 13.8554 763 60.6461 851.237 556.967
2654 0 54.056 13.4675 728 61.908 852.001 555.982
2655 0 60.176 14.2083 855 60.0234 851.127 555.468
2656 0 62.2434 13.9613 869 60.473 851.234 554.058
2657 0 63.0886 14.0279 885 60.5367 851.072 552.794
2658 0 64.1564 14.2308 913 60.6867 850.989 552.028
2659 0 66.3054 13.649 905 61.7569 850.976 550.807
2660 0 70.2407 14.0944 990 61.0263 851.318 548.797
2661 0 71.1374 15.21 1082 59.7033 851.299 550.193
2662 0 74.165 14.9532 1109 59.9973 851.111 549.39
2663 0 78.1761 14.3906 1125 60.7129 851.207 546.394
2664 0 81.3574 14.381 1170 60.5949 851.317 546.732
2665 0 82.184 14.2607 1172 61.1314 851.249 544.84
2666 0 85.2778 14.8808 1269 60.2522 851.478 542.559
2667 0 87.3106 14.5114 1267 61.135 850.783 541.232
2668 0 92.362 15.331 1416 59.3468 851.039 540.864
2669 0 94.327 14.4391 1362 60.3686 851.015 540.401
2670 0 98.3108 15.0543 1480 59.5432 850.588 537.963
2671 1 50.1826 11.5976 582 61.3127 850.509 560.969
2672 0 50.1704 11.1221 558 62.5806 850.33 560.955
2673 0 53.1403 13.3609 710 60.3 849.818 559.628
2674 0 55.2487 13.4664 744 60.6035 850.011 557.793
2675 0 57.1665 13.1895 754 61.7851 850.243 555.641
2676 0 58.087 13.1355 763 61.9987 850.394 556.022
2677 0 63.1456 14.1736 895 59.819 850.565 554.829
2678 0 63.2098 14.5389 919 60.0762 850 553.592
2679 0 65.1868 13.7604 897 61.3233 850.367 553.575
2680 0 67.1077 13.5752 911 61.3688 850.209 553.021
2681 0 71.2254 14.5594 1037 59.5834 850.284 552.9
2682 0 75.2038 14.8796 1119 59.0313 849.881 551.267
2683 0 76.1652 14.206 1082 60.1922 849.932 549.719
2684 0 77.1923 13.6672 1055 61.8749 849.898 548.675
2685 0 79.3436 13.0445 1035 62.2831 849.736 548.86
2686 0 84.3031 14.9342 1259 59.9865 849.425 547.716
2687 0 84.2835 13.3359 1124 62.6673 849.601 547.099
2688 0 89.2091 13.4964 1204 62.1354 849.653 544.462
2689 0 90.2142 12.7585 1151 63.3571 849.971 544.935
2690 0 94.3823 13.3817 1263 62.5321 849.077 542.456
2691 1 47.1021 11.6343 548 63.4872 848.785 565.783
2692 0 49.1407 12.3319 606 62.4422 848.657 565.165
2693 0 52.0971 12.7454 664 62.2816 848.845 563.273
2694 0 52.1505 13.1926 688 62.2994 848.887 561.663
2695 0 54.0686 13.076 707 62.447 849.119 560.646
2696 0 56.2168 12.9677 729 61.7517 849.28 562.219
2697 0 59.1089 14.008 828 60.186 849.399 561.146
2698 0 61.1471 14.3588 878 60.3576 849.478 557.909
2699 0 62.189 13.2339 823 61.904 848.539 556.716
2700 0 65.148 15.3957 1003 58.4138 848.126 553.839
2701 0 65.1188 13.5138 880 62.1977 847.834 554.853
2702 0 66.1121 13.4317 888 62.616 847.832 553.561
2703 0 70.0492 14.1472 991 61.1423 847.974 554.126
2704 0 71.2626 13.8362 986 62.498 847.919 551.279
2705 0 73.1421 14.4103 1054 61.8757 847.723 551.416
2706 0 77.1926 14.5739 1125 61.3796 847.996 551.668
2707 0 79.2242 14.5915 1156 61.6375 847.9 550.58
2708 0 80.2299 13.7106 1100 63.1027 848.003 548.834
2709 1 41.0719 13.0259 535 64.3944 848.512 567.305
2710 0 45.2724 13.3194 603 63.3068 847.701 565.464
2711 0 45.2822 12.7644 578 64.8564 847.692 564.405
2712 0 47.1096 13.3943 631 64.4216 847.415 563.635
2713 0 48.0642 15.3545 738 62.6003 847.084 562.63
2714 0 48.1562 13.6431 657 64.9315 847.834 563.886
2715 0 51.6933 14.2185 735 63.1728 848.044 562.935
2716 0 53.4619 14.8891 796 62.0289 847.73 561.754
2717 0 54.3593 15.048 818 61.7347 847.297 561.119
2718 0 55.6821 14.8522 827 62.0145 847.55 561.528
2719 0 58.6502 16.2659 954 59.9361 847.017 559.915
2720 0 60.4258 15.9369 963 60.9159 847.107 559.199
2721 0 58.7171 15.1234 888 63.3311 847.137 557.3
2722 0 63.377 16.1415 1023 60.9071 847.278 557.897
2723 0 64.576 15.1759 980 62.9857 846.862 556.271
2724 0 67.3005 15.7948 1063 62.0583 847.078 555.475
2725 0 69.4105 16.4384 1141 61.1823 846.982 556.95
2726 0 70.4705 16.1912 1141 62.0394 846.819 554.773
2727 0 75.4254 16.2147 1223 60.8667 845.922 553.731
2728 0 75.4406 16.5826 1251 61.4724 846.148 552.1
2729 0 79.4517 16.0223 1273 61.9372 846.676 550.684
2730 0 82.1207 15.4894 1272 62.717 846.855 550.432
2731 0 85.1807 16.2361 1383 61.9978 847.258 546.302
