time division length width area intensity CMx CMy
0 0 60.1923 12.5431 755 177.528 382.433 583.473
1 0 62.2683 13.6345 849 81.5819 380.247 583.461
2 0 64.2037 13.1612 845 83.0817 380.276 581.733
3 0 67.2003 13.5565 911 81.9989 380.307 581.338
4 0 69.1617 12.7672 883 83.2152 380.403 580.332
5 0 70.1567 13.2275 928 82.5851 380.64 578.387
6 0 74.1777 13.0363 967 82.0672 380.688 578.39
7 0 78.1702 12.5495 981 82.1386 380.726 574.949
8 0 80.2419 13.3097 1068 82.5749 380.569 573.525
9 1 43.0558 11.5199 496 84.627 380.581 592.194
10 0 44.061 12.0969 533 84.6942 381.124 591.769
11 0 45.1033 12.8815 581 84.8985 381.695 591.783
12 0 47.1045 13.7779 649 82.849 381.712 591.097
13 0 50.0484 12.8875 645 84.8775 381.617 589.307
14 0 50.0925 13.7745 690 83.3797 381.738 588.238
15 0 52.1128 13.6051 709 82.2694 382.03 588.231
16 0 54.1074 13.9722 756 81.0648 381.512 587.729
17 0 57.1463 13.1592 752 81.7261 381.822 586.912
18 0 58.127 13.4361 781 80.7618 381.969 586.862
19 0 61.0891 13.6195 832 80.155 382.083 585.01
20 0 61.1201 13.9071 850 79.8212 381.804 585.298
21 0 63.1154 13.7367 867 80.782 382.069 583.07
22 0 67.0826 14.9666 1004 77.8466 381.9 581.073
23 0 68.1254 14.7522 1005 78.5582 381.899 580.859
24 0 70.2348 13.8678 974 80.2556 381.926 579.876
25 0 73.114 13.7183 1003 80.676 382.104 579.973
26 0 75.1377 13.788 1036 81.0907 382.098 577.831
27 0 76.1207 13.426 1022 82.7299 382.234 576.354
28 0 82.0612 13.7702 1130 80.1805 381.763 574.465
29 0 84.0783 14.1535 1190 79.9109 381.729 572.839
30 0 87.2424 13.6745 1193 80.3873 382.397 573.054
31 1 44.0347 11.7635 518 82.251 382.531 594.732
32 0 46.0216 12.7114 585 81.4786 382.658 592.515
33 0 48.1045 14.1982 683 79.0395 382.835 589.796
34 0 50.0525 13.6057 681 79.2173 382.382 589.606
35 0 51.0263 12.8757 657 81.3318 382.747 588.951
36 0 51.0606 12.3579 631 82.1474 382.537 589.52
37 0 54.0766 13.5733 734 79.8624 382.691 586.841
38 0 54.0892 14.2912 773 79.282 383.138 586.832
39 0 56.0629 14.3232 803 78.9988 382.99 586.123
40 0 57.0555 14.372 820 78.9012 383.22 587.665
41 0 61.1085 13.2387 809 79.8319 383.265 585.326
42 0 62.0129 14.0777 873 78.2932 383.434 584.344
43 0 64.032 13.8212 885 78.3367 383.176 582.659
44 0 67.0585 14.0474 942 77.2346 383.377 582.528
45 0 68.0158 13.8791 944 77.5784 384.311 581.699
46 0 70.097 14.3515 1006 76.7256 384.443 579.498
47 0 73.0357 14.9379 1091 75.9514 384.335 578.258
48 0 75.0906 14.5558 1093 76.5352 384.475 578.038
49 0 79.1202 14.6992 1163 75.2416 384.265 576.817
50 0 80.0556 13.7654 1102 76.7078 383.789 577.292
51 0 85.1311 14.8007 1260 74.25 383.863 574.509
52 1 44.064 12.3457 544 76.6562 383.507 593.86
53 0 43.0962 10.929 471 78.7113 383.473 593.996
54 0 46.0141 13.1047 603 68.1211 382.592 592.032
55 0 49.0769 12.7555 626 68.0591 382.984 591.505
56 0 49.0477 13.5175 663 68.1403 383.018 589.522
57 0 50.0989 12.9943 651 68.4808 383.095 589.441
58 0 52.0653 13.291 692 67.9422 383.393 588.059
59 0 54.0361 12.5657 679 68.5655 383.517 587.873
60 0 57.0687 13.4925 770 67.0909 383.53 585.421
61 0 58.1062 12.7525 741 68.7557 383.584 585.254
62 0 61.1942 12.207 747 69.2584 383.475 583.671
63 0 63.1234 13.5766 857 67.6954 382.965 583.347
64 0 65.0293 12.8558 836 69.1268 383.376 581.276
65 0 68.1598 12.9402 882 68.5782 383.529 581.054
66 0 69.2312 13.6066 942 68.5775 383.635 577.902
67 0 73.2526 13.8835 1017 67.7768 384.171 577.465
68 0 75.0888 12.9846 975 69.201 384.645 578.182
69 0 78.1439 13.1424 1027 69.1782 384.974 577.326
70 0 79.1384 12.6993 1005 70.19 384.378 574.112
71 0 85.1627 14.2081 1210 67.2347 384.539 571.121
72 1 40.0346 11.7149 469 69.806 384.91 592.249
73 0 42.1173 11.9191 502 69.2689 385.171 592.008
74 0 42.1587 12.453 525 69.5181 385.234 590.602
75 0 47.0816 13.1262 618 67.3932 385.85 588.888
76 0 48.0327 12.4707 599 69.0518 385.583 588.264
77 0 50.0419 13.6885 685 66.4482 386.145 587.987
78 0 52.2974 13.4424 703 67.0341 385.738 585.677
79 0 53.2566 12.8998 687 67.6303 386.322 585.643
80 0 54.2017 13.5236 733 67.6494 386.617 584.73
81 0 55.2313 13.6698 755 67.4623 386.485 582.632
82 0 58.1332 13.5551 788 67.7005 386.887 580.987
83 0 58.1698 13.1683 766 69.2023 387.298 579.805
84 0 61.1025 13.6328 833 68.503 387.251 579.814
85 0 62.1878 14.0703 875 67.9211 387.491 578.4
86 0 66.1827 13.8858 919 67.5898 387.853 576.711
87 0 70.1947 13.3628 938 67.468 387.95 574.658
88 0 71.1198 14.7216 1047 65.7975 388.181 572.083
89 0 73.1973 14.2492 1043 65.581 388.249 572.383
90 0 75.1496 14.4778 1088 65.1581 388.805 570.23
91 1 39.1895 11.8144 463 71.3585 389.557 587.488
92 0 40.0923 10.7751 432 74.8194 389.475 587.764
93 0 41.0939 11.9483 491 75.0163 389.383 584.874
94 0 42.1805 11.6879 493 73.6349 389.509 585.791
95 0 44.3071 12.2328 542 70.9299 389.103 584.887
96 0 47.1836 13.3097 628 68.3981 389.338 582.779
97 0 48.3095 13.0409 630 69.0016 388.973 582.127
98 0 50.1424 13.8605 695 67.9022 389.024 581.987
99 0 49.1028 13.1153 644 70.4068 388.398 581.045
100 0 52.1365 13.3879 698 69.3582 388.852 580.358
101 0 54.1805 13.4919 731 69.6019 388.722 579.235
102 0 57.1683 14.5185 830 67.653 388.895 577.623
103 0 58.2261 13.3445 777 71.9537 389.12 575.622
104 0 56.231 14.0314 789 72.6793 389.014 575.317
105 0 60.1295 13.7703 828 73.7295 389.105 574.066
106 0 63.2265 14.4718 915 70.977 389.4 572.498
107 0 64.1694 13.7137 880 71.825 389.124 573.368
108 0 66.5594 14.4082 959 70.4557 389.127 572.039
109 0 67.1654 13.1764 885 70.8644 389.363 571.719
110 0 69.3486 13.6124 944 72.2574 389.16 570.124
111 0 73.2586 14.2236 1042 70.7179 388.801 568.417
112 0 75.3827 14.5126 1094 69.9717 388.359 567.28
113 0 78.2606 13.6339 1067 70.7338 388.369 565.47
114 0 80.4484 14.3819 1157 69.1746 388.797 564.311
115 1 41.3073 11.3055 467 71.2655 387.764 584.557
116 0 43.335 11.6072 503 70.3459 388.28 583.417
117 0 44.201 12.6015 557 69.9408 388.233 582.14
118 0 44.2584 13.1501 582 70.4313 388.215 580.744
119 0 48.1658 12.8514 619 69.8659 387.504 579.775
120 0 49.1349 12.313 605 71.4314 388.124 578.736
121 0 49.1112 14.009 688 68.5349 388.016 577.853
122 0 52.2144 12.9466 676 69.284 387.697 577.982
123 0 53.3341 13.1811 703 68.6287 387.799 576.119
124 0 55.2267 13.1277 725 68.1531 387.486 575.677
125 0 58.3032 13.1382 766 66.6775 387.761 575.565
126 0 58.3495 13.4877 787 67.0368 387.764 574.928
127 0 60.126 13.9041 836 66.0443 387.672 572.849
128 0 62.2277 13.2095 822 66.9672 387.133 571.532
129 0 65.3044 13.3069 869 66.3913 387.13 568.777
130 0 68.489 12.8342 879 66.4892 386.869 568.643
131 0 71.3846 12.8739 919 66.3874 387.079 569.126
132 0 71.2637 13.429 957 66.2215 386.938 566.101
133 0 76.3583 12.533 957 66.489 386.92 565.346
134 1 41.2185 10.2381 422 67.5948 386.588 583.36
135 0 41.2517 10.8359 447 67.6532 386.96 581.743
136 0 43.3066 10.1832 441 68.4921 386.891 580.81
137 0 45.2861 11.3501 514 67.3482 386.599 581.021
138 0 46.1844 10.9777 507 67.9389 386.817 579.414
139 0 50.0491 12.6476 633 64.5671 387.011 578.264
140 0 51.1454 11.6139 594 66.7037 386.869 577.53
141 0 52.1222 11.991 625 66.7056 386.995 577.33
142 0 53.114 12.4826 663 66.1508 386.888 575.828
143 0 54.1375 11.6555 631 67.5769 386.821 575.772
144 0 58.1939 12.0287 700 66.71 386.584 574.407
145 0 59.2109 12.5653 744 66.6116 386.454 574.176
146 0 61.2082 11.8612 726 67.6391 386.236 573.129
147 0 60.1565 11.9023 716 68.014 386.503 572.545
148 0 62.1589 11.5993 721 68.6907 386.336 572.94
149 0 66.3648 12.4765 828 67.1558 386.153 571.048
150 0 68.2682 12.5388 856 67.6647 386.354 568.591
151 0 72.1319 12.893 930 66.9914 386.032 568.505
152 0 71.091 11.9987 853 69.6717 386.111 567.34
153 0 74.2168 12.0593 895 69.6916 385.931 565.172
154 0 78.1381 12.8874 1007 68.8679 386.288 564.965
155 0 80.1789 12.2726 984 70.3455 386.325 562.585
156 0 83.0858 13.2514 1101 69.0254 386.233 562.199
157 1 43.0755 10.0057 431 71.0186 385.979 582.585
158 0 46.1102 10.1713 469 69.7356 385.925 581.081
159 0 47.0606 11.1558 525 68.3333 386.274 581.219
160 0 50.0838 11.4408 573 66.5288 385.921 581.96
161 0 51.3541 11.7031 601 66.6589 387.368 579.136
162 0 56.355 12.0309 678 65.7847 387.354 578.381
163 0 55.3408 11.6551 645 67.1829 387.186 576.374
164 0 58.2787 12.8177 747 65.3681 387.174 575.39
165 0 60.2632 12.7939 771 64.7276 387.18 574.746
166 0 62.4015 12.6279 788 65.0114 387.424 574.763
167 0 64.3344 12.6526 814 65.1413 387.07 571.679
168 0 65.4593 13.0615 855 64.2678 387.67 572.811
169 0 67.2766 11.6682 785 66.2943 388.104 570.027
170 0 69.4341 12.6163 876 64.3664 388.192 570.243
171 0 71.4221 11.7051 836 65.933 388.323 567.763
172 0 76.6334 13.0752 1002 63.0828 387.868 567.651
173 0 77.5235 11.9319 925 65.1719 388.106 566.618
174 0 79.5612 12.2547 975 64.9528 387.882 564.592
175 0 82.5409 12.3575 1020 64.7206 388.197 562.939
176 0 85.4145 12.8901 1101 63.4759 388.649 561.929
177 0 89.5895 13.3163 1193 62.6471 388.451 558.599
178 1 49.3147 10.1795 502 64.3466 389.741 580.016
179 0 50.3337 10.49 528 64.2235 389.398 578.614
180 0 53.2559 9.9895 532 64.7312 389.088 577.622
181 0 52.1833 11.2488 587 64.7002 389.181 575.474
182 0 57.082 11.4747 655 63.5053 390.183 573.818
183 0 57.4714 10.788 620 62.9758 388.976 573.261
184 0 57.4546 11.0696 636 63.1258 389.094 573.954
185 0 59.2774 11.5052 682 62.4457 389.135 573.437
186 0 62.3709 10.8544 677 63.4313 389.771 572.641
187 0 63.406 11.3712 721 63.1997 389.537 571.61
188 0 64.3071 12.5492 807 62.482 389.265 566.478
189 0 67.4015 12.0472 812 62.7365 389.453 569.17
190 0 71.3816 12.174 869 62.7687 390.017 567.748
191 0 73.2958 12.6201 925 62.9265 389.792 567.676
192 0 74.5054 12.8313 956 62.4676 389.985 565.956
193 0 75.3127 11.9502 900 63.23 390.096 563.611
194 1 43.3547 10.9792 476 59.2164 390.458 580.607
195 0 43.3423 10.7978 468 60.0449 390.603 579.782
196 0 47.2092 10.8665 513 60.3782 390.511 578.205
197 0 48.324 11.3815 550 62.0145 390.158 577.751
198 0 50.22 11.9275 599 62.5659 390.344 577.653
199 0 52.1845 11.4593 598 64.0017 390.985 577.172
200 0 53.1831 12.0151 639 64.4351 391.41 575.756
201 0 55.1754 12.3062 679 64.1237 391.454 575.672
202 0 56.2194 12.6825 713 64.0014 391.396 573.717
203 0 59.1764 11.8459 701 64.8317 390.969 574.238
204 0 58.1351 12.5741 731 65.528 390.877 572.733
205 0 61.3004 12.0064 736 66.2432 391.22 572.004
206 0 62.1438 12.2619 762 67.0827 391.394 571.455
207 0 64.1937 12.5557 806 67.1749 391.112 571.148
208 0 67.2037 13.2433 890 66.4157 391.615 569.024
209 0 67.1356 13.3461 896 66.9241 391.61 567.577
210 0 68.5248 12.8713 882 67.7109 391.58 566.777
211 0 71.3276 13.5572 967 66.6536 391.427 566.594
212 0 74.1354 13.7047 1016 66.6191 391.376 565.87
213 0 77.252 13.5531 1047 65.9713 391.489 566.994
214 1 43.1378 11.243 485 67.7402 391.938 581.237
215 0 44.1524 11.0753 489 68.4724 391.528 581.016
216 0 44.2806 11.0432 489 67.7791 391.207 581.327
217 0 44.2785 10.7501 476 69.4538 390.592 579.637
218 0 49.3135 11.802 582 66.2234 390.442 579.076
219 0 49.3501 12.2188 603 66.8657 390.348 577.688
220 0 49.2625 11.8346 583 67.9949 390.391 579.25
221 0 50.2849 12.5684 632 67.1076 390.411 579.28
222 0 53.2576 11.9795 638 67.2665 390.464 579.292
223 0 54.1432 12.1714 659 67.2382 389.437 577.123
224 0 55.318 12.1118 670 68.1403 390.001 575.137
225 0 57.225 12.4421 712 67.7079 389.485 574.045
226 0 60.2086 12.9716 781 66.6581 389.323 572.857
227 0 61.2156 13.0522 799 66.5945 388.84 573.556
228 0 63.2236 12.606 797 67.6738 388.961 572.449
229 0 64.2052 12.756 819 67.5726 388.75 571.463
230 0 64.2626 12.7135 817 68.5129 388.748 571.718
231 0 67.2085 13.2721 892 67.7365 388.981 569.012
232 0 69.181 12.8503 889 69.0472 388.793 568.939
233 0 73.3704 13.7249 1007 66.856 388.824 567.726
234 0 74.3708 12.868 957 68.582 388.832 566.272
235 0 77.3866 14.0851 1090 66.5523 388.472 565.309
236 0 78.2891 13.6034 1065 68.4798 388.7 563.661
237 0 80.3382 13.6174 1094 68.3373 388.24 562.541
238 0 84.3285 13.0917 1104 69.0072 387.968 560.984
239 0 85.3203 13.631 1163 68.2889 388.41 561.33
240 0 89.199 12.971 1157 68.8574 388.369 559.755
241 0 91.4263 12.2394 1119 69.8454 388.186 559.237
242 1 49.2016 11.3818 560 67.0357 388.752 581.589
243 0 50.2205 11.788 592 68.0997 388.019 578.965
244 0 50.1959 11.5348 579 69.3092 387.589 578.598
245 0 53.2056 12.0476 641 68.0156 387.729 578.686
246 0 55.2591 12.3238 681 67.8913 387.725 576.125
247 0 56.2896 11.9738 674 67.7255 387.837 575.564
248 0 59.2967 13.306 789 65.2015 387.959 575.381
249 0 61.2052 12.6787 776 66.509 388.13 574.646
250 0 62.2027 13.247 824 66.1541 387.851 573.244
251 0 64.1708 12.8407 824 66.6626 388.152 572.767
252 0 64.2131 12.1159 778 68.1838 387.846 572.251
253 0 68.3137 13.2624 906 66.4437 388.234 569.956
254 0 71.289 13.0735 932 66.9238 388.163 570.074
255 0 71.3515 13.7629 982 67.0967 388.256 568.575
256 0 74.4389 13.2726 988 68.0445 388.252 568.565
257 0 75.2486 13.369 1006 68.8052 388.129 565.867
258 0 81.3719 13.6411 1110 68.2441 387.709 563.641
259 0 82.1777 13.1909 1084 69.2149 387.495 563.706
260 0 85.2952 12.955 1105 69.8796 387.644 563.831
261 1 45.2929 11.26 510 68.8647 387.792 583.71
262 0 46.175 10.4819 484 70.186 387.302 583.924
263 0 48.273 10.9171 527 69.3416 387.653 584.146
264 0 47.3292 11.4517 542 69.6882 387.732 584.526
265 0 49.2113 11.5421 568 70.3046 387.593 582.486
266 0 52.2956 12.1808 637 70.2292 388.229 580.388
267 0 53.2601 12.5234 667 69.5742 387.946 580.957
268 0 55.3277 12.7965 708 69.1356 388.194 579.23
269 0 57.1919 12.5193 716 69.2723 388.314 579.302
270 0 58.3258 12.6874 740 69.9622 388.676 578.03
271 0 59.3234 12.8786 764 161.644 389.688 577.285
272 0 61.4259 12.2424 752 70.5426 388.427 575.83
273 0 63.3238 12.6335 800 69.3262 388.565 574.374
274 0 65.3149 12.8455 839 69.7938 388.35 572.923
275 0 67.289 12.5875 847 69.4345 388.77 573.642
276 0 69.4648 12.8266 891 69.6352 388.991 570.731
277 0 71.4664 12.3275 881 70.4143 389.064 570.272
278 0 74.3888 13.3891 996 69.0151 388.844 566.942
279 0 75.4063 12.4525 939 70.7689 389.546 568.033
280 0 79.5209 13.2921 1057 69.1826 389.441 564.784
281 0 80.3362 12.5722 1010 70.3406 389.701 562.539
282 0 84.4805 12.3461 1043 70.5436 389.871 561.839
283 1 45.4135 10.6576 484 69.2045 390.337 581.545
284 0 45.2626 10.892 493 69.4503 390.803 581.462
285 0 47.3757 11.1027 526 69.2833 390.513 580.148
286 0 50.3069 11.2907 568 69.7324 390.748 579.6
287 0 50.2955 11.85 596 69.7483 390.24 579.7
288 0 52.275 12.2812 642 68.6916 390.636 577.819
289 0 54.2177 12.2654 665 68.6932 390.863 574.647
290 0 56.6109 11.5702 655 68.8977 390.924 574.156
291 0 59.3798 12.3611 734 67.1158 391.383 573.95
292 0 61.3444 13.2531 813 66.032 391.91 572.221
293 0 62.2573 12.0307 749 67.757 391.571 570.593
294 0 66.3624 12.0701 801 67.1061 392.006 570.116
295 0 66.3624 12.1304 805 148.36 393.012 570.026
296 0 69.3113 13.1869 914 66.2626 392.214 567.028
297 0 70.4325 12.6788 893 67.4087 391.914 565.772
298 0 72.4699 12.1568 881 68.7174 392.388 563.476
299 0 75.3266 13.5543 1021 66.0813 392.478 562.16
300 0 78.3942 12.603 988 67.4271 392.69 563.014
301 0 80.5635 12.7229 1025 66.9444 393.009 561.56
302 1 44.3323 10.8273 480 65.8062 393.685 580.238
303 0 46.2642 9.98613 462 67.0563 394.219 579.247
304 0 45.2759 10.5133 476 67.5777 393.532 579.21
305 0 46.3189 10.4493 484 67.845 393.694 578.227
306 0 50.2395 11.6243 584 65.5976 393.582 576.252
307 0 51.3069 11.1681 573 66.007 393.578 574.602
308 0 53.2467 11.9632 637 63.7221 393.449 575.173
309 0 53.2884 11.6348 620 65.5339 393.763 573.465
310 0 54.1819 11.5537 626 66.1198 393.521 573.109
311 0 58.2183 12.8654 749 63.9226 393.123 572.971
312 0 57.335 12.1566 697 66.4046 392.927 571.532
313 0 58.2187 12.2298 712 66.316 393.275 571.122
314 0 61.2963 12.8719 789 65.1331 392.399 568.943
315 0 62.2895 11.2378 700 68.3657 392.95 568.293
316 0 65.1391 12.0665 786 66.2074 392.855 568.009
317 0 66.2002 12.6284 836 66.3852 392.597 567.097
318 0 68.1849 13.0381 889 65.7998 392.073 566.252
319 0 72.2085 13.004 939 65.901 392.576 564.146
320 0 73.2199 12.8517 941 66.8937 392.365 564.604
321 0 77.2236 13.3897 1034 65.5319 392.182 562.846
322 0 79.2055 13.6102 1078 65.7755 392.362 560.723
323 1 44.0959 11.0668 488 66.7807 392.611 578.617
324 0 44.0847 10.9562 483 66.7101 392.369 578.886
325 0 46.2203 11.1639 516 67.3159 392.18 577.331
326 0 48.1835 11.6637 562 66.3256 392.416 577.208
327 0 47.4043 12.3406 585 66.4 392.147 577.01
328 0 50.2351 11.705 588 67.2483 392.151 575.168
329 0 51.3206 12.5875 646 66.2012 391.845 575.48
330 0 51.1792 13.0913 670 66.2985 391.436 574.63
331 0 52.1963 12.4147 648 67.8364 391.15 573.394
332 0 54.2149 13.4834 731 66.1436 391.301 573.267
333 0 57.1737 12.6982 726 66.8512 391.168 573.107
334 0 58.164 13.0321 758 66.8734 391.594 573.018
335 0 60.2258 13.0509 786 66.8524 391.153 573.01
336 0 61.1891 12.3878 758 68.4881 390.644 571.675
337 0 63.2825 12.2783 777 68.408 390.519 571.541
338 0 65.1875 12.5638 819 67.9463 390.694 570.411
339 0 68.2131 12.7102 867 68.316 390.315 567.659
340 0 70.2571 13.1375 923 67.1528 390.667 567.813
341 0 72.1329 12.3661 892 69.093 390.239 565.796
342 1 37.0487 9.66297 358 70.6397 391.017 583.561
343 0 39.0649 10.137 396 69.9747 390.72 582.232
344 0 40.0386 11.2142 449 68.7639 390.503 580.942
345 0 43.0601 11.1704 481 68.1081 390.802 580.609
346 0 43.2617 12.2048 528 66.2311 390.871 580.027
347 0 44.2263 12.0743 534 67.2622 390.442 580.83
348 0 44.1702 11.9085 526 67.443 390.26 579.502
349 0 47.1805 11.721 553 67.0687 390.022 579.564
350 0 47.094 12.5494 591 67.621 390.068 578.398
351 0 49.1186 12.5411 616 67.5357 389.873 577.615
352 0 50.1793 12.0169 603 68.6882 390.247 576.262
353 0 51.3415 13.7121 704 65.9077 389.682 576.72
354 0 52.1669 11.9999 626 69.1933 389.867 575.211
355 0 55.1348 12.8231 707 67.6846 390.185 574.975
356 0 54.1657 12.6095 683 68.735 389.892 574.754
357 0 57.205 12.4989 715 68.6545 389.972 573.594
358 0 59.0743 11.7649 695 69.8863 390.317 573.302
359 0 61.081 13.2283 808 66.9975 390.123 573.327
360 0 63.2031 12.2304 773 69.0142 389.984 571.858
361 0 65.1152 13.8217 900 66.4711 389.857 570.417
362 0 65.1071 12.9018 840 68.906 389.895 569.014
363 0 69.1389 13.4512 930 67.7129 389.254 568.805
364 0 70.1404 14.0575 986 67.3103 389.281 567.075
365 0 72.0959 14.2727 1029 67.5112 389.104 567.051
366 0 74.1395 13.4206 995 69.1377 389.517 564.354
367 0 76.0826 13.5116 1028 69.5253 389.777 564.078
368 0 78.0596 12.926 1009 70.4747 390.133 563.733
369 0 80.1314 13.6651 1095 69.5589 390.375 563.968
370 0 84.1203 13.4569 1132 69.9231 390.559 561.108
371 0 85.1013 13.5251 1151 70.2198 390.618 560.543
372 0 86.2179 13.8254 1192 70.2324 390.636 558.91
373 0 90.0748 13.1002 1180 70.7517 390.457 558.508
374 0 93.0969 13.5343 1260 70.2437 390.726 555.14
375 1 49.0498 10.5607 518 69.9498 391.566 580.06
376 0 52.104 10.9781 572 67.7675 391.126 577.907
377 0 53.1441 10.782 573 67.7522 391.581 576.908
378 0 54.1343 11.5084 623 67.4238 391.894 574.607
379 0 55.1645 12.1999 673 66.321 392.175 572.917
380 0 58.1191 11.8206 687 66.6434 391.905 573.21
381 0 60.194 13.8386 833 63.6435 392.289 571.277
382 0 63.2308 13.9963 885 62.7672 392.087 571.268
383 0 64.1415 12.6439 811 64.9482 392.248 568.776
384 0 65.1347 12.1748 793 65.6469 392.569 568.223
385 0 68.1585 12.5003 852 64.7324 392.338 568.696
386 0 70.2145 12.8748 904 63.9867 392.249 565.939
387 0 71.1428 13.0864 931 63.9151 391.785 565.677
388 0 76.1598 13.3404 1016 63.2598 392.078 562.731
389 0 77.2042 13.0045 1004 63.753 392.152 563.029
390 0 81.2376 13.1836 1071 63.0037 392.662 560.503
391 0 84.1267 13.0755 1100 63.3491 393.075 558.175
392 0 87.2651 13.098 1143 62.8434 392.822 557.373
393 1 46.0278 11.0803 510 62.9353 392.575 577.749
394 0 48.0597 10.8615 522 62.7031 392.513 577.393
395 0 50.1391 11.5678 580 62.0621 392.633 574.966
396 0 52.2441 11.5994 606 62.4934 393.998 573.729
397 0 53.2036 12.4616 663 61.8084 393.974 572.707
398 0 54.2817 12.693 689 61.672 394.213 571.939
399 0 57.2353 12.4224 711 61.9873 394.208 570.297
400 0 58.2301 11.2141 653 62.7534 394.611 570.508
401 0 60.1872 12.162 732 61.7008 394.474 569.48
402 0 62.2243 12.021 748 61.7567 394.214 566.561
403 0 63.2315 11.4974 727 62.1499 394.546 566.641
404 0 65.2343 11.8496 773 61.2937 394.59 567
405 0 68.2291 12.2528 836 60.7261 394.182 564.758
406 0 71.1766 12.1669 866 61.0231 394.299 564.416
407 0 73.1575 12.644 925 60.6649 394.366 563.03
408 0 76.2393 13.2084 1007 59.6812 394.339 561.77
409 0 79.1429 12.9765 1027 60.0906 394.493 560.065
410 1 42.1026 10.9969 463 58.8402 395.635 580.415
411 0 40.2702 9.46109 381 61.8819 395.15 579.465
412 0 44.2205 10.3798 459 60.7495 394.885 576.505
413 0 46.3711 11.6883 542 58.441 394.319 576.319
414 0 46.3163 11.8533 549 59.2842 394.333 576.069
415 0 48.3471 12.3068 595 57.4521 394.476 575.966
416 0 48.3403 12.2051 590 58.4847 393.686 575.164
417 0 50.3785 11.7312 591 59.3993 393.547 574.467
418 0 52.2591 12.2849 642 59.1449 393.762 573.291
419 0 52.2395 11.0836 579 60.7686 393.565 573.508
420 0 54.2299 11.8938 645 59.7597 393.264 571.952
421 0 55.2049 12.4446 687 59.69 392.83 573.705
422 0 59.3131 12.021 713 60.223 392.837 570.959
423 0 61.2729 12.4525 763 59.6684 392.636 571.861
424 0 61.2625 12.1608 745 60.6685 392.648 569.664
425 0 61.2057 12.7439 780 60.6436 392.129 569.651
426 0 65.1964 13.1296 856 59.889 391.965 567.685
427 0 67.3631 12.9299 871 60.2331 391.726 566.933
428 0 69.3995 12.709 882 60.7812 391.385 566.447
429 0 71.2362 13.1394 936 60.5929 391.218 565.368
430 0 74.3631 12.8827 958 61.5585 391.26 564.897
431 1 41.2045 10.0474 414 63.6184 392.114 580.15
432 0 42.2057 9.69064 409 63.8337 391.853 580.944
433 0 44.3602 11.0685 491 62.3116 391.65 580.652
434 0 44.4113 11.6412 517 61.1857 391.035 579.619
435 0 45.4711 11.8977 541 61.586 391.311 579.616
436 0 46.3803 11.9232 553 61.8174 391.184 579.181
437 0 47.3978 11.8571 562 62.7456 391.562 579.468
438 0 49.3367 12.4248 613 62.7031 390.959 576.666
439 0 51.2304 12.1412 622 62.7894 391.492 578.034
440 0 53.4474 12.6854 678 61.7493 391.105 576.822
441 0 54.3102 12.2076 663 62.6953 390.934 575.992
442 0 57.2548 12.9247 740 61.4176 390.416 574.022
443 0 58.3028 12.7438 743 61.9744 390.386 573.903
444 0 59.1202 12.3815 732 62.4768 391.046 574.742
445 0 62.443 12.4433 777 62.8636 390.7 573.408
446 0 64.1624 12.671 813 62.8499 390.684 572.24
447 0 67.2273 13.2982 894 61.472 390.67 570.311
448 0 67.1237 12.9313 868 62.8053 390.318 570.502
449 0 71.2611 12.9804 925 62.2508 390.391 568.544
450 0 71.3646 12.4992 892 63.7074 389.953 565.343
451 0 72.3197 13.2191 956 62.4163 390.457 565.99
452 0 77.3221 13.2562 1025 62.1229 390.111 563.639
453 0 80.3882 13.4348 1080 61.6 389.724 563.013
454 0 82.2377 13.1083 1078 62.2468 390.123 563.79
455 1 43.2594 11.0496 478 62.5565 390.738 581.513
456 0 44.1589 11.0057 486 62.428 390.428 581.2
457 0 44.1189 10.857 479 62.8852 390.43 580.259
458 0 47.3122 10.5047 497 62.0664 390.183 581.507
459 0 49.5076 11.8164 585 60.4342 389.738 579.48
460 0 51.3466 12.3474 634 60.2461 389.978 579.003
461 0 49.2873 12.2141 602 62.1545 389.739 578.196
462 0 52.4949 13.106 688 60.5887 389.927 578.124
463 0 52.3744 12.5825 659 61.9484 389.731 577.951
464 0 53.2362 12.8296 683 61.7613 389.594 577.406
465 0 57.3659 12.8996 740 61.1608 389.895 577.526
466 0 56.2501 12.2844 691 63.6498 389.64 575.548
467 0 58.3716 13.2599 774 62.7765 389.881 574.761
468 0 60.2569 12.6459 762 63.437 389.698 574.101
469 0 61.4671 12.2342 752 64.6795 389.424 572.762
470 0 65.3424 12.7329 832 63.1358 389.374 573.129
471 0 65.3559 13.0516 853 63.7222 389.478 571.615
472 0 68.3711 12.2713 839 64.8451 389.223 571.237
473 0 69.3722 12.6852 880 64.8284 389.386 570.425
474 0 73.2858 13.0175 954 63.7537 389.039 569.47
475 0 76.3161 14.0075 1069 62.5267 389.384 568.211
476 1 41.2884 10.9958 454 64.8965 391.018 584.551
477 0 41.2053 10.7511 443 66.2348 390.756 584.217
478 0 43.2211 10.2959 445 65.6135 390.517 583.874
479 0 43.2664 11.3945 493 64.7606 390.369 582.615
480 0 44.124 12.5102 552 63.9275 390.159 580.531
481 0 46.007 12.0199 553 64.7161 389.42 579.642
482 0 48.1208 11.6997 563 64.3091 390.476 581.549
483 0 48.1863 12.2234 589 64.5178 390.406 580.275
484 0 51.1319 11.6366 595 64.3782 390.481 580.366
485 0 53.2156 12.5527 668 62.8533 390.828 578.731
486 0 55.2743 12.0128 664 63.5377 390.997 578.303
487 0 58.1689 13.7359 799 60.6045 390.836 577.136
488 0 57.2892 12.1663 697 64.1636 390.76 575.372
489 0 59.3025 12.1074 718 63.9359 390.819 575.563
490 0 60.2003 12.5913 758 64.2704 391.045 574.212
491 0 63.195 13.4663 851 62.7873 391.089 573.384
492 0 66.234 13.6335 903 62.5105 391.047 571.898
493 0 65.2156 12.405 809 65.5612 391.101 571.255
494 0 69.2819 13.4234 930 63.557 391.095 569.73
495 0 72.2712 13.7122 991 63.22 390.988 567.56
496 0 74.3045 13.512 1004 63.5149 391.034 566.019
497 1 39.1895 9.33924 366 64.6066 391.74 585.587
498 0 40.1128 11.5425 463 62.4708 391.92 584.134
499 0 41.1394 10.1363 417 65.3813 392.149 583.002
500 0 43.1996 11.2501 486 63.2984 391.654 583.963
501 0 44.2086 11.7398 519 63.4547 391.657 583.143
502 0 44.22 11.8272 523 63.6788 391.262 581.629
503 0 46.3166 12.3498 572 62.8427 391.049 581.189
504 0 46.2572 12.5602 581 63.5869 390.833 580.714
505 0 48.2449 12.706 613 63.721 391.106 579.199
506 0 50.362 12.6683 638 63.8386 391.177 578.813
507 0 53.2494 13.4274 715 62.358 391.448 578.771
508 0 54.416 13.3233 725 62.5766 391.181 577.954
509 0 54.2053 12.7478 691 64.5051 390.958 575.284
510 0 55.359 13.0783 724 64.1671 390.948 576.442
511 0 57.3669 13.0912 751 63.9387 391.116 574.957
512 0 59.1837 13.9734 827 62.7122 390.785 573.503
513 0 59.2451 12.6424 749 64.9826 390.705 573.702
514 0 63.3094 13.3313 844 62.9941 391.039 573.16
515 0 65.3304 13.2863 868 63.4977 391.22 571.376
516 0 67.1765 13.6208 915 61.7672 391.128 570.714
517 0 68.2109 12.4174 847 63.3566 391.523 569.789
518 0 71.18 13.5572 965 61.8145 391.309 567.258
519 0 73.1635 13.709 1003 61.1346 391.099 566.461
520 0 75.1764 13.0892 984 62.2998 391.573 565.623
521 0 76.248 13.6004 1037 61.5024 390.75 565.635
522 0 80.4723 13.7687 1108 60.9666 391.2 562.496
523 1 42.1159 10.1862 429 62.6876 391.93 583.389
524 0 46.2338 11.6581 539 60.7403 392.573 581.173
525 0 48.1116 11.993 577 60.175 392.385 580.575
526 0 49.1601 12.7339 626 59.7173 392.343 579.821
527 0 49.1769 12.4042 610 60.7393 392.323 577.726
528 0 53.2242 13.0768 696 59.7744 391.917 575.211
529 0 55.2788 12.6269 698 59.6862 393.009 575.65
530 0 57.4088 13.099 752 59.1263 391.855 574.376
531 0 57.4088 13.0642 750 153.86 390.843 574.432
532 0 57.382 13.2097 758 60.4406 391.971 573.36
533 0 59.203 12.55 743 60.9152 391.992 573.225
534 0 60.339 12.8772 777 61.39 392.148 571.718
535 0 61.315 12.2645 752 62.117 392.327 571.191
536 0 64.4115 13.1032 844 61.7441 392.185 569.212
537 0 65.2871 13.2339 864 61.1435 391.347 567.936
538 0 68.2333 13.3366 910 60.9505 391.526 567.231
539 0 69.22 13.4065 928 61.2748 391.94 564.421
540 0 76.3127 14.3357 1094 58.8071 391.264 564.346
541 0 76.1423 13.9607 1063 60.2549 391.921 563.986
542 0 80.2019 13.3912 1074 60.6629 390.819 560.435
543 0 83.2775 13.8213 1151 60.1442 391.166 560.554
544 1 45.0479 10.4777 472 60.6992 391.025 579.722
545 0 46.0681 12.0474 555 60.6414 390.589 576.908
546 0 47.1476 11.6019 547 61.2687 390.49 576.903
547 0 50.0535 11.5676 579 61.0035 390.301 576.271
548 0 50.1744 11.7988 592 60.8851 390.446 574.522
549 0 53.0626 13.7762 731 57.7866 391.19 574.265
550 0 53.1745 12.8821 685 59.7212 390.585 573.634
551 0 55.0725 13.7637 758 58.8179 390.803 573.12
552 0 57.0875 13.2253 755 59.053 390.281 572.987
553 0 60.0484 13.6557 820 58.2573 390.002 573.141
554 0 59.0886 14.1483 836 58.6352 390.145 572.578
555 0 62.2049 14.6452 911 58.0823 390.573 571.56
556 0 64.2035 13.4105 861 59.561 390.209 569.871
557 0 66.1646 13.6931 906 59.3124 389.959 568.024
558 0 67.0985 13.4578 903 60.1506 390.124 566.819
559 0 70.2298 13.2992 934 60.0011 390.218 566.125
560 0 71.1767 13.5438 964 60.2946 390.049 565.643
561 0 73.2018 14.0707 1030 60.0816 389.811 564.366
562 0 77.3127 13.5165 1045 60.2239 389.795 562.418
563 0 80.4046 13.5067 1086 60.3039 389.754 562.471
564 0 80.272 12.1587 976 62.8453 389.593 560.599
565 1 43.0758 11.1664 481 62.1206 389.823 580.031
566 0 45.3011 11.5229 522 60.6418 389.37 580.13
567 0 45.1852 11.2205 507 61.8738 389.043 578.755
568 0 48.2845 12.0328 581 61.1893 389.391 578.239
569 0 48.1802 12.391 597 61.1876 389.899 576.975
570 0 52.0654 12.5803 655 61.0153 389.56 576.058
571 0 53.1311 12.4409 661 61.944 388.616 574.862
572 0 54.0606 12.338 667 62.3343 389.163 574.199
573 0 57.0479 13.1293 749 60.9186 389.271 574.124
574 0 59.1538 13.1183 776 61.5515 388.713 572.853
575 0 60.1949 12.3432 743 62.7591 388.464 572.875
576 0 63.0891 12.0623 761 62.8541 388.641 571.477
577 0 64.1647 12.7952 821 62.9245 387.672 569.968
578 0 66.2288 13.3779 886 61.9266 387.898 569.292
579 0 68.17 13.5837 926 61.7646 387.662 568.157
580 0 70.1795 13.665 959 61.9385 387.739 565.754
581 0 76.1704 13.9162 1060 60.2821 387.378 566.784
582 0 76.2389 13.156 1003 61.7039 387.437 565.736
583 0 78.2062 13.3877 1047 61.9198 387.166 562.096
584 0 81.3142 13.0359 1060 62.1009 388.035 562.71
585 0 86.2045 13.5724 1170 60.8889 387.792 561.237
586 0 87.2001 13.6582 1191 61.7078 388.07 558.797
587 0 89.2626 12.9842 1159 62.7575 387.407 557.918
588 1 44.0492 9.42127 415 63.7807 386.959 582.205
589 0 47.0223 11.1437 524 62.3015 387.183 579.782
590 0 49.0153 11.5474 566 62.5318 386.733 581.117
591 0 50.0384 12.5903 630 62.0397 387.149 578.484
592 0 52.0743 12.7126 662 60.7266 387.166 579.666
593 0 55.1775 13.1394 725 60.9545 387.501 576.629
594 0 56.0688 12.9662 727 60.9546 387.746 576.92
595 0 56.1179 13.24 743 60.5276 387.24 576.447
596 0 59.2652 13.2624 786 60.3461 387.246 575.522
597 0 61.1103 13.2384 809 60.3795 387.169 574.158
598 0 63.0969 13.5981 858 60.2145 387.216 571.99
599 0 65.249 13.2569 865 61.2162 387.09 571.274
600 0 67.3968 13.1757 888 61.6261 386.849 570.48
601 0 69.2025 12.9909 899 61.5239 386.56 568.804
602 0 72.1705 12.8307 926 61.6048 386.346 568.215
603 0 75.2508 13.2889 1000 61.186 386.647 565.334
604 0 77.2636 12.9945 1004 61.6504 386.619 563.325
605 0 80.1775 13.0585 1047 60.9265 387.132 564.16
606 0 82.2636 13.1285 1080 61.0546 387.133 561.166
607 0 88.2711 13.2773 1172 60.6015 387.297 560.362
608 0 91.3775 13.4497 1229 61.3987 386.829 560.135
609 1 46.193 11.2355 519 62.6647 387.532 580.198
610 0 49.1903 11.547 568 62.706 387.134 578.861
611 0 50.2026 12.1308 609 62.0066 386.911 578.424
612 0 51.1827 12.4065 635 62.0583 386.831 578.131
613 0 52.1615 11.9245 622 62.926 387.359 577.487
614 0 55.2435 13.4496 743 60.9933 387.502 576.137
615 0 54.1639 12.6653 686 63.3338 387.659 574.806
616 0 58.2184 12.6421 736 62.7296 386.984 574.904
617 0 59.1413 13.138 777 61.8571 387.275 573.381
618 0 62.3174 13.2547 826 60.8002 387.138 572.892
619 0 62.1949 13.0557 812 61.7968 387.67 569.787
620 0 64.2426 14.4141 926 60.0022 387.228 569.688
621 0 68.2902 13.018 889 60.9651 387.345 570.328
622 0 69.197 13.8301 957 60.2173 387.501 569.613
623 0 71.195 13.9195 991 60.5681 387.805 567.774
624 0 72.2355 12.833 927 62.6861 387.857 565.282
625 0 74.4341 13.7168 1021 61.0402 387.66 565.243
626 0 78.2458 14.8251 1160 59.3103 388.153 563.363
627 0 78.3526 13.1712 1032 62.1579 387.936 562.987
628 0 84.1496 13.4285 1130 61.1779 388.474 562.212
629 1 44.1943 11.1553 493 61.783 387.907 581.292
630 0 44.0951 11.4298 504 60.9861 388.125 582.101
631 0 44.1141 10.7449 474 62.0105 388.07 580.046
632 0 46.1227 12.2933 567 60.2998 388.055 578.878
633 0 47.0826 11.6391 548 60.4453 388.987 577.887
634 0 50.0747 12.8408 643 59.1944 388.345 576.479
635 0 52.0705 12.8096 667 60.1964 389.123 576.067
636 0 55.0576 13.0409 718 59.2033 388.66 576.946
637 0 56.1389 12.6116 708 60.3743 388.791 574.631
638 0 57.0381 13.0614 745 59.7933 389.165 574.632
639 0 58.1594 12.5517 730 60.1644 389.121 575.064
640 0 61.1283 12.8418 785 59.5197 388.778 573.293
641 0 63.1655 12.7918 808 59.9022 389.577 572.255
642 0 66.0605 13.0789 864 59.4641 390.189 572.241
643 0 66.2351 13.2105 875 60.0446 390 569.31
644 0 68.1782 12.4087 846 61.1537 389.952 567.92
645 0 71.1793 14.1333 1006 59.3668 390.929 567.912
646 0 72.1008 12.6767 914 61.9814 390.636 565.129
647 0 76.1952 13.5835 1035 60.2164 390.883 564.367
648 0 79.1131 13.0446 1032 61.1202 391.379 562.762
649 0 83.2166 13.6391 1135 59.9445 391.637 561.917
650 1 42.0511 11.9379 502 60.3586 391.243 580.709
651 0 42.1074 10.9244 460 61.1696 390.804 581.435
652 0 44.2013 11.2214 496 61.6069 390.026 578.663
653 0 45.1571 12.3347 557 61.0197 389.971 579.178
654 0 48.2096 13.0679 630 59.7587 389.605 577.232
655 0 46.1382 11.9857 553 62.7432 390.42 576.729
656 0 50.1563 12.7003 637 61.0644 390.21 576.359
657 0 51.2599 11.8611 608 61.9622 390.026 576.929
658 0 53.1444 13.0211 692 60.7457 390.331 572.795
659 0 57.4132 12.9413 743 59.638 390.039 572.658
660 0 56.1847 12.5301 704 61.6747 391.038 569.393
661 0 60.2399 13.9774 842 59.361 390.412 569.205
662 0 62.2937 12.3608 770 61.7468 390.543 567.744
663 0 65.396 13.3036 870 60.1138 390.622 566.064
664 0 67.2774 12.5005 841 61.5826 391.03 566.157
665 0 68.3583 13.5463 926 60.3974 391.127 566.892
666 0 69.3211 12.3483 856 63.0269 391.354 564.53
667 0 72.4857 14.0717 1020 60.6627 391.602 563.473
668 0 74.3599 13.2598 986 62.6369 392.152 562.665
669 0 76.3789 12.7391 973 63.7194 392.082 559.138
670 0 79.5089 12.7784 1016 63.5768 391.9 560.162
671 0 81.2392 13.1587 1069 63.3124 391.985 557.803
672 1 41.2657 11.0503 456 63.6382 392.432 577.893
673 0 39.1535 10.9058 427 66.5363 392.288 575.728
674 0 45.3558 11.4428 519 64.2274 392.316 575.584
675 0 44.1169 10.5855 467 65.5696 392.36 574.942
676 0 45.2966 11.5903 525 64.7714 392.802 575.914
677 0 48.2819 12.2406 591 63.5448 392.609 575.724
678 0 48.0935 11.4569 551 64.4664 392.383 573.871
679 0 49.1794 11.4479 563 64.5062 392.48 573.709
680 0 52.1079 11.956 623 63.9486 392.594 572.461
681 0 53.4683 12.7365 681 62.8546 392.791 572.097
682 0 54.2998 13.4255 729 62.417 392.583 572.409
683 0 56.2645 13.0989 737 62.8073 392.645 571.845
684 0 57.1003 11.5411 659 65.0607 393.3 569.844
685 0 59.3158 12.9308 767 63.4003 393.254 568.477
686 0 61.235 12.6398 774 63.6873 392.501 567.528
687 0 62.1945 13.3613 831 63.2491 393.194 566.756
688 0 65.2483 12.9199 843 63.6572 392.249 565.783
689 0 66.2165 13.3652 885 63.8927 392.672 564.607
690 0 69.3291 12.52 868 65.1187 392.434 564.521
691 0 71.3134 12.7185 907 64.7652 392.988 563.541
692 0 72.3963 13.8957 1006 63.4284 392.18 560.752
693 0 76.5348 13.8369 1059 63.1549 392.225 560.17
694 0 78.2714 13.351 1045 64.1043 391.548 557.869
695 0 80.3213 12.9978 1044 64.501 391.452 557.386
696 0 83.2618 13.3194 1109 63.8242 392.464 556.595
697 0 86.3756 13.4992 1166 63.4503 392.184 554.595
698 1 42.1488 10.4155 439 64.9112 392.219 576.608
699 0 45.2288 11.1876 506 63.4348 392.3 576.53
700 0 45.1252 10.77 486 64.1975 391.743 575.321
701 0 47.0872 12.084 569 62.522 391.46 574.522
702 0 46.2428 12.2181 565 62.5204 391.278 574.439
703 0 52.2299 13.0577 682 60.0352 390.997 574.233
704 0 53.1866 13.2364 704 60.7741 391.219 574.132
705 0 52.0796 11.9433 622 63.0836 390.883 573.661
706 0 54.1198 12.2691 664 62.9533 391.033 571.508
707 0 56.0779 13.1068 735 61.215 390.864 572.067
708 0 59.132 13.3769 791 59.6637 390.633 570.87
709 0 60.1076 12.7272 765 61.0941 390.344 568.235
710 0 62.206 13.5196 841 64.264 389.966 567.125
711 0 65.181 12.9946 847 64.8453 389.806 566.77
712 0 66.2955 12.0973 802 66.0786 389.804 565.231
713 0 68.335 12.5851 860 65.9116 390.583 564.902
714 0 68.4134 12.1321 830 67.1639 390.659 563.395
715 0 71.2712 13.6942 976 65.0891 390.433 564.894
716 0 73.22 13.0565 956 66.2824 390.483 563.278
717 0 76.2147 12.3073 938 67.2026 390.527 563.124
718 0 77.253 13.7341 1061 65.9548 390.636 560.521
719 0 80.2077 13.1783 1057 67.0918 390.388 559.281
720 0 83.2705 13.1379 1094 66.8848 390.484 558.791
721 0 86.3946 14.1097 1219 66.1641 390.202 557.078
722 0 88.1494 13.4658 1187 67.1129 390.078 555.18
723 0 92.2828 14.358 1325 65.7494 389.789 557.021
724 0 93.2809 12.1783 1136 68.6215 389.535 553.765
725 0 97.2606 13.4792 1311 67.9436 389.291 550.653
726 0 101.331 12.9871 1316 66.7553 389.173 549.654
727 0 105.489 13.1577 1388 66.5569 388.865 549.914
728 0 109.439 14.0078 1533 66.21 388.559 547.5
729 0 110.473 13.0258 1439 67.3662 388.935 545.202
730 1 56.0414 11.2952 633 66.8152 389.171 573.354
731 0 60.1275 13.2385 796 64.4598 389.183 571.312
732 0 61.1688 12.8497 786 64.341 389.221 571.491
733 0 64.1076 13.4149 860 63.8523 389.064 569.443
734 0 66.0806 13.9073 919 63.5658 389.182 568.871
735 0 68.1228 13.505 920 63.7674 388.575 567.168
736 0 70.1835 12.6098 885 64.2938 387.919 567.803
737 0 72.1743 12.5807 908 64.6112 388.035 566.392
738 0 74.1902 13.0475 968 64.3698 388.401 564.865
739 0 77.1309 12.6668 977 64.653 388.154 562.605
740 0 79.1655 12.7328 1008 64.4802 388.152 560.48
741 0 85.2918 13.2135 1127 63.1952 388.045 561.043
742 0 86.1087 12.8791 1109 63.9288 388.601 559.455
743 0 89.3543 13.2059 1180 63.7847 388.403 557.744
744 0 92.1172 13.6891 1261 63.4806 388.245 557.002
745 1 51.0419 9.52159 486 63.7202 387.813 579.167
746 0 51.0755 11.3557 580 62.7569 388.414 577.086
747 0 53.119 10.4671 556 62.5144 388.288 578.246
748 0 56.0955 12.1044 679 61.8571 388.467 575.508
749 0 56.0827 12.2498 687 61.7671 388.424 575.936
750 0 57.065 11.9338 681 62.1703 388.023 573.247
751 0 60.0269 12.511 751 61.1824 387.804 573.562
752 0 62.0359 11.8157 733 63.09 387.816 571.723
753 0 65.0475 11.899 774 63.0388 387.598 570.864
754 0 66.1574 12.7575 844 62.282 387.332 569.637
755 0 66.1779 11.4842 760 64.4013 387.249 568.467
756 0 69.2224 13.9261 964 61.6763 386.886 569.23
757 0 71.1503 13.9423 992 61.9607 386.859 569.914
758 0 73.1205 12.8281 938 64.0512 387.152 565.764
759 0 74.0908 12.2957 911 65.3502 387.172 567.652
760 0 78.1796 13.712 1072 64.4552 387.032 564.297
761 0 80.3559 13.1664 1058 64.775 386.993 562.726
762 0 83.5726 12.9708 1084 65.5369 387.545 562.158
763 0 86.286 13.3394 1151 65.6924 387.558 559.899
764 0 87.3767 11.1586 975 68.8246 387.601 559.985
765 0 90.1888 12.1301 1094 68.192 387.139 558.438
766 1 47.2362 10.1617 480 67.75 387.281 579.298
767 0 50.2485 11.1446 560 66.9143 387.779 578.227
768 0 53.1647 11.7935 627 65.8708 387.38 578.506
769 0 55.1052 12.4852 688 65.5509 387.871 576.577
770 0 55.0487 11.2809 621 67.9871 387.779 575.699
771 0 58.1726 12.291 715 65.8727 388.168 575.403
772 0 58.2334 11.8317 689 67.2032 387.803 574.942
773 0 62.2646 12.0614 751 66.5539 387.349 575.447
774 0 63.0955 12.9645 818 65.7017 386.998 573.527
775 0 66.2777 11.9346 791 66.9115 387.407 572.231
776 0 69.2441 13.5318 937 65.6585 387.427 570.767
777 0 68.2403 12.7491 870 66.7724 387.501 571.471
778 0 71.233 12.3819 882 67.6338 387.548 569.528
779 0 72.3421 12.3579 894 68.3468 387.711 568.742
780 0 73.2913 12.3343 904 66.0531 387.622 566.884
781 0 79.4029 13.2741 1054 64.5294 387.41 565.134
782 0 80.4717 12.551 1010 66.8832 387.579 562.557
783 0 83.6052 12.7863 1069 66.6492 387.584 561.618
784 0 85.3957 12.9866 1109 67.4653 387.935 560.261
785 0 88.5017 13.4009 1186 67.0118 388.094 556.121
786 0 88.2981 11.7896 1041 70.2997 388.439 552.287
787 1 53.2676 10.8321 577 69.1854 388.269 573.967
788 0 56.0977 11.2482 631 69.0079 388.561 574.029
789 0 57.2114 12.1829 697 68.9727 388.756 572.542
790 0 60.2975 13.2841 801 68.5268 388.835 570.388
791 0 61.0854 12.7035 776 70.5103 389.152 570.729
792 0 65.186 13.0396 850 69.5788 389.455 569.695
793 0 65.1833 12.856 838 71.4451 389.805 567.845
794 0 65.1604 12.523 816 73.6703 389.487 567.229
795 0 68.2462 13.2755 906 73.0508 389.513 564.106
796 0 69.1369 12.9598 896 75.1116 389.616 562.122
797 0 71.2639 12.587 897 75.3512 390.13 563.247
798 0 75.2366 13.2515 997 63.9709 390.287 561.114
799 0 77.2912 12.9381 1000 64.891 389.846 561.234
800 0 79.4052 13.7523 1092 64.6374 390.625 560.56
801 0 84.4195 12.9354 1092 63.8819 391.029 558.499
802 0 84.2257 13.4994 1137 65.8206 390.886 558.232
803 0 90.3841 14.1397 1278 64.8842 390.544 556.02
804 0 90.3263 14.2816 1290 65.3667 390.224 556.71
805 0 93.312 13.8246 1290 66.6822 390.377 551.967
806 0 99.3954 13.0992 1302 67.0123 390.568 552.508
807 0 100.397 13.7952 1385 66.1913 390.703 549.511
808 0 102.245 13.5263 1383 67.3348 390.762 546.806
809 0 108.259 14.2436 1542 66.8995 390.287 545.584
810 0 113.321 14.3751 1629 66.3886 390.589 546.931
811 0 116.276 14.3365 1667 67.5975 390.956 543.103
812 0 117.252 14.166 1661 68.9049 391.07 540.559
813 0 122.309 14.8476 1816 68.7159 391.031 535.698
814 0 125.192 15.0488 1884 68.5828 391.398 537.234
815 0 130.334 14.3247 1867 69.759 392.078 534.995
816 0 132.304 15.4341 2042 68.9765 391.502 536.004
817 0 137.387 14.3463 1971 71.0852 391.457 530.731
818 0 140.463 14.6088 2052 70.7305 391.398 533.233
819 0 145.349 14.2622 2073 72.0762 391.227 530.359
820 0 150.319 14.4427 2171 72.538 391.039 526.636
821 0 154.316 15.2284 2350 71.6736 391.559 526.081
822 0 158.377 14.6612 2322 73.0095 391.087 522.173
823 0 157.37 12.2514 1928 76.2241 391.508 524.126
824 1 89.1875 12.9727 1157 72.4443 391.077 555.451
825 0 92.3048 13.6721 1262 71.5182 391.115 553.983
826 0 95.4381 12.8565 1227 72.6683 390.629 552.597
827 0 100.239 13.7172 1375 71.5287 390.7 550.077
828 0 104.295 14.5549 1518 70.2484 391.388 548.582
829 0 107.155 13.1678 1411 71.961 390.948 547.802
830 0 111.245 12.432 1383 73.6804 391.315 543.873
831 1 46.0339 10.6009 488 69.8709 390.805 575.287
832 0 48.0447 10.2613 493 71.8519 390.844 572.379
833 0 52.4603 12.1997 640 67.7688 391.844 575.186
834 0 55.2623 12.5945 696 66.9741 391.328 576.226
835 0 54.2277 11.4702 622 69.3392 391.35 574.625
836 0 55.2131 12.1348 670 73.9448 391.193 571.448
837 0 58.3556 13.0407 761 72.9409 391.315 574.247
838 0 60.2154 12.7874 770 73.9351 391.725 574.701
839 0 63.2494 13.7234 868 74.2535 390.995 569.733
840 0 64.2156 12.676 814 75.3366 391.043 571.301
841 0 65.3108 12.1266 792 75.6578 390.672 571.582
842 0 67.226 12.5844 846 75.3794 390.738 568.232
843 0 70.2176 12.7603 896 73.1473 390.756 567.593
844 0 72.2496 13.4118 969 72.0454 390.501 566.558
845 0 74.2691 13.6127 1011 71.3373 390.417 566.372
846 0 75.4802 13.275 1002 72.3703 390.219 564.561
847 0 78.5536 12.1828 957 73.8621 389.845 562.054
848 0 81.3108 14.131 1149 70.9513 389.777 562.749
849 0 83.6017 13.0021 1087 72.6127 389.587 560.043
850 0 85.6227 11.8076 1011 74.4135 389.583 558.423
851 1 47.237 11.2412 531 70.6347 389.454 578.849
852 0 48.1781 11.9141 574 70.5418 388.878 577.927
853 0 49.0857 12.8958 633 69.951 388.559 576.28
854 0 52.2748 12.5108 654 70.0336 388.898 576.963
855 0 54.271 12.4376 675 70.4326 388.973 577.049
856 0 55.0972 12.36 681 70.9941 389.007 576.692
857 0 57.2942 12.6365 724 70.7417 389.109 575.988
858 0 57.1709 11.6143 664 72.2455 389.37 576.461
859 0 59.3041 12.2757 728 71.5069 389.448 574.5
860 0 59.2433 11.4781 680 72.8853 389.249 574.974
861 0 62.3258 12.3865 772 71.6023 388.751 574.338
862 0 62.2447 13.5273 842 71.3005 389.097 572.337
863 0 64.2844 12.6936 816 73.3762 389.055 570
864 0 65.2057 13.4037 874 73.4016 389.481 570.283
865 0 66.2848 14.4377 957 74.3312 388.666 568.629
866 0 68.4795 13.0842 896 79.6585 388.99 568.076
867 0 72.5412 12.8065 929 80.4553 388.682 565.878
868 0 72.4379 12.4658 903 81.6888 388.647 564.195
869 0 76.562 13.7536 1053 80.4046 388.594 566.98
870 0 77.4688 13.8378 1072 82.0653 388.135 563.554
871 0 78.3794 13.5495 1062 83.1394 388.052 562.615
872 0 81.3255 12.4807 1015 85.0985 387.821 559.962
873 0 84.3545 12.0918 1020 85.5833 387.741 559.937
874 0 87.4721 11.7981 1032 84.7955 387.582 561.384
875 0 86.2758 12.3789 1068 85.8296 387.206 556.739
876 1 48.6 9.60904 467 86.2291 387.76 576.18
877 0 51.3027 12.436 638 85.384 387.395 573.723
878 0 53.172 13.6162 724 86.2058 388.062 578.135
879 0 52.4593 12.5049 656 91.7317 387.559 577.491
880 0 55.2808 12.0657 667 87.5997 387.361 576.993
881 0 55.3106 13.1259 726 87.7713 387.197 575.449
882 0 57.2013 12.5347 717 90.0404 387.265 575.884
883 0 60.2391 13.546 816 89.2831 387.61 574.9
884 0 62.266 14.1008 878 89.1435 387.581 574.903
885 0 61.3312 12.7994 785 91.4815 387.587 571.614
886 0 64.1915 11.9798 769 83.1274 387.974 573.177
887 0 67.7576 13.2826 900 75.0622 388.386 572.43
888 0 67.5166 13.182 890 63.9562 388.083 570.974
889 0 69.5019 13.2514 921 62.2823 388.407 568.332
890 0 73.3885 13.6942 1005 60.8438 388.791 567.409
891 0 74.3564 13.1125 975 62.7908 388.726 567.656
892 0 77.5153 13.9585 1082 61.0952 388.828 566.262
893 0 81.5428 13.5266 1103 61.2883 389.127 565.15
894 0 81.6289 13.3654 1091 62.6379 389.497 561.853
895 0 83.9407 13.5334 1136 62.8864 389.49 561.234
896 0 85.8289 13.2356 1136 63.7438 389.838 560.284
897 0 87.5025 13.7939 1207 63.546 389.957 558.439
898 0 92.6938 14.3807 1333 62.82 389.834 557.03
899 0 95.919 14.0014 1343 62.8853 389.949 555.111
900 0 96.7385 14.6684 1419 63.0895 390.389 555.601
901 0 99.6052 14.2161 1416 63.8552 390.809 553.971
902 0 102.979 13.9058 1432 64.5321 390.654 550.865
903 0 103.985 14.4732 1505 64.2306 390.951 550.15
904 0 107.698 14.2249 1532 64.654 390.943 549.21
905 1 54.6855 10.6975 585 66.2632 391.221 574.764
906 0 57.6798 11.7545 678 65.3879 391.712 571.957
907 0 59.4445 12.2131 726 63.9807 391.603 571.873
908 0 60.4356 12.0293 727 64.2889 391.135 571.854
909 0 61.3651 13.2975 816 63.7892 391.473 570.395
910 0 64.6923 13.6183 881 63.1112 391.813 570.016
911 0 65.6025 13.4446 882 63.5624 391.632 568.502
912 0 67.6295 12.5241 847 65.876 391.915 567.377
913 0 69.9196 12.7575 892 64.8285 391.952 567.195
914 0 70.8544 12.6457 896 65.346 392.046 564.863
915 0 72.6783 13.2089 960 64.9521 391.88 564.259
916 0 76.7294 13.4629 1033 64.1471 392.522 562.177
917 0 78.7101 13.6831 1077 63.6722 392.79 560.654
918 0 79.6626 13.281 1058 64.9074 392.869 559.819
919 0 83.7318 13.0775 1095 65.2256 392.826 558.245
920 0 85.798 13.1122 1125 65.3147 393.241 556.119
921 0 88.6133 13.4517 1192 64.8691 393.393 554.334
922 0 92.6977 13.0532 1210 65.2504 393.509 553.066
923 0 95.5332 13.7125 1310 63.9366 393.773 551.146
924 0 97.5967 13.6173 1329 64.0986 393.862 551.609
925 1 55.599 11.6909 650 62.6015 393.777 573.522
926 0 54.6732 10.956 599 64.4858 393.596 572.182
927 0 57.6521 11.4306 659 63.9332 393.442 570.612
928 0 59.5783 13.1927 786 62.7786 394.085 567.187
929 0 58.4548 12.5396 733 65.2142 393.671 564.385
930 0 62.6332 12.4694 781 64.4481 393.855 563.323
931 0 65.6862 11.7985 775 65.0052 393.412 565.121
932 0 65.7592 12.2568 806 65.6836 393.275 564.783
933 0 69.7038 12.5675 876 64.8858 393.258 563.71
934 0 68.7592 12.4056 853 66.7327 393.077 562.86
935 0 71.8531 12.8596 924 65.4978 392.837 563.489
936 0 74.7831 13.2383 990 65.0283 392.884 561.883
937 0 76.535 13.275 1016 65.1988 392.881 561.957
938 0 77.5571 12.8293 995 66.4121 392.487 559.837
939 0 80.6288 13.5311 1091 64.846 392.279 560.929
940 0 84.4 13.9692 1179 63.9601 392.184 558.558
941 0 87.4992 13.4516 1177 64.9754 391.98 556.812
942 0 90.4848 13.9139 1259 64.2891 391.763 555.11
943 1 47.522 10.9844 522 65.5747 392.259 575.029
944 0 48.4534 11.0209 534 65.8352 391.725 573.146
945 0 50.6477 12.6758 642 63.4439 391.931 574.902
946 0 50.3751 12.268 618 65.3673 392.006 573.141
947 0 53.7158 12.4358 668 64.774 391.448 572.859
948 0 54.5243 12.3615 674 65.497 391.255 572.739
949 0 56.343 12.7256 717 64.9093 391.388 571.247
950 0 56.377 12.4696 703 65.6785 391.054 570.856
951 0 58.5232 12.4566 729 65.7133 391.192 570.62
952 0 59.6451 13.0103 776 65.6302 390.976 570.718
953 0 61.5332 13.5699 835 64.8335 390.624 567.647
954 0 65.522 12.7743 837 65.0992 390.919 568.755
955 0 66.669 13.3795 892 64.9978 390.583 565.71
956 0 69.5367 13.9638 971 63.7981 390.747 565.851
957 0 69.6872 13.6323 950 64.7063 390.3 566.844
958 0 70.4584 13.0148 917 65.9051 390.265 564.032
959 0 74.6201 13.0662 975 65.919 390.36 562.863
960 0 76.6152 13.8354 1060 64.0792 389.762 563.471
961 0 78.5992 14.2368 1119 63.6032 390.292 561.048
962 0 80.4616 14.5535 1171 63.8941 390.447 561.33
963 0 84.488 14.937 1262 62.5959 390.575 559.552
964 0 84.3975 13.2942 1122 65.7121 389.909 558.096
965 0 88.5219 13.7367 1216 64.6308 390.083 557.108
966 0 90.3571 14.487 1309 63.4874 390.362 554.451
967 0 94.486 14.0973 1332 63.6194 390.157 553.41
968 0 94.351 13.0152 1228 66.3599 390.002 552.213
969 1 41.3119 10.5054 434 61.2788 390.988 581.189
970 0 41.1294 8.99601 370 63.0514 390.738 579.824
971 0 43.1287 10.5962 457 61.7352 391.265 579.044
972 0 44.1603 11.4809 507 59.9467 389.613 578.304
973 0 47.1292 11.3942 537 60.8399 389.588 578.624
974 0 47.4206 12.252 581 59.5336 389.861 578.38
975 0 48.4955 11.3 548 61.323 389.593 577.471
976 0 49.297 11.2989 557 62.0126 389.603 575.964
977 0 50.5005 11.4652 579 62.7737 389.337 575.453
978 0 53.3478 11.7343 626 62.1597 388.963 574.874
979 0 53.3225 12.6963 677 61.6041 388.675 575.291
980 0 53.3584 11.582 618 63.788 388.943 573.833
981 0 56.514 11.944 675 62.7126 388.773 571.299
982 0 59.3201 12.323 731 61.1272 388.743 574.447
983 0 58.2481 11.2107 653 63.8928 388.3 572.346
984 0 61.3951 11.8413 727 62.5241 388.165 571.282
985 0 62.5014 12.0797 755 62.7325 389.075 570.744
986 0 62.4966 11.1686 698 64.4226 388.755 569.582
987 0 66.598 12.8382 855 62.1602 388.989 569.889
988 0 67.5861 12.1031 818 63.6711 388.544 568.758
989 0 68.4754 12.53 858 62.7319 388.721 567.741
990 0 70.7994 12.373 876 63.4098 388.817 566.321
991 0 71.5044 12.8803 921 62.6243 388.168 565.707
992 0 74.6953 12.7585 953 62.8531 388.194 563.162
993 0 76.6132 12.3086 943 63.4295 388.168 564.759
994 0 78.4326 12.2653 962 64.104 388.351 562.787
995 0 82.4799 12.7425 1051 63.2712 388.479 561.409
996 0 83.5666 11.9904 1002 63.7295 388.698 560.981
997 0 86.4921 13.3423 1154 61.9289 388.178 558.305
998 1 47.4486 9.44179 448 61.3036 389.143 579.871
999 0 47.4917 9.1595 435 63.092 389.195 578.228
1000 0 50.3919 10.7359 541 61.1682 389.207 576.656
1001 0 53.3674 11.2428 600 60.24 388.038 576.863
1002 0 54.4124 11.7069 637 60.5228 388.355 575.457
1003 0 56.3696 11.2295 633 60.9305 388.444 574.349
1004 0 57.3676 11.3653 652 60.9248 388.075 573.623
1005 0 60.2599 11.2181 676 60.8476 387.828 573.272
1006 0 62.4683 12.5984 787 59.1398 387.563 569.853
1007 0 64.2531 12.3729 795 59.7195 388.738 570.444
1008 0 65.328 12.5674 821 59.8892 388.799 570.18
1009 0 66.5229 11.9357 794 61.1436 388.53 569.083
1010 0 69.3515 11.5354 800 61.9612 388.342 568.858
1011 0 70.3437 11.6713 821 63.3873 388.602 568.512
1012 0 73.4039 13.0102 955 61.3634 388.784 566.532
1013 0 74.3833 12.7582 949 62.4984 388.111 565.494
1014 0 78.4871 12.8556 1009 61.5035 388.58 566.985
1015 0 80.6745 12.9533 1045 61.4124 388.012 564.396
1016 0 81.524 12.4013 1011 62.7458 387.967 561.963
1017 0 84.3969 12.2635 1035 62.9256 388.666 561.752
1018 0 86.5441 12.4907 1081 62.7225 388.85 559.613
1019 0 90.594 12.981 1176 62.233 389.143 557.952
1020 0 94.5078 12.9513 1224 62.2165 388.983 554.778
1021 0 95.4827 13.5522 1294 61.3323 388.937 554.304
1022 1 57.4199 10.6932 614 62.9756 389.764 573.186
1023 0 57.3494 9.83445 564 63.6383 389.59 574.401
1024 0 59.3935 10.7924 641 62.7769 389.897 573.63
1025 0 60.2806 9.88709 596 63.8624 389.94 572.961
1026 0 62.2757 10.8389 675 62.237 390.006 572.006
1027 0 65.2181 11.3925 743 61.2409 389.697 572.183
1028 0 64.3696 11.5583 744 62.4032 389.617 570.168
1029 0 70.4662 12.2612 864 60.537 389.638 569.586
1030 0 71.4929 11.3438 811 62.1899 389.994 567.767
1031 0 72.3714 11.593 839 62.6567 390.44 566.728
1032 0 75.3752 12.4842 941 60.8257 389.785 565.13
1033 0 77.3478 11.9719 926 62.1447 390.479 563.639
1034 0 80.287 12.9162 1037 60.8852 390.419 562.943
1035 0 82.2791 12.4333 1023 61.5904 390.743 563.692
1036 0 85.4354 12.2081 1043 62.2311 390.756 561.028
1037 0 86.3478 11.7316 1013 64.0039 391.296 560.513
1038 0 88.2208 12.3214 1087 63.6615 391.386 557.833
1039 0 93.312 11.9706 1117 63.5971 391.157 555.798
1040 0 95.4044 12.7877 1220 62.2746 392.09 555.556
1041 0 99.3174 12.888 1280 61.957 392.131 554.185
1042 0 100.283 12.4049 1244 63.3931 392.281 551.807
1043 1 60.3387 10.5405 636 61.5094 392.786 574.833
1044 0 60.3521 10.0411 606 62.7178 392.617 574.111
1045 0 62.3409 10.1539 633 62.1975 392.997 573.667
1046 0 62.3917 9.93723 620 62.4452 393.152 573.002
1047 0 66.3656 10.8038 717 61.0907 392.785 571.391
1048 0 67.3863 12.0499 812 60.5222 392.734 570.268
1049 0 68.2967 11.2597 769 61.8023 392.798 569.424
1050 0 70.26 11.8987 836 60.7404 392.873 569.001
1051 0 72.2514 12.0274 869 61.0253 392.91 566.839
1052 0 74.1342 12.4369 922 60.7148 393.508 564.406
1053 0 78.155 11.9378 933 61.0139 393.199 564.606
1054 0 79.275 12.4629 988 60.4251 393.833 563.159
1055 0 80.2112 12.2925 986 61.5913 393.663 561.569
1056 0 85.2452 12.7984 1091 60.363 393.897 561.377
1057 0 84.3092 12.3593 1042 61.6152 393.321 559.679
1058 0 89.3457 12.6923 1134 60.679 392.848 559.19
1059 0 90.3238 12.8759 1163 60.2537 392.718 557.371
1060 0 91.2858 12.6526 1155 61.1351 392.726 553.945
1061 0 98.2852 13.0742 1285 59.351 392.805 554.928
1062 0 100.504 13.2432 1331 59.2532 392.261 552.715
1063 0 101.273 12.2343 1239 61.096 392.26 550.075
1064 0 106.413 13.1469 1399 60.0422 392.266 548.697
1065 1 59.229 9.11715 540 59.2685 392.894 575.739
1066 0 60.2753 9.02525 544 60.0165 393.287 573.368
1067 0 64.3069 10.341 665 59.5985 392.938 570.598
1068 0 66.2787 10.4106 690 60.1841 391.968 569.713
1069 0 69.2457 11.5097 797 58.867 391.922 566.927
1070 0 72.2689 11.3604 821 59.8952 391.636 566.894
1071 0 74.1819 11.6336 863 58.8308 391.947 565.264
1072 0 76.2178 11.0342 841 59.1034 392.07 562.434
1073 0 79.1964 12.2228 968 57.2996 392.411 562.307
1074 0 80.1853 11.7478 942 58.0085 392.456 562.113
1075 0 83.1757 11.3615 945 58.8624 391.511 559.749
1076 0 85.2741 12.454 1062 57.4962 391.44 557.987
1077 0 86.2618 11.7085 1010 59.1485 391.419 557.873
1078 0 91.2876 11.9293 1089 58.9798 390.868 555.417
1079 0 94.3505 12.6867 1197 57.8964 390.828 554.714
1080 0 95.2954 12.1727 1160 58.7328 390.716 554.31
1081 0 98.4299 11.9069 1172 59.3464 390.59 550.054
1082 1 57.2854 9.09482 521 57.4818 391.217 574.223
1083 0 57.1983 9.24853 529 58.3384 391.095 573.48
1084 0 59.2546 9.92329 588 57.6139 391.384 571.527
1085 0 63.2674 10.9061 690 56.2362 391.626 572.155
1086 0 64.1661 11.3456 728 56.9876 391.185 570.067
1087 0 66.1253 12.0982 800 56.1 391.868 568.785
1088 0 64.2794 11.3722 731 58.6635 391.029 567.782
1089 0 67.1961 11.6525 783 56.152 390.383 569.475
1090 0 69.2207 11.8462 820 56.622 390.223 566.674
1091 0 69.267 10.7844 747 58.3293 390.396 566.534
1092 0 71.2412 11.819 842 57.7363 390.754 566.032
1093 0 74.3431 12.7517 948 56.2563 390.547 565.677
1094 0 74.2692 11.6737 867 58.7393 391.776 563.794
1095 0 77.2422 11.9365 922 58.4685 391.167 564.262
1096 0 79.1631 12.3542 978 58.3476 391.128 561.878
1097 0 81.1205 11.9452 969 59.2951 390.928 559.68
1098 0 82.303 11.9801 986 60.2708 390.9 559.023
1099 0 86.097 13.0318 1122 59.2487 390.754 558.952
1100 0 87.3368 13.2247 1155 59.7766 390.678 556.687
1101 0 91.2553 13.3581 1219 59.8425 390.517 554.733
1102 0 93.3198 12.4411 1161 61.5383 390.596 554.847
1103 0 96.2303 12.2103 1175 62.7957 390.539 552.117
1104 0 98.3369 13.4232 1320 61.9136 390.242 552.623
1105 0 101.436 13.6737 1387 61.7008 389.851 552.075
1106 0 104.249 12.6236 1316 63.6337 389.412 548.773
1107 1 55.344 9.68488 536 63.6026 390.056 574.203
1108 0 58.3067 10.4276 608 62.6891 389.872 573.089
1109 0 59.339 10.3305 613 63.2936 389.838 572.938
1110 0 61.3348 11.1682 685 62.5518 389.634 570.892
1111 0 65.3861 11.455 749 63.287 389.477 570.375
1112 0 66.2706 12.1321 804 63.1629 389.662 568.444
1113 0 68.3601 12.4634 852 63.9061 389.65 566.353
1114 0 70.3878 13.3688 941 62.3454 389.426 566.598
1115 0 71.2955 12.9461 923 63.7898 389.417 564.231
1116 0 76.2118 14.1579 1079 60.4912 389.155 562.922
1117 0 77.2481 12.8159 990 63.3384 389.199 564.341
1118 0 79.1529 12.5327 992 63.75 389.127 565.143
1119 0 80.1023 12.8586 1030 63.6738 389.711 563.003
1120 0 84.1845 12.627 1063 63.4779 388.977 561.264
1121 0 85.0672 13.4129 1141 63.1727 389.627 560.537
1122 0 88.1945 13.6403 1203 62.8238 388.928 557.432
1123 0 91.1758 12.7007 1158 63.0864 388.233 558.112
1124 0 93.3411 12.6204 1178 63.2173 388.515 557.331
1125 0 95.1438 13.0539 1242 63.2601 389.162 554.969
1126 0 97.1963 12.1712 1183 65.3905 388.969 553.803
1127 0 101.308 13.0296 1320 64.0598 388.48 551.264
1128 0 103.338 13.2962 1374 64.318 388.766 549.995
1129 0 108.439 12.6154 1368 65.0614 388.86 547.069
1130 0 109.238 12.9167 1411 65.202 388.71 546.245
1131 0 114.36 13.9646 1597 63.8028 388.976 543.007
1132 1 64.1884 11.3884 731 63.8071 389.534 571.15
1133 0 66.2001 10.3625 686 65.5117 389.866 570.117
1134 0 67.1821 11.4465 769 65.3186 389.635 568.979
1135 0 69.1348 11.9043 823 65.2855 389.492 569.412
1136 0 72.0921 12.3176 888 63.7354 388.377 567.358
1137 0 74.0987 12.5373 929 64.0215 389.123 566.836
1138 0 76.1742 12.537 955 63.8817 389.65 566.355
1139 0 76.111 12.3504 940 64.7745 389.472 564.576
1140 0 79.1903 11.7186 928 65.3728 389.236 563.886
1141 0 81.1968 12.5128 1016 66.19 389.837 562.075
1142 0 85.3388 12.9015 1101 65.3742 389.545 560.569
1143 0 88.2475 13.3375 1177 64.7434 389.634 558.504
1144 0 91.2058 13.0145 1187 65.3892 389.929 556.895
1145 0 92.1869 13.3967 1235 65.6769 390.179 556.121
1146 0 96.1414 13.2201 1271 66.048 390.13 555.231
1147 0 97.182 13.0888 1272 66.8105 390.298 553.248
1148 0 100.302 13.3995 1344 66.9918 389.869 552.399
1149 0 102.345 13.5521 1387 67.0324 390.627 549.407
1150 0 107.201 13.1062 1405 67.5836 390.576 547.102
1151 0 109.442 12.9566 1418 68.0924 391.068 546.435
1152 0 113.423 13.3836 1518 67.0191 391.573 545.076
1153 0 116.322 13.1703 1532 67.3479 391.97 543.351
1154 0 120.263 14.2355 1712 65.1238 391.586 542.699
1155 0 122.254 13.341 1631 66.6321 391.707 539.904
1156 0 126.38 14.2032 1795 65.7376 392.272 538.442
1157 0 130.317 14.1347 1842 65.4121 392.611 535.912
1158 0 135.392 13.797 1868 65.2045 392.817 530.904
1159 1 77.1552 10.602 818 64.4523 393.738 564.132
1160 0 77.1899 11.53 890 64.0202 393.633 563.607
1161 0 80.0616 11.8159 946 64.6395 393.535 560.096
1162 0 82.083 12.0244 987 65.0314 393.681 557.744
1163 0 85.1022 12.5379 1067 64.1209 393.858 556.915
1164 0 88.1514 12.3764 1091 64.3034 393.968 555.667
1165 0 92.1254 13.3839 1233 62.4088 393.779 553.951
1166 0 95.1738 13.0708 1244 63.4445 392.637 551.233
1167 0 98.1151 12.6586 1242 64.0652 393.905 550.578
1168 0 102.229 13.5383 1384 62.6951 394.209 549.92
1169 0 102.182 12.9866 1327 64.1696 393.71 547.774
1170 0 105.183 12.5686 1322 65.4864 393.49 546.547
1171 0 108.225 12.9083 1397 64.9649 393.538 545.11
1172 0 111.348 14.1629 1577 63.3887 394.027 544.916
1173 0 113.46 12.7975 1452 66.1715 393.798 541.361
1174 0 116.493 13.8549 1614 65.2181 394.004 537.833
1175 0 120.366 13.65 1643 65.4224 394.36 536.516
1176 0 124.667 13.3235 1661 65.5551 394.256 535.888
1177 0 126.425 13.2964 1681 66.4997 393.705 534.474
1178 0 130.494 13.219 1725 66.8713 394.067 533.19
1179 1 74.3776 10.971 816 67.4522 394.42 561.869
1180 0 74.2806 10.7161 796 68.5251 394.864 561.889
1181 0 79.1594 12.3296 976 66.7387 394.818 558.954
1182 0 82.2378 12.6949 1044 66.0757 394.094 558.361
1183 0 84.2976 13.0727 1102 65.5363 394.03 555.532
1184 0 83.1673 12.3727 1029 67.4412 393.553 554.726
1185 0 87.1321 13.3705 1165 65.5339 393.003 552.954
1186 0 90.2069 12.9369 1167 66.4147 393.276 548.923
1187 0 93.3063 12.968 1210 66.5438 393.154 550.069
1188 0 97.1601 13.2256 1285 65.5588 393.362 547.71
1189 0 99.2455 13.1794 1308 66.581 393.154 544.62
1190 0 101.247 12.9979 1316 67.0061 393.151 544.616
1191 0 105.19 13.6325 1434 66.3243 393.411 542.602
1192 0 106.208 12.5508 1333 68.177 393.265 541.512
1193 0 110.329 13.0701 1442 67.0485 392.992 540.012
1194 0 112.33 13.0954 1471 67.5853 392.942 536.787
1195 0 119.337 13.9354 1663 65.7444 393.082 533.257
1196 0 120.196 12.9205 1553 68.0155 392.252 534.233
1197 0 126.274 13.7717 1739 66.0937 391.657 533.595
1198 1 70.3058 10.7815 758 65.9525 391.681 561.306
1199 0 74.1659 10.6653 791 65.8736 391.669 560.867
1200 0 73.3031 10.9272 801 65.8814 390.988 558.975
1201 0 78.3859 11.8133 926 64.9849 391.566 556.941
1202 0 82.1895 12.6172 1037 64.4272 392.384 560.045
1203 0 82.305 12.7574 1050 65.3086 391.978 559.047
1204 0 85.3311 13.1371 1121 65.3577 392.167 556.36
1205 0 89.335 12.5483 1121 66.0678 392.062 555.407
1206 0 92.3873 12.6857 1172 65.7278 392.56 553.767
1207 0 95.2585 12.8597 1225 66.7478 392.518 552.54
1208 0 98.2332 13.4272 1319 65.746 392.171 550.458
1209 0 99.4329 13.1747 1310 66.7954 391.98 549.178
1210 0 103.505 13.1491 1361 66.0294 392.269 547.961
1211 0 106.469 13.4405 1431 65.9895 391.47 546.339
1212 0 108.455 13.1483 1426 67.1234 391.413 543.967
1213 0 112.437 13.9278 1566 66.3429 391.283 541.673
1214 0 116.493 13.4429 1566 67.1852 391.351 541.966
1215 0 118.471 13.6152 1613 67.4489 391.021 541.579
1216 0 122.393 13.0972 1603 68.5147 390.045 538.25
1217 0 126.383 13.6411 1724 67.5916 390.02 538.466
1218 0 131.316 13.9359 1830 66.9973 389.604 537.495
1219 0 132.29 13.4704 1782 68.4764 389.369 535.969
1220 1 75.0882 9.69526 728 68.7074 389.78 567.5
1221 0 79.324 10.9047 865 67.4682 389.851 564.173
1222 0 83.2249 11.8354 985 66.1431 389.741 563.646
1223 0 86.2483 12.4176 1071 65.4715 389.11 561.663
1224 0 85.2796 12.6877 1082 66.1229 388.857 558.914
1225 0 89.3084 12.2385 1093 67.2205 386.701 558.276
1226 0 91.3131 12.5393 1145 66.7546 389.032 557.458
1227 0 97.3957 12.9677 1263 65.5677 389.249 555.125
1228 0 101.292 13.0119 1318 65.2951 389.29 552.44
1229 0 102.343 12.8294 1313 65.5446 388.673 551.034
1230 0 105.323 13.0171 1371 65.2597 389.009 549.012
1231 0 108.291 12.7065 1376 65.5741 389.195 547.642
1232 0 111.295 12.669 1410 65.6929 388.963 547.377
1233 0 115.202 12.4477 1434 65.9351 388.591 545.045
1234 0 119.343 13.2979 1587 64.5797 388.773 541.424
1235 0 122.377 13.6055 1665 64.5958 388.444 540.044
1236 0 126.299 13.1593 1662 64.9663 388.481 538.191
1237 0 130.339 12.9355 1686 64.7159 388.281 538.765
1238 0 134.429 13.1147 1763 64.8962 388.377 535.846
1239 1 76.291 10.5386 804 64.449 389.369 566.525
1240 0 77.2232 10.9164 843 64.3428 389.038 565.741
1241 0 79.1735 11.3548 899 63.2403 389.632 565.107
1242 0 82.3117 11.8574 976 62.208 388.572 563.902
1243 0 82.2215 11.7001 962 63.2256 388.429 560.902
1244 0 84.4164 11.8223 998 63.2635 388.74 562.35
1245 0 88.3886 11.9472 1056 62.8883 388.642 558.931
1246 0 91.3146 11.9806 1094 62.8473 388.588 559.182
1247 0 92.2769 13.2102 1219 62.3519 389.132 554.418
1248 0 96.3978 12.4173 1197 64.5422 389.265 554.617
1249 0 97.3145 12.2078 1188 65.3451 388.931 553.428
1250 0 100.247 12.559 1259 64.9484 388.994 553.469
1251 0 104.237 12.4811 1301 64.6595 389.659 549.944
1252 0 107.508 12.5293 1347 64.8686 389.314 548.954
1253 0 112.249 12.9889 1458 63.6235 389.366 548.241
1254 0 113.339 12.3347 1398 65.8956 389.356 544.863
1255 0 115.335 12.4334 1434 66.1764 388.934 542.62
1256 0 120.29 12.3867 1490 65.8067 389.205 542.26
1257 0 122.381 12.5918 1541 65.9241 389.421 539.385
1258 0 127.41 13.0209 1659 65.3508 389.159 537.075
1259 1 70.1726 9.41963 661 65.2027 389.657 567.992
1260 0 71.2153 9.96977 710 64.0634 389.645 568.099
1261 0 74.3217 10.6967 795 63.9384 389.86 564.816
1262 0 75.2295 11.0861 834 63.7494 389.968 563.276
1263 0 79.2376 11.5349 914 63.2199 390.14 562.562
1264 0 80.2801 11.7713 945 62.1661 390.548 561.492
1265 0 84.234 11.3968 960 62.7688 390.725 559.155
1266 0 86.3057 12.2472 1057 62.0038 391.206 556.819
1267 0 87.1383 12.2334 1066 62.3386 391.518 555.936
1268 0 91.2683 11.9538 1091 62.5857 391.82 554.579
1269 0 94.1407 12.2476 1153 62.0295 391.756 556.18
1270 0 97.3154 12.8346 1249 62.0641 391.879 552.983
1271 0 100.156 12.8999 1292 62.3421 392.222 551.435
1272 0 103.257 12.8418 1326 62.7293 392.07 547.244
1273 0 106.179 12.6108 1339 63.3144 392.647 548.779
1274 0 109.276 12.5462 1371 63.744 392.54 544.877
1275 0 113.158 13.8479 1567 61.6592 393.1 544.872
1276 0 115.122 12.6561 1457 64.1181 392.447 542.246
1277 0 117.262 13.312 1561 63.5477 393.146 541.275
1278 0 121.325 13.064 1585 63.3792 393.35 540.237
1279 0 124.244 13.4574 1672 63.1812 393.408 538.647
1280 0 126.32 12.9671 1638 65.0495 393.283 536.965
1281 0 130.305 13.4146 1748 64.3227 393.558 535.739
1282 0 135.356 13.1136 1775 64.6687 393.43 531.773
1283 0 139.429 14.043 1958 63.311 393.804 531.204
1284 0 143.41 13.8624 1988 63.9376 393.987 528.063
1285 0 147.419 13.4176 1978 64.589 393.527 526.152
1286 0 151.405 13.5926 2058 64.4456 393.672 524.098
1287 0 158.351 13.5143 2140 64.221 393.814 519.595
1288 0 161.301 12.9261 2085 65.6182 393.664 517.383
1289 0 170.359 13.8473 2359 63.8109 393.531 513.438
1290 0 173.391 14.1645 2456 64.011 393.147 509.239
1291 0 179.345 13.9619 2504 64.2188 393.576 507.243
1292 0 186.323 14.1689 2640 63.9201 393.589 504.711
1293 0 191.419 13.9641 2673 63.6685 393.905 503.704
1294 0 197.311 14.2871 2819 63.6648 394.075 496.106
1295 1 146.213 10.9088 1595 67.1893 393.979 527.951
1296 0 154.438 13.0538 2016 64.6141 393.753 522.986
1297 0 157.486 12.7059 2001 65.9535 394.034 518.352
1298 0 161.516 13.0947 2115 65.0199 394.031 516.492
1299 0 166.385 12.8076 2131 65.535 394.504 513.225
1300 0 172.289 13.7618 2371 64.391 394.687 510.931
1301 0 176.493 13.383 2362 64.9568 394.026 509.654
1302 0 183.429 13.4875 2474 64.8593 394.045 505.16
1303 0 190.357 14.0368 2672 63.707 394.165 502.491
1304 0 199.316 17.2941 3447 57.5811 394.158 492.348
1305 0 200.424 13.6061 2727 63.9934 394.063 497.475
1306 0 205.406 13.7484 2824 64.1434 393.811 494.716
1307 0 213.423 14.7969 3158 62.2502 394.314 490.669
1308 0 219.34 14.1515 3104 63.4439 393.194 487.276
1309 0 226.339 13.842 3133 63.8663 393.677 480.407
1310 0 234.501 13.13 3079 64.8344 393.456 477.229
1311 0 232.632 11.5805 2694 66.8048 393.298 483.026
1312 0 233.398 10.6085 2476 67.2278 393.466 488.13
1313 0 234.323 9.90088 2320 66.9884 392.862 496.586
1314 1 200.554 11.9569 2398 65.9537 392.807 500.947
1315 0 204.174 12.8616 2626 64.1356 392.091 498.419
1316 0 209.304 12.8473 2689 65.2358 391.655 492.652
1317 0 216.467 12.9073 2794 65.5637 392.116 485.252
1318 0 224.478 13.5203 3035 64.4241 392.054 483.81
1319 0 230.53 12.6881 2925 65.1395 391.57 479.613
1320 0 238.457 13.6251 3249 64.8566 391.565 476.841
1321 0 242.543 15.0983 3662 62.8861 391.191 475.998
1322 0 248.456 14.3164 3557 63.7683 390.77 469.407
1323 0 257.424 14.7694 3802 63.8966 391.03 467.99
1324 1 201.507 13.1658 2653 64.6559 391.09 501.834
1325 0 204.484 12.6563 2588 65.5015 390.83 495.988
1326 0 211.565 13.575 2872 64.2256 390.627 492.765
1327 0 219.658 14.0764 3092 63.522 390.762 487.02
1328 0 227.569 14.2463 3242 63.0651 390.583 483.964
1329 0 233.691 13.5093 3157 64.5901 390.169 480.688
1330 0 244.483 14.7004 3594 62.2499 390.646 478.813
1331 0 248.443 14.8042 3678 62.016 390.384 471.258
1332 0 256.642 14.2494 3657 61.3347 390.417 466.85
1333 0 262.837 15.3936 4046 59.8487 390.291 465.101
1334 0 265.509 14.7829 3925 64.3118 390.873 464.709
1335 0 274.745 14.5771 4005 64.21 390.437 461.125
1336 0 285.665 15.1611 4331 63.1238 390.169 453.71
1337 0 294.034 14.6888 4319 63.3848 389.927 450.576
1338 0 302.768 15.1568 4589 62.5825 390.107 443.24
1339 0 313.931 15.3442 4817 61.7337 390.065 441.192
1340 0 322.04 15.2683 4917 61.4879 390.695 433.801
1341 0 59.1055 9.23772 546 54.0788 389.234 572.132
1342 0 59.0791 9.0218 533 54.6961 389.159 570.803
1343 0 61.2254 9.96319 610 53.7656 389.487 572.356
1344 0 62.6525 10.9014 683 54.754 389.758 573.329
1345 0 63.4354 11.0349 700 54.8143 389.523 573.257
1346 0 62.4443 10.2972 643 57.2068 389.278 572.955
1347 0 64.47 11.8039 761 55.2063 389.026 570.937
1348 0 64.4139 10.6964 689 58.6763 388.971 572.891
1349 0 65.4575 11.2592 737 58.2687 388.696 572.966
1350 0 65.5869 10.7034 702 59.7963 388.335 572.081
1351 0 66.5021 11.5485 768 59.0273 387.969 572.714
1352 0 64.5102 11.068 714 61.4384 387.602 573.139
1353 0 65.6307 11.5647 759 60.913 387.721 572.076
1354 0 66.554 11.2089 746 61.937 387.214 572.468
1355 0 64.4051 11.3966 734 62.5886 387.486 572.871
1356 0 66.5942 10.8868 725 63.7517 387.326 571.389
1357 0 64.5857 11.3802 735 63.9279 387.336 572.307
1358 0 66.3702 11.0592 734 64.0341 387.726 572.606
1359 0 67.6519 11.84 801 63.6916 387.15 571.417
1360 0 66.3352 11.2459 746 65.7601 387.421 572.662
1361 0 65.5864 10.8102 709 67.0113 387.638 573.969
1362 0 67.5514 11.9613 808 64.9381 387.754 573.516
1363 0 67.5832 11.6153 785 65.9694 388.054 574.391
1364 0 65.3446 11.6766 763 66.5609 387.659 573.695
1365 0 67.3731 10.9391 737 68.0461 387.999 574.201
1366 0 69.3076 12.2065 846 65.7234 387.95 572.902
1367 0 90.5041 11.7564 1064 57.2895 387.822 567
1368 0 90.4127 15.2302 1377 51.3725 388.081 561.732
1369 0 85.5273 14.0423 1201 55.3922 388.104 565.751
1370 0 84.7139 13.882 1176 56.165 387.825 567.333
1371 0 85.4377 13.109 1120 57.5393 388.203 567.438
1372 0 77.5676 14.1554 1098 58.7523 387.635 567.377
1373 0 78.547 15.0865 1185 57.2253 387.911 567.917
1374 0 76.4712 14.7507 1128 60.2181 388.035 567.612
1375 0 72.4861 14.6511 1062 62.3531 388.022 568.24
1376 0 74.4774 14.8636 1107 61.0298 388.154 568.714
1377 0 71.3425 14.6196 1043 62.7315 388.15 570.095
1378 0 71.4108 14.0035 1000 61.643 388.22 569.071
1379 0 69.3095 12.4658 864 62.9317 388.744 572.567
1380 0 70.3827 11.8069 831 66.0012 388.658 573.294
1381 0 70.5014 12.5955 888 66.1475 388.81 573.143
1382 0 70.5466 11.6094 819 66.8217 388.668 572.446
1383 0 71.3484 13.1327 937 66.1057 388.38 571.669
1384 0 69.4335 11.6514 809 69.9876 387.979 572.142
1385 0 70.3387 11.928 839 69.1669 388.328 571.199
1386 0 69.4545 11.8207 821 69.9306 388.057 570.449
1387 0 71.3028 12.5521 895 67.8536 388.283 570.231
1388 0 72.6927 11.4179 830 69.2241 388.882 571.243
1389 0 69.3525 11.9678 830 69.6096 388.512 569.199
1390 0 72.4853 12.1128 878 67.4317 388.747 570.624
1391 0 71.3318 12.0704 861 68.4959 388.753 570.134
1392 0 72.5248 11.7753 854 68.3607 389.116 570.474
1393 0 71.535 12.2458 876 68.1301 389.256 567.53
1394 0 72.5405 11.9657 868 68.8065 389.726 568.647
1395 0 71.379 12.1324 866 68.6016 390.087 569.314
1396 0 71.5053 12.5585 898 62.9087 390.609 569.722
1397 0 71.5164 11.9133 852 64.1221 390.953 570.504
1398 0 70.4879 11.9879 845 64.5609 391.07 569.456
1399 0 73.4951 12.6131 927 62.1845 391.037 570.142
1400 0 71.3695 11.9939 856 63.757 391.395 569.972
1401 0 73.3226 13.0656 958 61.0929 392.142 569.47
1402 0 72.325 12.3609 894 62.557 392.198 569.507
1403 0 73.2848 12.7721 936 61.7265 392.745 567.966
1404 0 71.3441 11.4375 816 63.7341 392.882 570.104
1405 0 70.3106 12.2883 864 63.2616 392.903 569.677
1406 0 72.4652 11.7988 855 63.1029 393.372 570.732
1407 0 73.3584 12.6502 928 61.3869 393.134 569.542
1408 0 72.2641 11.9977 867 62.9296 393.867 570.788
1409 0 71.4118 12.0848 863 62.4171 393.501 568.272
1410 0 73.4685 12.4679 916 61.083 393.461 568.436
1411 0 73.4567 12.0479 885 62.191 393.266 567.942
1412 0 73.4252 12.0667 886 62.4086 393.596 567.584
1413 0 74.3315 12.0945 899 61.2981 393.938 569.165
1414 0 72.352 12.4392 900 61.9589 393.477 567.703
1415 0 73.5142 12.6642 931 60.783 393.613 568.522
1416 0 73.394 12.2898 902 60.6918 393.187 568.278
1417 0 74.2916 12.4375 924 60.4286 393.273 568.132
1418 0 73.5798 12.1773 896 65.8828 393.404 567.617
1419 0 74.4694 12.7032 946 64.0507 393.366 568.152
1420 0 73.3158 12.1665 892 65.8072 393.188 566.283
1421 0 73.3893 12.5495 921 64.6808 393.326 567.813
1422 0 74.5278 12.5591 936 65.1036 393.316 566.952
1423 0 73.5252 12.6215 928 64.3944 393.273 568.815
1424 0 74.477 11.9097 887 64.6674 393.662 568.462
1425 0 73.4485 12.7845 939 63.2215 393.431 568.736
1426 0 73.5208 12.2958 904 64.2445 393.18 567.72
1427 0 72.6943 12.6145 917 63.3948 392.926 567.562
1428 0 74.561 12.6474 943 62.6628 392.867 568.357
1429 0 72.3982 12.6937 919 63.1066 392.812 568.49
1430 0 74.5674 12.1098 903 64.9911 392.561 567.796
1431 0 73.4121 12.0961 888 65.2658 392.407 568.095
1432 0 73.6031 12.6353 930 65.5774 392.587 567.858
1433 0 73.3962 12.6028 925 65.7243 392.531 567.819
1434 0 72.565 12.4716 905 66.2022 392.512 568.124
1435 0 73.3904 12.781 938 65.484 392.371 568.578
1436 0 73.3667 12.6215 926 64.9287 392.008 567.484
1437 0 72.3085 11.9073 861 66.1893 392.106 568.678
1438 0 73.4146 12.1229 890 65.6697 391.904 567.833
1439 0 73.4079 12.124 890 64.5787 391.629 569.452
1440 0 74.4773 12.1111 902 64.2284 391.067 568.859
1441 0 72.3021 11.9499 864 65.2002 391.09 568.115
1442 0 73.4968 12.5584 923 63.7291 391.208 567.335
1443 0 74.3199 11.8407 880 64.4648 390.839 569.299
