time division length width area intensity CMx CMy
0 0 59.2006 12.8208 759 73.2727 841.883 579.578
1 0 60.1844 13.7079 825 72.7915 840.71 578.112
2 0 60.1844 13.7245 826 157.071 839.683 578.12
3 0 66.1652 14.0859 932 71.3144 841.102 578.745
4 0 68.2618 14.0049 956 71.2887 841.133 577.055
5 0 69.1601 13.1868 912 73.5559 841.561 575.741
6 0 70.2219 13.0728 918 74.2919 841.468 575.007
7 0 76.2663 15.2492 1163 69.5813 841.776 573.962
8 0 76.3526 13.4769 1029 74.4247 841.549 572.983
9 0 82.3443 14.2815 1176 73.6667 841.588 571.543
10 0 83.2694 14.0268 1168 75.6995 841.882 568.817
11 0 86.2328 14.5188 1252 75.3834 842.284 567.709
12 0 89.2988 14.1547 1264 76.0388 842.093 566.506
13 0 93.2815 14.483 1351 75.2502 842.245 565.781
14 1 52.2079 12.5652 656 75.3826 842.777 585.383
15 0 51.3076 11.4603 588 76.6088 843.022 584.582
16 0 53.1708 11.8486 630 76.6111 842.346 583.389
17 0 56.2228 12.1659 684 75.2339 842.526 582.501
18 0 58.2503 13.6995 798 71.7581 842.672 581.792
19 0 58.1651 13.3241 775 73.2219 843.044 582.028
20 0 60.1318 13.354 803 73.9651 842.621 579.631
21 0 62.2735 13.3122 829 74.111 842.946 579.324
22 0 64.1786 13.5403 869 74.1438 842.803 578.832
23 0 66.1706 13.2536 877 75.6317 842.803 576.481
24 0 68.1348 12.8275 874 76.6854 842.844 576.074
25 0 72.1838 14.0336 1013 74.5291 843.013 576.526
26 0 72.1977 13.3799 966 77.5549 842.955 574.439
27 0 76.2055 13.9491 1063 76.9323 843.21 573.05
28 0 79.2114 13.4703 1067 77.358 842.801 571.549
29 0 82.2783 14.8885 1225 75.2498 842.652 569.612
30 0 84.3828 13.5573 1144 77.833 843.316 569.89
31 1 44.1839 11.4069 504 75.9107 844.147 590.815
32 0 46.175 11.0233 509 76.9862 844.332 589.301
33 0 46.182 12.0393 556 76.3525 844.406 587.968
34 0 49.1846 11.6703 574 76.4425 844.166 587.735
35 0 51.061 12.1032 618 75.6942 844.312 585.369
36 0 52.2905 12.7939 669 74.2586 843.217 585.256
37 0 54.2097 12.1012 656 75.5884 843.159 584.678
38 0 55.194 12.3202 680 75.0397 843.732 584.649
39 0 56.191 12.0126 675 75.597 843.444 582.935
40 0 57.1194 12.3426 705 75.1887 843.708 583.22
41 0 62.3201 13.0937 816 73.4828 843.672 580.903
42 0 63.2434 13.5192 855 72.9018 843.978 580.359
43 0 65.2172 13.432 876 73.2283 843.672 579.333
44 0 68.2841 13.6928 935 73.2791 843.886 576.964
45 0 70.2716 14.2163 999 72.8428 844.882 577.666
46 0 71.1271 13.3142 947 75.7286 845.152 575.507
47 0 75.1915 14.084 1059 74.5146 844.899 574.912
48 0 75.2726 13.2186 995 77.2181 845.045 574.549
49 0 77.253 13.9541 1078 75.8126 845.033 574.801
50 0 81.1888 13.8812 1127 76.2467 844.351 573.063
51 0 84.3665 13.9036 1173 76.1049 844.631 571.364
52 1 47.1952 11.6537 550 76.4655 844.822 589.524
53 0 47.2122 10.5058 496 78.5907 844.694 589.234
54 0 51.3641 11.9928 616 68.651 843.786 586.961
55 0 52.3782 12.2761 643 68.5708 844.121 586.491
56 0 51.3098 12.1419 623 69.6453 844.157 586.12
57 0 54.2843 13.153 714 68.7059 844.186 584.213
58 0 54.2425 13.3659 725 68.3876 844.277 584.492
59 0 56.3554 13.6101 767 68.6545 844.379 582.477
60 0 57.3555 13.582 779 68.7715 844.597 582.11
61 0 59.2938 12.9019 765 70.3203 844.617 581.122
62 0 61.2993 13.4749 826 69.6525 844.656 579.788
63 0 65.281 13.3729 873 69.3162 844.077 578.462
64 0 66.2903 14.4516 958 68.6451 844.38 576.272
65 0 69.349 13.8863 963 69.0239 844.643 575.45
66 0 69.4379 13.8253 960 70.0417 844.663 573.539
67 0 73.1955 13.2385 969 70.5232 845.324 574.584
68 0 76.2769 14.4867 1105 68.8271 845.778 572.63
69 0 79.292 13.898 1102 69.3902 846.198 571.474
70 0 81.2653 14.7911 1202 68.5632 845.507 568.079
71 1 42.2642 10.8129 457 70.7965 846.63 589.094
72 0 43.0785 10.4461 450 70.8756 846.889 588.793
73 0 43.1656 11.1663 482 70.4793 846.969 587.745
74 0 46.2898 12.2921 569 68.8524 846.831 587.019
75 0 49.1925 13.2134 650 67.7369 847.575 585.975
76 0 50.5272 13.5966 687 68.4891 846.527 584.56
77 0 49.3424 13.2341 653 70.5972 846.923 583.421
78 0 50.4925 12.6355 638 71.7273 846.625 582.585
79 0 54.3835 13.5335 736 69.6671 847.272 581.985
80 0 53.4645 13.841 740 70.1 847.618 580.711
81 0 57.4701 13.5723 780 69.7449 847.346 578.838
82 0 58.3328 13.7316 801 70.0262 847.779 578.23
83 0 60.2593 14.1555 853 70.0797 848.14 577.415
84 0 63.4187 14.6329 928 69.9989 848.151 576.242
85 0 65.1794 15.0968 984 68.9482 848.461 574.774
86 0 65.3766 14.1335 924 71.1807 848.694 574.398
87 0 69.3128 15.1199 1048 68.8244 848.756 571.43
88 0 73.3801 14.2 1042 69.6536 849.112 571.064
89 0 75.476 15.4751 1168 67.0865 849.109 568.509
90 0 77.4233 14.143 1095 69.3388 849.45 567.956
91 0 79.3248 15.0142 1191 72.1066 850.32 567.023
92 0 82.4281 14.5703 1201 76.1349 850.277 564.861
93 0 81.3493 14.4931 1179 78.1052 850.097 562.922
94 0 88.3079 14.7325 1301 73.7371 850.254 562.6
95 1 43.3463 13.4267 582 72.4485 849.959 582.971
96 0 42.3147 12.4543 527 73.6983 850.125 582.873
97 0 45.2659 13.2992 602 71.4917 849.58 582.05
98 0 46.5694 13.8718 646 70.5759 849.596 581.282
99 0 49.5015 14.2622 706 70.6034 849.249 579.806
100 0 50.432 14.2172 717 70.4505 849.483 580.319
101 0 50.295 14.5144 730 71.3877 849.327 578.384
102 0 51.4648 13.9513 718 72.6086 849.72 576.852
103 0 54.5173 14.0139 764 74.1623 849.99 575.762
104 0 56.4642 14.7173 831 73.4801 849.735 574.369
105 0 58.686 15.1143 887 73.761 849.835 573.958
106 0 60.5182 14.5411 880 74.2591 850.042 571.945
107 0 63.5823 15.3345 975 71.5805 849.852 571.949
108 0 63.4597 15.0016 952 73.1576 849.795 571.613
109 0 65.4541 14.5904 955 71.3832 849.962 570.815
110 0 68.5722 14.5103 995 73.6251 849.796 570.211
111 0 70.2592 15.5282 1091 71.8973 849.494 568.055
112 0 72.3862 14.5884 1056 72.5047 849.001 567.955
113 0 74.6984 15.2212 1137 70.9595 849.037 565.616
114 0 77.5368 15.1283 1173 70.5814 849.679 564.981
115 0 80.4653 16.0442 1291 69.2789 849.05 563.707
116 0 83.4845 15.5957 1302 70.023 849.413 562.393
117 0 86.8905 15.0534 1308 70.9335 849.398 561.106
118 0 89.6347 15.6971 1407 70.9112 849.278 559.416
119 0 93.778 15.5793 1461 70.7817 848.698 556.975
120 0 95.6593 15.7747 1509 70.4135 849.241 556.214
121 1 45.7905 13.8894 636 72.7217 849.45 580.017
122 0 48.0404 13.9674 671 72.6841 849.279 579.671
123 0 50.2204 14.7151 739 70.8214 849.21 578.409
124 0 51.5927 15.0603 777 71.2548 848.961 576.254
125 0 53.9743 14.0993 761 72.0591 849.413 576.361
126 0 54.6343 15.0089 820 71.5329 849.394 574.837
127 0 56.7546 15.2763 867 70.639 849.319 574.172
128 0 60.1278 15.1012 908 70.3491 848.713 573.304
129 0 60.7126 14.9887 910 70.9275 848.766 571.995
130 0 63.7602 15.0407 959 70.2659 848.56 570.348
131 0 67.1633 16.0058 1075 68.4512 848.619 571.361
132 0 69.1767 15.352 1062 69.2863 848.537 568.646
133 0 71.6736 15.445 1107 68.6829 848.425 568.608
134 0 74.996 15.5742 1168 68.1832 848.503 567.63
135 0 77.036 14.4478 1113 69.5481 848.507 566.017
136 1 36.7401 13.1464 483 72.4244 848.702 583.449
137 0 41.925 12.8086 537 71.6797 848.464 583.039
138 0 42.7098 13.6737 584 69.9247 848.584 582.615
139 0 44.85 13.9353 625 69.6368 848.438 581.075
140 0 44.8404 14.2952 641 69.3838 848.523 579.693
141 0 46.5604 14.4114 671 69.079 848.729 580.264
142 0 48.5036 14.3701 697 68.8651 848.627 579.405
143 0 51.6182 14.7622 762 67.1391 848.782 579.825
144 0 52.78 15.0057 792 67.7879 848.611 577.672
145 0 52.6586 14.3566 756 69.2897 848.556 577.84
146 0 54.674 15.4735 846 67.3227 848.236 576.926
147 0 55.4792 15.7356 873 68.0206 848.333 575.12
148 0 58.6065 14.7083 862 69.4954 848.026 574.806
149 0 59.6121 14.7956 882 69.6984 847.867 573.193
150 0 63.6639 15.5033 987 68.3465 847.96 571.589
151 0 65.5481 14.8593 974 69.7947 847.567 570.334
152 0 67.6687 14.7779 1000 70.08 847.641 570.273
153 0 70.8216 15.066 1067 69.3646 847.535 568.398
154 0 73.5833 15.1801 1117 69.5434 847.753 567.56
155 1 38.8526 12.2 474 73.2532 848.679 583.335
156 0 40.6173 12.4085 504 72.9861 848.488 582.935
157 0 41.7189 13.8307 577 71.4714 848.369 582.475
158 0 43.5084 13.5836 591 71.6785 848.201 580.993
159 0 44.6143 14.009 625 71.024 848.546 581.294
160 0 45.8216 14.3164 656 70.9771 847.91 581.739
161 0 46.4317 14.7098 683 70.3529 848.288 580.088
162 0 48.6895 14.6849 715 70.1636 848.2 578.006
163 0 49.9145 14.3846 718 70.6003 848.273 577.978
164 0 49.4363 14.6249 723 71.1964 848.239 577.66
165 0 52.5954 14.2408 749 71.3952 848.124 576.525
166 0 54.6918 14.8651 813 70.4391 848.408 576.026
167 0 53.6345 15.2327 817 71.3366 848.047 574.623
168 0 57.4225 15.6733 900 69.6178 848.472 574.151
169 0 58.8197 15.216 895 70.7184 848.57 572.003
170 0 59.6537 15.2212 908 70.62 848.802 572.869
171 0 61.8402 14.6183 904 71.9082 849.015 570.802
172 0 64.5593 15.1179 976 70.7838 848.427 570.409
173 0 67.652 15.2693 1033 70.516 848.689 568.647
174 0 69.3556 15.4133 1069 70.7381 848.484 566.688
175 0 71.5763 14.6697 1050 71.201 848.683 566.683
176 0 72.615 14.9143 1083 71.446 849.09 564.428
177 0 76.2591 15.8014 1205 69.2274 848.815 563.764
178 0 79.6028 14.8487 1182 70.2572 849.153 563.052
179 0 82.4945 15.1768 1252 70.0192 848.906 560.882
180 0 86.4513 15.6736 1355 69.2406 848.697 558.362
181 0 90.4257 15.6593 1416 68.9456 848.733 557.915
182 0 91.3545 16.0364 1465 69.1099 849.5 554.885
183 0 96.194 15.292 1471 69.2937 849.298 553.801
184 0 100.22 15.9549 1599 68.1376 849.189 552.154
185 1 51.2316 12.0433 617 68.5219 849.762 574.17
186 0 52.1978 11.648 608 68.5411 850.533 573.745
187 0 54.2589 14.652 795 65.2352 849.932 573.859
188 0 55.2821 13.4763 745 67.1302 849.958 570.607
189 0 57.3701 13.8225 793 66.7011 850.059 570.45
190 0 60.4066 14.6011 882 65.1111 850.68 571.226
191 0 58.3081 13.3944 781 67.5339 850.343 570.939
192 0 63.2637 14.5897 923 65.533 850.473 568.657
193 0 67.2314 14.9335 1004 63.0558 850.68 567.603
194 0 67.557 13.6477 922 63.4143 850.351 566.959
195 0 71.4636 14.7348 1053 61.5945 850.491 564.785
196 0 71.4133 12.5607 897 63.8907 850.323 564.634
197 0 75.6363 14.1995 1074 63.6192 850.234 562.434
198 0 77.6646 13.4424 1044 66.0718 850.172 562.698
199 0 79.5051 13.496 1073 67.1491 850.379 560.668
200 0 79.4191 13.8254 1098 67.8852 850.851 558.155
201 0 84.6266 13.9318 1179 67.9618 850.835 557.107
202 0 85.853 13.3717 1148 68.8528 850.761 554.473
203 0 88.8434 13.3268 1184 68.353 850.362 552.854
204 0 91.7317 14.1827 1301 67.565 850.331 552.849
205 0 95.6199 14.0556 1344 67.7254 850.656 550.998
206 0 98.6739 14.3402 1415 68.3633 850.76 549.86
207 0 101.445 13.3471 1354 69.3205 850.728 549.186
208 0 104.49 12.9869 1357 70.776 851.297 543.528
209 0 109.718 14.0816 1545 68.767 851.309 542.994
210 1 59.4519 10.4959 624 65.0128 851.784 569.252
211 0 61.5091 13.1038 806 62.7432 851.476 568.872
212 0 62.2763 12.3643 770 64.1247 851.71 568.552
213 0 64.3333 11.7824 758 65.2889 851.195 567.665
214 0 65.2759 11.0607 722 66.0637 851.784 567.906
215 0 67.5147 12.9453 874 64.627 851.219 565.685
216 0 72.3353 13.0503 944 64.2426 850.951 564.299
217 0 73.469 12.5767 924 65.0671 850.6 562.734
218 0 76.501 12.941 990 64.501 850.463 562.808
219 0 78.6165 12.6691 996 64.6596 850.352 561.865
220 0 81.6591 11.9031 972 65.9053 850.136 562.425
221 0 83.572 12.5162 1046 65.457 850.248 560.708
222 0 87.7599 12.8077 1124 64.863 850.12 559.843
223 1 49.9635 10.3676 518 63.029 848.836 577.618
224 0 50.9169 10.2913 524 64.1145 849.408 576.427
225 0 53.7829 11.3977 613 62.3752 848.644 576.049
226 0 54.844 11.6695 640 63.9156 848.567 573.544
227 0 56.7207 11.4244 648 64.8812 848.066 573.142
228 0 56.7929 12.0262 683 64.4861 848.249 574.445
229 0 59.7532 11.514 688 65.6875 848.182 569.927
230 0 61.7707 11.2837 697 65.8924 848.036 570.307
231 0 62.6474 11.9718 750 65.452 848.468 569.353
232 0 68.0027 13.2054 898 62.9889 848.506 568.667
233 0 68.904 12.6553 872 64.4851 848.729 567.587
234 0 68.8498 12.1714 838 65.6611 848.74 565.677
235 0 72.146 11.8232 853 66.0211 848.382 565.095
236 0 76.9403 12.8411 988 64.83 848.47 563.608
237 0 78.9354 12.6559 999 65.5125 848.227 560.412
238 0 80.8074 12.8577 1039 65.2089 847.902 561.118
239 0 84.8499 11.9977 1018 65.9401 848.447 560.262
240 0 86.1631 12.5808 1084 65.7196 848.713 556.089
241 0 88.9924 12.5853 1120 65.9134 848.522 554.526
242 0 95.1471 13.6315 1297 63.3153 848.52 556.968
243 0 95.2044 13.0246 1240 65.1234 848.257 553.29
244 0 99.7965 13.6979 1367 64.2319 847.906 551.226
245 0 102.221 13.8915 1420 64.5408 848.166 549.523
246 0 104.973 12.708 1334 66.2384 848.37 546.995
247 0 108.88 12.9868 1414 66.1457 848.366 544.64
248 0 113.846 13.1317 1495 65.2789 848.38 544.104
249 0 115.948 12.9023 1496 66.3209 848.421 540.763
250 0 119.804 13.5304 1621 65.7915 848.396 540.246
251 0 124.009 13.5232 1677 65.8676 848.627 539.577
252 1 64.7134 10.5079 680 64.1426 848.185 570.862
253 0 66.742 10.6979 714 64.8025 848.538 569.347
254 0 67.6126 10.856 734 66.4319 848.486 566.704
255 0 72.3819 14.3959 1042 61.0182 848.223 568.837
256 0 71.518 12.2347 875 65.344 848.03 567.627
257 0 76.7356 13.2272 1015 63.4069 848.12 567.933
258 0 77.5772 13.4447 1043 63.1122 847.569 564.527
259 0 80.8459 12.9629 1048 63.8092 847.465 564.357
260 0 81.9099 12.5137 1025 65.2166 848.309 556.507
261 0 84.8584 12.8685 1092 64.989 848.101 558.683
262 0 86.8786 13.9505 1212 64.0767 847.325 559.458
263 1 46.8407 10.2262 479 64.6075 848.207 579.645
264 0 49.7987 11.3457 565 64.0425 847.912 579.113
265 0 49.6481 11.7024 581 64.3511 847.623 579.382
266 0 51.2642 12.6014 646 65.3158 847.74 576.11
267 0 53.3445 12.4474 664 65.494 847.837 576.468
268 0 55.0761 12.5463 691 63.2562 849.324 575.58
269 0 60.2953 13.2846 801 60.3283 849.342 574.784
270 0 60.1768 13.7428 827 60.1004 849.591 573.497
271 0 61.1753 12.5868 770 61.7922 849.69 572.942
272 0 64.2098 12.8797 827 61.8585 849.407 572.93
273 0 65.2198 14.0295 915 61.7169 849.531 571.142
274 0 66.1604 13.558 897 62.3512 849.282 570.479
275 0 67.1947 13.6469 917 62.626 849.539 569.612
276 0 69.3322 14.1204 979 62.5322 849.694 568.191
277 0 69.1311 13.2213 914 63.8775 849.697 568.358
278 0 73.3145 14.1036 1034 62.2099 849.506 565.891
279 0 73.314 14.0219 1028 63.2782 850.211 564.285
280 0 77.1545 13.8683 1070 62.2514 849.878 564.726
281 0 80.1499 13.5496 1086 62.5424 850.364 562.426
282 0 81.3833 14.3641 1169 61.6715 850.107 560.923
283 0 85.3275 14.1338 1206 61.6658 849.818 559.158
284 0 87.3686 13.8494 1210 62.3165 850.418 557.868
285 1 47.2983 11.1843 529 60.1777 850.784 579.051
286 0 49.212 11.3793 560 61.1054 851.15 577.202
287 0 51.251 12.8778 660 59.8227 850.864 576.477
288 0 52.4854 13.4895 708 59.1893 850.453 575.955
289 0 55.5793 14.124 785 57.6497 851.139 574.241
290 0 55.3959 12.8529 712 59.8272 851.209 572.593
291 0 57.4355 13.1278 754 59.6273 851.471 572.191
292 0 58.4697 14.4348 844 58.9076 851.987 569.361
293 0 61.4059 13.9237 855 59.0713 851.674 569.898
294 0 62.4776 13.973 873 59.7595 851.89 570.468
295 0 64.4782 14.3614 926 150.293 851.821 569.503
296 0 65.6913 13.4721 885 60.9446 852.127 566.712
297 0 67.5624 13.5134 913 61.2486 851.671 565.7
298 0 69.4545 14.2827 992 60.3538 852.226 564.83
299 0 70.6457 13.9994 989 60.731 852.417 564.114
300 0 73.3629 14.0398 1030 60.9757 852.456 563.447
301 0 75.6671 13.8501 1048 60.8426 852.824 562.478
302 0 76.6876 14.1614 1086 61.1952 852.723 561.789
303 0 80.5106 13.6628 1100 61.4745 853.442 561.275
304 0 80.5517 14.1648 1141 61.6529 852.436 558.798
305 0 82.5268 14.6013 1205 61.7676 853.466 557.877
306 0 85.4016 14.0395 1199 62.9817 853.367 555.195
307 0 88.4737 13.8911 1229 63.5509 853.497 554.308
308 0 92.5758 15.0471 1393 61.85 853.314 554.39
309 1 47.4344 12.0166 570 63.6825 853.767 575.932
310 0 52.2954 12.6588 662 62.4985 853.379 573.776
311 0 53.3999 13.5019 721 61.9736 853.119 572.761
312 0 54.4443 12.9674 706 62.1856 852.837 572.486
313 0 56.5128 13.2359 748 61.6551 853.329 571.421
314 0 58.5483 14.1934 831 60.8628 852.55 569.912
315 0 59.3291 13.7201 814 62.4926 852.994 568.29
316 0 62.3297 14.0062 873 61.5865 852.974 568.928
317 0 62.3813 13.6579 852 63.527 852.647 565.702
318 0 63.2617 14.4005 911 61.8749 852.435 565.439
319 0 65.2209 14.4279 941 62.0903 852.874 564.763
320 0 68.2549 15.5593 1062 60.7024 852.754 565.424
321 0 68.4986 15.6499 1072 61.1847 852.491 563.957
322 0 70.4698 15.1128 1065 62.2911 852.72 564.383
323 0 73.5475 14.2085 1045 63.599 852.578 562.203
324 0 77.5242 15.0405 1166 61.8688 852.358 562.383
325 0 78.5326 14.5035 1139 63.3354 852.011 559.723
326 0 80.5324 14.6277 1178 63.3659 852.271 559.447
327 0 82.6333 14.4736 1196 63.8645 852.054 558.024
328 0 85.6253 15.2642 1307 62.7307 852.168 556.917
329 0 87.4775 14.5066 1269 63.8842 851.772 555.612
330 0 91.5826 15.6471 1433 61.7781 851.494 553.279
331 0 95.6008 15.0626 1440 62.275 851.157 552.31
332 1 48.4095 11.1548 540 64.763 851.7 576.317
333 0 52.098 12.5533 654 62.8716 851.234 574.145
334 0 53.1749 13.465 716 62.0154 851.613 573.648
335 0 53.2298 13.4887 718 61.7507 851.298 573.322
336 0 55.4122 14.5636 807 59.8055 850.779 572.058
337 0 56.0238 14.6366 820 59.8268 850.672 571.52
338 0 58.5356 14.5211 850 59.9318 850.964 570.268
339 0 60.3215 14.1077 851 60.1516 850.704 568.478
340 0 62.7004 15.6139 979 58.2901 850.876 569.166
341 0 65.9948 15.0466 993 59.2064 850.328 567.888
342 0 67.2639 14.8371 998 60.0892 849.808 567.13
343 0 70.132 14.7579 1035 60.3816 849.942 565.916
344 0 72.1857 15.0999 1090 60.5936 849.918 564.298
345 0 77.1723 14.811 1143 60.385 850.169 563.566
346 0 77.4397 15.341 1188 60.1456 850.353 560.902
347 0 82.1264 14.6116 1200 60.9958 849.875 560.373
348 0 84.1487 14.3199 1205 61.0548 849.666 560.017
349 0 87.4731 14.6559 1282 60.8588 849.592 558.132
350 0 89.4139 14.8523 1328 60.8193 849.62 558.05
351 0 95.2661 15.7139 1497 60.0728 849.446 554.335
352 0 96.2214 15.3292 1475 60.9064 849.976 553.321
353 1 53.2464 13.2403 705 61.2113 849.508 575.494
354 0 53.3415 14.3603 766 60.6449 849.864 574.627
355 0 56.3177 14.1163 795 61.2151 850.236 574.126
356 0 55.2629 14.6391 809 61.5019 850.073 573.965
357 0 58.2625 14.2802 832 61.857 850.225 573.368
358 0 60.1679 14.7753 889 61.8391 850.791 570.317
359 0 61.1751 15.2677 934 61.0493 850.587 570.499
360 0 64.292 14.9941 964 61.5788 850.407 569.238
361 0 64.1889 14.7378 946 62.3827 850.22 568.347
362 0 67.2517 15.1074 1016 62.1634 850.152 566.492
363 0 69.2513 14.9311 1034 62.3965 849.608 565.561
364 0 70.2911 15.2651 1073 61.9404 849.643 565.51
365 0 73.4498 14.6222 1074 62.5028 849.464 565.411
366 0 75.5431 14.9319 1128 62.2961 849.792 564.029
367 0 81.3084 15.4597 1257 60.7733 850.279 563.57
368 0 81.5379 15.4897 1263 61.7949 850.391 560.674
369 0 84.2791 14.9859 1263 62.2589 850.816 559.907
370 0 86.3428 14.176 1224 63.4101 850.9 557.85
371 0 90.3434 14.7216 1330 62.0436 850.876 557.219
372 0 94.3356 15.254 1439 61.6379 850.903 554.2
373 0 96.3163 14.7431 1420 62.3176 850.77 553.714
374 1 51.1553 12.8823 659 61.4355 851.272 577.082
375 0 50.0845 13.4772 675 62.7289 851.287 574.003
376 0 51.295 13.5881 697 60.6011 850.928 574.247
377 0 53.1311 14.6807 780 59.8667 851.323 573.312
378 0 55.1969 15.182 838 59.457 851.709 571.586
379 0 58.1095 14.4555 840 60.5512 852.323 570.082
380 0 58.3835 14.4219 842 61.1033 851.833 569.325
381 0 59.3696 14.4855 860 60.8372 852.535 569.762
382 0 62.3906 15.8517 989 59.2326 852.271 568.781
383 0 67.4919 15.3796 1038 59.1166 852.505 566.471
384 0 68.2794 14.88 1016 60.0423 852.968 566.31
385 0 68.4725 15.7874 1081 60.025 852.856 563.901
386 0 72.2932 14.9253 1079 60.2641 853.005 563.411
387 0 75.5075 16.0117 1209 59.0935 852.912 562.798
388 0 75.4815 14.8911 1124 60.944 853.34 560.091
389 0 79.3027 15.0058 1190 60.8697 853.401 559.313
390 0 82.4802 15.2037 1254 60.5718 853.998 557.505
391 0 84.4183 14.6058 1233 61.3455 854.178 556.367
392 0 88.296 15.4933 1368 60.3991 853.961 554.996
393 0 88.6694 14.5935 1294 61.5989 854.193 554.855
394 0 92.4307 14.2377 1316 62.1938 853.841 551.847
395 0 96.9763 14.4984 1406 60.9452 853.841 549.685
396 1 51.7116 11.4868 594 60.5354 854.357 571.042
397 0 52.0175 12.6496 658 58.3222 854.322 573.459
398 0 53.5467 12.6805 679 59.0103 854.845 571.18
399 0 54.7415 13.6825 749 57.2537 854.656 571.037
400 0 56.5509 13.1209 742 57.721 854.158 568.935
401 0 58.3544 12.4241 725 58.3021 854.313 568.612
402 0 58.5896 13.586 796 57.4849 854.043 567.668
403 0 63.6309 13.9083 885 56.2667 854.358 566.22
404 0 65.7432 13.8874 913 55.8773 854.361 565.497
405 0 65.4918 13.5132 885 56.7266 854.002 564.42
406 0 67.987 14.238 968 56.1581 853.908 563.069
407 0 70.4556 13.1856 929 56.9333 854.058 563.364
408 0 72.5221 13.4028 972 56.8786 854.047 561.734
409 0 73.7904 13.7552 1015 56.7557 854.253 560.802
410 0 75.4814 13.4073 1012 57.2905 854.485 559.989
411 0 78.7915 13.6436 1075 57.1591 854.072 559.925
412 0 79.7308 13.5205 1078 57.5677 854.037 556.672
413 0 82.6332 13.4087 1108 58.0596 853.772 554.361
414 0 86.0995 14.0535 1210 57.5207 853.844 553.243
415 0 87.4531 13.8474 1211 58.3055 854.162 554.197
416 0 89.5733 13.6425 1222 59.027 853.417 551.875
417 0 93.5755 12.6422 1183 59.8107 853.445 552.476
418 0 94.0968 13.8899 1307 59.7437 853.561 548.282
419 0 97.6636 13.9868 1366 59.2555 853.479 548.877
420 0 101.798 13.458 1370 59.8606 852.935 546.456
421 0 106.333 14.7462 1568 58.1907 852.5 546.426
422 0 108.656 13.2896 1444 60.1614 852.57 542.947
423 1 60.2783 12.7409 768 58.3047 853.181 570.004
424 0 63.0087 10.7763 679 59.0118 853.224 567.476
425 0 64.7341 11.8021 764 58.0039 852.598 565.733
426 0 65.236 12.4165 810 58.3914 852.623 563.889
427 0 69.5772 12.576 875 58.1314 852.215 563.514
428 0 71.5413 12.692 908 59.141 851.924 561.621
429 0 75.1877 14.5237 1092 57.0485 851.708 560.357
430 0 77.9266 13.2176 1030 58.6117 851.81 560.62
431 0 78.7266 13.1468 1035 58.77 851.508 558.57
432 0 80.7624 13.1125 1059 58.5751 851.305 557.197
433 0 84.6038 13.0254 1102 58.4583 851.444 556.011
434 0 88.7422 13.1504 1167 57.3488 850.856 555.278
435 0 91.8633 13.4439 1235 56.9919 851.169 551.508
436 0 94.7885 13.5459 1284 56.4322 850.929 551.812
437 0 98.6556 13.3697 1319 56.3912 851.122 550.998
438 0 99.6775 12.7612 1272 57.3868 850.861 548.644
439 0 103.681 12.8857 1336 56.9746 851.112 547.75
440 1 57.8004 10.6747 617 55.7164 850.465 571.408
441 0 59.691 11.8108 705 55.4397 850.468 568.567
442 0 62.9703 12.1168 763 54.9292 849.412 567.024
443 0 65.253 13.2254 863 53.6686 849.431 566.53
444 0 66.4407 12.3268 819 54.823 851.094 566.968
445 0 67.8533 14.1776 962 53.0863 850.793 565.549
446 0 71.5277 14.7635 1056 52.0625 850.813 565.67
447 0 74.613 14.1664 1057 52.5572 850.862 563.267
448 0 76.4643 14.255 1090 52.4413 850.45 562.954
449 0 78.4269 13.605 1067 53.5717 850.53 559.566
450 0 82.4135 14.9005 1228 52.1938 850.187 558.838
451 0 83.2567 14.7736 1230 52.4252 850.466 559.211
452 0 86.3837 14.3198 1237 52.5861 850.119 556.679
453 0 88.2802 14.5333 1283 52.8012 849.734 557.104
454 0 92.0891 13.943 1284 53.7064 850.054 554.076
455 0 95.6404 14.6173 1398 52.8848 849.479 551.071
456 0 101.217 14.869 1505 52.3209 849.209 551.215
457 1 50.3878 11.213 565 53.669 849.253 573.927
458 0 53.1001 12.241 650 52.56 849.208 574.732
459 0 57.41 14.231 817 50.3109 849.233 574.018
460 0 64.016 12.2157 782 51.5793 849.421 567.494
461 0 66.4172 12.9635 861 51.554 849.445 566.03
462 0 66.4395 12.8086 851 51.8143 849.523 566.764
463 0 64.8896 13.993 908 51.1167 848.904 569.177
464 0 67.1797 13.0248 875 51.936 848.811 568.493
465 0 68.2399 13.9068 949 51.5796 849.228 567.215
466 0 69.8135 14.195 991 51.2573 849.112 567.112
467 0 70.4604 13.7808 971 52.5005 849.316 565.549
468 0 71.4249 14.1547 1011 52.2532 849.367 564.829
469 0 74.0673 14.2843 1058 52.0265 849.334 564.664
470 0 76.2823 13.7778 1051 52.5814 849.365 563.68
471 0 79.4883 14.3292 1139 52.4802 849.412 560.387
472 0 80.4883 14.1263 1137 52.6561 849.164 561.262
473 0 85.6957 14.5398 1246 52.3138 849.537 559.701
474 0 89.279 14.6955 1312 51.7233 849.188 559.078
475 0 91.5647 15.1914 1391 51.5363 849.519 557.057
476 1 48.154 11.1309 536 51.5634 850.209 580.379
477 0 50.4071 12.5776 634 52.1877 850.18 577.17
478 0 52.73 12.6683 668 51.7066 849.9 577.064
479 0 55.45 13.7421 762 51.3215 850.144 574.402
480 0 54.9756 13.7152 754 52.0318 850.354 574.027
481 0 58.8295 14.2276 837 52.405 850.388 574.645
482 0 57.6657 13.6129 785 53.949 850.225 573.431
483 0 61.3983 14.0883 865 53.4428 850.098 572.449
484 0 61.6994 13.0633 806 55.2295 850.182 572.091
485 0 63.635 14.3946 916 54.0535 850.496 568.883
486 0 65.7666 12.9853 854 55.2389 850.728 570.769
487 0 68.4829 14.0911 965 54.1472 850.699 568.199
488 0 68.9039 13.2358 912 55.4331 849.883 567.365
489 0 68.9039 13.2503 913 158.457 850.878 567.403
490 0 73.5056 13.0738 961 55.2914 850.251 565.28
491 1 39.721 11.1276 442 53.9751 850.629 582.631
492 0 38.2407 10.0678 385 55.0571 850.829 582.34
493 0 42.5774 12.307 524 53.7385 850.803 579.563
494 0 43.2338 13.4386 581 53.5353 850.816 578.873
495 0 46.7264 13.5256 632 53.0854 850.693 578.601
496 0 48.3024 13.9537 674 52.4362 850.721 577.786
497 0 47.3728 14.4598 685 52.5942 850.439 577.172
498 0 49.7187 14.1999 706 52.9731 850.751 575.822
499 0 51.3392 12.9336 664 54.6054 851.066 574.306
500 0 51.5715 14.4654 746 53.5818 850.394 574.371
501 0 53.7379 13.603 731 54.1395 850.795 575.766
502 0 53.3166 13.9169 742 54.3113 850.708 573.871
503 0 55.4328 13.4577 746 54.5335 850.771 574.729
504 0 57.5227 14.3769 827 54.3446 850.307 572.117
505 0 60.9692 13.761 839 54.4708 850.566 571.453
506 0 62.1422 14.5473 904 53.2356 850.711 568.826
507 0 62.1121 12.7189 790 55.657 850.887 568.605
508 0 66.1816 13.3572 884 54.6867 850.655 566.61
509 0 67.7911 14.884 1009 53.5144 850.649 564.701
510 0 68.5143 13.4133 919 55.6159 850.369 564.665
511 1 37.7846 10.0305 379 56.1346 850.58 579.786
512 0 39.8813 12.0859 482 53.834 850.367 579.716
513 0 39.5403 11.3302 448 55.7433 850.185 579.562
514 0 42.7208 12.9913 555 53.4847 850.409 578.858
515 0 43.6393 12.9929 567 54.3898 851.12 576.757
516 0 47.0742 14.6152 688 52.2544 851.327 576.115
517 0 45.8806 12.6415 580 55.5914 851.266 576.391
518 0 47.7597 13.7982 659 54.3794 851.103 574.344
519 0 49.9495 13.3335 666 54.5976 850.974 574.898
520 0 51.6979 12.5344 648 56.1003 851.586 573.552
521 0 53.8201 13.4522 724 55.4669 850.96 572.254
522 0 52.6811 13.5153 712 55.4368 851.24 571.881
523 0 53.4124 14.0978 753 55.4183 850.061 572.154
524 0 57.745 14.0272 810 54.9099 850.968 572.312
525 0 58.7903 14.4071 847 54.7875 850.634 571.348
526 0 59.5903 14.7507 879 54.7873 850.501 570.602
527 0 61.5658 14.5698 897 55.1561 850.623 568.639
528 0 61.5666 14.0661 866 56.5266 850.639 567.662
529 0 64.9018 14.4526 938 55.9083 851.633 567.058
530 0 64.745 14.0088 907 57.0066 850.441 566.755
531 0 68.7644 14.8187 1019 55.9735 850.659 566.081
532 0 71.7358 14.7625 1059 56.1067 850.961 564.661
533 0 73.4974 14.0821 1035 57.2705 850.887 561.193
534 0 73.5439 14.4132 1060 57.4906 851.184 562.075
535 0 74.5271 13.3911 998 58.8717 851.343 560.565
536 0 79.519 14.8392 1180 56.9661 851.348 560.762
537 0 81.5936 13.7266 1120 58.0438 850.562 558.106
538 1 45.6899 12.8256 586 58.0222 850.812 574.352
539 0 45.4948 13.1444 598 58.2258 851.293 573.776
540 0 48.754 12.7579 622 58.1109 850.873 572.947
541 0 49.7276 13.8957 691 57.6425 851.658 573.32
542 0 51.5254 14.3619 740 57.1541 850.645 572.232
543 0 50.6821 14.9757 759 57.9275 851.227 572.833
544 0 54.6832 13.6605 747 58.7871 850.7 570.191
545 0 56.6479 14.4224 817 58.1922 850.491 569.102
546 0 57.0131 14.979 854 57.719 850.331 569.425
547 0 58.6131 13.2564 777 59.758 850.26 567.963
548 0 60.7198 14.8387 901 57.515 850.427 568.123
549 0 62.5086 14.606 913 58.2574 850.913 565.677
550 0 62.5664 13.8733 868 59.5392 850.257 565.498
551 0 67.9806 15.1808 1032 57.219 850.535 565.472
552 0 67.4477 14.5743 983 58.3825 850.315 561.383
553 0 70.3908 14.1354 995 58.598 850.232 562.092
554 0 72.5941 15.0426 1092 57.5266 850.387 561.583
555 0 76.8299 14.2783 1097 58.6873 850.662 559.861
556 0 76.8905 14.3191 1101 59.03 850.338 559.93
557 0 80.6399 15.3398 1237 58.169 850.283 557.2
558 0 82.3151 14.6875 1209 59.1563 850.491 555.119
559 1 43.2346 13.8084 597 57.1374 850.776 576.144
560 0 43.2636 12.0656 522 59.8065 850.49 575.9
561 0 46.1677 14.534 671 57.383 850.283 574.708
562 0 47.277 13.6007 643 58.6283 850.358 573.762
563 0 48.59 13.8094 671 60.5097 850.043 573.94
564 0 52.7479 13.4034 707 60.1485 849.68 573.082
565 0 53.4393 14.6521 783 59.2542 849.724 573.447
566 0 52.4592 14.3921 755 60.747 849.371 572.555
567 0 55.4873 14.1294 784 61.1531 849.256 571.235
568 0 56.1235 14.2186 798 62.1391 850.264 569.053
569 0 60.2128 15.2792 920 60.3239 850.536 570.083
570 0 60.0804 14.4972 871 62.1079 850.334 568.39
571 0 61.2579 15.0838 924 61.842 849.469 568.094
572 0 65.3794 14.6682 959 62.0782 849.846 566.694
573 0 67.3589 14.2966 963 62.1236 849.958 568.341
574 0 70.2544 15.4581 1086 61.3195 849.313 566.375
575 0 72.4192 14.8303 1074 62.0801 849.057 565.404
576 0 73.2754 14.3295 1050 64.1533 849.43 564.114
577 0 75.2776 15.1041 1137 63.4266 848.457 561.485
578 0 80.4192 15.1332 1217 62.576 848.657 560.79
579 1 41.3534 12.4536 515 63.3845 849.206 580.13
580 0 43.1782 12.8074 553 62.8716 849.143 579.58
581 0 44.1509 14.3145 632 61.6503 848.78 578.611
582 0 44.208 13.6175 602 62.5963 848.945 577.741
583 0 46.1667 14.4476 667 61.1574 847.988 576.958
584 0 48.2547 14.7343 711 61.0492 848.655 575.121
585 0 50.3196 13.8514 697 61.792 848.313 574.702
586 0 51.2184 13.6474 699 62.2432 848.677 573.964
587 0 51.4757 14.0843 725 61.7766 847.908 573.726
588 0 52.2484 13.7229 717 62.4449 847.879 573.671
589 0 55.3506 13.9475 772 61.5324 847.802 572.648
590 0 57.1996 13.8463 792 61.7146 847.394 573.847
591 0 60.495 15.1252 915 59.5967 847.353 572.689
592 0 62.482 15.1724 948 59.2838 847.309 571.874
593 0 63.6279 14.8205 943 60.2333 847.685 570.099
594 0 65.3511 15.3326 1002 59.6277 847.894 568.743
595 0 67.6094 14.3175 968 60.1601 847.363 567.935
596 0 70.2679 15.3698 1080 58.3796 847.46 569.162
597 0 73.4101 15.5292 1140 58.5684 847.358 567.384
598 0 73.6729 15.1345 1115 59.6099 847.447 566.378
599 0 78.1779 16.4113 1283 58.2634 847.193 563.627
600 0 79.3929 15.2155 1208 60.38 847.043 562.687
601 0 82.3874 15.0144 1237 60.2474 846.808 561.792
602 0 85.3488 15.5128 1324 59.6307 846.83 561.477
603 0 88.1308 14.6714 1293 61.2599 847.075 559.169
604 0 90.2235 15.4616 1395 60.2789 847.104 558.601
605 0 94.4375 16.1271 1523 59.5364 847.883 555.835
606 0 95.7232 15.127 1448 61.0394 847.868 556.012
607 0 98.3659 15.6457 1539 61.6504 848.131 554.298
608 0 101.263 15.0104 1520 63.8197 847.599 552.419
609 0 105.208 16.13 1697 62.3388 848.25 550.316
610 0 107.526 14.9918 1612 64.7159 847.993 548.954
611 0 109.294 15.3348 1676 64.7828 847.896 548.439
612 0 113.208 15.6614 1773 64.5296 847.788 545.695
613 0 116.412 15.2476 1775 65.982 848.177 544.535
614 0 121.387 16.0313 1946 64.7811 848.401 543.814
615 0 125.725 15.7487 1980 65.2091 848.412 541.713
616 0 127.275 15.6983 1998 66.2558 847.824 538.962
617 0 131.335 15.5023 2036 66.3757 848.018 536.674
618 0 134.462 15.3426 2063 66.8783 848.086 534.907
619 0 138.279 15.9316 2203 66.0227 848.473 535.577
620 0 143.285 15.6542 2243 66.6112 847.951 532.549
621 0 149.391 16.3397 2441 65.8456 848.002 529.916
622 1 72.2731 12.2037 882 71.28 848.492 567.103
623 0 75.1954 13.2854 999 70.3073 848.659 564.983
624 0 81.1784 14.8315 1204 68.4917 848.768 561.76
625 0 81.2367 15.0425 1222 68.7087 848.496 561.435
626 0 85.3299 15.0475 1284 68.3162 848.922 559.61
627 0 89.1717 15.5879 1390 68.0137 848.666 556.428
628 0 92.1873 14.6333 1349 69.3662 849.129 556.85
629 0 95.2591 14.4973 1381 69.2143 848.78 554.424
630 0 98.1634 15.352 1507 67.5196 848.832 555.266
631 0 105.603 14.545 1536 67.6549 848.727 547.613
632 0 108.507 14.3125 1553 67.5184 848.751 546.443
633 1 63.5872 12.4868 794 66.7368 849.456 568.904
634 0 66.793 11.9324 797 67.7553 848.731 567.302
635 0 71.8937 13.0888 941 65.5282 849.338 563.757
636 0 73.5921 13.602 1001 65.3307 848.918 560.846
637 0 74.745 13.7133 1025 65.1717 849.24 559.672
638 0 77.6785 13.7361 1067 64.9119 849.632 559.55
639 0 79.8953 14.7193 1176 63.2126 849.611 559.141
640 0 81.7148 13.2045 1079 65.4282 849.368 556.784
641 0 85.6902 14.214 1218 63.9869 850.163 556.105
642 0 88.7531 14.0502 1247 63.8204 850.783 554.589
643 0 90.6398 14.7948 1341 63.2491 850.576 552.13
644 0 95.0004 15.2526 1449 62.472 850.527 551.905
645 0 94.4132 14.6696 1385 64.6549 851.332 549.993
646 0 96.4866 14.7067 1419 64.6159 851.112 550.877
647 0 100.359 15.4943 1555 63.2199 851.397 549.918
648 0 102.09 15.1141 1543 64.9423 851.853 548.192
649 0 104.195 15.0774 1571 65.471 852.094 547.107
650 0 109.166 14.9864 1636 65.5709 852.076 543.286
651 0 114.155 15.5491 1775 64.6304 851.619 542.456
652 0 117.323 15.4616 1814 64.6615 850.851 542.146
653 1 60.1819 12.8942 776 65.8918 851.25 570.893
654 0 63.2196 14.1096 892 64.4989 850.882 567.105
655 0 65.2339 14.517 947 63.9166 851.528 567.238
656 0 69.1784 14.5132 1004 64.4711 851.374 564.195
657 0 70.295 14.4391 1015 64.4256 851.004 563.532
658 0 74.3729 14.5214 1080 64.5269 851.206 561.599
659 0 76.3704 14.2333 1087 64.5906 850.888 560.559
660 0 79.2835 15.123 1199 63.3311 851.701 558.794
661 0 82.2115 14.0126 1152 64.6528 851.303 557.817
662 0 87.3911 14.6354 1279 63.6982 851.271 554.522
663 0 89.1534 14.0208 1250 64.5352 851.485 553.793
664 0 92.2145 14.6181 1348 63.8227 851.924 552.772
665 0 93.2866 14.1928 1324 64.4645 852.006 550.958
666 0 97.241 15.0142 1460 63.2849 852.025 549.455
667 0 98.1351 14.745 1447 64.2267 852.223 548.749
668 0 103.24 14.4711 1494 64.4311 852.89 548.097
669 0 107.303 15.0229 1612 63.536 852.661 545.892
670 0 108.276 14.9526 1619 64.5479 852.457 543.655
671 0 114.288 15.2772 1746 63.2486 852.471 539.733
672 0 117.493 15.4137 1811 63.0326 853.015 537.517
673 0 120.287 14.0996 1696 64.0837 852.685 538.324
674 0 125.205 14.9834 1876 63.17 853.025 534.47
675 0 129.265 14.4664 1870 63.7904 852.779 530.894
676 1 68.1458 11.9156 812 64.4914 854.086 562.756
677 0 70.1806 12.4251 872 63.6858 853.778 562.481
678 0 73.1249 14.7146 1076 61.0725 853.578 559.718
679 0 76.2689 13.2688 1012 62.8715 853.975 559.125
680 0 79.2753 13.9009 1102 63.1561 853.719 557.324
681 0 81.3593 14.393 1171 63.1956 853.996 554.955
682 0 83.2409 14.1036 1174 63.6865 853.779 554.882
683 0 88.5771 13.6717 1211 63.2048 853.908 555.637
684 0 91.1973 14.3754 1311 63.3692 854.625 551.03
685 0 94.3167 14.2181 1341 63.5339 854.452 550.225
686 0 95.55 14.2125 1358 63.8638 853.585 547.739
687 0 99.3544 14.1916 1410 63.8163 854.312 547.7
688 0 101.217 13.5254 1369 65.2206 853.52 545.95
689 0 104.293 13.788 1438 65.2288 853.864 544.987
690 0 106.474 13.9565 1486 65.3096 853.625 543.13
691 0 110.491 13.3585 1476 65.939 853.997 541.857
692 0 115.399 14.0902 1626 64.5529 853.239 539.131
693 0 118.243 14.0727 1664 64.512 853.379 539.022
694 1 66.2072 12.914 855 63.5462 852.96 565.511
695 0 66.2839 13.0499 865 64.2855 852.576 564.801
696 0 68.2555 14.0209 957 63.2508 853.47 563.206
697 0 73.3876 13.9261 1022 63.0313 853.734 561.108
698 0 73.1783 13.8702 1015 63.8483 853.56 557.98
699 0 76.2337 14.3637 1095 62.6301 853.302 560.463
700 0 77.3249 14.5749 1127 62.9086 852.768 557.83
701 0 80.3875 14.8655 1195 62.5213 852.589 558.33
702 0 80.2845 14.5358 1167 63.6821 852.22 556.535
703 0 83.294 13.4343 1119 64.7971 852.177 556.022
704 0 86.3733 14.1016 1218 63.7447 852.414 554.552
705 0 90.2948 13.5113 1220 63.9615 852.15 553.58
706 0 91.207 13.5955 1240 64.2685 852.19 551.908
707 0 97.2126 15.1215 1470 61.7769 852.033 549.449
708 0 98.4615 14.1984 1398 63.7861 852.006 548.032
709 1 53.0918 11.3012 600 63.1817 852.467 572.662
710 0 54.0693 13.6861 740 65.0838 852.085 570.661
711 0 55.0793 12.2369 674 67.365 852.162 570.682
712 0 55.0793 12.2732 676 161.658 851.18 570.66
713 0 61.0586 13.3478 815 65.1914 852.61 568.321
714 0 60.1153 13.2579 797 65.9134 852.67 568.882
715 0 62.2189 14.2883 889 62.9741 851.613 567.929
716 0 65.3122 13.6115 889 63.5793 851.614 567.867
717 0 66.269 13.3697 886 64.272 851.582 566.282
718 0 69.1448 14.3612 993 62.9819 851.692 564.401
719 0 70.2288 14.3531 1008 63.2401 851.619 564.057
720 0 72.2259 14.0116 1012 63.8103 851.647 563.003
721 0 74.1915 14.3008 1061 63.8096 851.379 562.838
722 0 75.3623 13.5214 1019 65.212 851.346 560.646
723 0 78.2595 13.9536 1092 65.1154 851.147 561.223
724 0 80.1852 13.1196 1052 65.7576 850.74 559.542
725 0 85.2164 14.4691 1233 64.4517 850.559 558.574
726 1 45.0333 11.2583 507 64.7081 850.909 577.195
727 0 46.1163 12.3167 568 64.4771 850.555 576.676
728 0 47.072 12.534 590 64.222 850.153 577.069
729 0 50.1466 13.0617 655 62.9969 850.386 574.937
730 0 51.2296 13.1174 672 63.4122 849.765 575.097
731 0 51.2188 14.2526 730 63.3986 849.662 575.074
732 0 54.3632 13.9801 760 63.6566 849.612 574.472
733 0 54.2491 14.3781 780 64.4885 849.512 573.473
734 0 56.2772 15.2282 857 63.4399 849.656 573.953
735 0 59.3248 14.2099 843 63.8019 849.119 573.783
736 0 61.3185 14.971 918 62.9532 848.133 570.593
737 0 63.2572 15.5713 985 62.5025 848.283 570.61
738 0 63.772 15.1948 969 63.3251 848.414 570.551
739 0 66.4646 15.7377 1046 63.3652 848.276 567.78
740 0 66.8707 15.5225 1038 63.5867 848.376 567.037
741 0 68.5151 15.7921 1082 63.8826 848.088 565.45
742 0 70.3637 14.6098 1028 64.9942 848.485 566.728
743 0 73.342 14.3574 1053 66.1709 848.26 563.54
744 0 74.3713 15.4764 1151 65.6412 848.384 563.841
745 1 39.364 13.7689 542 66.9852 848.474 581.068
746 0 41.6055 13.8924 578 67.2249 848.737 580.13
747 0 42.5433 14.1033 600 67.4617 848.548 579.635
748 0 41.4504 14.6681 608 67.0707 848.577 579.574
749 0 44.7098 14.4711 647 66.8856 848.611 579.238
750 0 46.4926 14.8841 692 66.487 848.205 578.262
751 0 48.3716 14.8227 717 66.9372 847.81 577.254
752 0 48.4946 14.8264 719 67.2197 847.88 577.658
753 0 49.5129 14.5417 720 68.7236 847.742 575.907
754 0 52.809 14.6755 775 67.8155 847.586 574.809
755 0 52.2575 15.2131 795 68.0981 847.454 574.667
756 0 54.233 15.0278 815 68.908 847.058 574.963
757 0 54.1855 15.7053 851 69.0693 847.06 573.982
758 0 59.6709 15.7531 940 67.85 847.204 573.559
759 0 59.4331 15.1936 903 69.0532 847.217 574.404
760 0 61.5954 15.1635 934 69.8972 847.202 571.097
761 0 63.6844 14.3677 915 70.7716 847.13 569.923
762 0 67.8894 15.7904 1072 68.6604 847.744 569.269
763 0 69.6002 14.3965 1002 70.5768 848.024 567.759
764 0 74.4249 15.5324 1156 69.1324 847.939 566.465
765 0 80.3357 13.7797 1107 70.7091 847.605 562.12
766 1 40.2884 11.7652 474 72.2806 847.692 580.54
767 0 43.1501 12.051 520 72.0192 848.035 580.479
768 0 42.1027 13.3246 561 71.1515 847.799 578.672
769 0 47.1253 12.4986 589 70.8404 847.839 578.255
770 0 48.1639 13.3918 645 69.7318 847.93 578.2
771 0 49.1468 14.7721 726 68.2245 848.309 577.309
772 0 51.1695 14.0318 718 68.7201 848.287 577.145
773 0 52.165 14.0516 733 69.2183 847.774 577.948
774 0 50.1208 13.7468 689 71.0552 847.578 577.167
775 0 53.2273 13.959 743 70.3715 847.89 576.008
776 0 54.1227 14.4302 781 70.2356 847.8 576.798
777 0 56.423 13.8241 780 71.3769 847.967 575.123
778 0 60.1973 15.5821 938 67.9691 848.061 574.344
779 0 60.1749 14.2584 858 70.4068 848.322 574.709
780 0 62.1601 13.8674 862 72.1949 848.174 572.745
781 0 63.1484 15.0914 953 70.9339 848.212 570.962
782 0 65.1556 14.4424 941 72.017 848.359 571.762
783 0 68.183 14.7397 1005 71.8219 848.366 569.965
784 0 71.2328 14.9931 1068 71.3483 848.669 570.142
785 0 73.0957 15.9791 1168 70.5899 848.902 567.203
786 0 75.1236 14.3896 1081 73.086 849.123 566.755
787 0 77.2039 15.4267 1191 72.351 848.933 564.468
788 0 79.3582 15.6001 1238 71.6309 849.173 565.419
789 1 41.1269 13.738 565 73.0142 849.064 582.338
790 0 42.0163 13.3282 560 73.3893 849.216 582.7
791 0 43.1485 14.4848 625 72.8784 849.467 580.731
792 0 44.0567 14.0728 620 73.6516 849.761 579.355
793 0 42.0444 14.7225 619 74.5234 850.184 580.134
794 0 45.0802 15.0399 678 73.9307 849.954 579.302
795 0 47.1639 15.5627 734 72.9482 849.864 577.308
796 0 48.2119 16.0749 775 72.831 850.182 577.05
797 0 51.1628 16.4964 844 71.5332 850.545 577.192
798 0 49.2946 15.945 786 64.4784 850.714 576.215
799 0 50.1863 15.8011 793 65.3947 850.256 575.615
800 0 55.3279 15.128 837 64.7467 851.03 574.982
801 0 56.0599 15.2872 857 64.133 851.405 574.477
802 0 56.1184 15.5386 872 65.7787 851.197 573.255
803 0 58.1297 16.0675 934 65.3544 850.972 572.531
804 0 60.3187 16.4791 994 65.0191 850.614 572.283
805 0 61.2195 15.8609 971 66.2564 850.754 571.55
806 0 65.226 16.2819 1062 65.1582 850.869 571.376
807 0 66.1907 16.3769 1084 65.0424 851.173 569.371
808 0 69.1156 15.7562 1089 65.5767 851.248 568.875
809 0 71.3104 16.1547 1152 65.9392 850.839 566.773
810 0 72.1863 15.6539 1130 67.1558 851.175 565.827
811 0 76.288 16.6737 1272 65.3058 851.519 566.677
812 1 40.3986 14.3074 578 67.6661 851.273 582.597
813 0 38.2734 15.4938 593 68.6577 851.45 581.334
814 0 40.2471 15.0818 607 68.3196 851.802 580.975
815 0 41.2829 15.8661 655 67.6611 852.479 580.936
816 0 41.5268 16.4954 685 67.7153 852.016 580.542
817 0 41.5605 16.1211 670 68.8045 851.916 580.67
818 0 44.4741 16.0768 715 67.7692 851.903 580.554
819 0 46.8285 17.9805 842 66.3219 851.929 578.548
820 0 46.8285 17.8737 837 171.19 851.914 578.529
821 0 49.4923 17.1946 851 67.4712 852.221 577.827
822 0 50.4686 16.4261 829 68.4511 851.691 577.999
823 0 52.8534 17.2931 914 67.7254 852.186 575.202
824 0 50.6367 17.5169 887 69.398 851.555 574.201
825 0 54.7058 17.585 962 69.4948 851.843 573.583
826 0 54.7415 17.3178 948 70.6487 851.242 573.591
827 0 57.9521 17.8596 1035 70.4 851.428 571.313
828 0 60.934 18.0031 1097 70.2315 851.99 570.781
829 0 60.8789 18.5286 1128 70.9645 851.659 569.31
830 0 63.7961 18.1046 1155 71.6909 852.003 569.662
831 0 64.0662 16.28 1043 73.5532 851.703 569.125
832 0 67.1352 17.2637 1159 73.0966 851.799 569.279
833 0 68.648 17.9612 1233 72.4234 851.664 567.397
834 0 70.8881 17.182 1218 74.1494 851.544 564.264
835 0 74.9208 16.6042 1244 74.6487 851.729 565.206
836 0 76.361 16.0291 1224 80.1168 851.691 563.906
837 1 35.4524 17.2908 613 79.721 851.52 582.467
838 0 36.8568 17.0932 630 81.0397 851.581 582.352
839 0 36.4867 18.034 658 81.4559 851.315 581.913
840 0 38.6223 18.3831 710 81.462 851.244 580.961
841 0 39.6313 17.9151 710 81.7437 851.166 582.159
842 0 41.9374 16.9777 712 82.486 851.156 581.837
843 0 43.1861 17.4362 753 80.4462 851.267 581.058
844 0 44.7517 18.4127 824 79.199 850.95 581.237
845 0 46.4105 18.2933 849 79.7644 851.031 580.201
846 0 46.4736 17.8166 828 81.5676 850.749 580.314
847 0 49.0971 17.5163 860 81.9756 850.391 580.08
848 0 50.5995 18.6168 942 80.8588 850.289 579.328
849 0 49.5524 17.1737 851 84.812 850.002 577.881
850 0 51.8591 16.9498 879 84.3891 850.091 578.553
851 0 53.4859 16.8082 899 85.1268 849.821 578.443
852 0 55.2042 17.716 978 84.6166 849.464 576.681
853 0 57.0007 17.7015 1009 84.4242 849.39 576.983
854 0 57.6675 17.5489 1012 86.2441 849.46 574.701
855 0 60.542 18.1031 1096 84.9608 849.527 575.662
856 0 61.3914 18.097 1111 86.2718 849.727 574.59
857 0 65.157 17.2046 1121 87.2623 849.725 573.759
858 0 63.2619 18.5262 1172 86.7082 849.646 573.424
859 0 67.7136 17.7217 1200 86.8867 849.575 571.877
860 0 68.9584 16.7927 1158 88.2522 849.467 571.564
861 0 68.9584 16.7927 1158 185.71 848.465 571.553
862 0 73.3093 16.8874 1238 88.3199 849.246 570.394
863 0 76.7694 17.7414 1362 87.4721 849.082 568.408
864 0 80.4283 17.9539 1444 87.1413 849.448 565.74
865 0 82.9159 18.7178 1552 87.5657 848.548 563.284
866 0 82.9159 18.766 1556 176.576 847.561 563.283
867 1 40.2792 17.7263 714 92.3165 848.766 582.256
868 0 41.2701 17.3491 716 177.556 849.756 582.279
869 0 42.7583 17.4703 747 93.7577 848.676 583.02
870 0 44.7026 17.4263 779 93.8203 848.445 583.444
871 0 43.3722 17.8686 775 95.2942 848.275 582.415
872 0 46.0636 18.0403 831 94.4934 848.17 582.217
873 0 45.2937 17.795 806 96.0558 848.215 581.483
874 0 46.8108 17.3678 813 96.9815 847.951 580.932
875 0 50.4793 17.8093 899 95.8743 847.729 580.004
876 0 49.9299 17.3844 868 98.6717 847.918 578.887
877 0 52.8238 16.5266 873 100.478 847.678 579.286
878 0 53.3722 17.9869 960 104.585 848.193 578.794
879 0 54.5433 17.8941 976 110.682 848.162 578.453
880 0 56.0122 16.9784 951 108.755 848.022 577.47
881 0 57.3335 17.1279 982 108.655 847.888 576.892
882 0 60.4704 17.1158 1035 108.65 847.868 575.596
883 0 61.3609 18.6438 1144 108.101 847.968 575.699
884 0 64.344 18.4166 1185 111.311 847.786 573.959
885 0 65.8172 18.0044 1185 115.644 847.759 573.224
886 0 67.6803 17.6861 1197 112.656 848.053 571.967
887 0 67.6803 17.6861 1197 173.325 848.074 572.038
888 0 69.1284 17.9376 1240 92.3266 848.144 569.494
889 0 72.3437 17.5413 1269 85.383 848.503 567.065
890 1 30.0397 15.2798 459 79.3595 849.495 586.407
891 0 31.0222 16.3754 508 80.0846 849.451 585.671
892 0 31.1379 15.9934 498 79.9779 849.657 585.558
893 0 30.0382 15.2805 459 80.7756 850.039 584.874
894 0 38.0304 10.3076 392 68.7372 851.916 580.344
895 0 37.068 11.6273 431 65.4316 851.826 580.522
896 0 38.0477 10.6708 406 67.3325 852.288 580.313
897 0 38.1065 10.838 413 67.5061 852.356 580.656
898 0 37.0672 10.4405 387 69.4884 852.171 579.623
899 0 40.0865 10.652 427 68.4192 852.288 578.625
900 0 39.0701 9.72611 380 70.5158 852.947 580.408
901 0 41.0744 10.2497 421 69.8599 853.211 579.306
902 0 43.0587 10.3347 445 69.7753 853.09 578.016
903 0 43.062 10.7519 463 69.7235 853.073 577.948
904 0 44.0844 10.616 468 69.953 853.261 577.876
905 0 47.1051 11.1241 524 68.9599 853.155 576.487
906 0 47.0302 10.674 502 70.6494 853.618 574.717
907 0 50.0626 10.8264 542 70.1642 853.561 573.537
908 0 50.0626 10.8264 542 133.897 853.539 573.458
909 1 27.0172 9.43844 255 72.1843 854.161 585.027
910 0 29.0179 9.13228 265 71.9057 854.351 584.898
911 0 30.018 9.89406 297 71.4074 854.128 583.519
912 0 30.0289 10.9228 328 70.2988 854.476 584.79
913 0 31.089 11.3545 353 69.0198 854.144 584.017
914 0 33.0299 10.5965 350 69.9914 854.34 583.377
915 0 32.0795 10.3493 332 69.6235 854.328 583.503
916 0 32.0865 11.2508 361 68.5485 854.839 581.546
917 0 34.1014 11.1432 380 67.4342 854.984 580.924
918 0 32.0584 9.98178 320 71.0781 855.138 582.166
919 0 36.1056 10.5524 381 69.1155 855.055 581.898
920 0 34.1095 11.3751 388 69.1907 855.58 579.907
921 0 36.1489 11.093 401 69.9751 855.596 580.449
922 0 39.2599 11.8951 467 67.985 855.413 579.398
923 0 37.0895 11.0813 411 70.3893 855.766 579.056
924 0 40.1309 11.5622 464 69.3168 855.657 579.151
925 0 41.0957 11.5341 474 69.1181 855.342 579.559
926 0 41.1964 10.8262 446 70.8475 855.41 579.913
927 0 43.2291 12.3297 533 69.4709 854.844 577.051
928 0 46.3911 11.5108 534 69.9888 855.167 578.004
929 0 46.2452 10.7687 498 71.9799 854.98 576.165
930 0 48.3548 11.9326 577 69.6187 854.863 576.017
931 0 49.294 11.3807 561 71.4207 854.487 574.859
932 0 51.3124 11.7515 603 71.3715 854.25 573.692
933 0 53.2618 12.0912 644 70.4798 854.137 573.065
934 0 53.2624 11.9597 637 71.3626 854.115 572.397
935 0 57.2359 12.3349 706 69.8088 853.728 572.456
936 0 59.3003 12.7655 757 69.4927 853.709 571.232
937 0 59.3749 11.9747 711 70.8833 853.887 571.505
938 0 61.2624 12.324 755 70.5258 853.335 570.509
939 0 65.3345 12.4437 813 69.8881 853.058 568.086
940 0 67.2454 13.1756 886 67.9413 852.702 567.494
941 0 66.24 10.9752 727 71.9601 852.801 567.428
942 1 35.0982 10.1145 355 70.8817 853.882 582.594
943 0 38.1133 10.2327 390 70.1795 853.682 580.382
944 0 40.1243 11.9877 481 66.9418 851.146 561.185
945 1 69.0666 8.6004 594 73.0842 851.268 550.579
946 1 43.0528 11.1259 479 70.2777 851.311 532.501
947 0 49.039 14.152 694 62.3905 850.532 482.176
948 0 52.1848 15.905 830 58.1422 850.496 467.645
949 0 54.076 16.3659 885 57.0621 850.61 455.925
950 0 56.1177 15.8239 888 57.5811 850.416 442.077
951 0 57.2096 17.2698 988 55.5982 850.299 439.246
952 0 58.1324 15.4475 898 60.0156 849.94 441.541
953 0 60.0875 14.9781 900 60.4344 849.701 441.282
954 0 60.1384 18.075 1087 56.1638 850.182 438.538
955 0 62.088 17.137 1064 57.8882 849.887 438.638
956 0 66.4101 17.2413 1145 56.6987 850.136 436.666
957 0 69.1485 14.4761 1001 61.4236 849.538 439.199
958 0 67.1381 17.0693 1146 58.1684 849.785 437.191
959 0 69.1607 17.0039 1176 58.8597 849.798 438.769
960 0 72.2329 20.8354 1505 52.3076 849.302 432.811
961 0 78.1204 16.577 1295 57.2409 849.738 436.08
962 0 77.0959 17.4588 1346 56.3247 849.887 433.707
963 0 78.3877 19.3398 1516 54.2823 849.984 432.863
964 0 76.2403 17.6153 1343 58.2003 849.28 437.241
965 0 78.2875 17.5124 1371 57.6404 849.371 433.894
966 0 72.2198 15.4667 1117 63.6249 849.392 434.098
967 0 75.3846 14.9235 1125 64.2693 849.271 432.722
968 1 43.2565 10.7498 465 70.2925 849.417 452.054
969 0 43.1593 11.6777 504 69.9286 849.298 450.587
970 0 46.2799 12.0355 557 69.2226 849.118 449.896
971 0 47.4669 12.4297 590 68.8237 849.758 450.651
972 0 49.304 12.8387 633 68.5308 850.284 448.445
973 0 51.1067 14.4404 738 65.8604 849.11 437.22
974 0 53.17 14.275 759 65.3926 848.926 433.209
975 0 55.3206 13.8646 767 65.5971 848.63 432.858
976 0 54.1831 14.3956 780 65.7962 848.662 432.201
977 0 59.2553 15.0366 891 63.9708 848.469 435.019
978 0 57.1553 13.6295 779 67.6367 848.058 436.223
979 0 60.3544 14.4811 874 65.1602 847.64 438.669
980 0 61.2699 14.6891 900 65.0667 848 438.071
981 0 64.331 14.4099 927 64.9018 847.843 437.67
982 0 65.2849 13.1884 861 66.5993 847.727 440.26
983 0 68.4565 14.1258 967 64.7797 847.376 437.747
984 0 68.2684 14.8092 1011 63.9802 847.202 438.651
985 0 72.3134 15.0041 1085 63.3465 848.302 440.12
986 0 72.2287 14.4264 1042 64.547 848.047 442.691
987 0 76.529 14.6742 1123 63.7631 848.298 443.333
988 0 77.3727 13.7516 1064 64.7115 847.797 443.987
989 0 81.4814 13.7577 1121 64.0062 847.894 446.521
990 0 82.3209 13.4838 1110 65.0757 848.114 446.85
991 0 85.3985 13.396 1144 64.5944 847.409 449.259
992 0 87.4959 13.6349 1193 64.2992 847.647 449.188
993 0 89.5411 13.9712 1251 64.3517 847.612 451.06
994 0 93.2971 14.5878 1361 64.0779 847.809 449.668
995 1 52.2402 11.4854 600 65.485 847.963 475.855
996 0 53.1657 10.4579 556 65.8705 848.11 481.185
997 0 54.188 11.8107 640 66.0672 847.709 481.211
998 0 58.1366 12.1438 706 64.7946 847.993 485.463
999 0 60.1297 13.1882 793 65.5536 848.257 487.928
1000 0 63.1512 14.204 897 63.1304 848.117 492.836
1001 0 63.1145 13.1824 832 65.0529 847.508 497.062
1002 0 66.0496 13.9138 919 63.6518 847.715 497.079
1003 0 68.2409 13.7601 939 63.7583 847.931 501.69
1004 0 70.1173 14.2618 1000 62.625 847.63 505.559
1005 0 71.1048 13.7684 979 63.9479 847.402 508.112
1006 0 74.151 13.6343 1011 62.9773 847.204 514.29
1007 0 77.1686 14.5785 1125 61.8649 847.718 515.755
1008 0 77.2422 14.0856 1088 63.0938 848.025 519.493
1009 0 83.1949 14.1475 1177 61.9006 847.858 524.517
1010 0 84.197 14.0029 1179 62.2807 847.823 528.113
1011 0 90.2303 13.9643 1260 62.8881 848.071 530.829
1012 0 91.2951 13.7576 1256 63.2842 848.332 533.435
1013 0 94.1932 14.3004 1347 62.7446 847.741 536.392
1014 0 99.1522 14.271 1415 62.4488 847.909 540.278
1015 1 57.826 11.1715 646 62.7632 847.108 568.759
1016 0 57.0565 11.0242 629 63.2703 847.622 572.167
1017 0 55.1204 13.5884 749 61.0053 848.786 575.623
1018 0 56.2525 14.6127 822 59.8333 848.773 574.938
1019 0 59.3375 14.426 856 60.1589 848.942 571.218
1020 0 59.1617 14.1477 837 60.6846 849.135 571.717
1021 0 63.3769 13.9167 882 60 848.789 568.54
1022 0 64.1335 13.8773 890 60.2966 849.156 569.127
1023 0 67.182 14.5872 980 58.899 848.945 568.841
1024 0 69.1276 14.3069 989 59.3488 849.255 567.456
1025 0 71.2006 14.2555 1015 59.0118 849.282 567.304
1026 0 72.1478 14.2485 1028 59.0389 849.289 565.374
1027 0 74.2523 14.2622 1059 58.9726 849.113 565.196
1028 0 78.3442 14.5001 1136 57.9824 849.353 563.451
1029 0 80.2406 14.6808 1178 57.8014 849.112 562.518
1030 0 84.2445 14.8021 1247 57.4643 849.688 559.378
1031 1 41.3723 12.7863 529 58.0113 850.48 579.987
1032 0 43.371 11.9665 519 58.1233 849.879 580.902
1033 0 46.323 14.0535 651 56.6313 850.481 579.06
1034 0 46.484 14.0694 654 57.1101 850.338 578.364
1035 0 47.4005 14.0716 667 57.5997 850.538 578.631
1036 0 49.4735 14.1288 699 58.1745 850.647 577.064
1037 0 50.256 13.5307 680 59.5853 851.231 575.609
1038 0 54.3493 14.3884 782 57.9297 851.318 574.391
1039 0 54.1446 14.4243 781 58.2996 851.489 572.825
1040 0 58.6795 14.3151 840 57.6417 851.905 568.782
1041 0 62.0006 14.8063 918 56.2614 852.007 568.984
1042 0 63.634 15.7935 1005 55.4418 852.451 568.453
1043 0 61.3702 13.9481 856 58.9451 852.168 568.332
1044 0 63.177 14.4356 912 58.7785 852.3 570.507
1045 0 65.3318 14.8779 972 57.8488 852.608 569.722
1046 0 67.5355 14.4813 978 57.4489 852.858 570.602
1047 0 68.3079 14.5664 995 58.2302 852.867 567.848
1048 0 70.4605 15.3561 1082 57.4418 852.713 568.541
1049 0 74.6123 15.0109 1120 57.8714 852.765 565.045
1050 0 75.6061 14.192 1073 59.1007 852.818 565.287
1051 0 79.4191 15.0342 1194 58.1089 852.786 563.521
1052 0 83.4445 14.4887 1209 58.6923 852.872 561.854
1053 1 41.2727 12.4053 512 59.6191 853.25 582.498
1054 0 42.3714 12.8861 546 57.0092 853.604 581.487
1055 0 45.1016 13.3698 603 56.995 853.632 580.383
1056 0 47.1654 13.9085 656 57.2713 853.773 578.174
1057 0 46.4266 14.3237 665 58.3624 853.026 577.126
1058 0 48.1112 13.8222 665 58.7233 852.71 577.233
1059 0 50.5911 14.212 719 58.2935 852.648 575.437
1060 0 53.2128 15.5038 825 56.0933 852.772 575.84
1061 0 53.2571 14.2704 760 57.7395 852.812 574.647
1062 0 54.2736 14.777 802 58.0075 852.374 573.127
1063 0 57.409 14.0744 808 58.4171 852.484 571.746
1064 0 59.1597 15.1116 894 57.5559 852.494 571.85
1065 0 62.1839 14.441 898 58.2439 852.235 571.53
1066 0 62.2033 14.6134 909 58.3993 852.729 570.385
1067 0 65.4777 14.9669 980 57.6898 852.799 567.652
1068 0 68.2191 15.6994 1071 56.7255 852.262 567.139
1069 0 69.2378 15.1218 1047 57.9866 852.063 565.325
1070 0 71.4183 14.5341 1038 58.4605 851.832 565.982
1071 0 75.1461 14.9974 1127 57.8367 851.859 564.011
1072 0 76.217 14.1963 1082 59.0287 852.034 561.881
1073 0 80.3589 14.1117 1134 58.6085 852.291 563.02
1074 0 84.4219 14.4868 1223 58.6558 852.28 559.522
1075 1 41.2493 13.5275 558 58.4731 852.108 581.278
1076 0 41.2234 13.1964 544 59.0349 851.54 578.625
1077 0 44.3323 14.5943 647 57.7728 851.756 577.957
1078 0 45.1825 14.1869 641 58.8705 850.995 575.746
1079 0 47.1785 14.6465 691 58.712 851.126 575.535
1080 0 47.1743 14.2026 670 59.7866 850.909 574.748
1081 0 49.3204 13.5238 667 59.9115 850.921 574.244
1082 0 51.2423 14.9291 765 58.6458 850.995 574.546
1083 0 54.1008 14.6024 790 59.1367 850.887 572.29
1084 0 55.1587 14.141 780 59.5987 851.201 571.074
1085 0 57.1848 14.8466 849 58.8115 851.271 571.715
1086 0 59.2349 14.6704 869 59.7917 850.847 569.627
1087 0 62.1954 14.2133 884 60.6572 850.632 568.871
1088 0 62.2315 13.4498 837 61.6738 850.802 568.507
1089 0 65.2815 14.2154 928 60.6487 850.503 567.794
1090 0 66.3119 13.4516 892 62.1334 850.672 567.123
1091 0 69.1762 14.4703 1001 61.2488 850.81 565.975
1092 0 70.2658 14.3028 1005 61.9423 851.176 565.998
1093 0 74.1923 14.2063 1054 62.1452 850.975 563.754
1094 0 76.2001 13.4777 1027 63.5628 851.123 561.982
1095 0 78.1109 14.0569 1098 62.7641 850.709 562.215
1096 0 81.1179 14.5591 1181 62.1279 850.775 560.174
1097 1 44.0444 11.7609 518 63.7259 851.22 577.83
1098 0 45.1663 13.24 598 63.2224 851.219 575.888
1099 0 48.2698 13.2381 639 62.9264 850.859 575.034
1100 0 48.2342 13.2271 638 63.71 850.801 574.618
1101 0 50.1986 14.2434 715 62.8378 850.302 574.222
1102 0 51.2821 12.7725 655 64.8489 850.565 572.484
1103 0 56.2695 15.0881 849 60.987 850.369 572.307
1104 0 56.2587 13.9712 786 63.1031 850.158 571.36
1105 0 57.3362 13.7086 786 64.0051 850.547 570.686
1106 0 59.3069 13.388 794 63.7292 850.04 570.395
1107 0 63.1694 14.7223 930 61.9398 849.915 569.186
1108 0 64.2808 13.5499 871 62.9437 849.97 568.586
1109 0 66.1658 14.4486 956 61.9184 849.722 566.916
1110 0 67.1955 13.4533 904 62.9403 849.499 565.458
1111 0 68.1349 13.5467 923 63.0347 849.362 566.108
1112 0 72.3195 13.6478 987 62.2594 849.596 563.108
1113 0 75.4326 14.6753 1107 61.112 849.611 562.294
1114 0 77.4421 14.1783 1098 61.4964 849.373 561.052
1115 1 39.2558 11.6925 459 62.78 850.248 581.02
1116 0 42.242 12.7125 537 61.7095 849.981 579.674
1117 0 42.31 13.5193 572 61.5874 849.801 578.348
1118 0 45.212 12.8285 580 61.9207 849.798 577.567
1119 0 48.2621 13.7582 664 61.497 849.417 576.202
1120 0 48.2804 13.608 657 62.5053 849.205 574.858
1121 0 51.4075 13.7723 708 61.7938 849.38 574.87
1122 0 53.4904 14.6755 785 60.3949 848.945 574.634
1123 0 52.3261 13.5879 711 62.0281 848.53 573.193
1124 0 58.6658 14.6082 857 59.1599 848.532 568.994
1125 0 61.0865 15.6663 957 57.4692 848.912 567.545
1126 0 63.3216 16.8189 1065 56.0254 849.226 566.478
1127 0 63.1956 15.3966 973 58.6095 848.852 565.143
1128 0 64.2554 15.6251 1004 58.5697 849.125 566.621
1129 0 64.0939 15.2589 978 60.2474 849.108 566.4
1130 0 66.3591 14.6626 973 60.9548 849.081 568.525
1131 0 68.3065 15.1376 1034 60.6335 849.121 567.863
1132 0 71.2767 15.6152 1113 59.2291 849.125 568.854
1133 0 72.4022 15.1653 1098 60.5137 849.298 564.902
1134 0 73.4529 14.7033 1080 61.6315 849.007 565.731
1135 0 79.3344 16.2855 1292 59.089 848.984 564.237
1136 0 79.4096 14.9856 1190 61.7176 849.045 561.668
1137 0 81.5974 15.3069 1249 61.6693 849.035 561.436
1138 0 84.325 15.8197 1334 60.8666 849.01 561.381
1139 0 89.3787 15.2162 1360 61.0941 848.987 558.866
1140 0 91.5236 14.8377 1358 61.8689 849.447 557.658
1141 1 44.3763 11.3123 502 67.002 850.771 580.141
1142 0 46.166 13.2565 612 65.1242 850.108 578.325
1143 0 48.362 13.8745 671 64.1848 850.148 576.797
1144 0 50.4874 14.1818 716 64.3394 850.265 574.589
1145 0 50.3063 14.034 706 64.2805 850.521 574.504
1146 0 52.312 15.7899 826 61.4939 850.409 574.494
1147 0 56.158 14.6195 821 62.4629 850.693 571.482
1148 0 55.2423 14.4816 800 63.7025 850.344 570.456
1149 0 56.2562 15.0206 845 63.2142 851.108 568.606
1150 0 59.4374 14.8223 881 62.4086 850.913 568.41
1151 0 63.3292 15.4115 976 61.4068 851.177 566.371
1152 0 62.1856 14.8427 923 62.5894 851.82 565.874
1153 0 65.4993 14.9162 977 61.8874 852.078 565.979
1154 0 69.2099 16.4138 1136 59.4569 851.678 563.512
1155 0 69.1398 14.5936 1009 62.4807 851.967 564.43
1156 0 70.2078 15.5681 1093 61.6661 852.454 562.298
1157 0 76.3244 15.2507 1164 61.1847 852.971 562.273
1158 0 78.3881 15.7422 1234 59.8671 853.18 560.314
1159 0 80.5308 15.1371 1219 60.927 853.546 558.281
1160 0 81.3751 15.1275 1231 61.71 853.41 558.409
1161 0 85.4536 15.6459 1337 61.0718 853.316 555.609
1162 0 88.7013 15.4789 1373 60.8937 853.366 554.371
1163 0 89.6574 15.8604 1422 60.6786 853.801 553.572
1164 0 91.4657 14.5519 1331 62.6228 853.955 551.81
1165 1 49.4704 12.6945 628 63.2341 853.844 572.783
1166 0 52.6681 12.8921 679 62.4624 852.648 572.311
1167 0 51.4108 13.2268 680 62.5603 853.971 572.221
1168 0 56.3972 13.7241 774 60.8204 854.73 571.632
1169 0 57.513 14.2924 822 60.7141 854.401 570.421
1170 0 58.4248 15.4387 902 60.2605 854.36 566.715
1171 0 62.3685 14.8793 928 60.1929 854.398 565.967
1172 0 65.2451 15.0509 982 59.2352 854.985 566.922
1173 0 65.2451 15.0356 981 158.873 855.978 566.929
1174 0 67.2879 14.1482 952 60.8645 854.829 564.679
1175 0 70.4711 14.9281 1052 59.6702 855.293 563.455
1176 0 72.4574 14.4499 1047 60.1987 855.336 560.795
1177 0 77.3232 14.7821 1143 59.3368 854.697 560.781
1178 0 79.3259 14.2702 1132 60.1634 855.206 558.67
1179 0 81.4956 15.0438 1226 59.2113 855.258 558.646
1180 0 85.2887 14.9961 1279 58.9539 855.483 558.694
1181 1 44.3855 11.8057 524 60.9618 855.58 576.964
1182 0 45.4115 13.4107 609 60.5074 854.997 575.867
1183 0 47.4346 13.2393 628 60.3662 855.035 574.471
1184 0 50.4651 14.0097 707 60.2192 854.107 573.188
1185 0 51.2932 13.9005 713 61.3001 853.435 571.61
1186 0 53.3014 14.8026 789 59.8593 853.973 571.452
1187 0 54.3786 14.914 811 60.7102 853.704 571.662
1188 0 57.4448 13.5434 778 62.0861 854.276 569.617
1189 0 58.5399 14.7421 863 61.2097 854.035 568.389
1190 0 60.2301 14.3782 866 61.5346 853.969 568.537
1191 0 64.493 15.2109 981 60.4954 854.252 567.486
1192 0 65.774 14.3826 946 61.741 854.298 566.412
1193 0 65.5336 14.8321 972 61.9239 853.874 564.151
1194 0 68.5382 15.1594 1039 61.0914 853.744 564.472
1195 0 71.6949 15.0778 1081 61.3256 853.615 561.969
1196 0 73.5877 14.5541 1071 62.4631 853.178 561.619
1197 0 75.8866 14.548 1104 62.7672 852.542 559.737
1198 0 79.0673 15.1517 1198 61.8022 852.568 560.097
1199 0 82.6241 15.5766 1287 61.2922 852.561 559.57
1200 0 84.5583 15.9653 1350 60.9274 851.984 557.289
1201 0 86.5495 15.6789 1357 61.7377 852.558 556.13
1202 0 89.6636 15.3128 1373 62.0328 852.717 554.122
1203 0 92.6474 15.1542 1404 62.4608 852.431 553.394
1204 0 95.7748 15.3589 1471 62.2318 852.592 552.162
1205 1 48.4503 12.3425 598 64.0284 852.61 574.569
1206 0 51.642 13.2838 686 62.1924 853.074 573.392
1207 0 52.5877 13.0259 685 63.6642 852.969 572.905
1208 0 52.3551 13.4466 704 64.0256 852.357 572.587
1209 0 55.8065 14.2636 796 63.2902 852.211 570.585
1210 0 57.4747 14.6673 843 61.7295 852.573 569.547
1211 0 59.3435 14.3571 852 61.8991 851.741 570.628
1212 0 60.4044 14.3201 865 62.3006 851.742 568.532
1213 0 61.527 15.5867 959 60.0949 851.634 568.762
1214 0 63.686 15.1368 964 61.1286 851.577 566.352
1215 0 66.8447 14.8404 992 60.7692 851.279 568.127
1216 0 69.534 14.6116 1016 61.2539 850.762 565.016
1217 0 69.4383 15.1933 1055 61.1517 850.842 564.8
1218 0 73.6734 14.5507 1072 61.6054 850.288 564.268
1219 0 74.49 15.1698 1130 61.285 849.942 563.515
1220 0 78.586 15.0154 1180 61.3712 850.303 561.875
1221 0 80.4586 15.4116 1240 61.1452 850.515 560.594
1222 0 86.4694 15.0227 1299 60.7729 850.165 559.17
1223 0 86.754 15.7457 1366 60.1955 849.368 559.136
1224 0 89.4232 14.683 1313 61.9436 849.053 556.061
1225 0 93.4452 15.592 1457 60.9224 847.246 555.12
1226 0 97.6226 14.8531 1450 61.811 849.148 554.343
1227 0 99.5044 14.5119 1444 62.5422 849.359 551.123
1228 1 54.4223 12.8991 702 62.792 849.479 573.86
1229 0 57.5182 13.0393 750 62.852 848.943 572.575
1230 0 56.6094 12.7364 721 64.0305 849.266 571.329
1231 0 59.5254 12.7845 761 64.0959 849.125 570.876
1232 0 64.8096 14.1646 918 61.1394 848.929 568.576
1233 0 65.7001 14.0335 922 62.0911 848.886 567.258
1234 0 68.4394 14.7284 1008 60.5377 849.297 567.404
1235 0 69.4542 13.8077 959 62.8978 849.091 564.678
1236 0 72.5287 14.6701 1064 61.3994 849.49 564.546
1237 0 76.4095 14.684 1122 60.3939 849.161 564.432
1238 0 78.5209 14.0727 1105 61.4769 849.23 562.094
1239 0 78.4992 14.0384 1102 62.3321 848.972 560.914
1240 0 82.5929 14.4685 1195 61.5632 849.346 559.277
1241 0 82.901 13.5463 1123 63.2369 849.41 558.328
1242 0 88.5837 14.7431 1306 60.4502 849.082 557.786
1243 0 90.5369 14.6239 1324 61.1677 849.385 555.754
1244 0 94.9247 14.2639 1354 61.3678 849.541 555.18
1245 0 96.7548 15.2447 1475 60.7763 849.456 552.477
1246 0 97.6556 14.4795 1414 61.9781 849.236 552.18
1247 0 103.629 16.3468 1694 59.1629 849.33 549.519
1248 0 104.504 15.0712 1575 62.6083 849.562 550.689
1249 0 106.435 14.0461 1495 65.0656 849.633 545.31
1250 0 109.462 14.7723 1617 63.7693 849.74 546.349
1251 0 114.756 14.7182 1689 63.4245 850.184 543.472
1252 0 117.506 14.6801 1725 63.8064 849.906 542.069
1253 0 121.407 13.9695 1696 64.707 849.894 538.765
1254 1 69.465 12.5531 872 63.2339 850.216 566.927
1255 0 69.4477 11.3467 788 64.7234 849.656 567.256
1256 0 72.2689 13.173 952 63.0809 849.561 566.603
1257 0 74.2623 13.3311 990 63.3747 849.897 563.61
1258 0 75.2771 13.4038 1009 63.8593 849.541 563.602
1259 0 78.3947 14.1336 1108 63.1949 849.661 562.154
1260 0 81.4797 13.9912 1140 63.3096 849.38 558.55
1261 0 82.3326 14.0406 1156 63.705 849.746 557.409
1262 0 86.3381 14.5938 1260 62.5603 849.748 557.21
1263 0 88.2493 14.4477 1275 62.582 850.352 557.755
1264 0 92.2823 14.1306 1304 62.9709 850.785 555.586
1265 0 95.2048 14.3795 1369 62.7188 850.903 553.224
1266 0 97.3741 14.3878 1401 62.5896 851.384 551.372
1267 0 101.174 14.1736 1434 62.3598 851.706 549.202
1268 0 105.261 14.1933 1494 62.1941 852.011 546.319
1269 1 55.1173 11.666 643 61.7543 852.568 573.748
1270 0 59.0641 11.8515 700 61.8014 852.531 571.651
1271 0 58.0915 11.1376 647 62.8454 853.19 570.631
1272 0 62.2335 12.8227 798 60.3258 853.18 569.574
1273 0 63.0377 13.4047 845 60.0059 853.794 567.841
1274 0 66.155 13.03 862 60.2193 853.939 566.416
1275 0 66.3076 12.5174 830 61.2627 854.328 567.367
1276 0 67.2179 13.5381 910 60.144 853.965 565.671
1277 0 70.1846 12.4101 871 60.5752 854.666 565.23
1278 0 74.1702 13.4825 1000 59.296 854.763 562.133
1279 0 74.2426 13.1326 975 59.7846 854.883 561.891
1280 0 78.1822 13.5581 1060 59.0509 854.721 561.084
1281 0 81.2426 13.6997 1113 58.7179 854.972 559.26
1282 0 83.2402 13.4791 1122 59.3636 854.753 556.508
1283 0 85.224 13.1184 1118 59.5394 855.311 557.448
1284 0 89.1887 13.5107 1205 59.5734 855.494 555.664
1285 0 92.1964 13.5472 1249 59.7262 855.078 552.282
1286 0 96.2567 13.2874 1279 59.3339 855.324 553.031
1287 0 99.3328 13.8021 1371 58.8877 855.386 549.325
1288 0 101.151 12.7927 1294 59.6955 854.965 548.85
1289 0 105.194 13.0711 1375 59.9891 854.857 545.573
1290 1 56.1714 10.5748 594 58.7306 855.178 571.141
1291 0 58.1044 10.4295 606 59.3812 855.37 568.314
1292 0 59.2075 12.6335 748 57.4425 855.559 568.136
1293 0 62.3395 13.3302 831 56.9146 855.723 568.461
1294 0 61.0982 12.5045 764 58.5039 855.349 567.571
1295 0 65.1292 13.0203 848 57.7087 854.79 566.642
1296 0 66.066 13.5471 895 57.562 854.701 565.816
1297 0 67.0438 12.5739 843 59.6026 855.104 562.415
1298 0 69.1698 12.9103 893 58.5286 854.988 564.213
1299 0 72.1232 12.9362 933 58.6742 855.502 561.621
1300 0 72.1601 13.082 944 59.8676 855.832 560.49
1301 0 77.1995 13.0959 1011 59.3887 855.112 559.136
1302 0 79.1158 12.943 1024 59.9648 855.155 557.922
1303 0 83.1141 14.1372 1175 57.9915 855.111 558.709
1304 0 84.1428 13.0492 1098 59.9372 855.014 557.337
1305 0 88.2084 14.0236 1237 58.4656 854.903 557.934
1306 0 87.2064 12.3959 1081 61.8585 854.829 554.549
1307 1 48.0998 10.104 486 61.4938 856.541 574.714
1308 0 49.114 10.669 524 60.1183 855.034 575.074
1309 0 50.1461 11.3867 571 58.9965 855.163 574.455
1310 0 53.1571 11.4378 608 59.0148 854.663 572.75
1311 0 55.0822 12.2181 673 58.8395 854.782 569.651
1312 0 55.3146 12.8357 710 58.8366 855.03 569.377
1313 0 57.0577 12.3033 702 60.7578 853.695 567.348
1314 0 58.0805 13.1197 762 59.3609 853.648 569.878
1315 0 60.13 12.5395 754 59.7838 853.186 567.818
1316 0 61.1146 12.6975 776 60.4034 852.606 568.995
1317 0 63.0997 12.9161 815 59.7472 852.774 569.199
1318 0 64.0586 13.1754 844 59.7334 852.626 566.303
1319 0 66.0533 13.2772 877 58.9932 852.253 566.862
1320 0 68.1543 13.352 910 59.8187 852.104 564.486
1321 0 68.0795 13.9983 953 60.3148 852.046 564.277
1322 0 71.187 13.022 927 60.383 851.782 562.102
1323 0 75.2257 13.5459 1019 59.5466 851.638 560.87
1324 0 76.1528 12.383 943 60.1315 851.466 561.774
1325 0 79.1188 12.9552 1025 59.2029 851.222 559.645
1326 0 83.1723 13.478 1121 58.4853 851.211 557.441
1327 0 85.1271 13.8029 1175 58.2766 850.837 555.508
1328 1 44.116 9.58836 423 59.669 850.65 575.674
1329 0 47.1948 10.9546 517 58.2592 850.122 575.716
1330 0 48.178 11.5821 558 58.31 850.625 573.991
1331 0 51.1351 12.1443 621 56.8599 850.353 574.021
1332 0 54.0474 12.6741 685 54.7577 850.48 573.72
1333 0 53.0961 12.0536 640 56.9266 851.091 572.647
1334 0 53.2338 12.6611 674 59.4852 852.068 573.748
1335 0 55.1507 12.5293 691 59.165 851.815 572.852
1336 0 56.1826 12.3704 695 59.1424 851.117 571.271
1337 0 59.0426 12.5841 743 57.6635 850.868 570.759
1338 0 62.2479 12.8197 798 58.51 851.272 566.589
1339 0 64.2906 12.8946 829 58.2738 851.426 563.756
1340 0 66.2139 13.5772 899 56.9388 851.881 568.325
1341 0 68.2575 12.4968 853 58.5698 852.163 566.512
1342 0 69.2995 14.3291 993 56.1652 851.986 564.36
1343 0 70.2287 13.4418 944 57.7987 851.408 563.913
1344 0 73.1918 13.9906 1024 56.7764 851.241 564.631
1345 0 74.4348 13.0718 973 57.9003 851.193 562.771
1346 0 78.4514 12.7595 1001 58.1179 851.074 560.734
1347 0 80.5414 13.4341 1082 57.0887 851.227 561.245
1348 0 84.3483 12.804 1080 57.6139 850.969 561.061
1349 1 46.3568 10.8938 505 57.3426 851.034 578.693
1350 0 48.3087 12.6271 610 56.1033 850.743 577.366
1351 0 48.1885 11.5795 558 57.8907 851.029 577.416
1352 0 51.1616 12.3725 633 58.0837 850.995 576.092
1353 0 53.1009 13.2201 702 56.9088 850.486 576.772
1354 0 54.1647 13.219 716 56.5615 849.327 576.029
1355 0 53.3815 12.5699 671 58.2727 849.218 574.914
1356 0 55.1678 13.1417 725 57.6234 848.808 574.923
1357 0 54.1458 13.2236 716 58.4735 848.86 573.855
1358 0 57.1481 12.4939 714 59.8866 848.19 571.926
1359 0 60.1726 13.079 787 59.1995 848.307 572.468
1360 0 61.1683 12.719 778 60.2648 848.229 568.274
1361 0 63.2252 13.5231 855 58.6047 848.204 569.694
1362 0 65.1711 13.7638 897 59.1159 848.389 569.169
1363 0 65.4951 13.4361 880 60.1898 848.397 568.369
1364 0 65.4951 13.4361 880 157.727 848.397 568.369
1365 0 69.4876 14.6213 1016 59.565 848.605 565.974
1366 0 70.8622 13.5051 957 61.1024 848.69 564.66
1367 1 37.3888 10.7519 402 61.8284 849.572 580.794
1368 0 38.506 10.6217 409 61.3374 849.22 582.213
1369 0 39.5667 11.0194 436 61.3005 849.397 582.381
1370 0 38.5364 11.9368 460 61.8652 849.635 581.109
1371 0 44.2546 12.8122 567 60.2134 849.018 580.526
1372 0 45.2272 13.0231 589 60.5297 849.448 581.163
1373 0 45.0899 13.462 607 60.7496 849.166 577.928
1374 0 46.1945 12.4474 575 62.2017 849.037 578.405
1375 0 47.1429 11.1364 525 62.4667 849.478 580.928
1376 0 52.2127 12.8896 673 60.575 848.678 573.324
1377 0 51.1464 13.1974 675 61.2133 848.913 574.53
1378 0 54.4108 12.9938 707 60.7341 848.736 570.846
1379 0 55.2527 12.85 710 60.9676 848.835 570.621
1380 0 56.0659 13.7517 771 59.7341 848.96 568.979
1381 0 59.6791 11.8132 705 61.617 848.901 568.479
1382 0 61.6178 13.8434 853 56.1243 848.878 567.657
1383 0 63.1859 11.9172 753 58.1501 849.343 564.425
1384 0 66.3756 13.2428 879 58.083 849.234 565.364
1385 0 66.2823 12.2355 811 60.5943 849.245 565.998
1386 0 69.4276 12.4734 866 59.4654 849.281 562.731
1387 0 72.3531 12.9642 938 58.3017 848.864 564.844
1388 0 71.4296 11.9698 855 60.1427 848.564 562.402
1389 0 76.3769 13.2501 1012 57.5296 848.853 561.45
1390 0 72.4259 12.4127 899 60.0022 848.92 557.408
1391 0 80.3254 12.3996 996 58.6084 848.812 556.84
1392 0 82.62 12.5151 1034 58.1509 849.498 557.123
1393 0 83.6222 13.4294 1123 56.992 849.16 556.573
1394 0 86.5189 12.8758 1114 56.8977 849.325 557.011
1395 0 87.675 12.9684 1137 57.3712 849.337 555.731
1396 0 84.3388 13.6118 1148 57.6533 849.727 555.068
1397 0 86.1497 13.3256 1148 57.6638 849.983 554.922
1398 0 90.4058 14.0367 1269 56.3948 850.339 555.869
1399 0 91.2673 13.3454 1218 57.4598 850.631 552.251
1400 0 95.3342 13.6153 1298 56.4052 850.705 550.083
1401 0 97.4032 13.7778 1342 56.3063 850.905 551.606
1402 0 100.269 13.8827 1392 56.1458 851.154 550.838
1403 0 102.227 14.0277 1434 56.1248 851.066 548.547
1404 1 56.0719 12.1808 683 54.1318 851.883 574.764
1405 0 56.2553 12.0344 677 54.8877 852.57 571.338
1406 0 60.1143 13.4078 806 52.8238 852.989 570.681
1407 0 62.0861 13.6262 846 52.4917 853.385 568.214
1408 0 62.3279 13.5734 846 53.0768 853.556 567.696
1409 0 65.1544 14.0436 915 52.4546 853.494 565.866
1410 0 69.1576 13.838 957 51.8454 853.382 567.551
1411 0 69.0646 13.0747 903 52.9347 853.115 565.941
1412 0 71.1283 14.3403 1020 52.0245 853.729 566.227
1413 0 74.1026 14.399 1067 51.641 853.306 562.502
1414 0 77.1149 14.4979 1118 51.1449 853.241 561.28
1415 0 78.1536 14.5355 1136 51.6197 853.306 561.915
1416 0 80.124 14.0657 1127 52.3709 853.603 560.744
1417 0 84.0969 14.5309 1222 51.8494 854.033 557.38
1418 0 86.4335 14.3694 1242 52.0129 853.589 556.055
1419 0 89.118 14.6996 1310 51.8817 853.725 555.198
1420 0 91.2797 13.8366 1263 52.8939 853.324 554.567
1421 0 94.3669 14.1681 1337 52.9955 853.494 552.726
1422 0 97.2192 13.7936 1341 54.0664 853.956 550.15
1423 1 53.1 11.6761 620 53.421 854.519 573.527
1424 0 56.0902 12.4442 698 52.9298 854.244 573.073
1425 0 56.0513 13.1308 736 53.0448 854.431 572.524
1426 0 60.2127 13.2862 800 53.67 854.195 570.598
1427 0 62.1953 13.136 817 52.9058 854.073 570.758
1428 0 64.1684 14.6022 937 51.6265 854.291 569.54
1429 0 65.1837 14.8196 966 51.442 854.121 570.814
1430 0 68.3671 14.3929 984 52.1311 854.018 567.484
1431 0 70.183 13.707 962 52.6289 853.683 566.704
1432 0 72.2997 14.5091 1049 52.4995 853.448 564.719
1433 0 74.1179 13.8428 1026 53.1969 853.513 564.867
1434 0 78.2285 14.1892 1110 54.1721 853.134 563.001
1435 0 81.1996 14.372 1167 54.1123 853.189 562.039
1436 1 46.1346 11.965 552 55.0308 853.873 580.766
1437 0 46.1689 12.7142 587 55.3697 853.819 579.678
1438 0 47.1873 13.6689 645 55.5519 853.408 577.746
1439 0 49.2074 13.7174 675 55.3511 853.289 577.532
1440 0 51.1132 14.4777 740 54.0108 852.723 575.609
1441 0 53.2951 13.4346 716 54.9302 852.863 575.792
1442 0 53.3481 13.4775 719 55.2601 852.885 574.168
1443 0 56.2265 14.3349 806 53.268 852.267 575.057
1444 0 58.2043 14.913 868 52.8353 851.674 573.834
1445 0 59.1748 14.3642 850 54.1741 851.887 571.489
1446 0 61.0957 14.0926 861 54.4611 851.827 571.154
1447 0 63.1697 13.63 861 55.1963 851.352 569.355
1448 0 64.0885 14.636 938 54.3881 852.289 570.269
1449 0 67.3246 14.9574 1007 54.147 852.261 568.14
1450 0 68.2117 14.4697 987 55.8663 852.202 565.497
1451 0 70.2974 14.4956 1019 55.9097 851.827 565.38
1452 0 73.2415 15.1144 1107 55.2168 851.788 564.833
1453 0 75.2305 14.1033 1061 57.0151 851.712 562.374
1454 0 77.4086 14.5462 1126 56.5924 851.952 562.759
1455 0 80.1924 14.4527 1159 56.9931 851.497 562.969
1456 0 82.259 13.2265 1088 59.5276 851.045 559.937
1457 0 84.2355 14.2814 1203 59.1463 851.297 558.968
1458 0 86.2984 14.3456 1238 59.4087 851.219 557.127
1459 1 43.238 11.7952 510 59.6451 852.196 580.475
1460 0 46.1647 11.5456 533 59.3152 852.4 579.994
1461 0 45.1217 12.7433 575 59.0261 852.057 578.155
1462 0 47.0811 12.8927 607 58.3427 851.815 578.619
1463 0 49.1665 13.9526 686 58.6618 852.058 576.357
1464 0 49.2912 13.7753 679 59.4256 850.773 576.2
1465 0 50.2471 13.4535 676 60.7204 850.905 574.046
1466 0 52.2203 14.0558 734 58.9019 849.703 574.313
1467 0 55.1937 13.824 763 58.9948 849.792 574.278
1468 0 56.2576 13.5271 761 58.9934 849.756 572.824
1469 0 58.1854 13.9726 813 58.7306 849.749 571.383
1470 0 59.2238 13.3899 793 59.7554 850.194 571.02
1471 0 61.2092 13.6907 838 59.1396 850.384 569.834
1472 0 64.1711 14.7418 946 57.092 849.902 569.877
1473 0 66.393 14.1581 940 57.7989 849.731 569.795
1474 0 67.1352 13.5249 908 59.0187 849.876 568.074
1475 0 69.2776 13.3232 923 59.1441 849.684 566.755
1476 0 70.1138 13.4353 942 59.2335 848.897 566.942
1477 0 73.2419 13.5851 995 59.0181 849.473 564.618
1478 0 76.232 13.5114 1030 58.2243 849.859 565.182
1479 0 77.2219 13.5972 1050 58.8343 849.298 563.371
1480 0 80.3193 13.2222 1062 59.3324 849.509 561.907
1481 0 83.397 14.2451 1188 57.9933 849.511 561.682
1482 1 47.4038 11.2016 531 58.5819 850.169 579.294
1483 0 48.2037 12.053 581 58.2289 850.031 579.225
1484 0 49.2056 12.0108 591 59.1168 849.795 577.626
1485 0 51.2411 13.212 677 56.9852 850.099 577.312
1486 0 55.2798 12.9704 717 57.2148 849.619 575.236
1487 0 55.261 13.5177 747 57.1553 850.092 573.731
1488 0 56.1748 12.6747 712 58.4551 849.544 574.097
1489 0 60.1918 13.5068 813 57.2817 849.459 573.538
1490 0 61.2703 12.9753 795 57.9723 850.009 572.66
1491 0 63.1444 13.287 839 57.2741 850.008 571.909
1492 0 65.2998 13.415 876 57.4886 849.567 570.689
1493 0 66.2476 12.891 854 58.2389 849.717 568.698
1494 0 69.3084 12.5382 869 57.6881 849.513 565.933
1495 0 71.1846 12.8258 913 57.46 849.699 566.347
1496 0 75.2774 14.0945 1061 55.8746 849.799 563.625
1497 0 77.2832 14.0393 1085 56.1889 849.76 563.458
1498 0 79.255 14.018 1111 56.3483 849.594 562.68
1499 1 44.1026 10.2262 451 57.3659 850.727 582.14
1500 0 45.0815 11.2907 509 57.8841 850.937 580.837
1501 0 46.1585 12.1321 560 57.275 850.902 580.736
1502 0 48.2587 13.4691 650 56.6446 850.851 579.983
1503 0 49.2262 13.2247 651 56.977 850.949 578.702
1504 0 49.2554 12.7905 630 59.7111 850.673 576.611
1505 0 51.2335 12.5309 642 59.2788 850.994 576.017
1506 0 52.2805 14.0779 736 57.7731 850.791 574.698
1507 0 54.3719 13.9778 760 57.5026 851.086 573.753
1508 0 55.2187 12.6044 696 59.4483 851.612 573.056
1509 0 57.175 13.7473 786 57.5445 851.805 572.795
1510 0 59.2035 13.6647 809 57.6613 851.571 571.473
1511 0 60.2219 13.965 841 58.0262 852.031 570.977
1512 0 64.1966 14.3465 921 57.0434 852.492 570.273
1513 0 63.2556 13.3427 844 58.9336 852.598 570.145
1514 0 66.1533 14.3152 947 58.018 852.618 568.475
1515 0 68.2575 13.7274 937 58.6596 853.048 567.556
1516 0 69.1972 13.6133 942 58.9958 853.455 565.528
1517 0 72.1454 14.7896 1067 57.8782 853.957 565.216
1518 0 72.1251 14.5442 1049 58.694 854.515 563.585
1519 0 76.1837 14.4125 1098 58.8106 855.04 562.973
1520 0 78.3357 14.0038 1097 59.3792 854.93 561.972
1521 1 44.1234 11.0146 486 60.9424 856.076 580.146
1522 0 43.1013 12.0878 521 61.3474 855.954 577.583
1523 0 46.2688 12.0816 559 60.3059 856.118 576.646
1524 0 47.3076 13.2537 627 59.236 855.695 576.128
1525 0 48.1763 13.0562 629 59.0588 855.855 576.019
1526 0 51.235 14.4432 740 56.1527 855.315 576.064
1527 0 52.3038 14.3775 752 56.5678 854.86 576.596
1528 0 53.2925 12.7222 678 58.4543 855.434 572.854
1529 0 56.3164 14.0456 791 57.0303 855.067 573.236
1530 0 55.3184 13.4494 744 58.4919 855.884 571.586
1531 0 59.3329 13.5675 805 57.805 855.361 571.148
1532 0 59.3208 13.84 821 58.4336 855.156 570.702
1533 0 62.2014 14.0029 871 57.3536 854.552 570.04
1534 0 65.2945 13.1711 860 58.2779 854.424 567.971
1535 0 68.1849 13.654 931 57.609 854.758 566.077
1536 0 70.2835 13.5736 954 57.8103 854.672 566.55
1537 0 72.2259 14.3577 1037 57.1851 854.392 564.091
1538 0 74.4073 13.8024 1027 57.9221 854.125 564.035
1539 0 76.2772 14.4473 1102 56.7686 854.724 564.436
1540 0 78.2345 13.7663 1077 57.7057 854.431 562.787
1541 0 80.1892 13.8173 1108 58.0731 854.416 560.524
1542 0 82.1716 13.3379 1096 58.2655 854.227 559.702
1543 0 86.2492 13.948 1203 57.2436 854.462 558.178
1544 0 91.2768 14.2205 1298 56.2766 854.049 557.419
1545 0 94.2883 14.392 1357 56.5623 854.517 555.169
1546 0 96.2368 14.7241 1417 56.3013 854.404 552.115
1547 1 49.2033 11.422 562 58.0747 855.238 575.342
1548 0 51.26 13.0316 668 56.8204 854.819 575.331
1549 0 53.3599 13.081 698 57.2851 854.479 573.021
1550 0 54.3771 14.0684 765 57.3922 854.467 571.869
1551 0 57.3273 13.5886 779 58.1849 854.836 569.747
1552 0 57.2849 13.686 784 58.6952 853.943 569.636
1553 0 60.19 14.1219 850 57.7741 853.373 570.02
1554 0 62.2553 15.0831 939 57.0639 852.678 567.405
1555 0 64.389 13.9309 897 58.6778 853.146 566.523
1556 0 65.2853 14.8272 968 57.8409 852.885 567.145
1557 0 68.229 14.0849 961 59.2092 853.091 564.52
1558 0 67.3986 14.2436 960 60.1635 853.057 564.736
1559 0 71.3064 15.2721 1089 58.2489 852.939 566.365
1560 0 73.2263 14.2708 1045 60.6957 852.502 562.798
1561 0 76.3331 14.6332 1117 60.2551 852.904 561.425
1562 0 78.3937 14.1338 1108 61.0415 852.771 560.671
1563 0 80.406 14.775 1188 60.3872 852.15 560.034
1564 0 84.3747 14.6252 1234 60.5754 851.956 557.885
1565 0 86.43 14.0808 1217 61.4363 851.397 555.99
1566 0 89.3388 15.2565 1363 60.0492 851.564 555.42
1567 0 91.5465 13.982 1280 62.2352 851.401 553.262
1568 1 51.3049 12.2016 626 62.5974 851.725 572.906
1569 0 53.3345 12.0935 645 62.4636 851.553 572.468
1570 0 55.4943 12.6319 701 61.8631 851.389 573.589
1571 0 56.3596 13.0945 738 61.9986 851.392 573.159
1572 0 58.2367 14.3209 834 60.3573 851.313 573.048
1573 0 59.331 14.7646 876 60.4692 851.435 571.267
1574 0 59.2514 14.1938 841 61.4625 851.413 571.333
1575 0 63.296 15.0879 955 59.3037 851.369 570.56
1576 0 65.2898 14.3208 935 59.9679 851.693 570.122
1577 0 67.3762 15.2873 1030 58.5078 851.887 568.414
1578 0 69.1791 14.542 1006 59.9503 851.676 566.858
1579 0 73.3238 15.6293 1146 58.3316 851.433 565.689
1580 0 74.3052 14.2655 1060 59.9726 851.071 566.242
1581 0 76.4767 14.5927 1116 59.5323 851.066 562.358
1582 0 80.2253 14.9828 1202 58.3486 850.634 562.679
1583 0 82.4067 14.3314 1181 59.0593 850.886 561.435
1584 0 84.4016 14.2177 1200 59.24 851.163 559.406
1585 0 87.2504 15.232 1329 57.38 850.524 558.739
1586 0 91.3338 14.551 1329 57.9774 850.337 557.192
1587 0 94.4063 15.1155 1427 57.2796 850.37 555.678
1588 1 51.2617 11.5486 592 59.723 850.603 575.424
1589 0 53.3886 11.8939 635 57.5496 850.828 577.233
1590 0 53.2231 12.3818 659 58.3915 851.275 574.589
1591 0 56.2627 12.4416 700 57.7571 851.343 573.164
1592 0 58.3415 13.6095 794 56.4647 851.15 572.442
1593 0 60.2946 13.4174 809 56.6613 851.177 570.173
1594 0 61.2779 13.5775 832 55.5192 851.346 568.694
1595 0 62.3059 13.6263 849 55.5383 851.596 569.763
1596 0 66.4204 13.5952 903 55.2182 851.646 567.986
1597 0 68.2679 14.7361 1006 53.5646 851.455 566.556
1598 0 70.4255 13.9438 982 54.2301 851.554 566.044
1599 0 73.4913 13.9608 1026 54.1618 852.203 564.941
1600 0 74.4355 14.2674 1062 53.9218 852.04 564.274
1601 0 75.4111 14.6132 1102 53.9855 851.799 563.813
1602 0 80.6383 14.4472 1165 53.9202 852.096 561.702
1603 0 81.4658 13.9691 1138 54.2188 852.101 559.938
1604 0 84.4032 14.099 1190 54.1084 852.247 559.837
1605 0 89.3465 14.0352 1254 53.8293 852.695 556.681
1606 0 93.1749 14.6821 1368 52.8311 852.125 556.308
1607 1 52.0931 11.2107 584 53.4384 852.752 577.649
1608 0 51.0838 10.9819 561 54.5383 853.168 574.346
1609 0 54.1352 12.3025 666 52.6411 852.977 573.797
1610 0 57.0506 13.1112 748 52.6217 853.243 573.115
1611 0 59.0377 12.365 730 54.4521 853.704 573.236
1612 0 60.0634 12.1205 728 55.2637 854.162 572.184
1613 0 63.2715 13.3551 845 53.7254 853.768 569.542
1614 0 64.1824 13.0098 835 54.4611 853.557 568.335
1615 0 67.1569 14.0715 945 53.8212 853.779 566.359
1616 0 70.2366 13.8389 972 54.0267 853.876 564.963
1617 0 72.2106 12.5189 904 55.7954 854.583 564.108
1618 0 74.2961 13.0155 967 55.5129 854.687 563.427
1619 0 75.2562 14.1517 1065 54.83 854.68 563.024
1620 0 79.2089 14.3797 1139 55.1484 854.767 561.804
1621 0 79.2089 14.4933 1148 166.676 853.765 561.834
1622 0 83.2424 14.656 1220 55.7074 855.833 560.469
1623 0 84.3211 13.4723 1136 57.7271 856.016 557.904
1624 0 88.2396 13.3727 1180 57.6712 855.839 557.776
1625 0 90.1109 13.894 1252 57.6102 856.164 555.06
1626 0 95.3499 13.7494 1311 57.7063 855.86 553.607
1627 0 97.4723 13.1114 1278 58.9296 856.297 549.595
1628 1 54.2812 12.4721 677 57.3043 857.355 574.645
1629 0 55.2341 13.0897 723 57.2905 857.557 573.107
1630 0 57.2085 13.477 771 57.0856 857.314 571.462
1631 0 58.1893 13.0093 757 57.6935 856.538 570.316
1632 0 59.3539 13.4953 801 57.7353 856.821 569.492
1633 0 62.2395 13.2071 822 57.7628 856.562 569.108
1634 0 63.2416 13.9307 881 57.4972 856.427 567.313
1635 0 65.306 14.3785 939 56.886 856.722 567.029
1636 0 67.2414 13.6672 919 57.5332 856.587 565.516
1637 0 68.2535 13.6403 931 58.0892 856.444 566.64
1638 0 70.1895 12.9364 908 59.6542 856.036 563.91
1639 0 71.2114 13.832 985 59.2822 855.964 562.758
1640 0 73.2556 13.4597 986 59.3489 856.274 563.522
1641 0 76.2946 13.8673 1058 58.8724 855.664 558.633
1642 0 78.2663 14.5784 1141 58.2761 856.137 558.085
1643 0 80.198 14.1774 1137 58.9595 856.145 558.436
1644 0 85.3863 13.9601 1192 59.1888 856.003 556.53
1645 0 86.1986 14.4782 1248 58.4239 856.276 554.347
1646 0 88.1583 13.9295 1228 59.7166 856.145 553.234
1647 0 90.1991 14.08 1270 59.8866 856.121 552.072
1648 1 50.1712 11.0422 554 60.6282 856.298 571.267
1649 0 50.1528 10.4082 522 61.5211 856.069 571.745
1650 0 53.1147 11.5975 616 59.4237 855.609 572.226
1651 0 54.0858 11.2969 611 61.0704 855.733 571.144
1652 0 57.1649 12.1928 697 59.7202 855.591 569.514
1653 0 59.1196 13.7856 815 57.4049 855.764 569.58
1654 0 60.2154 13.5347 815 57.0491 854.974 568.629
1655 0 62.1407 13.3085 827 58.4317 854.614 567.025
1656 0 64.2948 13.2048 849 58.9352 854.656 566.157
1657 0 68.245 14.067 960 57.8156 854.49 563.865
1658 0 68.2594 14.4888 989 58.2467 854.187 562.095
1659 0 70.2089 13.8729 974 59.3224 854.429 561.102
1660 0 72.2484 14.1318 1021 59.1694 854.208 561.946
1661 0 74.3035 14.4946 1077 59.1458 853.686 558.676
1662 0 76.13 14.4358 1099 59.4959 853.591 559.012
1663 0 79.1756 13.7163 1086 60.9042 853.587 557.484
1664 0 81.2625 14.607 1187 59.818 853.306 557.565
1665 0 83.2317 14.0692 1171 61.7506 853.421 555.249
1666 0 87.2266 14.9381 1303 60.2732 852.612 555.814
1667 0 89.3326 14.9218 1333 59.9445 852.735 552.552
1668 0 90.5053 13.9992 1267 61.3923 853.051 551.189
1669 0 94.2955 13.7228 1294 61.7017 852.733 550.52
1670 0 96.3711 13.8319 1333 61.5019 852.812 548.085
1671 0 98.4705 14.2885 1407 60.9502 853.072 545.001
1672 1 51.343 10.4006 534 63.6648 853.034 570.165
1673 0 55.5087 12.0702 670 61.8896 852.857 568.746
1674 0 57.3855 12.4945 717 59.8759 852.9 569.552
1675 0 57.3676 12.6029 723 61.6902 852.497 567.61
1676 0 60.4294 12.5436 758 60.8232 852.563 568.342
1677 0 62.4222 13.9854 873 59.7709 852.801 565.112
1678 0 63.3361 13.1363 832 60.9844 851.934 565.543
1679 0 67.2694 14.8061 996 57.5382 851.891 565.062
1680 0 69.3253 13.0688 906 59.543 852.015 563.222
1681 0 70.3876 13.3688 941 59.8735 851.894 561.974
1682 0 72.4543 13.5258 980 59.4327 852.751 561.309
1683 0 74.355 13.839 1029 59.3149 852.283 560.627
1684 0 77.6188 13.708 1064 57.6194 852.695 558.992
1685 0 80.514 13.4635 1084 57.5692 852.048 557.66
1686 0 81.4774 13.0343 1062 57.9849 852.262 557.63
1687 0 83.4615 13.7429 1147 57.7515 851.534 555.109
1688 0 87.5746 13.5199 1184 57.4797 851.519 553.548
1689 0 91.4725 13.3264 1219 57.4815 851.071 552.973
1690 0 94.5794 13.6288 1289 56.9356 851.089 551.055
1691 0 96.7808 14.1867 1373 55.9629 850.807 553.781
1692 1 54.3425 12.9733 705 54.1518 850.99 574.73
1693 0 55.2254 11.4621 633 55.6667 851.15 573.534
1694 0 56.0848 12.7129 713 54.9215 851.546 573.31
1695 0 56.2726 12.3151 693 56.9567 850.84 568.674
1696 0 56.2381 13.674 769 55.8583 850.537 570.488
1697 0 58.1777 14.0088 815 55.4491 850.207 569.568
1698 0 61.2696 13.2529 812 55.4126 850.222 569.7
1699 0 62.061 13.0678 811 55.6671 849.794 568.282
1700 0 63.1306 13.4483 849 55.5194 849.843 567.815
1701 0 65.2119 13.7552 897 55.1394 849.392 566.864
1702 0 66.1543 13.8162 914 55.4584 849.474 565.272
1703 0 69.1949 14.582 1009 54.0426 849.33 564.069
1704 0 69.2582 14.1499 980 55.0847 849.217 564.377
1705 0 74.1488 13.9719 1036 54.501 849.012 564.13
1706 0 75.1968 14.0963 1060 54.9028 849.242 561.566
1707 0 77.3431 13.3561 1033 55.5334 849.278 560.074
1708 0 80.3765 14.1086 1134 55.336 849.586 559.905
1709 0 83.465 13.4188 1120 55.8554 849.858 559.163
1710 0 89.5635 14.3139 1282 54.0897 849.31 556.164
1711 0 91.6477 14.3702 1317 53.9021 849.829 555.516
1712 1 52.3738 11.3988 597 54.4037 849.975 574.318
1713 0 50.5746 12.1998 617 53.2836 849.887 574.122
1714 0 51.4558 11.3495 584 54.4281 850.332 573.957
1715 0 53.3593 11.6193 620 54.3435 850.2 571.015
1716 0 57.3943 12.6145 724 52.9434 850.693 571.151
1717 0 57.2044 12.0795 691 54.5789 850.812 570.399
1718 0 59.2598 13.2805 787 53.4549 851.142 570.249
1719 0 63.3272 13.4855 854 52.5937 850.829 570.457
1720 0 64.2672 14.393 925 52.0746 850.89 568.963
1721 0 67.3094 13.1631 886 53.2054 851.298 567.077
1722 0 68.1134 13.7124 934 52.7923 851.457 565.608
1723 0 69.1605 12.6662 876 54.032 851.371 564.43
1724 0 74.3575 13.7041 1019 52.1737 851.835 564.636
1725 0 73.3016 13.2057 968 53.8378 851.986 562.722
1726 0 76.2509 13.0884 998 53.3567 851.635 560.279
1727 0 78.5048 13.1967 1036 53.2625 851.551 559.606
1728 0 82.4092 13.9062 1146 51.7688 851.605 557.706
1729 0 84.5633 13.8003 1167 51.3093 851.673 556.928
1730 1 46.3141 10.8175 501 52.5629 852.226 575.577
1731 0 49.3105 10.444 515 52.5495 852.198 575.151
1732 0 50.2017 10.7168 538 51.8383 852.665 576.268
1733 0 52.2608 11.4235 597 51.6147 852.755 574.122
1734 0 54.2654 10.4302 566 53.7933 853.293 574.159
1735 0 54.2395 12.1129 657 53.8311 853.24 571.125
1736 0 53.1132 13.1606 699 52.3419 852.93 569.602
1737 0 54.1389 12.4864 676 52.8624 853.314 569.552
1738 0 58.1667 12.6877 738 53.2737 854.492 569.82
1739 0 58.1724 13.7694 801 52.8177 854.381 569.27
1740 0 61.2494 13.2736 813 53.385 855.175 568.182
1741 0 62.2647 13.9726 870 53.0563 855.275 566.521
1742 0 63.1328 13.4478 849 53.5183 855.75 566.144
1743 0 65.1402 13.3558 870 54.0172 855.38 563.561
1744 0 68.235 13.732 937 53.7673 856.058 562.494
1745 0 68.3179 12.9249 883 54.7973 855.948 562.024
1746 0 73.2897 14.3676 1053 52.4558 856.306 560.965
1747 0 74.1421 13.9192 1032 53.3973 856.675 559.35
1748 0 78.2067 14.1037 1103 53.4161 856.164 559.616
1749 0 79.2001 13.9899 1108 53.8078 856.409 558.98
1750 0 82.1334 13.6363 1120 54.6446 856.339 555.141
1751 0 85.3159 14.5108 1238 53.7811 857.506 554.996
1752 0 88.2313 13.5326 1194 55.1298 857.349 552.224
1753 0 91.3662 13.7907 1260 54.7508 856.914 551.981
1754 1 51.0462 10.7354 548 55.8741 857.781 572.164
1755 0 51.1367 10.8924 557 56.3232 857.637 570.463
1756 0 55.1049 12.5034 689 54.479 857.623 571.052
1757 0 57.2307 12.0215 688 55.359 857.516 569.983
1758 0 59.0898 12.4049 733 54.4175 857.477 567.417
1759 0 59.0203 12.3686 730 55.7452 857.416 565.971
1760 0 63.1963 13.6717 864 54.8229 856.562 566.727
1761 0 63.1952 12.9598 819 55.8181 856.387 566.005
1762 0 65.3149 13.9019 908 55.9042 856.178 563.798
1763 0 67.1965 13.7507 924 56.2576 855.956 561.898
1764 0 68.2106 12.9745 885 56.8723 855.81 561.605
1765 0 71.2279 12.6355 900 57.6711 855.344 560.36
1766 0 74.1662 13.8877 1030 56.1243 855.624 558.623
1767 0 76.3822 13.1575 1005 57.5891 855.802 558.045
1768 0 78.2586 13.1104 1026 57.6511 855.801 556.724
1769 0 80.2382 13.6718 1097 57.1231 855.01 554.821
1770 0 83.1953 13.9551 1161 56.8191 855.118 554.929
1771 0 87.2954 14.2275 1242 56.3784 854.87 553.869
1772 0 89.2721 13.6885 1222 58.5941 855.047 550.61
1773 0 93.2529 13.5974 1268 58.515 854.706 550.388
1774 1 52.3455 11.1375 583 59.53 855.336 570.341
1775 0 53.2041 11.3713 605 60.0397 855.235 569.851
1776 0 55.26 12.2693 678 59.5177 854.972 568.041
1777 0 57.3054 12.2502 702 58.5584 854.336 568.531
1778 0 59.178 12.3357 730 59.5986 854.342 567.334
1779 0 59.2428 12.6091 747 60.1981 854.082 564.439
1780 0 62.2344 12.4047 772 60.8873 854.377 564.348
1781 0 64.3076 13.6842 880 58.9148 854.388 564.439
1782 0 67.2312 13.0148 875 59.672 855.386 563.034
1783 0 69.216 13.8118 956 58.614 854.51 563.546
1784 0 70.2679 13.1924 927 59.7454 853.898 562.152
1785 0 72.1738 13.0241 940 59.8574 854.386 560.794
1786 0 73.2248 13.6566 1000 59.453 854.026 560.217
1787 0 75.2693 13.7639 1036 59.028 853.834 559.52
1788 0 79.2041 13.8124 1094 59.2824 853.045 559.158
1789 0 80.1766 14.0939 1130 58.9832 853.142 558.853
1790 0 83.3049 13.3245 1110 60.1649 852.79 555.972
1791 0 85.4853 13.3473 1141 60.4908 852.529 554.655
1792 0 87.0986 13.6742 1191 60.5332 851.98 553.621
1793 0 90.3746 13.7981 1247 60.2727 852.086 551.409
1794 0 95.4754 13.8884 1326 59.408 851.778 551.066
1795 0 99.3466 14.2028 1411 58.5953 851.64 547.916
1796 0 101.411 13.7657 1396 59.414 852.274 548.574
1797 0 104.447 14.0358 1466 59.618 851.807 545.732
1798 0 108.553 14.2511 1547 58.9548 851.842 543.514
1799 1 61.2557 11.1173 681 59.7797 851.649 565.073
1800 0 64.2368 11.66 749 59.9559 851.104 563.689
1801 0 67.3608 12.3069 829 60.0531 851.901 564.91
1802 0 69.3038 12.8997 894 59.4944 851.808 562.246
1803 0 71.3446 12.5307 894 60.6197 851.801 562.333
1804 0 73.1455 13.8491 1013 59.0711 851.54 559.9
1805 0 74.3299 13.6822 1017 59.1406 851.555 559.911
1806 0 77.382 14.2669 1104 58.5616 851.009 559.357
1807 0 78.403 13.877 1088 58.9614 850.827 556.665
1808 0 82.2476 12.8758 1059 59.4023 851.005 556.716
1809 0 86.3593 12.5985 1088 59.6673 850.857 554.786
1810 0 88.4705 13.8916 1229 58.074 850.843 553.841
1811 0 91.4443 14.5772 1333 57.0495 851.099 551.455
1812 0 94.4059 13.8445 1307 57.6611 851.146 552.534
1813 0 98.2343 13.4474 1321 57.8547 851.507 547.482
1814 0 100.333 13.3257 1337 58.2229 851.934 546.667
1815 1 59.3406 10.9706 651 57.2104 852.685 569.187
1816 0 59.2975 10.7593 638 57.779 852.444 568.107
1817 0 60.4362 11.1357 673 57.8143 852.906 567.116
1818 0 62.2019 11.7681 732 56.6175 851.835 566.895
1819 0 63.1163 11.8987 751 55.9547 851.884 565.012
1820 0 65.1172 12.2241 796 56.2513 852.185 565.697
1821 0 68.1997 14.2376 971 54.7343 851.358 564.686
1822 0 68.3769 12.8845 881 56.6277 851.696 563.873
1823 0 73.3396 13.9897 1026 54.5361 851.669 564.569
1824 0 75.1759 12.6104 948 56.7331 852.177 562.054
1825 0 75.1764 14.18 1066 55.4381 851.772 561.136
1826 0 77.2121 13.2881 1026 56.5224 851.872 559.635
1827 0 78.2332 13.0891 1024 57.418 852.239 557.388
1828 0 83.2469 13.6822 1139 56.3652 852.358 557.341
1829 0 86.2227 14.6365 1262 54.7686 852.441 557.085
1830 0 87.2427 13.9954 1221 55.7371 852.78 555.324
1831 0 91.1994 13.7501 1254 56.3246 852.517 552.622
1832 0 91.1574 13.186 1202 57.8186 852.897 551.265
1833 0 97.2061 14.0835 1369 56.4164 853.68 551.412
1834 0 100.246 13.816 1385 57.0578 853.433 548.877
1835 1 54.1386 11.7107 634 57.9826 854.568 571.754
1836 0 57.1086 11.4344 653 57.1072 854.32 569.757
1837 0 58.0706 11.1933 650 57.1508 854.148 569.178
1838 0 59.126 12.3127 728 56.8036 854.343 566.473
1839 0 63.0721 12.6997 801 56.236 855.052 568.431
1840 0 63.2505 13.2805 840 56.6893 854.567 565.524
1841 0 64.2686 12.9457 832 56.869 854.661 564.403
1842 0 68.2889 13.15 898 55.9922 854.937 562.659
1843 0 69.1726 13.7627 952 55.2048 855.089 563.095
1844 0 69.177 13.357 924 56.5476 854.872 562.351
1845 0 73.544 13.135 966 56.146 854.986 561.953
1846 0 74.2924 13.393 995 55.8472 855.586 560.571
1847 0 76.2363 12.9466 987 56.3475 855.465 559.219
1848 0 78.1459 13.8203 1080 55.5306 855.509 557.035
1849 0 83.3085 13.6721 1139 54.8657 855.867 556.054
1850 0 84.2896 13.7146 1156 54.795 855.476 556.547
1851 0 87.1741 13.7541 1199 54.8991 855.729 552.288
1852 0 89.2918 13.4615 1202 55.1431 855.624 551.337
1853 0 92.3196 13.7457 1269 53.6974 855.576 549.775
1854 0 95.2256 14.1979 1352 53.003 855.579 546.329
1855 0 95.4087 13.3216 1271 54.3706 855.655 545.772
1856 0 98.4268 13.2687 1306 54.2228 855.874 544.136
1857 0 102.435 14.2139 1456 52.9183 855.499 544.539
1858 0 106.503 14.1968 1512 52.9954 855.565 543.423
1859 0 110.221 14.5616 1605 52.4255 855.594 541.086
1860 1 63.1451 11.8457 748 52.4198 855.678 566.646
1861 0 64.1701 10.628 682 53.7507 855.996 564.047
1862 0 67.2317 11.8099 794 52.7292 855.851 561.524
1863 0 68.3144 12.0765 825 53.0824 855.926 559.966
1864 0 70.229 13.4133 942 51.7951 855.169 560.499
1865 0 73.2124 13.6452 999 51.8539 855.147 559.325
1866 0 76.1532 12.9213 984 52.5122 854.927 557.415
1867 0 78.2391 13.7527 1076 52.04 854.498 556.17
1868 0 80.2119 12.9283 1037 52.7936 854.328 556.837
1869 0 82.2631 13.7121 1128 52.6374 854.559 552.653
1870 0 84.3948 13.1169 1107 53.2629 854.145 552.24
1871 0 86.1659 13.7293 1183 52.0085 853.943 553.253
1872 0 89.5286 13.2695 1188 52.9158 853.963 549.247
1873 0 93.3991 13.9402 1302 52.4862 854.072 549.744
1874 0 95.7103 12.8199 1227 53.4287 853.719 548.536
1875 0 99.3532 12.994 1291 53.5476 853.518 546.993
1876 1 56.4562 10.6808 603 52.5025 854.599 569.347
1877 0 56.3317 10.7932 608 52.278 854.526 570.383
1878 0 59.0786 11.6794 690 52.8 854.616 568.099
1879 0 60.1489 12.4524 749 52.4713 854.292 566.343
1880 0 64.2611 14.161 910 51.556 852.623 561.833
1881 0 62.3166 12.966 808 53.8874 852.944 564.484
1882 0 65.3476 12.2269 799 54.7159 852.352 564.12
1883 0 65.3145 12.8302 838 54.5143 851.81 562.952
1884 0 69.1994 13.3816 926 54.0972 851.592 563.09
1885 0 68.197 11.9653 816 56.3162 851.61 561.87
1886 0 72.3491 13.2828 961 54.5224 851.31 560.789
1887 0 73.3671 12.5397 920 55.9141 851.596 560.34
1888 0 76.4622 12.4114 949 55.9831 851.016 559.648
1889 0 77.4309 13.328 1032 55.6134 851.462 559.413
1890 0 79.5472 13.426 1068 55.9925 850.699 557.542
1891 0 80.451 12.7655 1027 57.7244 850.939 556.868
1892 0 83.4676 14.1492 1181 56.4547 850.619 555.594
1893 0 87.7507 13.4016 1176 57.4592 851.037 553.762
1894 0 87.4857 14.0709 1231 57.3469 850.577 553.163
1895 0 94.6227 14.4468 1367 56.0527 850.857 553.065
1896 0 95.4533 14.0488 1341 57.3289 851.048 550.218
1897 1 50.2956 11.3131 569 58.9069 850.453 571.392
1898 0 52.356 9.93201 520 58.825 850.344 572.998
1899 0 52.2142 11.5869 605 57.0512 849.631 571.122
1900 0 57.19 12.2224 699 55.1917 849.34 571.049
1901 0 57.1843 12.2236 699 55.6037 849.11 569.598
1902 0 59.4743 13.1822 784 55.977 850.221 571.099
1903 0 61.4056 12.8816 791 56.5613 849.709 568.928
1904 0 63.3281 13.6906 867 55.3818 849.444 568.896
1905 0 63.2564 12.7576 807 57.3259 848.986 567.446
1906 0 65.32 12.9669 847 57.0118 848.85 568.332
1907 0 68.4677 14.065 963 55.9003 848.992 565.541
1908 0 69.4615 13.979 971 56.4078 848.86 565.263
1909 0 70.337 13.9471 981 56.7645 848.896 565.453
1910 0 73.3184 14.0892 1033 55.9729 848.781 563.527
1911 0 74.2916 14.4835 1076 56.2351 849.007 561.53
1912 0 76.3637 14.3917 1099 56.7043 848.571 561.845
1913 0 78.3533 13.7327 1076 57.8625 849.16 559.659
1914 0 80.2653 14.2029 1140 57.3974 848.529 559.072
1915 0 83.38 14.1161 1177 57.672 848.425 558.279
1916 0 85.1928 13.8157 1177 58.0357 848.432 557.769
1917 0 88.3894 14.142 1250 57.7632 847.957 554.542
1918 0 91.398 13.8296 1264 59.4715 847.699 553.911
1919 1 50.2665 11.5783 582 60.3316 848.107 574.414
1920 0 53.2735 12.5766 670 59.5567 848.639 574.166
1921 0 53.2579 11.6602 621 61.3688 848.44 574.19
1922 0 55.1979 13.6962 756 59.5119 848.222 572.652
1923 0 56.2641 13.0101 732 60.877 847.98 571.799
1924 0 60.2579 14.9358 900 57.34 848.522 572.459
1925 0 59.2199 14.1844 840 59.1702 847.69 570.537
1926 0 62.2329 13.5459 843 59.8161 847.668 570.11
1927 0 62.1924 13.0884 814 60.699 847.349 570.774
1928 0 66.2783 14.1223 936 59.14 847.479 568.542
1929 0 66.2261 13.2425 877 60.3694 847.357 567.538
1930 0 69.2474 13.3579 925 60.3351 847.342 566.783
1931 0 73.2168 15.2151 1114 57.5135 847.406 566.026
1932 0 74.1786 14.0876 1045 59.1656 847.1 564.619
1933 0 75.1808 13.7136 1031 60.6111 847.292 561.778
1934 0 77.2985 14.347 1109 59.8539 847.646 563.159
1935 0 78.252 13.6226 1066 61.5141 847.772 559.825
1936 0 81.2356 13.8609 1126 61.2202 847.783 558.934
1937 0 84.16 14.4487 1216 60.2656 847.968 558.753
1938 0 88.1547 14.7922 1304 59.7178 847.887 556.117
1939 0 91.1993 14.4848 1321 60.3687 848.687 555.1
1940 0 93.1929 13.8315 1289 61.09 848.454 555.381
1941 1 52.1225 11.6648 608 61.6266 848.002 575.442
1942 0 52.1702 11.8267 617 61.7844 847.963 574.452
1943 0 54.0463 12.3968 670 62.0075 848.573 573.733
1944 0 57.2271 12.4766 714 59.028 848.782 574.476
1945 0 58.0778 12.7243 739 59.9526 849.066 572.796
1946 0 59.2502 13.9746 828 58.4481 849.181 570.237
1947 0 60.2573 13.8075 832 58.8786 850.071 569.435
1948 0 64.2347 13.7776 885 58.0147 849.889 567.84
1949 0 66.319 14.0382 931 57.0881 850.354 568.588
1950 0 67.2395 13.6081 915 57.8328 850.231 567.102
1951 0 70.1455 14.2133 997 57.4574 850.721 565.6
1952 0 72.2643 13.9903 1011 57.913 850.478 564.618
1953 0 74.2246 14.3753 1067 57.3833 850.612 563.026
1954 0 76.3617 14.4837 1106 57.7188 851.536 560.976
1955 0 79.3343 14.357 1139 57.187 851.629 559.331
1956 0 79.3641 14.3642 1140 57.6 851.02 557.749
1957 0 84.1646 14.6736 1235 56.9725 851.656 557.217
1958 0 87.2495 14.3497 1252 57.6182 851.466 553.955
1959 0 90.6223 14.1356 1281 57.0062 851.802 554.33
1960 0 94.1734 14.2928 1346 56.6538 852.107 553.377
1961 0 97.3331 14.4658 1408 56.3736 852.046 549.544
1962 0 99.3669 14.4918 1440 56.8181 852.243 548.944
1963 1 52.1317 11.8738 619 57.0291 852.347 572.372
1964 0 54.139 12.2647 664 57.7364 852.166 570.039
1965 0 57.1231 12.6394 722 56.3975 852.068 570.612
1966 0 58.2803 13.4522 784 55.5561 852.497 570.537
1967 0 59.1915 13.6844 810 55.6877 852.848 569.242
1968 0 62.2289 12.8076 797 56.2309 853.606 566.895
1969 0 65.1319 13.9256 907 54.7178 853.365 565.643
1970 0 67.1614 13.4601 904 56.1217 854.042 562.811
1971 0 69.0746 13.9125 961 55.8928 853.875 561.106
1972 0 70.0987 13.5095 947 56.8289 854.403 559.901
1973 0 73.1156 14.2651 1043 55.7593 854.156 559.698
1974 0 75.1216 13.3251 1001 57.048 854.687 559.18
1975 0 82.7244 14.3972 1191 56.3149 854.802 559.574
1976 0 81.7222 13.6805 1118 58.2361 855.015 557.075
1977 0 85.4883 14.9845 1281 56.6557 855.486 555.842
1978 0 87.7423 15.2492 1338 56.2377 855.247 556.55
1979 0 89.4595 13.7716 1232 58.4992 855.31 553.295
1980 0 92.596 14.3419 1328 57.9036 855.221 550.291
1981 0 96.6334 14.7671 1427 57.7765 855.078 548.125
1982 0 99.6863 13.9036 1386 58.8745 855.494 547.118
1983 0 103.432 14.4152 1491 58.7109 855.304 545.255
1984 0 104.571 14.2774 1493 59.0877 855.551 543.096
1985 0 107.422 14.5687 1565 58.8677 855.706 542.27
1986 0 112.386 14.7616 1659 58.1814 855.622 540.08
1987 1 64.2016 12.3517 793 59.4376 855.079 563.233
1988 0 66.2202 12.5339 830 58.1747 854.814 564.522
1989 0 67.1898 13.1865 886 57.9718 855.693 563.07
1990 0 69.2185 12.9879 899 58.3826 854.84 561.314
1991 0 71.1676 14.0654 1001 57.5524 855.351 557.768
1992 0 72.1113 13.0493 941 58.831 855.327 556.807
1993 0 77.1822 13.5653 1047 58.0267 854.801 554.914
1994 0 79.1803 13.2483 1049 58.4948 854.439 554.9
1995 0 81.0673 13.7047 1111 58.1107 854.689 552.949
1996 0 85.1441 14.0585 1197 56.9048 854.744 552.445
1997 0 86.2823 13.5138 1166 58.5523 854.231 547.968
1998 0 92.189 13.9713 1288 57.0877 853.925 547.536
1999 0 95.2359 13.9338 1327 57.6534 854.64 545.625
2000 0 100.203 14.5106 1454 56.6424 854.618 545.961
2001 0 101.218 13.7031 1387 58.3115 854.272 543.448
2002 0 105.194 14.6396 1540 57.0312 853.951 540.881
2003 0 108.44 13.8603 1503 58.012 853.927 539.622
2004 0 112.259 14.0657 1579 58.2065 853.624 537.982
2005 0 113.119 13.7024 1550 59.5006 853.742 536.765
2006 1 65.1006 10.814 704 58.6264 852.605 563.746
2007 0 66.1486 11.8823 786 58.7875 852.832 559.327
2008 0 70.2723 11.5266 810 58.0444 852.905 561.262
2009 0 71.0551 12.807 910 57.5857 852.775 558.985
2010 0 76.367 13.1209 1002 57.4381 852.884 557.463
2011 0 76.2012 12.0996 922 59.3764 853.226 555.157
2012 0 80.5707 13.4912 1087 56.873 853.519 554.825
2013 0 83.3131 12.5911 1049 58.1792 853.451 553.975
2014 0 84.3359 13.2091 1114 57.825 853.487 552.907
2015 0 88.4725 13.6087 1204 57.451 852.878 551.007
2016 0 91.2356 13.4048 1223 57.4693 852.599 549.289
2017 0 94.2197 13.0864 1233 57.9157 852.543 547.955
2018 0 98.1498 13.4488 1320 57.2962 852.7 545.553
2019 0 102.258 13.9255 1424 56.8673 852.355 544.94
2020 1 56.3305 9.94132 560 57.0393 852.114 569.077
2021 0 59.4567 10.8987 648 55.7701 851.938 567.13
2022 0 60.0892 10.967 659 57.2944 852.141 565.956
2023 0 61.16 10.9876 672 57.3676 851.83 565.312
2024 0 65.0999 12.6882 826 55.2179 852.051 563.864
2025 0 67.1603 13.2519 890 54.9798 852.008 563.255
2026 0 67.24 12.0315 809 57.2188 851.591 561.41
2027 0 71.1707 12.6175 898 56.7094 851.81 561.049
2028 0 73.1611 13.3131 974 55.6745 851.342 559.875
2029 0 74.1718 11.8778 881 57.4904 851.713 559.17
2030 0 80.3012 13.1629 1057 54.8486 851.377 558.949
2031 0 80.3497 12.1096 973 57.4584 851.798 555.075
2032 0 83.3341 12.9959 1083 55.6713 852.101 557.138
2033 0 84.4729 13.0338 1101 56.3588 851.698 555.919
2034 0 86.5095 13.0968 1133 56.5137 851.582 553.511
2035 0 91.5698 12.6133 1155 57.1584 851.584 552.049
2036 0 93.4867 13.1462 1229 56.7185 851.235 551.02
2037 0 97.9866 13.5733 1330 55.8226 851.302 548.511
2038 0 101.418 13.7452 1394 55.5072 851.508 545.253
2039 0 104.508 12.8412 1342 56.9873 850.832 544.991
2040 0 104.841 13.2201 1386 56.8918 850.982 543.033
2041 1 59.2441 9.35115 554 57.4458 850.191 569.673
2042 0 60.3686 11.3801 687 56.7453 850.297 565.721
2043 0 63.2453 10.6569 674 57.6439 849.786 565.19
2044 0 65.0884 11.7993 768 56.1406 850.079 566.181
2045 0 69.0597 11.1643 771 56.1271 850.501 564.971
2046 0 69.0515 12.7007 877 54.7412 850.709 565.684
2047 0 74.5471 12.9448 965 54.6964 851.035 565.241
2048 0 74.5694 12.8069 955 55.5644 850.713 563.082
2049 0 77.5485 13.2562 1028 55.1907 850.707 562.472
2050 0 79.5667 13.3599 1063 55.3368 849.936 561.019
2051 0 82.3708 12.7472 1050 56.0238 849.85 560.395
2052 0 84.5104 13.7025 1158 55.2979 850.487 557.617
2053 0 85.6382 13.2651 1136 58.1928 849.991 558.217
2054 0 89.4883 13.1973 1181 58.5114 850.318 555.636
2055 0 91.5489 14.069 1288 57.6988 849.995 555.798
2056 0 93.6714 13.4193 1257 58.6555 850.165 554.924
2057 0 97.4387 14.0396 1368 58.1228 849.966 552.482
2058 0 98.6707 13.9048 1372 58.4388 849.566 549.899
2059 0 102.061 13.1099 1338 59.6383 850.475 547.555
2060 0 104.902 14.1847 1488 58.1001 850.257 550.727
2061 0 107.98 14.0212 1514 58.963 850.168 546.995
2062 0 110.878 13.6546 1514 59.893 849.708 546.015
2063 0 112.865 13.0067 1468 61.252 849.732 541.847
2064 0 119.68 14.5471 1741 58.4164 849.187 542.149
2065 0 121.851 13.7299 1673 60.1931 849.447 539.311
2066 1 72.5794 10.9122 792 60.6755 849.283 567.731
2067 0 71.6738 11.2733 808 60.9134 850.395 567.022
2068 0 72.5346 11.8702 861 61.3055 850.25 566.016
2069 0 76.3412 12.7454 973 60.7564 850.594 563.741
2070 0 79.2154 12.8132 1015 60.4108 850.378 562.424
2071 0 81.3175 13.3797 1088 60.7022 850.971 561.342
2072 0 84.3418 13.3623 1127 60.1872 851.043 560.203
2073 0 87.3792 13.0809 1143 60.8014 851.374 557.934
2074 0 90.3276 12.9971 1174 60.7513 851.221 558.228
2075 0 93.2495 14.4451 1347 58.686 850.5 556.391
2076 0 95.3523 13.5707 1294 59.6491 850.63 554.853
2077 0 99.2255 13.6356 1353 59.7273 850.846 551.415
2078 0 101.383 14.1345 1433 59.2715 851.125 549.843
2079 0 104.388 14.063 1468 59.3978 851.024 549.409
2080 0 107.316 13.9495 1497 59.4843 851.372 548.815
2081 0 109.264 13.5726 1483 60.2515 851.231 546.148
2082 0 113.374 13.9185 1578 59.7307 851.33 544.255
2083 0 115.465 13.7271 1585 60.3937 851.662 539.7
2084 0 120.279 14.1587 1703 59.7399 852.442 540.933
2085 0 123.349 14.2361 1756 59.7335 852.433 539.111
2086 0 128.333 13.9247 1787 60.0157 853.049 535.997
2087 0 131.303 14.0134 1840 59.8859 852.788 533.293
2088 0 134.331 14.0102 1882 59.9766 852.979 531.844
2089 1 77.249 11.1199 859 60.4494 852.717 562.93
2090 0 81.3112 12.0033 976 59.4395 853.223 563.399
2091 0 82.2082 12.2615 1008 60.0228 853.455 559.847
2092 0 82.1085 13.0437 1071 59.6545 853.826 558.209
2093 0 85.3024 13.0477 1113 60.4151 854.219 555.602
2094 0 88.1823 13.1432 1159 60.2278 854.633 552.836
2095 0 91.1764 12.8652 1173 60.4527 854.467 550.706
2096 0 93.2443 12.8372 1197 60.8772 854.528 551.261
2097 0 98.221 13.6427 1340 59.8216 854.448 549.286
2098 0 100.171 13.7765 1380 59.871 854.406 546.657
2099 0 104.156 13.3165 1387 60.2062 854.951 545.563
2100 0 106.319 13.9015 1478 59.7111 854.756 544.508
2101 0 109.359 13.4877 1475 60.2583 854.81 543.672
2102 0 112.384 13.3738 1503 61.0486 854.866 539.385
2103 0 117.495 13.5666 1594 60.17 855.047 539.104
2104 1 68.3068 11.8583 810 60.1593 855.022 564.281
2105 0 68.4079 10.949 749 61.2924 855.704 564.135
2106 0 69.2874 12.0945 838 60.3866 855.451 562.797
2107 0 71.3857 12.6076 900 59.4478 855.966 559.773
2108 0 75.1816 12.6095 948 59.6983 856.004 558.222
2109 0 78.2689 13.5175 1058 59.0246 856.157 558.161
2110 0 80.5775 13.3164 1073 58.7213 856.131 557.695
2111 0 83.4861 13.655 1140 58.6202 856.26 554.694
2112 0 85.5061 13.9873 1196 58.1973 856.609 553.39
2113 0 86.5107 13.5128 1169 59.2121 856.132 552.758
2114 0 89.5915 13.1263 1176 59.4464 856.89 552.649
2115 0 92.5471 13.6471 1263 58.7158 856.18 550.306
2116 0 95.4586 13.9537 1332 57.726 855.912 546.549
2117 0 100.648 13.4727 1356 57.6091 856.142 546.776
2118 0 103.518 13.6884 1417 57.3924 855.758 544.542
2119 1 56.4304 11.2174 633 58.8768 854.962 567.242
2120 0 57.29 11.2061 642 58.8006 854.816 567.785
2121 0 59.2481 11.9329 707 57.3593 854.806 566.734
2122 0 62.1985 13.473 838 55.6706 855.178 566.277
2123 0 65.2097 13.8783 905 54.6254 855.488 564.062
2124 0 66.1107 13.1446 869 56.1968 854.68 563.801
2125 0 66.1443 12.8204 848 57.6238 854.77 564.476
2126 0 69.2614 13.875 961 56.3528 854.107 562.447
2127 0 71.1465 13.3668 951 56.7245 853.87 562.47
2128 0 74.2387 14.0358 1042 55.8791 854.038 559.772
2129 0 75.1929 13.1395 988 57.5233 853.179 558.768
2130 0 78.2452 14.5312 1137 55.3975 853.25 559.274
2131 0 80.0686 13.8256 1107 56.7182 853.417 557.35
2132 0 83.5935 13.7451 1149 56.7946 853.254 555.695
2133 0 86.2393 14.6801 1266 56.0845 852.921 555.178
2134 0 89.2483 14.1515 1263 56.5843 852.945 554.36
2135 0 92.3611 14.6382 1352 56.162 852.837 553.753
2136 0 94.393 14.1112 1332 56.8521 852.701 552.583
2137 0 97.3659 13.9987 1363 57.8423 852.75 550.949
2138 0 99.3241 13.9946 1390 58.0367 852.82 550.347
2139 0 102.343 14.3537 1469 57.9428 852.515 543.449
2140 0 104.403 13.6394 1424 59.5639 851.841 542.555
2141 0 107.422 14.1498 1520 58.7638 853.008 544.122
2142 1 63.3595 11.2217 711 59.8242 852.238 568.107
2143 0 62.25 11.9197 742 60.7911 852.221 565.491
2144 0 66.3649 13.2148 877 59.0867 852.226 565.643
2145 0 67.2677 13.6321 917 58.8495 851.568 565.694
2146 0 70.3864 13.298 936 59.516 852.083 563.517
2147 0 73.2476 14.0346 1028 59.0681 851.306 561.773
2148 0 75.2848 13.947 1050 59.6819 851.152 560.729
2149 0 76.3008 13.7089 1046 60.2141 851.323 558.401
2150 0 79.3746 13.3292 1058 60.8166 851.321 559.617
2151 0 83.1847 14.1372 1176 59.6794 851.687 558.111
2152 0 84.3053 14.4356 1217 59.8981 851.558 554.848
2153 0 86.2464 13.5426 1168 61.125 851.819 555.124
2154 0 91.2627 13.8063 1260 60.2468 851.48 554.29
2155 0 92.234 14.1163 1302 60.1997 851.527 555.079
2156 0 94.2561 13.1344 1238 61.3457 851.477 549.628
2157 0 97.1548 13.391 1301 61.289 851.511 548.577
2158 0 102.189 13.7001 1400 60.4871 851.441 545.392
2159 0 106.249 14.0048 1488 59.7917 851.273 545.646
2160 1 59.1336 11.0935 656 61.1921 850.544 567.98
2161 0 61.1306 11.4182 698 61.0831 851.004 567.48
2162 0 64.1111 11.8856 762 59.958 850.366 568.281
2163 0 64.1111 11.9012 763 173.358 850.359 568.254
2164 0 71.0714 13.4091 953 58.1511 850.239 564.531
2165 0 72.1092 12.8694 928 59.4116 849.908 564.61
2166 0 74.0868 13.4302 995 58.8623 849.977 562.641
2167 0 74.2856 13.1789 979 60.3269 850.185 562.195
2168 0 76.2734 12.8354 979 60.5005 849.975 561.363
2169 0 80.1223 13.2547 1062 60.4171 849.783 561.157
2170 0 80.3176 13.8077 1109 60.1605 849.986 560.356
2171 0 85.3743 14.1729 1210 51.1603 849.98 557.863
2172 0 86.4058 13.2514 1145 60.9231 850.265 555.49
2173 0 90.5193 13.8313 1252 59.8786 849.902 555.361
2174 0 91.6039 13.875 1271 60.572 849.138 553.009
2175 0 95.1765 14.2052 1352 60.0799 849.109 550.927
2176 0 97.2586 12.7701 1242 61.525 848.966 550.977
2177 0 99.2624 13.6608 1356 61.4189 849.235 546.928
2178 0 105.418 14.0489 1481 60.1789 849.385 547.411
2179 1 58.3199 11.2826 658 61.1444 849.33 568.509
2180 0 61.2895 11.8454 726 60.062 849.494 569.314
2181 0 61.1151 11.192 684 61.2325 850.181 570.061
2182 0 67.1443 12.5551 843 58.9383 850.804 566.006
2183 0 68.2213 12.3715 844 59.6209 850.544 565.908
2184 0 68.3174 13.8179 944 58.1896 850.286 565.912
2185 0 71.1928 13.625 970 58.3619 850.632 564.168
2186 0 75.5055 13.8268 1044 57.5805 850.945 561.099
2187 0 78.4957 14.0645 1104 57.2554 851.098 560.8
2188 0 79.3195 13.7671 1092 57.3755 851.298 559.322
2189 0 83.2287 14.1057 1174 56.8773 851.256 558.17
2190 0 85.3625 14.4911 1237 56.5804 851 555.62
2191 0 89.6342 14.4699 1297 55.7818 851.52 553.584
2192 0 90.155 14.1867 1279 57.3049 851.612 552.685
2193 0 93.5969 13.1949 1235 57.6964 851.979 552.123
2194 0 98.7001 14.154 1397 56.1582 852.377 549.499
2195 0 100.325 14.7919 1484 55.3794 852.397 547.987
2196 0 102.714 14.1168 1450 56.7766 852.722 545.331
2197 0 105.5 14.1612 1494 56.4257 852.896 544.104
2198 0 108.794 14.4677 1574 55.9714 852.861 543.07
2199 0 111.866 14.2313 1592 56.566 852.691 540.754
2200 0 116.765 14.1994 1658 55.8685 853.098 539.87
2201 0 119.991 14.4094 1729 55.557 853.078 536.927
2202 0 121.718 14.5418 1770 55.7655 853.597 534.921
2203 0 126.965 14.9175 1894 55.5338 854.02 531.677
2204 1 72.603 11.1841 812 56.7931 853.647 560.196
2205 0 76.8996 11.5345 887 56.6471 853.899 559.531
2206 0 80.8816 12.0794 977 56.086 854.217 557.354
2207 0 81.4723 12.3969 1010 55.5406 854.046 557.052
2208 0 83.7167 13.4262 1124 54.9537 854.367 553.782
2209 0 88.0218 12.9172 1137 55.1398 854.508 551.496
2210 0 91.6754 13.4714 1235 54.481 854.682 551.475
2211 0 94.6933 13.2111 1251 54.6747 854.461 548.932
2212 0 97.6142 13.2973 1298 54.6641 854.82 543.989
2213 0 101.722 13.9596 1420 53.8148 854.718 545.888
2214 0 103.693 13.4628 1396 54.5817 855.015 543.836
2215 0 106.89 13.6589 1460 54.2377 855.108 540.346
2216 0 110.601 13.5533 1499 53.9586 855.098 539.349
2217 0 115.6 12.9671 1499 54.7692 855.304 535.835
2218 0 118.656 13.9226 1652 53.9219 855.159 536.319
2219 1 65.6339 11.6556 765 52.2876 855.173 561.352
2220 0 69.5623 12.7943 890 51.2708 855.963 561.57
2221 0 69.6142 12.44 866 53.2102 855.597 557.476
2222 0 72.4744 13.2599 961 52.0375 855.421 557.098
2223 0 75.6648 13.1237 993 51.995 855.614 557.195
2224 0 76.5893 12.3385 945 53.4497 855.13 556.34
2225 0 77.7462 13.6084 1058 52.5992 854.725 553.896
2226 0 82.9159 13.4474 1115 52.2081 854.81 552.578
2227 0 84.4067 12.7241 1074 53.8175 854.978 549.917
2228 0 85.5484 13.2089 1130 54.2708 855.055 548.494
2229 0 89.7344 13.3059 1194 54.3166 855.089 549.047
2230 0 91.4929 13.3781 1224 54.317 854.74 545.699
2231 0 96.5841 13.8118 1334 53.4018 854.475 545.132
2232 0 97.4435 14.0081 1365 53.2586 854.612 544.062
2233 0 100.409 12.9969 1305 55.0659 854.897 538.921
2234 0 105.329 13.662 1439 53.9625 855.216 539.279
2235 0 109.437 13.1308 1437 54.5776 854.498 536.944
2236 0 113.268 13.1458 1489 54.362 854.758 537.688
2237 0 116.436 13.7758 1604 53.7238 853.79 534.827
2238 0 120.288 13.8418 1665 53.6523 853.924 533.602
2239 0 121.279 12.5495 1522 55.2168 854.216 529.911
2240 0 127.248 13.5563 1725 54.5386 854.015 532.253
2241 0 131.266 14.2688 1873 52.9007 853.834 528.987
2242 0 136.594 13.1119 1791 54.1971 853.91 525.238
2243 0 140.459 14.2034 1995 53.3479 854.533 524.125
2244 1 81.3318 11.201 911 54.2415 854.726 553.462
2245 0 82.3455 12.0347 991 53.773 854.428 551.111
2246 0 84.5164 11.832 1000 52.883 854.186 554.491
2247 0 87.3523 12.2264 1068 54.029 854.06 549.5
2248 0 91.235 12.9994 1186 53.7833 853.946 545.716
2249 0 94.4546 13.7315 1297 53.4688 853.606 545.59
2250 0 97.5203 14.2329 1388 52.9669 853.326 543.969
2251 0 101.351 13.6653 1385 53.8534 853.303 543.163
2252 0 103.718 13.3053 1380 54.2884 853.448 540.679
2253 0 107.852 13.194 1423 54.9353 853.771 537.344
2254 0 112.76 13.0809 1475 55.0312 853.786 537.159
2255 0 115.643 13.4292 1553 55.1893 853.363 537.149
2256 0 118.812 14.3083 1700 54.1935 853.301 537.266
2257 0 122.803 13.4117 1647 55.2277 853.31 533.102
2258 0 126.777 13.8589 1757 54.4604 853.01 531.824
2259 0 133.002 15.1952 2021 53.0148 853.036 528.465
2260 0 136.001 14.3822 1956 54.726 853.124 528.219
2261 0 140.972 13.6907 1930 55.6181 853.099 524.416
2262 1 80.5382 11.8453 954 54.4413 852.926 555.529
2263 0 79.2529 11.2173 889 55.838 853.042 553.165
2264 0 85.401 12.8453 1097 53.5305 853.012 552.71
2265 0 88.2536 13.1779 1163 53.331 853.431 550.57
2266 0 90.3807 13.1223 1186 53.8912 852.751 548.563
2267 0 93.4126 12.7178 1188 54.2837 853.056 547.859
2268 0 96.4348 12.5577 1211 54.602 853.154 547.5
2269 0 98.5322 12.879 1269 54.4681 853.341 545.983
2270 0 101.298 13.406 1358 54.6031 853.679 544.814
2271 0 106.45 14.2226 1514 53.8045 853.49 543.241
2272 0 106.499 13.0049 1385 55.9285 853.375 541.695
2273 0 110.226 12.8735 1419 56.5581 853.276 539.074
2274 0 114.323 13.8642 1585 55.4429 853.653 538.566
2275 1 64.2626 10.955 704 56.0753 853.087 562.405
2276 0 66.4621 10.1863 677 56.3796 852.256 563.945
2277 0 68.1133 11.8332 806 55.6253 852.254 561.953
2278 0 67.1914 12.0551 810 55.9469 851.865 560.73
2279 0 70.2482 12.3704 869 55.5995 851.838 559.703
2280 0 74.2978 13.6343 1013 54.1649 851.866 558.411
2281 0 73.4907 13.2262 972 55.7016 851.626 556.664
2282 0 76.4584 13.3537 1021 55.3516 851.435 556.982
2283 0 78.2285 12.9876 1016 56.2402 851.315 555.272
2284 0 81.224 13.3581 1085 56.1346 851.19 553.912
2285 0 84.2577 14.2776 1203 55.2735 851.337 554.263
2286 0 85.3186 13.2796 1133 56.7061 851.336 552.424
2287 0 90.2842 14.3768 1298 55.574 851.542 550.512
2288 0 93.3116 13.3317 1244 56.7926 851.155 547.673
2289 0 94.2211 14.466 1363 56.2583 851.334 547.574
2290 0 98.1709 14.3525 1409 56.3229 851.153 547.69
2291 0 99.2414 13.8853 1378 57.8534 850.812 544.98
2292 0 102.084 13.6848 1397 57.821 850.716 546.51
2293 0 105.153 14.2079 1494 58.2329 850.551 543.904
2294 0 107.177 14.4713 1551 58.2398 850.49 542.006
2295 0 112.173 14.7718 1657 57.4834 850.769 541.223
2296 0 115.172 14.5782 1679 57.4378 850.58 539.663
2297 1 66.0466 10.0384 663 58.0784 850.226 566.643
2298 0 69.1528 11.8 816 57.3297 850.137 563.485
2299 0 70.0759 10.7312 752 57.0226 850.519 566.406
2300 0 72.1866 11.9274 861 56.1684 850.314 564.051
2301 0 73.1301 12.0333 880 56.3807 850.655 560.294
2302 0 72.0915 11.4854 828 57.9167 850.228 558.624
2303 0 78.1224 12.4932 976 56.2531 850.221 558.099
2304 0 80.0803 12.425 995 56.3518 850.302 558.535
2305 0 83.2151 12.4617 1037 56.4638 850.323 557.232
2306 0 85.2771 12.2893 1048 56.2271 850.517 555.852
2307 0 89.1158 12.826 1143 55.608 850.541 553.506
2308 0 91.2716 12.7312 1162 55.8967 850.083 551.529
2309 0 95.2597 11.9988 1143 55.9834 850.073 551.096
2310 0 98.0971 13.0585 1281 55.2155 850.786 550.171
2311 0 101.128 12.7463 1289 55.5244 850.506 547.801
2312 0 104.49 13.7621 1438 54.4652 850.978 545.229
2313 0 106.215 12.3899 1316 55.886 850.551 543.957
2314 0 109.136 12.6173 1377 55.8424 850.606 541.62
2315 1 63.0692 10.1476 640 54.6375 850.066 566.27
2316 0 64.1867 10.9992 706 53.3286 850.545 567.014
2317 0 66.1857 11.0749 733 54.6971 851.201 565.804
2318 0 67.1534 11.9726 804 54.5062 851.71 565.164
2319 0 72.1854 12.3571 892 53.8341 851.527 563.288
2320 0 72.2724 11.8026 853 54.6811 851.544 560.961
2321 0 76.1689 12.1309 924 53.9048 851.968 559.402
2322 0 76.2559 11.5794 883 55.4915 851.917 557.024
2323 0 82.3005 12.3815 1019 53.7017 851.927 558.448
2324 0 82.1989 12.3116 1012 54.5415 852.144 555.648
2325 0 84.1357 12.4798 1050 54.9248 852.384 554.241
2326 0 87.2095 12.0056 1047 55.384 852.241 554.525
2327 0 91.1272 12.6307 1151 54.7637 852.103 552.427
2328 0 92.1457 12.5779 1159 55.264 852.973 549.433
2329 0 96.1874 12.642 1216 55.4334 853.289 546.53
2330 0 97.2595 13.2841 1292 55.1393 853.5 547.606
2331 0 100.188 12.7959 1282 55.8573 853.364 546.995
2332 0 105.155 13.1235 1380 55.5196 853.716 545.229
2333 0 109.332 13.3538 1460 55.4233 853.437 542.083
2334 1 64.0663 9.84917 631 57.3344 853.062 564.127
2335 0 64.0458 9.86794 632 57.9747 853.188 562.551
2336 0 69.1661 11.176 773 56.5032 853.408 561.831
2337 0 68.2035 10.7912 736 57.2962 853.44 562.039
2338 0 70.2289 11.9182 837 56.2593 853.656 559.538
2339 0 71.2138 12.7082 905 56.032 853.634 558.729
2340 0 73.2756 12.6236 925 56.4357 854.088 555.853
2341 0 76.2691 12.9803 990 55.7687 854.389 556.562
2342 0 78.3164 13.4838 1056 55.2604 854.518 554.531
2343 0 80.4706 12.7624 1027 56.0594 854.844 554.297
2344 0 80.3888 13.2854 1068 56.3614 854.781 552.251
2345 0 85.2195 13.0134 1109 56.3562 854.779 550.849
2346 0 86.4287 13.4446 1162 56.2978 855.115 549.917
2347 0 89.5512 13.2997 1191 56.5726 855.376 548.64
2348 0 89.5512 13.3332 1194 157.953 856.37 548.701
2349 0 95.4143 13.52 1290 56.2721 855.888 547.123
2350 0 98.3259 13.1807 1296 56.8673 855.789 543.755
2351 0 101.476 13.0375 1323 57.2555 855.766 541.972
2352 0 104.475 13.7449 1436 56.1024 856.263 540.491
2353 0 108.443 13.0668 1417 57.4714 855.766 539.114
2354 0 111.324 12.8364 1429 58.1337 855.723 535.423
2355 0 115.429 13.8007 1593 56.4507 855.608 536.045
2356 1 71.4009 10.5041 750 56.4973 855.796 559.925
2357 0 69.2945 11.5305 799 55.2003 855.76 561.159
2358 0 71.5575 11.3335 811 56.7411 855.621 557.52
2359 0 73.3461 11.7661 863 55.9467 855.083 555.546
2360 0 74.3451 11.4063 848 56.8656 855.399 555.206
2361 0 76.4894 12.8776 985 56.664 854.658 553.447
2362 0 76.4894 12.8776 985 163.808 853.658 553.447
2363 0 83.429 13.2927 1109 55.1749 854.567 553.97
2364 0 84.9298 13.3522 1134 55.8078 854.281 551.298
2365 0 85.5913 13.3542 1143 56.2012 854.267 549.466
2366 0 90.5076 13.8773 1256 55.6943 854.161 546.761
2367 0 92.6444 13.6544 1265 55.3115 853.128 547.802
2368 0 94.9107 13.6971 1300 56.4262 853.299 544.262
2369 0 96.851 13.3504 1293 56.9799 853.699 543.452
2370 0 100.772 13.5751 1368 56.9678 853.474 540.886
2371 0 104.985 13.3639 1403 56.34 853.273 541.753
2372 0 106.548 14.463 1541 55.9215 852.799 539.385
2373 0 107.879 13.2463 1429 57.6774 852.78 538.583
2374 0 110.743 13.7436 1522 57.4028 852.868 536.683
2375 0 112.872 13.7944 1557 57.5934 852.775 534.969
2376 0 115.62 13.7347 1588 58.3426 852.685 533.288
2377 0 120.751 13.6066 1643 58.2009 852.677 532.088
2378 1 68.4063 11.2416 769 58.5657 852.246 560.733
2379 0 71.4627 10.8728 777 58.8147 852.526 558.637
2380 0 72.6309 11.3313 823 58.6804 852.595 558.13
2381 0 75.4602 12.4436 939 55.4633 852.526 557.784
2382 0 77.3882 12.4438 963 55.7445 853.065 556.644
2383 0 80.4964 13.7273 1105 53.886 853.632 557.144
2384 0 84.5302 13.4508 1137 54.051 853.013 555.381
2385 0 83.3823 12.6526 1055 55.9062 852.607 552.196
2386 0 88.8344 13.407 1191 54.5348 852.793 549.945
2387 0 90.9906 12.7156 1157 54.8954 853.056 548.881
2388 0 93.6023 12.6065 1180 55.3153 852.787 546.293
2389 0 98.0739 13.4286 1317 54.5277 852.74 544.752
2390 0 101.875 13.7326 1399 53.9878 852.888 544.075
2391 0 103.733 13.7468 1426 54.0652 852.925 543.905
2392 0 107.955 13.6631 1475 54.1776 852.951 541.908
2393 0 109.611 13.3655 1465 54.8375 852.951 539.811
2394 0 112.64 13.37 1506 54.8134 853.037 538.616
2395 0 117.623 13.8663 1631 54.122 852.631 534.729
2396 0 121.622 13.9449 1696 53.6073 852.931 532.912
2397 1 66.3991 10.8435 720 54.4306 852.336 560.792
2398 0 70.4505 10.5322 742 54.4164 852.009 560.815
2399 0 72.4492 12.6571 917 53.0938 852.27 558.063
2400 0 74.2346 11.9756 889 54.1035 851.866 559.683
2401 0 75.2276 12.8011 963 53.785 852.388 556.756
2402 0 76.4314 12.6126 964 54.7178 851.886 557.547
2403 0 81.5262 13.5049 1101 53.4133 851.779 555.946
2404 0 81.3541 13.177 1072 54.5336 851.459 556.202
2405 0 84.4803 12.8196 1083 55.0157 851.319 554.612
2406 0 87.609 13.4461 1178 54.5178 851.157 553.065
2407 0 89.5416 13.7143 1228 54.8721 851.159 550.271
2408 0 91.6845 13.8518 1270 54.6039 851.078 550.937
2409 0 94.4371 13.4057 1266 55.7836 851.275 549.021
2410 0 97.5282 12.9706 1265 56.3842 850.855 547.996
2411 0 101.36 14.2265 1442 54.7628 850.769 547.214
2412 0 103.384 13.6191 1408 55.8722 850.837 545.124
2413 0 106.442 13.9888 1489 55.4063 850.344 545.799
2414 0 108.448 13.269 1439 56.8423 850.457 541.794
2415 0 113.37 14.9422 1694 54.7462 850.299 540.844
2416 0 116.339 13.5208 1573 56.2231 850.408 540.915
2417 0 118.596 13.4996 1601 56.4341 850.119 538.229
2418 1 73.2852 10.3159 756 54.6124 849.586 565.964
2419 0 73.1318 12.2929 899 52.99 849.524 563.662
2420 0 74.1224 10.6985 793 54.8916 849.482 562.496
2421 0 76.1597 12.3425 940 53.584 849.376 559.903
2422 0 78.1991 12.4298 972 53.6409 850.205 559.053
2423 0 82.2259 13.1102 1078 52.5529 850.466 557.856
2424 0 86.312 12.9994 1122 52.721 850.036 557.341
2425 0 88.2096 13.3999 1182 52.6235 849.92 555.042
2426 0 89.3071 12.373 1105 54.2525 849.877 553.984
2427 0 93.3671 12.4562 1163 54.399 850.448 552.415
2428 0 96.272 12.714 1224 53.8644 849.96 550.868
2429 0 98.2676 12.5982 1238 54.0517 850.212 550.162
2430 0 103.281 12.4515 1286 53.9751 849.672 548.583
2431 0 102.347 12.9461 1325 54.3057 849.637 544.722
2432 0 107.136 12.4982 1339 54.1628 849.823 543.916
2433 0 114.234 13.3061 1520 52.5467 849.861 543.473
2434 1 63.0969 9.90541 625 52.7648 849.195 569.762
2435 0 67.1392 12.2432 822 51.0292 849.747 566.781
2436 0 69.0838 10.4655 723 53.1508 849.837 564.61
2437 0 69.1172 11.8639 820 52.1524 849.445 562.861
2438 0 71.1779 11.3097 805 52.7565 849.732 563.006
2439 0 73.1141 11.4342 836 52.1854 849.382 563.331
2440 0 76.1845 12.4829 951 51.1073 849.569 559.317
2441 0 78.1665 12.2559 958 51.2735 849.957 560.005
2442 0 78.1625 11.7576 919 52.8433 850.408 558.441
2443 0 84.1371 12.753 1073 51.5946 850.473 557.325
2444 0 85.1856 11.786 1004 52.759 850.704 554.448
2445 0 85.15 12.2137 1040 53.0125 850.313 554.261
2446 0 90.4219 12.6186 1141 51.9939 850.179 551.558
2447 0 91.1404 12.7715 1164 52.5584 850.507 551.265
2448 0 95.1328 13.3498 1270 51.7756 850.87 550.372
2449 0 100.117 12.6352 1265 52.6466 850.74 546.961
2450 0 100.223 12.981 1301 52.8086 850.784 545.685
2451 0 105.213 12.3748 1302 53.1559 851.066 544.025
2452 0 109.288 13.4324 1468 52.4489 851.332 542.405
2453 0 111.198 13.4355 1494 52.9726 851.256 540.707
2454 0 115.353 13.9832 1613 50.9479 851.203 539.39
2455 0 119.206 13.6067 1622 51.3946 851.283 536.546
2456 0 122.228 14.4239 1763 50.6869 852.103 535.654
2457 0 124.453 13.3705 1664 51.9447 851.214 535.117
2458 0 128.337 14.3295 1839 51.6014 852.157 532.847
2459 0 133.332 13.9576 1861 51.8958 852.344 530.661
2460 0 134.205 13.6805 1836 52.567 852.675 530.8
2461 1 76.2123 11.1137 847 52.6942 852.681 559.573
2462 0 82.3747 11.1321 917 52.1123 853.129 558.543
2463 0 80.4202 11.6886 940 52.7234 853.041 557.779
2464 0 84.235 12.6313 1064 51.8487 853.749 554.742
2465 0 86.4994 13.0405 1128 51.6507 853.828 554.73
2466 0 86.1738 12.5212 1079 52.7247 853.577 553.164
2467 0 92.3512 13.6761 1263 51.293 853.667 549.528
2468 0 94.5068 13.4805 1274 51.6648 853.677 548.688
2469 0 98.3438 13.6562 1343 51.1705 853.797 547.99
2470 0 101.345 13.528 1371 51.6273 853.985 545.914
2471 0 104.489 13.4368 1404 52.0057 854.548 543.687
2472 0 106.413 13.2033 1405 51.9566 855.12 541.51
2473 0 107.514 12.5751 1352 53.1139 855.686 541.297
2474 0 112.633 14.2231 1602 51.5275 855.685 540.016
2475 0 116.384 14.1256 1644 51.5182 855.378 537.458
2476 0 117.475 12.8283 1507 53.0511 855.815 535.219
2477 0 123.633 14.7776 1827 50.7493 855.668 536.547
2478 0 125.624 13.7315 1725 51.9803 855.726 533.57
2479 0 127.439 13.426 1711 52.6698 855.298 530.312
2480 0 130.279 13.8165 1800 52.3778 855.011 527.03
2481 0 136.585 13.347 1823 52.83 855.255 525.3
2482 0 140.608 13.7688 1936 52.5243 855.425 522.26
2483 1 81.2707 11.4063 927 52.3193 855.142 555.341
2484 0 84.1781 12.2835 1034 52.5977 854.854 551.678
2485 0 87.3285 13.0427 1139 51.6321 854.842 549.843
2486 0 89.2681 12.9162 1153 52.3252 854.937 547.033
2487 0 92.3994 13.723 1268 51.5323 854.723 545.733
2488 0 95.6804 13.5974 1301 51.6549 854.612 545.267
2489 0 97.4386 14.173 1381 51.4671 854.772 543.505
2490 0 102.379 13.6942 1402 51.2168 854.665 544.056
2491 0 105.687 14.6754 1551 50.3804 854.734 539.627
2492 0 106.666 13.4438 1434 52.175 854.918 539.22
2493 0 108.662 14.0159 1523 52.0105 854.982 538.348
2494 0 114.59 14.7569 1691 51.0668 854.271 535.898
2495 0 115.762 14.6766 1699 51.5562 854.37 533.697
2496 0 120.657 13.8408 1670 51.8581 854.353 534.111
2497 0 123.709 14.6877 1817 51.1772 854.665 532.038
2498 1 71.3937 11.6537 832 52.5385 854.51 556.846
2499 0 73.5909 11.9308 878 51.7597 854.443 555.86
2500 0 76.4034 12.2508 936 51.3739 854.255 555.652
2501 0 79.463 13.7045 1089 49.3361 854.261 556.295
2502 0 82.3846 13.6555 1125 50.5787 853.71 553.17
2503 0 84.2865 13.11 1105 51.5566 853.861 552.302
2504 0 86.551 12.9404 1120 51.767 853.438 551.304
2505 0 90.7192 13.6796 1241 50.9404 853.211 549.349
2506 0 93.3805 13.868 1295 50.8023 852.963 547.146
2507 0 97.5347 13.8412 1350 50.6044 852.939 547.76
2508 0 100.455 14.5737 1464 50.2835 852.837 544.699
2509 0 100.522 13.5592 1363 52.3067 852.986 543.443
2510 0 105.721 14.1694 1498 51.4633 853.668 543.824
2511 0 107.39 14.2099 1526 52.2038 853.17 541.239
2512 0 109.32 13.9407 1524 52.8812 852.949 538.87
2513 0 113.433 13.8849 1575 53.12 853.408 535.813
2514 0 118.387 13.9627 1653 52.4797 853.535 537.325
2515 0 121.473 14.53 1765 52.4142 853.33 534.32
2516 0 125.449 14.6992 1844 52.3064 853.092 533.964
2517 1 71.2221 12.805 912 52.2993 852.925 560.628
2518 0 73.1846 13.1448 962 51.9875 851.825 560.41
2519 0 74.2471 12.6066 936 52.8739 852.077 557.697
2520 0 76.1706 13.3647 1018 52.3654 852.248 554.986
2521 0 78.1426 13.1938 1031 52.5635 852.189 554.596
2522 0 81.1208 13.7942 1119 52.0277 852.3 551.66
2523 0 85.2562 14.7907 1261 50.9278 853.06 554.273
2524 0 85.2579 14.204 1211 52.4459 852.326 549.516
2525 0 89.2788 14.2139 1269 52.1749 852.444 550.657
2526 0 93.1498 14.2029 1323 51.9116 852.2 551.126
2527 0 94.3686 14.5705 1375 52.168 851.903 549.133
2528 0 96.3433 13.5972 1310 53.4382 852.138 546.86
2529 0 98.1246 13.809 1355 53.9882 852.166 543.029
2530 0 102.359 14.2733 1461 53.6037 851.752 542.851
2531 0 105.233 14.5012 1526 53.306 851.197 542.157
2532 0 109.147 14.027 1531 53.9615 851.586 540.858
2533 1 63.0417 11.881 749 54.0921 851.048 562.53
2534 0 62.2321 12.2766 764 53.4136 851.209 563.653
2535 0 66.1653 10.9121 722 54.1122 850.762 564.062
2536 0 67.1304 13.0641 877 52.797 850.781 559.824
2537 0 72.0449 13.8663 999 52.01 850.823 560.395
2538 0 73.1349 14.1246 1033 53.0571 851.258 558.489
2539 0 75.1317 13.2567 996 54.3564 851.19 557.822
2540 0 79.2602 13.4115 1063 53.8382 851.424 556.609
2541 0 81.2198 13.4943 1096 54.3376 850.725 555.33
2542 0 82.265 13.6388 1122 54.4608 851 552.879
2543 0 88.2993 13.76 1215 54.2477 850.612 552.818
2544 0 89.2963 14.6255 1306 54.3568 851.021 549.941
2545 0 92.1425 14.9117 1374 53.9803 850.922 550.916
2546 0 96.1923 14.9804 1441 54.0736 850.978 549.858
2547 0 99.1769 15.1245 1500 54.1393 850.615 547.674
2548 0 99.3097 14.48 1438 55.4847 850.803 546.626
2549 0 105.224 14.9301 1571 55.3921 850.991 545.784
2550 0 104.158 14.4108 1501 56.6882 850.81 544.617
2551 0 108.271 14.8331 1606 56.32 850.92 542.743
2552 0 111.223 14.7362 1639 56.5552 850.686 542.877
2553 0 115.212 14.1305 1628 57.395 850.807 539.644
2554 0 117.26 14.1737 1662 58.2768 850.579 536.968
2555 0 123.186 14.8069 1824 57.1393 850.783 534.688
2556 0 126.222 14.4666 1826 58.19 850.731 533.813
2557 0 132.191 14.9481 1976 57.8826 850.923 531.828
2558 0 132.198 14.5312 1921 58.9146 850.406 528.85
2559 0 138.326 14.9791 2072 58.3726 850.241 528.411
2560 0 143.343 14.3781 2061 59.4032 850.328 524.701
2561 0 148.19 15.244 2259 58.73 850.405 522.189
2562 0 154.237 15.1326 2334 58.973 849.943 520.02
2563 0 158.237 15.9192 2519 58.268 850.317 519.112
2564 0 164.165 15.0276 2467 59.7357 850.691 514.784
2565 0 167.27 14.8682 2487 60.8834 850.229 510.441
2566 0 174.16 15.3939 2681 61.8422 850.532 511.44
2567 0 178.301 15.5748 2777 62.2171 850.282 504.092
2568 0 185.23 15.2351 2822 63.1984 850.177 502.742
2569 0 189.236 14.8968 2819 64.0383 850.222 499.503
2570 0 197.475 15.9514 3150 62.8879 850.259 496.873
2571 0 203.355 15.5443 3161 64.0544 850.108 493.468
2572 0 209.254 15.6461 3274 64.142 849.663 489.934
2573 0 216.443 15.7085 3400 64.4159 849.769 485.209
2574 0 223.33 16.5539 3697 63.1753 850.098 480.549
2575 0 230.404 15.8894 3661 64.5646 850.391 480.827
2576 0 230.453 13.2218 3047 67.7056 850.419 488.681
2577 1 49.0961 10.0212 492 61.5325 849.699 570.181
2578 0 51.0354 10.3653 529 61.4915 849.811 569.476
2579 0 57.0567 12.0407 687 59.3843 848.902 569.993
2580 0 58.0966 11.412 663 61.8235 848.32 570.29
2581 0 60.1665 12.4987 752 61.1902 849.771 568.632
2582 0 62.1966 12.6213 785 61.2331 849.434 567.639
2583 0 65.2405 12.0631 787 61.8602 849.435 567.316
2584 0 66.159 12.9234 855 60.8047 849.742 564.508
2585 0 69.2534 12.2304 847 61.5927 849.813 565.296
2586 0 71.1873 12.0808 860 62.0872 849.944 564.927
2587 0 71.2153 12.4692 888 62.9133 849.666 562.534
2588 0 74.1991 13.2886 986 61.6247 849.991 561.817
2589 0 77.2482 13.3725 1033 61.4608 850.354 560.442
2590 0 77.2828 12.616 975 63.479 850.929 557.347
2591 0 81.2014 12.82 1041 62.7646 850.49 556.678
2592 0 85.2542 12.8791 1098 62.2632 850.636 555.887
2593 0 86.2284 13.2439 1142 62.5044 850.746 553.245
2594 0 87.1432 13.0934 1141 62.986 850.771 553.464
2595 0 91.2282 13.7677 1256 61.992 850.869 552.881
2596 0 94.347 13.7683 1299 62.2148 850.958 550.112
2597 1 58.2013 10.5324 613 61.8662 850.703 568.961
2598 0 57.2464 9.55519 547 62.2633 850.068 568.505
2599 0 59.1708 10.6133 628 61.8328 850.76 565.632
2600 0 62.2061 11.1082 691 60.3097 851.091 565.42
2601 0 63.1338 10.8975 688 59.6919 851.432 563.211
2602 0 65.2679 11.0927 724 60.866 851.378 564.494
2603 0 66.2261 11.8835 787 60.7141 852.957 564.648
2604 0 68.1947 12.0684 823 60.8372 852.674 563.256
2605 0 71.2136 13.0593 930 59.2032 852.647 561.969
2606 0 73.2358 13.122 961 58.9334 853.07 561.691
2607 0 75.2511 12.6908 955 60.2743 853.346 558.494
2608 0 76.3485 12.5477 958 61.3841 854.125 558.42
2609 0 78.1817 12.8035 1001 61.4116 854.509 558.128
2610 0 80.1931 12.7068 1019 61.3896 854.033 557.855
2611 0 81.3652 13.0523 1062 61.5687 854.56 556.189
2612 0 83.1868 12.4419 1035 62.2609 854.436 554.931
2613 0 84.2723 13.3377 1124 61.7847 854.541 554.972
2614 0 86.2483 13.5191 1166 61.7213 855.154 552.514
2615 0 89.2168 13.1926 1177 62.0348 855.157 551.896
2616 0 92.2698 14.2517 1315 60.8091 855.31 550.503
2617 0 92.4444 13.0457 1206 63.34 855.272 550.314
2618 0 98.4828 13.7892 1358 61.5515 855.024 549.105
2619 0 97.4308 14.0305 1367 62.1631 855.43 546.89
2620 0 102.395 13.9264 1426 62.2041 855.395 546.349
2621 0 105.41 13.8317 1458 62.415 855.428 543.239
2622 0 110.485 13.9205 1538 62.4161 855.386 541.596
2623 0 112.479 13.9137 1565 62.8089 855.599 542.203
2624 0 115.495 14.0093 1618 62.9197 855.864 538.54
2625 0 119.655 14.6588 1754 61.8273 856.049 535.519
2626 0 123.517 14.6538 1810 61.621 856.094 533.585
2627 1 71.6196 11.4494 820 61.7841 855.622 561.565
2628 0 74.3441 11.514 856 61.882 855.737 559.682
2629 0 75.4363 11.4534 864 61.8218 855.141 558.094
2630 0 78.4278 12.8143 1005 60.5572 855.723 557.024
2631 0 80.5371 12.8015 1031 60.4956 855.255 556.403
2632 0 84.5996 13.3925 1133 58.8703 854.851 555.22
2633 0 88.5423 12.559 1112 59.7374 854.791 552.371
2634 0 90.4554 12.415 1123 59.8272 854.792 550.211
2635 0 91.4569 12.6398 1156 60.1324 854.835 549.999
2636 0 93.4291 12.6513 1182 60.3096 854.873 547.64
2637 0 97.5033 13.1175 1279 59.5192 855.154 547.566
2638 0 100.568 13.1056 1318 59.3778 854.721 545.042
2639 0 103.615 13.3765 1386 58.8896 854.766 544.374
2640 0 106.546 14.2285 1516 57.8219 854.194 541.914
2641 0 110.427 13.6108 1503 58.5888 854.53 541.963
2642 0 110.557 13.9565 1543 59.0668 854.452 538.843
2643 0 114.575 14.0869 1614 58.899 853.996 538.613
2644 0 119.444 13.722 1639 59.3685 854.625 536.145
2645 0 122.498 14.1553 1734 58.4579 854.472 532.203
2646 0 127.451 14.2878 1821 57.855 854.405 532.46
2647 1 76.3772 11.3385 866 58.4111 854.021 558.553
2648 0 79.3617 11.5295 915 57.8153 854.175 556.699
2649 0 79.2209 11.9665 948 55.7426 853.709 556.415
2650 0 83.3697 12.4626 1039 54.7632 853.728 556.126
2651 0 86.2214 13.1058 1130 54.631 854.198 553.169
2652 0 88.3842 13.5318 1196 54.2517 853.947 553.278
2653 0 89.2514 12.2575 1094 56.3428 854.368 552.435
2654 0 93.2621 13.328 1243 55.1022 854.578 549.312
2655 0 95.3622 13.8629 1322 55.0431 853.547 547.017
2656 0 99.318 14.0458 1395 54.6 853.996 545.599
2657 0 101.283 13.3586 1353 55.1456 854.058 545.924
2658 0 103.428 13.2362 1369 54.9839 854.107 543.679
2659 0 107.254 13.6405 1463 54.5714 854.094 539.741
2660 0 109.396 13.6477 1493 54.8667 854.057 541.296
2661 0 113.196 13.3573 1512 55.6561 853.856 539.456
2662 0 118.419 13.3593 1582 55.598 853.557 537.416
2663 0 119.33 13.316 1589 56.3059 853.423 534.653
2664 1 70.2033 11.8086 829 55.462 852.964 561.724
2665 0 71.1386 11.9063 847 55.2267 853.086 561.74
2666 0 74.0894 12.6469 937 54.4088 853.021 560.485
2667 0 76.1031 13.0612 994 54.9044 852.94 558.3
2668 0 78.2676 13.4027 1049 54.8198 853.835 556.495
2669 0 82.2296 13.0975 1077 54.9926 853.704 555.859
2670 0 85.2302 14.5136 1237 53.1229 853.491 555.038
2671 0 88.2902 12.9686 1145 54.862 853.554 554.158
2672 0 91.2348 14.1174 1288 53.8766 853.554 552.55
2673 0 92.1902 13.6999 1263 55.1655 852.976 549.048
2674 0 95.2119 14.662 1396 54.0043 853.287 549.463
2675 0 97.346 13.9811 1361 54.5489 852.827 547.338
2676 0 101.279 13.4086 1358 55.5523 852.367 546.088
2677 0 103.393 13.6953 1416 55.1674 852.46 545.958
2678 0 108.342 14.242 1543 54.4038 852.611 545.391
2679 0 109.458 13.3659 1463 55.7929 852.852 542.103
2680 0 114.165 14.2075 1622 54.5986 852.648 542.258
2681 0 114.265 13.7925 1576 55.7551 852.023 540.247
2682 0 119.244 13.812 1647 55.4906 852.185 535.894
2683 0 123.438 14.5661 1798 54.5795 852.35 534.616
2684 0 125.299 14.0464 1760 55.6597 852.325 532.474
2685 0 129.239 15.2276 1968 54.1951 851.991 531.225
2686 0 133.449 14.7322 1966 55.117 852.193 529.73
2687 1 80.5587 11.8423 954 55.457 852.109 554.051
2688 0 80.277 11.7842 946 56.1871 852.436 551.467
2689 0 83.3609 12.5718 1048 55.4179 852.882 548.417
2690 0 85.1317 13.0974 1115 55.826 852.024 549.58
2691 0 87.3126 12.8962 1126 55.984 851.93 550.881
2692 0 92.4166 13.2768 1227 55.2812 851.774 549.36
2693 0 97.4608 14.1288 1377 54.1481 851.534 549.268
2694 0 98.4291 14.0406 1382 54.6831 851.56 546.272
2695 0 101.484 13.6967 1390 55.1676 852.101 544.792
2696 0 106.489 13.7198 1461 54.6304 852.018 542.06
2697 0 108.544 13.377 1452 55.3988 852.129 537.761
2698 0 114.404 13.5834 1554 54.4601 851.727 539.147
2699 1 62.6399 10.5205 659 55.0956 851.314 565.36
2700 0 63.5339 12.1825 774 54.584 851.548 562.798
2701 0 64.4722 11.0125 710 55.7944 851.041 562.125
2702 0 67.6717 12.3242 834 53.8909 851.394 562.91
2703 0 69.7024 12.9838 905 53.137 850.994 561.544
2704 0 70.353 13.2333 931 53.2137 851.276 560.565
2705 0 74.4865 13.922 1037 52.0974 851.196 558.943
2706 0 75.5122 12.5808 950 53.7495 851.228 558.092
2707 0 78.4613 12.9746 1018 53.2043 850.959 556.747
2708 0 80.5848 13.067 1053 53.1159 851.513 555.845
2709 0 82.5281 12.832 1059 53.2984 851.443 553.817
2710 0 85.6117 13.0122 1114 53.2711 851.377 553.311
2711 0 89.53 13.1018 1173 53.1151 851.483 552.333
2712 0 92.7464 13.4992 1252 52.8618 851.029 550.092
2713 0 94.3409 13.9494 1316 52.5775 850.684 547.932
2714 0 96.7957 12.9758 1256 53.7842 851.102 547.285
2715 0 100.498 13.6719 1374 53.0087 851.32 546.432
2716 0 102.468 13.9653 1431 52.5213 851.199 544.35
2717 0 106.385 13.9212 1481 52.4436 851.321 545.201
2718 0 108.196 13.7898 1492 52.8083 850.765 543.41
2719 0 112.302 14.1315 1587 52.6333 850.971 539.726
2720 0 117.205 15.1785 1779 51.5351 850.828 539.374
2721 0 119.391 14.1551 1690 52.4462 851.027 537.973
2722 0 122.586 13.2804 1628 54.0092 850.721 535.531
2723 1 70.1821 12.0543 846 53.1005 850.799 563.798
2724 0 71.4407 12.9198 923 52.1668 851.124 561.944
2725 0 73.5233 12.8259 943 52.5684 850.95 561.685
2726 0 74.1472 13.0416 967 52.6929 850.874 559.535
2727 0 78.1431 13.872 1084 51.8026 850.458 558.142
2728 0 80.2163 13.0896 1050 52.7962 850.56 556.554
2729 0 84.3389 14.0623 1186 51.7757 850.937 555.882
2730 0 84.2555 13.3641 1126 53.8126 851.022 553.687
2731 0 88.3312 13.5852 1200 53.2183 851.283 552.607
