time division length width area intensity CMx CMy
0 0 58.0642 12.8306 745 76.898 446.396 572.403
1 0 59.0218 13.7407 811 75.656 445.637 570.348
2 0 61.1156 12.9591 792 76.8346 445.689 569.497
3 0 64.06 13.3937 858 76.049 445.753 569.401
4 0 66.0424 12.4163 820 77.8244 445.645 568.477
5 0 69.153 12.8989 892 76.3969 445.4 568.224
6 0 69.1798 12.2435 847 77.686 445.115 567.949
7 0 72.0638 12.9746 935 76.9914 445.351 565.102
8 0 75.1269 13.2576 996 76.6546 445.727 563.59
9 0 78.1499 13.4613 1052 76.3013 445.83 563.6
10 0 79.27 13.4351 1065 77.5352 445.816 561.22
11 1 41.0976 10.3656 426 78.9366 445.894 579.995
12 0 42.1561 10.7932 455 77.3934 445.857 580.602
13 0 41.1535 10.8132 445 80.5461 445.791 577.888
14 0 46.1383 11.8123 545 77.7156 445.917 577.47
15 0 47.1522 12.2158 576 77.2465 446.139 576.594
16 0 49.1494 11.8821 584 77.3699 445.192 575.933
17 0 50.0654 12.3039 616 76.8929 445.399 576.399
18 0 50.1093 12.3929 621 77.9855 445.372 575.143
19 0 52.0575 12.5438 653 78.0521 445.247 574.916
20 0 54.0542 13.0425 705 77.4298 445.895 573.271
21 0 57.1808 12.3993 709 77.2934 445.78 574.385
22 0 58.143 12.6929 738 77.8645 446.263 572.317
23 0 61.1271 13.3329 815 76.4982 446.648 571.74
24 0 63.1979 12.8485 812 77.9064 446.58 570.482
25 0 64.1258 13.6451 875 77.0629 446.451 569.489
26 0 65.2168 12.7268 830 79.6566 446.175 568.402
27 0 69.1937 13.3972 927 101.79 446.3 567.38
28 0 70.2826 12.9762 912 79.6568 446.242 566.138
29 0 71.2842 12.6395 901 81.2064 446.689 564.695
30 0 74.2395 13.416 996 79.9508 447.083 563.827
31 0 76.2064 13.4503 1025 80.12 446.993 562.795
32 0 78.1426 13.3474 1043 80.3893 447.176 562.339
33 0 84.3429 13.4807 1137 79.2471 447.376 561.667
34 0 85.1848 13.8757 1182 79.5482 447.317 558.384
35 0 87.3203 13.4791 1177 81.2498 447.938 556.251
36 0 90.2279 14.1198 1274 79.5424 448.105 556.994
37 0 92.2793 14.6837 1355 79.0568 447.76 555.497
38 0 96.4004 13.7448 1325 80.7977 447.673 555.28
39 0 98.3488 13.4725 1325 82.6664 448.041 552.096
40 0 101.336 13.924 1411 80.8327 448.525 552.578
41 0 104.309 13.8531 1445 81.173 447.9 551.2
42 0 107.273 13.3211 1429 81.8733 448.262 548
43 1 56.2801 11.3362 638 79.8323 448.083 575.514
44 0 56.1717 11.6429 654 80.1391 448.159 574.433
45 0 58.1459 12.4858 726 78.7135 449.034 572.107
46 0 60.1687 12.9469 779 76.4018 448.849 572.416
47 0 63.0674 12.7007 801 76.8077 448.23 569.675
48 0 64.0662 12.2061 782 78.1496 447.864 570.051
49 0 67.0782 11.9711 803 78.1133 448.085 568.644
50 0 68.1686 12.6598 863 76.6292 447.956 568.246
51 0 72.2741 12.8677 930 75.7817 448.76 566.503
52 0 72.2359 12.2238 883 78.0838 448.599 563.983
53 0 75.3381 12.3443 930 77.3269 448.149 562.069
54 0 78.2877 12.6073 987 69.1287 447.627 562.313
55 0 80.3701 13.3259 1071 68.7666 448.236 561.291
56 0 82.3124 12.6955 1045 70.0364 448.67 560.618
57 0 85.1985 12.3711 1054 69.5645 448.943 558.543
58 0 89.2144 13.4395 1199 67.2018 448.761 557.426
59 0 90.4207 12.7957 1157 69.6214 449.003 555.576
60 0 94.2625 13.1123 1236 69.1052 449.498 553.103
61 0 98.4968 13.0258 1283 69.661 449.458 551.995
62 0 99.2982 12.5984 1251 71.3829 449.431 549.808
63 1 53.0512 10.7443 570 69.986 447.998 573.625
64 0 55.0316 10.2305 563 70.9645 448.48 572.428
65 0 57.0718 11.6345 664 69.3675 448.709 571.111
66 0 60.0554 12.8048 769 66.9818 448.506 570.009
67 0 61.1236 12.761 780 68.4679 449.269 569.058
68 0 63.1257 11.4692 724 69.5331 449.93 568.954
69 0 66.1276 12.7481 843 67.102 450.555 567.193
70 0 68.0806 12.6468 861 67.2764 450.158 566.496
71 0 71.1059 13.051 928 66.6164 450.347 565.069
72 0 72.076 13.0557 941 66.8714 450.546 562.978
73 0 75.2261 12.9211 972 67.3776 450.733 562.485
74 0 77.1322 12.9777 1001 67.8661 450.524 560.128
75 0 82.2322 13.2795 1092 66.7408 451.087 559.172
76 0 83.2042 12.235 1018 69.1061 450.741 558.021
77 0 87.2406 13.5029 1178 67.045 451.589 556.588
78 0 88.3281 13.0423 1152 68.6024 451.326 554.873
79 0 92.4234 13.7519 1271 67.3596 451.867 553.835
80 0 95.2572 13.4373 1280 68.5086 451.674 551.22
81 0 97.2619 12.492 1215 70.3144 452.241 547.891
82 0 101.198 13.1031 1326 69.2851 452.873 547.641
83 1 55.2738 11.0541 611 68.9329 453.209 570.879
84 0 57.109 11.6094 663 68.546 453.35 570.326
85 0 57.2233 11.2367 643 69.2784 453.846 569.733
86 0 59.1499 11.8682 702 68.8746 453.758 567.566
87 0 61.1015 11.6527 712 68.1404 452.935 566.094
88 0 62.0648 11.5686 718 68.4596 453.405 565.11
89 0 64.0982 11.654 747 68.8474 453.324 564.443
90 0 65.0802 11.7086 762 69.1982 454.134 562.189
91 0 70.1709 12.6691 889 67.4657 454.61 559.685
92 0 70.1332 12.9896 911 66.7947 454.393 557.99
93 0 71.1161 13.246 942 65.9236 454.416 557.594
94 0 75.0765 12.4673 936 67.1058 454.299 556.939
95 0 79.2243 13.5817 1076 65.513 454.21 554.392
96 0 80.1118 12.3827 992 66.9204 454.592 553.067
97 0 83.1153 12.982 1079 65.2706 454.288 552.837
98 1 45.1415 9.99081 451 64.2705 454.135 572.548
99 0 42.1442 10.2268 431 65.4316 453.988 570.323
100 0 47.2452 11.3239 535 63.6486 454.194 569.725
101 0 48.1663 10.7336 517 64.3037 455.008 569.795
102 0 49.2972 11.8668 585 63.865 455.366 567.012
103 0 52.169 12.517 653 64.6447 454.692 566.098
104 0 52.2975 12.5627 657 64.0974 454.248 566.292
105 0 53.2048 11.8974 633 65.8009 454.779 565.128
106 0 55.1979 12.3193 680 64.6971 454.449 565.946
107 0 58.2395 12.586 733 64.3492 454.685 563.593
108 0 59.1586 13.0159 770 64.5013 455.106 562.617
109 0 61.208 12.433 761 64.9067 455.021 561.924
110 0 62.0993 11.7876 732 66.6257 454.887 561.586
111 0 63.0362 12.5008 788 65.986 453.198 560.835
112 0 66.1596 12.6059 834 66.0084 452.763 559.168
113 0 68.0984 12.4379 847 66.4144 452.991 556.974
114 0 70.1181 12.1652 853 66.4654 452.678 557.877
115 0 72.1842 12.3019 888 66.1757 452.94 556.605
116 0 74.1519 13.297 986 65.3783 452.992 554.984
117 0 78.1747 13.3547 1044 64.8381 452.852 553.773
118 0 79.0611 12.7117 1005 66.4896 452.939 553.478
119 0 83.1081 13.4163 1115 65.8386 452.667 552.727
120 1 42.1183 11.3253 477 68.2956 452.86 570.514
121 0 45.0626 11.0735 499 68.6754 452.83 569.146
122 0 47.0273 12.0781 568 67.3732 452.717 569.129
123 0 47.0398 11.8835 559 69.1753 452.254 566.927
124 0 50.1224 12.27 615 67.7041 453.369 567.452
125 0 50.1726 12.7759 641 67.9594 453.686 566.296
126 0 52.1765 13.6268 711 67.4655 452.8 565.221
127 0 52.1865 12.8769 672 69.4643 452.58 566.354
128 0 54.2044 12.8956 699 69.824 452.456 565.422
129 0 56.1399 13.7157 770 68.9234 452.258 565.762
130 0 57.1887 13.0445 746 70.7373 451.819 562.847
131 0 59.2775 13.9682 828 69.0785 452.134 562.693
132 0 62.1383 13.5504 842 69.5724 452.203 562.486
133 0 63.1421 13.1766 832 70.6322 451.232 561.427
134 0 65.0685 13.9392 907 69.7828 452.042 560.386
135 0 66.1957 13.3997 887 70.8737 451.91 559.67
136 0 69.1166 13.3108 920 70.4935 452.139 559.842
137 0 70.1451 13.3295 935 70.907 452.075 559.448
138 0 75.1375 14.0143 1053 69.2412 452.224 557.344
139 0 76.1557 13.5643 1033 69.7222 452.398 555.664
140 0 79.1911 13.2464 1049 69.9962 451.843 554.746
141 0 80.1046 13.6322 1092 70.294 452.136 552.377
142 0 86.1171 13.6907 1179 68.9254 451.884 552.083
143 0 87.2005 12.993 1133 70.3636 451.606 549.904
144 0 90.16 12.9769 1170 70.2829 451.474 548.628
145 0 93.2054 13.5185 1260 68.9984 451.532 548.447
146 1 46.1089 11.1475 514 71.0506 451.062 571.383
147 0 48.0611 11.527 554 70.926 450.933 568.948
148 0 51.1099 12.2872 628 69.0175 450.785 568.207
149 0 52.097 12.3424 643 68.8009 450.714 568.005
150 0 54.1242 13.3397 722 67.536 450.974 566.215
151 0 56.1105 13.2239 742 67.4016 450.511 566.334
152 0 58.0852 13.3253 774 66.9922 450.027 563.956
153 0 61.0788 13.1797 805 66.6795 450.294 562.598
154 0 61.0547 13.2996 812 67.3276 449.719 562.286
155 0 64.1434 13.7037 879 66.57 450.018 561.912
156 0 67.0659 13.2258 887 66.9042 450.592 560.873
157 0 68.0798 14.3067 974 66.1335 450.395 560.136
158 0 69.0769 13.3474 922 67.8145 450.158 558.012
159 0 73.1664 13.8041 1010 66.4723 450.757 556.693
160 0 77.2456 13.6448 1054 66.1869 450.544 556.318
161 0 77.3032 14.0227 1084 66.2638 450.773 555.461
162 0 80.288 13.7505 1104 67.1286 450.38 551.461
163 1 41.0353 10.8931 447 68.8501 450.159 571.872
164 0 42.0295 11.825 497 67.7103 449.881 572.187
165 0 41.087 11.1471 458 69.2205 450.478 571.524
166 0 44.0238 12.5614 553 66.9837 450.488 571.277
167 0 46.0197 12.864 592 66.7551 450.179 569.615
168 0 46.0921 13.2127 609 67.2923 450.411 570.049
169 0 46.1353 13.4604 621 67.5378 450.818 568.899
170 0 49.0804 13.4269 659 67.17 450.718 567.548
171 0 51.0653 12.9638 662 67.7281 450.959 566.27
172 0 52.2239 13.9974 731 66.3762 451.51 565.275
173 0 55.0841 13.1435 724 67.558 451.892 565.204
174 0 57.1931 13.7429 786 67.0929 451.615 564.27
175 0 59.1904 13.5157 800 67.9388 451.978 562.161
176 0 59.1588 13.9117 823 67.9927 451.976 561.171
177 0 62.1768 13.7029 852 68.1092 452.231 560.569
178 0 64.1754 13.4787 865 68.859 452.553 559.637
179 0 66.0907 14.4045 952 68.0672 452.825 558.33
180 0 67.3696 13.1068 883 70.6308 452.975 557.059
181 0 70.107 14.0785 987 69.7487 453.169 556.341
182 0 71.3269 13.5713 968 71.2862 453.517 554.283
183 0 76.2136 13.6065 1037 71.4185 453.544 551.611
184 1 38.063 10.9555 417 73.9017 453.065 570.432
185 0 40.0412 11.9627 479 72.5804 453.063 570.303
186 0 42.0236 11.6125 488 73.0246 453.727 569.307
187 0 44.055 11.7126 516 73.6453 453.291 569.88
188 0 45.0709 12.6024 568 73.6514 454.169 567.086
189 0 48.0752 13.6037 654 71.7018 454.038 567.346
190 0 48.1265 13.7346 661 72.0333 454.617 565.902
191 0 49.075 12.919 634 72.9874 454.508 566.59
192 0 50.1162 14.0873 706 70.7521 454.729 565.686
193 0 51.115 12.9707 663 72.3152 454.68 566.036
194 0 52.1647 14.2242 742 69.9353 454.981 564.985
195 0 54.0686 14.2042 768 69.7383 455.529 563.51
196 0 58.0977 14.2174 826 68.3511 455.567 562.117
197 0 58.2597 13.766 802 71.3865 455.925 560.651
198 0 59.0669 13.9503 824 72.9138 455.841 561.337
199 0 61.0729 13.885 848 73.6014 455.969 559.476
200 0 65.1087 14.0227 913 73.3691 456.244 558.655
201 0 67.1314 14.2556 957 73.3323 456.266 557.039
202 0 69.1743 14.4996 1003 72.4895 456.288 556.329
203 0 72.2059 14.6525 1058 72.5113 455.8 555.209
204 0 72.1066 13.9793 1008 74.9802 455.57 555.128
205 0 75.0538 14.5629 1093 73.8618 455.694 553.657
206 0 78.1497 13.794 1078 75.5724 456.276 551.865
207 1 40.1048 12.7915 513 76.8382 455.916 570.515
208 0 38.1043 12.5708 479 78.3027 456.035 569.787
209 0 41.1233 12.7178 523 77.8356 456.197 568.83
210 0 42.2501 13.7988 583 75.5815 456.295 567.712
211 0 43.2284 13.2783 574 77.6585 455.866 566.791
212 0 46.1257 14.3521 662 75.1088 456.009 566.521
213 0 46.2257 14.1696 655 76.313 455.89 567.115
214 0 48.0905 14.5143 698 76.0201 455.854 565.615
215 0 49.0996 14.216 698 76.6246 456.007 565.228
216 0 50.1198 14.585 731 75.736 456.152 565.2
217 0 54.1897 14.6153 792 75.1351 455.635 563.318
218 0 54.157 14.2918 774 76.3618 455.522 561.585
219 0 56.0965 15.099 847 74.5596 455.597 561.052
220 0 58.0627 14.9666 869 75.1738 455.509 561.598
221 0 61.1733 15.121 925 74.5005 455.192 560.929
222 0 64.1051 14.757 946 75.2273 455.293 560.72
223 0 65.1027 14.7152 958 75.6169 455.198 559.066
224 0 68.0548 14.5471 990 76.5747 455.011 557.796
225 0 70.1507 15.5095 1088 74.7675 454.681 556.803
226 0 74.2011 15.2154 1129 75.4225 454.39 554.655
227 0 75.1613 14.9412 1123 76.228 454.072 552.351
228 0 79.2029 15.252 1208 75.5439 454.33 553.94
229 0 81.2368 15.0917 1226 76.0816 453.73 550.144
230 1 40.0677 13.2526 531 79.0734 454.013 570.574
231 0 43.0397 13.4759 580 78.7879 454.112 569.434
232 0 41.067 14.5372 597 79.5561 453.953 568.861
233 0 44.0612 14.3891 634 78.5552 454.252 568.06
234 0 45.0867 15.0377 678 78.1667 453.805 567.08
235 0 48.0893 15.2009 731 77.7182 453.192 566.2
236 0 49.2683 14.9995 739 78.1448 452.882 565.479
237 0 51.1161 15.3963 787 77.7065 452.72 564.318
238 0 51.0913 15.1494 774 78.4173 452.817 564.026
239 0 53.19 14.4576 769 78.485 453.138 564.294
240 0 56.1268 15.0552 845 76.5586 453.438 564.285
241 0 58.2479 14.7816 861 77.4739 453.453 562.308
242 0 61.1602 14.9444 914 75.8096 453.385 562.098
243 0 62.1123 15.1822 943 75.7985 453.228 561.643
244 0 64.1646 14.416 925 76.5784 452.923 560.146
245 0 67.1879 14.7794 993 75.5196 453.335 559.148
246 0 69.0757 15.1573 1047 74.4145 453.121 557.788
247 1 33.2269 13.0617 434 77.2857 453.173 573.29
248 0 35.0658 13.1752 462 75.8268 453.281 572.924
249 0 36.1357 13.3939 484 76.345 453.426 572.112
250 0 38.0428 14.2471 542 73.8063 453.906 571.876
251 0 38.0481 14.3503 546 74.7601 453.766 569.661
252 0 40.109 14.2362 571 73.9089 453.785 568.75
253 0 43.0862 14.0184 604 73.2732 454.336 568.975
254 0 46.163 13.474 622 72.6302 453.661 567.81
255 0 46.263 14.1582 655 72.374 453.893 567.037
256 0 47.3444 14.0883 667 72.7466 454.573 566.735
257 0 50.1871 14.964 751 70.3395 454.579 567.063
258 0 52.2377 13.8406 723 71.6819 454.481 564.859
259 0 54.3297 13.0315 708 72.4195 454.29 565.16
260 0 55.0764 13.8353 762 72.0669 453.835 563.332
261 0 58.1331 14.0712 818 71.4279 453.913 562.264
262 0 59.3325 14.4609 858 71.1608 453.661 560.971
263 0 62.1204 13.3611 830 72.6964 454.073 561.407
264 0 64.2929 14.1229 908 71.1982 453.676 559.133
265 0 68.0839 13.8359 942 71.466 452.959 557.573
266 0 72.1266 13.6704 986 71.9168 453.502 557.098
267 0 73.087 13.6686 999 72.2102 453.642 557.255
268 0 78.1991 12.9541 1013 72.3248 453.879 554.501
269 1 38.0399 11.0936 422 73.4905 453.832 571.4
270 0 39.0191 11.1228 434 73.7673 453.869 571.641
271 0 43.0409 12.3371 531 70.4444 453.456 571.416
272 0 42.0154 12.067 507 72.2998 453.785 570.767
273 0 44.0624 12.3688 545 72.044 453.191 571.657
274 0 47.1619 13.2522 625 71.1008 453.128 569.997
275 0 47.1073 13.5435 638 70.7022 453.345 569.588
276 0 49.0903 12.9761 637 71.8195 453.689 568.02
277 0 51.0695 12.2382 625 72.1328 453.917 568.178
278 0 51.0405 13.166 672 71.9792 453.891 564.746
279 0 53.1679 13.3163 708 71.3079 453.984 564.21
280 0 56.1061 13.3497 749 70.223 454.016 563.629
281 0 57.1359 13.2666 758 70.3615 453.848 562.323
282 0 61.0843 13.5387 827 69.3664 454.132 560.837
283 0 62.2068 13.1818 820 70.3488 454.293 559.917
284 0 66.1906 13.2949 880 69.1148 454.389 559.1
285 0 68.1586 12.9698 884 69.4095 454.353 557.314
286 0 70.103 14.3788 1008 67.5169 454.767 556.064
287 0 71.1498 13.4786 959 68.8352 454.406 555.424
288 0 74.2787 13.1666 978 69.0348 454.662 551.635
289 0 77.1417 13.028 1005 68.7473 455.201 551.198
290 0 80.0834 12.0624 966 69.3903 455.447 549.682
291 1 44.1088 10.4514 461 65.9414 455.145 569.367
292 0 45.0351 9.83676 443 66.2122 455.343 569.255
293 0 48.0708 11.4414 550 64.1055 455.785 566.984
294 0 48.0624 11.4851 552 64.7591 456.168 567.757
295 0 50.1229 11.2723 565 66.2903 457.347 565.582
296 0 51.1657 12.0198 615 65.2699 457.163 564.933
297 0 52.2124 12.3917 647 65.4096 457.499 561.887
298 0 54.1441 11.0077 596 66.1628 457.641 562.48
299 0 56.1213 11.5999 651 65.7343 457.449 561.917
300 0 58.0997 12.0138 698 64.9943 457.903 561.385
301 0 59.1297 11.7538 695 65.9957 457.829 560.059
302 0 62.1313 11.524 716 65.9832 458.134 558.869
303 0 63.0661 12.2411 772 65.4987 457.97 557.991
304 0 65.1332 11.2385 732 66.5628 458.093 557.619
305 0 66.0661 11.5339 762 66.4147 458.121 556.262
306 0 68.0465 11.0072 749 66.5407 458.199 555.394
307 0 71.1952 11.4334 814 66.4373 458.01 553.208
308 1 39.0241 8.96883 350 64.6429 457.003 570.903
309 0 39.0185 10.0978 394 63.8071 457.145 570.65
310 0 40.02 9.89506 396 63.8611 457.543 569.737
311 0 42.0296 10.5402 443 64.2054 456.521 568.959
312 0 43.0536 10.3824 447 64.868 456.353 568.304
313 0 44.106 10.8375 478 63.7824 457.533 566.967
314 0 45.0949 11.6643 526 63.6673 457.475 565.981
315 0 47.2886 10.4888 496 64.7097 456.804 564.694
316 0 48.1765 11.9353 575 62.9774 457.111 563.497
317 0 50.1531 11.8637 595 63.4353 456.674 564.066
318 0 50.1345 10.8508 544 65.3401 456.494 563.206
319 0 50.116 11.0743 555 65.2541 456.477 562.784
320 0 53.0863 11.7921 626 63.4265 456.979 562.351
321 0 54.0969 11.3685 615 64.2553 456.047 562.358
322 0 54.171 12.036 652 63.9755 456.359 560.268
323 0 57.0985 11.4889 656 64.0915 456.032 559.901
324 0 59.1855 12.1482 719 63.3449 456.246 558.263
325 0 63.102 12.3609 780 62.6474 455.85 558.41
326 0 64.164 11.5641 742 63.628 456.226 557.03
327 0 66.2098 12.3396 817 62.8274 455.818 555.286
328 0 69.2262 12.3653 856 62.4322 455.729 555.202
329 0 70.1149 11.3528 796 64.3492 455.119 553.193
330 1 38.0717 9.29824 354 62.2232 453.963 571.008
331 0 37.082 10.0049 371 62.4987 454.108 569.86
332 0 40.0347 10.0663 403 61.4367 454.124 570.243
333 0 40.1297 11.2884 453 61.5717 454.94 568.823
334 0 41.112 10.7998 444 62.0428 455.518 568.248
335 0 44.1838 11.5427 510 61.0725 455.673 568.335
336 0 44.1717 11.5006 508 61.628 455.193 567.799
337 0 47.2415 11.9175 563 60.8508 455.24 567.034
338 0 47.3259 11.9174 564 61.727 455.491 566.438
339 0 48.1946 12.1383 585 62.0137 455.015 567.056
340 0 47.2905 11.3976 539 64.3525 454.673 565.427
341 0 49.2038 12.0113 591 63.8308 454.724 563.892
342 0 51.1866 12.5033 640 63.1438 454.47 564.808
343 0 53.247 11.8692 632 64.8101 454.309 564.989
344 0 53.1817 12.2975 654 65.9404 454.416 562.216
345 0 54.226 11.8393 642 66.9299 454.749 561.449
346 0 57.1417 12.9153 738 65.6829 454.53 561.439
347 0 57.1399 12.4606 712 67.5421 454.414 560.393
348 0 62.1909 13.3942 833 65.2473 454.181 561.096
349 0 62.2218 13.0662 813 66.6827 454.216 560.701
350 0 66.2647 12.7519 845 67.0722 454.291 558.907
351 0 68.1621 13.2918 906 67.4327 454.237 557.411
352 1 35.1001 10.2849 361 69.8643 453.449 574.247
353 0 36.1659 10.5624 382 70.7565 453.613 573.725
354 0 38.0797 11.5022 438 70.1256 453.767 572.938
355 0 40.0606 11.9819 480 70.1167 453.525 572.631
356 0 41.0703 12.7099 522 69.408 453.571 571.563
357 0 42.3407 11.7381 497 71.5976 454.211 572.139
358 0 40.1068 12.6163 506 72.3577 454.506 571.64
359 0 45.3056 12.4488 564 71.3333 454.284 570.534
360 0 44.2249 12.5043 553 73.3002 454.613 569.421
361 0 45.2709 12.5467 568 73.6919 454.574 568.319
362 0 47.3565 12.9021 611 73.1538 454.576 569.331
363 0 50.2707 13.5467 681 72.373 454.617 566.623
364 0 50.1933 13.2687 666 73.5195 454.832 566.587
365 0 51.2761 13.0275 668 73.9491 454.287 567.025
366 0 52.1584 12.6538 660 75.3424 454.797 565.711
367 0 54.1771 13.2898 720 74.1375 454.981 564.961
368 0 55.1536 12.9275 713 75.4853 455.049 564.355
369 0 59.2269 13.1697 780 73.8949 455.322 563.635
370 0 61.1428 13.1659 805 73.5876 455.183 562.688
371 0 63.1902 14.1478 894 71.8054 455.786 560.845
372 0 64.1531 13.0781 839 74.4839 455.232 560.446
373 0 68.1177 13.5648 924 73.0119 455.654 558.665
374 0 68.0662 13.9129 947 73.4551 455.788 557.073
375 0 72.1694 14.2581 1029 71.8144 455.342 556.6
376 0 73.345 13.4433 986 72.212 455.743 554.635
377 0 77.2389 14.2804 1103 70.4461 456.047 552.935
378 1 41.0896 10.4406 429 73.7063 455.592 571.168
379 0 42.1469 11.3887 480 72.5646 456.185 569.481
380 0 43.2192 11.5689 500 72.69 455.846 569.26
381 0 46.1726 12.3883 572 71.1469 456.344 569.073
382 0 45.2266 12.957 586 71.8652 456.555 566.908
383 0 47.1535 12.6184 595 72.2269 456.541 566.013
384 0 51.3791 13.2155 679 70.2842 456.672 565.259
385 0 52.2163 13.0802 683 71.3338 456.83 563.666
386 0 54.3669 13.5928 739 69.5142 457.26 562.344
387 0 56.4069 13.6685 771 69.3009 457.425 561.879
388 0 57.4568 13.8017 793 69.4767 457.685 560.226
389 0 58.6387 12.9607 760 71.5934 458.054 558.959
390 0 61.4266 13.4469 826 70.7337 458.035 557.425
391 0 63.4733 13.5805 862 70.3538 458.263 556.267
392 0 62.5434 13.6385 853 71.5311 458.203 556.038
393 0 66.714 13.2506 884 71.7896 458.169 553.882
394 0 67.7141 13.6456 924 71.592 458.244 553.545
395 0 70.3211 14.0356 987 71.0567 458.072 552.16
396 0 71.4587 14.0361 1003 71.4556 458.386 551.645
397 0 72.6248 13.9209 1011 72.1108 458.501 550.757
398 0 75.3695 14.1835 1069 71.536 458.659 549.966
399 0 77.6241 13.7844 1070 72.8692 458.669 548.073
400 0 82.5839 13.6588 1128 72.4291 458.901 546.265
401 0 83.6035 13.8033 1154 72.7288 459.14 545.781
402 1 44.3258 11.9344 529 74.3308 459.032 564.595
403 0 47.4498 12.6028 598 73.301 458.915 563.612
404 0 48.3447 12.3075 595 74.2017 459.25 564.719
405 0 50.2983 13.2012 664 73.1446 459.114 563.441
406 0 51.2579 13.1687 675 74.363 458.987 562.354
407 0 52.2685 13.1819 689 74.6357 458.858 562.331
408 0 55.2574 13.79 762 73.7533 458.677 559.832
409 0 57.4574 13.7841 792 73.7146 459.17 558.859
410 0 60.3276 14.0234 846 72.2683 459.422 558.537
411 0 61.2728 14.7374 903 71.8826 459.291 558.049
412 0 62.3342 14.4704 902 72.7184 459.003 555.49
413 0 65.5379 14.0987 924 72.9935 458.613 555.335
414 0 67.5493 13.6641 923 74.0607 458.359 555.098
415 0 70.5582 14.4278 1018 73.4263 458.893 553.166
416 0 71.2954 14.0963 1005 74.5184 458.772 551.064
417 0 75.2943 13.8523 1043 74.7517 458.137 550.691
418 0 76.3333 14.1616 1081 74.5809 458.012 548.907
419 0 81.4723 13.9925 1140 73.7728 457.296 548.61
420 0 83.4213 13.6056 1135 74.8581 457.542 547.744
421 0 86.4496 13.9041 1202 73.9725 457.47 546.913
422 0 90.6026 14.4698 1311 73.6301 457.416 543.956
423 0 92.3726 14.4307 1333 73.8447 457.203 543.259
424 0 94.4847 14.669 1386 73.6291 457.434 541.835
425 0 97.5691 14.851 1449 73.7302 456.216 539.567
426 0 100.383 14.7535 1481 73.9278 456.313 538.731
427 1 52.2165 11.5864 605 77.4083 455.992 562.621
428 0 54.1922 11.1824 606 76.6353 456.018 562.52
429 0 56.3009 12.1313 683 75.9253 455.633 559.777
430 0 55.2287 12.4935 690 75.713 455.525 560.28
431 0 60.1392 12.7704 768 74.2721 455.339 559.25
432 0 63.2035 13.0214 823 73.4046 455.979 558.318
433 0 63.1729 13.3285 842 73.3504 455.998 557.761
434 0 67.1252 13.4823 905 73.0331 455.591 557.614
435 0 67.1647 13.3403 896 73.971 455.906 556.077
436 0 71.1896 13.3727 952 73.6061 455.964 554.981
437 0 73.2856 14.2183 1042 72.3925 455.464 553.27
438 0 75.2431 13.782 1037 73.6789 455.572 552.048
439 0 78.1607 13.2547 1036 74.1477 455.639 552.207
440 0 80.2364 13.0863 1050 74.4562 455.614 551.804
441 0 83.1766 13.3211 1108 74.4738 455.538 548.633
442 1 42.0673 11.0299 464 73.4073 454.776 568.72
443 0 44.1256 11.4899 507 72.856 454.895 568.677
444 0 45.0591 11.2741 508 73.1811 455.689 568.193
445 0 47.0451 12.2648 577 71.9376 455.154 567.685
446 0 48.2389 12.0649 582 72.2921 456.691 568.466
447 0 47.1256 12.6895 598 72.8378 456.614 566.515
448 0 50.1188 12.5302 628 71.9936 456.4 566.645
449 0 52.142 12.5619 655 71.5588 456.182 565.904
450 0 54.2617 12.5134 679 71.6068 456.172 564.082
451 0 55.1483 12.3304 680 71.7618 456.304 563.256
452 0 57.1464 13.3692 764 69.9568 456.291 563.037
453 0 60.188 13.0591 786 70.2939 456.238 560.913
454 0 61.2209 13.1491 805 70.7466 456.179 560.524
455 0 63.1272 12.9263 816 70.5674 456.002 561.039
456 0 62.1062 12.8812 800 71.7125 455.811 559.202
457 0 67.2153 12.7649 858 70.8147 455.731 558.65
458 0 67.2208 12.4366 836 72.3086 455.502 556.301
459 0 70.2418 12.4285 873 71.9691 455.026 555.183
460 0 73.2185 13.2617 971 70.5788 455.648 554.274
461 0 75.1133 13.3132 1000 70.855 455.289 552.405
462 0 78.1045 13.085 1022 70.9971 455.582 552.039
463 0 82.2138 12.8811 1059 70.7177 455.658 550.581
464 0 84.2626 13.4342 1132 70.1502 455.519 549.085
465 0 86.1065 13.042 1123 71.4354 455.542 547.926
466 1 46.1543 10.6816 493 70.5578 455.383 569.274
467 0 49.0662 10.6591 523 70.9273 455.331 568.272
468 0 49.201 11.9713 589 69.0407 455.681 566.44
469 0 50.1211 12.2703 615 69.2715 456.164 565.171
470 0 52.1825 11.6706 609 69.2266 455.949 566.918
471 0 54.1981 11.8639 643 69.3173 455.827 564.844
472 0 56.0619 11.7014 656 69.186 455.32 564.355
473 0 55.0374 11.2287 618 70.5324 454.655 564.316
474 0 58.0628 12.0042 697 69.0473 454.871 563.937
475 0 60.0889 11.7493 706 69.5595 454.652 563.46
476 0 63.1576 11.7642 743 69.7685 455.312 561.472
477 0 64.0785 12.5315 803 69.2777 455.31 561.005
478 0 66.079 12.2581 810 69.9988 455.149 558.702
479 0 70.2352 11.8459 832 70.2188 455.343 558.016
480 0 72.1152 12.5771 907 69.1092 455.701 556.229
481 0 73.2294 12.058 883 70.4247 455.727 554.128
482 0 76.3003 11.7431 896 70.4888 455.442 553.151
483 0 82.3202 12.2327 1007 69.3307 455.932 552.509
484 1 44.1827 10.2302 452 69.2876 455.117 571.23
485 0 43.1439 9.29449 401 70.197 455.673 571.329
486 0 45.0689 10.6726 481 68.7588 455.624 569.861
487 0 48.0309 10.3475 497 68.8209 454.676 567.028
488 0 47.0173 10.6982 503 69.5746 454.622 567.791
489 0 50.0167 9.97668 499 70.2966 454.848 565.946
490 0 51.1663 10.6711 546 69.4139 455.535 565.201
491 0 54.1654 11.6495 631 68.1347 455.469 564.713
492 0 54.3661 11.2202 610 69.0967 455.864 564.593
493 0 55.2426 11.712 647 69.136 456.233 563.447
494 0 56.1133 11.9401 670 69.1209 456.197 562.022
495 0 58.2459 11.1596 650 69.8138 456.557 561.422
496 0 61.2337 11.5786 709 69.2793 456.182 559.544
497 0 63.2823 11.425 723 69.8783 455.61 558.192
498 0 65.1922 12.5475 818 68.7396 455.868 557.171
499 0 68.243 13.1589 898 67.9621 456.146 554.928
500 0 71.2157 12.6938 904 68.6327 455.743 555.28
501 0 73.3477 13.2519 972 67.822 456.313 554.857
502 0 75.2778 13.0052 979 68.8447 456.044 554.143
503 0 77.5577 13.2933 1031 68.8846 456.416 551.391
504 0 80.4423 12.6053 1014 70.0069 456.125 551.217
505 1 42.4244 9.97068 423 71.0969 455.7 570.534
506 0 43.3457 11.0046 477 70.0042 455.891 568.21
507 0 45.3948 9.80288 445 71.4674 456.337 567.726
508 0 48.4193 10.9254 529 69.9584 455.883 567.647
509 0 48.2465 11.6278 561 69.7825 456.207 565.948
510 0 49.3517 12.0766 596 68.651 455.867 565.628
511 0 52.2025 12.5473 655 67.8336 456.252 564.884
512 0 54.2668 12.2543 665 68.1008 455.908 563.486
513 0 55.1641 12.7438 703 67.9815 455.889 562.583
514 0 57.2496 12.4542 713 67.8261 456.14 562.596
515 0 59.1212 13.1594 778 67.0398 456.077 561.577
516 0 61.068 13.0183 795 66.0918 456.082 561.518
517 0 61.1841 13.157 805 66.3988 456.538 561.949
518 0 64.111 12.9931 833 66.6507 456.517 559.436
519 0 66.1196 13.642 902 65.1829 456.272 558.881
520 0 66.0968 12.3153 814 68.6007 456.365 557.461
521 0 69.0897 13.1423 908 67.0628 456.272 556.665
522 0 69.0623 12.858 888 67.9854 456.395 555.077
523 0 73.2638 13.3217 976 66.793 456.184 555.026
524 0 75.0679 12.4421 934 68.2805 456.206 553.876
525 0 77.2117 13.2881 1026 67.5673 456.268 553.159
526 0 81.2093 12.8926 1047 68.0124 456.392 552.077
527 0 83.2711 13.342 1111 67.8047 456.598 549.944
528 0 86.2669 13.1453 1134 68.5591 456.942 548.231
529 1 43.2195 10.1806 440 70.4318 455.618 568.28
530 0 46.2629 11.2185 519 68.6956 456.039 567.476
531 0 46.1076 11.4081 526 69.1122 456.222 566.749
532 0 48.1231 11.5953 558 69.3387 456.409 564.989
533 0 49.1009 12.5049 614 68.2948 455.943 566.292
534 0 50.1926 12.5317 629 68.2448 457.38 566.03
535 0 50.3009 12.127 610 69.4033 457.195 564.779
536 0 53.1622 12.5841 669 69.145 456.794 563.308
537 0 55.1378 12.3146 679 69.2224 456.651 562.504
538 0 56.1313 12.7558 716 68.3226 456.672 561.796
539 0 59.154 12.4252 735 68.3429 456.332 558.965
540 0 61.1801 12.357 756 68.6958 456.524 558.396
541 0 61.1499 13.0008 795 69.2176 456.361 557.382
542 0 64.182 12.4022 796 69.9171 456.49 556.372
543 0 66.1644 12.9526 857 69.2252 456.33 556.764
544 0 69.1773 12.8221 887 69.6573 455.954 555.402
545 0 74.1435 13.3525 990 68.4162 455.796 552.812
546 0 76.1267 13.2936 1012 69.2796 455.901 551.883
547 0 76.1267 13.2674 1010 171.654 454.897 551.939
548 0 80.1773 12.9214 1036 70.2819 455.807 550.331
549 0 84.2527 13.5782 1144 69.1311 455.621 548.14
550 0 85.2074 13.297 1133 70.3292 455.756 547.903
551 1 48.1649 11.5022 554 69.5162 454.884 566.8
552 0 49.105 9.44914 464 72.3405 454.983 566.325
553 0 51.1366 10.8924 557 71.3124 455.224 563.783
554 0 52.148 11.1605 582 70.2337 455.163 563.514
555 0 54.0826 12.37 669 69.7175 455.018 562.596
556 0 57.0528 11.9538 682 69.0616 454.685 561.415
557 0 58.1049 12.5635 730 68.0438 456.005 559.17
558 0 61.1323 11.9904 733 68.7558 455.907 558.84
559 0 63.0778 12.3023 776 68.1649 456.14 557.531
560 0 65.2586 12.7799 834 68.1942 456.169 557.299
561 0 66.1553 12.9392 856 68.1694 455.322 556.751
562 0 70.1213 13.0203 913 67.5969 455.698 555.473
563 0 73.1101 12.6932 928 68.3265 455.959 556.022
564 0 73.124 12.4309 909 69.8053 455.627 553.42
565 0 77.1361 12.9252 997 68.324 455.581 551.915
566 0 80.1805 13.2326 1061 68.6334 454.936 550.141
567 0 83.1993 13.1732 1096 68.3157 454.615 549.043
568 1 42.1047 10.0939 425 71.1059 454.68 568.713
569 0 45.1431 10.8765 491 70.0754 454.847 567.403
570 0 45.1122 11.7263 529 69.9565 455.132 566.989
571 0 46.1346 11.4881 530 70.6698 455.092 565.04
572 0 48.2195 12.4846 602 69.6346 455.45 563.611
573 0 49.1718 12.3241 606 69.8251 455.035 564.723
574 0 52.1284 12.2007 636 69.8475 454.118 564.146
575 0 52.1555 12.8654 671 69.8912 454.085 562.66
576 0 54.2107 12.8019 694 70.3876 453.971 562.016
577 0 54.0972 12.6994 687 71.3712 453.761 562.946
578 0 57.1229 12.8495 734 70.7602 453.165 562.253
579 0 58.1552 12.759 742 71.504 453.298 560.806
580 0 59.1169 12.8051 757 71.4055 452.804 561.705
581 0 61.0679 13.2312 808 70.2252 452.79 559.597
582 0 62.0803 12.8221 796 71.3681 452.67 559.161
583 0 66.2251 12.5632 832 70.8474 452.311 557.839
584 0 69.1348 13.5532 937 68.794 452.862 556.893
585 0 70.1464 13.2295 928 69.7166 452.277 556.294
586 0 71.147 13.5775 966 69.5673 452.341 555.607
587 0 72.1248 12.7557 920 70.912 452.813 553.94
588 0 76.149 14.0251 1068 68.2369 453.046 552.537
589 0 79.1389 12.9898 1028 69.9134 452.762 551.891
590 0 80.1755 13.0588 1047 69.8443 452.998 551.046
591 0 85.1853 13.3826 1140 68.5228 452.732 549.964
592 0 86.3014 13.1863 1138 68.7153 453.22 548.357
593 0 92.3204 14.3089 1321 66.3073 452.826 546.091
594 1 46.0796 11.2197 517 68.3327 452.899 567.012
595 0 50.2389 11.4453 575 66.2591 452.543 567.03
596 0 49.2024 11.8897 585 66.0222 452.544 566.092
597 0 53.2638 12.2222 651 65.2473 452.743 564.281
598 0 54.1108 12.0309 651 66.1183 452.734 564.806
599 0 56.1375 12.6831 712 65.0183 453.244 563.787
600 0 56.1151 12.8308 720 64.0833 452.089 564.528
601 0 60.1053 13.3932 805 62.3043 451.939 563.323
602 0 62.1496 12.7113 790 62.8177 452.103 562.834
603 0 63.3104 13.1416 832 62.2043 452.208 560.447
604 0 65.1717 13.7176 894 61.726 452.252 560.357
605 0 67.1319 12.9 866 61.7656 452.671 559.443
606 0 69.2541 13.5588 939 60.8956 452.744 557.162
607 0 72.2267 13.4992 975 60.8841 452.748 556.396
608 0 76.4101 13.5715 1037 60.4388 452.645 555.608
609 0 77.4177 12.8911 998 60.8707 452.804 555.305
610 0 80.3907 12.7129 1022 61.1086 452.274 552.858
611 0 81.6234 12.6067 1029 61.3207 452.292 550.931
612 0 85.5375 13.0235 1114 60.1544 452.592 550.342
613 0 87.535 13.4232 1175 60.3004 452.563 547.093
614 0 92.4581 13.3141 1231 60.3656 452.979 547.05
615 1 49.2457 10.0313 494 61.1417 452.731 569.571
616 0 48.1945 11.3083 545 61.3688 453.253 567.147
617 0 50.1746 11.8187 593 60.6358 453.287 567.172
618 0 52.1978 12.0695 630 59.4984 453.224 565.217
619 0 55.1921 11.6864 645 59.5628 453.229 564.56
620 0 56.0238 11.5487 647 60.0355 452.264 563.301
621 0 57.194 12.7811 731 59.0821 452.895 562.389
622 0 59.0786 13.372 790 58.5595 453.363 562.38
623 0 61.232 12.5261 767 59.9883 453.807 561.535
624 0 62.1951 12.509 778 60.3573 453.429 560.95
625 0 65.2307 12.8161 836 59.9127 453.795 559.76
626 0 67.1578 12.7908 859 59.8533 453.354 559.375
627 0 70.1603 12.956 909 59.9593 453.776 558.498
628 0 72.3033 13.3189 963 59.7175 453.61 556.72
629 0 73.2533 13.1735 965 61.0176 453.72 555.019
630 0 76.3203 13.1158 1001 60.8581 453.687 552.854
631 0 78.1922 12.6867 992 60.9365 453.657 555.5
632 0 81.4155 13.1425 1070 61.614 453.672 550.433
633 1 42.1551 9.27527 391 62.4041 452.99 572.361
634 0 44.0434 9.87662 435 61.6115 453.154 571.244
635 0 46.1203 10.9496 505 60.1604 453.069 570.158
636 0 49.06 11.1088 545 59.6606 453.273 567.644
637 0 48.0424 11.8229 568 59.7694 453.21 566.47
638 0 51.0482 11.6948 597 59.5126 453.621 564.958
639 0 53.0917 11.6402 618 59.0032 453.395 564.748
640 0 53.0811 11.6802 620 59.2403 453.387 563.527
641 0 56.0369 12.3847 694 58.3458 453.703 563.461
642 0 58.0763 12.277 713 58.7293 453.64 561.947
643 0 62.1061 12.3981 770 58.0026 454.079 560.544
644 0 62.084 12.5314 778 58.0797 454.488 559.42
645 0 65.1573 11.971 780 58.6038 454.281 559.329
646 0 67.1828 12.652 850 58.2753 454.739 556.193
647 0 69.261 12.7633 884 57.9559 455.397 556.274
648 0 70.0998 12.953 908 58.5485 455.315 555.13
649 0 72.2698 12.4948 903 59.2746 455.558 553.096
650 0 75.2384 12.8791 969 58.9598 456.049 551.698
651 0 78.2704 12.7762 1000 59.032 456.503 551.445
652 1 41.16 10.6414 438 59.2626 455.74 569.326
653 0 43.1123 10.2523 442 61.3824 456.131 566.955
654 0 43.183 10.9302 472 59.9153 455.496 567.678
655 0 45.3013 11.7215 531 59.6384 455.721 566.714
656 0 47.1443 11.3481 535 59.9664 456.163 566.127
657 0 48.0443 12.0097 577 60.9185 454.806 564.922
658 0 50.0894 11.5194 577 61.2946 455.255 564.867
659 0 52.0844 11.8654 618 60.0874 454.984 562.864
660 0 55.0559 12.4237 684 59.5132 455.558 562.789
661 0 55.0466 12.553 691 60.5311 455.232 562.438
662 0 58.0551 12.2298 710 60.3197 455.854 560.004
663 0 58.0979 12.4101 721 61.2011 455.408 558.975
664 0 59.1724 12.9452 766 61.517 457.06 558.054
665 0 61.162 12.4097 759 62.4256 456.677 556.22
666 0 65.1966 13.2829 866 61.2113 456.903 555.15
667 0 65.1566 12.846 837 63.1613 456.68 554.587
668 0 70.2108 13.317 935 61.9754 456.909 553.005
669 0 70.1875 13.122 921 63.3822 456.669 552.334
670 0 71.1589 12.6478 900 64.8967 456.963 551.804
671 0 76.1332 12.754 971 64.4768 457.185 549.767
672 0 78.149 12.924 1010 64.8455 457.008 548.152
673 1 42.0626 10.4844 441 66.2472 456.397 565.299
674 0 44.044 9.71755 428 67.8201 456.703 563.582
675 0 44.0612 10.8939 480 66.2938 456.806 563.667
676 0 45.0381 11.1461 502 66.7968 457.116 564.157
677 0 47.066 11.6007 546 66.0824 456.945 564.427
678 0 48.2784 12.1379 586 66.3191 457.224 563.212
679 0 51.2137 12.5357 642 65.3474 457.782 561.526
680 0 53.1898 12.9912 691 64.7207 457.648 558.663
681 0 52.1493 12.6943 662 66.8731 457.573 559.095
682 0 55.2764 12.9893 718 66.2591 457.411 558.455
683 0 57.162 13.7154 784 65.4018 457.75 559.268
684 0 58.1607 12.6546 736 68.2799 458.057 557.667
685 0 59.1769 12.4373 736 68.6033 457.925 555.641
686 0 60.1462 12.9518 779 67.9499 457.978 556.145
687 0 63.1497 13.7293 867 66.2238 458.028 554.788
688 0 66.1255 12.809 847 67.843 457.789 554.738
689 0 67.1742 12.8472 863 68.0742 457.91 552.905
690 0 68.1195 13.5204 921 67.7405 458.036 552.435
691 0 71.0464 13.076 929 68.197 456.645 552.01
692 0 73.1466 13.4114 981 67.8716 457.44 550.993
693 0 75.1144 12.6341 949 69.5237 457.534 549.76
694 0 79.2503 12.6309 1001 69.012 457.147 548.813
695 1 45.0883 10.9341 493 69.3509 457.507 565.54
696 0 46.2031 11.1897 517 70.1296 457.53 563.928
697 0 48.3568 10.6086 513 69.2203 457.25 565.236
698 0 49.4269 11.8964 588 69.1837 456.332 560.495
699 0 49.4723 13.1993 653 68.4349 457 558.896
700 0 53.3612 13.3992 715 67.551 457.222 561.076
701 0 56.1609 12.7669 717 68.0014 456.777 559.702
702 0 56.2143 12.7548 717 68.7615 456.976 559.795
703 0 58.2083 13.1596 766 68.4595 456.693 558.304
704 0 59.0924 13.3012 786 69.4338 456.388 557.447
705 0 61.1357 13.4782 824 69.1602 456.529 556.999
706 0 61.1282 13.5944 831 69.5548 456.064 557.41
707 0 62.2116 13.4862 839 70.0572 456.224 556.26
708 0 66.1943 14.1402 936 69.3141 456.244 554.054
709 0 68.3303 14.5177 992 77.6401 456.034 554.55
710 0 68.1075 13.6842 932 82.8369 455.705 552.914
711 0 71.174 14.4856 1031 82.3026 456.1 552.068
712 0 72.1104 14.2005 1024 84.0361 455.66 551.362
713 0 74.1698 14.6286 1085 84.2525 455.688 551.4
714 0 77.3624 14.7617 1142 84.2837 455.629 550.698
715 0 78.1746 14.3781 1124 86.7322 455.677 549.563
716 0 81.2357 14.9565 1215 86.7128 455.728 548.219
717 0 84.1387 14.5593 1225 87.6098 455.014 547.54
718 0 86.3201 13.9017 1200 89.4092 454.851 545.207
719 0 90.4075 14.1802 1282 88.7137 455.447 545.303
720 0 93.3652 14.4915 1353 89.5521 455.364 543.111
721 0 93.2581 14.4652 1349 90.8792 455.173 541.03
722 0 96.3169 14.0681 1355 91.4576 454.941 541.813
723 0 99.5568 14.4541 1439 91.7505 454.674 541.52
724 1 53.1897 11.976 637 93.3344 454.513 563.042
725 0 55.1844 13.0834 722 92.2645 454.525 561.662
726 0 56.3088 13.3372 751 91.2863 454.27 560.625
727 0 56.1046 13.5105 758 91.9024 454.328 560.809
728 0 60.1912 13.6232 820 92.3805 454.013 559.084
729 0 63.2502 13.6758 865 91.8775 453.564 557.831
730 0 66.1431 13.8337 915 91.4426 454.117 556.894
731 0 66.1679 13.36 884 93.0226 453.854 556.143
732 0 70.1247 14.3031 1003 92.3868 454.482 553.17
733 0 71.2897 13.2979 948 94.7268 453.624 552.63
734 0 74.2036 13.5708 1007 94.8838 453.89 553.139
735 0 79.2002 13.6616 1082 94.2708 453.419 550.52
736 0 81.2503 12.9846 1055 95.9659 452.761 549.654
737 0 83.2783 12.5603 1046 96.9503 453.002 547.323
738 1 46.0823 11.4795 529 95.5312 452.856 567.964
739 0 48.1183 13.3213 641 93.4945 453.293 566.69
740 0 49.1774 13.5631 667 94.7166 452.889 565.531
741 0 50.0371 12.7505 638 95.5768 453.219 565.34
742 0 52.151 13.4609 702 94.9145 453.329 564.53
743 0 53.1561 13.2064 702 96.4501 452.781 564.262
744 0 55.0686 13.5467 746 97.1327 453.122 562.579
745 0 57.18 12.7842 731 96.9549 453.164 564.182
746 0 59.0686 13.8991 821 96.5639 453.072 563.007
747 0 63.3912 13.9136 882 96.4025 453.34 559.898
748 0 65.2491 13.5174 882 97.059 453.37 561.105
749 0 65.1049 14.1464 921 97.7296 453.303 559.765
750 0 70.0736 14.1851 994 96.8994 453.324 558.559
751 0 71.2281 13.7446 979 98.1338 453.201 557.549
752 0 73.376 14.5824 1070 87.8757 453.417 556.568
753 0 77.2381 13.6979 1058 88.8053 453.39 555.519
754 0 78.1625 13.7534 1075 90.5247 453.101 553.063
755 0 81.1604 14.5638 1182 89.7047 452.755 551.372
756 0 84.2711 14.5127 1223 90.0728 452.493 550.516
757 1 44.1327 11.8506 523 90.1836 453.036 570.47
758 0 46.3089 13.1292 608 89.3651 452.984 570.166
759 0 45.1488 12.6692 572 89.8199 452.705 569.664
760 0 46.0655 12.6559 583 88.976 452.957 567.326
761 0 48.2468 12.2703 592 89.0608 453.037 568.28
762 0 50.2574 12.8339 645 88.6558 453.126 567.271
763 0 53.206 13.6075 724 87.4517 453.018 567.079
764 0 54.1691 12.8671 697 90.3601 453.016 565.29
765 0 55.1165 12.7548 703 90.643 452.775 565.494
766 0 57.0807 13.0867 747 90.5007 452.527 565.618
767 0 59.1417 13.9834 827 89.5901 452.475 564.802
768 0 61.1293 13.1524 804 90.1107 452.271 563.985
769 0 64.1231 14.6281 938 88.9957 452.422 561.768
770 0 66.2105 13.593 900 88.0533 451.908 561.686
771 0 67.1546 12.9105 867 88.8789 452.452 561.294
772 0 70.203 13.3043 934 88.1049 452.02 558.731
773 0 72.1341 13.1699 950 88.6421 451.976 558.381
774 0 75.126 12.5656 944 90.3814 452.461 555.702
775 0 77.1445 14.1553 1092 87.9808 452.78 556.147
776 0 83.2895 14.8398 1236 87.3738 452.681 555.112
777 0 85.3003 14.0445 1198 89.8005 452.616 551.057
778 0 89.1304 14.1702 1263 88.8306 452.675 551.802
779 0 91.2311 12.9561 1182 91.7665 452.675 550.087
780 1 45.0471 12.1872 549 82.8342 452.554 570.696
781 0 49.0702 12.5738 617 83.3971 453.076 569.357
782 0 52.0899 13.6303 710 82.0901 452.775 566.89
783 0 52.2232 13.6146 711 83.3249 452.745 565.624
784 0 54.0969 15.5092 839 82.1061 453.466 565.416
785 0 57.1456 13.1944 754 85.2228 453.098 565.147
786 0 57.1676 12.9969 743 86.7954 453.362 563.505
787 0 59.0896 13.048 771 87.6394 453.054 562.45
788 0 60.2355 14.5429 876 87.3539 453.588 561.061
789 0 60.0959 12.9626 779 89.8151 454.13 561.178
790 0 66.132 14.2745 944 87.982 454.148 560.236
791 0 68.0663 12.9286 880 90.4705 454.66 559.352
792 0 69.2006 13.3091 921 90.8469 454.104 558.764
793 0 70.1441 13.9142 976 91.4211 454.47 557.664
794 0 73.3674 13.2756 974 93.9867 454.203 555.709
795 0 77.2232 13.1696 1017 93.6559 454.263 554.525
796 0 79.1923 14.2438 1128 93.6099 454.652 553.355
797 0 82.1983 13.4918 1109 95.4698 454.541 551.434
798 0 84.1017 13.6858 1151 84.9192 454.619 549.377
799 0 89.0967 14.6246 1303 84.3991 454.462 546.794
800 1 46.0241 12.0372 554 84.5361 454.632 568.282
801 0 47.0593 12.9199 608 84.3076 454.803 566.885
802 0 51.0269 12.6992 648 83.5031 454.98 566.593
803 0 52.1641 12.4223 648 85.2037 454.98 566.065
804 0 52.1294 13.0061 678 85.9602 455.081 565.186
805 0 55.1699 13.8481 764 85.1597 455.344 563.499
806 0 56.1324 13.5751 762 85.8727 455.948 562.673
807 0 60.2558 13.144 792 86.1831 455.862 560.081
808 0 59.2921 13.3913 794 87.4647 455.79 559.821
809 0 62.248 13.5908 846 87.4527 455.686 559.2
810 0 63.2711 13.4817 853 89.0422 456.229 556.943
811 0 65.2284 14.2882 932 88.3659 456.753 558.039
812 0 66.2576 13.0853 867 91.4371 457.092 555.794
813 0 69.2312 13.4477 931 91.4629 456.768 554.678
814 0 69.3224 13.8051 957 92.3678 457.021 553.824
815 0 74.3024 14.4948 1077 91.7567 456.913 553.105
816 0 77.5014 14.7352 1142 91.1217 456.745 553.849
817 0 79.2655 14.0288 1112 93.1655 456.646 552.018
818 0 83.246 14.4872 1206 92.6899 456.763 551.354
819 0 84.1478 13.6902 1152 95.4219 457.227 549.569
820 0 87.1473 14.7107 1282 94.9626 456.944 548.514
821 0 90.4171 14.0792 1273 96.6033 457.142 545.013
822 0 92.319 13.6592 1261 98.8057 457.007 542.975
823 1 47.1319 11.8603 559 97.0376 456.828 567.597
824 0 48.2016 11.0785 534 98.2528 456.876 566.178
825 0 52.0972 12.7646 665 94.6391 457.036 564.952
826 0 53.2397 12.9603 690 95.3362 456.523 564.946
827 0 55.1366 12.8046 706 97.1176 456.398 562.871
828 0 56.2624 12.886 725 98.0262 456.026 562.874
829 0 58.2495 14.4379 841 95.9691 456.478 562.137
830 0 59.1251 13.8351 818 93.8619 456.13 561.988
831 0 61.2125 13.886 850 94.2988 456.72 560.373
832 0 62.1677 12.6754 788 96.5698 456.505 560.679
833 0 63.2603 13.6895 866 95.7413 456.408 557.933
834 0 65.3585 13.3724 874 97.6819 456.975 557.416
835 0 68.1437 13.7504 937 97.2348 456.799 557.393
836 0 67.1504 12.4348 835 120.354 456.569 555.592
837 0 69.3237 12.1315 841 118.71 456.922 553.416
838 0 72.2414 13.3718 966 113.281 456.593 552.782
839 0 75.1603 12.8791 968 112.184 456.635 553.325
840 0 79.5281 14.1082 1122 108.73 456.585 551.337
841 0 80.2175 12.678 1017 110.842 456.622 550.619
842 0 80.2198 12.9145 1036 108.452 456.335 548.889
843 0 85.1225 13.2985 1132 100.832 456.347 547.785
844 0 89.1883 13.4547 1200 100.66 456.3 547.27
845 0 91.3375 14.1891 1296 99.5023 456.192 544.005
846 1 50.1651 11.9605 600 96.5117 456.373 565.668
847 0 51.529 10.5572 544 97.0312 455.344 566.586
848 0 51.2062 10.448 535 97.9981 455.372 565.566
849 0 54.1525 12.2617 664 95.4232 454.81 564.226
850 0 55.1144 12.1021 667 96.1559 454.667 562.835
851 0 57.1076 11.2069 640 96.7859 454.98 562.834
852 0 60.0591 11.3888 684 96.0585 454.794 562.047
853 0 63.1427 12.7647 806 93.8821 454.292 560.52
854 0 64.1318 11.9753 768 95.069 454.576 559.121
855 0 64.4338 10.957 706 97.2507 453.85 558.497
856 0 67.1201 11.3677 763 96.156 454.046 558.752
857 0 70.1194 11.4519 803 96.878 454.369 556.413
858 0 71.3071 11.9623 853 96.973 454.203 554.265
859 0 74.1154 11.8599 879 96.917 453.775 554.914
860 0 77.1845 11.4142 881 96.8456 453.947 554.148
861 0 79.1486 12.2428 969 96.9257 453.63 552.25
862 0 83.2052 12.9078 1074 96.7216 453.954 551.477
863 0 85.2365 12.6002 1074 99.3752 454.166 547.175
864 0 87.1846 12.0549 1051 102.588 453.724 545.975
865 0 91.2463 12.6252 1152 105.953 453.029 544.142
866 0 94.3376 12.1903 1150 107.393 453.079 542.222
867 0 96.1986 11.258 1083 110.134 452.587 541.184
868 0 96.6203 11.8091 1141 112.819 453.597 539.347
869 0 100.671 11.4731 1155 114.751 453.229 537.363
870 1 51.2026 11.2299 575 107.099 453.271 564.452
871 0 51.1769 10.9815 562 108.149 453.37 564.931
872 0 54.1653 10.9295 592 107.52 453.446 564.351
873 0 55.2172 10.341 571 109.086 453.814 561.492
874 0 58.1026 10.5503 613 107.595 452.719 560.752
875 0 59.1576 10.734 635 105.797 453.035 560.036
876 0 62.1236 11.2518 699 103.016 452.754 560.072
877 0 60.1941 10.8316 652 96.4724 452.239 559.738
878 0 63.096 12.061 761 83.3837 453.264 558.367
879 0 68.1132 11.936 813 71.0935 452.579 558.55
880 0 69.275 12.5009 866 68.552 452.575 559.598
881 0 71.2218 11.7239 835 69.7126 452.672 557.129
882 0 74.2333 12.1239 900 68.4089 452.987 554.939
883 0 75.382 12.0851 911 68.6707 452.379 554.068
884 0 79.1708 11.671 924 68.6104 452.84 553.271
885 1 41.0368 8.9432 367 68.6403 451.267 570.719
886 0 43.0468 9.52452 410 66.8146 451.12 570.878
887 0 45.0266 9.46108 426 66.1972 450.878 570.847
888 0 47.0647 10.22 481 65.3368 451.503 568.954
889 0 48.0583 11.3196 544 64.2555 452.088 568.289
890 0 48.0383 11.5325 554 64.0542 452.338 566.002
891 0 49.1024 10.5086 516 66.8101 452.659 567.203
892 0 52.0283 10.7441 559 65.415 453.15 566.395
893 0 53.0424 10.8215 574 65.2213 453.328 566.5
894 0 55.0666 11.4952 633 64.7299 453.385 564.002
895 0 56.0319 11.4221 640 65.8906 454.088 561.431
896 0 57.0807 11.2297 641 66.3978 453.933 561.228
897 0 59.1151 11.8413 700 65.9214 454.383 559.659
898 0 61.0597 11.4806 701 66.6505 454.435 559.869
899 0 62.1511 11.4881 714 66.8894 454.633 558.301
900 0 64.1287 11.6017 744 67.0672 454.809 556.286
901 0 67.1841 12.0862 812 66.1933 454.868 555.814
902 0 67.0751 11.42 766 67.923 455.572 554.913
903 0 70.1895 12.0816 848 67.059 455.902 551.752
904 0 72.1162 11.6063 837 67.5986 456.3 553.787
905 0 75.1282 12.2724 922 66.6161 456.626 550.727
906 0 78.1175 12.0972 945 66.8 456.869 548.073
907 0 79.1507 12.5836 996 66.503 456.49 546.524
908 0 84.2014 13.3371 1123 64.8175 456.3 546.723
909 0 86.2133 12.1791 1050 66.6886 456.549 545.694
910 1 43.0352 8.62086 371 67.3154 457.038 567.871
911 0 47.0435 9.73567 458 65.7969 456.893 564.162
912 0 47.0292 10.0788 474 65.7532 456.705 564.918
913 0 48.069 10.797 519 64.1291 455.933 565.289
914 0 48.0554 10.4463 502 65.2271 457.301 562.95
915 0 51.0813 11.5698 591 63.8883 458.064 562.071
916 0 53.0219 11.6933 620 63.0871 456.589 562.532
917 0 52.067 12.4071 646 63.8003 456.721 558.811
918 0 53.0182 12.656 671 63.5514 457.018 561.151
919 0 57.1311 12.2175 698 63.404 457.11 560.371
920 0 57.0539 12.0412 687 64.2256 457.313 559.837
921 0 60.0264 12.2779 737 64.0529 457.338 559.11
922 0 60.0275 12.0778 725 64.5517 457.272 556.506
923 0 61.0901 12.457 761 65.2996 457.601 555.129
924 0 65.0758 11.8785 773 65.7361 457.59 555.429
925 0 66.0658 12.76 843 64.8565 457.491 554.223
926 0 70.0655 12.9879 910 63.9956 457.74 554.463
927 0 73.0336 13.172 962 63.8607 457.265 551.832
928 0 74.127 12.3841 918 65.3105 457.838 551.492
929 0 78.0891 13.8047 1078 63.2514 458.301 549.917
930 0 81.1 13.1813 1069 64.2301 457.384 547.428
931 1 43.0599 10.2183 440 66.4659 458.02 566.545
932 0 44.0489 10.9197 481 65.5239 459.139 567.16
933 0 45.0626 11.4285 515 65.1961 457.837 565.483
934 0 47.1314 11.7119 552 64.7029 457.154 562.862
935 0 48.0929 11.8105 568 65.1496 456.783 562.283
936 0 51.017 12.4272 634 63.9227 456.956 561.746
937 0 51.0267 12.2093 623 64.3692 456.883 562.714
938 0 52.0581 11.7177 610 65.2918 456.756 561.274
939 0 54.1431 12.4854 676 64.1657 456.501 560.744
940 0 56.0371 11.7601 659 65.088 456.572 560.346
941 0 57.0362 11.9749 683 65.1669 456.026 560.053
942 0 59.1535 11.8505 701 65.1583 456.225 558.999
943 0 61.1192 12.8765 787 63.3316 456.653 558.207
944 0 63.1429 13.0814 826 62.8801 456.168 556.45
945 0 64.0687 12.1276 777 64.6062 456.216 556.867
946 0 66.0881 12.8162 847 63.5407 456.529 554.996
947 0 68.1816 12.9947 886 63.6287 456.03 554.415
948 0 68.1278 12.7701 870 64.8701 456.207 553.233
949 0 69.1057 11.9672 827 65.8186 456.416 552.288
950 0 73.1274 12.7859 935 64.0203 455.975 551.601
951 0 76.1821 12.9296 985 64.0589 455.83 549.614
952 0 79.1911 13.1707 1043 63.4276 455.664 548.937
953 1 40.1734 9.65814 388 64.4691 455.191 569.041
954 0 43.0528 10.3129 444 64.0811 455.232 567.365
955 0 42.1773 10.8352 457 64.5689 455.265 565.987
956 0 46.2109 11.6206 537 62.8734 455.601 564.629
957 0 47.1261 11.5223 543 62.1713 455.079 565.484
958 0 49.0779 12.5719 617 61.7423 455.07 562.203
959 0 49.122 12.1738 598 61.5987 455.258 562.719
960 0 51.1352 11.9878 613 61.3442 454.666 563.729
961 0 52.1469 11.5251 601 61.9334 454.933 562.737
962 0 52.1789 12.0164 627 62.2552 454.982 560.781
963 0 55.1705 12.4704 688 60.8038 455.089 561.776
964 0 57.1624 12.6132 721 60.9598 455.373 560.276
965 0 57.1239 11.8689 678 62.2448 455.237 559.755
966 0 61.1257 13.6767 836 59.0526 455.111 558.368
967 0 62.0403 12.6692 786 60.6514 455.127 557.553
968 0 65.1856 12.6562 825 60.8461 454.982 555.895
969 0 67.2215 12.3919 833 60.7215 454.679 555.966
970 0 69.1695 12.6212 873 60.7938 454.928 554.032
971 0 71.1515 13.0848 931 60.8453 455.033 552.406
972 0 72.2674 11.9279 862 62.6195 455.118 551.907
973 0 77.146 13.7143 1058 60.1597 454.864 550.673
974 0 78.1631 12.5251 979 62.1777 454.756 550.753
975 1 43.0693 9.44988 407 63.5405 453.924 567.988
976 0 45.083 10.647 480 61.8375 453.725 567.59
977 0 47.06 9.88101 465 62.9462 453.578 567.06
978 0 47.0079 10.5301 495 63.6222 453.044 566.216
979 0 48.0578 12.0896 581 62.8847 452.833 565.33
980 0 51.0465 12.2633 626 61.8674 453.073 564.895
981 0 52.0178 12.5342 652 62.1518 453.081 562.044
982 0 54.0795 11.3167 612 63.9428 453.105 563.544
983 0 55.0704 12.4931 688 62.9244 452.744 562.762
984 0 55.3014 12.1335 671 64.2385 453 562.244
985 0 58.0916 12.8762 748 63.4746 453.311 560.755
986 0 61.1171 12.3043 752 63.9654 452.867 560.975
987 0 62.1551 13.0158 809 63.822 452.752 560.445
988 0 65.0957 13.3035 866 63.0716 453.084 559.06
989 0 66.1539 12.9698 858 63.479 453.744 557.446
990 0 69.1011 13.1402 908 63.0396 453.793 556.721
991 0 71.1464 13.1981 939 62.9382 453.095 555.595
992 0 73.0705 13.2748 970 63.167 453.171 555.137
993 0 75.1138 13.7525 1033 62.8664 453.047 554.099
994 0 79.1016 13.5269 1070 63.5701 452.813 551.399
995 0 80.3161 13.0733 1050 64.4638 453.136 551.127
996 1 44.0675 10.4612 461 64.7614 453.024 571.087
997 0 44.0734 11.4128 503 64.1213 452.596 570.294
998 0 47.0301 12.0349 566 63.9982 452.583 567.966
999 0 50.015 12.1364 607 63.5667 452.496 567.656
1000 0 50.1389 12.0665 605 64.4975 454.021 567.777
1001 0 49.0744 11.2482 552 66.9167 453.996 567.281
1002 0 51.0857 12.3127 629 66.1812 453.871 565.685
1003 0 55.0771 12.7458 702 65.1168 453.719 566.063
1004 0 54.094 13.3102 720 64.9847 453.544 564.378
1005 0 57.082 13.1565 751 65.1771 453.272 564.201
1006 0 57.1298 12.2353 699 67.1731 453.044 564.379
1007 0 61.175 13.9926 856 63.764 453.255 564.151
1008 0 61.0666 13.0677 798 66.8233 453.11 561.66
1009 0 64.1326 13.0043 834 66.6655 453.284 561.032
1010 0 65.144 13.1248 855 67.4269 453.377 560.577
1011 0 67.2176 13.3596 898 68.1581 453.277 559.365
1012 0 70.2213 12.8736 904 69.0619 453.701 558.209
1013 0 70.1643 12.6133 885 70.7446 453.626 556.698
1014 0 75.3024 13.3329 1004 69.3227 453.875 554.313
1015 0 78.2359 12.3984 970 70.5464 453.342 553.445
1016 0 81.3634 12.3397 1004 70.3227 453.848 552.102
1017 1 41.1544 9.93819 409 69.5526 455.293 570.672
1018 0 41.0542 10.1573 417 69.5851 454.957 570.177
1019 0 44.0155 11.7459 517 68.7602 454.203 569.969
1020 0 45.0524 11.7197 528 68.8523 453.129 568.913
1021 0 46.1023 11.8432 546 68.7253 454.648 571.266
1022 0 47.0585 11.9851 564 69.2181 454.661 568.422
1023 0 49.1181 12.1747 598 68.7893 454.732 569.296
1024 0 50.0578 12.3058 616 69.0844 454.789 568.8
1025 0 51.1467 11.9069 609 69.8752 454.652 567.419
1026 0 53.1095 12.2577 651 69.3717 454.757 566.118
1027 0 54.0621 12.4486 673 69.0862 454.701 564.954
1028 0 56.1696 13.1922 741 67.9015 454.764 564.467
1029 0 58.2186 12.6077 734 68.5545 454.999 563.922
1030 0 58.13 12.9881 755 69.3272 454.874 563.148
1031 0 60.1799 12.6787 763 69.6501 454.645 562.514
1032 0 63.0741 12.1762 768 69.7526 454.478 561.583
1033 0 63.1727 12.6637 800 69.5975 455.43 559.672
1034 0 66.1587 13.4827 892 67.3991 455.391 560.073
1035 0 68.1742 13.3628 911 67.9989 455.706 558.44
1036 0 69.1634 12.7958 885 69.452 455.846 557.598
1037 0 71.1018 12.7282 905 69.6464 456.501 557.601
1038 0 73.1294 12.9223 945 69.7873 456.563 554.641
1039 0 75.2159 12.4442 936 70.5406 456.6 552.48
1040 1 39.0444 9.91178 387 71.1835 456.597 570.68
1041 0 41.0347 10.1865 418 70.6603 456.519 570.01
1042 0 42.0409 11.2272 472 69.1165 457.169 571.214
1043 0 43.0536 11.056 476 68.4979 456.767 570.655
1044 0 46.0731 12.0027 553 67.387 457.174 569.013
1045 0 45.2779 11.4846 520 70.1635 457.969 568.379
1046 0 47.1436 11.7937 556 68.2158 458.311 568.719
1047 0 49.1884 12.015 591 67.9695 457.795 567.657
1048 0 50.2445 12.1605 611 67.5434 457.795 566.977
1049 0 51.1502 12.5317 641 67.4384 457.927 565.101
1050 0 53.1056 12.2398 650 67.3108 457.686 566
1051 0 54.148 11.3208 613 69.1876 458.01 564.256
1052 0 55.1112 12.1754 671 68.079 458.62 563.452
1053 0 57.094 12.6108 720 67.5389 458.326 562.258
1054 0 60.1827 11.5316 694 68.6225 458.5 561.055
1055 0 61.144 12.6096 771 67.9196 458.512 560.304
1056 0 63.1672 12.4748 788 68.2957 458.352 559.91
1057 0 68.1634 13.3943 913 66.1183 458.152 558.941
1058 0 69.1706 12.7511 882 67.7574 457.719 556.867
1059 0 71.086 12.8577 914 67.9891 458.078 555.604
1060 0 72.2734 13.3521 965 67.6694 457.881 554.723
1061 0 75.1395 12.9493 973 68.2662 458.188 552.931
1062 0 77.089 13.932 1074 67.095 457.449 553.267
1063 0 81.0935 13.2686 1076 68.2054 457.621 551.082
1064 0 83.1278 13.389 1113 68.5705 457.984 548.644
1065 1 45.1648 10.4063 470 69.6936 457.747 570.143
1066 0 44.126 10.2207 451 71.6563 457.902 569.195
1067 0 46.1994 11.0175 509 71.444 457.033 568.295
1068 0 48.3284 12.0426 582 69.8694 457.086 565.952
1069 0 49.3131 12.7755 630 68.5 456.992 566.13
1070 0 51.1111 12.8152 655 67.9542 456.737 565.061
1071 0 52.2042 12.2404 639 69.3928 457.078 563.219
1072 0 53.1978 11.7862 627 70.2089 456.959 564.04
1073 0 54.1409 12.4675 675 69.1778 457.076 563.126
1074 0 55.1075 12.8658 709 68.9168 457.227 562.206
1075 0 59.1553 13.304 787 68.0267 457.244 561.379
1076 0 61.1314 12.7758 781 68.2766 456.528 562.361
1077 0 61.2089 12.4165 760 70.1421 456.433 561.27
1078 0 61.0992 13.2735 811 69.5882 456.578 559.857
1079 0 63.1796 12.8839 814 69.8415 456.101 559.88
1080 0 63.1837 13.1363 830 70.594 456.414 557.582
1081 0 68.0953 12.9084 879 69.6997 456.234 557.877
1082 0 69.1962 13.0788 905 70.4851 456.124 556.203
1083 0 70.1319 12.8472 901 70.8846 456.493 556.637
1084 0 73.0913 13.2711 970 70.4402 456.297 555.035
1085 0 77.2334 12.8442 992 70.6633 456.348 553.814
1086 0 78.3208 13.1638 1031 70.7158 456.883 552.132
1087 0 80.2363 13.024 1045 71.2813 456.655 549.828
1088 0 83.2855 13.0395 1086 70.6878 456.251 550.615
1089 1 43.2906 11.0879 480 71.2854 456.369 568.942
1090 0 46.2752 10.8481 502 70.2351 455.875 568.936
1091 0 46.1097 11.4943 530 70.9208 456.772 567.975
1092 0 49.2185 11.0324 543 71.7422 457.298 568.031
1093 0 49.0973 12.078 593 69.9882 457.11 567.445
1094 0 49.2336 12.8368 632 70.1503 457.076 565.293
1095 0 52.1071 12.4551 649 70.5701 457.129 564.433
1096 0 56.1704 13.6905 769 67.8791 456.887 564.12
1097 0 56.1017 12.5843 706 70.7946 456.715 562.62
1098 0 57.1522 12.9829 742 69.9569 456.644 561.385
1099 0 57.1133 13.0968 748 70.107 456.233 561.406
1100 0 60.1212 13.3064 800 70.0262 456 559.629
1101 0 63.1747 13.154 831 70.2082 455.875 558.942
1102 0 64.093 13.3556 856 70.4813 455.536 557.367
1103 0 66.1637 13.0887 866 70.6316 455.551 557.842
1104 0 69.1183 13.296 919 70.6007 455.298 556.362
1105 0 69.1703 12.9969 899 71.7164 455.93 555.58
1106 0 74.2541 13.7232 1019 70.0147 455.712 553.805
1107 0 75.0604 13.9221 1045 70.0239 456.228 552.958
1108 0 78.085 13.0243 1017 71.2714 456.131 552.639
1109 1 40.0476 10.6124 425 72.3271 456.809 568.8
1110 0 42.1179 11.2304 473 70.6237 456.214 570.507
1111 0 44.0806 11.8419 522 69.8199 455.971 569.623
1112 0 46.0914 11.6508 537 70.0819 456.449 568.385
1113 0 48.187 12.4515 600 68.4833 455.727 566
1114 0 48.1834 12.5977 607 68.5799 455.344 566.198
1115 0 50.1844 12.0954 607 69.7792 455.293 565.568
1116 0 52.2331 13.2866 694 67.4741 455.059 563.647
1117 0 54.2311 13.2581 719 66.9611 455.191 564.36
1118 0 54.0375 12.2322 661 69.2148 454.997 563.749
1119 0 56.0748 12.6082 707 68.4257 454.983 563.16
1120 0 57.0929 12.9263 738 68.8049 454.136 561.981
1121 0 60.0587 12.9706 779 67.982 454.135 562.241
1122 0 61.0293 13.0101 794 68.2053 454.043 561.117
1123 0 61.0284 13.7313 838 67.4272 453.144 560.076
1124 0 64.0981 13.1673 844 67.4538 453.135 560.032
1125 0 68.0596 13.1649 896 66.8092 453.379 559.479
1126 0 68.1655 13.0124 887 68.2514 453.392 559.657
1127 0 71.1001 13.6427 970 67.2959 453.726 555.661
1128 0 74.1053 13.8856 1029 66.792 453.696 554.628
1129 0 75.1246 12.446 935 68.5283 453.554 555.227
1130 0 78.1543 13.1407 1027 67.8062 454.044 552.862
1131 0 80.1505 13.0005 1042 68.7332 453.951 552.225
1132 1 41.1061 10.3878 427 68.7822 453.602 572.18
1133 0 42.0445 11.0121 463 68.3477 453.631 571.035
1134 0 43.0165 11.5305 496 68.3165 454.683 569.962
1135 0 43.0535 11.4973 495 67.4747 455.008 568.626
1136 0 47.2375 12.7441 602 65.8173 454.442 568.362
1137 0 48.2043 12.2188 589 67.5908 454.312 567.691
1138 0 50.1146 12.9902 651 66.1536 454.535 567.724
1139 0 50.1371 12.9645 650 66.6385 454.737 566.669
1140 0 51.1008 12.3677 632 67.9699 454.665 566.609
1141 0 55.061 12.5497 691 67.9841 455.271 565.877
1142 0 53.1271 12.6113 670 70 455.125 565.116
1143 0 58.1043 13.1832 766 67.8225 455.313 564.467
1144 0 57.2642 12.5908 721 70.0971 455.323 561.982
1145 0 59.1196 13.0752 773 69.8525 455.242 560.709
1146 0 62.101 12.9306 803 69.797 455.512 560.852
1147 0 62.138 13.3413 829 69.8058 455.633 559.339
1148 0 67.1668 13.4441 903 68.7265 455.981 558.771
1149 0 69.1308 13.0333 901 70.0766 455.97 557.364
1150 0 71.1248 13.4833 959 69.682 456.088 554.968
1151 0 73.136 13.5638 992 69.6623 456.169 554.984
1152 0 77.1508 12.9746 1001 69.2567 456.292 553.467
1153 1 39.0144 9.91942 387 71.2248 455.876 572.248
1154 0 38.0447 10.5402 401 71.6858 455.843 571.187
1155 0 41.0973 11.6796 480 70.0583 456.385 569.871
1156 0 43.0801 11.6759 503 70.9145 457.775 568.525
1157 0 43.0689 12.2362 527 70.4554 457.503 568.425
1158 0 45.0224 12.7714 575 69.0122 457.595 566.875
1159 0 46.006 11.868 546 70.3223 458.181 566.793
1160 0 49.0484 12.6202 619 69.0905 458.616 565.724
1161 0 49.0327 12.3999 608 70.1595 458.488 565.044
1162 0 50.077 12.1413 608 70.5263 458.523 562.993
1163 0 51.0609 11.9074 608 71.2089 458.604 563.436
1164 0 54.0429 12.6011 681 69.7636 458.677 562.327
1165 0 55.0345 12.5921 693 69.7504 458.475 560.902
1166 0 55.0345 12.0833 665 71.8451 458.871 561.146
1167 0 60.0362 13.242 795 68.2176 459.323 560.516
1168 0 59.1218 12.4489 736 70.2649 460.14 558.573
1169 0 63.1737 13.1067 828 68.5978 460.202 557.143
1170 0 65.1699 13.2423 863 69.3546 459.949 557.465
1171 0 66.2078 12.7024 841 69.5612 459.606 557.817
1172 0 69.1586 13.5775 939 68.6731 460.266 555.597
1173 0 72.1981 13.463 972 68.2798 460.48 553.781
1174 0 75.1567 13.3321 1002 68.6687 460.794 552.468
1175 0 77.1531 12.7798 986 69.8195 461.011 550.701
1176 0 79.2208 12.4336 985 69.9919 460.574 550.616
1177 1 42.072 10.078 424 71.1203 460.231 567.564
1178 0 45.14 11.5862 523 69.0535 460.098 567.008
1179 0 47.0939 11.3815 536 69.0168 460.735 566.293
1180 0 47.2885 12.1806 576 68.7049 461.062 562.969
1181 0 50.178 12.4557 625 67.6688 460.194 562.442
1182 0 50.2194 12.545 630 68.6714 459.332 562.343
1183 0 51.1615 12.138 621 69.4461 460.246 563.066
1184 0 54.1691 13.0148 705 67.2454 460.457 561.721
1185 0 55.2632 12.3228 681 68.7518 459.087 560.451
1186 0 58.0821 13.5842 789 66.6058 459.849 559.08
1187 0 57.1646 12.8751 736 68.1168 459.501 558.823
1188 0 59.2074 12.9207 765 68.081 459.289 558.328
1189 0 62.135 13.02 809 68.3177 459.356 556.862
1190 0 65.1837 12.5185 816 67.8517 459.446 556.197
1191 0 66.0971 13.0112 860 67.1244 459.233 555.012
1192 0 69.147 13.8112 955 66.3654 458.946 553.565
1193 0 69.1378 12.8873 891 67.9877 458.505 555.192
1194 0 71.1539 13.4778 959 67.22 458.555 553.787
1195 0 76.1175 13.8733 1056 66.142 458.89 550.158
1196 1 36.1092 9.55434 345 70.2203 458.971 570.429
1197 0 41.0681 11.0061 452 68.0044 459.024 566.504
1198 0 41.0683 10.3486 425 69.44 458.744 568.007
1199 0 42.0881 11.7373 494 67.7328 458.986 563.895
1200 0 44.175 12.0883 534 66.1011 459.013 564.155
1201 0 45.2252 11.7633 532 67.391 458.103 563.295
1202 0 46.1884 11.8861 549 67.3388 458.14 564.126
1203 0 48.0526 12.4239 597 66.3601 458.034 563.422
1204 0 52.138 14.1356 737 62.4654 457.537 560.973
1205 0 51.0554 12.79 653 65.9648 457.899 563.354
1206 0 54.1408 12.9292 700 65.9014 457.973 562.854
1207 0 55.0569 13.0955 721 66.6075 458.39 560.904
1208 0 55.2367 12.6546 699 67.5336 457.671 559.788
1209 0 57.172 13.5206 773 66.1708 457.907 559.796
1210 0 58.2332 13.0682 761 66.565 458.063 559.737
1211 0 60.1878 13.5243 814 65.7899 457.767 558.736
1212 0 63.0868 13.6003 858 65.5478 457.562 557.303
1213 0 64.255 13.0262 837 66.0693 456.989 556.216
1214 0 67.1437 12.9871 872 66.0298 456.791 555.103
1215 0 68.2064 13.3272 909 65.7613 456.758 553.965
1216 0 72.2068 12.9766 937 65.952 456.657 553.816
1217 0 74.1356 13.9339 1033 64.726 456.282 551.999
1218 0 76.397 14.0058 1070 64.6944 456.482 551.756
1219 0 79.2382 14.0715 1115 64.357 456.413 552.138
1220 1 38.2148 10.3625 396 67.6136 455.508 570.119
1221 0 41.0954 11.6071 477 65.9413 455.465 569.444
1222 0 43.1116 11.1339 480 66.0958 455.248 567.81
1223 0 44.1557 11.9577 528 64.0152 455.055 568.335
1224 0 47.0871 12.8698 606 62.5033 455.271 569.043
1225 0 50.1344 12.0277 603 63.2869 455.658 567.471
1226 0 48.1877 11.9533 576 64.5139 456.153 567.455
1227 0 51.1215 11.4042 583 64.3533 455.602 567.569
1228 0 51.1282 12.6154 645 63.3411 455.62 565.262
1229 0 53.098 12.4675 662 63.9789 455.347 564.514
1230 0 55.1332 12.5696 693 63.7864 455.553 563.188
1231 0 59.1789 13.1466 778 62.2969 455.431 562.859
1232 0 59.1478 12.8999 763 63.6239 455.01 561.215
1233 0 62.1128 12.9281 803 62.7285 454.956 560.249
1234 0 63.1614 12.9193 816 63.5723 454.793 559.188
1235 0 67.0951 12.8474 862 63.6381 454.662 559.146
1236 0 69.1666 13.2145 914 62.8796 455.193 558.999
1237 0 71.2894 13.6907 976 62.3227 455.236 557.324
1238 0 71.1948 12.5852 896 64.5893 455.092 555.337
1239 0 77.2104 13.3143 1028 63.0019 455.114 554.069
1240 0 79.2315 13.6688 1083 62.6177 455.08 553.56
1241 1 40.0777 10.9787 440 62.8091 454.341 572.389
1242 0 41.1476 10.3044 424 63.5189 453.991 571.965
1243 0 41.0901 11.5113 473 63.2283 453.841 569.751
1244 0 44.1388 12.3248 544 61.0165 453.697 570.518
1245 0 47.0349 12.2462 576 60.6146 453.429 570.488
1246 0 47.0728 12.5125 589 60.7776 453.219 568.883
1247 0 47.0444 11.0746 521 63.3167 452.424 565.24
1248 0 50.0552 12.5262 627 62.7879 452.817 565.506
1249 0 51.2489 11.2588 577 64.6655 453.101 564.168
1250 0 53.1196 11.8224 628 64.0748 453.422 564.045
1251 0 54.2725 11.9582 649 63.5732 453.542 560.535
1252 0 55.2567 12.5053 691 62.8842 453.828 560.602
1253 0 58.2162 12.9174 752 62.6742 453.537 558.469
1254 0 59.2107 12.5315 742 64.6671 455.813 561.364
1255 0 60.3638 12.756 770 64.4208 455.391 558.909
1256 0 61.3566 12.9244 793 64.4275 455.585 559.701
1257 0 64.1886 13.3824 859 63.4412 456.038 557.857
1258 0 65.3468 13.2371 865 64.341 455.842 557.437
1259 0 67.4667 12.7767 862 65.2123 456.137 557.606
1260 0 70.3531 12.9916 914 65.1094 456.083 555.172
1261 0 71.4832 12.7163 909 65.9373 456.524 554.428
1262 0 74.4871 13.5057 1006 64.6431 456.324 553.701
1263 0 76.4117 13.5581 1036 64.9122 456.518 553.616
1264 1 40.4561 10.5794 428 65.8855 456.481 571.287
1265 0 44.3086 10.5849 469 65.5714 456.405 570.004
1266 0 44.2762 11.1572 494 65.8644 456.899 568.723
1267 0 45.1956 10.4656 473 66.6596 457.355 568.036
1268 0 46.2797 11.1928 518 66.3803 458.066 567.17
1269 0 48.2512 12.352 596 65.0419 458.26 565.542
1270 0 51.0518 12.6538 646 64.2771 458.732 565.819
1271 0 51.1159 12.6575 647 65.1762 458.913 564.754
1272 0 60.0824 16.777 1008 55.4673 459.864 559.137
1273 0 62.1103 15.3115 951 57.6719 460.642 557.775
1274 0 64.1331 15.7173 1008 57.0536 460.555 557.893
1275 0 65.0812 16.272 1059 56.3475 460.968 555.039
1276 0 60.0661 15.4829 930 60.5817 461.088 555.499
1277 0 63.0875 14.3769 907 61.7883 461.445 554.596
1278 0 64.1066 13.5867 871 63.5304 461.077 554.008
1279 0 64.081 13.202 846 65.208 460.939 555.378
1280 0 63.1552 12.5564 793 67.8449 459.397 556.328
1281 0 66.1627 13.2854 879 66.3413 459.497 555.562
1282 0 67.1281 13.2284 888 66.8592 459.997 554.286
1283 0 69.1723 13.0688 904 66.729 460.24 554.942
1284 0 73.1917 14.0453 1028 65.6012 461 552.688
1285 0 73.1358 13.181 964 67.221 460.518 551.539
1286 0 78.099 13.5981 1062 65.7222 460.626 552.054
1287 0 79.1654 13.1623 1042 66.7188 460.614 549.471
1288 0 83.1663 13.2025 1098 66.7432 460.33 547.786
1289 0 84.213 14.0477 1183 65.8791 460.725 545.156
1290 0 88.1453 13.4891 1189 66.5786 460.717 544.384
1291 0 90.1551 14.2754 1287 65.1414 460.832 543.219
1292 1 49.037 10.645 522 67.364 460.751 564.375
1293 0 52.0488 11.5084 599 66.5092 461.042 562.583
1294 0 53.12 11.5964 616 66.4432 461.276 562.477
1295 0 54.0783 11.6313 629 66.7854 461.618 563.022
1296 0 55.061 11.8232 651 67.5975 461.367 560.115
1297 0 57.1357 12.6016 720 66.1792 461.285 559.642
1298 0 58.1311 12.4202 722 66.7161 461.161 558.994
1299 0 61.0942 12.8981 788 65.2779 461.39 556.714
1300 0 65.0497 12.7287 828 64.6039 460.851 555.816
1301 0 64.0695 12.7362 816 65.3125 460.665 555.569
1302 0 68.1228 13.4757 918 64.5621 460.651 552.248
1303 0 70.0588 12.8892 903 64.8771 460.901 552.389
1304 0 74.1431 13.5549 1005 63.595 460.559 551.005
1305 0 77.1048 13.5141 1042 62.9511 460.602 550.974
1306 0 78.0502 13.0813 1021 64.3359 459.679 550.314
1307 0 80.058 12.8157 1026 64.1686 459.773 549.579
1308 0 84.1045 12.9482 1089 64.4555 459.828 546.826
1309 0 87.1114 13.0752 1139 64.0878 459.773 546.339
1310 0 89.146 13.3265 1188 64.0934 459.572 544.489
1311 1 46.1204 10.1257 467 65.4882 459.799 565.848
1312 0 48.0337 10.9715 527 65.1917 459.934 563.26
1313 0 50.02 10.8956 545 65.2587 459.156 563.95
1314 0 53.0425 12.2166 648 63.4938 459.323 562.532
1315 0 52.0545 12.1603 633 63.8942 459.51 561.681
1316 0 55.1228 12.191 672 63.5833 458.948 565.369
1317 0 56.0594 13.1111 735 63.034 459.099 563.133
1318 0 59.0676 11.8339 699 64.1059 458.813 561.435
1319 0 65.0822 11.3395 738 62.2073 457.26 565.344
1320 0 62.0289 13.1229 814 62.3919 457.531 558.826
1321 0 63.0677 12.6848 800 63.53 456.884 559.993
1322 0 65.065 12.9716 844 62.5829 456.858 557.711
1323 0 66.1199 13.2033 873 62.9782 456.798 557.078
1324 0 69.0682 12.77 882 62.7766 456.294 556.913
1325 0 71.0699 13.4093 953 62.0367 456.38 557.775
1326 0 73.1505 12.9733 949 62.8841 456.494 555.966
1327 0 74.0641 12.4622 923 63.8819 456.096 553.167
1328 0 80.1038 12.696 1017 62.6372 456.083 554.543
1329 0 82.0229 13.3499 1095 62.116 456.019 551.796
1330 0 84.0624 12.9071 1085 62.871 456.198 550.783
1331 0 87.0567 13.3361 1161 62.6865 456.028 548.796
1332 1 47.06 10.8372 510 61.6627 455.825 569.208
1333 0 47.0633 10.5177 495 62.1333 456.026 569.176
1334 0 46.026 10.9938 506 64.7648 456.713 568.943
1335 0 52.079 11.3865 593 62.7133 456.384 568.049
1336 0 51.0394 11.736 599 63.2504 457.307 565.972
1337 0 53.178 13.7839 733 60.5007 457.08 565.165
1338 0 54.1901 12.6038 683 61.896 457.466 564.428
1339 0 56.215 12.1676 684 62.1272 457.368 564.216
1340 0 58.1216 12.5427 729 61.1728 456.802 563.008
1341 0 61.0576 12.3654 755 60.9139 456.981 563.326
1342 0 61.092 12.5385 766 60.7206 457.12 561.544
1343 0 65.0964 12.5199 815 60.6859 456.82 559.665
1344 0 65.0978 12.6886 826 60.6961 456.642 558.105
1345 0 68.0636 13.2376 901 59.7536 456.508 557.7
1346 0 68.2441 12.807 874 61.1728 456.153 556.555
1347 0 72.1074 12.9529 934 60.5418 456.181 556.832
1348 0 74.1163 12.9391 959 61.5235 455.687 555.867
1349 0 76.0906 13.3788 1018 61.3251 455.746 554.687
1350 0 79.173 14.0199 1110 60.6234 455.726 553.966
1351 1 38.0371 10.4109 396 64.7096 454.49 573.194
1352 0 41.0344 10.2841 422 65.3365 454.588 572.346
1353 0 41.1421 10.5974 436 65.1445 454.33 572.039
1354 0 45.068 11.5603 521 63.5854 454.027 571.157
1355 0 44.0374 11.6492 513 64.1969 454.261 571.027
1356 0 46.0856 12.6721 584 63.5479 454.801 568.899
1357 0 48.2173 13.0244 628 63.6226 453.546 568.877
1358 0 50.2236 13.3802 672 63.9301 454.037 568.491
1359 0 49.2196 12.0684 594 66.9949 453.448 568.086
1360 0 52.1626 13.3237 695 64.4734 453.6 565.125
1361 0 54.1986 12.4357 674 65.6053 453.51 565.727
1362 0 55.0969 12.1967 672 66.8824 453.597 565.192
1363 0 56.1156 13.0089 730 66.0808 453.711 565.296
1364 0 58.2359 12.7756 744 65.8925 453.73 564.902
1365 0 59.1305 13.2419 783 65.6335 453.587 564.352
1366 0 59.0814 12.5589 742 67.0768 453.524 564.21
1367 0 63.1766 13.2327 836 66.1531 453.621 562.449
1368 0 63.1283 13.2112 834 66.452 453.254 561.667
1369 0 65.0705 13.1242 854 66.9719 453.637 562.129
1370 0 68.0965 13.1137 893 66.9664 453.542 561.275
1371 0 67.0821 12.9841 871 68.0941 453.6 560.724
1372 0 70.1625 13.7965 968 67.1798 453.376 559.753
1373 0 73.1602 13.9967 1024 66.7197 453.686 558.13
1374 0 74.0412 13.5735 1005 68.0259 453.884 557.173
1375 0 77.2142 13.5079 1043 67.8456 453.656 555.054
1376 0 78.1501 13.5892 1062 68.2062 453.362 554.621
1377 0 81.1487 14.1469 1148 68.3057 453.571 552.699
1378 0 82.1492 13.5242 1111 69.3177 453.583 552.131
1379 0 86.3573 14.0116 1210 68.5719 454.274 550.513
1380 0 91.1586 14.93 1361 66.3982 454.456 548.934
1381 1 47.2248 10.5665 499 69.9479 455.03 571.224
1382 0 47.245 11.3028 534 67.5749 454.828 569.618
1383 0 48.1573 11.4417 551 67.3267 454.501 570.27
1384 0 51.0216 11.7009 597 67.6298 454.183 570.089
1385 0 52.2671 13.2014 690 67.2667 454.246 568.801
1386 0 53.1642 13.2796 706 67.9292 454.129 568.844
1387 0 52.108 12.6276 658 69.5593 453.98 567.535
1388 0 55.0664 13.8015 760 67.6974 453.945 567.12
1389 0 57.1774 13.5018 772 68.2992 454.181 565.934
1390 0 57.1546 14.487 828 67.2778 454.229 565.087
1391 0 60.0602 13.5697 815 68.5006 453.942 564.302
1392 0 63.1582 14.6141 923 66.6793 453.738 563.954
1393 0 64.0383 14.0697 901 68.4384 454.132 561.778
1394 0 64.0941 14.4475 926 68.2019 454.653 561.441
1395 0 66.0613 14.1989 938 69.1183 454.95 559.935
1396 0 67.1799 14.5728 979 69.0827 455.093 559.86
1397 0 70.1049 14.6923 1030 68.1359 455.16 558.035
1398 0 74.1956 14.2596 1058 68.5038 455.722 556.279
1399 0 76.2341 14.285 1089 68.7126 455.901 555.256
1400 0 77.202 13.6136 1051 69.941 455.881 553.468
1401 0 81.3491 14.1858 1154 68.3847 456.044 551.905
1402 0 82.4357 13.4165 1106 69.6655 456.275 550.41
1403 0 86.397 13.9125 1202 68.3161 456.514 549.604
1404 1 44.0958 11.5657 510 69.5725 456.718 568.757
1405 0 45.1494 11.3401 512 71.0371 456.971 568.352
1406 0 48.1202 11.4297 550 69.8891 457.245 567.695
1407 0 48.2168 12.1327 585 69.8051 457 565.523
1408 0 51.085 12.2149 624 69.4888 457.678 566.446
1409 0 53.1646 13.524 719 67.5076 456.52 566.199
1410 0 52.0162 13.1305 683 68.7833 457.205 564.567
1411 0 55.0878 13.0156 717 67.8326 457.28 564.827
1412 0 56.0744 12.8579 721 67.7684 457.499 564.581
1413 0 61.1294 13.2997 813 65.9213 457.519 560.673
1414 0 61.0474 12.9735 792 66.2753 457.326 560.792
1415 0 63.0428 13.7208 865 65.2948 457.696 560.013
1416 0 65.1455 13.2933 866 66.358 457.831 558.339
1417 0 69.1073 13.602 940 64.8362 458.34 557.062
1418 0 71.1666 13.0398 928 65.2123 458.478 555.614
1419 0 73.0598 13.1262 959 65.5182 458.347 554.257
1420 0 77.1677 13.3605 1031 64.1339 458.229 553.423
1421 0 80.2101 13.3026 1067 64.3936 458.351 550.587
1422 0 83.294 14.2147 1184 62.9231 458.444 548.91
1423 0 83.2101 13.5801 1130 64.4283 458.454 547.967
1424 0 86.2952 13.2105 1140 64.7588 458.653 546.411
1425 0 90.4292 12.7835 1156 64.5735 458.327 545.687
1426 1 48.3478 10.0728 487 65.2834 458.565 567.035
1427 0 51.2772 11.2916 579 63.582 458.66 565.774
1428 0 51.2991 9.88322 507 64.5858 458.817 566.929
1429 0 52.4142 11.6953 613 62.3622 458.675 564.266
1430 0 54.247 12.738 691 61.5528 458.747 561.719
1431 0 56.1373 13.0751 734 60.5845 458.906 561.824
1432 0 59.3656 13.1221 779 59.8293 458.683 560.462
1433 0 61.2636 12.4054 760 60.7368 458.247 558.514
1434 0 63.2175 12.3858 783 61.9668 458.175 559.88
1435 0 66.2683 12.887 854 60.63 457.787 556.868
1436 0 69.2376 12.551 869 61.2624 457.94 556.213
1437 0 69.5052 12.0279 836 63.006 457.872 555.382
1438 0 72.4514 13.1951 956 61.318 458.05 553.985
1439 0 75.5644 12.5059 945 62.2741 457.694 551.828
1440 0 78.6081 12.3015 967 61.5067 457.314 551.99
1441 0 79.6319 12.5703 1001 61.8551 457.833 549.926
1442 0 82.5016 13.5634 1119 60.1099 457.558 549.185
1443 0 85.4211 13.1115 1120 60.3527 456.837 546.98
1444 0 89.37 12.465 1114 60.7433 456.612 548.232
1445 0 93.3626 13.0459 1218 60.1297 456.2 544.549
1446 0 95.4614 12.4867 1192 61.1946 456.184 542.565
1447 1 50.2811 10.3419 520 62.2519 455.398 564.158
1448 0 54.3095 10.5875 575 61.2939 455.449 564.737
1449 0 57.2422 11.8619 679 60.5007 456 563.027
1450 0 57.1875 11.2962 646 61.8359 455.816 561.096
1451 0 60.1776 11.7486 707 61.3465 456.154 560.833
1452 0 62.1002 11.8679 737 60.9593 455.893 560.471
1453 0 63.1466 12.6056 796 60.309 455.976 559.759
1454 0 65.1951 12.5776 820 60.1134 455.998 559.03
1455 0 67.1289 12.4835 838 60.8198 455.648 558.394
1456 0 67.052 13.1838 884 60.8473 455.196 557.433
1457 0 68.2186 12.6945 866 62.1143 455.947 556.178
1458 0 74.1173 13.4516 997 60.3099 455.83 554.598
1459 0 75.1233 13.0985 984 61.7459 456.008 550.921
1460 0 78.1297 12.5561 981 61.3364 455.957 552.608
1461 0 81.2419 12.112 984 62.4919 455.752 550.194
1462 0 83.2375 13.3474 1111 60.5194 456.102 547.963
1463 0 86.2064 13.2473 1142 61.1996 456.152 546.476
1464 0 91.1586 12.5166 1141 61.9649 455.677 545.408
1465 0 93.289 13.1527 1227 61.2029 456.259 544.482
1466 1 49.1218 10.3416 508 61.1004 456.272 564.372
1467 0 51.0785 10.0825 515 60.6641 456.066 566.384
1468 0 51.0382 10.6587 544 60.4301 456.61 564.329
1469 0 53.1325 11.6501 619 59.6866 456.105 562.919
1470 0 55.1251 12.1723 671 59.5306 455.759 562.677
1471 0 56.0512 12.328 691 58.8813 455.54 563.438
1472 0 59.0796 11.933 705 57.9248 454.579 563.213
1473 0 62.066 12.2128 758 57.8061 454.785 559.588
1474 0 63.2776 12.0738 764 57.9921 454.864 560.677
1475 0 68.1252 12.2275 833 57.2113 454.072 558.044
1476 0 68.0701 12.0464 820 57.8122 452.751 557.572
1477 0 68.1198 11.7734 802 58.4177 452.267 556.789
1478 0 73.0936 11.9436 873 57.5223 452.34 556.452
1479 0 72.1523 12.2657 885 57.7684 452.71 554.663
1480 0 75.1333 12.4845 938 57.8209 453.215 553.797
1481 0 77.2117 12.9644 1001 57.6793 452.891 552.052
1482 0 80.1057 12.4211 995 58.2302 452.684 550.487
1483 0 83.0868 12.517 1040 57.8817 452.415 551.192
1484 0 85.2183 12.0514 1027 58.6397 453.127 549.055
1485 0 88.1757 12.6452 1115 58.2368 452.918 546.429
1486 0 91.1724 13.1948 1203 57.9917 453.79 545.321
1487 0 94.2554 13.4846 1271 57.3918 453.835 544.168
1488 1 50.1254 10.9525 549 58.0055 453.883 566.047
1489 0 51.1514 9.7358 498 58.1727 453.823 567.273
1490 0 53.1355 10.5203 559 57.6297 453.63 567.206
1491 0 53.0887 10.4354 554 58.361 453.632 566.097
1492 0 56.1069 11.6563 654 57.3761 454.19 564.098
1493 0 56.1422 12.8068 719 56.3727 454.64 563.576
1494 0 60.1431 13.2185 795 54.8239 454.255 562.488
1495 0 61.216 13.0848 801 55.1461 453.881 561.814
1496 0 65.1895 12.9469 844 55.1943 454.331 561.083
1497 0 63.2023 12.0565 762 56.6969 454.199 560.169
1498 0 67.1487 12.9265 868 55.8802 453.589 558.371
1499 0 67.1487 12.9265 868 150.521 454.589 558.371
1500 0 71.224 12.3133 877 57.1334 454.366 556.146
1501 0 74.2261 13.1086 973 55.6023 454.482 554.392
1502 0 75.2357 13.358 1005 55.8766 454.253 552.003
1503 0 78.0961 13.7011 1070 55.1262 454.621 552.741
1504 0 79.3337 13.1722 1045 56.8239 454.557 550.615
1505 0 83.1925 12.9699 1079 56.8953 454.481 549.237
1506 0 84.4457 12.884 1088 57.08 454.795 547.801
1507 0 87.4642 13.6856 1197 56.0309 454.984 545.22
1508 0 90.3306 14.0927 1273 55.6984 455.064 545.698
1509 0 93.3633 13.817 1290 55.7822 455.209 544.333
1510 0 96.3041 13.7377 1323 56.2691 455.778 544.062
1511 0 99.3885 13.5529 1347 56.732 456.087 540.092
1512 0 102.542 13.5457 1389 57.1519 456.386 537.833
1513 0 106.419 12.9301 1376 57.3358 456.382 536.815
1514 0 108.255 13.2281 1432 57.1934 456.701 535.815
1515 1 58.2583 10.1101 589 57.8132 456.572 561.492
1516 0 59.1645 10.5807 626 57.7157 457.099 561.912
1517 0 61.2017 11.6827 715 57.2014 457.841 558.994
1518 0 61.0966 11.9155 728 56.7761 457.871 557.225
1519 0 66.2393 12.4699 826 55.8329 458.37 557.818
1520 0 66.2358 12.3498 818 56.522 458.396 555.991
1521 0 70.268 13.0073 914 56.023 458.47 553.842
1522 0 71.3197 12.2266 872 56.781 458.87 554.583
1523 0 74.1209 13.1137 972 55.7346 458.89 550.468
1524 0 76.2469 12.1579 927 56.7735 459.168 552.36
1525 0 80.2735 12.881 1034 56.0658 459.144 549.424
1526 0 81.3352 12.8358 1044 56.7519 459.064 547.135
1527 0 83.2631 12.0942 1007 57.8908 459.399 546.021
1528 0 86.2056 13.607 1173 55.9471 459.514 543.206
1529 0 90.1772 13.5178 1219 55.8294 459.246 542.479
1530 0 92.134 13.2416 1220 56.8836 459.335 539.092
1531 1 48.1526 9.82294 473 58 459.129 562.173
1532 0 49.1245 9.99501 491 58.1344 459.206 562.735
1533 0 52.1246 12.6044 657 56.484 459.087 560.86
1534 0 53.1022 11.5061 611 57.7529 459.499 560.498
1535 0 53.062 11.3829 604 59.1026 460.136 559.373
1536 0 56.2138 12.7727 718 57.1797 459.535 560.909
1537 0 59.1125 12.2986 727 57.9395 458.768 561.795
1538 0 59.1687 11.9658 708 59.1215 458.946 559.715
1539 0 62.2134 12.0553 750 59.1707 459.679 560.605
1540 0 63.1438 12.717 803 58.5953 459.565 558.506
1541 0 64.0797 12.937 829 58.813 459.555 557.696
1542 0 67.1553 12.4785 838 59.6444 459.438 557.566
1543 0 70.2978 13.2294 930 58.9882 459.311 556.123
1544 0 73.2005 12.4726 913 59.5027 458.99 554.333
1545 0 74.1451 12.8936 956 59.5408 459.111 552.067
1546 0 77.2441 13.6451 1054 58.629 459.164 550.677
1547 0 80.1697 13.2968 1066 59.3424 459.091 549.119
1548 0 81.2598 12.7123 1033 60.8867 458.74 547.742
1549 0 84.1439 13.6195 1146 59.4878 458.816 545.904
1550 0 86.2394 13.393 1155 60.2346 458.92 544.927
1551 0 88.119 13.4704 1187 60.7911 459.115 544.302
1552 0 92.122 13.6232 1255 60.9307 457.929 543.556
1553 0 96.1772 13.5271 1301 61.0968 457.157 542.583
1554 0 97.1982 13.5085 1313 61.4311 457.083 539.925
1555 0 101.408 13.8649 1406 61.0284 457.178 540.329
1556 0 104.27 14.7502 1538 60.7653 457.076 535.73
1557 0 107.261 12.8658 1380 62.742 457.175 537.622
1558 0 109.44 14.0168 1534 61.7184 457.107 533.821
1559 0 113.328 14.0124 1588 62.3199 457.224 534.024
1560 0 114.38 14.207 1625 62.9255 456.687 530.643
1561 0 120.372 14.9121 1795 61.6279 456.51 528.639
1562 0 125.349 13.9451 1748 63.4319 456.529 527.072
1563 0 128.408 14.6642 1883 62.539 456.645 522.408
1564 0 133.468 15.2246 2032 62.0738 456.194 521.272
1565 0 136.325 14.8909 2030 62.8571 455.91 518.108
1566 0 141.388 15.4963 2191 62.0461 455.746 517.115
1567 0 145.203 14.5314 2110 64.372 455.295 514.804
1568 0 151.279 16.9092 2558 60.7369 455.666 511.028
1569 0 158.417 16.04 2541 61.7871 455.804 508.837
1570 0 160.256 15.1757 2432 63.5954 455.865 507.53
1571 0 166.372 14.4856 2410 64.4004 455.354 505.755
1572 0 172.287 15.6135 2690 62.7907 455.132 504.127
1573 0 179.504 14.8966 2674 63.5853 455.062 502.545
1574 0 185.29 16.3689 3033 61.9815 454.941 499.177
1575 0 189.373 14.8226 2807 64.601 454.821 495.758
1576 1 49.1805 10.98 540 60.2315 454.135 566.931
1577 0 50.3305 10.9874 553 60.774 454.873 567.13
1578 0 52.0918 11.8637 618 59.9288 454.917 565.761
1579 0 54.0251 12.3646 668 59.7545 455.557 564.412
1580 0 55.0674 12.9478 713 59.6269 454.948 563.83
1581 0 58.135 12.2129 710 60.8028 454.654 563.159
1582 0 59.0728 12.51 739 60.2963 454.997 564.138
1583 0 61.1283 12.0402 736 61.0829 454.518 562.905
1584 0 64.1143 11.8694 761 60.7937 454.495 561.329
1585 0 64.0939 12.0292 771 61.0467 453.744 561.384
1586 0 67.2205 12.0499 810 61.721 453.737 559.019
1587 0 67.1974 12.441 836 61.8517 453.532 558.201
1588 0 71.0765 11.762 836 62.6316 453.682 557.888
1589 0 71.3193 12.6754 904 62.1748 453.842 556.14
1590 0 75.3845 12.1776 918 62.3954 453.651 556.451
1591 0 78.1838 12.6113 986 61.9929 454.52 554.047
1592 0 81.1602 13.344 1083 60.843 454.364 552.856
1593 0 80.1937 13.1806 1057 62.4957 454.41 550.837
1594 0 86.2688 13.6898 1181 60.2972 454.852 549.782
1595 0 87.1298 13.4397 1171 61.567 455.047 548.635
1596 0 90.2128 13.3795 1207 61.512 455.378 548.201
1597 0 93.1555 14.0088 1305 60.5027 455.364 544.241
1598 0 97.2406 13.5437 1317 61.0752 455.273 543.284
1599 0 100.38 13.3493 1340 61.0918 455.475 541.989
1600 0 105.251 15.0212 1581 58.4118 455.746 538.739
1601 1 54.0954 9.98237 540 62.6907 455.833 564.078
1602 0 57.1082 10.0686 575 61.5635 456.637 564.402
1603 0 59.0999 12.2674 725 59.2979 456.793 561.688
1604 0 60.0698 12.1359 729 60.1248 457.295 558.299
1605 0 63.1559 12.9362 817 59.2693 456.876 559.725
1606 0 64.1329 11.866 761 60.456 455.796 559.414
1607 0 66.1859 13.0844 866 58.9896 455.794 559.442
1608 0 67.1692 12.5355 842 59.6758 456.151 558.536
1609 0 69.1039 12.3871 856 60.1133 456.145 556.333
1610 0 73.1838 12.9674 949 58.844 456.026 554.784
1611 0 74.1707 12.4982 927 59.0345 456.673 555.1
1612 0 76.208 13.0695 996 59.4498 456.441 554.854
1613 0 78.3048 13.0388 1021 58.9589 457.081 552.951
1614 0 82.1426 13.0505 1072 58.6418 457.233 549.315
1615 0 84.192 13.3029 1120 58.6152 457.618 549.136
1616 0 87.1554 13.2292 1153 58.9922 457.624 547.588
1617 0 88.3134 13.4408 1187 58.765 458.628 545.844
1618 0 92.2629 14.2527 1315 57.5673 458.792 544.732
1619 0 93.2428 12.623 1177 60.1997 459.162 542.297
1620 0 98.2497 13.9441 1370 58.0518 459.493 541.228
1621 0 101.446 14.6186 1483 57.3891 459.697 538.016
1622 0 104.444 13.8351 1445 58.5509 459.911 537.132
1623 0 107.231 13.4196 1439 58.9854 460 534.525
1624 0 113.334 13.897 1575 58.2502 459.654 530.69
1625 0 116.462 13.6782 1593 58.4124 459.731 529.981
1626 1 51.4197 10.2684 528 61.0265 459.839 560.943
1627 0 53.3828 11.0897 592 60.4459 460.37 558.356
1628 0 58.3235 11.5905 676 59.7249 460.636 557.426
1629 0 58.3454 12.666 739 58.5129 460.951 558.704
1630 0 60.2299 11.9708 721 59.5187 461.35 557.061
1631 0 65.3121 13.9178 909 56.8515 460.908 556.337
1632 0 66.1671 13.1032 867 57.9423 461.13 556.473
1633 0 66.2325 12.8034 848 58.9292 461.146 554.34
1634 0 69.1787 12.3015 851 59.4759 461.208 552.855
1635 0 73.241 13.3532 978 58.5675 460.857 551.203
1636 0 77.3616 13.676 1058 57.9669 460.474 551.129
1637 0 79.4918 13.3976 1065 58.5371 460.891 547.242
1638 0 79.327 12.833 1018 60.1857 460.239 547.262
1639 0 84.2996 13.025 1098 59.9681 460.316 546.208
1640 0 85.1574 13.1521 1120 60.8473 460.332 544.295
1641 0 91.4508 13.7888 1261 58.6661 459.715 541.456
1642 0 94.4581 13.7839 1302 59.1644 459.724 541.222
1643 0 97.6587 13.967 1364 59.7757 459.802 536.051
1644 0 100.617 13.3874 1347 60.4803 459.974 535.208
1645 1 54.3932 11.5639 629 62.0191 459.45 557.576
1646 0 55.3392 11.3301 627 62.4211 459.418 559.273
1647 0 58.2961 12.0934 705 62.2071 460.028 560.391
1648 0 59.3461 12.1996 724 61.9959 460.196 559.638
1649 0 61.1046 13.3051 813 61.5707 459.846 557.884
1650 0 63.2183 13.2557 838 61.9773 459.763 557.63
1651 0 65.1675 13.9487 909 61.1815 459.37 556.231
1652 0 67.1242 13.0504 876 62.8664 459.049 555.211
1653 0 69.2804 13.135 910 62.511 459.093 552.642
1654 0 71.1988 13.1744 938 62.694 458.778 551.442
1655 0 74.3596 14.2954 1063 61.6773 458.497 549.909
1656 0 78.3101 13.8169 1082 61.5665 458.475 550.353
1657 0 79.2171 13.4567 1066 62.5685 458.585 548.689
1658 0 82.323 13.1919 1086 63.0856 458.723 547.529
1659 0 86.2072 13.34 1150 63.0687 458.371 545.879
1660 0 89.4263 14.2352 1273 62.2844 458.625 544.078
1661 0 92.3809 14.3536 1326 62.356 458.238 540.997
1662 0 94.3789 13.7213 1295 63.3938 457.831 535.635
1663 1 52.2103 11.3579 593 64.747 457.853 558.749
1664 0 55.3578 11.1999 620 65.4677 457.748 557.935
1665 0 55.3244 11.2789 624 65.609 456.928 557.498
1666 0 58.4509 12.0101 702 63.9174 457.132 557.873
1667 0 62.3423 12.8163 799 62.1402 457.489 555.446
1668 0 64.3945 13.2309 852 61.4237 457.335 553.894
1669 0 65.1818 13.3473 870 60.7437 457.649 552.231
1670 0 67.1595 13.5647 911 60.1076 457.942 550.4
1671 0 70.1383 13.7585 965 59.6839 457.859 551.826
1672 0 73.1411 13.3851 979 61.0552 457.367 551.021
1673 0 75.1761 13.6613 1027 60.0691 457.282 546.461
1674 0 78.2275 13.5758 1062 60.2514 457.733 547.173
1675 0 79.1783 13.3875 1060 60.1491 457.475 543.166
1676 0 83.2219 14.4193 1200 59.1492 457.262 542.877
1677 0 87.331 13.9355 1217 59.3122 456.91 542.86
1678 0 87.2637 14.0494 1226 60.2129 455.97 541.033
1679 0 91.2041 12.6639 1155 61.9558 455.885 536.076
1680 0 95.2411 13.3556 1272 61.3357 455.855 533.572
1681 0 96.3762 13.9038 1340 61.1776 455.591 534.935
1682 1 53.2647 9.78134 521 63.0921 455.583 560.424
1683 0 54.1021 10.3878 562 63.5819 455.63 558.11
1684 0 58.1038 11.0492 642 60.9922 455.913 557.768
1685 0 59.1436 11.2607 666 61.2372 455.395 556.434
1686 0 62.3186 12.2114 761 59.7464 455.397 555.256
1687 0 64.1504 12.2057 783 60.2567 455.078 555.386
1688 0 67.202 13.6454 917 58.3795 454.924 553.402
1689 0 68.1428 13.1342 895 59.1464 454.553 554.035
1690 0 71.2096 13.6358 971 58.2307 454.768 552.342
1691 0 74.2053 13.5031 1002 58.1956 454.904 552.375
1692 0 74.1468 12.8259 951 60.0536 455.116 551.545
1693 0 77.1518 12.9485 999 59.4214 455.285 551.976
1694 0 78.1445 12.72 994 59.9567 455.281 550.541
1695 0 83.2683 12.8981 1074 59.7477 455.124 548.152
1696 0 85.2414 13.2447 1129 59.2232 454.818 546.787
1697 0 87.1637 14.4441 1259 58.4988 454.681 544.442
1698 0 89.1497 13.8082 1231 58.7693 454.32 544.5
1699 0 94.2581 13.4949 1272 58.7736 454.07 545.093
1700 0 96.2671 13.7015 1319 58.9507 454.428 541.56
1701 0 100.145 13.4005 1342 59.6028 453.785 540.082
1702 0 103.316 13.7152 1417 59.3804 453.706 539.161
1703 0 106.193 13.2213 1404 60.2251 453.606 537.959
1704 0 110.203 13.3662 1473 60.0821 453.755 536.016
1705 0 115.216 14.1212 1627 59.2409 453.561 534.026
1706 0 118.266 13.7318 1624 59.7087 453.256 533.272
1707 0 122.201 14.6398 1789 58.7915 453.44 530.502
1708 0 125.282 13.9366 1746 59.705 453.431 526.173
1709 1 67.2435 10.4843 705 60.3262 453.603 556.638
1710 0 69.283 11.3881 789 60.4132 453.73 553.849
1711 0 71.2523 11.9715 853 60.3939 453.571 554.096
1712 0 73.1377 12.4149 908 59.6057 454.195 553.023
1713 0 74.3542 12.9919 966 59.2112 454.135 552.694
1714 0 78.1563 12.7181 994 59.828 454.854 551.488
1715 0 81.3564 13.2995 1082 58.878 454.883 549.16
1716 0 84.3116 13.3196 1123 59.455 454.723 546.124
1717 0 88.4034 12.3864 1095 60.4685 455.142 544.991
1718 0 91.3777 13.2527 1211 58.9381 455.03 543.946
1719 0 93.4673 13.5341 1265 58.5968 455.237 543.792
1720 0 98.5566 14.1644 1396 57.7994 455.35 540.849
1721 0 99.4541 13.0211 1295 59.9336 455.353 538.559
1722 0 103.567 14.0585 1456 58.4897 455.47 535.17
1723 0 105.483 13.4051 1414 59.5686 456.01 533.883
1724 0 108.508 13.8054 1498 58.9619 456.275 530.154
1725 0 114.491 14.5863 1670 58.0814 456.689 530.811
1726 0 118.593 13.4578 1596 59.1823 456.486 528.293
1727 1 65.4477 10.3289 676 60.1213 456.552 554.305
1728 0 66.5328 10.8668 723 59.8534 456.848 553.9
1729 0 68.2968 11.0254 753 59.3174 456.83 552.159
1730 0 71.442 12.1217 866 57.7691 456.771 551.284
1731 0 74.3783 12.4499 926 57.3639 456.848 551.496
1732 0 75.5495 11.4759 867 59.1534 457.336 549.482
1733 0 77.4335 12.7852 990 57.9323 457.688 546.387
1734 0 80.621 13.0983 1056 57.089 457.889 546.879
1735 0 81.4589 13.6879 1115 56.4628 457.779 545.824
1736 0 84.5457 13.0462 1103 56.7171 458.035 543.383
1737 0 85.4242 13.31 1137 55.5893 458.19 541.799
1738 0 89.432 14.0554 1257 54.183 458.094 542.407
1739 0 91.3819 12.5408 1146 56.8229 458.179 539.26
1740 0 94.3602 13.3849 1263 56.3048 458.745 538.702
1741 0 98.5245 13.1947 1300 56.3785 458.828 535.985
1742 0 104.399 15.1821 1585 53.0675 459.105 534.857
1743 0 103.379 13.5231 1398 55.5036 459.441 532.891
1744 0 110.345 14.3006 1578 55.1692 460.039 533.282
1745 1 60.2543 10.5885 638 57.7022 459.951 557.812
1746 0 59.2782 11.1339 660 56.9091 460.198 555.414
1747 0 61.1816 12.4384 761 55.883 460.807 554.632
1748 0 62.1375 13.0517 811 56.455 460.646 552.514
1749 0 66.2399 12.1377 804 56.9515 461.586 551.547
1750 0 68.0969 13.6717 931 55.1461 461.403 549.102
1751 0 70.0544 13.4182 940 56.2053 462 548.506
1752 0 72.1528 12.7923 923 57.3283 462.113 547.086
1753 0 76.073 13.75 1046 55.7945 461.872 546.886
1754 0 77.039 14.1097 1087 56.0828 461.705 546.132
1755 0 78.0903 12.6776 990 58.4111 461.634 544.938
1756 0 82.1744 13.2158 1086 58.0378 461.021 543.99
1757 0 84.2157 13.2161 1113 58.8221 460.518 541.302
1758 0 88.2571 13.8459 1222 57.8854 460.458 539.655
1759 0 91.2863 13.6165 1243 58.885 460.393 539.362
1760 0 91.4707 13.928 1274 59.4003 460.411 534.249
1761 0 93.458 13.2038 1234 60.9935 460.677 533.84
1762 0 97.3084 13.5651 1320 60.9561 460.789 531.765
1763 0 100.331 13.4854 1353 61.2609 460.368 532.745
1764 0 101.416 13.6567 1385 61.5942 459.747 529.765
1765 0 107.491 13.9826 1503 60.519 460.114 529.291
1766 1 59.2771 11.5896 687 60.9287 460.303 552.143
1767 0 61.4724 10.7528 661 61.8064 459.676 553.172
1768 0 64.2884 11.9617 769 60.7334 459.622 551.437
1769 0 67.1374 12.318 827 60.1366 459.487 551.218
1770 0 67.2915 12.6613 852 61.2347 459.423 552.041
1771 0 69.2066 12.9901 899 61.0222 459.369 550.548
1772 0 71.379 12.9029 921 61.8458 459.189 550.688
1773 0 72.1841 12.4266 897 63.3545 459.401 548.65
1774 0 76.3701 12.7799 976 62.5758 459.132 549.477
1775 0 76.2544 13.2714 1012 62.2866 458.741 545.746
1776 0 81.3875 14.0562 1144 59.0192 459.219 546.1
1777 0 82.3432 14.8768 1225 58.2367 459.17 542.266
1778 0 86.368 13.894 1200 60.3967 458.618 542.552
1779 0 87.2012 13.8874 1211 61.1049 458.251 540.391
1780 0 91.3883 14.0718 1286 60.8017 458.247 540.38
1781 0 93.3846 13.9423 1302 61.0346 458.545 537.786
1782 0 98.2568 13.6683 1343 61.3358 458.302 535.669
1783 0 99.2847 13.3656 1327 62.0821 458.491 535.405
1784 0 101.257 11.7227 1187 63.7607 458.053 534.101
1785 1 58.1413 10.6637 620 62.0097 458.831 554.711
1786 0 62.2801 11.4643 714 60.3613 458.508 553.542
1787 0 64.1295 12.6775 813 59.5904 458.164 555.371
1788 0 64.0752 12.2512 785 60.6879 457.763 552.558
1789 0 67.2254 12.5102 841 59.7741 457.863 554.512
1790 0 68.1572 11.7669 802 60.7444 457.779 552.495
1791 0 71.2219 13.479 960 58.8292 457.564 550.628
1792 0 74.1881 12.8727 955 59.1204 457.475 550.18
1793 0 74.1095 12.2117 905 60.4011 457.285 551.07
1794 0 77.1509 13.2857 1025 59.3824 456.473 548.574
1795 0 79.1181 12.5761 995 60.0995 456.625 548.716
1796 0 81.1582 12.8391 1042 60.6593 456.776 547.317
1797 0 85.2531 12.0465 1027 61.1392 456.309 546.521
1798 0 87.207 13.531 1180 59.6653 456.618 543.969
1799 0 90.2436 14.1727 1279 59.1845 456.651 542.736
1800 0 92.3274 12.8781 1189 60.5635 456.163 542.457
1801 0 95.3039 13.032 1242 60.719 456.275 540.341
1802 0 101.378 13.2967 1348 59.7211 456.071 539.351
1803 0 102.485 13.1531 1348 60.8858 456.108 536.985
1804 0 106.397 13.1488 1399 60.7412 456.104 535.792
1805 1 62.2995 10.9471 682 61.5015 456.148 557.944
1806 0 63.1979 10.5541 667 61.994 456.124 557.286
1807 0 68.3995 11.9007 814 60.1425 455.948 555.547
1808 0 68.304 12.5615 858 59.521 456.028 554.61
1809 0 71.0878 12.6182 897 59.5953 456.624 553.989
1810 0 74.1365 13.2054 979 59.0153 455.72 552.065
1811 0 74.222 12.7051 943 60.3181 456.234 549.8
1812 0 77.2493 12.738 984 59.8882 455.619 548.923
1813 0 81.2384 13.5158 1098 58.5191 455.646 547.386
1814 0 83.3131 12.315 1026 60.3002 455.505 547.374
1815 0 85.4876 12.8089 1095 59.5543 456.243 546.938
1816 0 89.2204 12.4859 1114 60.2522 456.154 543.664
1817 0 90.36 12.4945 1129 61.3224 456.578 540.861
1818 0 94.2624 13.176 1242 60.4533 456.203 540.113
1819 0 95.3963 12.8202 1223 61.4661 456.17 538.759
1820 0 100.434 13.8399 1390 60.1129 456.3 537.763
1821 0 103.345 12.7244 1315 61.5924 455.655 535.326
1822 0 109.333 13.2256 1446 60.3084 455.528 533.156
1823 1 57.2429 10.0798 577 61.513 455.555 559.733
1824 0 60.2051 9.98254 601 61.6772 455.764 558.77
1825 0 60.209 10.8954 656 61.0091 455.953 557.715
1826 0 62.2209 11.0574 688 61.3401 455.872 555.781
1827 0 65.2876 12.3913 809 59.8096 456.679 554.277
1828 0 68.241 13.8773 947 57.9916 456.634 554.713
1829 0 71.2158 12.4551 887 59.549 457.192 553.337
1830 0 72.2871 13.3634 966 58.9834 457.272 552.354
1831 0 74.1578 12.9858 963 59.5774 457.713 551.58
1832 0 78.2104 13.8984 1087 58.4986 457.962 549.908
1833 0 79.3499 13.7492 1091 58.9936 457.852 550.295
1834 0 82.1883 13.8584 1139 58.7989 458.159 548.445
1835 0 83.2113 13.0511 1086 60.2017 458.254 547.111
1836 0 86.1191 13.9342 1200 59.3433 458.538 544.569
1837 0 89.1702 13.6144 1214 60.0766 458.571 544.422
1838 0 92.2723 14.2513 1315 59.0837 459.103 542.114
1839 0 95.3294 13.6789 1304 59.967 459.255 538.317
1840 0 97.2529 12.7091 1236 61.089 459.34 538.695
1841 0 101.475 14.4863 1470 58.6551 459.493 535.689
1842 0 103.294 13.0017 1343 60.7789 459.7 535.251
1843 1 55.2084 11.1034 613 59.3638 459.059 558.375
1844 0 56.1162 10.3535 581 60.136 459.627 558.308
1845 0 55.2762 10.0405 555 60.0631 459.676 556.465
1846 0 58.2268 11.335 660 58.5985 459.938 556.247
1847 0 61.0428 12.352 754 57.5345 460.728 555.37
1848 0 63.0879 12.3796 781 57.8822 460.617 554.734
1849 0 66.1551 13.0905 866 57.1016 460.267 552.805
1850 0 67.1897 12.7252 855 57.1942 460.544 554.513
1851 0 69.1552 13.3902 926 56.7635 459.834 550.839
1852 0 71.0809 12.9711 922 56.7809 460.937 550.658
1853 0 74.1287 12.7481 945 55.582 460.562 549.539
1854 0 77.174 12.7893 987 55.0041 460.764 548.799
1855 0 77.1071 12.6188 973 55.7646 460.524 547.65
1856 0 80.1919 13.5799 1089 55.011 460.907 545.657
1857 0 83.1644 13.5034 1123 54.9466 461.081 545.085
1858 0 84.2506 13.3886 1128 55.3528 460.999 543.763
1859 0 87.244 13.5024 1178 55.1341 461.019 541.761
1860 0 90.3233 13.0088 1175 55.7047 460.849 541.106
1861 0 93.2678 13.3379 1244 55.1077 460.1 540.973
1862 0 97.1947 12.6139 1226 55.7406 460.1 539.643
1863 1 56.2291 10.2438 576 55.276 460.599 560.361
1864 0 56.2056 10.2125 574 55.3118 459.707 559.908
1865 0 59.2466 12.0176 712 53.948 459.572 557.083
1866 0 59.1958 11.4535 678 54.7743 459.373 556.565
1867 0 61.1626 12.2624 750 54.1333 459.345 556.717
1868 0 63.2381 13.1408 831 53.7822 459.439 556.122
1869 0 65.1816 12.7643 832 54.2909 459.536 555.043
1870 0 66.1563 12.4251 822 54.0681 459.472 554.856
1871 0 68.2448 12.9241 882 53.7268 459.348 551.543
1872 0 68.1671 12.1466 828 54.5966 459.199 553.129
1873 0 71.1456 13.0718 930 53.6634 459.668 552.249
1874 0 73.2076 13.0861 958 53.8873 458.958 550.009
1875 0 75.3858 12.96 977 54.1505 458.415 548.08
1876 0 80.233 13.1617 1056 53.8996 458.325 547.258
1877 0 80.3465 12.5083 1005 55.1761 458.145 544.954
1878 0 82.2074 13.0767 1075 54.7042 457.823 546.461
1879 0 85.1334 12.7212 1083 55.0489 456.98 544.881
1880 0 89.3256 14.0273 1253 54.2051 456.459 540.805
1881 0 92.2739 14.5437 1342 53.5395 457.11 541.855
1882 0 94.3018 13.478 1271 55.1086 456.592 541.7
1883 0 98.16 14.4764 1421 54.6495 456.072 540.253
1884 0 99.3216 14.3171 1422 55.8622 456.459 537.93
1885 0 102.303 13.8413 1416 56.9774 456.634 535.526
1886 0 105.375 13.6655 1440 57.4812 456.602 535.557
1887 0 109.301 13.0466 1426 57.9649 456.359 535.991
1888 0 112.26 14.315 1607 56.8961 456.169 532.745
1889 0 115.293 13.6522 1574 57.6156 455.913 530.933
1890 0 120.316 14.944 1798 56.1741 456.036 529.713
1891 0 123.499 14.9961 1852 56.0837 456.358 528.212
1892 0 127.234 14.7759 1880 56.516 456.213 525.661
1893 0 132.343 15.8905 2103 55.2515 456.168 524.037
1894 0 133.519 13.8782 1853 58.1052 455.681 521.04
1895 0 139.301 14.4651 2015 57.2382 455.93 518.074
1896 1 78.1441 12.6433 988 57.7986 456.438 547.46
1897 0 83.2372 12.1821 1014 58.1213 456.631 546.54
1898 0 85.3193 13.385 1142 57.3923 456.227 544.641
1899 0 86.3984 13.8429 1196 57.1488 456.404 545.079
1900 0 89.3263 13.098 1170 57.8077 455.78 545.826
1901 0 92.484 13.6889 1266 57.7259 455.991 543.71
1902 0 96.3561 13.7614 1326 57.4751 455.99 542.04
1903 0 97.2764 13.0556 1270 58.1024 455.762 542.003
1904 0 102.329 13.8671 1419 57.2044 455.516 538.368
1905 0 105.263 13.4235 1413 57.8174 455.42 538.396
1906 0 107.359 13.8321 1485 57.3253 455.02 538.052
1907 0 112.286 14.4096 1618 56.7769 455.299 535.012
1908 1 58.1839 10.9137 635 58.7748 455.569 562.109
1909 0 63.1543 11.559 730 58.3342 454.781 560.118
1910 0 64.1379 12.2237 784 57.7283 454.48 558.52
1911 0 66.0354 14.2197 939 56.0618 454.148 559.017
1912 0 70.1191 13.035 914 57.5646 453.965 559.106
1913 0 70.1044 13.5797 952 58.0053 454.076 557.16
1914 0 72.1429 13.6119 982 57.9379 453.817 556.52
1915 0 75.1151 12.9535 973 58.89 453.306 556.894
1916 0 79.1215 14.345 1135 57.0485 453.785 554.468
1917 0 83.1523 13.373 1112 58.0612 453.299 551.86
1918 0 83.0836 14.2387 1183 58.9535 453.099 550.948
1919 0 86.2015 14.5357 1253 59.083 454.019 550.091
1920 0 89.0812 14.2567 1270 59.3276 454.301 547.868
1921 0 94.1517 14.2855 1345 59.519 453.639 547.361
1922 0 96.0993 14.5474 1398 59.6989 453.437 545.772
1923 0 100.16 14.8162 1484 59.378 453.814 544.562
1924 0 102.231 14.0369 1435 60.3895 453.911 543.723
1925 0 105.226 14.4166 1517 60.232 454.013 541.73
1926 1 58.0726 11.0379 641 62.2808 454.674 563.739
1927 0 60.0339 10.6273 638 62.6379 454.364 564.279
1928 0 62.1041 11.7061 727 62.3879 454.821 561.409
1929 0 64.067 12.6742 812 60.8584 453.698 561.254
1930 0 68.1521 13.3672 911 60.6663 454.147 560.829
1931 0 71.1969 14.1298 1006 59.6004 454.093 558.334
1932 0 72.2161 14.055 1015 59.9488 453.971 558.293
1933 0 75.2949 13.2811 1000 61.231 453.825 557.042
1934 0 77.1123 14.7836 1140 60.0649 454.56 554.311
1935 0 79.2808 13.7108 1087 61.2125 454.689 555.69
1936 0 83.2119 14.3008 1190 60.5773 454.644 554.401
1937 0 87.2102 14.1268 1232 60.5406 454.946 552.222
1938 0 88.1615 14.9612 1319 60.4556 455.089 548.754
1939 0 91.107 14.1153 1286 61.1656 455.209 551.387
1940 0 95.2706 14.3906 1371 61.0977 454.757 547.898
1941 0 97.3263 13.6756 1331 61.7754 454.901 546.394
1942 0 100.351 14.2799 1433 61.0921 455.16 544.36
1943 0 104.238 13.8912 1448 62.0477 454.969 541.33
1944 1 55.066 11.804 650 59.9415 455.84 566.305
1945 0 56.1222 12.5975 707 59.4526 455.844 565.045
1946 0 57.1253 12.0262 687 59.984 456.217 564.039
1947 0 61.1151 13.3191 814 58.2248 456.279 560.88
1948 0 60.1196 13.0906 787 59.5019 455.534 562.001
1949 0 63.2024 13.528 855 58.3404 456.014 563.015
1950 0 64.1179 13.4752 864 58.9132 456.153 560.977
1951 0 68.0773 13.4847 918 57.9379 456.174 560.806
1952 0 68.1566 13.0875 892 58.7948 456.487 559.886
1953 0 69.1435 14.0866 974 58.0298 456.812 557.52
1954 0 72.1272 14.114 1018 57.6316 456.808 554.649
1955 0 76.1836 14.0056 1067 56.7301 456.528 554.119
1956 0 78.1845 13.8902 1086 56.9687 456.446 553.868
1957 0 79.1651 13.2382 1048 58.3416 456.385 552.392
1958 0 81.2577 12.7003 1032 58.9816 456.46 550.979
1959 0 85.1773 13.6187 1160 57.6069 456.71 549.09
1960 0 88.2055 14.0807 1242 56.8752 456.857 547.527
1961 0 91.3523 14.0226 1281 56.975 457.196 545.629
1962 1 51.1544 11.1036 568 55.6673 457.516 569.155
1963 0 51.1544 11.1427 570 149.618 457.518 569.116
1964 0 51.2764 12.3059 631 56.7718 457.71 564.867
1965 0 53.1668 11.6426 619 58.0242 457.717 562.391
1966 0 56.188 12.4938 702 56.3177 458.138 563.905
1967 0 59.4763 13.2994 791 55.1011 458.367 562.912
1968 0 60.2356 13.3476 804 54.9726 458.41 561.325
1969 0 62.2148 14.1445 880 54.3136 458.725 560.493
1970 0 61.249 13.1267 804 56.658 459.066 557.812
1971 0 63.2541 13.2798 840 55.769 459.139 558.39
1972 0 67.274 13.4227 903 55.3577 459.332 556.874
1973 0 68.3222 13.7291 938 55.5096 459.762 554.494
1974 0 72.2562 13.8673 1002 55.1836 459.874 554.168
1975 0 71.1903 13.1619 937 56.7577 460.295 553.293
1976 0 75.4797 14.3747 1085 55.3465 460.683 551.472
1977 0 78.2949 14.241 1115 55.5937 461.031 549.291
1978 0 82.2835 14.0004 1152 55.4384 460.821 550.398
1979 0 84.4173 14.4402 1219 55.4381 461.119 547.907
1980 0 85.5376 14.5082 1241 55.9476 460.874 544.354
1981 0 90.5754 14.2975 1295 56.0965 461.239 542.928
1982 0 91.5618 14.4602 1324 56.4418 461.286 540.775
1983 0 95.5646 13.8336 1322 57.1203 461.013 541.598
1984 1 53.2746 9.7983 522 58.9732 460.649 560.665
1985 0 54.4656 11.5669 630 58.1524 461.04 560.035
1986 0 57.2136 12.4795 714 57.0168 462.069 558.496
1987 0 58.1578 13.2226 769 56.9168 461.637 558.763
1988 0 61.2246 13.3443 817 55.6793 461.204 559.378
1989 0 61.2134 13.1507 805 56.8758 461.128 557.455
1990 0 63.1719 13.5978 859 56.3178 461.376 555.001
1991 0 65.2186 13.3091 868 56.8675 461.63 552.726
1992 0 67.2019 13.4818 906 56.9459 461.32 552.123
1993 0 72.2515 12.8025 925 57.0692 461.257 551.949
1994 0 72.1739 13.0518 942 57.3344 461.162 551.854
1995 0 76.2708 13.8716 1058 55.9112 460.974 551.018
1996 0 77.3206 13.8644 1072 57.3573 461.046 546.535
1997 0 80.3497 12.3336 991 58.4147 460.588 547.237
1998 0 82.1444 13.0258 1070 58.8112 460.543 545.134
1999 0 88.2263 13.9527 1231 56.9293 460.5 544.252
2000 0 90.172 14.7385 1329 56.7096 460.515 541.114
2001 0 91.1416 13.8137 1259 58.3717 460.098 539.801
2002 0 95.2431 13.0088 1239 58.6933 459.78 539.964
2003 0 98.1819 13.4648 1322 58.0711 459.596 538.384
2004 0 103.209 14.0686 1452 57.9573 459.669 536.205
2005 1 58.0212 9.35866 543 60.3517 460.197 558.053
2006 0 61.0962 9.86968 603 59.8226 459.95 557.819
2007 0 64.1208 11.4939 737 57.8874 459.673 556.041
2008 0 65.1456 13.2779 865 56.5376 459.655 553.145
2009 0 66.0893 12.0292 795 57.7258 459.023 554.174
2010 0 70.1002 12.1683 853 57.4959 459.21 553.188
2011 0 71.1459 12.4392 885 56.8282 459.275 553.375
2012 0 75.1197 12.3802 930 56.7269 458.944 551.767
2013 0 76.2463 12.9711 989 56.1112 458.34 550.36
2014 0 77.3289 10.9791 849 58.5241 458.199 549.72
2015 0 81.4512 12.6702 1032 56.4196 458.147 547.139
2016 0 83.3357 13.1516 1096 55.6597 458.207 548.745
2017 0 86.4585 12.827 1109 56.3472 457.94 543.666
2018 0 90.2918 13.2238 1194 55.474 457.528 543.909
2019 0 94.4378 13.1092 1238 55.3465 457.564 542.235
2020 0 96.2391 13.1443 1265 55.0285 457.674 541.1
2021 0 100.252 12.2791 1231 55.7945 457.748 539.652
2022 1 57.2498 10.952 627 54.7384 458.273 561.528
2023 0 58.1828 10.2951 599 55.995 458.225 560.973
2024 0 60.0696 11.0372 663 55.1342 458.44 559.089
2025 0 60.2049 11.2948 680 55.1015 458.576 559.207
2026 0 62.2137 12.3124 766 54.0796 457.906 557.704
2027 0 62.2677 11.4184 711 55.0422 457.904 557.26
2028 0 65.0905 11.968 779 54.353 457.584 555.377
2029 0 69.0988 12.0697 834 53.7026 457.567 555.012
2030 0 70.1092 12.9227 906 53.2958 457.456 553.728
2031 0 73.0921 12.6963 928 53.819 457.332 553.796
2032 0 75.1375 13.3489 1003 53.0449 457.17 552.512
2033 0 78.348 12.955 1015 53.4236 456.941 551.07
2034 0 81.2087 13.4591 1093 53.0988 456.492 549.81
2035 0 83.144 13.2541 1102 53.314 456.552 550.291
2036 0 85.2029 12.9221 1101 54.3333 456.715 547.303
2037 0 89.1903 12.9386 1154 53.9922 457.217 546.127
2038 0 92.3478 14.8569 1372 51.9191 457.471 545.109
2039 1 51.1389 9.44487 483 54.9358 457.298 565.106
2040 0 53.1278 9.41127 500 53.928 457.324 565.316
2041 0 55.1374 10.6099 585 52.294 457.313 566.72
2042 0 55.1186 11.2122 618 53.1667 457.642 563.233
2043 0 58.2078 11.1669 650 52.6831 457.426 562.052
2044 0 59.1211 12.7873 756 51.0132 457.085 563.156
2045 0 60.1966 12.6917 764 51.7238 457.336 561.381
2046 0 61.1043 12.9451 791 51.4539 457.599 561.13
2047 0 64.185 12.5886 808 51.854 457.47 560.83
2048 0 66.1831 13.4022 887 51.5175 456.962 559.995
2049 0 70.2497 13.1388 923 51.6121 456.861 558.431
2050 0 70.1189 13.5199 948 51.9156 457.004 558.1
2051 0 72.3528 14.0423 1016 51.6398 456.126 557.212
2052 0 73.0767 13.1779 963 52.7612 455.17 558.112
2053 0 75.2493 13.1961 993 54.7583 455.296 555.392
2054 0 77.0683 13.261 1022 55.1888 455.015 554.424
2055 0 80.1374 12.9403 1037 55.027 454.969 555.343
2056 0 81.1836 13.4879 1095 55.4027 454.584 552.328
2057 0 84.2052 14.239 1199 54.568 454.723 552.99
2058 0 87.1637 13.9508 1216 55.2516 454.818 550.544
2059 0 90.2694 13.0609 1179 56.3215 455.019 548.92
2060 0 94.1973 14.4909 1365 54.4271 455.037 549.134
2061 0 94.2595 14.0357 1323 55.7415 454.827 546.906
2062 0 98.2685 13.9516 1371 56.2896 454.948 544.749
2063 0 100.157 14.4673 1449 55.9103 454.932 543.398
2064 0 102.238 14.3391 1466 56.5853 454.613 542.647
2065 0 107.202 13.8617 1486 57.1157 454.632 539.459
2066 0 113.126 14.2142 1608 56.7096 454.92 538.736
2067 0 114.127 13.3799 1527 58.3314 455.119 535.982
2068 0 116.218 14.0426 1632 58.2126 455.349 534.036
2069 1 67.1873 11.401 766 57.312 455.956 563.385
2070 0 67.1782 11.7746 791 57.8748 455.389 562.008
2071 0 69.1775 11.2609 779 59.5417 455.816 558.257
2072 0 71.0774 11.8181 840 59.5345 455.999 557.82
2073 0 75.1384 12.7099 955 58.3298 455.903 556.262
2074 0 76.0556 12.8327 976 59.4734 456.322 555.414
2075 0 80.07 13.0386 1044 59.2672 456.162 555.492
2076 0 82.1297 13.8074 1134 58.948 456.058 552.815
2077 0 84.0364 14.3033 1202 58.5 456.661 552.173
2078 0 86.2088 14.0473 1211 59.4781 457.105 549.102
2079 0 89.1495 13.8083 1231 59.5906 457.144 548.942
2080 0 92.2337 14.3006 1319 59.6929 457.631 546.631
2081 0 95.241 13.6601 1301 60.6026 457.465 546.613
2082 0 98.1349 13.9196 1366 60.6911 457.617 543.543
2083 0 99.1476 13.9489 1383 61.3247 457.781 541.563
2084 0 102.156 14.6247 1494 60.9485 457.852 542.041
2085 0 106.239 15.1169 1606 60.6849 458.021 539.078
2086 0 108.21 14.3055 1548 62.0355 457.915 535.225
2087 0 110.194 13.7031 1510 63.106 458.191 534.828
2088 0 114.235 14.3739 1642 62.3295 458.793 532.941
2089 0 117.134 13.6084 1594 63.9272 458.653 532.211
2090 0 122.173 14.0539 1717 63.3547 459.052 530.628
2091 1 69.1367 11.5713 800 62.7875 459.035 559.635
2092 0 69.1834 11.9682 828 63.1691 458.68 557.239
2093 0 74.2584 12.5777 934 61.788 459.24 555.108
2094 0 75.0749 12.2278 918 63.2157 459.971 550.987
2095 0 77.1286 13.0302 1005 62.2836 459.913 551.315
2096 0 79.3258 14.182 1125 61.1289 459.261 550.003
2097 0 82.1912 13.2496 1089 62.0331 459.594 552.266
2098 0 83.2481 12.3366 1027 63.6164 459.375 549.722
2099 0 87.2195 12.9902 1133 63.241 459.73 547.061
2100 0 89.2041 13.4747 1202 63.0441 459.879 546.42
2101 0 93.1666 13.5242 1260 62.2873 459.685 544.61
2102 0 94.1096 13.1018 1233 63.1963 459.869 542.562
2103 0 97.1144 12.614 1225 64.3282 460.345 540.439
2104 0 101.074 13.4258 1357 63.0332 460.717 542.522
2105 0 104.107 13.4765 1403 63.4847 461.116 538.012
2106 0 108.204 14.3895 1557 62.3924 460.904 533.498
2107 1 59.1149 9.72683 575 64.3443 460.955 559.762
2108 0 61.1599 10.5625 646 64.7043 460.587 557.059
2109 0 64.1466 12.1285 778 63.0437 460.37 558.501
2110 0 66.148 12.7895 846 62.5355 460.817 556.245
2111 0 67.0898 12.0436 808 63.2438 460.943 555.448
2112 0 69.0956 12.2728 848 63.0366 461.254 555.098
2113 0 73.1098 12.6659 926 62.0875 461.159 553.725
2114 0 74.1265 12.5596 931 62.6412 461.65 554.925
2115 0 76.104 13.4421 1023 61.8387 461.432 551.077
2116 0 77.1218 12.5775 970 62.5876 461.125 551.038
2117 0 82.1988 13.4795 1108 61.0948 461.131 549.829
2118 0 83.09 13.8886 1154 61.6863 461.135 546.032
2119 0 86.3289 12.8578 1110 62.6802 460.423 544.896
2120 0 90.2424 13.4416 1213 61.7156 459.84 544.255
2121 0 92.3273 13.7879 1273 61.7196 459.581 542.494
2122 0 95.4018 13.3541 1274 62.0918 459.904 541.246
2123 0 98.5559 13.9616 1376 61.7267 459.447 539.816
2124 0 101.291 13.5451 1372 61.5525 459.039 540.628
2125 0 103.403 13.0653 1351 63.1118 459.382 539.013
2126 1 57.414 11.3387 651 63.0691 458.902 560.992
2127 0 56.3967 11.6319 656 62.5976 458.59 558.919
2128 0 62.3811 12.4878 779 61.448 458.89 557.963
2129 0 63.3933 13.7239 870 60.3851 458.533 556.831
2130 0 66.4782 14.2754 949 60.1117 458.367 556.541
2131 0 67.6049 13.8156 934 60.7687 458.237 556.116
2132 0 68.4081 14.2381 974 61.2803 458.451 553.969
2133 0 71.507 14.1944 1015 60.8256 458.105 553.415
2134 0 72.4849 13.8098 1001 61.3047 458.011 552.785
2135 0 73.4812 13.8811 1020 62.1559 457.82 551.824
2136 0 77.4565 14.5759 1129 60.6395 457.116 550.57
2137 0 79.4323 14.0119 1113 62.23 457.469 549.099
2138 0 81.4006 14.3857 1171 61.9966 457.079 549.283
2139 0 86.6217 14.2112 1231 61.5167 456.74 546.353
2140 0 88.5478 14.4555 1280 62.0727 456.768 543.29
2141 0 92.5519 14.9106 1380 61.4152 456.742 542.868
2142 1 48.3691 11.7637 569 62.6257 456.557 566.234
2143 0 48.3206 10.6994 517 65.0426 457.244 564.48
2144 0 53.5287 13.2639 710 61.8831 457.266 563.51
2145 0 53.3756 12.7024 678 63.8805 457.078 562.162
2146 0 55.4775 13.3027 738 63.5786 456.947 561.146
2147 0 57.5546 13.5871 782 63.2801 456.458 559.384
2148 0 59.345 13.6996 813 63.6175 456.892 559.274
2149 0 60.6324 13.8045 837 63.7622 456.516 557.614
2150 0 62.56 14.0985 882 63.7154 456.372 558.247
2151 0 64.7996 13.9198 902 64.449 456.29 557.071
2152 0 66.537 14.2627 949 64.5585 456.687 555.047
2153 0 67.7483 14.3472 972 64.4074 456.741 556.866
2154 0 68.7447 14.2993 983 65.4344 456.658 553.934
2155 0 71.7686 14.1705 1017 65.4041 456.346 552.16
2156 0 75.7782 15.1891 1151 63.6125 456.661 551.312
2157 0 78.5135 14.4434 1134 64.4303 456.272 551.609
2158 0 80.5883 14.9029 1201 64.5187 456.06 547.799
2159 0 83.4442 14.1412 1180 65.7763 456.288 546.542
2160 0 84.5237 14.3628 1214 65.659 455.985 546.084
2161 0 87.609 15.3523 1345 64.3175 455.728 545.498
2162 0 93.4616 14.6263 1367 64.18 455.649 547.889
2163 0 94.6877 14.3841 1362 65.5073 455.863 546.229
2164 0 96.5284 14.6796 1417 66.2985 455.889 542.833
2165 0 99.6591 15.2921 1524 65.1522 455.318 544.013
2166 0 103.514 14.5584 1507 66.5999 454.893 540.889
2167 0 106.83 15.2673 1631 65.9871 454.67 539.037
2168 0 109.682 15.1985 1667 65.8134 454.223 537.752
2169 0 114.663 15.3319 1758 65.2981 454.285 536.097
2170 0 118.602 14.9829 1777 65.4755 454.288 534.725
2171 0 120.715 15.3088 1848 65.4594 454.456 531.69
2172 1 68.737 12.2932 845 66.813 454.224 559.677
2173 0 68.5416 12.7806 876 67.3938 454.13 557.511
2174 0 73.4111 13.3359 979 66.477 454.193 555.156
2175 0 75.419 13.7233 1035 65.3546 454.362 557.467
2176 0 77.4542 13.7888 1068 65.3567 454.265 556.768
2177 0 79.3548 13.4711 1069 66.4593 454.608 553.997
2178 0 81.4979 13.4973 1100 66.5936 454.722 551.672
2179 0 85.3278 14.0751 1201 64.1565 455.117 550.963
2180 0 86.3718 13.3608 1154 66.5927 455.09 547.366
2181 0 90.5128 13.6334 1234 65.3614 454.951 548.113
2182 0 93.6116 14.1649 1326 64.4917 454.682 544.751
2183 0 98.4653 15.0002 1477 63.0501 454.661 543.791
2184 0 99.4278 13.9699 1389 64.5796 455.274 541.212
2185 0 104.616 14.5867 1526 63.1756 455.571 541.002
2186 0 107.422 14.1126 1516 63.6102 455.935 538.801
2187 0 112.359 14.7385 1656 62.8176 456.174 536.359
2188 0 116.294 15.8306 1841 60.5861 456.375 532.831
2189 1 64.0951 10.4532 670 63.6269 456.433 559.125
2190 0 68.1511 11.005 750 62.724 456.512 557.459
2191 0 70.05 12.02 842 61.8646 456.495 554.314
2192 0 73.119 12.7464 932 61.8069 456.66 553.323
2193 0 76.1208 13.2947 1012 60.8419 457.131 550.538
2194 0 78.1688 12.6649 990 61.0424 456.944 549.915
2195 0 80.2694 14.0153 1125 59.7058 457.115 547.878
2196 0 84.0904 12.8195 1078 61.4165 457.153 546.438
2197 0 85.1181 12.9585 1103 61.3898 457.16 545.324
2198 0 90.1714 13.5852 1225 60.102 457.153 544.258
2199 0 90.2258 13.7101 1237 60.3985 457.195 542.555
2200 0 94.2355 13.5724 1279 60.3315 457.25 539.905
2201 0 97.2278 14.07 1368 59.848 457.205 540.307
2202 0 98.2658 13.9723 1373 61.6868 457.529 536.296
2203 0 101.077 13 1314 62.9224 457.433 536.697
2204 0 106.206 14.0106 1488 61.4462 457.825 533.83
2205 0 108.196 13.9469 1509 61.7893 457.745 532.632
2206 0 111.233 13.8178 1537 62.19 458.01 531.843
2207 0 117.219 14.9549 1753 60.7171 458.687 528.957
2208 0 118.227 14.1507 1673 62.1064 458.538 527.817
2209 0 122.363 14.4324 1766 61.2797 458.539 525.202
2210 0 126.218 14.3324 1809 61.7999 458.748 523.715
2211 1 70.3111 10.226 719 62.6398 458.328 550.548
2212 0 73.4615 10.8901 800 61.4062 458.659 548.945
2213 0 74.307 11.2372 835 61.1749 458.701 547.929
2214 0 79.2198 12.3328 977 59.9693 458.879 547.472
2215 0 80.2105 11.9186 956 60.7699 459.014 545.289
2216 0 83.2344 11.8341 985 61.064 459.103 540.477
2217 0 85.1432 11.9446 1017 61.1967 459.755 539.475
2218 0 88.3137 13.1916 1165 59.903 460.036 537.33
2219 0 92.2908 12.6015 1163 60.2124 460.19 535.214
2220 0 95.2764 12.6159 1202 60.4018 460.193 536.488
2221 0 99.2143 13.0526 1295 60.1197 460.253 532.351
2222 0 103.45 13.5041 1397 59.4603 459.966 532.797
2223 0 105.328 13.1494 1385 60.4354 459.831 532.23
2224 0 108.29 13.0114 1409 61.0177 460.028 530.371
2225 0 111.251 13.519 1504 60.9195 459.62 526.231
2226 0 116.466 13.1626 1533 60.9126 459.886 525.622
2227 1 67.1528 10.4091 699 60.3247 459.783 550.572
2228 0 71.1636 10.9747 781 61.137 459.307 549.471
2229 0 72.3899 12.7642 924 59.6807 459.56 547.523
2230 0 73.168 11.6718 854 60.8852 459.152 550.5
2231 0 75.2044 10.9302 822 61.9611 459.129 549.383
2232 0 77.2764 12.2806 949 60.4752 459.345 547.094
2233 0 81.2516 12.9105 1049 60.2297 459.346 543.756
2234 0 84.1258 12.4456 1047 61.0277 459.62 541.726
2235 0 87.1454 12.3931 1080 61.1417 459.183 541.006
2236 0 91.2073 12.5757 1147 60.7925 459.299 538.886
2237 0 93.299 12.5618 1172 60.9795 459.142 538.248
2238 0 94.2024 13.4498 1267 60.0608 458.751 536.369
2239 0 100.232 13.788 1382 59.6867 459.107 535.305
2240 0 103.409 14.4185 1491 59.5292 458.843 531.324
2241 0 107.339 14.198 1524 59.5092 459.079 532.486
2242 0 109.269 13.7093 1498 60.3431 458.747 532.343
2243 0 113.236 13.6441 1545 60.9592 459.594 528.801
2244 0 114.303 12.9568 1481 62.3059 459.251 527.398
2245 0 119.291 13.2282 1578 62.3986 459.027 524.823
2246 0 123.421 13.0448 1610 62.4565 459.147 523.224
2247 1 67.1586 10.0508 675 62.203 459.317 552.135
2248 0 67.0795 10.7186 719 61.0014 459.086 554.309
2249 0 73.3253 11.6195 852 60.0857 459.099 552.39
2250 0 74.1002 11.3495 841 60.7931 458.736 552.353
2251 0 75.0988 12.0641 906 61.0011 458.962 551.055
2252 0 77.1718 12.375 955 60.8293 457.883 549.65
2253 0 77.1292 12.317 950 62.3063 457.922 546.476
2254 0 81.132 12.9296 1049 61.6349 457.376 545.142
2255 0 85.0936 13.0445 1110 61.7441 457.89 544.337
2256 0 86.1201 12.6451 1089 62.584 457.747 543.582
2257 0 89.1012 13.0077 1159 62.0794 457.395 542.919
2258 0 94.2342 13.3816 1261 61.1975 457.784 541.504
2259 0 96.2552 13.2668 1277 61.6727 457.453 540.58
2260 0 98.2587 13.4034 1317 62.6902 457.919 538.596
2261 0 101.296 13.9196 1410 62.0652 457.718 538.557
2262 0 103.333 13.3549 1380 62.7275 457.772 536.057
2263 0 108.366 14.4787 1569 61.0051 458.616 535.556
2264 0 110.403 13.8764 1532 62.5503 458.753 533.839
2265 0 113.264 13.6936 1551 62.7318 458.716 534.5
2266 0 116.502 15.2014 1771 61.8007 458.655 529.828
2267 0 119.408 13.4748 1609 63.6663 458.828 531.711
2268 0 122.435 14.9631 1832 62.4503 458.828 527.549
2269 0 124.314 13.4257 1669 64.5075 458.687 525.95
2270 0 129.432 14.6795 1900 62.7684 458.863 524.177
2271 1 72.4695 10.2112 740 65.3568 458.834 552.65
2272 0 74.3776 10.6215 790 64.0532 458.537 552.597
2273 0 78.2655 11.8571 928 63.4353 458.892 549.006
2274 0 79.3879 12.1177 962 63.4459 458.84 546.129
2275 0 83.4063 12.553 1047 62.5788 458.658 544.85
2276 0 85.3765 13.4463 1148 62.0305 458.534 546.605
2277 0 86.19 13.5166 1165 62.63 458.073 544.498
2278 0 91.1623 12.8123 1168 62.2885 457.673 544.732
2279 0 93.2588 12.9747 1210 62.581 458.306 542.726
2280 0 97.345 14.1558 1378 60.7591 457.466 541.607
2281 0 97.2168 13.1356 1277 63.0149 457.433 540.714
2282 0 103.34 12.9863 1342 63.044 457.366 539
2283 0 105.288 13.6483 1437 62.1524 456.869 536.246
2284 0 108.342 13.2543 1436 62.8301 456.843 538.757
2285 0 108.203 13.3915 1449 63.3913 456.673 535.491
2286 0 114.47 13.96 1598 62.6658 456.595 532.902
2287 0 118.474 14.1044 1671 62.6744 456.795 530.755
2288 0 121.463 14.2842 1735 62.2853 456.43 530.243
2289 0 123.362 14.1859 1750 62.1406 456.518 526.055
2290 1 72.2828 10.2376 740 62.8027 456.446 553.491
2291 0 74.2735 10.596 787 61.4765 455.935 553.1
2292 0 75.4798 12.149 917 60.4111 456.303 548.615
2293 0 77.3977 13.0624 1011 60.1612 456.065 546.907
2294 0 79.2595 12.5411 994 61.0714 456.701 546.472
2295 0 82.2246 12.8672 1058 60.0907 456.386 547.406
2296 0 87.2118 13.1634 1148 59.3537 455.929 544.832
2297 0 89.145 13.1247 1170 60.3034 456.211 542.691
2298 0 90.1893 13.0614 1178 60.9134 456.313 541.931
2299 0 94.2054 13.6404 1285 59.2887 456.581 541.445
2300 0 99.2004 13.8911 1378 58.7257 456.748 539.538
2301 0 101.17 13.2945 1345 59.7613 456.249 535.512
2302 0 103.238 13.5318 1397 59.7895 456.518 535.48
2303 0 106.349 13.672 1454 59.87 456.379 534.861
2304 0 108.216 13.1681 1425 61.0168 456.387 533.784
2305 0 113.202 13.2594 1501 60.8341 456.355 530.795
2306 0 116.187 14.2443 1655 59.8302 456.5 530.377
2307 0 120.251 14.0456 1689 60.2534 456.035 530.583
2308 0 125.149 14.8782 1862 59.2234 456.434 528.392
2309 0 128.107 14.6518 1877 59.8871 455.531 526.733
2310 0 133.171 14.8155 1973 60.0897 455.836 523.489
2311 1 146.398 10.1504 1486 64.4879 455.608 527.142
2312 0 145.354 12.5143 1819 62.4002 455.96 522.375
2313 0 145.371 14.6315 2127 61.118 455.93 514.864
2314 0 146.402 14.1529 2072 62.3378 456.266 514.808
2315 0 152.415 14.2046 2165 62.3058 456.392 511.78
2316 0 158.454 13.5813 2152 63.2546 456.367 509.86
2317 0 163.599 15.3362 2509 61.3208 456.795 507.03
2318 0 167.535 14.0747 2358 63.2642 457.081 508.419
2319 0 174.422 15.2561 2661 62.3375 457.174 502.678
2320 0 179.589 15.2013 2730 62.7436 457.211 499.482
2321 0 186.596 16.1633 3016 61.5149 457.906 494.816
2322 0 192.478 14.9056 2869 63.3904 457.931 490.777
2323 0 197.555 14.6542 2895 63.9309 457.72 488.912
2324 0 205.404 16.2655 3341 61.7821 457.717 483.149
2325 0 212.566 15.8398 3367 62.4197 457.997 479.329
2326 0 223.517 18.7592 4193 58.4465 457.982 467.971
2327 0 227.666 16.1509 3677 62.0427 458.011 465.517
2328 0 235.509 15.7913 3719 62.5717 458.28 466.91
2329 1 181.375 11.4404 2075 66.6593 458.472 496.617
2330 0 188.562 12.6749 2390 65.41 458.775 492.378
2331 0 194.303 13.5407 2631 64.5238 458.996 487.282
2332 0 201.408 14.493 2919 63.3984 458.992 483.655
2333 0 205.391 13.8371 2842 64.5693 458.802 481.353
2334 0 211.351 14.2464 3011 64.2607 458.501 478.253
2335 0 221.391 14.8832 3295 63.0091 459.084 476.032
2336 0 227.415 14.1723 3223 63.821 458.944 471.7
2337 0 239.457 14.6623 3511 62.6995 459.233 469.271
2338 0 245.438 14.8551 3646 63.0494 459.715 459.087
2339 1 184.254 11.5113 2121 63.4455 459.424 501.189
2340 0 190.18 12.4776 2373 63.8289 460.06 490.1
2341 0 195.347 11.733 2292 64.175 460.205 491.389
2342 0 203.404 13.4166 2729 62.5009 460.396 483.331
2343 0 210.533 12.8246 2700 62.6396 459.747 481.701
2344 0 217.505 13.9307 3030 61.5607 459.797 475.241
2345 0 224.71 13.6532 3068 61.6816 459.779 470.239
2346 0 230.447 13.9121 3206 61.4398 459.616 465.279
2347 0 238.63 13.083 3122 62.2508 460.026 455.02
2348 0 246.852 13.7491 3394 61.1597 460.306 458.887
2349 0 251.635 14.6363 3683 60.4176 460.588 451.492
2350 0 259.665 14.357 3728 60.8401 460.586 448.109
