time division length width area intensity CMx CMy
0 0 68.0496 13.4461 915 85.7661 292.753 567.647
1 0 72.2055 13.9325 1006 84.173 292.515 565.786
2 0 72.1565 13.2906 959 86.2461 292.418 565.393
3 0 75.286 13.3889 1008 86.7103 292.507 565.426
4 0 76.1318 13.1877 1004 87.5498 292.342 563.107
5 0 81.2375 13.4667 1094 84.8382 292.055 563.234
6 1 43.0721 11.9103 513 83.7135 291.799 581.536
7 0 42.0554 11.3422 477 86.1782 291.893 580.535
8 0 45.0874 12.0211 542 83.9373 292.349 580.026
9 0 47.1086 12.3757 583 83.3019 292.412 579.511
10 0 48.0552 13.1099 630 82.3857 292.392 577.951
11 0 49.0796 12.6325 620 83.5597 292.487 577.627
12 0 49.056 12.4552 611 85.0638 292.728 576.45
13 0 50.0722 11.9427 598 85.4197 292.226 576.615
14 0 53.1381 12.9097 686 83.2362 292.347 573.86
15 0 56.0584 13.254 743 82.0673 292.817 572.805
16 0 57.0838 13.1035 748 81.8142 292.424 572.771
17 0 59.0361 13.1106 774 81.8708 292.601 571.97
18 0 62.0925 12.9806 806 81.2171 292.458 571.524
19 0 63.0696 12.8112 808 82.0235 292.27 571.347
20 0 65.0983 12.9036 840 81.9155 292.792 569.156
21 0 67.1084 12.9045 866 82.1028 292.729 567.282
22 0 69.0686 12.6251 872 82.3096 292.915 567.612
23 0 72.0962 12.9133 931 81.6305 293.247 566.086
24 0 73.1029 12.4072 907 82.9162 293.265 564.595
25 0 76.1329 12.7671 972 82.1677 293.102 563.713
26 0 79.0665 12.8247 1014 82.0513 292.721 561.096
27 0 82.0865 13.2178 1085 103.938 292.853 561.244
28 1 43.0568 10.2423 441 81.8231 292.408 580.413
29 0 45.0584 10.3199 465 81.6086 292.938 578.948
30 0 46.0457 10.7068 493 81.4726 293.316 579.187
31 0 48.0371 11.8866 571 79.3748 293.151 578.142
32 0 49.0675 12.4115 609 78.3333 293.246 577.88
33 0 52.0934 12.3048 641 78.2434 293.187 577.048
34 0 53.0768 11.7566 624 79.4279 293.095 574.543
35 0 54.136 12.1731 659 79.5948 293.733 575.193
36 0 56.02 11.8886 666 79.5916 294.087 574.974
37 0 58.0297 11.2873 655 80.5924 293.669 573.792
38 0 61.0475 11.0242 673 80.5201 293.536 574.097
39 0 64.1132 11.8696 761 80.8331 293.989 570.449
40 0 66.1258 11.6747 772 80.5389 294.473 570.429
41 0 68.0683 12.414 845 79.3207 293.999 571.302
42 0 71.1104 12.0798 859 79.837 294.275 568.322
43 0 74.073 12.2852 910 79.9868 294.2 565.424
44 0 75.0893 12.4252 933 80.5188 294.347 565.095
45 0 78.1585 13.3063 1040 79.1375 295.639 563.324
46 1 39.0614 10.1379 396 83.8939 295.338 582.199
47 0 42.098 12.1621 512 78.8047 295.238 581.795
48 0 43.1122 11.8992 513 79.9298 295.374 580.797
49 0 46.1847 12.1685 562 79.0534 295.286 580.027
50 0 47.1186 11.6515 549 80.5938 295.131 579.723
51 0 47.1974 12.5219 591 80.1658 295.739 578.934
52 0 49.1046 13.2574 651 79.02 295.568 575.846
53 0 50.1146 13.1499 659 80.1062 295.134 576.593
54 0 53.1533 13.0001 691 71.8495 294.654 575.349
55 0 53.0567 12.873 683 73.8331 295.286 574.177
56 0 56.1306 12.8629 722 73.4765 295.749 574.675
57 0 57.0548 13.005 742 72.3046 296.04 573.491
58 0 60.1547 13.6648 822 70.7871 295.755 573.075
59 0 58.0722 12.3295 716 75.602 296.088 572.246
60 0 62.1034 13.397 832 73.7091 296.531 571.465
61 0 63.1825 13.5322 855 74.9942 296.531 568.601
62 0 65.1747 13.8397 902 74.4058 296.305 567.786
63 0 68.1103 13.7571 937 74.6009 295.668 565.789
64 0 71.1368 13.6076 968 74.3905 296.206 564.931
65 0 72.2819 13.1291 949 76.8862 296.364 564.118
66 0 75.166 13.2374 995 76.0945 295.911 562.036
67 0 78.1533 13.4223 1049 76.3756 296.437 561.605
68 0 80.1402 13.5762 1088 75.9154 296.932 560.338
69 0 83.111 13.3556 1110 76.7369 297.709 558.756
70 1 44.1656 10.8456 479 76.7328 297.134 578.374
71 0 46.0263 11.0806 510 76.8784 297.743 577.069
72 0 47.0531 12.1565 572 75.4878 298.028 576.677
73 0 50.0698 12.6424 633 73.3681 298.171 576.109
74 0 51.1535 12.7264 651 74.1935 297.539 574.249
75 0 51.115 12.4621 637 75.6217 297.983 572.779
76 0 54.0883 13.3116 720 73.5556 297.236 571.682
77 0 57.1435 12.7923 731 73.7127 297.911 571.56
78 0 56.0743 12.1624 682 75.9575 297.305 571.421
79 0 58.0743 13.1039 761 74.2589 297.899 570.367
80 0 60.091 12.8971 775 74.969 297.796 568.764
81 0 62.0878 12.9333 803 75.6376 297.949 565.696
82 0 65.0961 13.4878 878 73.9749 298.759 565.719
83 0 67.1743 12.877 865 75.4624 299.03 562.667
84 0 71.1803 13.9364 992 72.5484 299.237 561.696
85 0 72.1334 13.2255 954 74.6488 299.723 561.549
86 0 74.0853 14.1189 1046 73.086 299.591 559.511
87 0 78.1319 13.5668 1060 73.3132 300.2 556.925
88 0 80.1264 13.4413 1077 73.7837 300.5 557.013
89 0 83.1118 13.7165 1140 73.6711 300.527 553.107
90 0 87.1902 13.6024 1186 73.4696 301.523 550.858
91 0 90.0728 13.2781 1196 74.5251 302.154 549.078
92 0 91.1446 13.7364 1252 73.016 301.665 548.72
93 0 95.0713 13.9474 1326 71.7436 301.688 545.763
94 0 98.0987 13.6699 1341 72.648 301.688 544.666
95 0 104.286 14.5944 1522 70.6636 301.613 542.743
96 1 53.0305 11.088 588 71.8571 301.337 568.07
97 0 53.0379 10.8036 573 72.9302 301.229 566.131
98 0 56.0754 12.394 695 70.2964 300.82 565.249
99 0 57.033 12.3262 703 69.8649 300.111 562.708
100 0 59.0323 12.4169 733 70.3233 300.638 561.325
101 0 61.0347 13.1728 804 69.8396 301.153 560.985
102 0 65.0315 13.2705 863 69.2804 301.171 561.18
103 0 64.0684 12.1589 779 73.4429 300.184 559.211
104 0 65.0397 12.0388 783 74.4649 300.213 558.439
105 0 70.0704 12.1877 854 73.4321 300.536 558.738
106 0 71.0506 13.2019 938 72.113 300.547 556.73
107 0 72.0429 12.2705 884 75.1131 300.66 554.649
108 0 75.0394 12.8333 963 73.9429 300.863 553.886
109 0 78.0613 12.5158 977 73.8352 300.843 555.611
110 0 82.0352 12.58 1032 73.6793 300.78 552.841
111 0 84.0986 12.5686 1057 73.9868 300.211 550.292
112 0 86.1407 12.6305 1088 73.4596 299.943 551.498
113 0 87.0445 11.7986 1027 75.3106 300.202 547.228
114 0 90.1623 12.6993 1145 73.062 300.022 546.671
115 0 96.1185 12.6198 1213 72.6917 299.946 546.187
116 1 53.0535 10.1219 537 72.0484 299.635 566.678
117 0 54.0366 10.4189 563 72.1741 299.313 565.178
118 0 56.055 10.347 580 72.6293 299.643 564.46
119 0 59.0215 11.5721 683 70.9575 299.498 563.575
120 0 61.0454 12.3351 753 69.9216 300.118 562.039
121 0 62.0636 11.8105 733 70.3438 299.613 561.367
122 0 64.1502 12.5175 803 69.3524 299.448 559.65
123 0 64.0945 11.5611 741 71.695 299.011 557.75
124 0 69.0678 12.5674 868 68.9631 299.41 557.624
125 0 71.162 11.9024 847 70.4805 300.24 554.959
126 0 72.2379 12.625 912 70.2171 299.373 555.262
127 0 75.2606 12.0913 910 70.9 299.067 554.421
128 0 77.2145 11.6429 899 72.3938 298.93 552.973
129 0 82.2992 12.1022 996 71.7139 298.701 550.408
130 0 84.2119 12.4092 1045 72.2641 298.319 548.027
131 1 43.0967 10.1632 438 71.5685 298.605 569.386
132 0 47.1069 9.9773 470 70.6809 298.717 570.332
133 0 47.0652 9.9224 467 70.666 297.964 570.107
134 0 51.07 10.3779 530 70.3962 298.909 568.623
135 0 50.0847 11.7201 587 70.7462 298.363 566.746
136 0 52.1402 10.6444 555 72.2342 298.438 567.166
137 0 53.0133 11.9593 634 70.7492 297.56 567.142
138 0 55.0694 11.8215 651 71.3733 297.797 567.214
139 0 57.1239 12.009 686 70.9883 297.907 565.248
140 0 57.0223 11.9602 682 71.9326 297.484 564.087
141 0 60.1581 11.4033 686 72.4052 297.939 565.146
142 0 60.0398 12.1086 727 71.6919 297.996 564.062
143 0 62.0183 12.3351 765 71.8026 297.792 561.988
144 0 63.0521 12.6245 796 71.5867 297.676 562.284
145 0 66.099 11.861 784 72.8788 297.74 562.089
146 0 69.102 11.9244 824 73.1153 297.716 559.555
147 0 72.039 12.3961 893 72.523 297.543 559.054
148 0 75.0548 12.4176 932 72.4903 297.46 558.809
149 0 77.2148 12.9768 1002 72.3633 297.443 557.026
150 0 79.0792 12.7341 1007 72.8729 297.574 556.546
151 1 42.0169 10.353 435 74.4805 297.264 573.494
152 0 44.0405 10.3541 456 73.7039 297.007 572.487
153 0 47.0931 10.9783 517 73.4333 297.116 571.089
154 0 49.0989 11.8333 581 72.704 296.924 570.522
155 0 49.0591 12.3525 606 72.2822 297.15 570.135
156 0 50.1152 11.8527 594 73.4175 296.604 569.072
157 0 51.0649 11.4756 586 73.9317 296.442 568.846
158 0 52.0783 12.6156 657 72.7017 296.25 568.399
159 0 56.0582 11.6664 654 73.1177 296.994 568.48
160 0 57.0768 12.0014 685 73.3839 296.816 567.288
161 0 58.1476 12.5027 727 73.4209 296.956 565.444
162 0 61.1186 12.7784 781 72.6735 296.659 563.718
163 0 59.1108 12.5696 743 74.354 296.847 563.042
164 0 63.0705 12.2878 775 74.6129 296.684 562.498
165 0 65.1946 12.4243 810 74.5679 297.341 561.115
166 0 67.1211 12.4402 835 74.9808 297.128 561.323
167 0 69.1594 12.4495 861 75.036 296.899 559.568
168 0 70.0638 12.3316 864 75.5903 296.875 559.847
169 0 73.3458 13.1296 963 74.3769 297.552 557.278
170 0 75.1214 12.8858 968 75.187 297.43 555.46
171 0 78.1683 13.2023 1032 74.4419 297.705 554.127
172 0 81.135 12.4977 1014 75.6805 298.159 552.388
173 0 86.179 12.6829 1093 74.6587 298.647 552.869
174 1 45.1132 9.88625 446 76.5897 298.57 572.025
175 0 45.0911 9.89108 446 77.1906 299.061 570.628
176 0 48.1718 11.4382 551 73.8857 298.9 569.287
177 0 49.1794 11.7732 579 73.6183 299.332 568.606
178 0 49.2233 11.3361 558 76.0358 299.685 567.272
179 0 55.2058 12.4987 690 73.058 299.735 566.559
180 0 54.1069 12.309 666 74.8273 299.881 565.923
181 0 56.0899 12.3373 692 74.9191 300.088 565.429
182 0 56.0779 12.8749 722 74.7438 300.555 563.819
183 0 58.1092 13.0272 757 74.8362 300.432 561.939
184 0 59.067 13.0868 773 75.4825 300.512 562.715
185 0 62.1653 13.1424 817 75.1506 300.353 560.186
186 0 63.248 13.1704 833 75.9604 300.875 559.01
187 0 63.2589 12.8678 814 77.1818 300.528 560.14
188 0 66.2156 12.6556 838 77.426 300.864 557.457
189 0 69.1709 13.2715 918 76.0218 300.526 558.182
190 0 72.1558 13.7064 989 75.3751 301.047 555.972
191 0 76.3761 13.9703 1067 74.0778 300.671 554.44
192 0 75.3098 13.3847 1008 75.5228 301.036 552.532
193 0 78.3297 12.8176 1004 76.0817 301.073 551.378
194 0 81.4867 14.0146 1142 72.9448 301.349 549.787
195 0 84.3362 14.4066 1215 70.9671 301.809 549.116
196 0 87.4126 14.1856 1240 70.5137 301.977 548.041
197 0 90.3437 13.5483 1224 73.0392 302.348 546.002
198 0 92.2785 13.6326 1258 74.7345 302.313 544.532
199 1 50.2797 10.6803 537 76.6853 302.084 566.605
200 0 52.215 11.0888 579 76.3955 302.2 565.055
201 0 53.1691 11.0214 586 77.9488 302.491 562.138
202 0 55.0634 10.951 603 76.995 303.154 563.128
203 0 59.0458 11.7875 696 75.1624 302.573 562.062
204 0 59.0682 12.6125 745 74.949 301.907 561.788
205 0 61.0665 12.4618 761 75.23 301.947 560.633
206 0 63.0851 12.4594 786 75.0954 302.307 559.891
207 0 65.0618 12.9415 842 73.8836 302.629 559.897
208 0 66.0752 12.4404 822 74.7311 302.681 557.092
209 0 72.1466 13.1676 950 71.9442 302.663 555.858
210 0 73.064 12.6054 921 73.6656 302.782 554.105
211 0 74.0342 13.048 966 73.0932 302.148 552.594
212 0 78.1609 12.8709 1006 72.7823 302.22 553.857
213 0 81.1066 13.3528 1083 71.9686 302.226 551.166
214 0 84.2049 13.1584 1108 72.0171 302.44 549.406
215 0 87.2039 13.2219 1153 72.2845 302.618 547.312
216 0 87.239 13.2051 1152 72.2648 302.699 547.082
217 1 47.101 11.1887 527 72.1044 302.309 567.44
218 0 49.0645 11.0671 543 71.7661 302.029 565.47
219 0 49.1923 11.2619 554 71.3628 302.031 565.794
220 0 52.0852 12.3068 641 69.8861 302.509 565.218
221 0 54.0229 12.5873 680 69.2794 301.369 564.866
222 0 54.0229 12.5873 680 150.982 301.369 564.866
223 0 58.0978 12.7027 738 68.8604 301.302 563.692
224 0 58.0723 12.76 741 69.6734 301.054 563.011
225 0 59.1404 12.1406 718 70.9805 300.774 560.493
226 0 62.0708 13.4685 836 68.8074 300.444 559.331
227 0 65.0904 12.2138 795 69.3862 300.104 559.581
228 0 66.0598 12.7612 843 69.4413 300.722 558.49
229 0 69.0809 12.7532 881 69.1827 299.97 555.712
230 0 71.0506 13.2863 944 68.4915 300.386 556.537
231 0 72.0447 13.3389 961 69.1707 300.441 554.249
232 0 75.1098 12.8878 968 69.5888 300.103 555.068
233 0 76.1506 12.8692 980 69.7888 300.392 553.768
234 0 80.2421 13.4094 1076 68.6468 300.349 550.634
235 0 82.405 12.7055 1047 69.8682 299.551 550.124
236 0 84.3715 12.9309 1091 70.0284 299.258 547.493
237 0 90.4343 12.8602 1163 69.1393 298.96 547.175
238 1 47.0601 10.6885 503 69.0915 298.565 567.72
239 0 49.0793 9.88196 485 69.5979 299.355 568.188
240 0 51.1754 10.083 516 69.4671 299.791 567.907
241 0 53.0874 10.8312 575 67.9061 299.678 567.275
242 0 56.0553 12.345 692 65.8858 299.027 565.473
243 0 57.1103 12.1169 692 66.6301 298.747 563.743
244 0 58.1017 11.7208 681 67.7533 298.85 563.316
245 0 61.0922 12.5548 767 66.4615 299.348 562.546
246 0 62.0433 12.6202 783 66.4623 299.249 562.192
247 0 64.0758 12.7661 818 66.2628 299 560.935
248 0 66.1079 12.9485 856 66.3797 299.06 559.334
249 0 66.1475 12.971 858 67.2296 299.21 559.2
250 0 69.0982 13.4012 926 66.2678 299.508 559.113
251 0 71.1589 13.4066 954 66.8585 299.257 557.71
252 0 74.0697 12.5692 931 67.4694 299.633 556.985
253 0 77.1641 12.441 960 67.8969 300.142 556.314
254 0 80.1173 13.7673 1103 65.9438 299.457 554.534
255 0 81.2013 12.9555 1052 68.2063 299.543 555.148
256 0 82.1736 13.0942 1076 69.1441 300.342 552.976
257 0 87.1077 13.1446 1145 68.6489 300.387 551.983
258 0 90.3227 13.7839 1245 68.1904 300.37 550.506
259 0 92.1603 13.9865 1289 68.3196 300.42 550.14
260 0 94.1341 13.7888 1298 69.7157 300.118 548.065
261 0 96.3034 13.6548 1315 70.9734 300.158 546.404
262 0 98.4293 12.9433 1274 72.781 300.122 543.59
263 0 103.447 13.0695 1352 71.4771 300.402 543.139
264 0 105.407 13.1869 1390 72.1676 300.049 540.47
265 0 110.386 13.3169 1470 71.9265 299.251 540.897
266 0 112.345 13.6277 1531 72.7936 299.662 537.318
267 0 116.294 13.7066 1594 72.8532 299.695 536.563
268 0 120.305 13.5156 1626 73.0129 300.097 533.129
269 0 124.212 14.3948 1788 71.8261 299.959 532.216
270 0 126.162 13.6254 1719 74.1227 300.181 529.483
271 1 64.1129 10.1228 649 74.3867 299.946 562.456
272 0 68.1546 11.0631 754 72.7016 300.172 562.536
273 0 70.1382 11.8908 834 71.9844 299.891 559.562
274 0 74.2447 11.7315 871 72.1561 299.688 557.732
275 0 75.1711 12.1855 916 72.3461 299.797 557.055
276 0 77.2042 12.4216 959 71.8738 300.064 556.127
277 0 81.1936 12.6611 1028 70.8658 300.311 554.228
278 0 85.1334 13.1793 1122 69.8235 300.162 551.977
279 0 85.2751 12.0199 1025 72.3483 300.223 549.234
280 0 88.2173 12.0725 1065 72.0798 300.403 549.204
281 0 93.2338 12.8494 1198 70.3715 300.174 546.551
282 0 92.2423 12.001 1107 73.0641 300.392 544.327
283 0 95.2658 12.7853 1218 72.0452 300.736 542.818
284 0 102.23 12.5697 1285 71.193 300.727 542.226
285 0 104.152 13.173 1372 70.707 300.78 539.069
286 0 107.363 12.984 1394 71.2762 301.115 538.629
287 0 111.184 12.4208 1381 72.0384 300.839 538.106
288 0 112.279 13.4486 1510 71.5318 300.948 533.811
289 0 116.313 13.1456 1529 71.9876 301.685 533.01
290 0 119.229 13.5118 1611 70.9696 301.95 531.993
291 0 123.245 13.2419 1632 71.9473 301.982 530.298
292 0 129.276 13.506 1746 71.567 302.333 527.166
293 0 132.298 13.1748 1743 72.4228 302.782 525.325
294 0 135.265 13.2925 1798 72.7842 303.147 521.851
295 0 140.367 13.5715 1905 73.2084 303.678 520.004
296 0 145.141 13.5041 1960 73.8643 303.749 515.704
297 0 151.215 13.709 2073 73.8948 303.89 514.378
298 0 156.41 14.347 2244 73.0945 304.414 511.639
299 0 161.332 13.5807 2191 74.8873 304.236 509.047
300 0 167.425 13.7793 2307 74.6233 304.797 504.995
301 0 175.352 14.0517 2464 74.2114 304.707 502.813
302 1 79.2248 11.2465 891 72.7643 305.517 549.483
303 0 85.2084 11.9707 1020 71.5618 305.298 548.843
304 0 85.1522 11.5793 986 73.5527 305.262 546.509
305 0 89.2402 11.8893 1061 72.5316 304.88 544.165
306 0 92.167 12.3146 1135 71.0564 305.1 543.958
307 0 95.1807 12.0718 1149 72.0009 304.848 541.85
308 0 98.2192 12.0445 1183 71.885 304.729 541.299
309 0 100.257 12.1587 1219 72.1378 304.78 537.858
310 0 104.183 12.4396 1296 71.5988 305.237 537.068
311 0 108.193 11.729 1269 72.6816 304.534 533.791
312 0 112.224 12.7869 1435 70.6174 304.439 533.81
313 0 114.25 12.14 1387 71.9899 304.727 530.639
314 0 118.195 12.6317 1493 70.8386 304.687 529.413
315 0 121.196 12.4674 1511 71.7498 304.283 525.521
316 1 53.2479 9.42761 502 68.3845 304.167 563.723
317 0 54.0714 10.2457 554 68.7022 303.079 561.047
318 0 56.0528 10.615 595 67.8723 302.708 560.98
319 0 59.0784 11.0362 652 66.5552 301.86 559.771
320 0 61.1502 11.529 705 66.478 303.472 557.98
321 0 60.2491 12.2325 737 66.4423 302.674 557.716
322 0 64.1974 12.0254 772 65.9378 303.058 555.759
323 0 65.2303 10.9612 715 67.6881 302.785 555.786
324 0 66.1615 11.7591 778 67.0373 303.046 554.359
325 0 69.1131 11.2569 778 67.5733 302.649 554.351
326 0 70.2027 11.3243 795 67.8302 303.062 553.165
327 0 73.1458 11.7163 857 66.9218 302.554 551.324
328 0 75.1679 11.6007 872 66.8853 302.674 549.502
329 0 76.1212 11.3503 864 67.669 301.953 549.738
330 0 79.1649 11.6339 921 66.3757 301.779 547.543
331 0 81.2326 11.1285 904 66.8175 301.865 546.552
332 1 41.0144 8.82617 362 64.0967 300.878 567.622
333 0 44.063 10.2807 453 63.1788 301.205 566.768
334 0 46.1285 10.1022 466 63.5322 301.442 566.27
335 0 46.0672 11.9608 551 61.5172 301.766 565.757
336 0 46.071 11.0482 509 63.4754 301.179 565.391
337 0 50.0573 11.5668 579 61.0864 301.311 564.94
338 0 50.2224 11.5486 580 61.7431 301.66 565.183
339 0 52.2108 11.1663 583 61.6175 301.31 565.039
340 0 52.1639 12.0965 631 62.0127 301.217 562.021
341 0 54.11 11.8462 641 62.6022 301.239 561.424
342 0 58.1056 12.3912 720 61.1917 300.992 560.815
343 0 57.0599 12.2503 699 62.5665 300.96 561.634
344 0 59.0506 12.5316 740 62.7797 300.809 557.438
345 0 61.0931 12.1454 742 63.6321 301.039 558.04
346 0 61.0196 12.8483 784 63.2462 300.866 557.958
347 0 62.0361 12.4605 773 64.4812 300.768 556.97
348 0 63.043 12.8484 810 64.2049 300.536 556.307
349 0 67.0502 13.6614 916 62.9214 300.654 558.158
350 0 66.0261 13.6915 904 63.8794 300.456 556.054
351 0 67.0907 13.4296 901 65.5616 300.527 554.859
352 0 68.0839 13.9828 952 65.5756 300.736 555.242
353 0 72.0532 13.7399 990 65.8343 300.717 554.471
354 0 73.0457 14.0871 1029 66.1895 301.051 553.855
355 0 76.0691 14.3685 1093 66.194 300.934 551.679
356 0 78.0408 14.2874 1115 66.3372 300.948 552.766
357 0 80.1737 14.2191 1140 67.2904 301.268 551.582
358 0 83.1401 14.4335 1200 67.5292 301.773 550.011
359 0 85.1629 13.6444 1162 69.0336 301.727 547.902
360 0 89.0942 14.6362 1304 68.0015 301.897 546.482
361 0 90.1111 14.2713 1286 69.3103 301.619 545.884
362 0 93.0754 14.6655 1365 68.8645 301.875 545.262
363 0 96.1006 13.9645 1342 70.1878 301.654 542.319
364 0 99.0967 14.2386 1411 70.3643 301.797 540.805
365 0 102.067 13.9811 1427 70.8612 301.306 540.796
366 1 50.0803 11.3218 567 69.9489 302.078 566.926
367 0 54.0538 11.3776 615 69.4049 302.257 565.265
368 0 55.0397 11.5008 633 69.2006 302.261 564.466
369 0 56.1242 12.4189 697 68.5753 302.527 563.337
370 0 56.0523 11.5071 645 70.2496 302.184 562.684
371 0 58.1031 12.3745 719 68.9082 302.62 562.216
372 0 61.1387 12.2018 746 69.3901 302.326 561.365
373 0 63.0883 12.8708 812 68.2882 302.698 559.634
374 0 64.0728 12.8448 823 68.8214 302.62 558.835
375 0 65.0507 12.8054 833 68.8848 302.255 558.236
376 0 68.1988 13.2847 906 67.2461 302.459 555.574
377 0 69.1189 13.0789 904 67.6206 302.688 555.343
378 0 72.0632 13.4188 967 67.5729 302.8 553.281
379 0 72.1873 12.7862 923 69.1939 302.871 552.158
380 0 76.1795 13.5207 1030 68.2505 302.675 551.689
381 0 77.0865 13.9843 1078 68.2542 303.127 550.606
382 0 80.181 14.0183 1124 68.1477 303.341 550.384
383 0 82.2672 13.4562 1107 69.7696 303.618 547.705
384 0 87.1936 14.0263 1223 68.8774 303.97 545.153
385 0 89.2252 13.7517 1227 69.6373 304.141 543.941
386 0 92.1949 13.2762 1224 69.9649 304.496 542.87
387 0 95.1635 13.4505 1280 69.6344 304.73 542.055
388 1 52.1157 10.8029 563 69.1616 304.989 564.27
389 0 52.4691 11.1875 587 68.5537 305.358 563.898
390 0 55.2573 11.2383 621 68.5024 305.435 561.374
391 0 56.094 12.1938 684 67.3406 305.13 559.579
392 0 57.2404 11.5303 660 68.3227 305.394 559.305
393 0 62.1139 12.1873 757 66.4756 305.554 558.106
394 0 62.1662 11.421 710 68.0901 305.482 558.217
395 0 66.1692 12.1507 804 66.6405 305.341 555.694
396 0 66.1902 11.7993 781 67.5608 305.625 555.222
397 0 69.2135 11.5729 801 67.7316 305.657 554.642
398 0 71.275 12.3325 879 66.9192 305.742 552.54
399 0 75.1258 11.9799 900 66.9689 305.608 551.48
400 0 77.2887 12.2657 948 66.3143 305.938 549.312
401 0 80.274 12.4324 998 66.3477 306.248 548.43
402 0 82.2818 12.044 991 67.2048 306.319 546.998
403 0 85.26 12.5029 1066 66.47 306.075 543.999
404 0 89.1248 12.4544 1110 66.2315 306.499 544.419
405 1 49.2569 9.86663 486 65.3272 306.691 563.391
406 0 49.0896 10.2262 502 65.1235 306.438 563.853
407 0 52.0459 10.4715 545 65.2917 306.123 563.734
408 0 52.2006 10.9961 574 64.6899 305.34 561.427
409 0 53.0412 11.2554 597 63.5042 305.429 560.358
410 0 54.0869 11.3521 614 63.1987 305.806 559.106
411 0 55.0945 11.3986 628 63.4761 305.682 559.844
412 0 58.0445 11.6807 678 62.7021 305.389 558.611
413 0 57.1466 11.7417 671 63.1282 305.037 557.531
414 0 63.2405 11.9544 756 61.6045 304.821 557.791
415 0 62.1645 12.676 788 62.3198 305.26 556.948
416 0 64.0648 11.6288 745 64.004 305.174 554.6
417 0 64.107 12.5103 802 62.9526 304.615 554.768
418 0 68.1517 11.6358 793 63.1992 304.366 554.175
419 0 69.2286 12.3937 858 62.9301 303.921 551.808
420 0 70.1363 12.4472 873 62.6827 304.057 552.17
421 0 72.18 11.9978 866 63.3672 303.956 550.819
422 0 76.0469 12.5186 952 62.9464 304.06 548.471
423 0 79.2172 11.8535 939 63.4047 303.868 548.614
424 0 81.1796 13.0328 1058 62.3072 304.129 546.336
425 0 83.1057 12.5864 1046 62.935 303.033 545.311
426 0 87.1574 12.9765 1131 62.4324 302.969 543.609
427 1 48.0311 9.93106 477 63.6059 302.725 564.916
428 0 53.0759 10.9466 581 62.0465 302.792 562.873
429 0 51.2236 10.1711 521 63.7294 302.42 561.28
430 0 55.1379 11.6798 644 61.7857 302.517 561.447
431 0 57.0709 11.6347 664 62.3479 301.755 560.262
432 0 57.0821 11.9827 684 62.3904 302.197 560.023
433 0 59.1079 12.4857 738 62.4621 302.752 559.665
434 0 60.1429 12.437 748 62.766 302.471 558.461
435 0 62.1325 12.5216 778 63.1247 302.838 558.076
436 0 63.2261 12.479 789 63.8796 303.099 557.778
437 0 67.1421 13.3597 897 62.4359 302.701 556.47
438 0 66.2868 13.2455 878 63.7995 302.89 556.144
439 0 70.265 13.2498 931 63.7744 302.818 555.281
440 0 72.2806 13.0741 945 63.8275 302.766 554.394
441 0 72.1968 12.8676 929 65.1529 302.622 553.939
442 0 76.1466 13.6316 1038 63.9364 302.276 551.847
443 0 78.3813 13.7278 1076 64.0288 302.313 551.402
444 0 82.1138 13.8954 1141 63.2594 302.919 551.885
445 0 82.2978 13.196 1086 65.7357 302.569 550.425
446 0 84.2323 13.9851 1178 64.7343 303.297 548.081
447 0 89.3161 14.2975 1277 63.7251 303.117 546.937
448 0 89.2805 13.0936 1169 66.083 302.929 546.002
449 1 49.133 11.0313 542 66.3856 302.841 566.974
450 0 52.1703 11.9608 624 64.7196 302.864 565.606
451 0 51.1704 11.4519 586 65.7474 302.52 565.927
452 0 54.2251 12.2821 666 64.1351 302.518 564.207
453 0 55.1496 12.7471 703 63.9659 302.485 562.201
454 0 58.1597 12.9471 753 63.3108 302.467 563.238
455 0 57.1161 12.3258 704 64.9077 301.999 562.638
456 0 61.2038 12.2542 750 64.3227 301.937 562.251
457 0 63.2107 12.9725 820 63.8695 301.889 560.162
458 0 64.2085 13.1758 846 63.9657 301.593 559.84
459 0 66.2276 13.0912 867 64.301 301.186 558.353
460 0 68.1405 12.2394 834 65.8873 301.823 557.068
461 0 71.1768 12.9818 924 65.2359 301.482 556.738
462 0 71.1849 12.9943 925 66.4584 301.744 556.099
463 0 75.1873 13.6725 1028 65.4173 301.81 554.549
464 0 78.1501 13.7684 1076 65.552 301.664 553.199
465 0 78.1664 13.2154 1033 67.4192 301.526 553.106
466 0 83.3036 12.9046 1075 67.6326 301.814 551.898
467 0 86.1996 13.6079 1173 67.1415 301.819 550.13
468 0 87.2472 12.7683 1114 68.9856 301.811 549.267
469 0 90.18 13.2735 1197 68.3108 302.142 547.687
470 1 47.1129 10.443 492 69.4065 302.307 568.591
471 0 49.173 11.2257 552 68.7228 302.112 567.486
472 0 51.2343 13.2724 680 65.5426 301.641 566.057
473 0 52.1959 12.0316 628 68.0048 301.75 566.838
474 0 55.3095 13.1261 726 65.4656 301.471 566.853
475 0 54.0862 12.5171 677 67.9025 301.504 564.919
476 0 58.1093 12.9239 751 66.53 302.096 563.951
477 0 59.1836 11.76 696 68.3721 302.079 564.349
478 0 59.2001 13.0067 770 67.3675 301.697 561.969
479 0 62.2064 13.0694 813 67.4797 301.995 559.246
480 0 65.139 13.049 850 66.9741 302.212 560.085
481 0 66.2607 13.0545 865 67.9029 302.182 557.386
482 0 67.1857 12.5324 842 68.9074 301.758 559.213
483 0 72.1242 12.3814 893 68.6797 302.14 557.797
484 0 74.2004 12.5336 930 68.9473 301.522 556.066
485 0 76.1505 13.0268 992 68.2319 302.16 555.036
486 0 78.0771 13.064 1020 68.602 302.379 553.04
487 0 79.116 12.9557 1025 69.2907 302.224 549.392
488 0 84.1742 13.4721 1134 67.9162 302.24 551.194
489 0 85.0932 13.2443 1127 68.354 302.295 546.221
490 0 88.1664 13.1229 1157 68.1513 302.784 546.2
491 0 89.0452 13.2405 1179 68.5886 302.528 544.667
492 0 92.1038 13.3328 1228 68.4919 302.629 544.247
493 0 97.1304 13.034 1266 68.6003 302.818 541.976
494 1 51.132 9.79817 501 69.3034 302.868 563.387
495 0 55.1397 11.1716 616 66.5601 303.14 564.06
496 0 57.1056 11.3824 650 66.0923 302.582 562.337
497 0 59.1442 11.7679 696 65.783 302.039 560.862
498 0 61.1028 11.7671 719 65.5772 301.797 559.026
499 0 60.178 12.1639 732 66.0232 302.068 558.025
500 0 63.0786 11.2875 712 67.1629 301.757 557.826
501 0 65.1653 11.8775 774 66.5969 302.066 556.747
502 0 68.0993 12.2028 831 66.1552 301.918 556.231
503 0 68.0781 11.81 804 67.1493 302.443 555.203
504 0 72.1358 11.7833 850 67.5941 302.298 553.045
505 0 72.1492 12.2108 881 67.6686 302.271 553.53
506 0 74.1441 12.3273 914 67.9464 302.491 549.712
507 0 78.2206 11.7872 922 68.41 302.679 550.525
508 0 81.0985 12.0347 976 68.2244 302.335 549.597
509 0 84.2783 12.696 1070 67.1579 302.693 547.054
510 0 84.2007 13.4322 1131 67.2599 302.524 545.682
511 0 90.2309 12.7783 1153 67.6314 302.472 544.615
512 0 93.1734 13.1261 1223 66.9182 302.135 544.24
513 0 96.2855 12.3902 1193 68.8466 302.056 541.89
514 0 97.1587 13.1229 1275 68.2627 302.293 540.184
515 1 53.1486 9.85914 524 67.8053 302.011 564.109
516 0 57.138 11.0609 632 64.307 302.373 563.347
517 0 57.0661 10.9172 623 65.5746 302.817 562.597
518 0 57.1025 11.3655 649 65.3821 302.975 561.834
519 0 60.1 12.0466 724 63.7127 302.559 561.644
520 0 62.0265 11.882 737 64.3121 302.739 558.908
521 0 64.1081 11.5274 739 65.1691 302.475 558.497
522 0 67.0817 11.4487 768 64.7721 302.617 557.396
523 0 66.047 11.6432 769 65.117 302.498 557.661
524 0 70.0964 10.9278 766 66.1958 302.474 555.289
525 0 73.177 12.1623 890 64.3258 302.378 555.93
526 0 74.1133 11.9952 889 65.7165 302.4 554.478
527 0 76.1845 11.9578 911 65.955 302.716 551.551
528 0 78.141 12.1959 953 66.2267 303.134 551.051
529 0 82.2364 12.7073 1045 65.2938 302.553 549.206
530 0 82.0932 12.5954 1034 66.5416 302.922 546.497
531 0 88.1749 12.4639 1099 66.0537 303.146 547.487
532 0 87.192 12.9026 1125 66.7244 303.292 544.344
533 0 92.093 12.6937 1169 66.7519 303.481 544.129
534 0 95.1847 13.5106 1286 65.5117 303.956 542.721
535 0 98.1154 12.2815 1205 67.3062 303.63 540.97
536 0 101.142 13.1202 1327 66.6556 303.121 537.317
537 1 55.0805 9.58597 528 66.8125 302.884 561.131
538 0 56.0627 10.7915 605 65.1405 302.77 562.193
539 0 58.1313 10.5623 614 65.8241 302.539 558.966
540 0 59.0478 11.1943 661 65.9228 302.688 557.713
541 0 61.0475 11.3846 695 66.2662 302.719 557.573
542 0 63.1477 12.162 768 65.8333 302.694 555.447
543 0 66.106 12.3892 819 65.6899 302.65 555.8
544 0 69.0862 12.9548 895 64.2156 302.297 555.036
545 0 71.2249 12.1165 863 65.5191 302.137 553.249
546 0 71.1421 12.707 904 66.1471 302.169 551.448
547 0 74.1546 12.1098 898 66.6693 301.741 550.284
548 0 77.1528 11.9373 921 66.544 301.796 550.904
549 0 80.301 13.1381 1055 64.8237 301.603 548.391
550 0 83.1381 12.6777 1054 66.0465 301.733 547.5
551 0 85.2571 12.6793 1081 66.4847 301.916 545.146
552 0 87.1512 13.1955 1150 66.227 301.981 543.823
553 0 90.1838 12.8183 1156 66.917 302.176 542.385
554 1 47.0855 8.49519 400 67.385 301.565 566.098
555 0 51.0401 9.99215 510 66.5882 301.255 564.129
556 0 48.0108 8.51892 409 68.6553 301.372 564.027
557 0 51.0145 10.252 523 66.8642 301.434 562.576
558 0 54.0549 10.8963 589 66.1545 301.358 560.375
559 0 55.0144 12.215 672 64.6414 301.518 560.731
560 0 55.1122 11.7578 648 66.162 301.552 561.208
561 0 60.0932 12.0979 727 65.0688 300.961 560.508
562 0 58.0487 11.8349 687 67.8937 301.307 558.958
563 0 61.0775 11.8538 724 67.6381 301.626 559.593
564 0 62.0435 12.0722 749 67.745 301.31 558.039
565 0 62.1598 13.0792 813 66.4736 301.412 557.615
566 0 64.1175 12.8826 826 66.7119 300.708 557.517
567 0 64.0986 12.5744 806 67.8784 301.017 556.314
568 0 68.1599 12.8228 874 67.2586 300.677 555.888
569 0 71.144 13.2548 943 66.4252 300.58 555.291
570 0 71.1653 12.6607 901 68.2664 300.796 553.683
571 0 75.2165 13.6539 1027 66.8277 300.704 551.181
572 0 75.1028 13.1953 991 68.3724 301.046 551.723
573 0 78.2108 13.1312 1027 67.9211 301.892 549.633
574 0 80.1682 13.5465 1086 68.174 301.432 548.167
575 0 85.1912 14.4851 1234 65.2877 301.403 548.409
576 0 87.353 13.9663 1220 67.4852 301.288 545.77
577 0 89.1539 13.3365 1189 68.8251 301.171 545.771
578 0 91.2043 14.155 1291 68.0868 300.538 544.11
579 0 92.199 13.7746 1270 69.1047 300.668 541.669
580 0 97.246 14.3039 1391 67.7743 300.211 540.518
581 1 52.0514 10.9699 571 68.6795 300.182 563.349
582 0 54.0376 11.5845 626 67.6565 300.179 563.379
583 0 55.0471 10.1368 558 69.7151 299.199 563.254
584 0 58.0766 11.5365 670 67.6478 299.69 560.616
585 0 60.1665 12.0665 726 66.8884 299.295 561.083
586 0 58.1173 12.5436 729 67.0837 299.043 560.043
587 0 62.1986 12.2189 760 66.4303 299.309 561.105
588 0 64.1277 12.7714 819 66.1819 299.435 558.827
589 0 65.1664 12.399 808 66.9691 299.151 558.48
590 0 67.1127 12.9484 869 66.8493 299.235 557.348
591 0 69.1894 13.5859 940 65.767 298.965 556.684
592 0 71.17 13.4888 960 66.4729 299.772 555.525
593 0 74.1352 13.354 990 66.9535 299.458 553.695
594 0 77.0946 12.9192 996 67.2189 299.322 555.093
595 0 78.06 13.4896 1053 66.7854 299.009 552.498
596 0 81.1931 14.0899 1144 66.1276 299.177 550.899
597 0 83.1355 13.893 1155 66.8667 299.274 549.558
598 0 84.1734 13.983 1177 66.8207 298.98 550.167
599 0 87.1758 13.3982 1168 68.0642 299.501 547.947
600 0 89.1278 12.7345 1135 69.1207 299.183 546.882
601 0 93.1333 13.5183 1259 67.4805 299.01 545.092
602 0 96.2524 13.5789 1307 67.4032 299.047 543.42
603 0 97.2085 13.4865 1311 67.8795 299.14 542.438
604 0 101.174 13.0962 1325 68.5638 299.124 541.086
605 1 56.0838 11.0727 621 67.2866 299.502 565.96
606 0 58.1764 11.5683 673 68.1486 299.321 564.785
607 0 59.1939 11.8931 704 68.7528 299.146 564.455
608 0 59.1177 12.6527 748 68.357 298.85 563.048
609 0 63.0268 12.9627 817 66.8776 298.487 562.646
610 0 65.0294 11.9177 775 68.3652 298.297 560.197
611 0 70.0363 12.4507 872 67.0241 298.406 558.202
612 0 72.0768 12.5699 906 66.3002 298.826 558.267
613 0 72.1071 12.1625 877 68.008 298.87 556.777
614 0 74.1611 13.2819 985 67.2376 299.162 555.195
615 0 77.128 13.0822 1009 67.9029 298.945 554.509
616 0 78.1719 13.3168 1041 68.1105 298.961 552.6
617 0 79.0924 12.5676 994 69.6419 299.032 551.422
618 0 82.1076 13.4823 1107 68.0027 298.987 550.553
619 0 85.1791 12.7613 1087 69.0681 299.067 549.464
620 0 86.0808 12.9878 1118 69.3497 298.934 547.537
621 0 92.1417 13.2513 1221 68.294 299.63 546.27
622 0 95.1628 13.7449 1308 67.8761 299.691 544.317
623 0 98.1536 13.2344 1299 69.154 299.913 542.43
624 0 101.172 14.0949 1426 67.8913 299.447 541.886
625 0 106.233 14.2047 1509 67.1206 299.753 540.569
626 1 56.0217 11.5313 646 67.7988 298.977 564.602
627 0 57.0846 11.264 643 68.0389 299.451 564.547
628 0 58.0699 11.1417 647 68.4498 300.266 563.408
629 0 62.1956 12.7662 794 65.8199 300.436 562.894
630 0 63.1326 12.3866 782 67.202 300.627 561.367
631 0 66.097 13.1473 869 66.3602 300.725 559.382
632 0 68.0554 12.5927 857 67.245 300.043 559.17
633 0 69.0607 11.8012 815 68.4785 299.955 558.921
634 0 72.0822 13.3043 959 66.2899 300.494 557.184
635 0 76.062 13.134 999 66.3924 300.541 555.383
636 0 76.1228 13.2812 1011 67.1345 300.633 553.598
637 0 79.1351 13.0663 1034 67.5387 300.625 552.004
638 0 83.2114 13.2674 1104 67.1422 300.744 551.139
639 0 86.1218 13.9105 1198 66.2938 300.683 548.864
640 0 87.2724 13.1313 1146 68.1213 301.053 547.799
641 0 90.1354 12.7586 1150 68.7243 301.545 546.177
642 0 93.0927 13.8572 1290 67.4853 301.477 544.976
643 1 50.0746 10.2647 514 69.0428 302.037 566.899
644 0 51.161 11.6886 598 66.8595 302.395 567.221
645 0 52.0398 11.9524 622 68.9791 301.781 564.011
646 0 54.1099 12.4192 672 67.9836 301.948 562.676
647 0 56.1062 11.6386 653 69.2496 301.565 561.357
648 0 58.0432 12.4735 724 67.4475 302.329 560.41
649 0 58.1701 12.2228 711 68.353 302.539 560.084
650 0 60.1201 12.0925 727 68.0894 302.7 559.399
651 0 63.1005 13.0902 826 66.161 302.778 558.364
652 0 66.1683 13.1483 870 65.7931 301.764 556.04
653 0 68.154 12.281 837 67.1637 301.94 554.811
654 0 70.0683 12.3308 864 66.8843 301.703 553.988
655 0 73.2297 11.9077 872 67.117 301.774 553.359
656 0 74.0995 12.6317 936 66.172 301.999 551.985
657 0 79.1061 13.7158 1085 64.3558 302.451 549.912
658 0 81.2357 12.4453 1011 66.1454 302.926 549.57
659 0 82.1053 13.0929 1075 65.6381 302.61 545.841
660 0 86.1064 13.1465 1132 65.2111 303.174 546.086
661 0 89.1857 12.8272 1144 65.3934 303.041 542.825
662 0 91.2145 12.4103 1132 66.2553 303.566 541.909
663 1 50.111 10.1974 511 67.1585 302.472 563.063
664 0 50.1157 10.6953 536 67.2444 303.032 560.966
665 0 53.205 10.826 576 66.2205 302.861 561.83
666 0 55.0828 12.2361 674 64.3798 303.185 559.678
667 0 55.0583 12.4595 686 65.3601 302.517 558.573
668 0 57.0357 12.7464 727 64.9092 302.695 558.514
669 0 60.0913 11.8486 712 64.9382 303.271 558.743
670 0 61.1429 12.5117 765 64.6536 303.748 557.465
671 0 63.1551 12.5406 792 65.178 303.931 554.76
672 0 66.1332 12.5051 827 65.1149 303.94 554.151
673 0 67.1274 13.0349 875 65.1017 304.243 552.797
674 0 69.1234 12.5862 870 65.9598 304.468 551.599
675 0 71.157 12.9151 919 65.0544 304.407 550.571
676 0 72.1196 12.7011 916 65.5699 304.557 551.751
677 0 76.1802 12.6805 966 65.4917 304.514 549.433
678 0 76.1601 12.5525 956 66.3285 304.454 547.108
679 0 83.1925 12.9218 1075 64.52 304.803 546.432
680 1 43.2715 10.9079 472 64.6441 304.487 564.803
681 0 46.1615 10.225 472 66.4047 304.479 563.794
682 0 45.1348 11.2552 508 65.7185 304.425 563.831
683 0 46.1396 11.2268 518 65.8996 304.884 564.799
684 0 49.1071 11.9535 587 64.9302 305.104 562.698
685 0 48.0939 12.7043 611 65.7152 305.072 560.93
686 0 51.174 12.0178 615 66.426 305.205 561.402
687 0 50.0723 11.8629 594 68.4226 305.187 560.446
688 0 53.1096 12.5024 664 67.2982 304.7 560
689 0 52.0278 12.9354 673 68.3447 304.704 558.744
690 0 56.1598 13.6575 767 66.2216 304.312 560.003
691 0 56.1307 12.4887 701 69.3894 303.738 558.495
692 0 58.301 12.9672 756 68.7526 303.886 557.919
693 0 60.0878 13.3139 800 68.3675 304.198 555.901
694 0 63.2099 13.2258 836 68.0598 303.482 555.234
695 0 63.2375 13.726 868 68.0611 303.619 553.433
696 0 63.2375 13.726 868 172.001 303.601 553.417
697 0 69.2326 13.433 930 67.7237 303.573 553.304
698 0 70.1307 13.5034 947 68.0803 303.15 551.405
699 0 72.2214 12.8771 930 69.0065 303.329 551.6
700 0 74.1231 13.4236 995 68.5799 302.756 548.601
701 0 76.1547 13.0524 994 69.3652 302.447 547.445
702 0 79.2053 13.6733 1083 68.8513 302.783 545.515
703 0 81.1842 13.4139 1089 69.3921 302.86 543.678
704 0 86.187 14.3989 1241 68.0395 303.029 544.348
705 0 86.1792 13.704 1181 69.5809 302.996 542.542
706 1 47.1462 10.7538 507 70.1736 302.629 564.351
707 0 49.1055 11.0171 541 70.7893 302.869 563.248
708 0 51.1405 11.6933 598 70.2207 302.786 562.619
709 0 53.3246 12.302 656 79.939 302.7 561.721
710 0 53.2144 12.2335 651 81.1198 302.33 560.892
711 0 54.0477 12.8035 692 80.7197 302.793 560.376
712 0 58.0593 13.469 782 78.9885 302.063 560.409
713 0 58.029 12.4937 725 82.9117 302.233 557.949
714 0 60.0543 13.9207 836 81.2177 301.624 558.472
715 0 61.0412 12.7782 780 84.4526 301.694 559.235
716 0 63.0448 12.6418 797 85.5947 301.679 557.449
717 0 64.2195 13.3137 855 85.3181 301.029 557.37
718 0 66.1931 14.4124 954 83.8983 301.073 555.83
719 0 69.2444 13.6762 947 85.2239 301.828 554.649
720 0 69.1742 13.5166 935 87.0246 301.596 554.686
721 0 74.1256 13.9493 1034 86.2108 301.442 553.634
722 0 75.2074 13.5226 1017 87.527 301.239 553.883
723 0 77.2297 12.547 969 90.0361 301.013 553.978
724 0 79.3084 13.4664 1068 89.8109 300.842 549.967
725 0 83.3224 13.4298 1119 90.008 300.779 548.641
726 0 87.323 13.639 1191 89.0663 300.677 547.114
727 0 89.2711 13.543 1209 89.8213 300.903 546.951
728 0 91.358 13.2884 1214 91.8715 300.859 544.211
729 1 49.1105 11.3418 557 91.3411 300.057 565.808
730 0 52.0613 11.813 615 91.813 300.281 564.228
731 0 52.2149 12.5635 656 91.0701 300.151 564.902
732 0 54.043 13.0452 705 91.8567 300.844 563.105
733 0 57.0926 13.7146 783 91.5926 300.171 561.529
734 0 56.2335 12.8038 720 95.0083 300.386 561.957
735 0 58.1239 12.439 723 95.0249 299.967 561.243
736 0 61.0185 13.3238 813 94.1353 299.357 559.924
737 0 60.1465 12.6524 761 95.6938 299.357 557.819
738 0 65.0959 13.1652 857 94.6791 299.089 558.401
739 0 68.064 13.2669 903 95.0244 299.405 556.138
740 0 70.1023 13.0238 913 96.0274 298.999 556.133
741 0 73.0845 13.4365 982 95.9695 298.984 553.095
742 0 74.0629 13.2725 983 97.3876 298.969 551.904
743 0 75.1807 14.0063 1053 97.2982 298.886 548.642
744 0 77.3034 12.8455 993 99.0262 299.284 551.614
745 0 80.1852 12.6956 1018 99.2466 299.054 550.517
746 0 84.1485 13.4762 1134 99.1658 299.159 548.914
747 1 41.0735 11.1507 458 100.159 298.773 567.068
748 0 46.0801 11.3281 522 99.3889 298.914 567.693
749 0 45.0392 10.9904 495 100.907 298.859 569.451
750 0 47.0901 12.3381 581 100.327 299.071 568.384
751 0 49.0582 12.6584 621 100.18 299.549 568.481
752 0 48.0679 11.9206 573 93.2304 299.675 568.017
753 0 50.0467 13.7072 686 91.4636 299.573 566.118
754 0 52.0535 13.7359 715 91.8517 299.263 566.885
755 0 52.0514 13.5827 707 93.2645 299 565.45
756 0 50.0723 12.8814 645 96.693 298.547 564.952
757 0 54.0544 13.1349 710 95.7662 298.845 564.68
758 0 56.0647 16.3739 918 90.9052 298.841 566.686
759 0 57.0593 13.4071 765 95.1516 298.238 565.159
760 0 59.1315 13.1402 777 95.2703 298.559 564.615
761 0 60.1571 13.498 812 95.2512 298.818 563.887
762 0 63.1675 13.7729 870 94.446 299.432 563.239
763 0 61.0998 14.1244 863 96.5527 299.413 562.216
764 0 64.0678 14.0788 902 97.5621 299.336 560.786