time division length width area intensity CMx CMy
0 0 68.2679 12.114 827 79.5961 753.683 562.705
1 0 71.1473 11.7643 837 81.2975 753.471 559.671
2 0 74.2128 12.801 950 79.0768 753.436 559.6
3 0 77.2584 12.5553 970 79.2557 753.379 558.294
4 0 79.2722 12.6526 1003 79.1366 753.206 557.293
5 0 81.3464 12.1456 988 80.0071 752.803 555.129
6 0 85.4228 12.7366 1088 77.5322 752.734 554.634
7 0 86.5809 12.1851 1055 78.4919 752.973 553.595
8 0 92.5524 11.6366 1077 79.4058 753.352 550.765
9 1 48.4257 9.31323 451 77.8869 753.947 573.718
10 0 50.3955 10.6756 538 76.7844 753.576 571.013
11 0 52.3002 11.6826 611 73.9149 753.756 572.025
12 0 53.2342 11.0831 590 75.2966 752.91 570.151
13 0 53.1114 11.0711 588 76.5289 752.452 569.378
14 0 54.2138 10.6984 580 77.6983 752.59 567.724
15 0 56.2154 10.9578 616 75.6299 753.049 568.417
16 0 58.2676 11.2584 656 74.5671 752.776 566.669
17 0 59.3772 10.9301 649 75.8367 753.046 565.393
18 0 61.2494 11.0205 675 75.1867 753.031 565.253
19 0 62.4599 11.5914 724 75.0677 752.844 564.851
20 0 66.1586 11.6538 771 74.2698 753.411 563.978
21 0 65.1741 12.1828 794 74.4509 753.348 564.111
22 0 69.2732 11.9382 827 74.4099 753.561 561.7
23 0 71.2005 12.4297 885 73.2712 754.095 561.744
24 0 73.4851 11.7711 865 74.6382 754.052 559.672
25 0 76.3455 12.1291 926 73.6102 753.929 559.219
26 1 38.2832 8.67222 332 74.6325 753.864 578.127
27 0 41.1936 9.83162 405 96.0864 753.933 577.723
28 0 43.2672 9.03687 391 74.3683 753.381 573.082
29 0 44.3833 9.17012 407 73.312 753.786 573.506
30 0 47.2879 10.6581 504 70.2361 753.976 574.345
31 0 46.1959 11.343 524 70.624 753.676 572.897
32 0 50.1635 11.4227 573 69.2548 753.92 573.044
33 0 50.0995 11.2177 562 70.3559 754.036 571.993
34 0 52.1549 11.5234 601 68.9667 753.913 569.907
35 0 53.1708 11.1151 591 69.8376 754.613 570.609
36 0 55.1216 11.139 614 69.627 754.795 568.634
37 0 56.2224 11.4011 641 69.5273 754.571 568.529
38 0 56.1864 10.4652 588 71.7789 754.43 567.49
39 0 61.114 11.6176 710 69.3915 754.975 566.765
40 0 63.2889 12.7037 804 67.2276 755.721 566.746
41 0 64.2532 11.9683 769 68.2718 755.233 567.039
42 0 65.1795 12.3505 805 68.7093 755.632 564.276
43 0 69.2951 11.7324 813 69.5289 755.715 563.169
44 0 69.25 12.4188 860 69.1965 756.392 562.17
45 0 69.2827 12.8171 888 69.5405 756.927 559.78
46 0 73.213 12.7709 935 69.3465 756.847 559.743
47 0 76.2722 12.167 928 70.555 756.731 559.069
48 0 77.584 12.5284 972 70.6924 756.289 557.861
49 0 81.3011 12.3492 1004 70.9841 756.381 556.833
50 0 84.3977 12.0027 1013 71.4215 756.063 554.185
51 1 42.1093 8.7154 367 71.8665 757.313 574.738
52 0 45.1169 9.17616 414 70.9831 756.983 573.094
53 0 45.1111 9.62069 434 70.8525 756.486 572.926
54 0 48.0823 10.2533 493 63.5659 755.917 570.931
55 0 49.078 11.0233 541 64.122 756.593 570.575
56 0 50.1775 11.7583 590 64.7119 756.975 572.983
57 0 52.1475 12.0619 629 62.8442 756.967 570.027
58 0 54.1476 12.2258 662 62.9169 756.946 570.393
59 0 55.1436 11.2252 619 64.9257 757.402 570.64
60 0 58.1444 12.4346 723 62.8963 757.61 566.427
61 0 60.1134 12.2269 735 65.2272 757.683 566.925
62 0 59.0797 11.2729 666 67.536 757.344 565.483
63 0 63.0702 12.1452 766 65.1514 756.642 565.205
64 0 64.0351 11.9466 765 66.315 757.068 561.744
65 0 65.0754 12.5547 817 65.9045 757.424 562.849
66 0 66.0844 12.5748 831 66.2671 757.153 559.466
67 0 70.0561 13.0324 913 65.1468 757.536 560.359
68 0 72.0822 12.7355 918 65.5033 757.552 558.413
69 0 76.0601 12.6873 965 65.0435 758.266 559.138
70 0 77.0398 12.0717 930 65.6118 757.51 556.732
71 0 81.0597 12.756 1034 64.5648 757.822 555.622
72 0 85.2624 13.3939 1142 64.0429 758.377 552.62
73 0 86.1516 13.1164 1130 65.031 758.46 552.229
74 1 47.1244 10.3556 488 66.1127 758.389 570.684
75 0 48.0407 10.9074 524 65.5344 758.832 569.794
76 0 50.1112 11.2749 565 64.9469 758.903 569.773
77 0 50.0695 11.7636 589 65.7351 759.311 569.946
78 0 53.0954 11.9596 635 65.4504 758.69 567.584
79 0 54.2833 12.1769 661 65.6944 758.909 568.048
80 0 55.1537 12.6374 697 65.8034 758.789 565.851
81 0 57.0848 12.5252 715 65.8476 758.927 564.98
82 0 58.0924 13.0482 758 65.5092 759.64 563.046
83 0 59.1929 12.6029 746 66.7735 759.958 562.779
84 0 61.1606 12.7206 778 66.1452 760.091 562.852
85 0 65.1053 13.363 870 64.6954 760.729 561.336
86 0 65.1588 12.9069 841 66.1046 760.514 559.835
87 0 67.2112 12.9294 869 66.2681 760.898 557.942
88 0 67.051 12.8559 862 67.1555 761.302 557.805
89 0 70.2171 13.4725 946 66.7135 761.323 555.447
90 0 73.2705 13.3751 980 67.0296 762.2 553.587
91 0 77.2585 13.5131 1044 67.2931 762.919 551.036
92 0 77.1845 13.9018 1073 67.8686 762.898 551.348
93 0 81.3719 14.0589 1144 66.6626 763.14 550.281
94 0 84.2722 14.4057 1214 67.042 762.891 548.117
95 0 87.3706 14.3183 1251 67.1671 762.801 545.607
96 1 46.2823 10.1119 468 68.2457 763.791 568.417
97 0 47.1115 10.6768 503 68.8926 763.396 566.495
98 0 47.1899 11.0193 520 68.8538 762.987 566.06
99 0 50.0941 11.2588 564 67.8936 762.564 565.383
100 0 51.1559 12.0612 617 67.4895 762.708 563.169
101 0 51.0564 11.4579 585 69.3265 763.113 562.217
102 0 53.1096 12.7096 675 67.2815 762.04 561.547
103 0 56.1505 13.5351 760 67.0118 761.453 560.374
104 0 55.1582 13.1984 728 69.4918 761.199 559.341
105 0 59.2267 13.6425 808 67.8168 761.64 558.791
106 0 60.1734 13.1121 789 68.5932 761.49 558.806
107 0 61.0761 12.9019 788 70.014 761.753 556.609
108 0 65.1447 13.754 896 68.1138 761.827 556.521
109 0 65.0934 14.0567 915 68.223 761.942 555.705
110 0 68.1793 14.0805 960 68.2594 761.864 555.633
111 0 68.1712 13.3781 912 70.7993 761.456 553.966
112 0 71.2715 13.0347 929 71.9526 761.258 551.981
113 0 73.1781 13.474 986 71.5233 761.621 550.131
114 0 78.1789 13.4307 1050 70.7248 761.343 549.88
115 0 80.167 13.9334 1117 70.4754 761.385 547.95
116 0 81.2279 13.0374 1059 72.7526 761.472 546.64
117 0 83.2448 12.9017 1074 73.459 761.352 546.561
118 0 87.216 13.6328 1189 72.3524 761.652 544.918
119 0 89.1659 13.5814 1211 73.0966 761.349 544.666
120 0 94.2012 13.7896 1299 72.6151 761.857 541.825
121 1 48.0682 10.2563 493 73.4462 762.002 562.781
122 0 52.0565 10.5846 551 72.3557 761.866 562.189
123 0 56.0719 11.7171 657 69.9346 761.481 559.725
124 0 56.0747 11.77 660 70.2985 761.485 560.226
125 0 56.0803 11.965 671 70.8554 761.499 558.373
126 0 60.1222 13.0068 782 69.6471 759.417 558.343
127 0 63.1145 12.3268 778 69.8432 759.343 558.987
128 0 62.1123 13.3951 832 69.5373 759.267 556.031
129 0 66.1642 12.9526 857 69.6196 759.134 555.828
130 0 67.1302 12.662 850 70.4953 758.611 554.852
131 0 69.061 13.003 898 70.6403 758.893 553.384
132 0 72.0966 12.9687 935 70.3283 759.067 552.761
133 0 74.2026 13.4497 998 69.6683 758.132 551.827
134 0 77.1998 13.4845 1041 69.7896 759.085 550.473
135 0 80.1177 13.1057 1050 70.8552 758.793 548.955
136 0 82.2037 13.0529 1073 70.9786 758.958 548.425
137 0 85.1938 12.7826 1089 72.3398 758.88 546.145
138 0 88.207 12.8901 1137 71.9173 759.141 545.184
139 0 93.2796 13.5185 1261 69.9302 759.374 544.075
140 1 47.283 9.30566 440 72.3182 758.757 565.916
141 0 47.283 9.32681 441 160.351 758.769 565.957
142 0 52.1648 11.3295 591 70.8257 759.183 564.232
143 0 52.1078 11.8792 619 70.2213 758.953 562.924
144 0 54.0868 11.6479 630 69.9571 758.913 562.941
145 0 55.0772 12.5642 692 69.4653 758.942 561.844
146 0 56.2082 11.8488 666 70.7087 758.305 562.979
147 0 59.15 12.5613 743 70.105 758.106 560.538
148 0 61.1787 12.9457 792 68.9874 757.942 560.693
149 0 61.1196 12.4837 763 70.7549 757.831 558.927
150 0 64.1881 12.8996 828 69.6196 757.935 557.636
151 0 69.2848 13.1486 911 68.0011 757.555 558.148
152 0 69.2627 13.4416 931 69.0827 757.097 553.878
153 0 71.2103 12.5965 897 70.2029 757.192 554.592
154 0 73.177 12.7499 933 70.9839 756.775 553.338
155 0 75.2151 12.2715 923 72.3012 757.055 550.322
156 0 79.1907 12.3752 980 71.8724 757.499 550.646
157 0 82.185 12.8612 1057 71.4096 757.244 549.622
158 0 85.1877 13.1709 1122 70.713 757.081 547.53
159 0 87.1725 12.699 1107 71.5845 757.563 546.478
160 0 91.2101 13.1345 1198 70.9432 757.467 544.984
161 0 96.3113 13.4356 1294 70.1561 757.736 543.772
162 1 51.1342 10.3844 531 72.0829 757.269 564.362
163 0 54.254 10.3587 562 70.4306 757.425 565.012
164 0 54.1373 10.9906 595 70.6185 757.119 563.79
165 0 56.1989 11.228 631 70.6656 757.696 561.395
166 0 57.157 12.142 694 69.8055 757.988 561.837
167 0 61.1694 11.7216 717 69.3124 757.213 561.184
168 0 62.2273 12.2615 763 68.7392 757.183 560.911
169 0 62.2393 12.1788 758 69.558 757.689 557.704
170 0 67.2216 12.4216 835 67.3665 757.577 557.467
171 0 67.2057 12.3799 832 68.0938 758 555.444
172 0 71.2658 12.9094 920 66.4011 758.65 554.734
173 0 72.2881 12.5885 910 67.7505 759.187 552.23
174 0 73.4124 11.5239 846 69.8132 758.767 551.702
175 0 76.324 12.2897 938 68.0043 759.394 549.026
176 0 80.4098 12.3741 995 67.9568 759.581 547.408
177 0 83.425 12.9697 1082 66.3383 760.014 546.586
178 0 85.4295 12.0567 1030 68.3583 760.417 543.578
179 0 88.5932 12.247 1085 68.0378 760.779 544.227
180 0 92.5673 12.0669 1117 68.5846 760.843 542.186
181 0 95.4105 12.6716 1209 67.646 760.978 540.605
182 0 97.493 11.7957 1150 69.3826 761.406 538.218
183 1 52.4359 8.9824 471 68.569 761.805 561.401
184 0 54.3938 10.6078 577 67.5615 761.688 559.724
185 0 56.3567 10.5755 596 67.1997 761.515 559.379
186 0 58.1905 11.3077 658 66.4119 761.225 557.81
187 0 58.105 11.703 680 67.4632 760.496 557.691
188 0 62.0805 12.3871 769 65.5956 760.848 554.479
189 0 62.2005 12.106 753 66.2258 760.433 555.456
190 0 64.1108 12.1196 777 65.4955 761.3 553.631
191 0 65.1091 12.1335 790 65.881 762.734 551.337
192 0 68.0847 12.2054 831 64.7136 762.884 550.309
193 0 68.0847 12.2054 831 144.798 761.884 550.309
194 0 74.084 12.3239 913 61.7021 762.944 549.631
195 0 76.1289 13.3852 1019 59.3641 763.52 546.729
196 0 78.2834 11.7138 917 60.8822 762.894 546.766
197 0 80.1575 11.914 955 63.0576 763.786 544.798
198 0 84.1873 11.4744 966 64.6387 763.573 544.786
199 0 88.2158 12.1747 1074 63.8613 763.441 540.834
200 0 90.1937 11.9077 1074 65.2235 763.615 539.868
201 1 47.057 9.18037 432 65.4884 762.905 561.116
202 0 51.108 10.2332 523 63.3423 763.031 560.562
203 0 49.0632 9.76292 479 64.048 762.599 559.361
204 0 52.0365 10.4542 544 63.5276 762.704 559.197
205 0 55.1509 11.8765 655 62.3908 762.757 558.315
206 0 56.0589 11.809 662 61.8958 764.551 556.784
207 0 56.0786 12.0367 675 63.3733 764.604 557.154
208 0 57.1842 11.8389 677 63.8538 764.702 555.408
209 0 60.122 11.5432 694 63.9712 764.706 555.053
210 0 62.1276 12.5065 777 63.0167 764.771 552.485
211 0 65.0363 11.4551 745 64.2752 764.208 552.306
212 0 67.1545 12.7318 855 62.2199 764.118 551.954
213 0 67.124 13.0803 878 62.9829 764.068 550.426
214 0 71.0709 13.1277 933 62.4405 763.211 550.437
215 0 73.0716 12.8915 942 63.1051 763.337 550.622
216 0 75.1665 12.6785 953 63.7692 763.591 548.64
217 0 78.1517 12.77 998 63.8307 762.987 547.206
218 0 78.1103 12.5336 979 65.094 762.779 545.284
219 0 82.0983 12.1683 999 65.8659 762.916 543.792
220 0 86.1161 12.9593 1116 64.5403 762.954 544.739
221 1 41.145 9.55159 393 66.6921 761.545 567.094
222 0 41.145 9.6245 396 162.27 760.548 567.227
223 0 45.0904 10.7118 483 64.9648 761.638 566.273
224 0 45.042 11.3894 513 64.5029 761.747 565.37
225 0 48.0483 12.092 581 63.7608 762.065 562.967
226 0 48.0409 11.3237 544 65.25 762.382 562.085
227 0 48.1631 11.8555 571 65.5797 761.182 562.436
228 0 51.3231 12.4116 637 64.3642 761.246 562.499
229 0 51.0767 12.4323 635 64.8724 760.973 560.296
230 0 53.17 11.924 634 65.0584 761.099 561.315
231 0 56.1446 12.1828 684 64.3465 761.532 559.317
232 0 56.0763 12.9823 728 63.8146 762.257 559.618
233 0 59.0576 12.9873 767 63.2973 762.492 558.166
234 0 59.0546 12.1582 718 64.8092 762.078 557.294
235 0 63.1023 12.9472 817 62.9168 761.247 557.86
236 0 63.1332 12.9251 816 64.1581 761.089 556.348
237 0 64.1548 12.1269 778 65.4075 760.801 555.257
238 0 65.1113 13.0239 848 64.625 760.921 554.416
239 0 69.1319 13.3947 926 63.2063 761.116 552.758
240 0 71.0629 13.2277 940 63.3702 761.272 551.764
241 0 73.0993 13.3654 977 64.0676 761.226 550.661
242 0 78.1824 13.5197 1057 62.9782 761.125 551.578
243 0 80.2481 13.6701 1097 62.969 760.858 549.923
244 0 83.1897 12.9583 1078 64.2514 760.494 547.74
245 0 86.2924 13.1066 1131 63.8364 760.9 547.31
246 1 42.2011 10.213 431 63.9722 761.063 568.093
247 0 44.1364 10.6261 469 63.9488 760.846 566.964
248 0 44.1364 10.5355 465 167.181 760.832 567.026
249 0 49.0727 11.9415 586 61.8942 760.933 566.602
250 0 50.2307 11.7458 590 62.8932 761.305 565.027
251 0 50.2299 12.6419 635 63.0661 760.606 564.665
252 0 54.139 12.2278 662 62.6057 760.722 564.733
253 0 52.2054 12.3167 643 64.7652 760.956 563.972
254 0 54.1771 12.5145 678 64.1062 760.462 562.456
255 0 55.1125 12.5561 692 64.4942 760.468 562.763
256 0 58.2235 13.0703 761 64.1629 761.271 560.745
257 0 59.1276 13.2764 785 64.3656 761.225 561.485
258 0 63.1768 13.2327 836 63.8684 761.1 561.087
259 0 63.1089 13.342 842 64.62 760.909 560.61
260 0 65.0964 12.9807 845 65.2604 760.591 560.144
261 0 67.1675 12.6698 851 66.4935 760.72 558.805
262 0 69.0675 13.0452 901 66.5472 760.569 557.144
263 0 71.2244 13.0573 930 67.2366 760.426 556.429
264 0 74.1661 13.5102 1002 66.6437 760.165 557.378
265 0 77.2407 14.3189 1106 65.9702 759.457 554.868
266 0 80.1924 13.0062 1043 68.6731 759.84 552.243
267 0 80.3377 13.0449 1048 69.5153 760.111 552.726
268 0 84.2537 14.0409 1183 67.8436 760.46 550.279
269 0 86.1858 13.9582 1203 68.7298 760.398 547.928
270 0 90.1397 12.9577 1168 70.6644 761.057 547.1
271 0 92.2597 13.4945 1245 70.2924 760.954 546.055
272 0 94.1722 12.8807 1213 71.5598 761.42 545.411
273 1 51.0833 10.2382 523 71.3939 761.168 568.117
274 0 54.1845 11.59 628 71.3742 760.946 565.858
275 0 55.2029 11.5755 639 71.9045 761.254 565.275
276 0 57.1503 12.5634 718 70.6253 761.486 563.933
277 0 60.2216 12.1219 730 72.0822 761.934 562.103
278 0 60.2441 12.9971 783 72.0396 761.529 559.465
279 0 61.1022 12.029 735 74.0667 761.498 560.031
280 0 64.2364 13.1857 847 71.7627 761.714 558.469
281 0 64.2356 13.3882 860 71.8721 761.573 557.331
282 0 68.2763 13.3428 911 71.5642 761.682 556.716
283 0 70.1581 13.6406 957 72.1473 761.89 555.48
284 0 70.2011 12.7776 897 74.4493 762.117 554.435
285 0 73.312 12.9583 950 74.1095 762.096 551.484
286 0 74.254 13.5346 1005 74.1274 762.48 551.599
287 0 78.2173 13.846 1083 73.3093 762.38 550.216
288 0 83.3058 13.5525 1129 73.5359 762.833 548.013
289 0 86.1384 13.2577 1142 74.5683 763.44 546.074
290 1 45.1928 10.7761 487 75.3717 764.099 565.723
291 0 46.1784 11.7587 543 75.291 764.409 564.947
292 0 47.0996 12.378 583 74.4991 764.69 563.918
293 0 48.0666 12.3995 596 74.5638 765.096 563.039
294 0 51.0939 13.2697 678 71.9808 765.159 562.168
295 0 50.1134 12.4518 624 75.1875 765.335 560.338
296 0 52.1127 13.2597 691 74.3459 764.958 559.438
297 0 53.1023 13.0879 695 74.5137 764.896 557.688
298 0 55.0783 13.2902 732 74.2582 765.462 558.56
299 0 57.187 13.5345 774 74.1718 765.239 557.45
300 0 59.1146 13.6514 807 73.8538 765.885 556.957
301 0 60.2551 13.0445 786 75.0064 765.873 556.389
302 0 62.0811 13.3696 830 74.9795 766.135 554.53
303 0 63.1829 12.9465 818 75.6308 766.029 554.434
304 0 67.093 13.6676 917 73.494 766.086 554.597
305 0 69.0673 13.8271 955 73.356 766.194 552.78
306 0 70.042 13.5776 951 73.8496 766.223 551.442
307 0 72.0712 13.778 993 73.5549 765.958 550.598
308 0 74.0757 13.3917 992 74.7117 765.886 549.219
309 0 77.0993 13.7744 1062 73.5847 765.993 548.318
310 0 78.0562 13.2597 1035 73.943 766.443 547.367
311 0 81.1152 13.7335 1114 73.3797 765.427 545.745
312 0 86.1291 14.2809 1230 71.7431 765.032 544.15
313 0 87.1607 14.0316 1223 72.1382 765.324 542.503
314 0 92.103 14.2666 1314 70.9589 765.298 539.443
315 0 94.1602 13.9974 1318 71.4932 764.606 536.796
316 1 47.0336 10.8858 512 71.3984 764.598 561.779
317 0 49.1381 11.661 573 69.3962 764.12 561.302
318 0 50.0923 11.5187 577 70.338 764.633 559.749
319 0 53.0397 13.2354 702 67.8917 764.561 558.225
320 0 53.0656 12.8143 680 68.6912 764.776 557.79
321 0 57.1669 13.3644 764 67.0602 763.788 557.183
322 0 58.0894 12.4291 722 68.6399 764.193 556.866
323 0 60.0925 12.8469 772 68.1464 764.022 554.944
324 0 62.0939 12.6099 783 67.94 764.236 554.261
325 0 62.0939 12.5938 782 156.812 765.243 554.23
326 0 66.0696 13.5009 892 66.7567 764.235 553.456
327 0 69.2068 13.3079 921 66.8165 764.163 551.038
328 0 70.0866 13.5547 950 66.7474 763.939 551.553
329 0 73.1238 13.6344 997 66.5807 763.177 549.714
330 0 75.1742 13.3024 1000 66.866 763.018 546.99
331 0 78.2191 12.938 1012 67.4111 763.158 546.529
332 0 82.1055 13.5679 1114 65.6131 762.969 546.206
333 0 83.2682 13.3424 1111 66.8929 762.892 542.977
334 0 86.1587 13.1037 1129 67.0461 763.103 543.858
335 0 89.2067 14.1581 1263 66.08 763.25 541.045
336 0 91.1398 13.6165 1241 66.5761 762.831 540.29
337 0 96.2036 14.4381 1389 64.5256 762.932 540.644
338 1 54.056 11.3216 612 65.8529 763.19 561.036
339 0 54.0237 10.7916 583 66.5935 762.727 560.964
340 0 56.0673 11.6645 654 66.7951 762.428 558.466
341 0 61.1747 13.7966 844 62.9941 762.427 558.425
342 0 61.1062 12.5683 768 65.6419 761.827 556.566
343 0 63.1969 12.5639 794 65.0252 761.7 556.482
344 0 66.0857 13.5582 896 63.4654 761.676 554.742
345 0 65.1062 12.3644 805 66.4037 761.937 552.738
346 0 71.1471 13.4791 959 63.6955 761.708 552.309
347 0 71.1248 12.9069 918 65.1416 761.624 552.533
348 0 74.1139 13.6142 1009 63.8593 761.402 550.033
349 0 76.1121 13.1779 1003 64.661 761.498 549.751
350 0 78.2512 12.9455 1013 64.9408 761.443 548.305
351 0 80.1261 13.8407 1109 64.3715 761.437 546.134
352 0 85.1152 13.7931 1174 63.5877 761.601 546.468
353 0 86.1951 12.8082 1104 65.5027 761.596 545.265
354 0 89.2992 14.0763 1257 64.0302 761.955 543.056
355 0 92.1824 14.4605 1333 64.0008 761.893 542.116
356 0 95.2032 13.739 1308 65.1651 761.872 540.219
357 0 99.1897 13.5498 1344 65.2976 762.218 540.222
358 0 99.2071 13.6684 1356 66.3075 762.481 537.869
359 0 104.311 14.7923 1543 64.1828 762.315 536.523
360 0 106.258 14.4648 1537 65.2713 762.534 534.617
361 0 112.485 13.9841 1573 65.8067 762.416 532.467
362 1 58.1838 10.484 610 67.3689 762.689 558.293
363 0 64.1621 12.2035 783 64.94 762.47 556.971
364 0 63.1765 13.2011 834 64.4137 762.673 555.929
365 0 65.0613 12.7111 827 65.3168 762.271 554.92
366 0 66.0588 11.9288 788 66.8084 762.584 553.286
367 0 70.1515 12.6441 887 65.1127 762.708 552.82
368 0 70.1515 12.7011 891 169.577 763.692 552.842
369 0 74.1105 13.237 981 64.9286 762.879 552.017
370 0 76.1417 13.1597 1002 65.7036 762.753 549.998
371 0 78.2374 13.229 1035 66.2473 763.385 548.114
372 0 80.0756 13.3624 1070 66.6477 763.079 546.062
373 0 83.1812 13.0679 1087 67.0064 763.527 545.592
374 0 87.1827 13.3513 1164 66.6924 763.704 543.585
375 0 90.1665 13.9852 1261 65.7082 763.426 543.033
376 1 47.1448 10.5208 496 65.4133 763.946 564.605
377 0 47.0393 10.0342 472 66.2606 764.18 564.206
378 0 50.0625 10.7665 539 65.8905 764.308 561.419
379 0 52.0194 11.6303 605 65.3455 764.501 559.646
380 0 52.1734 13.0143 679 64.2666 764.04 559.432
381 0 54.0925 13.8097 747 63.1379 763.89 559.874
382 0 55.1218 12.1368 669 65.7459 764.281 559.344
383 0 57.0916 12.5237 715 65.6853 764.414 557.235
384 0 59.287 12.5491 744 65.1438 764.661 557.794
385 0 60.0813 13.0989 787 65.305 764.785 555.7
386 0 63.0776 13.3645 843 64.6595 765.261 554.822
387 0 64.2206 12.7685 820 66.7902 765.301 553.956
388 0 67.1131 13.2463 889 65.8594 765.618 553.799
389 0 68.1647 13.218 901 66.5438 765.943 552.238
390 0 72.2601 13.3684 966 65.587 765.93 551.389
391 0 73.1726 13.393 980 66.9633 766.196 549.368
392 0 77.0895 14.1264 1089 65.2681 766.23 547.845
393 0 79.2292 13.7954 1093 65.7356 766.276 545.061
394 0 81.2872 13.2616 1078 66.5816 766.319 546.535
395 0 85.2036 14.1191 1203 65.2993 766.243 543.203
396 0 86.3025 13.0703 1128 66.523 766.535 542.668
397 1 45.1609 11.0272 498 65.4779 766.687 564.51
398 0 45.0203 11.3504 511 65.6204 766.947 563.476
399 0 44.144 10.2392 452 67.3673 766.863 563.316
400 0 48.1708 12.2273 589 64.3684 766.963 561.642
401 0 49.0289 12.0745 592 64.9037 767.213 561.723
402 0 51.0819 11.7067 598 65.087 767.022 561.097
403 0 51.182 12.5826 644 64.2034 766.856 559.736
404 0 53.1401 12.5329 666 64.1036 767.077 559.045
405 0 55.0653 12.2582 675 64.1837 767.056 558.433
406 0 55.084 12.7442 702 63.5028 766.819 558.16
407 0 57.2649 12.6605 725 63.6014 766.61 556.825
408 0 62.1403 12.9867 807 62.259 766.439 555.212
409 0 64.2069 12.8958 828 61.8273 766.891 554.528
410 0 65.2789 12.5308 818 62.8741 767.167 553.139
411 0 65.1835 12.7026 828 63.4239 767.016 552.007
412 0 69.1167 13.4844 932 61.5225 766.744 551.168
413 0 71.0958 13.3482 949 62.0738 766.423 549.834
414 0 75.1092 13.274 997 61.7332 766.258 548.807
415 0 76.0387 13.2301 1006 62.9235 766.648 546.631
416 0 80.0774 14.2987 1145 61.4122 766.628 544.217
417 1 40.0462 10.0384 402 63.5025 765.99 565.627
418 0 42.0555 10.819 455 63.6154 765.8 563.565
419 0 42.0414 11.227 472 62.2415 765.11 565.307
420 0 44.0425 12.1928 537 61.9292 765.445 562.404
421 0 44.1089 11.9024 525 62.5867 765.381 563.752
422 0 47.1778 12.3999 585 61.7726 765.106 562.532
423 0 46.0457 12.1401 559 63.1735 764.86 563.422
424 0 51.0535 13.0647 667 60.7571 765.172 560.537
425 0 50.1313 11.9287 598 63.1555 763.943 560.057
426 0 50.1313 11.9287 598 155.09 761.943 560.057
427 0 54.1347 13.1709 713 61.0996 763.955 560.496
428 0 55.182 12.0148 663 62.917 763.914 558.321
429 0 57.0761 13.0177 743 61.2423 763.398 558.341
430 0 60.1485 13.2838 799 61.199 763.379 556.945
431 0 63.0868 13.4259 847 60.9764 762.881 555.852
432 0 63.1867 13.3731 845 61.3396 763.583 555.452
433 0 64.0276 12.8538 823 62.3196 763.033 554.305
434 0 69.0635 13.35 922 61.6941 762.843 553.501
435 0 70.1919 12.6653 889 62.7694 763.079 551.931
436 0 75.1409 14.0536 1056 60.3513 763.298 551.834
437 0 76.1536 13.3809 1019 62.0707 763.127 548.249
438 0 79.3367 12.9196 1025 62.7571 763.233 549.289
439 0 83.135 13.8209 1149 61.7258 763.258 547.099
440 0 85.2184 14.1284 1204 61.6429 763.353 545.789
441 0 87.1168 13.6139 1186 62.7589 763.259 545.814
442 0 90.5668 13.9786 1266 62.2283 762.994 543.34
443 0 94.3001 13.6161 1284 62.8964 762.956 543.252
444 1 50.1673 11.8005 592 63.2095 763.672 565.512
445 0 50.1075 11.5951 581 65.0465 763.437 563.69
446 0 51.2395 13.3491 684 63.4444 763.841 563.417
447 0 53.1572 12.8487 683 64.2782 763.804 562.381
448 0 55.1243 12.6986 700 64.4529 763.513 562.486
449 0 56.1157 13.5256 759 63.4756 763.418 561.989
450 0 58.1965 13.0077 757 64.3818 763.429 559.458
451 0 63.3099 14.279 904 61.3993 763.633 558.364
452 0 62.4387 13.6614 853 63.1184 763.692 557.152
453 0 63.2531 13.6594 864 63.4792 763.545 555.478
454 0 67.1679 13.9799 939 62.4633 763.361 555.276
455 0 69.3114 14.2689 989 61.912 763.252 554.753
456 0 74.2696 14.0434 1043 61.4439 763.03 553.382
457 0 74.2247 14.4292 1071 61.4687 762.946 552.054
458 0 77.3474 13.6656 1057 61.9886 762.623 551.135
459 0 79.2923 14.2385 1129 61.9389 762.138 547.629
460 0 80.3853 13.5473 1089 63.1919 762.8 547.413
461 0 85.312 14.3122 1221 61.8919 762.462 545.141
462 0 86.2402 13.8219 1192 63.1854 762.754 544.294
463 0 88.2938 14.044 1240 63.35 762.853 542.793
464 0 94.3488 14.457 1364 62.1569 762.839 542.114
465 0 96.4539 13.6127 1313 63.7357 762.748 541.634
466 0 100.494 13.7918 1386 63.2359 762.902 539.476
467 1 55.2182 11.5179 636 63.9261 762.802 561.577
468 0 55.245 11.6753 645 63.9426 762.822 561.713
469 0 57.2395 11.6178 665 64.9504 763.057 561.311
470 0 61.3332 12.9946 797 62.7265 763.247 559.966
471 0 63.2294 13.1743 833 62.6819 762.972 557.989
472 0 64.3215 12.8884 829 63.5826 762.545 555.931
473 0 67.2424 13.1613 885 63.0215 762.836 557.678
474 0 70.2417 12.8414 902 63.7018 763.141 556.222
475 0 71.0809 13.5479 963 63.3998 762.907 554.915
476 0 75.3455 13.2457 998 63.5641 763.397 553.749
477 0 76.4058 14.1351 1080 63.1481 763.546 553.442
478 0 76.2845 12.8335 979 65.8662 763.321 550.872
479 0 81.4854 13.6466 1112 64.3759 763.463 550.299
480 0 85.4357 14.5607 1244 62.9019 763.764 547.841
481 0 88.4187 13.8319 1223 64.1766 763.662 546.42
482 1 47.1937 11.0608 522 64.4885 763.753 569.324
483 0 47.2192 11.0548 522 64.7203 764.216 568.471
484 0 50.1315 12.547 629 63.6041 763.582 566.763
485 0 53.058 12.8727 683 63.0454 764.114 564.287
486 0 53.198 13.4216 714 62.9748 763.765 564.144
487 0 54.2352 12.7039 689 64.537 763.377 561.521
488 0 55.2536 13.4109 741 63.7908 763.552 561.524
489 0 58.2374 13.1874 768 63.125 763.4 560.117
490 0 58.2166 12.3333 718 65.0627 763.87 559.968
491 0 60.1718 13.2122 795 63.9434 763.701 560.091
492 0 61.1876 12.9438 792 65.3258 763.843 558.465
493 0 65.1235 13.4514 876 64.1804 763.963 557.717
494 0 66.303 13.2422 878 64.8964 763.764 556.069
495 0 69.1653 14.0533 972 63.679 764.066 555.399
496 0 71.1869 14.3987 1025 63.7863 763.733 554.96
497 0 74.0785 14.0662 1042 64.5058 763.174 552.74
498 0 76.0408 14.1108 1073 64.8108 763.344 550
499 0 78.0936 14.2649 1114 65.1948 763.705 550.447
500 0 82.0848 14.5459 1194 64.9899 763.459 549.188
501 0 85.0507 13.8506 1178 66.0102 763.552 548.658
502 0 85.0954 14.3369 1220 66.0041 763.2 546.799
503 0 89.1523 14.2902 1274 65.5416 763.549 545.907
504 1 46.0663 11.592 534 67.5449 763.689 566.936
505 0 49.0606 10.9864 539 67.9907 763.664 565.952
506 0 50.0372 12.6306 632 67.8655 763.843 563.073
507 0 53.0329 13.1428 697 66.2095 763.945 562.555
508 0 54.0585 13.7444 743 65.825 763.59 562.489
509 0 55.0935 13.1231 723 66.657 763.772 561.133
510 0 59.0287 13.2986 785 66.4943 763.332 559.98
511 0 60.1471 13.0181 783 67.0728 763.39 559.845
512 0 62.0956 13.4631 836 66.4809 763.103 558.104
513 0 66.0796 14.4825 957 64.5559 763.089 557.699
514 0 67.0726 13.627 914 66.1969 763.28 556.708
515 0 68.097 13.9654 951 66.4953 763.263 554.293
516 0 70.1057 14.0787 987 64.5238 763.325 554.305
517 0 73.102 14.1173 1032 64.8159 763.746 553.171
518 0 75.073 13.8665 1041 66.1105 763.793 550.51
519 0 78.1453 13.91 1087 65.804 764.166 550.372
520 0 80.1062 14.1812 1136 66.1408 764.232 549.483
521 0 82.1997 12.6156 1037 69.0955 764.073 547.104
522 1 45.1312 11.3004 510 67.9353 764.192 566.414
523 0 44.035 11.8315 521 68.3935 764.202 566.309
524 0 47.0608 11.7508 553 68.217 764.022 564.929
525 0 49.0799 12.9177 634 66.5016 763.798 566.021
526 0 49.1265 13.0886 643 67.5801 763.93 565.16
527 0 52.0516 12.8142 667 68.4528 763.883 563.189
528 0 54.0207 13.0506 705 68.4894 764.153 562.586
529 0 54.0287 14.1962 767 67.133 763.63 561.186
530 0 55.0749 12.9823 715 69.0531 763.754 561.2
531 0 57.0168 13.8731 791 67.5411 763.769 560.547
532 0 59.0909 13.8261 817 67.6353 763.971 559.666
533 0 61.0728 13.8032 843 68.8719 764.142 557.329
534 0 63.0732 13.2069 833 69.5678 764.552 557.935
535 0 66.0243 14.2675 942 67.88 764.363 555.536
536 0 67.0701 14.3879 965 68.371 763.835 555.089
537 0 70.1347 14.3581 1007 68.4896 763.766 553.108
538 0 71.155 13.9414 992 69.0927 763.741 552.302
539 0 75.0692 15.2792 1147 66.8169 763.494 550.383
540 0 77.1616 14.3336 1106 68.9123 763.625 548.424
541 0 77.0668 13.8062 1064 70.8421 763.539 548.419
542 0 80.2141 14.9226 1197 68.9967 763.626 547.206
543 0 85.0769 14.9277 1270 69.0575 763.606 546.643
544 0 86.167 14.4255 1243 70.0788 763.253 544.946
545 0 90.1887 14.1481 1276 70.2085 763.02 543.032
546 0 92.2117 14.9005 1374 69.2715 763.114 542.1
547 1 48.0846 11.9165 573 71.2723 762.517 564.342
548 0 49.1069 13.1346 645 70.3054 762.555 563.093
549 0 50.0628 11.7253 587 71.8688 762.46 563.961
550 0 53.1065 12.7291 676 71.4009 762.528 561.429
551 0 56.2275 13.0719 735 70.6136 762.656 561.535
552 0 58.112 13.9558 811 69.7238 762.637 559.174
553 0 59.1674 14.4167 853 69.5029 763.174 558.277
554 0 60.1139 13.8237 831 71.1504 763.43 557.941
555 0 62.15 14.7063 914 70.4475 763.279 556.033
556 0 64.2031 13.3171 855 72.5345 763.322 554.687
557 0 66.2006 14.2446 943 71.2619 763.492 553.406
558 0 69.0917 13.6775 945 71.5048 763.283 551.724
559 0 71.0807 13.8434 984 71.1026 763.522 551.337
560 0 75.1648 13.9161 1046 70.9398 763.684 549.308
561 0 76.1375 14.5658 1109 70.4968 762.879 547.677
562 0 80.1167 14.0295 1124 70.8399 763.263 546.955
563 0 81.1598 14.1819 1151 71.2381 763.341 545.851
564 0 84.1564 13.8908 1169 72.3473 763.043 542.976
565 0 87.1607 13.825 1205 71.7494 763.11 543.915
566 0 90.297 14.1311 1276 71.46 762.443 541.902
567 0 93.0996 14.4469 1345 71.0394 762.594 540.242
568 1 47.0485 12.4977 588 72.8776 762.259 563.898
569 0 48.2062 11.8864 573 73.4607 762.382 563.019
570 0 49.129 13.0473 641 72.649 762.473 561.078
571 0 53.0813 13.2438 703 71.9033 762.36 559.556
572 0 53.0999 13.6347 724 71.9793 762.645 558.895
573 0 54.045 13.4702 728 72.1868 763.125 558.725
574 0 57.0554 13.9514 796 71.5967 762.589 556.715
575 0 59.1549 13.845 819 71.1477 762.424 556.839
576 0 62.1408 14.2579 886 71.4165 762.314 554.932
577 0 62.0716 14.7572 916 71.0873 762.248 554.57
578 0 66.0623 14.6528 968 70.2955 761.538 553.412
579 0 66.0623 14.7134 972 170.07 760.559 553.475
580 0 70.0966 14.266 1000 71.398 761.374 551.207
581 0 72.124 13.9343 1005 71.8 761.069 549.187
582 0 75.2052 13.9352 1048 71.8053 761.051 548.697
583 0 76.1349 13.9095 1059 72.7526 760.789 547.446
584 0 81.1126 14.7942 1200 70.5983 761.278 544.983
585 0 82.1994 14.5135 1193 71.9195 760.75 544.795
586 0 84.2201 14.5096 1222 71.8069 760.741 544.236
587 0 89.3102 14.6456 1308 71.2133 761.189 542.209
588 0 92.2761 14.6517 1352 70.8632 761.065 541.581
589 1 47.2275 11.6034 548 73.7591 760.934 561.911
590 0 49.1336 11.7435 577 73.4835 761.007 563.234
591 0 50.432 11.4808 579 73.7979 760.473 562.427
592 0 53.166 12.019 639 72.3365 760.953 562.061
593 0 55.1765 12.9765 716 71.4735 760.496 559.454
594 0 57.2473 12.7692 731 71.3461 760.256 559.297
595 0 60.1756 14.225 856 68.4988 760.229 556.922
596 0 61.1894 13.1069 802 70 760.333 557.15
597 0 62.2244 13.1299 817 70.7209 760.506 554.994
598 0 65.1094 14.0225 913 69.2629 760.189 554.485
599 0 67.2572 13.7086 922 69.5813 760.749 554.448
600 0 69.2326 13.0719 905 70.3956 760.393 553.874
601 0 75.2017 14.2018 1068 67.6189 760.189 552.163
602 0 75.2015 13.896 1045 68.6727 760.143 550.653
603 0 79.2872 14.5168 1151 67.2302 760.381 549.513
604 0 81.2251 13.9366 1132 68.4223 760.296 547.217
605 0 85.0523 14.2618 1213 66.9167 760.736 547.65
606 0 87.2239 14.4112 1257 66.7804 760.624 545.785
607 0 91.1667 14.468 1319 66.9515 760.609 543.685
608 0 93.2195 13.7632 1283 68.1988 760.384 541.897
609 0 98.0661 13.9396 1367 67.0849 760.566 541.335
610 0 99.0999 13.5722 1345 67.7294 760.108 539.907
611 1 54.1052 10.3317 559 67.1825 760.415 563.478
612 0 54.0635 10.1362 548 68.3905 760.794 561.166
613 0 57.0823 11.4922 656 66.7835 760.73 560.034
614 0 60.0553 12.5717 755 64.3987 760.98 560.789
615 0 61.0396 12.3526 754 65.8899 760.354 558.505
616 0 63.156 12.382 782 65.5997 760.382 557.941
617 0 63.121 12.7533 805 65.6857 760.497 555.851
618 0 67.0494 13.1545 882 63.9342 760.398 555.149
619 0 67.1309 12.6171 847 64.7769 760.603 555.648
620 0 69.1366 12.092 836 65.744 760.287 553.972
621 0 73.1499 13.2604 970 64.1227 760.896 553.353
622 0 75.091 13.0508 980 64.6653 761.078 551.696
623 0 78.2279 13.4862 1055 63.9896 761.404 550.896
624 0 81.1167 13.4498 1091 64.1109 761.038 548.709
625 0 82.2792 13.3813 1101 64.6349 761.419 549.473
626 1 43.0441 9.61804 414 65.2077 761.804 567.681
627 0 47.0417 10.3313 486 63.6646 762.247 566.984
628 0 47.0533 11.4976 541 62.9963 761.943 566.068
629 0 49.0729 11.7784 578 61.7716 762.055 566.54
630 0 52.0692 11.2927 588 62.267 761.832 564.662
631 0 51.1362 11.5183 589 64.1426 761.693 563.796
632 0 53.0734 11.6631 619 64.0969 760.837 563.27
633 0 55.1478 11.2244 619 63.0646 761.751 564.67
634 0 55.1619 11.2759 622 63.5289 762.002 563.757
635 0 58.2004 11.6666 679 63.6112 761.979 559.867
636 0 58.1382 11.1115 646 64.5867 762.062 559.624
637 0 63.2164 12.1646 769 62.1743 762.165 557.74
638 0 65.1249 11.8848 774 62.1034 762.536 557.047
639 0 67.2364 12.7015 854 61.1628 762.18 554.525
640 0 68.1524 11.7091 798 62.9261 762.053 553.774
641 0 70.1202 12.5927 883 62.1914 762.032 553.178
642 0 73.1684 12.7377 932 62.4195 761.741 552.687
643 0 75.0642 12.0564 905 62.9348 762.46 551.764
644 0 76.1435 11.7935 898 63.5111 762.607 550.006
645 0 80.1766 12.1108 971 63.6962 761.995 549.16
646 0 84.1505 11.8478 997 63.998 762.518 544.162
647 1 46.072 10.6355 490 63.402 762.786 563.757
648 0 46.0737 10.57 487 63.5277 762.513 563.581
649 0 49.0655 11.1076 545 63.3835 762.501 563.051
650 0 52.122 12.0486 628 61.4395 762.538 562.312
651 0 54.3113 11.8207 642 62.6277 762.928 560.252
652 0 53.1557 12.5669 668 62.524 761.909 558.588
653 0 54.1055 11.7548 636 63.8679 762.031 558.631
654 0 58.2899 11.9575 697 63.297 762.046 556.241
655 0 58.24 12.0021 699 63.6538 762.443 555.833
656 0 60.125 12.0582 725 63.7572 762.63 554.979
657 0 62.196 12.3159 766 63.5653 762.82 554.095
658 0 64.3763 12.6755 816 62.5172 763.273 553.393
659 0 67.2344 12.5085 841 62.9845 762.885 549.27
660 0 70.2848 12.6059 886 61.798 763.305 551.205
661 0 72.2435 12.8731 930 62.3376 762.945 548.175
662 0 73.2258 12.9189 946 62.9609 763.476 546.98
663 0 74.3871 12.7038 945 63.7598 763.111 546.033
664 0 78.3388 13.5054 1058 62.81 763.85 543.961
665 1 42.1294 10.3491 436 64.2248 763.615 564.22
666 0 44.2248 11.8259 523 62.9713 764.155 561.839
667 0 43.1192 11.0855 478 65.0921 763.868 562.389
668 0 46.0711 11.6342 536 64.2854 763.991 560.84
669 0 47.1739 12.4857 589 63.6978 763.927 560.56
670 0 48.3042 11.676 564 64.5532 764.544 560.161
671 0 51.1503 12.649 647 62.8717 764.83 558.662
672 0 51.2158 11.9494 612 64.2484 764.761 557.136
673 0 52.2067 12.1823 636 63.2437 765.132 555.825
674 0 56.1549 13.6943 769 61.1691 765.575 552.783
675 0 55.2346 12.8 707 64.4526 765.274 554.297
676 0 57.1846 12.9231 739 64.429 765.654 554.149
677 0 60.3873 12.6517 764 64.1741 765.542 546.754
678 0 62.4631 12.9837 811 63.6757 765.539 545.499
679 0 64.4227 13.2407 853 63.7433 765.816 545.301
680 0 65.4782 13.1036 858 64.134 765.568 544.832
681 0 67.4449 12.7808 862 65.1508 765.66 546.261
682 0 69.4404 13.436 933 64.6002 765.552 546.627
683 0 70.4214 13.0074 916 66.1638 765.784 545.566
684 0 73.4392 13.0857 961 66.0801 765.976 543.39
685 0 74.5629 13.3042 992 66.5635 765.737 542.438
686 0 77.3634 13.0036 1006 66.9274 765.799 541.613
687 0 80.4932 14.1378 1138 64.638 765.807 541.715
688 0 81.6624 13.5068 1103 66.7543 765.432 539.437
689 0 86.7389 13.7193 1190 66.258 765.534 537.765
690 0 88.5877 13.7491 1218 66.1363 765.611 537.407
691 1 45.4509 10.9569 498 68.4679 764.934 558.647
692 0 47.3861 10.9526 519 68.3622 764.963 558.143
693 0 50.438 12.6095 636 66.6195 765.465 558.965
694 0 51.2095 12.5758 644 68.2112 764.472 558.272
695 0 52.208 12.3544 645 66.9752 764.149 557.378
696 0 52.208 12.3353 644 176.632 764.157 557.349
697 0 54.1223 12.3979 671 67.8763 764.028 556.01
698 0 57.0236 12.3984 707 67.3678 763.822 554.738
699 0 60.2369 13.2477 798 66.3396 764.445 554.286
700 0 61.0939 12.1452 742 68.2857 764.226 554.004
701 0 61.1723 12.9307 791 67.5019 764.115 551.378
702 0 63.1796 12.3458 780 68.4885 764.282 550.946
703 0 65.2492 13.1189 856 68.1051 763.965 550.275
704 0 69.2948 13.2622 919 67.7421 763.748 549.381
705 0 70.1717 13.2389 929 67.3714 763.562 550.881
706 0 70.3375 12.9234 909 68.7899 763.136 548.763
707 0 76.2253 14.1554 1079 66.2725 764.038 547.919
708 0 76.1974 13.8981 1059 67.3201 763.642 544.652
709 0 79.2246 13.67 1083 75.2567 763.268 545.138
710 0 84.2638 13.6239 1148 79.7483 762.892 543.89
711 0 86.1586 13.3591 1151 80.53 763.427 543.924
712 0 88.0581 13.8886 1223 80.5388 763.126 542.401
713 0 90.1098 13.9607 1258 81.8474 763.176 540.804
714 1 49.0266 11.8711 582 82.0601 763.021 561.296
715 0 49.0949 10.6936 525 85.7505 763.476 560.844
716 0 52.1066 11.9946 625 84.1184 763.731 559.653
717 0 53.0615 12.2122 648 83.7762 763.096 559.302
718 0 57.0981 12.8726 735 82.3469 762.162 554.905
719 0 56.0553 12.8088 718 82.663 762.708 556.164
720 0 59.1327 12.7172 752 83.7606 762.577 553.668
721 0 61.2067 13.871 849 82.3734 762.529 554.088
722 0 62.1502 12.6146 784 85.0855 762.042 552.749
723 0 65.1387 13.6939 892 83.4103 761.71 553.811
724 0 67.1468 13.4184 901 84.5849 761.595 550.89
725 0 70.1471 12.873 903 85.979 761.454 550.793
726 0 73.1495 13.4656 985 83.9746 761.211 549.364
727 0 74.1579 13.5252 1003 85.3769 761.369 548.542
728 0 79.1314 13.9894 1107 85.0081 761.232 547.48
729 0 80.1927 12.6071 1011 87.9604 760.676 546.797
730 0 83.2174 14.2158 1183 86.3263 761.467 544.361
731 0 86.4895 14.0248 1213 87.291 761.364 542.864
732 0 89.2405 14.3881 1284 87.8333 762.042 541.306
733 0 92.4886 13.9693 1292 89.9342 761.282 538.115
734 1 47.1056 12.2703 578 88.5415 761.242 563.415
735 0 48.1397 13.5024 650 87.8785 760.785 563.329
736 0 48.09 11.125 535 91.5776 760.262 563.449
737 0 50.0825 12.2398 613 90.9347 760.31 560.791
738 0 53.2346 12.2289 651 90.1951 760.132 561.303
739 0 54.2369 12.0582 654 91.2446 760.437 560.072
740 0 55.376 13.4715 746 90.1287 760.064 557.954
741 0 57.2013 12.727 728 91.2981 760.173 560.174
742 0 58.1568 12.4147 722 92.5042 760.204 559.681
743 0 59.1471 12.6972 751 93.6791 759.891 556.767
744 0 63.1942 13.0867 827 93.1778 760.277 557.751
745 0 62.1713 13.8488 861 93.6295 760.641 556.778
746 0 65.2014 13.6654 891 94.5039 760.599 555.587
747 0 66.0933 12.7244 841 96.1843 760.639 554.163
748 0 70.1534 13.9266 977 94.9949 760.805 553.462
749 0 73.2584 14.0871 1032 95.2364 760.668 553.034
750 0 76.1206 13.61 1036 95.7809 760.811 551.827
751 0 77.1056 13.89 1071 96.6508 760.743 549.046
752 0 79.25 13.8296 1096 89.4005 761.026 547.803
753 0 84.1594 13.5695 1142 89.5455 761.021 547.381
754 0 85.2276 13.9157 1186 90.4553 760.68 543.327
755 0 88.2156 14.2605 1258 89.6876 760.036 544.798
756 0 91.1979 14.0025 1277 90.8324 759.705 542.32
757 0 95.1876 14.6343 1393 90.7021 760.121 541.766
758 1 49.1626 12.2044 600 89.79 759.968 565.762
759 0 50.0497 12.5276 627 89.4577 760.126 564.203
760 0 52.11 12.2817 640 87.0172 759.908 564.197
761 0 54.0378 14.1382 764 86.9084 760.897 563.071
762 0 55.0739 13.6907 754 88.3369 761.57 561.824
763 0 55.0403 13.4447 740 90.1716 761.297 560.53
764 0 58.1744 14.319 833 89.1885 761.125 561.515
765 0 58.0473 12.9377 751 92.1984 760.969 561.043
766 0 61.1784 13.1419 804 92.1405 760.672 560.549
767 0 63.0795 14.1567 893 91.1221 760.504 559.398
768 0 64.1266 12.912 828 93.0737 760.161 557.321
769 0 66.0878 13.1189 867 93.1926 760.137 556.142
770 0 69.0653 14.5659 1006 88.4493 759.771 555.946
771 0 72.2298 13.7063 990 88.5455 760.311 555.042
772 0 72.2298 13.6924 989 154.373 760.316 555.273
773 0 75.0944 12.7972 961 90.1165 759.861 553.452
774 0 79.0851 13.1125 1037 89.5554 760.24 551.104
775 0 84.1064 14.9929 1261 86.5948 760.514 552.113
776 1 41.1094 10.4599 430 89.1535 760.207 571.553
777 0 41.0786 11.3928 468 89.25 760.194 569.692
778 0 41.0786 11.4415 470 151.517 761.179 569.598
779 0 45.1699 12.5969 569 87.2109 760.48 569.185
780 0 50.0697 12.183 610 78.318 760.731 566.708
781 0 49.3108 12.8167 632 78.6915 760.682 565.847
782 0 51.1454 11.6335 595 81.1546 760.193 563.482
783 0 53.1808 13.2003 702 79.9801 759.92 563.786
784 0 52.1869 12.1678 635 82.6535 760.409 562.894
785 0 56.1365 12.6478 710 82.1451 760.286 562.615
786 0 57.1168 12.5007 714 83.0574 760.58 561.387
787 0 58.0947 12.5657 730 84.1342 760.312 560.664
788 0 62.1389 14.7573 917 81.4864 760.767 561.108
789 0 63.0728 13.5875 857 83.9755 761.445 558.041
790 0 64.0832 13.186 845 85.8201 761.303 556.559
791 0 68.1623 13.9373 950 84.7568 761.334 556.332
792 0 70.1694 13.6384 957 85.9289 760.881 556.971
793 0 71.1657 13.0962 932 88.8165 761.112 555.382
794 0 73.1116 13.4726 985 89.7919 760.825 555.009
795 0 74.054 13.3686 990 90.4616 760.823 552.559
796 0 78.1071 14.7362 1151 89.4301 761.272 551.086
797 1 42.0591 12.0783 508 90.4449 761.041 567.776
798 0 43.1119 12.2704 529 81.5992 761.185 566.72
799 0 44.0388 13.4654 593 80.2125 761.196 567.391
800 0 47.0622 12.5153 589 81.3158 761.326 565.908
801 0 48.0703 13.3554 642 81.2601 761.706 564.389
802 0 51.0452 13.2432 676 80.4837 761.466 564.056
803 0 51.0454 14.3598 733 80.337 761.181 563.057
804 0 52.0424 12.8357 668 83.241 761.265 562.274
805 0 54.1627 12.7394 690 83.8551 761.912 561.404
806 0 56.2918 13.7498 774 82.2016 762.687 560.755
807 0 58.097 14.1143 820 81.389 762.646 561.463
808 0 59.1481 14.4214 853 81.4513 762.682 561.336
809 0 60.0709 12.3521 742 86.0782 762.64 557.244
810 0 62.2726 13.6015 847 84.229 763.084 557.438
811 0 64.1712 13.3705 858 85.2284 763.626 555.248
812 0 67.0897 13.6683 917 85.3217 764.077 553.773
813 0 69.1493 13.0876 905 86.5945 763.752 553.655
814 0 72.3099 13.4836 975 86.3979 764.025 552.647
815 0 72.3106 13.8292 1000 87.133 763.773 551.322
816 0 75.1587 13.5447 1018 87.89 763.611 550.024
817 0 77.3305 14.1729 1096 88.0128 763.738 549.754
818 0 84.3902 13.6272 1150 88.2157 763.898 549.379
819 0 87.2709 14.8732 1298 87.1186 764.282 548.253
820 1 42.2655 11.7827 498 91.0261 763.588 565.398
821 0 43.2073 11.1787 483 92.0083 763.739 565.304
822 0 47.1606 13.2102 623 89.9294 763.905 563.665
823 0 48.2628 12.6599 611 91.9247 763.532 562.483
824 0 51.3598 12.1496 624 90.5785 764.032 563.109
825 0 54.3697 12.9852 706 88.1204 764.327 561.559
826 0 55.3463 14.8881 824 86.6626 763.967 561.322
827 0 55.3591 12.8615 712 90.6306 763.6 559.468
828 0 57.2858 13.6159 780 89.5872 763.823 558.896
829 0 58.3076 14.132 824 88.9333 764.187 558.441
830 0 59.4206 13.0595 776 89.3647 763.851 558.231
831 0 62.4067 12.6268 788 89.7919 764.034 556.458
832 0 64.3122 13.3878 861 88.9384 763.334 558.461
833 0 64.2619 12.2468 787 91.0724 763.428 555.418
834 0 65.1776 12.9799 846 91.747 763.723 554.746
835 0 65.2206 12.6341 824 93.0498 763.551 553.72
836 0 69.1477 13.0301 901 109.956 763.45 550.368
837 0 72.1173 11.5784 835 109.199 763.768 551.085
838 0 74.2047 12.3712 918 103.913 763.442 552.3
839 0 78.1246 13.4785 1053 102.278 763.54 548.362
840 0 80.0863 13.0734 1047 102.396 762.974 547.831
841 1 47.1102 10.5285 496 100.683 762.873 565.885
842 0 45.0539 10.8093 487 99.3717 762.618 565.06
843 0 47.1543 11.0913 523 91.2333 762.706 564.702
844 0 48.1605 11.7316 565 92.1876 762.412 562.781
845 0 48.2434 11.6493 562 92.7349 762.464 560.132
846 0 49.2298 11.3143 557 93.5691 762.354 561.041
847 0 53.1099 13.0296 692 90.1806 761.4 561.097
848 0 55.2972 11.6281 643 90.7107 761.981 561.505
849 0 55.2476 10.7335 593 92.9258 761.408 561.265
850 0 58.1825 13.0108 757 90.4795 761.306 558.464
851 0 59.2192 12.4115 735 90.3442 761.718 560.161
852 0 63.3258 12.5383 794 89.5718 761.505 558.634
853 0 64.2443 14.1958 912 87.8794 761.205 557.89
854 0 65.2214 12.7719 833 90.1825 761.299 554.711
855 0 69.1747 13.343 923 88.1809 761.009 555.764
856 0 72.1284 12.8521 927 88.7799 761.728 553.337
857 0 72.1077 13.1609 949 89.8493 762.121 551.92
858 0 75.1875 13.4464 1011 88.7339 761.977 551.132
859 0 77.1298 12.7836 986 89.428 761.604 550.38
860 0 81.3075 12.9016 1049 89.5014 761.704 547.286
861 0 84.2986 14.3775 1212 87.3581 761.474 546.732
862 0 87.3771 13.1499 1149 89.7694 761.574 545.789
863 0 93.4214 13.209 1234 90.0219 761.883 543.91
864 1 46.2451 10.8985 504 91.6567 761.504 565.331
865 0 48.2587 12.6817 612 92.2484 760.817 564.069
866 0 48.0633 11.5889 557 100.795 759.935 562.576
867 0 51.0838 11.1973 572 101.621 759.607 563.329
868 0 50.1074 10.0784 505 106.164 759.895 561.851
869 0 54.0914 12.5159 677 104.502 759.795 558.953
870 0 56.1428 11.3104 635 105.685 759.584 562.241
871 0 58.1438 12.2111 710 106.258 760.473 560.814
872 0 57.199 11.3289 648 106.884 760.927 561.875
873 0 61.2042 11.6985 716 106.661 761.099 559.673
874 0 60.1405 11.1738 672 108.344 759.632 558.228
875 0 64.1625 12.1255 778 105.814 760.335 559.156
876 0 64.3368 11.6885 752 105.428 760.17 558.495
877 0 65.2747 11.4899 750 100.785 759.787 556.973
878 0 70.1534 11.5746 812 88.1921 760.619 555.702
879 0 73.2173 13.2073 967 70.8294 760.432 554.044
880 0 75.2873 12.6449 952 69.7122 760.286 552.709
881 0 77.2275 12.9358 999 68.4965 760.446 550.966
882 0 80.1714 12.5232 1004 68.6564 760.185 548.736
883 0 85.3643 13.3545 1140 65.4772 760.118 548.457
884 1 47.2061 11.5875 547 65.9525 760.991 567.197
885 0 48.2519 10.7353 518 66.5019 760.257 567.017
886 0 48.3145 10.9284 528 66.7254 760.11 566.15
887 0 49.1532 10.7419 528 67.3258 759.689 565.002
888 0 49.0969 10.021 492 66.3211 760.124 564.476
889 0 54.2145 11.3069 613 64.8744 760.723 561.494
890 0 54.1485 11.5054 623 65.8941 760.345 560.612
891 0 58.1086 12.752 741 63.7126 760.501 561.099
892 0 57.1855 12.2933 703 64.8762 761.908 559.589
893 0 61.2023 13.6596 836 62.067 762.074 560.467
894 0 63.1255 14.3207 904 61.0155 762.366 556.717
895 0 62.0969 13.1086 814 64.7138 762.88 555.501
896 0 64.1233 13.6612 876 64.0628 762.884 555.477
897 0 66.2211 13.7116 908 64.0308 762.48 553.807
898 0 68.088 13.0419 888 64.6351 762.366 555.345
899 0 71.2419 13.3489 951 64.3891 762.429 552.417
900 0 72.2185 13.1545 950 65.1137 762.567 550.893
901 0 74.2263 13.1355 975 65.2513 762.844 551.253
902 0 76.3798 13.5638 1036 65.0347 763.099 548.518
903 0 79.2768 14.2412 1129 64.0868 762.768 546.593
904 0 83.484 13.3439 1114 65.421 763.202 546.18
905 0 85.3458 12.2677 1047 67.2942 763.688 542.245
906 0 88.3914 13.0895 1157 65.5385 763.678 540.883
907 0 93.4223 13.6156 1272 64.4536 763.573 540.899
908 1 44.2511 10.8246 479 65.1733 763.01 562.63
909 0 47.2636 10.7271 507 66.0355 762.949 561.978
910 0 49.3079 11.9656 590 64.8136 763.483 561.51
911 0 53.1781 12.806 681 63.1762 763.455 560.135
912 0 54.1302 12.3406 668 64.9371 763.716 559.051
913 0 54.0585 11.7465 635 66.389 763.436 559.413
914 0 58.1346 12.8839 749 64.498 763.531 557.621
915 0 60.1921 11.563 696 66.2414 764.253 558.203
916 0 60.1433 12.8859 775 64.5148 764.712 557.409
917 0 60.1783 12.5793 757 65.9577 764.683 553.579
918 0 63.1884 12.8979 815 65.735 764.891 554.065
919 0 65.1884 13.3306 869 65.0817 765.012 551.931
920 0 66.1978 12.8403 850 66.1659 765.524 552.002
921 0 67.2461 12.5212 842 67.3504 765.538 549.941
922 0 71.1611 13.1673 937 65.524 765.479 549.284
923 0 74.1604 12.473 925 66.4368 765.802 548.166
924 0 76.3675 13.0291 995 66.3216 765.964 545.666
925 1 41.0813 10.321 424 64.0401 766.144 566.559
926 0 41.0606 10.5941 435 64.4276 766.582 566.228
927 0 42.1568 11.054 466 63.4785 765.961 565.697
928 0 45.1562 12.4678 563 62.2167 766.3 564.76
929 0 45.0171 11.5067 518 65.0193 767.39 565.039
930 0 47.0267 12.6736 596 63.7651 766.965 562.983
931 0 48.0155 11.6837 561 65.7522 766.581 563.004
932 0 49.1789 12.3427 607 65.1862 766.405 562.524
933 0 52.0532 11.2769 587 66.017 766.063 561.068
934 0 53.1984 12.538 667 64.6432 765.529 560.39
935 0 53.2225 12.2129 650 65.6338 765.192 559.685
936 0 55.3061 11.807 653 65.9081 765.525 558.73
937 0 56.276 13.0784 736 64.4946 765.376 558.345
938 0 58.1599 13.8583 806 63.469 765.372 558.702
939 0 60.1914 13.6564 822 63.8783 764.835 557.315
940 0 62.2345 12.8707 801 64.8177 764.799 557.338
941 0 65.1503 13.4765 878 64.1515 764.282 556.33
942 0 65.1497 13.1543 857 63.9148 764.443 556.795
943 0 69.1222 13.7438 950 62.6147 764.095 554.639
944 0 70.0817 13.47 944 62.928 763.766 553.202
945 1 36.1947 10.3606 375 66.0427 764.408 569.003
946 0 39.1207 11.0427 432 63.4606 764.676 569.303
947 0 38.0994 10.7088 408 65.2304 763.645 568.686
948 0 39.0794 10.9776 429 64.7506 763.921 568.361
949 0 43.0681 11.9114 513 63.1033 764.281 566.211
950 0 45.0568 11.6076 523 63.0344 764.075 566.641
951 0 42.0233 12.9452 544 63.2721 763.68 564.682
952 0 46.2868 12.3361 571 62.4116 763.005 565.557
953 0 46.2023 13.8738 641 61.4774 763.571 564.576
954 0 47.2242 13.2136 624 62.2997 763.176 563.492
955 0 49.2242 12.2907 605 62.9025 763.372 563.426
956 0 52.2881 13.5595 709 61.3808 763.378 561.202
957 0 53.3653 13.0422 696 61.273 762.977 562.934
958 0 55.1658 13.5591 748 60.1791 763.143 563.18
959 0 56.1393 13.0746 734 60.7916 762.692 560.563
960 0 58.2177 13.7415 800 60.205 762.36 559.39
961 0 58.2177 13.6728 796 162.813 762.373 559.497
962 0 59.2041 13.3099 788 60.7665 762.49 558.731
963 0 63.098 14.0733 888 58.7736 762.604 558.291
964 0 65.0877 13.5663 883 59.2095 762.942 558.674
965 0 68.1235 13.8865 946 58.0899 762.913 557.261
966 0 70.1326 13.2606 930 58.5452 762.633 554.971
967 0 72.1026 13.453 970 58.5505 762.725 553.364
968 0 73.1474 13.4113 981 58.9521 762.415 551.738
969 0 76.1245 13.294 1012 58.4032 762.195 550.566
970 1 38.0297 12.5691 478 59.3703 763.084 568.598
971 0 41.0437 12.0847 496 59.627 762.905 568.222
972 0 42.0201 11.8039 496 60.2177 763.155 566.776
973 0 43.0628 12.1218 522 60.3448 762.841 567.17
974 0 44.1793 12.6756 560 59.5857 762.505 566.745
975 0 46.1878 12.5141 578 60.0104 762.043 565.349
976 0 47.1063 13.4377 633 59.03 762 564.024
977 0 47.1012 13.7576 648 59.2191 761.523 562.846
978 0 50.0803 12.7196 637 59.7928 761.148 563.268
979 0 53.1273 13.2324 703 58.7624 760.772 563.272
980 0 54.084 14.5884 789 58.0482 760.91 560.829
981 0 57.101 14.3605 820 57.7841 760.873 560.329
982 0 59.181 14.6331 866 57.8949 760.695 559.279
983 0 60.0417 14.4899 870 58.3115 760.141 558.133
984 0 64.1212 14.8781 954 57.5618 760.304 557.22
985 0 64.2466 14.3821 924 59.0747 760.54 556.036
986 0 68.0941 15.1114 1029 57.7289 760.284 556.374
987 0 69.03 15.0225 1037 58.8785 759.96 554.341
988 0 71.165 14.4453 1028 59.713 760.233 553.804
989 0 73.0705 14.5339 1062 60.2109 760.395 552.691
990 0 76.123 14.516 1105 60.9548 760.655 550.937
991 0 79.2193 14.7818 1171 60.4372 760.081 549.331
992 0 82.1645 14.7266 1210 61.0455 760.083 548.089
993 0 86.2639 15.3946 1328 60.3215 759.971 546.866
994 0 88.2277 13.9752 1233 62.7778 760.164 546.342
995 1 43.0723 12.7228 548 65.4507 760.449 567.133
996 0 46.1779 12.4735 576 65.3646 760.5 567.253
997 0 47.1548 12.618 595 66.3462 760.173 565.007
998 0 49.2096 13.2698 653 65.9188 760.207 563.931
999 0 50.0684 14.0608 704 65.5597 760.249 562.889
1000 0 53.1298 14.4928 770 64.1623 760.687 563.279
1001 0 55.0393 13.9173 766 65.658 760.509 561.646
1002 0 56.2993 14.7426 830 64.7229 760.318 561.149
1003 0 59.1977 14.0546 832 65.3149 760.495 561.067
1004 0 61.127 14.1018 862 65.6798 760.184 557.749
1005 0 62.1561 13.8039 858 66.324 760.009 558.406
1006 0 64.2747 14.2358 915 65.8415 759.963 556.355
1007 0 69.2481 15.4517 1070 62.929 759.974 556.024
1008 0 70.0743 14.8129 1038 64.8227 760.035 555.11
1009 0 73.2081 15.2169 1114 64.0126 760.174 552.579
1010 0 76.2006 14.9605 1140 64.3649 760.223 552.158
1011 0 76.089 14.1808 1079 67.3874 760.301 550.324
1012 0 79.3216 14.0063 1111 67.5176 760.24 549.622
1013 0 84.2603 15.7725 1329 64.4229 759.986 547.287
1014 0 85.3824 13.7616 1175 67.7234 760.127 547.346
1015 0 85.231 13.9621 1190 68.0336 759.769 545.096
1016 0 91.254 14.8925 1359 65.8227 759.802 543.467
1017 0 92.2553 14.8826 1373 66.3401 760.406 540.663
1018 0 96.2998 15.026 1447 65.0767 760.415 541.191
1019 0 99.1604 14.532 1441 66.2255 760.588 537.951
1020 0 103.338 14.9122 1541 65.3154 760.565 536.226
1021 0 107.279 13.8331 1484 66.5398 761.042 535.587
1022 0 111.346 14.199 1581 65.7242 761.06 533.802
1023 0 114.204 14.229 1625 66.0665 761.426 530.199
1024 0 118.37 14.4969 1716 65.5728 761.367 530.614
1025 1 63.2684 12.8184 811 66.852 760.777 557.866
1026 0 63.354 12.9905 823 66.7485 761.04 556.089
1027 0 66.342 14.9227 990 63.3727 760.802 556.196
1028 0 67.338 13.707 923 66.143 761.181 552.426
1029 0 71.3281 13.473 961 65.7929 761.43 552.366
1030 0 72.3429 13.201 955 66.8335 761.56 550.449
1031 0 74.6127 13.5098 1008 66.6944 761.55 550.093
1032 0 79.299 13.6824 1085 65.4157 761.559 548.091
1033 0 80.2708 13.3548 1072 65.9991 762.364 547.09
1034 0 86.4526 13.4293 1161 65.36 762.437 545.029
1035 0 86.3991 12.9747 1121 66.5923 762.757 544.396
1036 0 90.3437 13.6368 1232 65.9903 762.802 541.845
1037 0 94.3824 13.9645 1318 64.9605 763.259 542.19
1038 1 51.3127 11.8489 608 67.9227 762.743 560.158
1039 0 53.1066 12.2772 652 67.8926 763.028 558.224
1040 0 54.2002 13.0442 707 66.8359 763.389 556.791
1041 0 59.2684 13.7004 812 64.6244 763.474 555.784
1042 0 61.5128 13.1192 807 65.3916 763.747 556.48
1043 0 60.2119 12.6719 763 67.1547 763.651 555.784
1044 0 65.3204 13.1199 857 65.8331 764.076 554.158
1045 0 65.1882 13.4533 877 66.2406 764.257 553.21
1046 0 65.1383 12.6961 827 66.8634 764.717 552.29
1047 0 70.3617 13.2885 935 64.9668 764.36 553.042
1048 0 72.2011 13.3931 967 65.272 764.357 551.096
1049 0 76.2517 13.4423 1025 65.1776 764.46 549.126
1050 0 78.117 14.4527 1129 63.7192 764.398 548.73
1051 0 81.0756 13.8883 1126 64.7886 764.791 545.166
1052 0 85.2385 13.8201 1178 64.4559 765.222 544.658
1053 0 90.1313 13.5913 1225 64.8335 765.189 542.765
1054 0 93.3036 14.7368 1375 63.4167 765.565 541.049
1055 0 93.3226 14.3266 1337 65.0845 765.553 538.172
1056 0 100.309 13.8173 1386 65.3723 765.445 537.303
1057 0 102.286 13.6968 1401 66.0335 765.091 535.139
1058 0 104.332 13.3899 1397 66.6836 764.958 534.382
1059 0 109.344 13.9468 1525 65.7751 765.554 531.769
1060 1 62.3052 10.8659 677 64.4874 765.04 556.232
1061 0 62.2846 10.4681 652 65.9479 765.37 553.302
1062 0 63.2564 11.9356 755 64.147 764.836 553.844
1063 0 66.2281 12.3059 815 64.4663 765.092 552.067
1064 0 69.369 12.9453 898 64.2762 765.136 550.963
1065 0 71.2154 12.413 884 65.4299 765.499 548.963
1066 0 73.1549 13.2049 966 64.9762 765.435 547.979
1067 0 75.4077 12.5319 945 66.4317 765.189 547.372
1068 0 79.3685 12.4987 992 65.6613 765.422 547.024
1069 0 80.3531 12.6815 1019 65.945 765.574 546.816
1070 0 83.1885 12.7181 1058 66.483 765.199 543.221
1071 0 84.2588 12.782 1077 67.0743 765.405 540.472
1072 0 88.2837 12.4938 1103 67.1523 765.454 541.239
1073 0 90.2464 13.2748 1198 66.7654 765.509 538.849
1074 0 91.1426 12.5188 1141 68.4777 765.618 536.488
1075 0 95.1351 12.5716 1196 68.3771 765.553 536.566
1076 0 98.2179 12.8795 1265 67.9162 764.991 533.866
1077 0 100.111 12.8357 1285 68.5105 765.01 532.845
1078 1 57.0699 9.49712 542 66.0959 765.917 558.205
1079 0 60.0451 9.39294 564 65.8546 765.301 555.585
1080 0 60.1154 10.6795 642 64.0997 764.52 554.545
1081 0 61.0608 10.3176 630 64.1587 764.556 554.162
1082 0 64.1466 11.5049 738 63.1585 764.27 553.98
1083 0 65.1805 11.752 766 63.5352 764.133 551.39
1084 0 64.1715 11.4693 736 64.6033 764.015 549.371
1085 0 68.3021 11.3467 775 64.1084 763.532 550.97
1086 0 70.1796 10.7154 752 65.6503 763.854 547.154
1087 0 72.3199 11.7257 848 64.4811 763.729 546.688
1088 0 74.2627 10.9476 813 65.4059 763.664 547.934
1089 0 77.1558 11.4703 885 65.2667 763.654 546.645
1090 0 77.1694 10.9758 847 66.2102 763.009 545.838
1091 0 82.2786 11.4732 944 65.0095 763.734 545.101
1092 0 83.1871 11.6364 968 65.6973 764.139 542.785
1093 0 88.1218 11.677 1029 64.4956 764.017 542.475
1094 0 89.2675 11.74 1048 65.0601 764.043 539.929
1095 0 93.373 11.4808 1072 64.8097 764.539 540.438
1096 0 97.2183 12.0039 1167 64.3942 763.991 538.376
1097 1 52.1469 8.82123 460 64.0696 764.302 559.652
1098 0 52.1032 9.36603 488 63.8914 764.668 558.059
1099 0 57.0776 10.7573 614 62.4544 764.676 556.313
1100 0 57.2071 10.7154 613 62.5171 763.897 555.227
1101 0 58.1845 10.2777 598 64.8545 763.804 555.137
1102 0 60.1949 10.9145 657 64.1309 763.791 552.887
1103 0 61.1766 11.3442 694 63.2954 763.81 551.081
1104 0 63.2425 11.6377 736 62.841 763.435 552.856
1105 0 67.1165 11.8004 792 62.1503 763.581 551.135
1106 0 67.103 11.6984 785 62.1554 763.255 549.666
1107 0 71.1008 11.6595 829 61.4138 763.217 549.587
1108 0 74.2041 11.7244 870 61.3241 762.86 548.418
1109 0 75.1083 11.4634 861 61.8734 762.957 547.364
1110 0 79.1935 11.7939 934 60.8308 762.569 547.037
1111 0 80.1933 11.7092 939 61.2151 762.295 545.666
1112 0 84.1696 12.9738 1092 59.6136 762.799 544.598
1113 0 84.1542 12.5365 1055 59.9299 762.31 542.561
1114 1 47.0834 9.32389 439 59.8132 761.26 561.688
1115 0 47.0292 10.8018 508 59.9016 761.067 559.632
1116 0 51.0699 9.82966 502 59.7888 760.753 559.705
1117 0 51.0166 9.95754 508 61.5256 761.067 559.996
1118 0 52.0538 11.1039 578 60.1609 761.116 559.49
1119 0 55.0638 11.1325 613 60.1011 761.406 558.635
1120 0 56.0869 11.4287 641 60.8378 761.409 557.755
1121 0 58.1676 11.7075 681 60.3671 762.612 558.019
1122 0 57.3188 12.2647 703 60.798 762.299 555.287
1123 0 60.3402 12.4295 750 60.068 761.589 557.268
1124 0 62.3028 12.2948 766 60.4191 761.483 555.721
1125 0 64.2766 12.7263 818 59.7127 761.828 556.249
1126 0 64.2766 12.7263 818 135.829 760.83 556.274
1127 0 66.1575 12.0924 800 62.4688 761.663 553.928
1128 0 66.2815 12.4771 827 63.0218 761.537 553.155
1129 0 70.2458 12.4847 877 62.732 761.624 552.877
1130 0 72.1969 13.2277 955 62.2817 761.965 550.549
1131 0 74.1675 13.2268 981 63.0224 761.892 550.493
1132 0 78.2164 12.2864 961 64.2653 761.971 550.211
1133 0 79.1833 13.2983 1053 63.4473 762.101 548.011
1134 0 80.0927 12.91 1034 65.2389 762.509 540.373
1135 0 85.1543 13.0704 1113 64.4897 762.194 539.232
1136 1 46.0636 10.073 464 63.5194 763.125 563.203
1137 0 47.0893 10.427 491 64.6395 762.796 566.171
1138 0 47.0987 10.1277 477 66.914 763.174 566.379
1139 0 49.157 11.209 551 64.6624 763.728 563.554
1140 0 51.1953 11.5245 590 64.5051 761.7 562.517
1141 0 52.2035 11.8766 620 65.9435 762.542 562.795
1142 0 55.1066 12.993 716 63.9036 762.527 562.475
1143 0 56.1563 13.5871 763 62.5609 762.81 560.906
1144 0 55.1435 12.1682 671 66.1461 762.8 558.423
1145 0 58.162 12.1385 706 66.4178 762.85 558.881
1146 0 59.1269 12.7353 753 65.0199 763.108 557.854
1147 0 61.1284 12.6782 775 65.6065 763.246 556.003
1148 0 60.2273 12.2702 739 66.9418 763.605 555.869
1149 0 65.1459 13.1397 856 64.7079 763.638 555.59
1150 0 67.2301 12.896 867 65.0819 763.494 553.954
1151 0 68.2682 12.7146 868 65.4205 763.582 553.642
1152 0 70.2989 13.2719 933 64.3912 764.054 551.697
1153 0 71.3697 13.381 955 64.4346 764.285 550.313
1154 0 71.2688 12.8528 916 65.75 764.176 548.398
1155 0 75.3704 13.4005 1010 64.4139 764.749 548.469
1156 0 78.4131 13.2121 1036 64.5319 765.604 546.736
1157 1 41.3374 10.0393 415 66.0747 766.573 566.788
1158 0 42.1636 10.9573 462 65.1472 766.422 563.831
1159 0 43.3908 10.1404 440 65.5659 766.918 564.855
1160 0 45.3329 11.1178 504 64.7202 767.442 564.31
1161 0 46.3084 11.7473 544 64.9173 767.114 562.493
1162 0 47.1363 11.9865 565 63.531 766.72 561.189
1163 0 49.1054 12.1168 595 63.9008 766.481 560.234
1164 0 51.1447 12.8459 657 63.0015 766.542 559.021
1165 0 53.1019 11.864 630 63.5095 766.381 558.921
1166 0 54.092 12.4787 675 62.9956 766.748 558.978
1167 0 56.1618 11.8764 667 63.2849 767.289 557.642
1168 0 57.1175 12.3605 706 63.4873 767.483 556.337
1169 0 58.1681 12.653 736 63.3397 767.583 554.886
1170 0 59.1663 12.8113 758 63.7309 767.522 555.608
1171 0 62.0925 12.6907 788 62.7881 767.282 554.886
1172 0 64.133 12.5676 806 62.7816 767.759 553.56
1173 0 65.1339 12.9886 846 62.4563 768.149 554.249
1174 0 69.0876 12.7519 881 62.5959 768.591 551.504
1175 0 68.0502 12.7406 867 63.2941 768.689 549.949
1176 0 73.1315 13.1407 961 61.6785 768.112 550.212
1177 0 73.0609 12.4417 909 63.4015 767.824 550.033
1178 0 77.1424 13.2742 1024 62.5303 767.546 547.266
1179 0 78.1768 12.1903 953 64.0441 768.239 546.534
1180 0 80.1108 12.5951 1009 63.556 768.14 545.722
1181 0 85.1179 13.6751 1164 61.9132 767.747 543.06
1182 1 45.0499 12.0533 543 62.2762 766.315 562.354
1183 0 46.2151 10.1698 470 64.8021 767.332 562.643
1184 0 48.0809 11.7094 563 63.4476 767.398 560.774
1185 0 52.0734 12.4824 650 61.5646 766.103 560.742
1186 0 50.0899 12.8369 643 62.8585 766.863 559.418
1187 0 53.1391 12.4955 664 62.8614 767.282 557.858
1188 0 54.2537 12.0913 656 63.9223 766.95 558.729
1189 0 56.1048 12.8688 722 63.018 767.025 556.661
1190 0 58.2054 13.1775 767 62.5124 767.189 557.96
1191 0 60.134 12.9877 781 63.6607 766.767 556.385
1192 0 60.1018 12.6286 759 65.1383 766.519 554.514
1193 0 64.0836 12.7022 814 64.6744 766.144 554.698
1194 0 65.1305 13.4499 876 64.6244 766.089 552.164
1195 0 67.0723 12.5536 842 65.6128 766.148 551.015
1196 0 67.0723 12.5387 841 162.473 767.139 551.008
1197 0 72.051 13.4072 966 65.1149 765.463 549.459
1198 0 74.1091 12.2927 911 67.1109 765.474 547.748
1199 0 78.1352 13.9246 1088 64.3428 765.179 545.673
1200 0 81.1239 13.4732 1093 65.1153 765.323 545.59
1201 0 82.0666 13.9521 1145 64.9956 765.368 544.438
1202 0 84.145 13.5718 1142 66.2128 765.429 543.54
1203 0 88.2604 13.4035 1183 67.0347 765.254 542.167
1204 0 90.3403 13.2831 1200 67.9642 764.799 540.858
1205 0 94.2824 13.6187 1284 67.3294 765.443 539.385
1206 0 96.3762 13.769 1327 67.5652 765.524 537.561
1207 0 100.207 13.3923 1342 68.079 765.811 538.086
1208 1 54.125 11.067 599 69.6678 765.127 557.673
1209 0 58.1541 10.8505 631 68.7639 765.403 558.304
1210 0 56.0371 11.4032 639 68.5524 765.171 558.097
1211 0 59.1461 12.3254 729 67.5021 765.111 556.152
1212 0 61.0958 12.6359 772 67.3355 764.404 555.946
1213 0 64.1703 12.7629 819 67.011 763.855 554.038
1214 0 68.2579 13.7274 937 64.54 763.826 553.755
1215 0 69.1696 12.8958 892 66.8173 763.651 552.924
1216 0 71.2022 13.6372 971 65.4799 763.759 552.047
1217 0 75.2987 13.4929 1016 65.2598 763.406 551.592
1218 0 78.2628 14.2852 1118 64.4097 764.043 550.14
1219 0 79.2401 13.6042 1078 66.2393 764.006 548.173
1220 0 81.2596 13.5861 1104 66.0906 763.531 547.702
1221 0 84.2943 13.9274 1174 65.6584 763.517 546.694
1222 0 86.2454 13.7515 1186 66.3356 763.55 545.218
1223 0 89.254 14.4195 1287 65.2673 763.365 544.239
1224 0 94.288 13.6709 1289 65.7983 763.279 542.699
1225 0 96.2926 13.7498 1324 65.7855 762.751 540.71
1226 1 53.1411 12.4386 661 65.8215 762.776 563.348
1227 0 54.1262 12.2676 664 65.7907 762.34 563.633
1228 0 55.226 12.2044 674 66.4184 762.248 562.34
1229 0 58.061 13.5375 786 64.7723 763.093 559.824
1230 0 59.1283 13.6483 807 64.2094 763.4 559.551
1231 0 61.1879 14.1041 863 64.0255 763.301 558.513
1232 0 61.166 13.3407 816 65.9032 762.614 557.477
1233 0 65.2666 12.7937 835 65.8587 762.811 556.467
1234 0 64.1863 13.7257 881 65.7174 762.474 555.809
1235 0 68.2784 13.8258 944 65.1017 762.238 555.428
1236 0 71.107 13.9789 994 64.7928 762.759 554.087
1237 0 73.3506 13.5786 996 64.6998 762.454 553.393
1238 0 73.2863 14.1773 1039 64.6728 762.524 550.749
1239 0 77.3931 13.5671 1050 65.3438 762.442 549.574
1240 0 79.1548 13.0504 1033 66.7115 762.384 549.411
1241 0 83.3699 14.0698 1173 64.3265 762.325 548.94
1242 0 83.3872 13.6352 1137 64.9147 762.054 548.645
1243 0 88.352 14.4309 1275 64.1114 761.715 546.063
1244 0 90.3747 14.2518 1288 64.2182 761.362 544.456
1245 0 93.5569 14.7397 1379 63.2263 761.855 545.421
1246 0 97.4286 15.2419 1485 62.433 761.719 538.242
1247 1 50.5283 11.3006 571 65.6918 761.436 564.123
1248 0 53.1464 12.0422 640 67.0516 761.683 562.853
1249 0 55.4257 12.1063 671 67.5902 761.957 562.231
1250 0 54.1597 12.2047 661 68.6899 762.392 562.284
1251 0 58.1928 13.2834 773 67.0647 762.261 559.564
1252 0 59.2208 13.6101 806 66.469 762.815 558.282
1253 0 60.2778 13.5539 817 66.9914 762.421 558.787
1254 0 61.3795 13.8809 852 67.3885 763.266 556.65
1255 0 63.3195 14.261 903 66.887 762.553 555.169
1256 0 67.2525 14.3043 962 66.4085 763.008 554.36
1257 0 68.2522 13.919 950 67.7105 763.473 552.918
1258 0 69.1137 13.6876 946 69.2114 763.239 551.401
1259 0 73.2528 14.1428 1036 68.4334 763.516 551.352
1260 0 75.3072 13.9695 1052 68.5323 763.343 550.026
1261 0 76.3881 14.1383 1080 69.362 763.722 548.731
1262 0 81.5695 14.6623 1196 68.1413 763.548 547.126
1263 0 82.4653 14.8547 1225 68.7037 763.736 546.412
1264 0 86.721 14.587 1265 68.419 763.972 545.778
1265 0 88.3489 14.3522 1268 69.2263 764.099 545.953
1266 0 90.4491 14.7486 1334 69.2691 764.403 541.85
1267 0 92.5898 14.3644 1330 70.0293 764.605 540.57
1268 0 96.5666 14.5288 1403 69.5731 765.329 539.153
1269 1 54.2995 11.5471 627 72.1053 765.821 561.743
1270 0 56.123 11.8133 663 71.7738 765.193 561.727
1271 0 56.2086 12.8094 720 72.2333 765.442 558.362
1272 0 59.1748 12.894 763 71.7772 766.09 559.355
1273 0 62.1633 13.931 866 70.3222 766.782 556.497
1274 0 64.4167 14.2975 921 69.7459 766.653 554.797
1275 0 67.3631 14.4886 976 68.8893 767.203 554.158
1276 0 69.3541 14.0583 975 69.7692 767.386 553.48
1277 0 69.3649 14.4453 1002 69.2126 767.69 551.213
1278 0 73.4229 14.3552 1054 68.8378 767.683 550.16
1279 0 75.4016 14.8405 1119 68.2636 767.441 549.197
1280 0 79.5159 14.2739 1135 69.4819 767.325 546.352
1281 0 81.2476 14.8066 1203 68.4954 767.534 546.643
1282 0 84.5504 14.6895 1242 68.3027 767.85 546.191
1283 0 86.3543 14.1626 1223 69.5037 768.235 545.863
1284 0 89.3403 14.719 1315 68.7354 768.783 543.261
1285 0 92.3027 14.4416 1333 68.9025 768.355 541.076
1286 0 95.3487 15.4066 1469 67.8257 768.291 541.131
1287 0 99.2833 14.8162 1471 68.3956 768.228 537.597
1288 0 103.37 14.2402 1472 69.9484 767.985 535.997
1289 1 56.0866 11.6249 652 72.7868 768.267 558.138
1290 0 57.2694 12.0658 691 72.1708 768.197 557.318
1291 0 60.1452 13.085 787 70.8551 768.427 556.099
1292 0 63.2453 13.3765 846 70.1868 768.824 554.446
1293 0 65.2287 13.491 880 69.6614 768.451 553.722
1294 0 69.1371 13.8276 956 68.2646 768.548 552.47
1295 0 70.158 14.4246 1012 67.5484 768.485 552.378
1296 0 73.276 14.0428 1029 68.2643 768.233 549.659
1297 0 76.3952 13.6527 1043 68.652 768.362 549.553
1298 0 77.4277 13.4448 1041 69.2546 768.165 548.779
1299 0 79.2088 14.0641 1114 68.4309 768.566 545.501
1300 0 85.4963 14.679 1255 66.8008 768.281 544.488
1301 0 85.4352 13.9755 1194 68.5821 767.962 542.948
1302 0 90.3241 14.5698 1316 67.2774 767.945 541.972
1303 0 90.3303 14.292 1291 68.0643 768.204 540.943
1304 0 93.4042 14.0036 1308 68.052 767.69 540.549
1305 0 98.2884 14.3659 1412 66.7465 767.887 539.225
1306 0 101.493 13.9517 1416 68.0339 767.619 537.54
1307 1 53.2249 11.3669 605 70.1504 767.744 560.555
1308 0 55.1413 12.3501 681 69.4302 767.58 559.2
1309 0 58.1358 12.9696 754 68.3143 767.358 558.393
1310 0 60.0769 13.0167 782 68.5128 767.481 557.226
1311 0 61.1112 13.8109 844 67.6102 766.665 556.374
1312 0 63.1608 13.8219 873 66.8545 767.219 554.947
1313 0 66.1681 13.3297 882 67.5646 766.392 554.639
1314 0 68.2078 14.5438 992 65.8569 766.645 552.406
1315 0 71.3076 14.15 1009 65.6947 766.648 552.418
1316 0 72.1787 14.6165 1055 65.9848 766.1 554.936
1317 0 75.154 13.8649 1042 67.1756 766.314 551.207
1318 0 76.1893 14.4246 1099 66.4468 766.086 550.408
1319 1 90.1252 10.2635 925 67.9859 765.6 557.124
1320 0 83.2938 14.4308 1202 66.4359 766.079 547.304
1321 0 85.3219 15.3653 1311 65.8268 765.492 547.523
1322 0 88.2577 14.571 1286 66.1415 765.529 544.968
1323 0 91.4541 14.3241 1310 66.816 765.47 544.795
1324 0 91.4541 14.3241 1310 167.671 765.469 544.841
1325 0 95.2332 14.8688 1416 65.8955 765.106 542.133
1326 0 97.4248 14.524 1415 66.7795 765.156 540.427
1327 0 101.286 14.9774 1517 65.9314 764.793 538.418
1328 0 106.281 15.553 1653 64.3188 764.763 538.815
1329 0 106.131 14.8779 1579 66.4009 764.505 536.52
1330 0 110.161 14.6331 1612 66.4851 764.609 533.681
1331 0 118.269 15.2787 1807 64.7986 764.459 533.672
1332 0 121.316 15.1588 1839 63.9619 764.386 530.397
1333 0 122.353 15.3899 1883 63.683 764.599 530.104
1334 0 124.213 16.1657 2008 65.5423 765.467 528.281
1335 0 128.311 15.4001 1976 66.084 765.062 524.844
1336 0 133.284 14.878 1983 66.1841 765.161 523.923
1337 1 73.1509 12.5631 919 67.3439 764.404 555.158
1338 0 74.1418 12.8403 952 67.1008 764.765 553.458
1339 0 76.363 13.0954 1000 66.961 764.806 551.904
1340 0 78.2323 13.2298 1035 67.1662 764.449 549.886
1341 0 81.2446 14.4256 1172 65.8157 764.538 547.697
1342 0 86.2306 14.9019 1285 63.9362 764.675 547.591
1343 0 89.2518 14.0389 1253 65.3073 764.205 545.527
1344 0 90.2639 13.8594 1251 65.7858 764.002 542.946
1345 0 93.1491 14.5251 1353 64.9571 763.811 543.623
1346 0 96.0764 14.6238 1405 64.479 763.614 542.385
1347 0 98.2437 13.6701 1343 66.166 763.565 541.138
1348 0 101.159 13.8 1396 66.1497 763.117 539.554
1349 0 103.209 14.2042 1466 66.1398 763.266 537.227
1350 0 107.19 14.5536 1560 65.4667 763.175 537.401
1351 0 110.228 14.5062 1599 65.4697 762.664 536.651
1352 0 114.113 14.179 1618 66.3826 762.85 534.052
1353 0 118.239 14.9866 1772 65.3567 762.664 530.321
1354 0 122.403 14.73 1803 65.7765 762.151 528.663
1355 0 126.232 14.8061 1869 65.695 762.074 527.272
1356 0 129.262 15.0237 1942 66.1339 761.902 524.973
1357 0 134.193 14.9412 2005 66.396 761.658 522.77
1358 0 139.318 14.2552 1986 67.3364 761.471 521.761
1359 0 142.434 14.54 2071 67.466 760.989 519.165
1360 1 65.3307 11.5872 757 67.8309 761.003 556.938
1361 0 67.1545 12.4042 833 67.8439 760.72 555.205
1362 0 71.4106 13.0793 934 67.2912 760.853 554.62
1363 0 73.2949 12.9613 950 68.0179 760.926 553.796
1364 0 75.2934 13.2814 1000 68.024 761.072 550.767
1365 0 78.2174 13.2963 1040 68.0837 760.893 550.701
1366 0 81.3569 13.4715 1096 67.6615 760.81 551.134
1367 0 83.3598 13.3278 1111 69.0648 760.921 548.42
1368 0 85.3695 13.7169 1171 68.7541 760.597 546.202
1369 0 87.3604 13.2783 1160 70.3353 760.836 547.371
1370 0 89.4013 13.2548 1185 71.2785 760.758 546.128
1371 0 94.1895 13.3454 1257 71.0843 760.73 544.548
1372 0 95.3736 14.3016 1364 70.3798 760.447 544.368
1373 0 96.3212 13.2473 1276 73.4726 760.66 541.56
1374 0 100.26 13.8838 1392 72.4713 760.914 541.301
1375 0 105.405 14.6292 1542 71.38 760.516 539.879
1376 0 106.159 13.0653 1387 74.6979 760.268 535.688
1377 0 110.326 14.0311 1548 73.5181 760.278 534.743
1378 0 112.176 13.7195 1539 74.4399 760.299 532.975
1379 1 58.1974 11.6328 677 76.4948 760.685 559.824
1380 0 58.2954 12.0593 703 75.8848 760.782 559.142
1381 0 60.1878 12.1952 734 76.282 761.02 558.654
1382 0 64.2529 13.0578 839 71.4029 761.137 557.223
1383 0 65.312 13.7494 898 70.3374 761.003 554.419
1384 0 67.2587 13.6339 917 71.7535 761.084 554.662
1385 0 69.2222 13.7384 951 73.2408 761.192 553.676
1386 0 71.2301 13.8144 984 73.0833 760.759 551.101
1387 0 75.2875 13.8004 1039 72.0847 760.425 551.473
1388 0 77.3474 14.1569 1095 71.6721 760.298 551.674
1389 0 79.242 14.9668 1186 69.8693 760.533 550.361
1390 0 81.2633 14.373 1168 71.1807 760.808 548.372
1391 0 86.4238 15.2851 1321 68.4603 760.46 546.406
1392 0 87.2431 14.7633 1288 69.9239 760.3 545.179
1393 1 45.3106 11.057 501 74.1836 760.419 565.76
1394 0 48.1851 12.5142 603 71.3582 760.867 564.053
1395 0 50.3432 12.097 609 72.7291 761.13 562.805
1396 0 51.1275 12.8502 657 71.2861 761.094 562.624
1397 0 52.3321 13.7392 719 69.5925 761.121 559.917
1398 0 55.4018 13.1765 730 69.8233 761.556 560.162
1399 0 56.4374 13.4131 757 69.4848 761.768 559.502
1400 0 57.382 13.8719 796 69.5163 761.913 557.854
1401 0 58.289 13.7419 801 69.3283 762.075 558.045
1402 0 63.3916 13.5507 859 67.8836 762.41 557.407
1403 0 63.2642 13.9257 881 67.647 762.554 556.11
1404 0 67.2582 13.9463 938 66.5864 762.694 554.788
1405 0 69.3288 13.3999 929 67.1453 762.973 553.816
1406 0 72.2902 14.5663 1053 64.2127 763.411 552.785
1407 0 73.2533 14.6341 1072 65.1409 763.574 549.442
1408 0 75.3002 14.0372 1057 65.7304 763.95 548.727
1409 0 77.3214 13.7219 1061 66.3233 763.76 548.994
1410 0 80.3051 13.7351 1103 65.961 764.481 547.514
1411 0 83.2976 14.106 1175 65.063 764.709 545.894
1412 0 86.2408 14.2856 1232 65.2135 765.127 543.85
1413 1 44.1113 10.6775 471 65.3524 765.206 564.452
1414 0 46.0824 11.7832 543 63.9245 765.293 565.228
1415 0 48.1835 11.7053 564 64.7801 765.748 563.899
1416 0 50.1768 12.3962 622 63.9164 765.683 562.527
1417 0 50.0859 12.3188 617 64.2885 766.12 562.102
1418 0 51.0731 12.3353 630 64.1794 765.794 560.403
1419 0 54.0786 12.4263 672 63.4732 765.335 559.859
1420 0 55.0773 12.0921 666 64.1562 765.086 558.82
1421 0 59.0488 12.1594 718 63.117 765.106 558.533
1422 0 60.0343 12.7094 763 62.8204 765.287 557.052
1423 0 60.0906 13.1967 793 62.4994 765.816 556.453
1424 0 62.1515 12.5661 781 63.146 765.78 555.499
1425 0 66.0744 12.1832 805 62.7938 765.713 555.402
1426 0 66.2455 12.1518 805 63.959 765.487 553.441
1427 0 67.1484 12.9862 872 62.7603 765.29 553.638
1428 0 71.1002 12.7285 905 62.1746 765.522 551.819
1429 0 73.1962 12.528 917 62.2792 765.074 551.311
1430 0 76.2411 13.4967 1029 61.0982 765.155 548.161
1431 0 78.2109 13.3102 1041 61.4592 765.269 547.401
1432 0 82.1811 13.0444 1072 61.0131 765.135 547.419
1433 0 84.288 13.5251 1140 60.2781 765.047 544.766
1434 0 87.2529 13.5812 1185 61.7722 765.279 542.623
1435 0 89.2433 13.5696 1211 61.5334 765.034 543.227
1436 0 92.1676 12.8896 1188 62.9983 765.237 539.855
1437 0 94.2696 12.687 1196 63.7358 765.306 540.857
1438 1 54.2458 11.4479 621 61.3446 765.515 560.826
1439 0 52.0593 11.2564 586 63.0939 765.609 558.855
1440 0 57.0784 12.2288 698 59.139 765.456 560.325
1441 0 58.1657 12.3268 717 60.1144 765.725 556.746
1442 0 59.1153 11.08 655 60.3603 765.434 555.637
1443 0 63.1564 11.6378 735 59.2912 764.72 555.729
1444 0 65.2147 11.8071 770 59.1208 764.471 554.655
1445 0 65.2104 11.0872 723 60.2905 764.277 550.805
1446 0 69.1548 12.5371 867 58.015 764.097 552.707
1447 0 73.0964 12.7503 932 58.0665 763.788 549.78
1448 0 76.0722 12.4881 950 57.9968 763.923 549.806
1449 0 76.1007 12.1287 923 59.0607 764.333 548.967
1450 0 77.1089 12.0868 932 59.3584 763.975 547.328
1451 0 81.0911 11.4932 932 59.7897 764.249 545.177
1452 0 84.1267 11.9819 1008 59.3829 764.242 543.688
1453 1 44.0266 9.97125 439 58.1344 763.645 566.262
1454 0 46.0852 10.1117 466 57.809 763.964 564.348
1455 0 46.0785 9.93956 458 57.8603 764.552 564.627
1456 0 50.1152 10.5158 527 58.2732 763.404 562.643
1457 0 52.095 11.9013 620 56.6758 764.061 561.898
1458 0 52.0716 11.8491 617 57.1686 763.394 562.87
1459 0 53.0577 11.1577 592 58.7753 763.321 559.667
1460 0 56.1603 11.2179 630 58.1762 763.298 560.073
1461 0 57.0996 12.487 713 57.2959 763.128 558.376
1462 0 60.1246 12.524 753 56.9987 763.113 559.408
1463 0 61.0663 12.1835 744 58.6304 763.036 556.344
1464 0 62.0517 11.8127 733 59.4734 762.428 556.351
1465 0 62.0522 11.1519 692 61.0376 762.908 555.345
1466 0 66.0937 11.756 777 58.9987 762.879 554.519
1467 0 67.0724 12.5387 841 58.5422 762.885 553.389
1468 0 68.0674 11.2829 768 60.2852 762.435 552.549
1469 0 71.0599 13.5379 962 57.368 762.768 553.262
1470 0 73.0705 12.2484 895 59.4581 762.375 552.816
1471 0 68.2349 9.04229 617 64.5867 761.767 544.147
1472 1 40.128 9.19558 369 59.4119 761.78 569.556
1473 0 39.0529 8.85977 346 60.5578 762.058 569.59
1474 0 38.0524 9.88112 376 60.2314 762.391 569.697
1475 0 43.062 10.4733 451 59.439 761.78 568.348
1476 0 45.0541 10.9202 492 58.498 760.774 569.726
1477 0 47.0807 11.321 533 59.3096 759.916 567.086
1478 0 46.2044 10.4319 482 60.3382 760.241 567.801
1479 0 48.0885 10.6262 511 60.456 760.256 564.27
1480 0 51.0612 12.7886 653 57.8806 760.565 562.965
1481 0 50.1067 11.5553 579 60.3212 761.019 562.715
1482 0 53.1014 11.8076 627 60.2424 760.561 560.292
1483 0 55.1369 11.0815 611 60.1604 760.481 563.525
1484 0 57.2943 12.1304 695 59.1813 761.132 559.459
1485 0 59.2051 13.0056 770 58.3818 760.581 558.462
1486 0 59.2886 12.2958 729 59.7545 761.653 558.874
1487 0 63.3342 13.784 873 58.1982 761.337 558.499
1488 0 64.2584 13.0255 837 59.1744 761.284 555.98
1489 0 66.2552 13.5235 896 59.2812 760.866 553.584
1490 0 66.2989 12.504 829 60.047 761.479 553.215
1491 0 70.2508 12.2703 862 60.0012 760.911 554.022
1492 0 73.3384 13.6354 1000 58.782 761.717 552.677
1493 0 75.239 13.5834 1022 58.9188 762.095 548.432
1494 0 78.2367 12.7945 1001 59.4995 762.442 550.85
1495 0 82.2369 13.7408 1130 58.4044 762.094 550.561
1496 1 41.3405 11.0062 455 61.5077 761.873 568.125
1497 0 42.202 10.6867 451 62.0998 761.831 566.84
1498 0 45.1458 11.1417 503 62.2465 761.252 566.284
1499 0 45.2722 11.8174 535 62.6262 761.555 564.338
1500 0 48.2845 13.3376 644 60.0668 761.682 565.151
1501 0 50.1844 12.5338 629 61.4213 761.935 563.889
1502 0 52.1999 12.6629 661 61.0454 762.241 562.286
1503 0 52.1598 12.4425 649 62.5023 762.328 561.675
1504 0 54.2189 12.4864 677 62.5318 762.174 561.479
1505 0 58.1545 13.3953 779 59.8228 762.384 560.42
1506 0 59.1272 13.1581 778 60.7596 762.571 558.486
1507 0 60.2715 14.219 857 59.4726 762.526 559.585
1508 0 62.1489 13.6447 848 60.2087 762.613 557.748
1509 0 63.205 13.1477 831 60.6245 762.727 556.834
1510 0 64.306 13.187 848 60.9493 763.296 555.468
1511 0 67.148 12.9416 869 61.1519 763.505 554.497
1512 0 69.4404 13.1336 912 61.1239 763.385 554.236
1513 0 68.2587 12.6724 865 62.5145 763.528 551.547
1514 0 72.3012 14.3566 1038 59.7168 763.886 550.032
1515 0 76.4591 13.6936 1047 59.9322 764.016 549.588
1516 0 78.4618 14.045 1102 59.5771 764.593 548.328
1517 0 81.307 13.9594 1135 59.4969 765.141 546.121
1518 0 85.3158 13.7372 1172 59.3379 765.155 544.664
1519 1 46.2335 11.8961 550 60.6818 765.616 563.029
1520 0 48.1281 10.9499 527 61.6281 765.704 561.913
1521 0 48.1237 12.5925 606 60.1403 765.706 561.571
1522 0 52.1674 13.7059 715 58.2531 766.441 559.582
1523 0 53.1058 14.4429 767 57.4681 766.905 558.963
1524 0 53.1755 12.8255 682 59.456 767.1 560.05
1525 0 57.1586 12.9814 742 58.8531 766.408 559.179
1526 0 57.2896 12.6376 724 59.4862 766.307 557.836
1527 0 60.2496 13.9586 841 57.396 766.754 555.659
1528 0 62.332 14.0217 874 57.0492 766.907 556.63
1529 0 63.3003 13.8862 879 57.3686 766.85 555.497
1530 0 65.296 13.0483 852 58.6702 767.128 555.445
1531 0 68.1641 13.3501 910 58.4154 766.824 552.873
1532 0 70.2041 14.0732 988 58.5455 766.768 552.064
1533 0 75.3332 14.708 1108 57.2265 766.736 551.608
1534 0 73.3993 13.883 1019 59.7193 766.757 549.418
1535 0 79.3166 14.1206 1120 58.875 766.914 547.937
1536 0 80.3426 14.6995 1181 58.8704 766.724 545.283
1537 1 42.2112 10.9923 464 62.2608 766.453 565.741
1538 0 43.2516 11.1441 482 61.2718 766.253 565.703
1539 0 43.1081 11.6451 502 61.0498 767.201 566.572
1540 0 46.1669 12.4331 574 59.7787 766.949 565.341
1541 0 46.1861 12.9909 600 60.1467 766.813 564.273
1542 0 51.1524 13.3327 682 59.3534 766.6 562.821
1543 0 49.23 12.7565 628 61.3694 766.467 561.196
1544 0 52.1317 12.7945 667 60.4363 766.145 560.594
1545 0 53.1008 13.3331 708 59.9251 766.274 559.708
1546 0 54.074 13.3336 721 60.172 766.352 558.639
1547 0 57.0996 12.7847 730 59.9753 766.3 558.412
1548 0 57.2894 13.65 782 59.367 766.271 556.257
1549 0 60.0997 12.6623 761 60.1327 766.43 556.469
1550 0 63.0917 13.5675 856 58.2967 766.03 555.182
1551 0 65.0963 13.7181 893 59.14 766.342 555.316
1552 0 65.2034 13.1281 856 60.3271 765.426 555.382
1553 0 66.2501 13.1471 871 60.7371 764.581 553.149
1554 0 70.306 14.0102 985 59.1553 764.625 552.061
1555 0 71.2887 14.0415 1001 59.5215 764.633 551.181
1556 0 72.284 14.1663 1024 60.041 764.721 552.064
1557 0 74.2685 12.8049 951 61.9348 764.903 549.678
1558 0 77.3009 13.2081 1021 61.4535 764.874 549.285
1559 0 81.2958 13.5062 1098 61.6448 764.602 547.311
1560 0 82.5531 13.3974 1106 62.2613 764.038 544.58
1561 1 44.2134 10.8338 479 63.261 763.315 565.273
1562 0 46.1469 10.9216 504 64.2579 763.647 563.923
1563 0 49.1926 11.2822 555 63.2324 763.584 563.535
1564 0 49.0825 13.1819 647 62.2287 763.144 561.975
1565 0 52.0567 13.3892 697 62.2826 763.042 561.851
1566 0 54.0891 13.6996 741 61.776 763.217 560.783
1567 0 57.0244 13.4329 766 61.97 762.884 560.258
1568 0 59.0398 13.8551 818 61.5098 762.989 560.257
1569 0 58.0322 13.1651 764 63.5353 763.017 558.628
1570 0 62.0584 14.6636 910 60.5934 762.879 558.386
1571 0 63.0786 13.5704 856 62.1285 762.523 559.582
1572 0 66.0615 14.8195 979 60.4995 762.191 557.987
1573 0 67.0201 13.6825 917 62.7132 762.434 556.231
1574 0 69.1118 13.9918 967 62.1344 762.395 556.786
1575 0 72.1746 14.7836 1067 61.3515 762.419 554.522
1576 0 74.1271 14.2593 1057 62.3851 762.239 553.955
1577 0 77.1164 15.3275 1182 60.7936 762.42 552.918
1578 0 79.1023 14.1462 1119 62.8561 762.413 551.479
1579 0 81.0871 14.4659 1173 62.8201 762.299 549.761
1580 0 84.222 14.7349 1241 62.8259 761.794 549.365
1581 0 87.082 15.5945 1358 61.5965 761.675 547.271
1582 0 89.0742 14.5946 1300 63.3223 762.197 547.798
1583 0 92.0858 14.9534 1377 62.7168 761.829 548.457
1584 0 94.1776 14.9292 1406 62.6935 761.863 545.397
1585 0 99.2372 14.9843 1487 62.0733 761.379 544.743
1586 0 101.151 14.8788 1505 62.7196 761.51 541.09
1587 0 104.107 15.2535 1588 62.2173 761.425 539.337
1588 0 106.159 15.0152 1594 62.8576 761.676 538.279
1589 1 59.1423 12.7151 752 64.0878 761.626 563.334
1590 0 61.0943 14.4367 882 61.8776 761.734 562.206
1591 0 61.0495 13.1533 803 64.8692 762.469 559.427
1592 0 65.1349 14.2934 931 62.9624 762.599 557.784
1593 0 66.278 14.6806 973 62.7441 762.478 556.265
1594 0 69.0842 14.258 985 62.0843 762.638 555.558
1595 0 71.1555 13.4073 954 64.1164 762.642 553.55
1596 0 76.1431 14.2626 1086 62.093 762.667 553.39
1597 0 78.2164 15.521 1214 60.29 762.575 552.173
1598 0 79.1936 14.5719 1154 62.2227 762.315 549.617
1599 0 84.0855 15.0561 1266 60.9202 762.508 548.408
1600 0 87.3416 14.0941 1231 62.0447 762.802 547.812
1601 0 90.213 15.8181 1427 60.0463 762.52 545.103
1602 0 94.109 15.1952 1430 60.4979 763.054 544.734
1603 0 96.081 14.1235 1357 61.706 762.872 542.074
1604 0 100.233 14.7058 1474 60.8066 763.264 541.035
1605 0 102.332 14.6289 1497 60.845 763.383 539.974
1606 0 102.332 14.6484 1499 170.301 764.384 539.947
1607 0 109.195 14.1124 1541 61.5165 763.118 534.206
1608 0 112.316 13.9339 1565 61.6633 763.59 534.546
1609 1 58.1663 11.5187 670 61.2328 763.719 561.915
1610 0 59.3077 12.9326 767 60.6506 763.318 560.286
1611 0 63.264 13.1038 829 59.5609 764.037 559.826
1612 0 65.2177 14.4746 944 59.321 763.858 557.891
1613 0 64.2282 13.4988 867 60.6667 765.314 556.186
1614 0 68.2376 13.8047 942 59.9947 765.275 555.742
1615 0 70.1296 14.1595 993 60.2377 765.47 553.402
1616 0 73.0853 14.0384 1026 60.229 765.313 552.735
1617 0 75.1591 13.5712 1020 61.551 766.136 551.362
1618 0 77.0574 13.2758 1023 61.8397 766.309 550.35
1619 0 80.2661 14.4644 1161 60.6891 766.453 548.55
1620 0 84.2034 14.2156 1197 60.9866 767.18 547.91
1621 0 87.2416 14.9814 1307 60.4384 767.034 546.077
1622 0 88.1687 14.2568 1257 61.5911 767.408 544.041
1623 0 93.3021 14.3834 1342 61.3241 767.487 541.443
1624 0 95.3755 14.7208 1404 61.317 767.491 541.424
1625 0 96.1786 13.7973 1327 63.058 767.562 539.518
1626 0 101.252 14.5577 1474 61.791 767.784 537.313
1627 0 104.27 14.4528 1507 61.8573 768.08 535.928
1628 0 106.25 14.0612 1494 62.5676 768.21 536.464
1629 1 57.1506 11.3909 651 62.8111 768.467 561.911
1630 0 58.2035 11.4942 669 63.8371 768.259 559.668
1631 0 59.1809 12.6561 749 63.0961 767.848 557.159
1632 0 62.0803 12.8543 798 62.7005 767.942 556.014
1633 0 64.1482 13.5468 869 61.6812 768.74 554.093
1634 0 67.1039 13.3077 893 61.8858 768.728 554.212
1635 0 68.0823 13.043 888 62.9966 768.355 552.519
1636 0 71.0846 13.7301 976 62.2162 767.969 550.964
1637 0 71.0681 13.7896 980 62.9653 768.151 548.955
1638 0 76.0924 14.351 1092 61.9762 767.594 548.993
1639 0 77.093 14.2036 1095 62.8493 767.804 546.626
1640 0 81.1251 13.7565 1116 62.94 767.822 547.368
1641 0 85.1457 14.5515 1239 60.9798 767.484 545.306
1642 0 85.1815 13.571 1156 63.5208 767.51 542.78
1643 0 90.1536 14.1869 1279 62.5637 767.849 542.158
1644 0 92.1004 14.3539 1322 62.6929 768.033 540.57
1645 0 94.1515 14.1262 1330 63.5203 767.527 539.84
1646 1 49.0356 11.665 572 64.6049 768.119 563.493
1647 0 49.0123 11.4257 560 65.1768 768.234 563.493
1648 0 52.0356 12.6836 660 63.7394 768.027 561.015
1649 0 51.0956 12.9561 662 65.4879 767.689 560.063
1650 0 54.1061 12.8451 695 65.1194 766.914 559.78
1651 0 57.1196 13.9007 794 63.8728 767.232 557.752
1652 0 58.1354 14.3286 833 63.8908 766.399 557.545
1653 0 61.1156 14.6771 897 62.9855 766.833 555.798
1654 0 62.0713 13.7584 854 64.6007 766.611 556.287
1655 0 66.0499 14.2014 938 64.0405 766.308 555.108
1656 0 67.1527 14.1469 950 64.3116 766.256 553.209
1657 0 69.0937 14.0389 970 64.8629 765.994 552.716
1658 0 73.0924 14.1465 1034 64.5097 766.017 552.021
1659 0 74.117 13.4247 995 66.1497 765.721 551.738
1660 0 77.1262 14.1845 1094 65.3867 765.952 549.824
1661 0 80.1546 14.7465 1182 64.6447 765.519 547.447
1662 0 83.2116 13.9644 1162 65.6618 765.239 544.503
1663 0 87.1309 14.197 1237 64.9992 765.196 545.475
1664 0 88.2125 14.5104 1280 65.2109 765.156 543.634
1665 0 91.1358 14.824 1351 64.9141 764.783 542.88
1666 0 95.1249 14.8226 1410 64.5936 764.747 540.255
1667 0 97.2388 14.377 1398 64.4134 764.819 539.482
1668 1 51.1513 11.5931 593 66.2732 765.019 562.165
1669 0 53.0848 11.7924 626 66.2875 764.195 561.235
1670 0 56.0507 12.8812 722 64.4931 763.994 560.997
1671 0 59.1724 13.5198 800 64.1388 764.344 558.659
1672 0 59.0577 13.4614 795 64.8881 764.118 558.275
1673 0 62.0545 13.8427 859 64.007 763.769 555.531
1674 0 63.0948 13.8205 872 63.6548 764.065 555.308
1675 0 66.121 14.1861 938 62.7537 763.834 554.833
1676 0 70.1058 14.2071 996 62.254 763.438 553.495
1677 0 70.1723 14.1794 995 62.7427 764.141 553.843
1678 0 73.19 14.114 1033 62.4017 763.575 552.36
1679 0 76.1924 14.4109 1098 61.7295 763.719 550.306
1680 0 76.1924 14.3715 1095 167.419 764.713 550.32
1681 0 81.3307 13.7218 1116 62.2231 763.598 546.784
1682 0 86.1186 13.9343 1200 60.8892 763.716 547.715
1683 0 87.2802 13.3822 1168 62.3142 763.767 544.37
1684 1 46.1599 11.0919 512 61.9258 763.918 565.43
1685 0 46.0505 10.6839 492 62.5183 763.665 565.313
1686 0 50.1422 12.8634 645 59.6791 763.693 562.781
1687 0 51.1118 13.089 669 59.9671 763.027 563.055
1688 0 53.4283 13.7568 735 58.5687 763.336 561.071
1689 0 55.3776 12.803 709 59.7264 762.973 560.502
1690 0 58.1754 12.9608 754 59.0199 762.739 560.088
1691 0 60.1404 13.4851 811 58.4414 762.673 560.36
1692 0 60.2122 13.7348 827 58.2624 762.398 558.826
1693 0 66.4042 16.9718 1127 52.7817 763.043 554.847
1694 0 66.2594 14.896 987 56.3495 762.798 556.032
1695 0 66.3721 13.0929 869 59.1933 762.517 554.287
1696 0 70.3783 14.4363 1016 56.7726 762.137 554.072
1697 0 72.401 14.1849 1027 57.3398 761.854 551.004
1698 0 74.5347 15.1473 1129 55.7369 761.677 551.641
1699 0 77.4455 13.7129 1062 57.3663 761.367 550.722
1700 0 80.3311 13.9547 1121 56.9938 761.542 549.882
1701 0 81.5207 13.1746 1074 58.4376 760.975 549.055
1702 1 44.4101 11.3488 504 60.4583 760.911 565.202
1703 0 46.3267 12.1528 563 59.4067 760.591 565.25
1704 0 48.4011 12.0865 585 58.8598 760.933 565.429
1705 0 49.2258 12.5138 616 58.888 760.826 565.39
1706 0 51.4283 13.5917 699 58.2632 760.498 563.973
1707 0 53.1356 13.7384 730 58.1507 760.826 564.068
1708 0 56.1952 13.3108 748 58.4933 760.885 561.616
1709 0 56.2214 13.3045 748 59.135 760.866 560.866
1710 0 57.2223 13.1767 754 59.0902 760.894 560.782
1711 0 59.256 13.6357 808 58.297 760.76 559.944
1712 0 66.2047 16.7813 1111 53.2925 761.65 553.551
1713 0 67.3243 16.7993 1131 53.3546 761.17 553.21
1714 0 68.3512 16.2835 1113 54.611 761.931 553.713
1715 0 69.1674 15.2818 1057 56.2062 761.836 552.978
1716 0 70.4157 14.4002 1014 57.9467 761.776 552.632
1717 0 71.6796 14.0486 1007 58.573 762.292 551.102
1718 0 75.3851 14.4989 1093 57.1061 762.234 551.541
1719 0 76.4106 14.2258 1087 58.6477 762.403 548.81
1720 0 78.5662 13.7591 1081 59.1129 762.462 548.11
1721 0 82.6633 13.803 1141 59.0868 762.461 547.266
1722 0 87.4447 15.0152 1313 57.1973 762.462 544.375
1723 1 47.1981 12.9454 611 59.491 762.624 562.918
1724 0 50.2301 12.4029 623 58.4189 762.798 564.385
1725 0 49.176 11.53 567 61.2275 762.968 563.134
1726 0 52.2789 13.2558 693 58.8009 762.72 560.061
1727 0 52.2276 13.5943 710 59.7155 763.144 559.07
1728 0 56.2442 13.8148 777 59.0502 763.426 558.793
1729 0 57.1527 14.1376 808 57.7314 763.175 556.728
1730 0 58.3108 13.7196 800 58.95 763.19 557.837
1731 0 61.1984 15.2455 933 56.5606 763.323 555.38
1732 0 63.2837 13.8898 879 58.4846 763.753 555.72
1733 0 68.3434 14.7052 1005 56.6826 764.071 554.648
1734 0 69.2335 13.2595 918 59.1242 764.205 553.355
1735 0 70.1399 13.3733 938 58.9264 764.231 552.303
1736 0 74.1627 15.5604 1154 55.669 764.603 549.055
1737 0 77.2226 14.6978 1135 55.6775 764.706 550.474
1738 0 80.2919 14.1733 1138 56.1037 764.542 547.51
1739 0 83.2438 14.6437 1219 55.831 764.752 543.869
1740 0 84.549 13.9209 1177 57.5692 765.395 544.117
1741 0 89.4397 15.1499 1355 55.7321 765.492 542.065
1742 0 91.5222 14.1933 1299 55.8784 765.79 541.038
1743 1 49.3023 12.3929 611 55.7676 765.954 561.27
1744 0 50.431 11.0051 555 58.3009 766.458 561.578
1745 0 52.3452 12.0355 630 58.4714 766.39 560.035
1746 0 53.2079 12.7988 681 57.2981 767.013 559.821
1747 0 55.1022 13.4296 740 57.327 767.834 556.765
1748 0 57.0765 13.3155 760 57.7842 767.396 556.353
1749 0 57.073 13.6667 780 58.6051 767.679 556.306
1750 0 58.102 13.2181 768 59.5755 767.495 554.121
1751 0 61.1924 13.7435 841 59.0178 768.05 553.102
1752 0 61.1924 13.7435 841 165.549 769.05 553.102
1753 0 65.0844 13.9357 907 58.4763 768.157 553.373
1754 0 65.0844 13.9818 910 161.911 767.131 553.451
1755 0 69.1039 13.7329 949 59.2782 768.432 549.512
1756 0 74.2875 14.8208 1101 57.842 768.271 547.463
1757 0 74.1681 14.0626 1043 59.3346 767.974 546.833
1758 0 76.1231 12.9921 989 61.094 768.014 545.819
1759 0 80.1982 13.3419 1070 60.571 768.02 544.709
1760 0 82.2152 13.8904 1142 60.0438 767.874 543.447
1761 0 85.2112 14.1765 1208 59.9238 768.079 540.573
1762 0 88.2299 13.6688 1206 61.0373 768.221 537.979
1763 0 91.363 13.5503 1238 60.9394 767.914 537.467
1764 0 95.2794 14.1479 1348 60.3739 767.163 534.82
1765 1 51.1823 12.8169 656 59.8232 767.441 557.595
1766 0 53.1853 13.312 708 59.4675 767.692 555.876
1767 0 55.1663 12.8521 709 60.0254 767.358 556.575
1768 0 54.1233 13.0997 709 61.347 767.671 556.518
1769 0 57.1109 13.0273 744 61.2124 767.444 557.438
1770 0 58.218 13.3292 776 61.259 767.298 556.439
1771 0 60.1633 13.4634 810 61.258 767.075 555.447
1772 0 63.2879 14.4893 917 60.5071 766.752 553.937
1773 0 63.2862 14.1895 898 61.8541 766.746 553.565
1774 0 65.2396 13.7187 895 62.0726 766.563 552.486
1775 0 68.2815 13.8983 949 61.8504 766.22 551.023
1776 0 70.3743 16.6538 1172 56.8874 766.634 551.634
1777 0 70.2351 14.3518 1008 59.8433 766.235 550.217
1778 0 73.1793 13.4191 982 61.7627 766.016 549.364
1779 0 76.2704 15.8646 1210 58.9446 765.8 547.868
1780 0 77.3163 13.5676 1049 62.6254 765.725 548.606
1781 0 80.1961 14.876 1193 61.7351 765.753 545.847
1782 0 83.3206 14.5102 1209 62.0959 765.714 545.974
1783 0 84.2414 14.2092 1197 62.8229 766.024 545.145
1784 0 87.4194 14.2531 1246 62.7905 765.418 542.576
1785 1 38.1205 11.5423 440 63.8977 765.457 567.109
1786 0 40.182 11.0497 444 64.7005 765.241 564.964
1787 0 40.182 11.0995 446 169.404 765.24 564.975
1788 0 43.1827 11.9029 514 63.1459 764.586 563.868
1789 0 43.111 12.0387 519 63.7495 764.52 562.815
1790 0 45.1334 13.4269 606 62.0512 764.297 561.399
1791 0 47.092 12.8897 607 62.1565 763.992 560.647
1792 0 49.2525 13.2379 652 61.7546 763.64 560.011
1793 0 51.1277 13.4956 690 61.4101 763.452 560.658
1794 0 50.0479 13.5071 676 62.2929 763.278 558.827
1795 0 54.2384 13.1457 713 61.3254 763.338 559.968
1796 0 55.436 13.1683 730 61.7014 763.442 558.627
1797 0 57.1518 12.8605 735 62.4639 763.11 557.167
1798 0 58.4858 13.2682 776 61.7603 763.278 557.093
1799 0 60.2177 14.1155 850 61.0706 763.353 557.045
1800 0 61.2899 13.6238 835 61.6826 763.008 556.218
1801 0 64.516 15.1435 977 59.9406 763.167 554.341
1802 0 64.3271 12.9494 833 63.2389 762.988 554.467
1803 0 68.4804 14.4421 989 60.8342 762.904 553.733
1804 0 72.3216 14.2419 1030 60.5136 762.928 552.422
1805 0 75.2145 14.7711 1111 59.4932 762.858 551.966
1806 0 75.4166 14.0155 1057 61.3992 762.912 549.939
1807 0 78.3045 14.2904 1119 61.2288 762.596 547.151
1808 1 40.1503 12.3287 495 63.198 762.549 566.463
1809 0 40.2836 12.2382 493 63.5822 762.448 566.535
1810 0 41.171 11.3186 466 64.294 762.024 565.927
1811 0 45.0697 12.4474 561 62.6827 762.157 564.838
1812 0 45.2559 12.5509 568 62.9331 761.778 563.667
1813 0 45.2741 12.6121 571 172.982 760.765 563.55
1814 0 50.3715 13.6982 690 61.2812 761.877 562.78
1815 0 51.2851 13.4932 692 62.5188 762.707 560.173
1816 0 52.3436 12.0167 629 64.3068 762.628 560.512
1817 0 53.1895 12.4649 663 64.2805 762.992 559.689
1818 0 53.1895 12.4649 663 168.009 762.97 559.78
1819 0 58.1934 14.1941 826 62.2131 762.729 557.136
1820 0 60.4444 14.261 862 61.6961 762.715 556.992
1821 0 60.3933 13.7929 833 63.006 762.298 553.468
1822 0 64.322 14.3963 926 61.594 762.168 552.9
1823 0 66.6274 14.0933 939 62.3056 762.616 552.348
1824 0 67.7047 14.6223 990 62.1727 762.896 551.641
1825 0 69.4538 14.0669 977 63.0113 762.89 549.023
1826 0 74.3979 14.9601 1113 61.1959 762.721 549.323
1827 0 74.5372 14.476 1079 62.4523 763.198 548.213
1828 0 79.3739 14.4758 1149 62.0696 763.527 546.541
1829 0 80.391 13.9319 1120 62.7536 763.84 547.232
1830 0 83.4146 14.3021 1193 62.0126 763.898 545.531
1831 1 45.3525 11.3996 517 63.9671 763.29 562.565
1832 0 46.4519 12.5076 581 62.7246 763.544 562.389
1833 0 48.2953 12.6306 610 63.2459 763.608 562.011
1834 0 50.2097 13.0055 653 62.7795 763.897 560.551
1835 0 50.2484 13.7119 689 63.0827 764.263 558.112
1836 0 51.2388 13.4664 690 63.0043 764.412 557.358
1837 0 53.3408 13.2731 708 63.5028 764.503 557.169
1838 0 56.2728 12.4927 703 63.4922 765.284 556.828
1839 0 56.2983 12.9489 729 63.3045 765.547 555.207
1840 0 59.371 13.1377 780 62.9885 765.624 553.969
1841 0 62.4021 14.0059 874 60.9062 765.973 551.76
1842 0 66.3432 15.0128 996 59.2791 766.281 550.851
1843 0 68.1931 13.8724 946 60.814 765.891 548.832
1844 0 69.2746 13.728 951 61.3628 766.419 549.027
1845 0 73.3165 14.5261 1065 59.3737 766.42 549.294
1846 0 75.3047 13.6379 1027 61.0896 766.507 548.053
1847 0 77.3255 13.3721 1034 61.5687 766.715 546.823
1848 0 79.2096 14.3038 1133 60.7785 767.207 544.064
1849 0 81.1219 14.1639 1149 61.1297 767.38 540.845
1850 0 83.2107 13.4838 1122 62.0303 767.07 541.389
1851 0 86.1425 14.418 1242 60.5829 767.308 539.307
1852 0 89.2325 14.4678 1291 60.4376 767.234 536.693
1853 0 94.2722 14.2354 1342 59.0507 766.791 536.213
1854 0 94.3409 13.377 1262 60.2036 766.814 534.039
1855 1 52.042 10.4339 543 58.582 766.134 556.733
1856 0 53.0559 10.3853 551 58.6751 766.456 556.407
1857 0 54.0857 10.2615 555 58.373 766.47 555.69
1858 0 56.0826 12.0715 677 56.1004 768.041 553.882
1859 0 55.1583 11.041 609 57.8079 767.977 553.176
1860 0 60.1388 12.6042 758 55.3404 767.759 552.776
1861 0 62.16 12.9665 806 54.6365 767.328 552.268
1862 0 62.142 12.3427 767 56.1721 767.104 549.722
1863 0 64.1343 11.7722 755 56.1841 767.498 550.346
1864 0 69.112 12.6172 872 54.9438 766.69 547.493
1865 0 67.0928 12.0132 806 56.3995 766.788 547.428
1866 0 73.1376 12.0458 881 55.7753 766.701 546.677
1867 0 76.172 12.2486 933 55.4019 766.587 547.561
1868 0 75.1342 11.4728 862 57.6717 766.454 543.604
1869 0 80.1364 12.0794 968 56.1291 766.459 544.243
1870 0 83.2753 12.4166 1034 55.1306 766.67 541.699
1871 0 86.2906 12.8519 1109 54.7466 766.703 540.118
1872 1 50.0518 10.6889 535 53.4075 766.809 559.746
1873 0 49.0688 9.39497 461 54.9262 767.542 559.833
1874 0 51.0567 8.73538 446 55.0628 766.821 560.404
1875 0 50.2543 10.5066 528 54.7348 766.108 557.818
1876 0 53.2698 10.7753 574 54.3293 765.078 557.857
1877 0 55.3882 11.609 643 54.1213 765.519 554.988
1878 0 57.3413 12.2425 702 53.1453 765.161 556.66
1879 0 58.4721 12.7753 747 52.49 764.435 556.083
1880 0 59.4301 12.3002 731 53.4542 764.03 555.108
1881 0 60.2689 11.2496 678 55.2699 764.799 554.758
1882 0 62.3063 12.5509 782 54.1483 764.583 554.156
1883 0 64.2432 12.1102 778 54.91 763.888 553.506
1884 0 67.2004 12.3511 830 55.1 764.359 552.018
1885 0 70.5259 12.0098 847 55.9374 764.457 551.383
1886 0 71.2642 12.4466 887 56.1263 764.654 549.627
1887 0 72.473 11.4801 832 57.0781 764.034 552.04
1888 0 76.4559 11.9546 914 56.779 764.089 548.485
1889 0 78.273 12.7119 995 55.9688 763.77 547.585
1890 1 44.3489 9.19978 408 57.1225 762.904 564.424
1891 0 44.4158 9.74878 433 56.9284 763.434 564.162
1892 0 45.3813 11.7008 531 54.5593 762.798 563.203
1893 0 48.3205 11.4858 555 54.4342 762.721 564.171
1894 0 48.2254 10.6375 513 56.5731 762.331 561.107
1895 0 50.1093 12.7122 637 54.2732 763.651 560.432
1896 0 52.0996 13.0903 682 53.3871 763.424 561.99
1897 0 54.145 13.4084 726 52.9959 763.771 560.804
1898 0 55.0534 12.5696 692 54.8801 763.357 559.046
1899 0 56.2393 12.2512 689 55.3135 763.66 559.771
1900 0 57.1317 10.8696 621 57.0564 763.097 559.082
1901 0 61.1815 12.2913 752 54.5957 763.221 559
1902 0 61.1803 12.9127 790 54.7114 763.338 557.803
1903 0 63.0942 12.41 783 55.5658 763.184 556.941
1904 0 64.2077 12.7399 818 55.2127 762.908 555.793
1905 0 66.1991 14.3053 947 53.6969 762.841 555.568
1906 0 68.2215 12.7526 870 55.3322 762.423 553.805
1907 0 71.1136 13.4011 953 54.1333 762.852 554.379
1908 0 72.1186 13.2559 956 55.0837 762.816 552.597
1909 0 74.2134 13.313 988 55.4879 761.907 550.756
1910 0 79.1522 14.769 1169 52.7408 762.033 551.677
1911 1 42.0285 9.6601 406 56.5148 762.626 567.515
1912 0 43.1349 10.4092 449 55.4031 762.452 568.345
1913 0 42.0271 9.94596 418 55.622 762.557 567.249
1914 0 45.0788 10.5371 475 54.9537 762.316 566.187
1915 0 48.0204 10.8287 520 55.1769 761.9 565.288
1916 0 48.2338 12.1284 585 53.9111 760.921 563.725
1917 0 50.2275 13.0805 657 54.1142 760.514 564.632
1918 0 50.1879 13.2901 667 55.8726 760.217 564.723
1919 0 52.3429 12.3417 646 57.5495 761.443 562.724
1920 0 53.1795 12.58 669 57.843 761.634 562.129
1921 0 56.2103 13.0225 732 57.4945 761.078 561.204
1922 0 56.1894 13.935 783 57.4674 760.838 560.84
1923 0 58.4009 13.3388 779 58.3248 761.119 563.168
1924 0 59.2592 13.5169 801 58.2472 761.223 561.556
1925 0 58.2523 12.9265 753 60.162 761.113 559.483
1926 0 63.2139 13.7786 871 58.2595 761.017 560.084
1927 0 63.2113 14.0956 891 58.5129 760.769 561.037
1928 0 62.247 13.2376 824 60.8083 761.214 558.664
1929 0 63.1655 12.6335 798 61.4687 760.826 556.074
1930 0 68.1965 13.6224 929 60.0732 760.905 555.362
1931 0 69.112 14.2956 988 59.9666 760.596 554.819
1932 0 71.3408 14.0453 1002 59.9042 760.475 554.704
1933 0 76.2162 14.8919 1135 58.3586 760.349 554.065
1934 0 77.1662 13.7625 1062 60.6733 760.96 551.871
1935 0 79.159 13.7445 1088 60.9963 761.178 549.839
1936 0 83.1229 14.9899 1246 59.0506 761.203 549.628
1937 0 85.1692 14.5593 1240 59.4589 761.615 549.096
1938 0 87.1416 14.2182 1239 60.0242 761.803 548.144
1939 0 88.1467 13.7725 1214 61.3188 762.202 546.146
1940 0 95.0912 14.4283 1372 59.8302 761.786 543.607
1941 1 49.0723 10.9838 539 61.7236 761.675 565.629
1942 0 52.1146 12.1847 635 60.1433 761.652 564.299
1943 0 52.2108 11.8749 620 60.8887 761.656 563.99
1944 0 54.1454 12.1525 658 58.8906 762.182 563.043
1945 0 56.1091 12.1727 683 58.246 762.903 564.584
1946 0 60.3486 13.6871 826 56.6295 763.163 562.534
1947 0 59.2332 13.2189 783 58.0217 763.267 559.681
1948 0 60.1953 13.6223 820 57.7524 762.83 559.628
1949 0 61.3618 12.9885 797 58.6023 763.212 558.118
1950 0 63.1871 13.4046 847 58.3011 763.238 558.492
1951 0 69.2508 13.8915 962 56.7266 763.501 557.541
1952 0 70.4185 14.4138 1015 56.3448 763.527 557.667
1953 0 71.3293 13.2204 943 58.5345 763.786 554.095
1954 0 73.2191 13.4528 985 58.6548 763.734 551.966
1955 0 76.2033 13.3065 1014 58.5079 763.462 551.233
1956 0 78.1991 13.3377 1043 59.0422 763.419 548.81
1957 0 82.2039 14.1964 1167 57.7138 763.374 549.318
1958 0 85.0797 14.3042 1217 57.9137 763.712 547.628
1959 0 89.222 13.8083 1232 57.8523 763.818 547.585
1960 0 91.1591 14.897 1358 57.5287 764.026 543.989
1961 0 90.2111 13.2911 1199 60.3378 764.419 543.076
1962 0 95.0741 14.3046 1360 58.6456 764.867 540.391
1963 1 53.0348 10.9739 582 58.8883 765.198 564.012
1964 0 51.1103 11.035 564 61.8422 764.952 560.344
1965 0 51.0845 11.0209 563 61.794 765.05 561.533
1966 0 56.0546 12.8625 721 59.0569 765.645 561.781
1967 0 57.1106 13.8678 792 59.0152 765.907 560.876
1968 0 58.1515 12.4846 726 60.843 766.163 559
1969 0 59.0868 13.1502 777 60.5006 766.36 558.372
1970 0 62.0985 13.1726 818 60.8729 766.837 556.092
1971 0 65.1357 12.5891 820 61.9232 766.846 554.504
1972 0 64.1019 12.6517 811 62.6782 766.979 554.17
1973 0 69.1486 13.3481 923 61.662 767.346 552.522
1974 0 70.1047 13.7223 962 61.5405 767.707 553.324
1975 0 73.0647 14.0834 1029 61.7959 767.906 550.485
1976 0 74.1736 13.7246 1018 62.8418 768.463 549.831
1977 0 77.0899 12.7513 983 64.292 768.809 548.492
1978 0 79.0846 13.6942 1083 62.9511 768.502 545.319
1979 0 83.1288 14.0264 1166 62.5566 769.006 545.36
1980 0 84.1358 12.6581 1065 64.7239 768.857 544.034
1981 0 89.1076 13.9607 1244 62.7637 768.818 540.76
1982 0 90.1305 14.2016 1280 63.1031 768.995 539.876
1983 0 94.0575 13.5662 1276 64.2829 768.672 537.958
1984 1 53.087 10.4545 555 63.9604 768.712 559.986
1985 0 53.042 10.5954 562 64.6566 767.833 558.24
1986 0 55.0634 12.0407 663 62.5294 768.302 556.804
1987 0 55.1652 11.9641 660 62.8742 768.089 557.697
1988 0 57.1914 11.8724 679 62.9573 768.585 556.677
1989 0 60.1861 12.2287 736 62.4293 768.333 555.841
1990 0 63.0777 12.7462 804 61.699 768.461 553.367
1991 0 65.1674 12.5216 816 62.1225 768.607 550.966
1992 0 65.0916 12.5208 815 62.7779 768.385 552.011
1993 0 68.1381 13.5754 925 61.0984 768.213 551.823
1994 0 71.1641 14.0099 997 60.679 768.074 550.604
1995 0 72.1722 12.4425 898 62.7795 767.827 549.133
1996 0 75.1765 12.5172 941 62.9883 767.775 545.931
1997 0 77.0839 12.5188 965 63.0922 767.096 546.903
1998 0 81.1142 13.4625 1092 61.9716 767.186 543.989
1999 0 82.0938 13.85 1137 61.3193 767.153 544.316
2000 0 85.1923 13.4989 1150 61.8791 767.15 542.432
2001 0 87.2259 13.4708 1175 61.7472 766.627 541.283
2002 0 91.2066 13.6284 1243 60.8471 766.51 541.127
2003 1 48.1672 10.8995 525 61.0552 766.219 560.562
2004 0 49.2112 10.1603 500 61.858 767.042 563.112
2005 0 51.2404 10.8118 554 62.3953 766.487 559.081
2006 0 52.318 12.0035 628 60.7022 766.492 559.602
2007 0 55.2413 12.0743 667 60.4348 766.306 557.105
2008 0 56.244 12.1791 685 60.2774 765.758 556.625
2009 0 59.1578 13.016 770 59.4182 765.668 555.917
2010 0 60.1418 13.3518 803 58.7559 765.878 556.387
2011 0 61.2072 13.5768 831 58.3791 765.776 555.752
2012 0 63.1584 11.5899 732 60.3128 765.235 554.765
2013 0 65.2059 12.6829 827 59.1125 765.446 553.854
2014 0 65.0936 13.012 847 58.6068 765.675 552.412
2015 0 69.1743 12.6492 875 58.7611 765.912 551.815
2016 0 70.1668 12.5986 884 59.4548 765.873 550.354
2017 0 72.1471 12.6824 915 58.9049 765.497 550.008
2018 0 75.2459 12.6386 951 58.7645 765.115 548.41
2019 0 78.2122 12.7218 995 58.803 765.154 548.112
2020 0 80.084 13.0113 1042 58.858 765.243 545.758
2021 1 44.0327 9.94716 438 58.7763 765.758 565.171
2022 0 46.0968 11.324 522 57.7375 765.693 565.469
2023 0 47.0775 11.0031 518 58.332 765.689 565.012
2024 0 47.1147 11.4826 541 58.3309 765.765 563.237
2025 0 48.0483 12.1753 585 58.547 765.761 562.178
2026 0 50.269 12.4928 628 57.3169 764.825 562.823
2027 0 52.153 12.2332 638 57.8981 764.788 560.803
2028 0 55.1329 13.5128 745 56.1409 764.699 560.431
2029 0 55.113 13.1548 725 56.9352 764.708 559.069
2030 0 58.1178 12.423 722 56.9958 764.493 560.863
2031 0 59.0989 13.5197 799 56.7046 764.433 560.233
2032 0 59.2114 13.2238 783 57.3078 764.383 560.669
2033 0 60.0789 12.6334 759 58.527 764.159 558.913
2034 0 63.1354 13.5582 856 57.7395 763.908 556.749
2035 0 64.0815 13.5609 869 57.6663 764.208 557.066
2036 0 67.1663 12.9232 868 59 764.118 556.611
2037 0 69.132 13.7418 950 57.8905 764.476 555.483
2038 0 70.1852 13.4074 941 58.5611 764.722 554.654
2039 0 71.089 14.2919 1016 58.3435 764.224 552.945
2040 0 73.0734 14.547 1063 57.9595 764.275 552.039
2041 0 77.051 14.3671 1107 57.7389 764.151 552.829
2042 0 78.1291 14.4632 1130 58.4301 764.51 551.576
2043 0 81.0782 13.8262 1121 59.1543 764.438 550.775
2044 0 83.0585 13.5447 1125 60.1973 764.229 548.931
2045 0 86.0558 14.0142 1206 59.9229 764.369 546.97
2046 0 88.1036 13.6771 1205 60.1701 764.448 546.752
2047 1 50.0196 10.6558 533 61.9681 764.572 564.841
2048 0 51.1403 11.3218 579 61.1054 762.739 564.572
2049 0 54.1172 12.2327 662 60.145 762.781 563.707
2050 0 55.1711 12.8147 707 60.8289 763 562.388
2051 0 58.09 13.2553 770 60.2221 762.013 561.764
2052 0 57.1924 13.0612 747 61.34 762.367 561.689
2053 0 62.2195 13.7577 856 61.3867 762.431 561.728
2054 0 63.2734 13.5444 857 62.0548 762.303 561.555
2055 0 66.0918 13.4812 891 61.8103 762.204 559.919
2056 0 67.2484 13.636 917 62.8964 761.839 557.395
2057 0 68.1637 14.0397 957 62.5392 762.002 557.684
2058 0 72.4229 14.2634 1033 61.9022 761.886 556.757
2059 0 75.3009 13.3597 1006 63.1282 762.228 555.914
2060 0 76.2539 14.0321 1070 62.0477 761.659 555.635
2061 0 77.1557 14.4513 1115 62.1722 761.523 552.766
2062 0 81.2936 14.9827 1218 61.1864 761.806 551.998
2063 0 84.3502 14.9614 1262 61.0753 761.437 550.948
2064 1 43.2531 10.7969 467 64.6338 761.126 570.336
2065 0 44.1727 9.73453 430 66.5814 761.516 569.549
2066 0 47.1318 10.6934 504 65.1944 762.002 567.998
2067 0 48.1664 11.7925 568 64.6373 762.319 567.785
2068 0 53.4065 12.8074 684 62.0512 762.219 567.92
2069 0 54.2801 13.3566 725 62.4414 762.448 565.303
2070 0 52.1606 13.0558 681 64.4009 761.928 564.837
2071 0 57.2662 13.9699 800 62.445 762.192 564.59
2072 0 58.1543 13.2406 770 64.0481 762.873 563.323
2073 0 59.338 13.7012 813 63.9237 762.677 561.371
2074 0 60.2587 12.4961 753 65.5193 762.381 562.801
2075 0 64.4012 13.8507 892 62.8913 762.457 561.152
2076 0 67.3475 14.0911 949 62.7524 762.378 558.861
2077 0 66.43 13.3072 884 64.5928 762.999 558.294
2078 0 69.6062 14.3665 1000 63.462 763.455 556.537
2079 0 70.3043 13.9963 984 64.4024 763.835 555.439
2080 0 73.4652 14.2244 1045 63.8986 764.389 553.055
2081 0 75.3632 13.9723 1053 64.3609 764.22 552.43
2082 0 78.4327 13.7315 1077 64.545 764.364 551.678
2083 0 78.3156 13.5222 1059 65.6818 764.715 548.571
2084 0 84.3107 14.3754 1212 63.9777 764.981 547.733
2085 0 85.4675 13.5607 1159 65.1406 765.067 549.067
2086 0 88.4722 14.3435 1269 64.1781 764.972 545.051
2087 0 93.5872 14.9059 1395 63.709 765.299 543.414
2088 0 95.2597 14.6127 1392 64.0338 766.177 541.626
2089 0 97.315 14.7973 1440 64.3194 766.202 540.722
2090 0 101.371 14.3729 1457 65.1146 766.752 538.544
2091 1 51.3516 11.1584 573 67.2635 766.433 564.379
2092 0 54.1859 11.9035 645 66.2651 765.941 563.087
2093 0 56.2836 12.0817 680 66.0221 766.291 561.241
2094 0 58.3984 13.1853 770 65.0688 766.325 557.749
2095 0 61.2653 13.9067 852 63.3333 766.245 558.081
2096 0 60.3196 13.3953 808 64.9431 766.21 556.574
2097 0 63.3909 13.6455 865 64.741 766.523 557.237
2098 0 65.3375 13.591 888 64.8896 766.427 555.284
2099 0 67.2941 13.6862 921 65.7166 766.573 554.293
2100 0 70.5344 13.823 975 64.8769 766.729 556.101
2101 0 73.4025 14.0731 1033 64.8045 766.608 553.817
2102 0 74.1966 13.7742 1022 66.1937 767.003 551.349
2103 0 76.4673 13.4698 1030 67.0019 767.266 549.915
2104 0 78.3909 12.5907 987 68.5238 767.245 548.161
2105 1 42.3801 11.7744 499 68.8337 767.465 566.687
2106 0 43.2694 11.7635 509 69.5462 767.269 564.931
2107 0 45.475 11.7867 536 68.7836 767.086 564.194
2108 0 48.2859 13.2337 639 67.2097 767.415 563.022
2109 0 47.1434 13.4059 632 68.3671 767.163 563.772
2110 0 51.1742 13.9328 713 66.913 767.898 561.882
2111 0 52.1422 14.4988 756 65.6111 768.231 561.237
2112 0 54.0955 13.1804 713 67.4867 768.345 561.273
2113 0 54.1753 13.4194 727 68.2503 768.155 559.312
2114 0 55.1 13.3575 736 68.8967 768.507 559.742
2115 0 56.1253 13.5946 763 67.6684 768.223 559.35
2116 0 58.249 14.5067 845 65.9716 767.964 557.414
2117 0 61.3874 13.6673 839 66.3504 768.027 557.178
2118 0 61.1589 14.9283 913 65.598 767.532 555.298
2119 0 64.2877 14.124 908 66.1487 766.913 554.102
2120 0 66.188 14.4739 958 65.8633 766.557 552.35
2121 0 68.2802 14.0304 958 65.8935 766.431 553.064
2122 0 70.578 14.6221 1032 65.6289 766.711 551.065
2123 0 72.3733 13.8587 1003 66.7029 766.295 550.566
2124 0 77.5344 14.5871 1131 63.3059 765.935 551.634
2125 0 78.3644 15.4662 1212 63.4744 766.392 549.04
2126 1 42.2739 12.3244 521 65.2226 765.322 567.633
2127 0 45.3337 12.3308 559 64.7621 764.919 566.556
2128 0 45.1713 13.2385 598 64.8043 765.349 564.674
2129 0 48.1149 12.5325 603 65.393 765.083 562.985
2130 0 50.117 13.7877 691 63.6382 765.247 562.627
2131 0 51.1645 13.6032 696 63.7701 765.165 562.269
2132 0 51.0645 14.2761 729 63.1866 765.372 563.125
2133 0 52.2186 14.8989 778 63 765.084 559.571
2134 0 55.1116 13.3366 735 64.317 764.902 560.507
2135 0 56.3808 14.2602 804 63.3085 764.687 558.817
2136 0 55.2423 13.4679 744 65.4086 764.152 559.474
2137 0 59.2382 14.6021 865 63.1526 764.31 560.518
2138 0 61.3906 14.1878 871 63.7681 764.095 559.945
2139 0 61.3615 14.4064 884 64.7896 763.595 555.687
2140 0 64.3234 15.1422 974 63.7916 763.633 555.21
2141 0 67.4528 14.2025 958 65.5157 763.658 553.888
2142 0 70.3936 14.6462 1031 64.7022 763.444 554.256
2143 0 71.3534 14.0007 999 65.982 763.79 553.525
2144 0 75.3166 15.4548 1164 63.4132 764.152 552.891
2145 0 78.4222 15.7098 1232 63.4497 763.975 548.389
2146 0 79.4451 14.7649 1173 65.6155 763.797 549.722
2147 0 82.4825 15.2153 1255 64.6438 763.778 548.021
2148 0 84.3087 15.7042 1324 64.7017 764.215 547.273
2149 0 88.3409 15.5873 1377 64.6006 763.844 545.829
2150 0 91.5411 14.813 1356 65.5206 763.677 543.879
2151 0 94.4992 16.6351 1572 63.2341 763.471 542.819
2152 1 49.2657 11.8338 583 68.964 763.518 563.189
2153 0 53.3371 11.3617 606 67.995 763.726 564.028
2154 0 52.3144 12.0808 632 67.3339 763.652 563.055
2155 0 55.2533 13.8634 766 65.3094 763.406 561.179
2156 0 57.2445 13.8878 795 65.1434 763.648 559.951
2157 0 61.317 12.8349 787 66.1423 763.503 558.632
2158 0 62.3006 15.04 937 62.9104 763.094 558.091
2159 0 63.3487 14.0492 890 64.8944 763.122 558.046
2160 0 63.2717 14.6511 927 64.2632 762.949 557.789
2161 0 68.3793 14.7413 1008 63.6597 762.683 556.732
2162 0 69.2896 14.1724 982 64.7322 762.783 556.188
2163 0 72.4423 14.4529 1047 64.2865 762.927 556.399
2164 0 73.2952 15.5126 1137 64.0053 762.894 555.824
2165 0 75.3672 14.091 1062 66.1827 762.341 554.374
2166 0 79.3661 14.1748 1125 66.1662 761.834 552.803
2167 0 81.3234 14.9895 1219 65.2699 761.692 551.905
2168 0 85.5047 15.005 1283 64.2666 761.252 550.816
2169 0 89.3352 14.6079 1305 64.9211 761.402 549.982
2170 0 92.4738 15.3881 1423 63.9747 761.427 547.772
2171 0 96.3384 14.8124 1427 64.5886 761.652 546.666
2172 0 96.3788 14.9099 1437 65.2401 761.672 543.596
2173 0 100.37 14.9746 1503 64.9834 761.353 543.299
2174 1 56.2679 11.9784 674 66.8872 760.872 564.788
2175 0 56.3013 11.7404 661 68.4629 761.328 562.809
2176 0 59.32 12.2724 728 67.2225 761.195 563.706
2177 0 60.2045 12.8728 775 67.6387 761.688 560.161
2178 0 62.3777 14.7168 918 64.6536 761.765 560.82
2179 0 64.3254 13.4939 868 65.3618 762.002 558.608
2180 0 65.3035 14.0115 915 66.3617 762.157 558.129
2181 0 68.6614 14.3749 987 65.385 762.094 559.463
2182 0 70.3574 14.2558 1003 66.5374 761.882 555.278
2183 0 73.5929 14.2269 1047 65.9542 761.664 555.339
2184 0 76.2683 14.0032 1068 66.8268 762.316 553.863
2185 0 80.4095 14.2645 1147 66.1282 762.8 552.559
2186 0 83.5335 14.8204 1238 64.9935 762.979 550.875
2187 0 83.5362 14.2333 1189 67.1808 763.271 548.629
2188 0 89.2321 14.6472 1307 65.9862 763.404 546.705
2189 0 90.614 14.5342 1317 66.8481 763.549 544.412
2190 0 96.5022 15.7302 1518 64.6021 763.71 544.713
2191 0 97.4266 15.2114 1482 65.805 763.807 541.88
2192 0 101.454 15.0216 1524 67.458 763.934 540.414
2193 0 103.39 15.1175 1563 67.6456 764.515 537.527
2194 0 107.411 15.6782 1684 66.554 764.407 536.229
2195 0 109.298 15.1696 1658 67.7286 764.61 533.986
2196 0 113.35 15.9594 1809 66.8054 764.617 533.332
2197 0 117.431 15.541 1825 67.1414 764.879 532.712
2198 0 121.618 14.7099 1789 68.0883 764.775 529.556
2199 0 124.456 15.4753 1926 67.6282 764.863 525.53
2200 0 129.539 16.0415 2078 66.2782 764.8 524.095
2201 0 134.42 15.9128 2139 66.8855 764.775 520.338
2202 1 70.4431 11.8677 836 69.8409 764.694 553.573
2203 0 73.4505 13.3423 980 68.8571 764.546 550.673
2204 0 76.3116 14.2311 1086 67.4282 764.858 550.255
2205 0 76.3426 13.3477 1019 69.5829 764.877 548.759
2206 0 80.5135 13.625 1097 69.6335 765.098 547.097
2207 0 83.5747 13.5448 1132 69.6705 765.585 546.595
2208 0 85.4594 13.7726 1177 70.1699 765.415 545.009
2209 0 88.4034 13.7664 1217 70.0978 765.348 542.57
2210 0 91.4346 14.5459 1330 69.5714 765.666 542.057
2211 0 92.4077 13.5595 1253 71.1668 765.38 539.879
2212 0 95.3093 14.3743 1370 70.581 765.64 538.101
2213 0 99.2677 14.2342 1413 70.3489 765.881 536.272
2214 0 103.33 14.1198 1459 70.5202 765.877 536.236
2215 0 105.379 13.8737 1462 71.3263 765.983 533.305
2216 0 109.224 14.9052 1628 69.4103 766.143 531.791
2217 0 113.287 14.2646 1616 69.9443 766.706 531.587
2218 0 117.309 15.7277 1845 68.0661 766.98 527.899
2219 0 119.264 13.8516 1652 70.313 767.173 526.094
2220 0 124.23 15.1574 1883 68.7026 767.345 523.805
2221 0 128.646 14.5361 1870 69.6508 767.488 521.551
2222 1 75.4201 11.3365 855 70.2304 766.938 548.392
2223 0 76.3383 12.5756 960 69.7823 767.087 547.232
2224 0 79.2431 13.162 1043 69.2023 767.286 544.386
2225 0 82.2515 13.2642 1091 68.3456 766.784 541.969
2226 0 84.2726 13.7055 1155 68.0918 767.113 539.128
2227 0 86.3573 13.1894 1139 68.7419 767.234 538.134
2228 0 91.4198 13.7169 1254 68.8461 766.721 537.242
2229 0 93.534 13.1717 1232 69.3385 766.834 535.596
2230 0 96.392 13.6422 1315 68.2205 766.527 533.554
2231 0 99.479 13.7114 1364 68.0623 766.399 531.949
2232 0 103.39 13.7537 1422 67.4965 766.517 530.241
2233 0 105.341 13.2712 1398 68.1981 766.569 528.301
2234 1 61.2159 9.52367 583 65.47 766.266 552.027
2235 0 62.254 9.79856 610 64.4705 765.941 552.91
2236 0 65.2535 11.0186 719 62.6843 765.855 551.502
2237 0 68.4382 10.988 752 61.7141 766.273 548.767
2238 0 69.4822 10.8805 756 61.3915 765.655 547.845
2239 0 70.3104 10.8234 761 61.5677 765.828 547.131
2240 0 72.3465 11.749 850 61.2435 765.689 545.228
2241 0 77.4277 12.1274 939 59.4601 766.018 546.102
2242 0 80.2837 11.7334 942 59.3822 765.672 544.912
2243 0 80.2821 11.4845 922 60.1193 766.556 542.821
2244 0 82.2141 11.2754 927 60.7573 766.167 541.49
2245 0 85.2968 11.6886 997 60.656 765.953 540.642
2246 0 88.4044 12.3636 1093 59.5746 766.107 539.146
2247 0 89.4361 12.0645 1079 60.2521 766.389 536.574
2248 0 94.2342 12.713 1198 59.3063 766.194 536.615
2249 1 50.1691 7.81358 392 60.7219 766.436 559.985
2250 0 52.1835 8.85338 462 59.9589 766.113 558.751
2251 0 56.0996 9.75052 547 59.3748 766.309 557.722
2252 0 56.1683 10.8602 610 59.0689 766.044 555.72
2253 0 59.248 10.4139 617 59.483 766.652 555.982
2254 0 60.3269 11.3548 685 58.9168 766.428 555.575
2255 0 61.093 12.3091 752 58.4202 766.669 555.367
2256 0 64.1824 12.0906 776 58.4253 766.616 555.423
2257 0 66.2353 12.6519 838 57.6169 766.276 554.372
2258 0 66.1469 11.4291 756 60.4101 766.192 553.017
2259 0 68.2024 12.155 829 59.1472 765.783 551.631
2260 0 70.1527 12.6866 890 59.6652 766.211 551.678
2261 0 72.2285 11.4913 830 61.0819 766.308 551.096
2262 0 76.1544 12.0413 917 60.0065 766.184 548.971
2263 0 77.2032 13.0046 1004 59.3865 766.604 546.476
2264 0 80.1993 12.5313 1005 59.6607 766.724 545.738
2265 0 82.1966 13.8327 1137 58.3624 766.533 545.967
2266 0 84.1712 12.0469 1014 60.289 766.473 544.924
2267 0 87.1554 12.3343 1075 59.8791 766.458 542.971
2268 0 89.3167 12.0806 1079 60.316 766.261 541.204
2269 0 93.7205 12.3345 1156 59.9654 765.208 538.682
2270 0 93.3341 12.3963 1157 59.8825 765.083 538.645
2271 1 54.1535 8.78982 476 58.9748 763.842 560.389
2272 0 53.1115 8.62336 458 59.1638 763.559 560.028
2273 0 57.0537 9.3596 534 58.1798 763.998 558.592
2274 0 59.0737 11.4603 677 56.2954 765.959 557.053
2275 0 59.1305 10.9757 649 57.6949 766.248 555.787
2276 1 70.082 16.6091 1164 47.8892 767.424 551.361
2277 0 71.0511 16.2137 1152 48.5964 766.876 549.811
2278 0 71.058 17.8164 1266 48.0845 766.749 549.19
2279 0 72.0684 16.859 1215 49.3309 767.291 548.65
2280 0 73.0659 16.1498 1180 50.4847 766.402 550.714
2281 0 75.0681 16.0654 1206 50.7687 766.333 549.643
2282 0 77.1069 16.2242 1251 50.5947 766.222 547.247
2283 0 77.0819 16.1516 1245 51.3205 765.909 548.396
2284 0 76.0455 12.6635 963 56.2627 765.647 550.898
2285 0 78.0581 13.7462 1073 55.6561 765.489 549.5
2286 0 83.0767 15.275 1269 53.498 765.535 550.111
2287 0 83.0858 13.7328 1141 56.0868 765.728 547.903
2288 0 85.0642 13.1783 1121 56.4558 765.346 547.22
2289 0 87.0811 13.1716 1147 57.5894 764.931 543.643
2290 0 91.1388 12.9802 1183 57.3314 764.551 542.404
2291 0 93.1768 13.8983 1295 56.4286 764.314 541.388
2292 0 98.3564 14.1933 1396 55.5652 765.059 540.266
2293 0 98.0915 13.9665 1370 56.7562 764.542 540.045
2294 0 102.14 13.4423 1373 57.1063 764.481 537.674
2295 0 105.388 12.9522 1365 57.3033 764.3 537.911
2296 0 109.11 12.9594 1414 56.71 763.829 534.985
2297 0 112.162 12.999 1458 57.0219 764.304 534.441
2298 1 61.1542 10.9069 667 56.5637 763.856 558.841
2299 0 64.1362 11.3197 726 56.1116 763.766 558.606
2300 0 64.0507 11.6314 745 55.4282 764.466 557.579
2301 0 68.1988 13.49 920 53.6935 764.348 556.192
2302 0 67.1481 12.3607 830 55.6566 763.601 553.619
2303 0 69.2617 12.7487 883 55.0668 763.439 553.066
2304 0 73.0989 13.1466 961 54.6993 763.589 552.811
2305 0 76.0947 13.2598 1009 54.1972 763.701 551.331
2306 0 77.0917 11.7782 908 55.8095 763.742 551.621
2307 0 79.0887 13.4406 1063 54.3255 763.268 548.976
2308 0 80.1469 12.552 1006 55.5626 763.652 549.498
2309 0 84.1464 13.7617 1158 54.006 763.342 546.954
2310 0 88.2395 13.044 1151 54.0356 764.028 547.928
2311 0 92.2692 13.8725 1280 53.468 763.599 543.62
2312 0 92.1849 13.321 1228 54.259 763.821 542.616
2313 0 97.1882 13.16 1279 54.1759 763.626 540.888
2314 0 100.14 13.7108 1373 53.48 764.014 539.192
2315 0 102.2 12.73 1301 54.8747 764.046 537.022
2316 1 57.14 10.8155 618 53.8382 763.858 562.328
2317 0 58.2399 11.0234 642 54.4704 764.076 561.217
2318 0 61.1312 11.5162 704 53.9531 764.386 561.045
2319 0 63.1195 13.5299 854 52.9251 765.09 560.48
2320 0 63.0974 12.869 812 54.016 764.628 556.938
2321 0 66.171 12.6339 836 54.2057 765.191 555.703
2322 0 64.1243 12.4914 801 55.5194 765.411 554.142
2323 0 68.0807 14.1156 961 53.411 765.441 553.728
2324 0 70.0731 13.2005 925 54.5384 765.33 552.372
2325 0 71.0996 14.0366 998 53.6774 765.451 551.553
2326 0 72.0971 12.9409 933 55.5456 765.424 549.222
2327 0 75.2663 14.0036 1054 54.648 765.411 547.458
2328 0 78.2165 15.3548 1201 53.3414 765.669 547.067
2329 0 81.2496 14.5108 1179 53.9847 765.927 546.521
2330 0 81.1597 13.2948 1079 55.7702 766.019 546.282
2331 0 84.1594 13.9378 1173 55.2651 766.419 543.875
2332 0 87.1735 14.9931 1307 54.2433 766.606 542.251
2333 0 91.2567 14.1031 1287 54.9627 766.629 542.78
2334 0 93.2107 15.2665 1423 53.7168 766.361 541.119
2335 0 94.2134 14.4141 1358 55.1473 766.927 540.101
2336 0 97.1512 14.709 1429 54.5941 766.781 540.026
2337 0 101.451 14.4602 1467 55.0191 767.288 537.19
2338 0 103.141 14.5723 1503 55.2056 767.391 534.848
2339 1 61.1588 12.5411 767 55.4589 766.798 557.154
2340 0 62.465 12.3269 770 55.5234 767.325 553.256
2341 0 63.3954 12.4299 788 56.3401 767.299 549.296
2342 0 63.0491 13.0057 820 56.3256 767.612 549.648
2343 0 66.1815 13.6594 904 56.1471 767.271 549.16
2344 0 70.1034 14.0364 984 55.3862 767.307 552.014
2345 0 71.1313 14.0304 998 55.7655 767.257 549.133
2346 0 73.1224 14.4142 1054 55.6565 767.442 550.445
2347 0 76.168 13.6278 1038 56.8102 767.85 548.952
2348 0 78.1783 13.6739 1069 57.2367 768.071 547.57
2349 0 81.2079 14.506 1178 56.8285 768.256 545.521
2350 0 83.2275 14.8509 1236 57.0688 768.205 543.716
2351 0 87.2945 14.3995 1257 57.9785 768.223 540.781
2352 0 91.2307 15.7732 1439 56.3384 768.338 541.2
2353 0 93.2094 15.3633 1432 57.7053 768.254 537.235
2354 0 96.2324 15.3067 1473 57.8405 767.95 538.198
2355 0 99.3093 14.5706 1447 58.586 768.157 537.346
2356 0 101.28 14.455 1464 59.2377 768.096 533.356
2357 1 55.1196 11.6837 644 60.9503 767.972 555.933
2358 0 58.0823 11.5181 669 61.7683 767.812 554.605
2359 0 58.1513 12.8114 745 60.6497 767.843 553.999
2360 0 63.061 12.4641 786 59.7087 766.486 553.686
2361 0 64.1401 12.3012 789 61.27 767.591 553.487
2362 0 66.1348 13.1852 872 59.8406 767.362 552.614
2363 0 66.1629 13.6481 903 59.9402 766.561 551.262
2364 0 71.2034 14.2268 1013 58.618 766.695 549.29
2365 0 75.0839 13.678 1027 58.851 766.5 548.483
2366 0 75.0994 13.582 1020 59.4539 766.676 548.403
2367 0 79.1196 14.99 1186 57.4368 766.073 545.794
2368 0 80.1052 13.2326 1060 60.1557 765.887 545.071
2369 0 82.1478 13.5853 1116 59.9686 766.136 543.631
2370 0 87.1644 14.2145 1239 58.8297 766.465 543.775
2371 0 89.1079 13.5117 1204 59.6287 766.16 539.938
2372 0 90.0941 13.7412 1238 59.8966 766.492 539.044
2373 0 97.1297 14.0225 1362 58.6498 766.356 538.763
2374 0 97.1063 14.8394 1441 58.4164 765.899 536.235
2375 0 101.069 14.6831 1484 58.6334 766.134 532.418
2376 0 106.173 14.3163 1520 59.0599 765.872 533.184
2377 0 110.203 15.1902 1674 58.1183 765.919 532.108
2378 1 59.0508 10.8212 639 60.6948 766.502 557.066
2379 0 62.0573 11.8117 733 59.6917 766.158 554.801
2380 0 64.0355 11.7435 752 59.8098 766.011 555.348
2381 0 66.0853 11.9845 792 57.0934 765.96 552.908
2382 0 70.2038 12.8056 899 55.6407 766.206 552.851
2383 0 71.3174 13.1945 941 55.8874 765.249 552.603
2384 0 74.3913 13.7651 1024 55.127 765.003 552.103
2385 0 74.2906 13.1376 976 56.3852 765.197 550.07
2386 0 78.1997 14.1049 1103 55.1514 765.048 549.741
2387 0 79.3029 13.3791 1061 56.1395 765.53 546.133
2388 0 82.3127 13.3515 1099 55.6233 764.806 547.172
2389 0 83.2375 13.5756 1130 55.8301 764.917 544.867
2390 0 86.1815 13.7965 1189 55.7199 766.032 545.511
2391 0 89.218 13.4838 1203 55.8537 766.08 542.836
2392 0 95.449 14.8561 1418 53.9549 765.611 542.632
2393 0 96.4909 14.6231 1411 54.8157 765.79 539.435
2394 0 98.6395 13.8585 1367 55.6203 765.899 538.068
2395 0 103.435 14.9272 1544 54.1373 765.379 536.842
2396 0 106.427 14.0471 1495 54.59 765.839 536.411
2397 0 110.499 14.4708 1599 54.7436 765.149 531.841
2398 1 67.3593 11.3422 764 54.7369 764.726 557.791
2399 0 65.3605 13.3567 873 54.0137 764.175 556.57
2400 0 66.1867 12.7669 845 55.1254 764.046 552.892
2401 0 68.1756 13.5972 927 54.3053 764.259 551.001
2402 0 74.2316 14.2392 1057 52.9896 764.519 552.853
2403 0 75.2831 12.712 957 54.8704 764.245 551.208
2404 0 77.4069 13.6551 1057 54.2081 763.739 548.889
2405 0 81.29 14.8727 1209 52.4905 763.394 550.04
2406 0 81.2272 13.8747 1127 54.5235 763.548 546.897
2407 0 86.2853 15.2633 1317 52.5801 763.184 547.962
2408 0 88.3006 14.6771 1296 53.6181 763.671 544.438
2409 0 92.2831 15.2141 1404 52.703 763.373 543.627
2410 0 95.2349 14.5745 1388 53.7421 763.517 541.774
2411 0 96.1626 14.0387 1350 55.0126 763.303 540.756
2412 0 103.254 14.6628 1514 53.6182 762.951 542.009
2413 0 103.211 15.2115 1570 54.0624 763.041 537.718
2414 0 106.243 14.7398 1566 54.6284 763.464 535.089
2415 0 107.183 14.2373 1526 55.7051 762.976 532.784
2416 0 114.449 14.1635 1621 55.108 763.118 532.719
2417 0 117.514 14.4239 1695 54.9381 762.313 531.697
2418 0 119.309 14.3828 1716 54.8345 762.781 527.414
2419 1 68.1488 10.9613 747 54.4779 761.813 558.133
2420 0 68.0405 11.8753 808 55.3045 762.261 554.84
2421 0 70.1207 12.0221 843 54.6679 761.447 556.236
2422 0 73.2037 13.6332 998 53.4369 762.115 552.851
2423 0 75.1162 12.8734 967 54.2161 762.053 553.357
2424 0 77.0722 12.9748 1000 54.349 761.859 549.895
2425 0 81.1219 13.2886 1078 53.8915 762.237 548.879
2426 0 82.2094 13.0277 1071 54.4239 762.4 549.788
2427 0 87.2663 13.1437 1147 53.2415 763.158 550.436
2428 0 88.3315 13.6305 1204 53.6213 762.927 549.275
2429 0 93.2046 14.8169 1381 52.4243 763.103 544.768
2430 0 94.2636 14.5655 1373 53.2003 762.157 541.263
2431 0 98.2521 13.9437 1370 53.462 762.564 541.034
2432 0 99.1976 13.6798 1357 54.1997 763.169 537.802
2433 0 105.195 13.7458 1446 53.722 763.168 536.406
2434 0 107.274 13.5821 1457 54.2292 763.498 537.309
2435 0 113.257 14.6746 1662 52.7389 763.721 533.274
2436 1 59.1027 10.541 623 54.5907 763.801 559.987
2437 0 61.1307 10.911 667 54.09 763.55 559.585
2438 0 65.0441 11.0233 717 54.3654 763.873 556.344
2439 0 69.0618 13.7123 947 51.6251 763.344 555.09
2440 0 69.2928 12.7142 881 53.6095 762.768 553.612
2441 0 70.2065 12.4205 872 54.3222 762.852 553.647
2442 0 72.2941 13.0993 947 54.5121 763.107 551.609
2443 0 75.1427 12.7225 956 55.363 763.371 549.061
2444 0 80.2142 14.3242 1149 53.3829 763.565 549.916
2445 0 80.4736 13.3957 1078 55.0584 763.668 547.798
2446 0 84.2665 12.8639 1084 55.5646 763.363 547.897
2447 0 86.3562 14.3244 1237 54.9919 763.635 543.196
2448 0 89.3705 15.2847 1366 53.817 763.982 542.813
2449 0 90.4303 13.7896 1247 56.1492 764.379 542.115
2450 0 91.1743 14.0281 1279 56.5309 764.229 538.056
2451 0 96.2463 14.9201 1436 55.2326 764.414 539.055
2452 0 100.194 14.3322 1436 56.2709 764.364 537.8
2453 0 102.222 14.6446 1497 56.314 764.408 534.432
2454 0 105.291 14.6831 1546 54.8616 763.943 533.36
2455 0 108.229 13.2959 1439 56.2078 764.37 532.322
2456 0 109.193 13.5906 1484 56.8922 764.638 530.767
2457 0 115.205 15.1556 1746 54.9112 764.352 528.963
2458 0 119.449 14.7929 1767 55.6599 764.845 527.294
2459 0 124.207 14.7899 1837 55.7191 765.411 523.694
2460 1 68.16 12.0452 821 55.4312 765.471 555.019
2461 0 70.1982 12.7354 894 55.7729 765.641 552.236
2462 0 73.1884 12.4747 913 56.667 766.036 551.01
2463 0 75.1865 13.5397 1018 55.7033 766.064 551.54
2464 0 76.0528 13.2277 1006 56.4314 766.474 549.392
2465 0 78.1777 13.3926 1047 57.2264 766.759 547.811
2466 0 84.3013 13.9381 1175 55.8766 767.027 546.645
2467 0 83.2127 14.4449 1202 56.5092 767.243 543.938
2468 0 87.2178 14.8823 1298 56.5231 767.008 542.409
2469 0 90.2484 14.1831 1280 56.9352 767.29 540.473
2470 0 92.3023 14.1817 1309 57.7273 767.106 538.794
2471 0 95.242 14.6364 1394 57.477 767.679 537.481
2472 0 96.3115 14.1208 1360 57.8147 767.983 536.326
2473 0 102.311 16.0687 1644 55.7403 768.211 534.845
2474 0 102.469 14.2287 1458 58.4808 768.462 533.557
2475 0 107.293 15.1641 1627 57.6368 768.216 530.17
2476 0 109.383 14.7006 1608 58.2015 768.271 529.942
2477 0 112.391 15.6418 1758 57.442 768.269 526.766
2478 0 115.305 15.0384 1734 58.2416 768.228 525.282
2479 0 118.314 16.1266 1908 57.3422 768.126 525.027
2480 0 119.201 14.5552 1735 59.9199 767.859 520.605
2481 0 125.432 15.3869 1930 58.8394 768.248 520.472
2482 0 131.218 16.263 2134 57.358 768.239 519.048
2483 0 135.449 15.2382 2064 58.5891 767.689 518.83
2484 0 141.281 15.4586 2184 58.5389 767.761 514.595
2485 1 78.0773 13.0384 1018 58.9283 767.989 545.555
2486 0 78.0296 12.7003 991 60.0505 768.027 544.772
2487 0 83.0695 14.9152 1239 57.318 767.604 543.54
2488 0 86.1796 13.1586 1134 59.5265 767.586 542.484
2489 0 89.0724 14.5612 1297 58.0439 767.361 540.931
2490 0 91.1623 13.5473 1235 58.3279 767.59 538.923
2491 0 95.2731 14.1173 1345 57.823 767.253 536.233
2492 0 98.1356 13.1655 1292 58.8916 767.337 536.336
2493 0 102.046 14.5719 1487 58.0726 767.29 535.05
2494 0 104.131 13.8383 1441 58.4434 767.02 535.102
2495 1 58.0663 11.5558 671 59.3815 766.323 557.782
2496 0 59.0586 12.276 725 58.24 766.56 558.137
2497 0 61.0644 12.9699 792 58.197 766.198 554.953
2498 0 63.0536 12.529 790 58.6203 766.242 555.042
2499 0 64.0473 13.4432 861 58.7189 765.751 551.432
2500 0 66.0932 13.0271 861 58.6667 766.321 552.599
2501 0 67.1079 14.3649 964 57.6649 766.035 551.131
2502 0 70.0513 14.4037 1009 58.217 765.935 548.839
2503 0 72.1201 14.7393 1063 58.1665 766.023 549.362
2504 0 75.2254 15.2209 1145 57.5205 766.004 547.934
2505 0 79.1135 14.2201 1125 58.4498 766.673 547.442
2506 0 80.2002 14.3765 1153 59.0416 766.721 545.912
2507 0 83.281 15.3096 1275 57.2714 766.035 547.049
2508 0 86.3886 14.5274 1255 58.4669 766.002 545.07
2509 0 88.2912 15.0185 1326 58.4766 765.818 543.928
2510 0 93.4106 14.7842 1381 58.5445 765.802 541.153
2511 0 94.238 14.6968 1385 59.5329 765.974 536.705
2512 0 99.7912 15.0514 1502 58.4148 766.009 537.553
2513 1 55.4728 11.0144 611 61.8838 765.457 558.758
2514 0 57.3704 13.1252 753 60.2112 765.663 556.718
2515 0 59.4424 13.2229 786 60.4873 765.651 554.941
2516 0 61.3246 12.9312 793 61.0126 765.58 554.453
2517 0 63.5825 13.9032 884 59.5011 765.085 554.175
2518 0 64.3879 14.5058 934 59.0792 765.019 552.483
2519 0 65.3096 14.5461 950 59.9179 765.015 551.022
2520 0 68.3927 15.3964 1053 58.3077 764.843 551.996
2521 0 69.2481 15.1195 1047 58.6925 764.579 551.552
2522 0 71.5581 15.1066 1081 58.5227 764.78 548.766
2523 0 77.4914 15.2017 1178 57.871 764.795 548.262
2524 0 79.4301 14.2389 1131 58.832 764.763 547.171
2525 0 81.4969 14.9331 1217 58.2761 764.65 546.338
2526 0 81.4654 15.0125 1223 58.9191 764.69 545.083
2527 0 83.3683 14.6099 1218 59.8489 764.534 542.715
2528 0 87.2966 15.5791 1360 58.4316 764.716 542.082
2529 0 90.2266 15.4832 1397 58.7895 765.035 541.06
2530 0 94.3503 16.5023 1557 57.3719 764.916 538.74
2531 0 95.4479 16.5954 1584 57.4236 764.646 538.541
2532 0 97.3449 16.2207 1579 58.506 764.516 536.433
2533 0 102.184 17.0282 1740 57.2943 764.42 534.482
2534 0 105.329 15.9976 1685 58.311 764.649 534.732
2535 0 108.353 15.6803 1699 58.7822 764.226 531.829
2536 0 112.269 15.8905 1784 58.3447 764.119 532.557
2537 1 61.3511 11.8335 726 60.281 764.073 556.683
2538 0 65.1362 11.9442 778 61.4576 764.081 553.869
2539 0 68.2294 13.2494 904 59.9181 763.061 552.128
2540 0 71.1373 13.9027 989 59.36 763.257 551.715
2541 0 72.1144 14.1581 1021 59.7835 763.202 550.196
2542 0 73.1368 13.7414 1005 60.3851 763.153 548.301
2543 0 77.0593 13.535 1043 60.675 762.756 548.992
2544 0 79.1041 12.6921 1004 62.1624 763.07 547.362
2545 0 82.1378 13.8061 1134 60.8721 763.172 543.99
2546 0 85.0873 14.3617 1222 60.3642 763.305 544.431
2547 0 87.1529 14.4918 1263 60.8163 763.264 541.179
2548 0 92.0908 14.7355 1357 60.115 763.237 540.607
2549 0 93.2393 14.4574 1348 60.7552 763.335 539.981
2550 0 99.1261 15.213 1508 59.6286 763.849 538.712
2551 0 101.157 15.0755 1525 59.9613 763.748 538.3
2552 0 103.199 14.3704 1483 61.4531 763.548 535.115
2553 0 107.143 14.084 1509 61.3015 763.602 534.021
2554 0 112.156 14.471 1623 61.1497 763.739 532.004
2555 0 117.414 14.8363 1742 60.5591 763.541 528.585
2556 0 119.168 14.081 1678 61.7455 763.257 526.747
2557 1 66.1476 11.0208 729 62.321 762.791 553.534
2558 0 70.1005 12.0969 848 61.3703 762.488 552.893
2559 0 72.1318 12.7544 920 60.4098 762.414 551.05
2560 0 72.25 12.7751 923 60.7952 762.842 551.581
2561 0 76.1867 13.3225 1015 59.8847 762.81 550.92
2562 0 78.1464 13.4363 1050 60.1514 762.835 548.467
2563 0 79.1319 12.852 1017 61.2714 762.5 545.977
2564 0 82.2626 13.1165 1079 60.9731 762.689 545.757
2565 0 84.1712 13.2112 1112 60.6601 762.382 545.001
2566 0 88.3697 13.1267 1160 62.2509 762.532 543.201
2567 0 92.2413 14.3103 1320 60.8894 762.62 540.561
2568 0 95.3163 12.6736 1208 62.3684 762.996 539.945
2569 0 99.2387 13.1904 1309 61.9748 762.901 538.202
2570 0 101.192 14.5664 1474 60.4783 762.978 537.839
2571 0 105.099 14.1295 1485 60.9448 763.114 536.032
2572 0 106.157 13.4329 1426 61.9194 762.762 534.599
2573 0 108.219 13.3617 1446 62.435 762.85 530.73
2574 0 113.174 14.5705 1649 60.7623 762.805 528.706
2575 0 118.306 13.8455 1638 60.967 762.792 527.662
2576 1 65.1243 10.979 715 59.5818 762.561 555.666
2577 0 69.1888 11.2735 780 59.0077 762.535 554.159
2578 0 71.314 12.0734 861 57.7619 762.408 554.678
2579 0 72.1386 12.1987 880 58.5239 762.001 552.033
2580 0 73.2203 12.5375 918 58.1362 761.675 551.084
2581 0 73.2203 12.5512 919 152.203 760.668 551.083
2582 0 78.1511 11.5673 904 59.4701 761.918 548.413
2583 0 84.1887 12.4839 1051 57.5043 762.146 549.41
2584 0 86.1296 13.5958 1171 56.5901 762.781 546.252
2585 0 87.3032 12.8976 1126 57.9476 762.358 545.131
2586 0 92.1857 13.462 1241 57.3997 762.517 543.028
2587 0 93.211 13.2066 1231 58.3436 762.371 543.115
2588 0 96.1712 13.4448 1293 58.0626 762.491 541.664
2589 0 99.2931 13.3746 1328 58.1559 762.754 539.965
2590 0 102.341 14.2367 1457 57.7461 762.866 538.127
2591 0 106.257 13.5333 1438 58.3491 762.833 537.508
2592 0 108.41 13.5966 1474 59.2103 763.071 533.507
2593 0 113.299 12.9392 1466 60.2012 763.287 531.563
2594 1 62.2372 10.5564 657 60.5129 762.995 555.693
2595 0 62.1063 10.7074 665 60.7068 762.632 555.501
2596 0 66.1907 11.6633 772 59.3303 762.972 556.769
2597 0 66.1145 11.4196 755 60.747 763.675 555.343
2598 0 69.2248 12.1055 838 60.8663 764.099 552.143
2599 0 72.2481 12.7893 924 60.0422 764.54 550.692
2600 0 74.2443 12.3376 916 61.0557 764.555 551.261
2601 0 75.2451 12.8779 969 61.4211 764.469 547.994
2602 0 77.2126 12.2389 945 62.2032 764.636 547.834
2603 0 79.2361 12.7341 1009 61.9832 764.707 546.929
2604 0 84.2855 13.7271 1157 61.0207 764.914 544.996
2605 0 86.264 13.5398 1168 61.2269 765.113 543.569
2606 0 88.1844 13.7439 1212 61.7054 765.776 542.391
2607 0 93.3589 15.2851 1427 59.8402 766.154 541.948
2608 0 95.3258 14.4872 1381 61.4953 766.524 539.419
2609 0 97.4286 13.8666 1351 62.8993 766.637 538.043
2610 0 102.34 15.0088 1536 61.5267 766.954 535.723
2611 0 103.488 13.4992 1397 63.9356 767.112 534.599
2612 0 107.511 14.5194 1561 62.7918 767.158 530.405
2613 1 60.3475 10.8372 654 64.2554 767.457 554.976
2614 0 62.4265 11.9661 747 62.9224 767.404 555.537
2615 0 64.3317 12.0936 778 64.144 767.265 553.492
2616 0 65.3137 12.5395 819 64.1404 767.253 554.357
2617 0 67.2096 12.9743 872 63.4644 767.3 553.166
2618 0 69.1815 12.4889 864 64.1632 767.109 552.159
2619 0 72.2621 12.8975 932 63.5075 767.294 550.601
2620 0 76.355 13.6337 1041 62.2699 767.382 548.021
2621 0 79.2281 13.7578 1090 61.8156 768.039 546.804
2622 0 78.3006 12.3243 965 64.6477 767.565 544.774
2623 0 82.3784 14.1785 1168 61.8022 767.901 543.634
2624 0 83.4653 13.6584 1140 62.7895 768.2 543.391
2625 0 88.2717 14.1155 1246 61.8451 768.694 538.931
2626 0 90.3864 14.0176 1267 61.9163 768.593 538.051
2627 0 95.4931 14.2942 1365 60.5927 768.622 536.04
2628 0 95.4008 13.9936 1335 61.5184 768.153 533.637
2629 0 100.427 13.2734 1333 62.018 768.101 533.698
2630 0 103.378 14.0552 1453 61.0461 768.278 534.104
2631 1 57.1431 11.6025 663 60.7391 768.253 556.582
2632 0 60.1511 11.8535 713 59.9579 767.042 557.288
2633 0 61.2036 11.9764 733 61.1678 766.402 554.495
2634 0 62.3314 12.594 785 60.479 767.445 550.468
2635 0 67.1831 13.56 911 58.6509 766.845 537.063
2636 0 66.2078 13.7295 909 59.8801 766.779 536.435
2637 0 69.2428 12.9689 898 60.1203 766.686 540.48
2638 0 70.2645 13.7623 967 59.5036 766.577 543.875
2639 0 70.1757 13.4235 942 60.5202 766.602 544.793
2640 0 73.1572 12.6987 929 60.6792 766.783 549.61
2641 0 75.233 14.9668 1126 58.484 766.959 546.954
2642 0 77.3123 13.2709 1026 60.5088 766.859 546.107
2643 0 79.4497 14.1473 1124 59.9742 766.657 545.764
2644 0 80.3105 13.0494 1048 61.5496 766.933 543.665
2645 0 84.3383 14.4181 1216 59.4268 766.772 542.032
2646 0 88.4093 14.5686 1288 58.9053 767.43 540.562
2647 0 90.5193 14.1959 1285 59.8591 767.217 538.924
2648 0 93.4444 14.8323 1386 58.7843 767.034 536.834
2649 0 95.3755 14.2594 1360 57.0051 767.079 536.73
2650 0 98.4341 15.3402 1510 55.3311 767.158 536.207
2651 0 103.407 16.2077 1676 54.4469 766.85 532.235
2652 0 106.425 16.0395 1707 54.6883 767.059 534.074
2653 0 108.394 15.0839 1635 55.8257 767.252 532.29
2654 0 109.261 14.9916 1638 56.2607 766.861 529.678
2655 0 115.281 15.7268 1813 55.3673 766.509 527.438
2656 0 117.255 15.4194 1808 55.406 766.583 529.152
2657 1 67.2055 11.502 773 55.9547 766.479 554.462
2658 0 69.2399 12.305 852 55.5387 766.583 554.777
2659 0 72.2151 13.4875 974 54.0021 766.377 552.339
2660 0 73.2 14.03 1027 53.7079 766.349 550.757
2661 0 73.2059 13.4415 984 54.4217 766.511 551.392
2662 0 76.1592 13.091 997 54.6841 766.45 548.507
2663 0 79.2361 13.3777 1060 54.0698 766.602 547.182
2664 0 81.3272 13.5871 1105 54.0624 766.49 546.358
2665 0 84.328 13.4831 1137 53.5189 766.626 544.66
2666 0 88.4135 14.1042 1247 52.6095 766.727 543.69
2667 0 89.296 13.64 1218 53.5944 766.498 542.002
2668 0 89.2019 13.9123 1241 53.2111 766.886 540.91
2669 0 95.285 13.9581 1330 52.7459 766.375 538.099
2670 0 98.3317 14.2985 1406 52.207 766.671 536.403
2671 0 102.208 14.0693 1438 52.1871 766.408 536.881
2672 0 103.368 13.747 1421 52.8044 766.64 531.29
2673 0 107.439 13.1796 1416 53.2691 766.253 531.587
2674 0 111.318 14.7685 1644 51.5487 766.394 534.635
2675 0 113.332 14.1443 1603 52.4735 765.942 531.855
2676 0 116.234 13.4212 1560 52.8391 765.915 528.924
2677 0 120.372 15.0948 1817 51.0787 766.012 529.057
2678 1 66.0461 12.1733 804 52.5622 766.101 553.608
2679 0 69.2467 12.0728 836 52.683 765.339 552.533
2680 0 70.1971 12.3225 865 52.089 764.934 553.806
2681 0 73.1598 13.7917 1009 50.9118 764.422 551.55
2682 0 76.1784 14.466 1102 50.4782 764.715 550.272
2683 0 78.143 14.4863 1132 50.5972 763.653 550.281
2684 0 77.1379 12.8601 992 52.6865 765.001 549.246
2685 0 82.1623 13.7289 1128 51.7225 765.035 547.338
2686 0 82.1198 14.284 1173 52.37 764.832 544.062
2687 0 89.0908 13.4133 1195 52.1356 764.896 546.767
2688 0 91.1737 14.2366 1298 51.8143 764.59 543.699
2689 0 91.1944 13.9482 1272 52.7154 764.496 544.59
2690 0 92.0729 13.9563 1285 53.4288 764.23 541.043
2691 0 98.1867 15.2668 1499 51.7779 764.362 540.691
2692 0 100.178 14.3844 1441 53.0028 764.058 539.558
2693 0 107.219 16.2098 1738 51.0403 763.995 537.672
2694 0 105.331 14.0415 1479 54.0216 763.539 535.174
2695 0 110.167 14.4781 1595 53.9461 763.451 530.722
2696 0 113.383 15.0022 1701 53.2011 763.65 533.38
2697 0 118.224 15.6483 1850 52.5714 763.425 531.601
2698 0 120.135 15.0914 1813 53.7297 763.156 527.996
2699 0 123.355 15.7757 1946 53.2667 763.394 526.086
2700 0 129.377 15.9534 2064 52.6022 763.641 527.632
2701 0 133.474 15.3214 2045 53.6494 763.662 522.267
2702 1 75.1325 13.2965 999 52.4945 763.65 552.989
2703 0 77.1408 12.8207 989 53.2417 763.986 549.727
2704 0 80.0954 12.5101 1002 53.7934 763.991 548.893
2705 0 83.2781 12.9686 1080 53.8306 763.649 548.502
2706 0 84.2636 14.5733 1228 52.6124 763.827 546.675
2707 0 88.2976 14.5531 1285 52.0288 763.595 546.886
2708 0 91.4924 12.8972 1180 53.6686 763.923 545.817
2709 0 94.2635 13.0273 1228 53.5391 764 542.221
2710 0 99.2864 12.9927 1290 53.2946 763.796 541.902
2711 0 101.636 15.585 1584 51.0158 763.736 542.759
2712 0 102.401 13.7889 1412 53.1827 763.271 538.366
2713 0 107.196 14.7021 1576 52.2659 763.584 534.28
2714 0 110.215 13.6823 1508 53.2308 763.702 532.361
2715 0 115.199 15.2605 1758 51.314 763.804 535.435
2716 0 116.192 13.6584 1587 52.2823 763.955 532.871
2717 0 120.28 13.3355 1604 52.6272 764.007 530.111
2718 0 123.31 14.5406 1793 51.7033 764.214 527.588
2719 0 131.226 16.8412 2210 48.9606 763.852 529.404
2720 0 132.398 13.3612 1769 52.632 763.9 525.207
2721 0 138.393 15.4633 2140 50.6864 763.726 522.085
2722 0 142.29 14.857 2114 50.9844 763.593 525.86
2723 1 76.1117 11.4568 872 52.1158 763.468 555.317
2724 0 78.2443 11.1701 874 53.0938 763.916 550.703
2725 0 83.1786 13.1043 1090 51.3596 763.892 549.733
2726 0 85.43 14.2924 1221 50.4816 763.631 547.945
2727 0 86.3028 11.9115 1028 52.8482 763.623 545.111
2728 0 92.2503 13.7777 1271 50.9197 763.511 546.438
2729 0 95.3314 13.1122 1250 51.4352 763.796 544.813
2730 0 98.265 13.5145 1328 51.3863 763.45 543.039
2731 0 98.3528 13.0855 1287 52.5019 764.193 541.082
