time division length width area intensity CMx CMy
0 0 46.0281 10.7977 497 79.4266 830.034 573.201
1 0 50.0196 11.5355 577 77.3432 829.801 572.704
2 0 51.0634 12.2788 627 76.8692 829.743 571.99
3 0 52.0444 12.2011 635 77.1827 829.69 571.528
4 0 54.05 12.4699 674 76.5445 829.598 570.964
5 0 55.095 12.7961 705 75.5702 829.279 570.922
6 0 57.0978 12.1196 692 75.8425 829.101 570.108
7 0 58.0258 12.4944 725 75.9172 829.166 567.921
8 0 61.1042 12.2905 751 75.9747 829.515 568.008
9 0 61.0839 12.5074 764 76.5995 829.596 567.336
10 0 62.0787 12.0975 751 78.2743 829.61 566.278
11 0 65.0538 12.897 839 76.5757 829.784 565.216
12 0 67.0676 13.4789 904 76.3551 830.166 562.28
13 0 67.0442 13.2152 886 77.6919 829.769 562.207
14 0 70.0508 12.962 908 78.5683 829.923 561.445
15 0 74.0633 13.4074 993 76.5478 830.411 559.592
16 0 76.1203 13.8465 1054 75.9269 829.981 558.472
17 0 79.0366 13.285 1050 77.3733 830.165 557.26
18 0 82.1047 13.7142 1126 76.3126 830.117 556.737
19 0 83.1035 13.6216 1132 77.5203 829.941 555.123
20 0 85.0482 13.8157 1175 76.9898 830.436 553.484
21 0 87.045 13.7745 1199 77.5138 830.393 553.013
22 0 91.0949 13.689 1247 77.5814 830.646 551.898
23 0 93.1534 13.3543 1244 78.1423 831.044 550.28
24 0 96.1258 13.4199 1290 77.486 830.917 549.901
25 1 54.0602 10.0629 544 77.6011 830.438 573.243
26 0 53.053 10.7628 571 78.2294 830.095 571.59
27 0 59.0581 11.6326 687 99.6376 830.394 570.923
28 0 60.099 12.5959 757 73.9141 830.122 567.465
29 0 62.0346 13.1862 818 72.3093 830.513 566.462
30 0 64.1113 12.3067 789 74.6616 831.003 568.152
31 0 65.0616 12.2653 798 74.9549 830.86 567.508
32 0 68.1052 12.9505 882 72.9875 830.977 566.952
33 0 71.205 12.9345 921 73.1173 831.205 565.303
34 0 72.0759 13.0834 943 72.5058 831.139 563.297
35 0 76.0836 13.0909 996 72.6456 831.663 562.205
36 0 77.0788 12.7532 983 73.3459 832.004 561.53
37 0 79.129 12.5491 993 73.5176 831.673 559.875
38 0 83.117 12.32 1024 73.8545 831.605 558.717
39 0 86.1144 12.9479 1115 73.0655 832.008 557.779
40 0 88.0761 12.6254 1112 73.1268 832.603 555.434
41 1 46.0609 10.4644 482 69.8631 832.419 579.344
42 0 44.1214 10.3351 456 69.9846 832.708 579.14
43 0 46.1057 10.3024 475 70.9768 832.474 577.604
44 0 49.0855 12.0402 591 68.8951 832.525 575.738
45 0 47.1289 11.9247 562 70.9359 833.208 574.989
46 0 50.0903 11.4593 574 70.493 833.24 574.483
47 0 53.0649 12.4564 661 68.7307 833.287 573.316
48 0 53.0561 11.9308 633 70.6256 832.763 572.382
49 0 56.105 11.8884 667 69.964 832.9 572.628
50 0 56.0788 11.6443 653 71.0413 832.597 571.485
51 0 59.0621 12.4615 736 69.5 833.272 568.795
52 0 63.0974 12.2509 773 68.718 833.052 568.816
53 0 65.1768 12.1669 793 68.7945 832.718 568.015
54 0 64.1732 11.9832 769 63.9168 832.195 566.668
55 0 68.1025 12.8776 877 63.2896 832.849 565.124
56 0 70.214 12.0346 845 64.7266 833.265 566.346
57 0 72.1721 12.1931 880 64.5 833.589 562.797
58 1 40.0198 10.7697 431 62.1555 833.833 580.87
59 0 39.0396 9.06772 354 65.5254 834.144 581.356
60 0 39.0765 11.7206 458 64.3144 834.338 577.714
61 0 41.2084 10.726 442 66.2851 834.303 577.787
62 0 42.1637 10.6727 450 67.2111 834.104 576.478
63 0 43.1327 11.8008 509 64.7191 833.387 576.697
64 0 44.1659 11.0945 490 66.7776 833.853 575.737
65 0 48.171 11.7913 568 65.669 834.1 574.995
66 0 46.1967 11.819 546 67.3645 833.641 573.383
67 0 50.0825 12.6192 632 66.1297 834.337 573.861
68 0 49.1019 11.8325 581 69.7487 834.818 573.148
69 0 52.1317 12.3917 646 69.2755 835.423 572.238
70 0 56.0618 12.0581 676 68.4852 834.92 571.845
71 0 56.0874 12.3914 695 69.2158 835.019 570.128
72 0 58.1081 13.0791 760 68.2447 835.301 568.362
73 0 58.0892 12.7046 738 69.832 835.379 568.467
74 0 60.056 12.3052 739 70.8349 835.092 567.889
75 0 63.0854 12.7763 806 70.6526 835.469 564.86
76 0 62.1133 13.0568 811 71.6313 835.001 563.753
77 0 65.0687 13.4012 872 70.7122 835.67 564.29
78 0 65.1144 13.3918 872 71.2741 835.088 564.329
79 0 68.1753 13.964 952 70.5966 835.661 562.064
80 0 69.1447 13.9129 962 71.4075 835.555 560.416
81 0 73.1557 14.1616 1036 70.9151 835.699 558.061
82 0 72.1136 13.5481 977 73.4985 836.361 557.796
83 0 75.2845 13.9205 1048 72.7891 836.669 555.463
84 0 77.1791 14.2914 1103 72.7162 836.819 555.165
85 0 80.3343 13.9169 1118 73.4884 837.397 554.252
86 0 83.1181 14.4132 1198 72.9324 837.294 551.412
87 0 85.2272 14.9131 1271 72.2258 837.791 550.057
88 0 88.149 13.6247 1201 74.8185 838.086 546.926
89 1 46.1669 10.2238 472 75.8432 838.235 569.534
90 0 46.135 10.4476 482 75.9668 838.907 568.851
91 0 49.1514 11.0272 542 76.0387 839.033 566.655
92 0 49.0554 11.0691 543 76.0847 838.842 565.982
93 0 51.0424 12.519 639 71.9828 839.121 565.725
94 0 54.1064 12.1243 656 73.1509 838.971 564.89
95 0 56.0421 13.365 749 70.5407 839.052 564.909
96 0 56.108 12.7076 713 71.4488 839.422 563.996
97 0 57.1625 12.3857 708 71.5085 838.983 561.969
98 0 58.0691 11.7963 685 72.5095 838.629 562.124
99 0 60.0716 12.0856 726 71.5523 838.076 560.142
100 0 64.0997 12.3089 789 70.6755 838.125 559.158
101 0 66.1033 14.1294 934 67.6799 838.818 559.317
102 0 68.1103 12.8028 872 70.4323 838.842 557.203
103 0 67.123 12.8123 860 72.343 838.152 554.81
104 0 71.1817 13.1916 939 70.6848 838.197 555.251
105 0 72.0979 12.3443 890 72.5427 838.703 555.952
106 0 74.0943 12.9025 956 71.7762 838.571 554.03
107 0 76.0943 12.4188 945 72.9407 838.777 550.196
108 0 79.1752 13.2996 1053 71.3409 838.878 550.375
109 0 83.2985 13.1695 1097 70.9161 838.901 548.29
110 0 84.1944 13.1481 1107 70.9991 838.543 546.972
111 1 47.0402 10.204 480 71.8646 838.294 566.785
112 0 47.0667 10.177 479 72.2192 837.889 566.829
113 0 49.1343 9.70808 477 72.1342 838.245 566.143
114 0 52.088 12.2485 638 68.2868 837.846 564.679
115 0 53.098 11.7142 622 69.254 837.879 562.714
116 0 55.1039 12.667 698 67.5415 837.883 562.125
117 0 56.1598 11.2892 634 69.7256 837.642 561.53
118 0 57.0584 11.7073 668 69.1302 837.769 561.126
119 0 59.0424 12.2454 723 68.1701 837.443 560.873
120 0 63.0829 12.761 805 66.6248 837.933 558.14
121 0 64.0671 12.0343 771 67.2672 837.971 558.612
122 0 67.16 13.5795 912 64.8739 837.758 556.434
123 0 68.0414 12.0221 818 67.1773 837.455 555.362
124 0 71.0619 13.2138 939 65.5783 837.427 553.72
125 0 72.0775 11.9177 859 67.482 837.65 552.915
126 0 75.1687 11.9598 899 67.5006 836.717 552.019
127 0 78.1941 11.8295 925 67.8097 836.579 551.283
128 0 79.1824 12.0481 954 68.7862 836.432 548.469
129 0 85.1602 12.8581 1095 66.8055 836.351 548.276
130 0 86.0894 12.7658 1099 67.6442 835.892 545.855
131 1 46.1086 10.3668 478 66.7782 836.429 567.402
132 0 46.0661 10.2896 474 66.4599 836.542 568.641
133 0 47.2117 10.2517 484 66.3636 835.5 566.992
134 0 49.1115 11.7081 575 65.3774 836.39 564.833
135 0 49.0899 11.3669 558 66.4857 836.05 564.97
136 0 50.1529 11.3054 567 66.4392 836.183 564.794
137 0 52.0574 11.2952 588 67.0476 836.049 564.866
138 0 55.17 12.3255 680 65.0162 836.312 565.119
139 0 54.0881 11.7586 636 66.2909 836.547 563.355
140 0 55.1167 11.5392 636 66.6494 835.921 563.425
141 0 55.1167 11.4666 632 152.968 835.943 563.394
142 0 60.1169 12.4757 750 65.0893 836.376 560.121
143 0 63.1601 11.7954 745 65.9396 836.271 559.812
144 0 65.0833 11.7234 763 66.5583 836.163 558.526
145 0 66.0884 12.9523 856 65.0911 836.138 558.473
146 0 68.1299 12.3587 842 65.7173 836.038 558.131
147 0 70.0635 12.6457 886 65.9402 835.563 555.612
148 0 73.2015 12.4178 909 66.0979 835.395 555.371
149 0 74.1123 12.4406 922 66.5488 835.196 552.971
150 0 78.1652 11.4245 893 67.7503 835.218 550.516
151 0 83.1044 12.6467 1051 65.7774 834.852 550.234
152 1 43.0755 9.30923 401 66.207 834.653 568.858
153 0 44.1771 9.98256 441 64.7302 834.741 569.39
154 0 46.0401 10.7515 495 64.604 834.283 568.224
155 0 46.1185 10.7983 498 65.0924 834.016 568.484
156 0 49.1919 11.6483 573 63.7627 834.571 568.627
157 0 48.1249 11.3247 545 66.233 834.352 566.661
158 0 50.2072 11.8509 595 65.2067 834.469 566.637
159 0 50.0923 11.7383 588 66.102 834.804 565.328
160 0 53.1272 11.4819 610 65.8361 834.882 566.198
161 0 56.11 12.4755 700 64.1129 835.017 565.886
162 0 57.0957 12.2426 699 64.6524 834.611 564.217
163 0 59.1219 12.3981 733 64.7804 834.806 562.898
164 0 61.1166 11.928 729 65.7668 834.503 561.091
165 0 63.0849 12.396 782 65.2609 834.994 559.299
166 0 65.0748 12.3857 806 65.6501 834.922 558.697
167 0 66.0986 13.0411 862 64.7019 834.671 559.462
168 0 66.1318 12.0819 799 67.1815 834.443 557.638
169 0 68.1309 11.9769 816 67.3824 834.979 555.874
170 0 73.1613 12.616 923 65.0217 834.853 556.844
171 0 76.16 12.3556 941 65.5377 835.061 553.792
172 0 76.1138 12.1134 922 66.7082 835.587 551.72
173 1 40.1902 9.55456 384 65.2344 836.031 571.896
174 0 42.0955 9.62098 405 66.2889 835.57 570.225
175 0 41.1401 10.9382 450 65.1644 836.129 569.927
176 0 43.1113 11.6675 503 64.9245 836.018 568.046
177 0 44.1136 11.8557 523 65.2925 836.553 567.019
178 0 47.1394 11.9857 565 64.6796 837.014 566.708
179 0 48.1444 12.8779 620 63.6581 837.389 566.539
180 0 48.0703 11.3792 547 66.7331 837.594 566.313
181 0 49.1571 12.4092 610 66.1803 837.628 565.318
182 0 50.1628 11.9411 599 67.2087 837.958 563.985
183 0 51.178 12.1732 623 67.0867 837.95 562.56
184 0 52.1132 11.7437 612 68.1324 838.041 561.887
185 0 53.0964 11.7145 622 67.9759 838.024 561.704
186 0 57.1617 13.4706 770 65.1506 838.747 560.048
187 0 56.1719 11.9633 672 68.1994 838.15 560.579
188 0 59.1115 12.0281 711 67.775 838.579 558.541
189 0 58.1518 11.2464 654 69.8853 838.338 559.228
190 0 63.1076 12.9778 819 66.4225 839.134 557.464
191 0 65.057 12.7888 832 66.774 839.123 555.959
192 0 67.1072 12.8898 865 66.1445 839.246 554.205
193 0 67.1072 12.8898 865 156.103 839.265 554.316
194 0 68.1684 12.8212 874 65.4863 839.489 553.037
195 0 71.1798 12.5457 893 65.0325 839.976 550.813
196 0 74.1378 12.3014 912 64.3586 839.974 549.607
197 0 77.1793 12.607 973 65.1562 840.158 548.967
198 0 82.2986 13.1958 1086 65.4567 840.018 548.744
199 1 41.1016 10.0726 414 65.8744 840.399 568.72
200 0 41.1501 10.0121 412 67.9223 840.607 567.032
201 0 43.2095 10.9004 471 67.4798 840.58 564.93
202 0 44.2661 11.2276 497 67.0624 840.748 565.276
203 0 48.1216 11.0553 532 66.2763 840.211 565.124
204 0 47.2013 10.7624 508 68.6102 840.185 564.947
205 0 50.167 11.7009 587 66.7138 840.271 563.879
206 0 49.0682 11.3515 557 68.4488 840.704 563.147
207 0 53.1422 11.8362 629 67.0254 840.585 563.504
208 0 53.0896 11.7537 624 67.8558 840.652 562.253
209 0 53.1408 11.9118 633 67.7915 840.564 561.943
210 0 56.0882 11.5889 650 68.4723 840.594 559.935
211 0 57.0745 12.2997 702 68.0969 840.094 558.298
212 0 58.136 13.2792 772 67.4106 840.093 558.268
213 0 59.1307 11.8043 698 70.2335 840.11 557.04
214 0 60.1459 11.788 709 70.8745 839.977 556.85
215 0 64.0728 13.0008 833 69.108 840.18 557.196
216 0 67.0598 12.7647 856 69.5257 840.279 555.764
217 0 66.0912 11.6657 771 72.8353 839.734 554.112
218 0 70.1032 12.339 865 71.6405 839.59 554.301
219 0 74.1476 13.6485 1012 69.6818 839.513 551.95
220 0 76.1299 12.6626 964 71.9502 839.509 552.731
221 0 78.1556 13.5755 1061 70.6616 839.125 551.641
222 0 78.1556 13.5627 1060 171.675 839.127 551.607
223 1 41.1384 10.5254 433 74.455 839.395 568.21
224 0 44.178 11.2726 498 72.49 839.217 568.733
225 0 48.2692 12.161 587 70.632 838.99 566.814
226 0 47.1507 11.9828 565 71.5894 838.584 565.991
227 0 48.1107 12.1179 583 71.8148 838.021 563.324
228 0 51.1427 11.2235 574 73.1307 838.592 566.456
229 0 50.1441 12.4641 625 72.4688 837.822 563.688
230 0 52.19 11.4581 598 74.4097 838.082 563.445
231 0 56.1079 12.3869 695 71.7511 838.127 562.977
232 0 54.1548 11.6518 631 75.0048 837.745 561.398
233 0 57.1013 11.9437 682 73.2551 838.114 562.748
234 0 60.1169 12.6919 763 72.2202 837.717 559.999
235 0 61.0862 12.2941 751 73.3356 837.017 560.224
236 0 64.136 12.9413 830 71.0361 836.782 558.795
237 0 66.0398 13.2647 876 70.7237 836.961 556.9
238 0 67.0925 12.8777 864 71.6655 836.815 555.98
239 0 66.0527 12.7928 845 72.7953 837.002 555.469
240 0 70.2724 13.1773 926 71.1479 837.253 555.489
241 0 72.196 12.937 934 72.0428 837.073 553.88
242 0 77.162 13.7633 1062 69.4623 837.104 552.792
243 0 78.3628 12.8377 1006 71.2962 837.001 552.321
244 1 40.2217 10.0195 403 70.9082 837.002 571.953
245 0 43.2223 10.4807 453 71.574 836.967 569.89
246 0 43.0976 11.3696 490 69.651 836.665 569.484
247 0 46.0306 11.1665 514 69.2218 837.379 568.019
248 0 46.0306 11.2317 517 154.861 837.387 567.921
249 0 50.0451 12.7285 637 65.9309 837.546 566.518
250 0 51.1325 12.0862 618 67.4434 837.871 565.163
251 0 52.1494 10.6425 555 69.1982 837.641 565.505
252 0 54.1147 11.4941 622 67.7701 837.728 563.839
253 0 55.1309 12.2073 673 66.8811 838.064 563.627
254 0 56.0465 11.7046 656 67.497 837.421 562.828
255 0 57.047 12.5511 716 66.5768 837.575 562.43
256 0 60.085 12.6321 759 66.2279 838.191 560.069
257 0 60.1038 12.4285 747 66.7282 837.918 560.107
258 0 63.1476 12.3045 777 66.9807 837.771 558.53
259 0 65.1551 12.1249 790 66.6215 837.613 559.241
260 0 68.1598 13.6004 927 64.1823 837.192 558.565
261 0 70.2113 12.8042 899 65.6552 837.4 557.887
262 0 71.2853 12.7235 907 66.2492 837.033 555.534
263 0 74.2918 12.8143 952 66.0483 837.515 555.559
264 0 75.3182 12.3742 932 67.1148 837.366 551.636
265 0 78.2927 12.3255 965 67.2756 836.683 550.941
266 0 82.4502 12.6865 1046 66.8155 837.221 551.451
267 0 83.4128 12.7438 1063 67.4487 837.394 550.165
268 0 87.2823 13.4506 1174 66.1917 837.79 546.866
269 0 90.2948 13.5334 1222 66.3609 837.578 544.66
270 0 91.4182 13.0718 1195 67.5766 837.729 545.741
271 1 47.1732 10.578 499 68.3206 837.349 567.854
272 0 50.2885 10.7977 543 67.6703 837.49 567.21
273 0 52.0932 11.3067 589 66.3973 837.834 567.34
274 0 53.0847 12.5648 667 65.6522 837.841 565.129
275 0 57.1578 12.1243 693 66.1371 837.957 563.394
276 0 59.1081 12.5702 743 65.4791 838.291 562.826
277 0 58.0706 12.2782 713 67.1809 838.474 561.987
278 0 62.1139 12.3 764 66.7448 838.427 560.736
279 0 63.0544 12.7985 807 66.5713 838.465 560.056
280 0 63.1282 12.0865 763 68.0275 838.56 559.307
281 0 67.1178 13.1411 882 66.3594 838.286 555.859
282 0 69.0683 12.1908 842 68.3587 838.48 557.034
283 0 72.0868 13.2895 958 67.4311 838.734 554.89
284 0 72.1191 12.7844 922 69.474 838.852 552.782
285 0 76.112 13.5064 1028 68.3774 838.767 550.513
286 0 78.0998 13.0474 1019 69.4789 839.089 549.865
287 0 84.1386 13.2638 1116 69.0081 838.86 550.254
288 0 86.1587 14.0671 1212 68.6394 839.038 545.884
289 0 87.1857 12.6856 1106 71.7731 839.544 544.85
290 1 46.0993 11.3017 521 71.9002 839.708 565.021
291 0 48.118 11.0561 532 73.0207 839.959 564.716
292 0 51.0621 11.1629 570 71.5053 840.312 565.263
293 0 54.155 11.8918 644 70.1863 840.879 563.45
294 0 53.1938 11.9375 635 70.9465 841.109 561.989
295 0 55.0966 11.6704 643 72.3608 841.423 559.872
296 0 58.0878 12.8771 748 69.5414 841.426 558.575
297 0 59.0667 12.1388 717 71.0209 841.531 558.181
298 0 60.0667 12.3363 741 70.9123 841.97 558.038
299 0 64.0877 12.6077 808 70.4233 841.703 556.057
300 0 65.0929 13.0583 850 69.0718 842.244 557.139
301 0 66.1569 12.5611 831 71.5187 842.415 553.469
302 0 70.0694 12.4305 871 71.2824 842.701 553.847
303 0 71.1099 13.1346 934 70.3715 842.419 553.54
304 0 73.1068 12.4475 910 72.2187 842.492 552.947
305 0 74.0581 13.6514 1011 70.8556 842.492 550.332
306 0 77.0611 12.7302 981 72.2059 842.548 549.093
307 0 82.0484 13.6992 1124 70.4155 842.33 547.519
308 0 83.1287 12.9077 1073 72.2134 842.129 547.842
309 1 43.1025 9.81381 423 73.3073 842.428 565.608
310 0 45.139 10.3458 467 72.4818 842.891 564.775
311 0 45.0547 10.1432 457 73.9803 841.849 563.317
312 0 46.0662 11.3749 524 72.9008 841.49 562.578
313 0 49.0545 11.6197 570 71.793 841.714 562.042
314 0 51.0993 11.9767 612 71.549 841.534 560.415
315 0 51.0824 12.2351 625 72.3264 841.078 558.635
316 0 54.0947 13.2176 715 69.6434 841.345 558.876
317 0 56.0973 11.7653 660 72.0606 841.02 557.314
318 0 58.1113 12.8546 747 70.1138 840.821 556.727
319 0 58.1065 11.7199 681 72.0176 840.863 557.477
320 0 60.0433 13.5069 811 69.4957 841.6 554.724
321 0 63.167 13.0606 825 69.4848 840.715 555.112
322 0 62.1321 12.747 792 70.7576 840.926 555.001
323 0 65.0463 13.9132 905 68.4829 840.809 553.059
324 0 67.0676 13.1211 880 69.7341 841.08 551.084
325 0 67.0676 13.0316 874 148.16 841.045 551.045
326 0 72.0896 13.2197 953 68.5582 840.85 549.31
327 0 74.1267 13.3825 992 68.3105 840.331 548.115
328 0 77.2856 13.5989 1051 67.432 840.302 546.983
329 0 78.2177 13.4752 1054 68.0085 839.67 547.267
330 0 81.0551 14.1262 1145 66.8847 839.468 543.543
331 1 45.1619 11.182 505 67.3624 839.63 564.566
332 0 45.1061 11.3732 513 67.0936 839.544 564.444
333 0 47.0788 10.8117 509 69.8369 839.128 561.857
334 0 49.0528 11.7628 577 68.2426 839.471 560.936
335 0 51.0996 11.5852 592 68.8193 839.446 562.176
336 0 54.1096 12.641 684 66.3845 839.121 561.769
337 0 55.1447 13.111 723 66.473 839.119 560.17
338 0 56.0896 12.1413 681 67.9119 839.457 560.401
339 0 55.0523 13.3873 737 67.3528 839.136 558.586
340 0 57.0786 12.1236 692 69.0766 839.033 559.564
341 0 59.143 12.0724 714 69.1022 838.94 558.912
342 0 61.0504 12.7436 778 68.0733 838.751 555.477
343 0 64.1136 12.9458 830 66.5241 838.773 557.595
344 0 64.1136 12.9146 828 160.366 838.774 557.585
345 0 69.1846 13.4278 929 65.4629 838.975 554.544
346 0 69.1846 13.3989 927 161.029 838.975 554.524
347 0 73.1233 13.2789 971 66.3131 838.543 551.537
348 0 76.0684 14.2109 1081 64.2359 838.482 551.09
349 0 78.137 13.6555 1067 65.6307 838.452 548.399
350 0 83.0991 13.514 1123 65.2378 838.436 547.736
351 0 85.1381 13.1668 1121 66.0223 838.353 547.599
352 1 42.0499 9.58386 403 68.5782 839.032 567.127
353 0 46.021 10.2779 473 67.2622 838.812 567.161
354 0 48.0624 12.1509 584 65.2962 838.971 565.594
355 0 51.0625 12.3574 631 65.4136 838.886 564.539
356 0 50.0374 12.031 602 66.3439 838.837 563.189
357 0 54.0413 12.0648 652 65.5583 839.08 563.141
358 0 55.0323 12.0657 664 66.0377 839.25 562.968
359 0 56.0477 11.3475 636 66.9733 839.05 561.347
360 0 59.0636 13.0706 772 64.2358 839.329 562.087
361 0 60.0933 13.5789 816 64.2733 839.13 559.705
362 0 60.0858 12.7651 767 66.3585 839.262 559.03
363 0 64.1282 13.4574 863 64.4948 839.159 556.666
364 0 66.1329 13.0192 861 65.7921 839.237 555.271
365 0 68.1244 12.8148 873 66.5773 838.843 554.741
366 0 70.172 12.8826 904 66.396 839.33 553.376
367 0 71.0599 12.7217 904 67.1206 839.374 551.956
368 0 71.0599 12.6513 899 161.603 840.382 551.943
369 0 77.2206 12.924 998 66.484 839.797 550.285
370 0 80.1888 13.4682 1080 65.6426 839.614 548.36
371 1 39.0426 10.7063 418 64.4234 840.615 570.347
372 0 41.0482 11.1576 458 64.1266 840.07 568.528
373 0 41.0365 9.62557 395 66.7367 840.42 566.724
374 0 43.0777 11.1426 480 63.9917 840.431 565.942
375 0 44.0594 12.0292 530 63.1698 840.087 565.349
376 0 46.0511 11.0312 508 63.624 840.108 565.287
377 0 47.1532 11.1339 525 63.3924 840.541 564.987
378 0 48.0673 11.5255 554 63.3845 840.395 562.22
379 0 48.0485 10.8224 520 64.3231 840.462 561.875
380 0 50.0618 12.4246 622 62.7878 840.161 562.421
381 0 55.0875 12.0536 664 62.4367 840.407 561.824
382 0 55.065 12.6759 698 62.5301 840.765 560.983
383 0 55.1827 11.8515 654 64.5673 840.945 558.887
384 0 58.1067 12.0296 699 64.0572 841.237 557.226
385 0 60.0538 11.8061 709 64.8434 841.396 557.42
386 0 62.1611 11.6954 727 64.3494 841.733 556.369
387 0 63.0516 12.2915 775 64.7019 842.021 554.208
388 0 66.1389 12.126 802 64.4988 842.127 553.504
389 0 70.1567 12.971 910 63.1308 842.419 553.084
390 0 72.1433 12.9603 935 63.8128 842.359 550.773
391 0 75.1367 13.0562 981 63.6177 842.725 550.076
392 1 38.0729 11.0052 419 63.9857 842.785 567.444
393 0 40.0908 9.55331 383 65.9347 842.747 566.091
394 0 41.0249 11.2858 463 64.8251 842.706 565.119
395 0 45.0567 11.0971 500 62.732 842.87 565.974
396 0 45.1175 11.193 505 63.3782 843.523 563.671
397 0 47.0335 11.0772 521 63.5701 843.599 564.223
398 0 48.1124 12.8449 618 62.1845 843.895 562.443
399 0 49.1873 12.5846 619 63.3861 843.735 561.653
400 0 50.1124 11.8733 595 64.563 843.486 560.126
401 0 50.1952 11.9334 599 64.2688 843.676 561.773
402 0 53.1419 11.4222 607 64.7677 843.689 561.254
403 0 53.1766 12.4115 660 64.3788 843.362 558.929
404 0 56.1274 13.6653 767 62.2516 843.666 557.789
405 0 58.0588 12.3151 715 64.2657 843.743 557.393
406 0 59.1224 12.1781 720 64.6361 843.55 557.847
407 0 59.1203 12.4492 736 65.5815 843.283 556.916
408 0 61.1108 12.2892 751 65.8655 843.085 555.591
409 0 63.0906 12.6802 800 65.9562 843.455 553.812
410 0 64.1305 12.1003 776 67.4085 843.768 552.688
411 0 66.0422 12.8251 847 66.8512 843.573 551.528
412 0 69.1066 13.0523 902 66.6275 843.319 549.785
413 0 73.1834 13.1587 963 66.7466 842.858 550.03
414 0 74.2774 12.5879 935 68.4652 842.706 548.221
415 0 77.2534 13.9411 1077 67.1161 843.259 548.183
416 0 78.3279 13.0988 1026 68.8577 843.26 546.949
417 0 82.177 12.7773 1050 69.0619 842.53 546.75
418 0 82.1932 12.9816 1067 69.8604 842.296 543.903
419 0 86.1694 12.5567 1082 70.0823 841.722 544.359
420 1 44.1387 11.2373 496 70.0181 842.006 563.764
421 0 47.1182 10.5904 499 70.3567 841.896 562.906
422 0 49.0407 10.787 529 68.7164 841.8 563.62
423 0 48.0883 11.4789 552 69.3062 841.743 562.748
424 0 53.0525 12.8175 680 66.575 841.879 560.182
425 0 52.1701 12.6318 659 67.8452 840.737 559.645
426 0 52.1701 12.6126 658 161.684 839.726 559.616
427 0 56.0256 11.3876 638 68.4404 840.79 560.796
428 0 58.0939 12.8929 749 66.3311 840.818 558.656
429 0 58.0858 13.2907 772 66.5272 840.137 556.356
430 0 59.0537 12.2431 723 68.2614 840.022 556.285
431 0 63.0918 12.9177 815 66.8699 839.676 555.247
432 0 63.0903 13.6788 863 65.9942 840.155 554.73
433 0 67.0675 13.9561 936 64.6944 840.075 554.624
434 0 70.1988 14.6299 1027 63.4722 839.894 552.089
435 0 71.0865 13.1108 932 65.7843 840.171 552.237
436 0 75.091 14.7155 1105 63.2 840.373 550.089
437 0 77.1641 13.6462 1053 65.0228 840.244 549.491
438 0 79.1101 13.6266 1078 65.2931 840.205 550.576
439 0 82.1049 14.2744 1172 64.5102 840.329 547.796
440 0 84.0972 13.1871 1109 66.1894 840.151 546.461
441 0 87.1548 14.698 1281 64.3575 840.192 544.047
442 1 44.0721 11.0047 485 67.2928 839.843 565.819
443 0 47.0959 11.1475 525 66.6229 839.926 566.547
444 0 50.1074 11.4155 572 65.9685 840.577 566.294
445 0 51.0265 11.8762 606 67.5545 840.061 563.396
446 0 53.0738 12.134 644 66.7748 840.623 563.587
447 0 56.1081 12.9037 724 65.0815 840.322 562.463
448 0 56.0543 11.5959 650 67.1677 840.198 563.315
449 0 59.1154 13.7189 811 64.9889 839.954 559.898
450 0 59.0388 12.1276 716 68.0405 839.982 559.898
451 0 63.1028 13.3433 842 65.7447 840.091 557.812
452 0 65.0808 13.2758 864 65.8125 840.196 557.796
453 0 64.1045 12.8696 825 67.1467 839.996 555.916
454 0 69.067 12.9005 891 66.5724 840.017 556.944
455 0 69.0757 13.1305 907 67.2911 839.809 553.938
456 0 75.0813 13.6918 1028 65.6732 839.689 551.962
457 0 76.0921 12.7871 973 67.0935 839.68 550.889
458 0 79.0817 13.0498 1032 66.3624 839.4 551.373
459 0 82.0872 13.0349 1070 66.7551 838.963 548.636
460 0 85.0808 12.4822 1062 67.5169 839.673 548.345
461 0 89.1817 14.8125 1321 64.1756 839.273 545.637
462 0 89.1817 14.8685 1326 162.665 839.28 545.733
463 1 44.1363 10.6035 468 67.203 839.895 568.53
464 0 48.1496 10.4466 503 67.8966 839.835 566.799
465 0 49.0739 11.3502 557 68.3591 839.454 565.539
466 0 49.0848 12.2645 602 67.711 839.226 564.836
467 0 53.0586 12.3637 656 67.1982 839.346 564.308
468 0 54.1263 13.3761 724 66.3798 839.34 561.925
469 0 56.0703 12.8054 718 66.3231 839.827 563.494
470 0 58.1344 13.8128 803 65.3898 839.503 560.005
471 0 59.0678 13.7469 812 65.9089 839.374 560.15
472 0 63.0891 13.4413 848 66.1568 838.942 559.383
473 0 62.1109 12.2523 761 68.3259 839.192 561.335
474 0 64.0826 13.5606 869 67.3832 839.31 559.514
475 0 67.0533 13.0046 872 68.18 839.187 558.864
476 0 69.1662 12.9398 895 68.905 839.632 555.365
477 0 72.0373 14.3953 1037 66.2363 839.996 557.726
478 0 73.1705 13.8854 1016 67.687 839.571 555.059
479 0 77.1749 14.2274 1098 67.0046 839.649 552.196
480 0 79.1583 13.1382 1040 68.576 839.88 552.512
481 0 82.2781 13.4544 1107 68.5519 839.776 550.748
482 0 87.1243 14.9786 1305 65.8966 839.582 547.73
483 0 89.2374 12.8646 1148 68.5305 839.983 550.369
484 0 92.1594 13.4332 1238 68.6906 839.342 544.773
485 1 50.1567 11.8429 594 68.8064 839.855 566.478
486 0 52.1373 12.563 655 68.0718 840.247 564.841
487 0 53.1672 12.5077 665 68.5383 840.012 564.081
488 0 55.2513 12.8685 711 68.1195 840.084 563.668
489 0 54.1697 12.9593 702 68.9288 839.835 561.771
490 0 57.1163 12.7459 728 68.6305 840.374 560.897
491 0 58.1379 13.5368 787 68.0801 840.252 559.849
492 0 62.1512 13.982 869 66.496 840.423 558.808
493 0 64.0842 12.9673 831 67.7196 840.566 559.248
494 0 67.1327 13.5105 907 66.8556 840.32 556.593
495 0 69.2445 13.8495 959 65.4129 840.686 557.198
496 0 71.2579 13.5424 965 66.3088 840.332 554.494
497 0 74.1407 13.6767 1014 65.8195 839.794 552.26
498 0 74.1407 13.7037 1016 157.754 838.796 552.234
499 0 79.2288 12.9498 1026 66.9532 840.365 549.931
500 0 80.1725 13.0843 1049 67.7636 840.141 548.991
501 0 80.1619 13.5476 1086 67.7173 840.324 547.743
502 0 82.191 13.2496 1089 68.5427 840.015 546.626
503 0 88.1238 13.4924 1189 67.1203 840.399 545.668
504 0 90.068 13.512 1217 68.0978 840.379 544.278
505 0 92.1237 13.3733 1232 68.7963 840.39 543.957
506 0 97.0754 13.8552 1345 67.8379 840.515 541.747
507 1 54.1174 11.3457 614 70.1026 840.787 561.098
508 0 58.0794 11.9147 692 68.8483 840.259 560.318
509 0 59.0613 10.4806 619 69.9742 840.714 561.838
510 0 62.0898 12.1115 752 69.1875 840.253 558.636
511 0 63.1334 12.9884 820 67.8073 840.257 559.391
512 0 66.0451 12.4763 824 69.142 839.875 556.45
513 0 68.074 12.5011 851 69.7932 839.724 554.966
514 0 69.1674 13.1565 910 69.0132 840.111 552.127
515 0 73.0577 12.6612 925 69.0314 839.975 552.448
516 0 74.0794 12.9861 962 68.0936 840.051 550.119
517 0 78.1166 12.7758 998 68.1253 840.544 551.36
518 0 80.1262 12.5427 1005 68.3144 840.529 549.507
519 0 82.0892 13.0712 1073 67.6235 840.801 545.987
520 0 85.1547 13.0468 1111 67.8506 840.957 545.726
521 0 90.1051 13.6729 1232 66.3758 840.795 543.1
522 0 94.1683 13.4865 1270 66.2362 840.837 542.1
523 0 97.1175 14.292 1388 64.7716 840.713 541.573
524 0 99.0859 13.3117 1319 66.7582 840.563 538.864
525 0 103.335 13.8965 1436 65.7208 840.548 539.127
526 0 105.151 13.1811 1386 67.5866 840.569 537.124
527 0 108.177 12.7199 1376 68.5022 840.86 533.658
528 0 113.261 13.4734 1526 67.3526 841.117 531.699
529 1 61.0497 9.99187 610 68.6131 840.7 555.811
530 0 64.0795 9.89395 634 67.8281 840.888 557.483
531 0 64.0528 10.6631 683 66.8858 840.88 555.675
532 0 69.0828 11.7395 811 65.5043 841.121 553.691
533 0 71.0885 12.8713 915 64.2984 841.293 550.87
534 0 74.1823 12.8602 954 64.043 841.959 550.46
535 0 75.1746 12.4377 935 64.861 841.749 549.401
536 0 78.2538 12.3956 970 64.9113 841.212 548.789
537 0 79.1821 12.8312 1016 65.1811 841.218 546.548
538 0 83.1307 12.1977 1014 65.503 841.141 545.376
539 0 87.0525 13.2793 1156 63.449 840.775 541.599
540 0 90.1555 13.5765 1224 63.2672 840.958 541.658
541 0 93.2643 13.1776 1229 63.9731 840.857 539.774
542 0 94.159 13.4878 1270 64.0197 840.956 537.695
543 0 98.0907 13.3754 1312 63.9802 840.874 538.965
544 0 101.079 14.2364 1439 62.5817 840.558 537.935
545 0 104.121 12.7159 1324 63.9418 840.167 536.323
546 0 106.242 12.6974 1349 64.4047 840.245 534.48
547 0 110.126 13.5118 1488 63.0309 839.875 533.796
548 1 62.1696 10.6483 662 64.7417 840.378 555.394
549 0 64.0905 9.43977 605 64.7686 840.21 557.074
550 0 67.1074 11.9957 805 62.1677 840.111 553.517
551 0 69.0591 12.4676 861 62.1243 840.249 553.405
552 0 70.0855 11.8569 831 63.2238 840.266 551.161
553 0 74.1317 12.0461 893 62.6999 840.198 550.449
554 0 75.1056 11.637 874 63.9485 840.047 548.211
555 0 79.1246 11.3618 899 63.802 839.96 549.24
556 0 80.1077 12.0088 962 63.5894 839.931 546.367
557 0 82.1007 11.7417 964 64.3527 839.873 543.456
558 0 88.1034 12.7691 1125 62.4044 839.699 542.54
559 0 91.0856 11.857 1080 63.8722 840.051 542.567
560 0 95.0741 12.8321 1220 63.2967 840.201 539.125
561 0 97.0716 12.7123 1234 63.7326 839.443 537.353
562 0 102.121 13.1413 1342 62.8189 839.887 537.065
563 0 104.214 12.9061 1345 64 840.08 535.404
564 0 107.166 13.4838 1445 63.7896 839.751 532.399
565 0 109.187 12.355 1349 65.7954 839.82 533.335
566 0 112.277 12.2554 1376 66.1897 839.078 532.047
567 0 115.323 13.111 1512 65.1713 839.364 532.255
568 1 61.0851 10.248 626 66.6997 839.168 557.703
569 0 62.0588 10.9896 682 66.7463 838.968 554.918
570 0 65.0773 11.8936 774 65.4871 838.802 553.072
571 0 67.1088 12.2786 824 64.9066 838.8 553.283
572 0 67.0929 12.1324 814 66.4484 838.886 552.135
573 0 72.0757 12.3065 887 65.7734 839.175 550.805
574 0 73.0606 12.7839 934 65.7944 838.665 550.467
575 0 75.0708 12.4416 934 66.5096 838.387 548.217
576 0 77.1037 12.2303 943 67.632 838.336 548.736
577 0 79.0884 12.7705 1010 67.705 838.143 547.107
578 0 82.1274 11.8231 971 68.8805 837.578 545.544
579 0 85.0734 13.1181 1116 67.0977 837.815 544.037
580 0 88.0546 12.3673 1089 68.1864 837.414 544.021
581 0 92.1542 13.0542 1203 67.2768 837.451 539.331
582 0 95.0983 12.3451 1174 68.6584 837.424 539.336
583 1 52.0085 10.056 523 67.9847 837.239 561.438
584 0 52.0599 9.60431 500 68.25 837.614 562.524
585 0 55.0256 11.8127 650 66.3138 837.063 559.523
586 0 55.0364 11.0654 609 67.3547 837.125 559.03
587 0 58.0727 11.9333 693 65.9235 836.948 558.394
588 0 60.0876 13.0643 785 66.0204 837.361 558.338
589 0 61.0534 12.399 757 67.424 837.318 559.045
590 0 63.1228 13.1648 831 66.4753 837.445 558.303
591 0 64.0671 12.4245 796 68.3178 836.99 555.054
592 0 66.066 13.3351 881 66.3053 837.417 556.871
593 0 68.1822 12.6573 863 67.3244 836.905 553.647
594 0 69.1085 12.4008 857 67.7351 836.697 553.405
595 0 73.14 12.8521 940 65.6649 836.585 552.778
596 0 76.235 13.5502 1033 64.395 836.73 551.942
597 0 77.1956 13.3557 1031 65.354 836.737 549.692
598 0 79.1121 12.7667 1010 66.5396 836.462 550.277
599 0 81.0975 13.6872 1110 65.5387 836.948 547.478
600 0 83.3058 12.4961 1041 66.9616 836.623 548.312
601 0 86.1847 13.2042 1138 65.797 836.408 545.668
602 0 88.2166 12.8207 1131 66.3227 836.487 544.618
603 0 93.2516 13.8121 1288 64.3152 836.661 543.41
604 0 94.1009 13.2624 1248 65.496 836.659 542.836
605 0 96.1428 12.1798 1171 67.0606 837.12 540.959
606 0 102.13 13.5317 1382 64.5065 837.125 539.459
607 0 104.158 12.6922 1322 65.9713 836.976 537.221
608 1 57.07 9.16419 523 66.8375 837.195 561.818
609 0 58.1549 11.4866 668 64.5719 837.506 561.284
610 0 61.0372 11.4193 697 64.7733 837.076 558.849
611 0 62.052 12.0544 748 63.4398 836.705 556.63
612 0 62.052 12.1028 751 147.862 836.7 556.541
613 0 66.0624 11.368 751 64.217 836.818 556.341
614 0 68.1665 12.044 821 64.609 836.639 549.51
615 0 68.1026 12.1875 830 64.0241 836.425 550.724
616 0 72.1376 12.3653 892 63.62 836.519 549.349
617 0 73.1677 11.7675 861 64.9721 837.023 549.691
618 0 75.1153 11.3692 854 64.8501 836.814 549.096
619 0 79.1001 12.2124 966 63.3095 836.916 548.227
620 0 81.2232 12.3364 1002 63.8872 836.513 545.358
621 0 84.157 12.5599 1057 63.6982 836.937 545.817
622 0 87.1455 12.2095 1064 63.844 837.211 545.888
623 0 90.1254 12.9819 1170 64.1051 837.881 544.219
624 1 47.1345 9.99269 471 64.0658 837.21 566.221
625 0 49.1219 9.75124 479 64.0334 837.566 567.347
626 0 50.069 10.6653 534 63.1161 837.455 565.841
627 0 52.0689 11.8689 618 62.3948 838.066 564.579
628 0 54.0794 11.9639 647 61.9474 838.207 564.134
629 0 55.0593 11.8781 654 62.4694 837.268 563.176
630 0 57.15 11.636 665 62.9008 837.302 562.577
631 0 58.0843 11.7243 681 62.884 837.498 562.593
632 0 60.1005 11.8967 715 62.758 837.376 560.869
633 0 60.0905 11.7656 707 63.2659 837.438 559.629
634 0 65.2346 12.0795 788 62.1497 837.886 558.745
635 0 67.1467 13.2099 887 60.177 837.967 556.452
636 0 68.1518 12.3254 840 61.6845 837.95 555.81
637 0 70.2763 12.3655 869 61.8055 837.994 554.252
638 0 71.1132 12.0934 860 63.036 838.43 552.783
639 0 73.1094 12.5292 916 62.4618 838.361 552.283
640 0 78.1262 13.0046 1016 61.2677 838.322 550.843
641 0 78.1469 12.2462 957 63.116 838.592 549.324
642 0 82.0963 12.6559 1039 62.3426 838.54 548.132
643 0 83.0671 12.207 1014 63.1716 838.854 546.956
644 0 87.107 13.1218 1143 62.0455 839.199 545.871
645 1 48.0466 11.0726 532 63.5414 839.192 565.667
646 0 50.0436 10.1911 510 64.7686 839.439 565.194
647 0 51.141 10.911 558 64.2222 839.968 564.272
648 0 52.1697 11.6159 606 65.066 839.447 560.924
649 0 54.0673 12.3365 667 64.033 839.835 559.964
650 0 54.0794 11.4646 620 65.45 840.026 560.574
651 0 58.1081 12.0637 701 64.8516 840.016 558.535
652 0 58.0639 11.7457 682 65.6246 839.356 558.109
653 0 62.1137 12.7669 793 64.0252 839.45 555.033
654 0 63.0638 12.5111 789 64.6033 839.233 554.857
655 0 64.077 12.5162 802 64.4875 839.474 554.474
656 0 67.0641 13.5989 912 62.5768 839.624 552.284
657 0 69.1324 12.411 858 63.9417 839.612 553.824
658 0 72.1186 13.4501 970 62.6959 839.919 550.091
659 0 74.1165 13.2359 981 63.1478 839.714 547.216
660 0 76.0944 12.2217 930 64.4753 840.169 548.322
661 0 79.0481 13.0427 1031 63.3841 839.889 545.467
662 0 81.0487 11.672 946 65.2875 840.115 544.459
663 1 43.0465 9.3852 404 64.7252 839.812 564.834
664 0 44.0322 11.5143 507 62.3333 840.495 563.45
665 0 45.1668 11.3358 512 63.3613 840.621 562.23
666 0 50.0379 11.6911 585 62.5385 841.003 560.378
667 0 48.1021 11.143 536 64.7817 840.869 561.261
668 0 51.187 12.0929 619 63.3764 840.955 560.113
669 0 51.0709 11.8267 604 64.697 840.73 559.111
670 0 53.1774 12.7498 678 63.8407 841.046 558.35
671 0 53.1482 12.8132 681 64.0778 841.217 555.746
672 0 55.0438 12.4991 688 64.1788 841.297 555.555
673 0 59.0353 13.2124 780 62.4141 841.562 554.849
674 0 59.0705 12.5782 743 64.5195 841.77 553.019
675 0 59.0881 12.2698 725 65.7228 841.801 551.521
676 0 61.1073 12.8135 783 65.281 841.978 552.065
677 0 62.0495 12.9735 805 65.2758 841.984 552.14
678 0 65.0596 12.3579 804 66.2114 841.955 551.116
679 0 68.0419 12.7275 866 64.9342 842.227 549.925
680 0 68.0555 12.8425 874 65.5595 841.986 548.436
681 0 70.1573 12.5432 880 66.5614 842.042 547.51
682 0 72.0495 12.88 928 66.6045 841.916 545.944
683 0 75.0738 12.9073 969 66.356 842.17 547.625
684 0 77.0628 13.6772 1054 66.0161 842.617 544.602
685 0 80.1523 13.4868 1081 66.8455 842.175 540.323
686 0 83.0952 13.1897 1096 67.2701 842.388 540.415
687 0 85.0394 13.7583 1170 66.635 842.273 539.515
688 0 88.1924 13.7654 1214 66.9135 842.012 539.612
689 1 43.0143 11.3451 488 68.8545 842.217 561.256
690 0 43.0642 10.9836 473 69.1818 842.146 562.797
691 0 44.1136 10.4049 459 70.8453 841.553 562.66
692 0 46.0184 11.93 549 68.1985 841.614 561.199
693 0 49.0588 11.8429 581 67.7367 841.382 560.69
694 0 51.0999 13.2094 675 66.0859 841.348 560.369
695 0 51.0936 12.8196 655 68.0565 841.345 559.076
696 0 51.0936 12.8196 655 169.652 840.345 559.076
697 0 54.0924 12.5896 681 68.069 841.116 556.347
698 0 58.1403 12.7622 742 66.69 840.633 555.354
699 0 57.0648 12.0565 688 68.1308 841.096 555.913
700 0 59.0676 12.765 754 66.8634 840.727 554.475
701 0 62.1417 13.8393 860 64.6581 840.553 554.893
702 0 64.0654 12.456 798 67.4148 840.698 551.732
703 0 67.0742 13.8652 930 64.4086 840.713 552.705
704 0 67.0765 13.6561 916 66.0131 840.406 551.881
705 0 72.1961 13.588 981 64.7778 840.054 550.736
706 1 37.0111 11.483 425 66.1976 840.165 568.656
707 0 38.1578 11.2952 431 67.2807 840.258 566.376
708 0 37.1243 11.1248 413 68.4988 840.116 565.913
709 0 37.058 12.4669 462 74.6883 840.011 567.026
710 0 40.0492 12.3848 496 78.6109 839.877 566.06
711 0 41.0387 13.0365 535 79.2 839.766 564.12
712 0 43.1555 11.4006 492 82.3354 839.283 564.018
713 0 43.0819 12.9985 560 80.9607 839.359 564.789
714 0 45.0515 13.6066 613 80.2936 839.341 564.641
715 0 43.0675 11.9812 516 85.0097 839.329 563.921
716 0 48.118 13.2591 638 82.4138 839.484 563.694
717 0 50.0484 12.8675 644 82.7888 838.761 563.45
718 0 51.127 12.7721 653 82.8545 838.519 562.268
719 0 50.0286 12.6128 631 84.1807 839.143 561.803
720 0 52.1379 12.6779 661 85.3979 839.041 560.307
721 0 56.0478 13.0246 730 84.6233 838.899 560.471
722 0 57.0611 12.9861 741 84.8704 838.69 558.425
723 0 60.0464 13.6561 820 83.9195 838.566 560.249
724 0 61.0668 14.2958 873 84.0641 838.336 558.653
725 0 64.0467 13.6463 874 85.3581 838.148 557.445
726 0 65.1255 13.5584 883 85.0045 838.077 556.769
727 0 67.0378 12.9927 871 86.4914 838.156 555.414
728 0 70.0636 13.816 968 86.0826 838.062 554.901
729 0 73.0793 15.4763 1131 83.9302 837.643 553.621
730 0 74.2428 14.5469 1080 86.3296 838.127 553.745
731 0 77.1184 14.1211 1089 88.18 837.802 550.588
732 0 79.1562 14.0608 1113 88.9712 838.476 548.524
733 1 38.1347 12.4559 475 90.3726 837.939 568.625
734 0 39.2101 11.7572 461 92.3492 838.087 568.792
735 0 43.13 13.6564 589 87.8998 837.723 568.693
736 0 42.1287 12.6517 533 91.9456 837.06 565.835
737 0 45.1518 13.8643 626 90.1038 837.335 566.209
738 0 46.1581 13.4754 622 92.2974 837.281 565.186
739 0 46.3072 12.7194 589 93.8947 837.518 564.835
740 0 49.208 13.697 674 92.8145 837.111 564.254
741 0 52.221 13.6535 713 93.1164 837.181 563.369
742 0 52.1131 13.8353 721 93.3093 837.115 563.73
743 0 54.2164 13.2248 717 95.0112 836.845 561.139
744 0 56.0602 12.2725 688 96.952 837.186 562.033
745 0 58.1926 14.1255 822 95.2238 837.14 560.586
746 0 59.0677 13.1713 778 97.3997 836.958 560.117
747 0 62.246 14.0893 877 96.7355 837.195 558.464
748 0 65.4078 14.2032 929 96.4586 837.21 557.52
749 0 66.3283 14.3529 952 96.8466 837.116 558.394
750 0 69.1663 13.8362 957 97.9875 837.239 555.93
751 1 34.0807 13.2039 450 97.8578 837.02 572.767
752 0 34.1325 11.8948 406 93.0837 837.36 573.478
753 0 36.1585 12.7218 460 93.2587 837.407 571.872
754 0 40.1251 13.5078 542 92.3616 837.125 571.387
755 0 41.3102 13.2897 549 92.8306 836.694 570.77
756 0 41.179 13.4049 552 94.404 836.513 570.399
757 0 42.013 13.9957 588 94.6241 836.862 569.376
758 0 43.1544 14.0194 605 95.1157 836.745 570.731
759 0 45.1756 14.4326 652 93.7055 836.471 569.775
760 0 46.1028 13.0144 600 94.17 836.695 569.123
761 0 47.0636 14.2361 670 92.8731 836.952 568.216
762 0 50.0681 15.1194 757 91.8124 837.506 565.923
763 0 50.0554 14.444 723 93.8783 837.515 566.658
764 0 54.1094 14.1195 764 93.6571 837.436 566.656
765 0 53.1189 12.9709 689 96.8433 837.258 565.968
766 0 53.1189 14.1569 752 159.668 838.348 566.676
767 0 57.1579 14.1888 811 95.9001 836.75 564.313
768 0 58.0843 15.3742 893 93.5151 836.579 564.511
769 0 60.3218 13.5109 815 97.0736 836.564 562.394
770 0 61.2672 14.7387 903 93.4385 836.028 559.8
771 0 63.2742 14.8402 939 92.4824 836.679 561.293
772 0 63.2742 14.8402 939 152.01 837.677 561.465
773 0 68.2078 14.5878 995 92.7206 836.012 558.995
774 0 71.1644 14.4454 1028 92.9951 836.599 558.642
775 0 73.1276 15.261 1116 92.147 836.829 558.327
776 0 75.2327 15.0334 1131 93.7445 836.721 555.338
777 0 77.1618 14.2039 1096 95.1752 836.733 555.389
778 1 40.0764 13.1 525 94.379 836.92 572.501
779 0 41.3372 13.0633 540 93.9907 837.065 574.044
780 0 41.0712 13.6836 562 85.6726 837.203 570.724
781 0 45.0993 13.8583 625 85.224 837.533 570.501
782 0 45.057 14.293 644 85.9425 837.148 569.384
783 0 46.0857 14.5164 669 86.9641 836.897 568.888
784 0 49.0484 15.5561 763 85.1429 837.412 567.983
785 0 51.1757 14.6163 748 87.5682 837.221 566.553
786 0 51.1922 14.1623 725 89.3821 837.474 565.859
787 0 52.3578 14.993 785 89.0178 837.18 565.322
788 0 56.2268 15.811 889 88.1879 837.588 564.697
789 0 57.24 14.9721 857 90.4201 838.139 562.776
790 0 58.3028 14.3732 838 91.6038 838.22 563.017
791 0 62.0499 15.0846 936 91.156 838.63 561.327
792 0 64.2366 15.5208 997 91.9699 838.092 559.693
793 0 64.199 14.0812 904 95.2113 838.362 559.947
794 0 66.1534 14.5873 965 95.9689 838.05 559.358
795 0 71.2578 15.4088 1098 94.0619 838.086 557.043
796 0 72.0712 15.2627 1100 95.9545 838.224 554.522
797 0 74.2212 14.834 1101 97.1417 838.13 553.519
798 0 79.304 14.4003 1142 87.6287 838.407 551.91
799 0 82.1567 15.4826 1272 87.3097 838.244 550.046
800 1 42.0898 12.0694 508 90.5886 838.567 568.252
801 0 46.0763 13.6947 631 88.4453 838.856 566.474
802 0 47.1637 13.2517 625 88.7712 838.904 566.87
803 0 48.1422 13.2316 637 90.0392 838.763 565.571
804 0 51.0929 14.2681 729 88.3567 838.807 564.583
805 0 51.0932 13.6222 696 90.773 838.932 562.806
806 0 54.1147 13.1388 711 91.1617 839.627 562.017
807 0 55.0439 12.7353 701 92.0371 839.608 560.904
808 0 61.1388 13.5102 826 90.1053 839.599 560.076
809 0 62.1385 15.2562 948 87.8175 839.489 559.624
810 0 65.0682 14.4771 942 89.3535 839.951 557.926
811 0 66.1186 12.8557 850 92.8671 840.414 556.46
812 0 69.0636 14.0305 969 90.5831 840.881 557.119
813 0 71.2994 14.3339 1022 91.5597 840.437 554.114
814 0 72.2451 13.6203 984 93.5864 840.724 552.006
815 1 40.0676 11.256 451 91.0865 840.858 570.743
816 0 42.0771 12.1919 513 88.7349 840.77 571.788
817 0 38.1139 10.5736 403 94.5285 840.581 569.593
818 0 42.0619 11.8872 500 92.002 840.748 569.372
819 0 42.1317 12.271 517 93.4642 840.766 569.077
820 0 43.1306 13.5634 585 92.5744 840.412 567.834
821 0 46.1558 13.3244 615 92.7203 840.818 566.146
822 0 48.1582 11.6283 560 94.7589 840.709 567.134
823 0 48.1284 12.529 603 96.1244 840.469 565.658
824 0 51.091 13.5053 690 93.6246 840.387 563.786
825 0 52.0626 11.7935 614 95.5309 840.879 562.604
826 0 55.0497 13.3516 735 94.0476 840.469 561.99
827 0 56.0821 12.66 710 96.0423 840.123 559.92
828 0 56.124 11.1182 624 98.4391 840.224 560.479
829 0 59.0681 12.3078 727 97.5763 840.527 557.461
830 0 61.1685 13.0132 796 94.4962 840.246 558.56
831 0 64.1214 12.5075 802 95.3516 840.443 556.939
832 0 66.2525 13.2976 881 95.8865 840.235 555.268
833 0 68.0802 14.7033 1001 93.3576 840.179 554.006
834 0 71.1701 13.3483 950 95.2937 840.541 554.418
835 0 74.3308 12.0004 892 98.2466 840.327 552.601
836 1 36.0274 8.90988 321 115.333 840.798 569.321
837 0 40.0726 12.0781 484 107.44 840.971 570.221
838 0 41.0108 10.7289 440 105.436 840.791 571.716
839 0 42.0417 10.9177 459 105.593 840.728 567.876
840 0 43.0488 10.9179 470 103.838 840.764 568.549
841 0 46.0444 11.0545 509 101.921 840.64 566.273
842 0 47.0495 13.2201 622 97.1543 840.342 565.37
843 0 48.1693 12.4353 599 93.2621 840.377 566.586
844 0 47.117 11.5457 544 95.5074 840.261 565.452
845 0 49.0812 12.2654 602 94.5648 840.078 561.924
846 0 50.0841 13.1579 659 93.9378 839.983 562.293
847 0 53.0911 11.1695 593 94.9612 839.327 563.796
848 0 54.0492 13.5987 735 91.8449 839.506 561.824
849 0 58.0519 11.3864 661 94.9425 838.887 559.905
850 0 60.1684 13.6118 819 91.6081 838.863 558.711
851 0 61.0977 12.8319 784 91.7934 839.349 560.409
852 0 64.1427 12.9087 828 91.5568 839.156 557.58
853 0 67.0932 12.5497 842 91.5879 838.477 556.586
854 0 69.1223 13.2085 913 89.988 838.852 556.335
855 0 71.1293 13.1591 936 89.9017 838.444 554.931
856 0 74.1521 14.7669 1095 87.7799 838.861 555.232
857 1 41.0768 9.9813 410 89.9634 839.424 571.459
858 0 41.1208 10.8704 447 89.4474 839.103 571.253
859 0 41.1449 10.5238 433 91.709 838.938 569.441
860 0 44.0325 12.0366 530 88.4528 838.904 568.958
861 0 44.0353 12.1266 534 89.5169 838.414 568.12
862 0 44.0956 12.0193 530 90.5906 838.153 567.951
863 0 46.1074 13.8373 638 88.9969 838.339 568.234
864 0 49.0798 12.2861 603 92.8192 838.03 566.653
865 0 49.0838 12.9371 635 95.4787 837.282 565.825
866 0 50.0493 12.9073 646 101.467 837.094 564.624
867 0 49.0324 9.95261 488 107.936 836.467 564.814
868 0 53.0652 13.0782 694 105.048 837.092 562.798
869 0 54.0889 12.461 674 107.371 836.828 563.97
870 0 56.0751 12.5546 704 108.641 836.592 563.082
871 0 56.107 11.0147 618 111.772 837.129 564.469
872 0 59.1942 12.1633 720 109.799 836.799 561.663
873 0 60.1145 12.4263 747 110.104 837.199 562.102
874 0 59.0521 10.7363 634 114.483 836.114 559.798
875 0 64.2904 13.2679 853 109.295 836.516 559.587
876 0 63.2199 11.0567 699 114.619 836.268 556.798
877 0 70.1091 9.91312 695 108.645 835.986 558.842
878 0 69.0553 11.165 771 97.3372 837.084 556.192
879 0 69.1595 12.9122 893 79.8365 837.162 553.616
880 0 75.1005 12.7296 956 76.2019 837.2 554.864
881 0 75.1267 12.2194 918 76.9074 837.301 553.81
882 1 40.0506 9.66277 387 76.0646 837.78 570.367
883 0 43.0799 10.4689 451 73.4302 837.244 570.248
884 0 43.0625 10.8912 469 72.3412 837.488 569.821
885 0 45.073 10.6938 482 72.1701 836.376 568.232
886 0 48.088 10.8967 524 72.0954 836.601 567.851
887 0 48.0678 12.3576 594 70.1902 836.406 566.968
888 0 49.1575 12.1446 597 69.191 837.147 565.918
889 0 51.09 12.1746 622 69.3344 837.182 564.603
890 0 53.121 12.3492 656 69.032 837.081 563.546
891 0 54.0938 12.201 660 69.9712 837.477 563.133
892 0 56.1222 12.4906 701 68.9943 838.056 562.529
893 0 58.1555 12.501 727 69.0646 838.147 561.986
894 0 60.1246 12.1914 733 69.8827 838.138 560.392
895 0 60.057 12.5547 754 70.3873 838.92 558.901
896 0 62.1211 13.2 820 69.0244 838.751 557.338
897 0 65.072 13.0164 847 69.412 839.184 557.686
898 0 67.1053 13.0988 879 69.6132 839.055 556.548
899 0 70.0973 12.5112 877 70.6089 839.178 553.544
900 0 72.1367 13.8071 996 68.2962 839.253 553.781
901 0 73.0904 13.7091 1002 69.2295 839.391 551.975
902 0 76.1107 13.73 1045 69.3713 839.793 550.397
903 0 77.0827 12.9342 997 71.1424 839.628 548.741
904 0 80.0732 14.1496 1133 69.6778 840.013 548.81
905 0 81.0795 13.5546 1099 71.0564 840.406 545.877
906 0 84.0688 14.1194 1187 69.8905 840.643 545.876
907 0 87.0554 12.9343 1126 71.8792 840.309 543.892
908 0 90.2406 14.2065 1282 69.6295 840.434 542.12
909 0 92.1921 14.1227 1302 70.5845 840.395 540.838
910 0 95.1531 14.8287 1411 69.4649 840.933 538.624
911 0 99.1707 14.2381 1412 69.9433 840.586 537.36
912 0 100.117 13.2944 1331 73.1683 840.69 535.499
913 0 104.089 14.2379 1482 71.3826 840.702 534.646
914 0 109.079 14.3383 1564 71.0806 840.644 532.964
915 0 112.099 15.4149 1728 69.8426 841.595 531.084
916 1 60.0789 10.5861 636 73.6572 842.083 556.741
917 0 64.0569 12.0362 771 71.7185 842.074 554.073
918 0 62.0372 11.2836 700 74.5114 842.194 553.511
919 0 66.0786 12.1976 806 72.227 842.237 552.347
920 0 68.0727 12.6629 862 71.8794 842.425 551.309
921 0 71.1081 12.3615 879 72.504 842.419 550.259
922 0 72.0856 12.2909 886 72.2528 842.48 549.915
923 0 76.0864 12.3807 942 71.6953 842.835 548.782
924 0 76.1314 12.4127 945 72.8995 842.87 546.144
925 0 81.1247 12.7951 1038 71.1445 842.565 546.858
926 0 83.0914 13.0338 1083 71.301 842.716 545.425
927 0 87.1045 13.2485 1154 70.3622 842.321 544.5
928 0 88.0928 13.3155 1173 70.971 842.703 542.327
929 0 91.0855 13.3172 1213 70.8862 843.054 542.093
930 0 94.1592 13.0311 1227 71.5811 842.569 539.126
931 0 97.1206 13.8076 1341 70.7562 842.4 538.546
932 0 97.1245 13.4158 1303 72.858 842.1 536.176
933 0 103.141 13.8354 1427 70.5424 841.865 536.791
934 0 107.088 13.4002 1435 71.5268 841.991 533.771
935 0 110.086 13.6893 1507 70.9124 841.766 533.488
936 1 58.143 11.0245 641 72.1685 842.435 557.183
937 0 60.0334 10.3442 621 71.8889 842.39 558.631
938 0 61.0801 11.444 699 72.2132 842.236 555.585
939 0 65.0852 12.2455 797 71.2384 841.698 554.469
940 0 67.031 12.2033 818 71.6149 841.644 553.407
941 0 69.1776 13.0389 902 70.847 841.141 552.081
942 0 70.0781 13.2852 931 70.6649 841.232 551.747
943 0 72.1466 12.6687 914 72.0098 840.956 550.688
944 0 77.1521 13.3503 1030 69.9485 840.554 549.187
945 0 77.1167 11.9689 923 71.8754 840.408 547.589
946 0 82.2163 11.7981 970 71.8474 840.531 545.143
947 0 83.1688 12.8534 1069 70.7633 839.926 543.248
948 0 87.1306 12.6936 1106 71.0904 839.863 541.209
949 0 88.1568 12.1148 1068 72.2228 839.949 538.534
950 0 93.2152 12.616 1176 70.1531 839.719 539.734
951 1 51.0318 10.1113 516 70.1996 839.016 560.847
952 0 53.056 11.29 599 68.5125 839.205 560.641
953 0 54.1572 10.9865 595 70.2739 840.134 561.371
954 0 56.0964 11.8724 666 69.3619 839.794 559.583
955 0 60.1084 12.6106 758 67.058 839.881 557.189
956 0 60.114 11.6113 698 69.2708 839.851 556.628
957 0 62.0934 11.9819 744 68.047 839.362 555.617
958 0 64.1202 13.038 836 66.2943 839.037 555.799
959 0 65.0762 12.6774 825 66.5891 838.742 555.018
960 0 68.1103 12.9349 881 65.9364 838.844 555.846
961 0 68.1103 12.9643 883 163.416 838.844 555.946
962 0 70.1266 13.6895 960 64.8104 838.729 553.5
963 0 72.103 12.3296 889 67.1462 838.899 552.552
964 0 75.1619 13.3312 1002 65.4301 839.153 551.96
965 0 76.1505 12.9743 988 66.0294 839.457 550.255
966 0 79.1714 12.8582 1018 65.723 839.178 549.483
967 0 81.1436 13.0879 1062 65.6554 839.433 546.371
968 0 84.2614 13.197 1112 65.5369 839.154 545.383
969 1 45.0915 9.51399 429 66.2214 838.765 566.837
970 0 46.1397 10.0564 464 67.681 838.681 564.351
971 0 49.0576 11.1298 546 64.9231 838.868 564.634
972 0 49.0655 11.6171 570 64.807 839.182 563.765
973 0 52.0401 11.0107 573 65.9162 839.234 563.909
974 0 52.1328 12.3339 643 64.3857 838.941 561.961
975 0 55.1203 11.23 619 65.7254 838.599 561.532
976 0 57.1479 12.5464 717 64.2399 838.621 559.353
977 0 57.123 12.6569 723 64.6708 838.285 560.963
978 0 59.0467 12.4986 738 65.3008 838.033 559.958
979 0 61.0845 11.7542 718 66.3565 837.77 559.345
980 0 64.127 13.3485 856 64.1787 837.869 557.54
981 0 65.1916 13.514 881 64.1975 837.751 556.019
982 0 67.0683 13.3744 897 64.6198 837.612 556.7
983 0 69.1004 13.1982 912 65.5757 837.173 553.018
984 0 71.1258 12.963 922 66.1475 837.464 554.117
985 0 74.1345 13.0169 965 66.1585 837.602 552.517
986 0 76.1258 13.2281 1007 66.574 837.346 551.202
987 0 77.088 13.2057 1018 67.167 837.138 552.368
988 0 82.1052 13.7507 1129 66.4322 837.302 549.582
989 0 82.108 13.0925 1075 68.64 837.407 546.927
990 0 88.0954 13.9167 1226 66.8793 837.671 546.744
991 0 90.0675 13.6231 1227 67.3211 837.206 545.925
992 0 93.0914 13.288 1237 68.5432 836.978 542.993
993 1 47.0671 9.98574 470 69.7979 837.747 568.304
994 0 48.0356 10.0967 485 70.6701 837.934 566.816
995 0 49.0488 11.3764 558 69.9839 838.299 565.471
996 0 50.0408 11.4107 571 70.6953 838.431 565.744
997 0 51.104 12.4061 634 68.6183 837.181 565.189
998 0 54.1181 12.1771 659 68.651 837.419 563.832
999 0 57.1276 13.146 751 67.1704 837.41 561.571
1000 0 55.1368 11.8251 652 70.4724 837.842 562.098
1001 0 57.1029 12.6088 720 69.3028 837.712 562.204
1002 0 60.1125 13.3417 802 67.6758 837.542 562.476
1003 0 61.1235 13.9063 850 67.7012 837.733 560.332
1004 0 62.158 12.42 772 70.1088 837.47 560.253
1005 0 65.1547 12.2478 798 69.7632 837.221 561.112
1006 0 67.2246 12.421 835 70.3257 836.958 558.001
1007 0 67.1828 12.1013 813 71.5203 837.145 557.125
1008 0 70.1591 12.4004 870 70.8759 837.231 557.453
1009 0 75.1906 12.9936 977 69.2897 837.892 555.304
1010 0 77.1198 13.3688 1031 69.7042 837.909 552.595
1011 1 37.0276 9.80349 363 72.5758 838.355 573.813
1012 0 39.07 9.21424 360 74.2917 838.094 573.097
1013 0 39.0964 10.359 405 73.284 837.558 571.553
1014 0 41.1976 10.2676 423 73.4539 838.014 571.196
1015 0 43.1097 11.4823 495 71.301 837.311 570.063
1016 0 44.2334 12.6149 558 67.8387 837.082 570.934
1017 0 45.1805 12.3062 556 69.2986 837.344 569.14
1018 0 47.1548 11.9818 565 69.1451 837.381 568.719
1019 0 49.1118 12.0134 590 68.8 837.537 568.386
1020 0 51.0814 12.2549 626 68.6518 837.46 566.698
1021 0 50.2501 11.3035 568 70.6162 838.053 567.077
1022 0 53.1626 12.885 685 67.4219 838.21 565.236
1023 0 54.2059 11.9729 649 69.1556 838.254 565.293
1024 0 55.1405 12.1871 672 68.6711 838.378 564.92
1025 0 57.1672 11.8599 678 69.3997 838.319 563.569
1026 0 57.1246 10.6259 607 71.089 838.534 562.947
1027 0 61.1186 12.5821 769 67.1586 838.42 559.789
1028 0 62.1682 12.6592 787 67.0877 838.628 560.363
1029 0 64.1712 12.1394 779 68.0655 838.877 559.182
1030 0 68.1596 11.9866 817 67.8115 838.973 557.035
1031 0 69.3234 12.7518 884 66.75 839.002 555.295
1032 0 72.0743 13.0282 939 66.5548 838.906 555.719
1033 1 36.0481 9.15443 330 69.3848 840.497 571.906
1034 0 37.0528 10.0127 371 66.7763 840.17 571.803
1035 0 39.0238 10.6089 414 65.9082 840.249 570.348
1036 0 40.0648 10.7576 431 67.536 839.956 569.624
1037 0 42.0148 11.7578 494 68.2287 841.026 569.383
1038 0 40.0087 12.0224 481 68.6798 840.927 569.262
1039 0 43.0415 12.5925 542 66.762 841.142 567.969
1040 0 44.2355 11.8909 526 67.8574 841.293 566.449
1041 0 44.1148 11.7421 518 68.9208 841.025 567.361
1042 0 45.0517 11.8753 535 69.7047 841.265 567.428
1043 0 48.1311 12.9023 621 67.0789 841.106 566.541
1044 0 49.0953 11.2842 554 69.5758 841.46 566.5
1045 0 50.0912 12.2576 614 67.8811 841.723 566.267
1046 0 51.174 12.1741 623 67.0915 842.043 565.839
1047 0 53.0963 13.0329 692 65.8136 841.749 565.321
1048 0 54.0936 12.1086 655 67.3878 841.774 564.079
1049 0 56.121 12.1701 683 67.0527 841.713 563.43
1050 0 57.1551 12.1424 694 66.9827 841.594 564.048
1051 0 59.1536 11.9181 705 67.661 842.06 561.933
1052 0 62.1547 12.7424 792 66.2184 842.571 560.674
1053 0 64.1758 12.4813 801 66.8951 842.4 559.775
1054 0 63.1567 12.6827 801 67.6255 842.598 557.754
1055 0 65.1122 12.3326 803 68.8705 842.564 556.341
1056 0 69.1561 12.4646 862 67.8631 842.347 555.868
1057 0 71.0766 13.2533 942 67.0722 841.933 555.134
1058 0 72.1365 13.0031 938 67.9808 841.862 552.677
1059 1 41.1314 10.3814 427 69.1967 842.948 570.534
1060 0 44.0158 11.5186 507 66.3964 842.75 569.986
1061 0 45.119 10.9488 494 68.164 842.97 567.518
1062 0 44.0246 11.6072 511 68.5969 842.532 568.016
1063 0 47.0245 12.4403 585 67.465 842.583 565.624
1064 0 49.187 11.7308 577 66.8908 841.175 566.205
1065 0 49.1266 12.9461 636 66.1462 841.503 564.241
1066 0 49.1102 12.0749 593 67.8179 841.339 564.01
1067 0 52.1736 11.4426 597 69.6332 841.032 563.868
1068 0 54.1053 11.9397 646 68.0805 841.299 563.935
1069 0 53.1132 12.3133 654 69.0183 841.3 561.37
1070 0 56.1492 11.6653 655 69.7802 840.942 560.864
1071 0 61.0434 13.1546 803 66.122 841.305 560.717
1072 0 61.0865 13.1126 801 66.7715 841.301 560.084
1073 0 62.0493 12.1516 754 69.3554 841.362 558.623
1074 0 63.0813 11.6358 734 70.3856 841.409 556.939
1075 0 66.1323 13.3067 880 67.7386 841.45 556.139
1076 0 67.0485 12.737 854 69.0539 840.978 554.444
1077 0 67.133 12.3784 831 70.5355 840.883 554.924
1078 0 70.1528 12.6581 888 70.464 840.876 552.962
1079 0 73.0981 12.9278 945 69.727 840.525 551.59
1080 0 77.1236 13.433 1036 68.5058 840.814 551.453
1081 0 79.1106 12.9818 1027 69.519 840.986 549.897
1082 1 41.1446 9.45446 389 73.1954 841.028 568.111
1083 0 42.0355 10.3484 435 71.5862 840.89 568.899
1084 0 43.0218 10.6458 458 71.81 840.906 566.801
1085 0 46.0251 10.6681 491 71.6721 840.908 567.035
1086 0 46.0309 11.2316 517 72.2921 841.228 565.176
1087 0 46.0117 11.2363 517 71.234 840.88 563.694
1088 0 49.0205 13.4842 661 67.23 840.557 562.513
1089 0 52.0756 13.1348 684 67.3991 840.784 562.266
1090 0 51.0668 11.9647 611 69.9591 840.35 561.769
1091 0 54.0169 12.3665 668 68.3368 840.696 561.719
1092 0 56.039 11.7954 661 69.0227 841.222 561.903
1093 0 56.0661 12.8063 718 69.1671 840.472 560.861
1094 0 58.0925 12.4457 723 68.8769 840.512 560.376
1095 0 61.0825 13.7355 839 65.8379 840.692 557.698
1096 0 62.0512 12.812 795 67.1132 840.165 557.135
1097 0 63.0413 12.6108 795 67.3094 840.158 556.379
1098 0 65.0402 12.7921 832 66.8498 840.55 553.393
1099 0 67.0303 12.0244 806 68.33 840.669 553.098
1100 0 71.0719 13.6763 972 65.5185 840.426 551.586
1101 0 73.0428 13.2251 966 65.3623 840.33 552.776
1102 0 76.0891 13.1688 1002 66.7605 839.926 548.549
1103 1 40.014 10.5963 424 68.1745 839.311 567.502
1104 0 40.1281 10.5413 423 69.2837 839.054 568.196
1105 0 42.0437 10.941 460 68.5 839.222 566.811
1106 0 43.0821 11.4665 494 67.2287 839.235 567.368
1107 0 44.0734 11.9346 526 67.4658 839.783 566.8
1108 0 44.0573 12.461 549 66.5501 839.199 566.923
1109 0 46.0343 11.209 516 69.0988 840.112 565.056
1110 0 49.0348 12.7868 627 65.4115 839.77 565.729
1111 0 50.0464 12.948 648 65.1235 839.548 565.446
1112 0 48.027 12.6595 608 68.2286 840.214 563.627
1113 0 51.0845 13.7224 701 66.1298 839.89 562.027
1114 0 52.1084 12.2629 639 68.3459 839.551 562.241
1115 0 54.0552 13.7637 744 66.1452 839.356 560.849
1116 0 57.1036 12.9239 738 66.9377 839.165 560.873
1117 0 56.0684 13.6976 768 67.4961 839.44 558.773
1118 0 58.0822 13.8941 807 66.9752 839.112 559.415
1119 0 59.0406 12.2119 721 70.2053 839.187 558.118
1120 0 62.0428 13.6519 847 68.1924 839.207 556.63
1121 0 64.0718 13.4537 862 68.6984 839.118 556.908
1122 0 67.0437 12.4247 833 69.9748 838.998 555.669
1123 0 66.0696 12.9409 855 70.0421 837.916 554.883
1124 0 70.0692 13.5295 948 68.7637 837.871 553.396
1125 0 72.0868 13.234 954 68.8281 838.099 554.063
1126 0 72.0868 13.2202 953 164.796 839.106 554.082
1127 0 76.0734 13.6447 1038 69.3141 837.998 551.68
1128 0 79.1221 13.9026 1100 69.0682 837.962 550.284
1129 0 80.1949 12.2452 982 71.9267 838.065 550.182
1130 0 85.2236 13.9281 1187 69.0607 838.609 548.336
1131 1 44.054 9.85155 434 74.023 838.647 568.2
1132 0 46.0705 10.0498 463 74.2009 838.685 566.637
1133 0 48.0872 10.8761 523 73.87 838.56 565.124
1134 0 50.0219 11.6549 583 72.434 839.041 563.027
1135 0 51.0604 12.3383 630 70.9889 838.563 564.557
1136 0 52.105 11.8415 617 72.5462 838.447 563.387
1137 0 53.1134 11.9367 634 73.6435 838.017 562.155
1138 0 56.0649 11.6651 654 73.211 838.379 561.708
1139 0 58.0936 12.6004 732 71.3169 838.725 559.78
1140 0 61.0835 11.9836 732 71.8839 838.732 560.579
1141 0 63.0476 13.0536 823 72.3512 839.507 559.286
1142 0 64.1642 12.1251 778 73.7095 839.384 559.779
1143 0 66.0419 12.8858 851 72.6181 839.577 555.494
1144 0 69.1418 12.4816 863 73.0232 839.579 554.705
1145 0 73.109 13.6782 1000 69.911 839.615 554.622
1146 0 75.0887 12.9181 970 71.5526 839.844 553.135
1147 0 77.1232 12.9922 1002 71.7844 839.979 550.585
1148 0 79.0774 12.6585 1001 72.0859 840.28 550.115
1149 1 42.0242 10.1846 428 73.486 840.603 568.182
1150 0 43.0787 11.5602 498 71.2249 840.747 567.566
1151 0 45.017 11.9511 538 71.7212 840.857 566.879
1152 0 47.0777 12.1501 572 70.6573 840.846 565.451
1153 0 48.1384 12.381 596 70.5201 840.423 564.789
1154 0 50.0937 12.277 615 70.1301 840.26 563.415
1155 0 53.0614 12.25 650 69.1062 840.891 563.605
1156 0 53.1269 10.9926 584 71.9658 841.332 563.192
1157 0 56.0962 13.1738 739 68.4912 841.873 561.659
1158 0 57.0858 12.2272 698 69.1934 841.94 559.852
1159 0 60.0791 12.8164 770 67.9857 842.471 559.591
1160 0 59.0592 11.6493 688 71.141 842.821 557.594
1161 0 63.0733 12.8898 813 68.4588 842.827 556.041
1162 0 64.062 12.4411 797 69.0289 842.763 554.203
1163 0 68.0552 13.0923 891 67.2301 842.951 553.177
1164 0 69.1847 12.4739 863 68.2329 842.946 554.148
1165 0 72.1455 12.8906 930 67.714 842.645 552.242
1166 0 73.0932 11.6153 849 70.0801 842.919 549.508
1167 1 41.1375 10.7688 443 67.0587 843.905 568.345
1168 0 40.1911 9.4797 381 68.9291 844.218 568.336
1169 0 41.135 10.502 432 68.7569 844.137 566.352
1170 0 43.3185 10.8499 470 67.9574 844.121 566.213
1171 0 46.0853 12.325 568 65.6479 843.891 564.88
1172 0 46.0596 12.245 564 66.5745 844.09 565.305
1173 0 48.308 12.3375 596 66.2701 844.299 565.01
1174 0 50.1226 11.9307 598 67.306 844.517 562.814
1175 0 53.0803 12.6977 674 65.3754 844.709 561.927
1176 0 51.0938 11.6061 593 68.0809 844.376 561.605
1177 0 53.0972 12.9385 687 66.5619 844.217 560.706
1178 0 57.0835 12.7182 726 66.1185 844.033 560.175
1179 0 58.1657 13.1005 762 65.9475 844.887 558.34
1180 0 60.1019 12.2958 739 66.8471 844.992 558.131
1181 0 61.2291 12.8697 788 66.5431 844.486 556.603
1182 0 63.1504 12.8582 812 66.3781 843.618 555.999
1183 0 65.2186 12.5424 818 66.7567 844.579 554.435
1184 0 69.1959 13.8014 955 64.0471 844.781 553.492
1185 0 70.1851 13.1652 924 65.21 843.489 553.723
1186 0 72.4611 12.8759 933 66.3633 843.97 550.029
1187 0 74.3368 13.3043 989 65.7139 843.732 551.039
1188 0 77.2075 12.8485 992 66.3438 843.555 549.631
1189 1 42.0862 10.8112 455 66.6813 844.013 567.631
1190 0 40.142 11.1853 449 68.1069 843.931 565.96
1191 0 44.1754 11.6807 516 66.6182 843.678 565.335
1192 0 45.0845 13.3083 600 64.06 843.558 564.835
1193 0 44.0336 11.6956 515 67.7845 843.078 565.388
1194 0 47.0676 12.174 573 65.7086 843.033 564.002
1195 0 46.0834 11.8915 548 66.9398 843 563.058
1196 0 46.0834 11.8698 547 156.786 843.013 563.082
1197 0 51.1073 12.2683 627 65.7177 842.525 562.343
1198 0 52.09 13.1119 683 65.164 842.357 560.105
1199 0 55.1086 13.2466 730 64.7973 841.955 559.377
1200 0 55.0724 12.4745 687 66.6885 841.994 559.229
1201 0 56.0373 12.5809 705 67.6908 842.122 557.47
1202 0 56.0733 11.4136 640 69.2234 842.077 556.877
1203 0 60.136 12.5881 757 66.7675 841.909 557.17
1204 0 61.1197 12.7455 779 67.0308 841.321 555.144
1205 0 66.0419 13.7791 910 64.8901 841.695 553.874
1206 0 67.0989 13.2193 887 66.1556 841.843 553.883
1207 0 67.0814 13.8637 930 66.0785 842.133 551.037
1208 0 72.0579 12.9618 934 66.3662 841.567 549.259
1209 0 74.0788 14.2551 1056 64.465 841.747 549.638
1210 0 78.1607 12.7046 993 65.1934 842.029 550.14
1211 0 80.124 13.1047 1050 64.9238 841.788 547.776
1212 0 82.1246 13.9057 1142 64.1664 841.585 545.608
1213 0 85.0864 13.7507 1170 64.0923 841.026 544.113
1214 0 88.2362 14.3818 1269 62.9078 840.911 544.438
1215 1 47.0095 9.93416 467 66.6831 841.266 565.109
1216 0 48.0224 11.5363 554 64.9386 841.334 563.457
1217 0 51.0654 11.4755 586 63.5102 840.805 564.392
1218 0 52.0407 12.4134 646 63.5774 840.844 562.943
1219 0 54.0288 12.5674 679 64.0191 840.904 562.168
1220 0 54.0273 13.3821 723 63.3472 840.437 560.375
1221 0 58.063 13.5542 787 62.2745 840.36 561.003
1222 0 57.0236 12.7666 728 63.8407 840.181 558.543
1223 0 61.0931 12.4073 758 63.6966 839.922 557.664
1224 0 63.0574 13.1467 829 62.3932 839.803 557.321
1225 0 66.1613 13.0439 863 61.6709 839.228 556.879
1226 0 69.1561 13.0574 903 61.0753 839.652 556.685
1227 0 71.0979 13.4603 957 60.7043 839.195 553.429
1228 0 72.2722 13.3661 966 61.2899 839.117 553.337
1229 0 74.2762 13.8672 1030 60.7709 838.86 551.69
1230 0 77.1875 14.847 1146 59.1326 839.466 548.489
1231 0 79.3657 13.1795 1046 61.5583 839.526 547.926
1232 0 81.2788 12.7709 1038 62.1493 839.212 547.036
1233 0 84.204 12.921 1088 61.4586 839.077 546.874
1234 0 86.2376 12.8598 1109 61.9594 838.991 545.128
1235 0 89.2799 12.7464 1138 62.2619 838.9 543.137
1236 1 47.1516 10.286 485 62.2412 839.61 566.08
1237 0 48.2009 10.6429 513 61.6764 839.749 565.702
1238 0 50.1762 11.8582 595 60.8218 839.422 562.933
1239 0 50.2016 11.4538 575 61.3252 839.13 563.2
1240 0 52.0927 12.6121 657 60.5495 838.954 563.056
1241 0 53.0345 12.4636 661 60.7579 838.956 562.05
1242 0 56.0869 12.4985 701 59.8345 838.735 561.536
1243 0 59.0834 12.8801 761 58.8436 838.246 560.577
1244 0 59.0824 12.2879 726 60.0785 838.051 559.439
1245 0 62.0678 12.583 781 59.4277 838.314 559.318
1246 0 64.2131 13.2839 853 58.5147 838.032 557.837
1247 0 67.1666 13.0273 875 58.7669 837.654 555.983
1248 0 70.1796 12.81 899 60.2447 838.076 554.413
1249 0 70.223 13.2293 929 60.9128 838.449 552.695
1250 0 71.1729 12.4205 884 62.8597 838.654 551.788
1251 0 75.2779 13.842 1042 60.237 838.616 551.55
1252 0 77.3182 13.5932 1051 60.9876 839.057 550.532
1253 0 79.3706 13.2543 1052 62.2662 838.822 548.367
1254 0 82.4708 13.9201 1148 61.5967 839.683 547.444
1255 0 84.3298 13.6132 1148 62.3179 838.998 544.402
1256 0 85.2471 12.8333 1094 63.8821 839.418 545.184
1257 0 89.3541 13.6983 1224 62.2574 839.903 542.745
1258 0 92.2372 13.693 1263 62.7989 839.766 540.969
1259 0 94.3835 13.5087 1275 63.1678 840.042 539.684
1260 0 96.2467 12.7901 1231 64.4444 839.846 538.434
1261 0 101.338 14.1112 1430 62.5881 840.212 536.479
1262 0 103.379 13.8326 1430 63.2392 839.923 534.348
1263 0 107.19 15.1321 1622 61.4057 840.223 534.44
1264 1 55.2074 10.7594 594 64.7138 840.33 560.253
1265 0 58.3219 11.7109 683 64.1816 840.332 558.464
1266 0 59.1016 12.4024 733 63.6057 840.619 557.899
1267 0 60.2843 12.6401 762 64.2165 840.722 555.19
1268 0 64.1107 13.3831 858 62.3508 841.862 555.383
1269 0 67.1699 13.2351 889 62.6029 842.238 554.169
1270 0 68.1353 13.3411 909 63.0451 841.677 554.257
1271 0 71.3322 13.2899 948 63.3249 841.98 551.119
1272 0 72.3028 13.3328 964 63.584 842.488 550.433
1273 0 75.3052 13.6113 1025 63.5298 843.298 549.165
1274 0 78.3323 13.6087 1066 63.8771 843.091 547.653
1275 0 80.3464 13.4294 1079 64.2975 843.633 545.297
1276 0 83.2405 14.6443 1219 62.5299 844.008 544.594
1277 0 87.4253 14.4695 1265 62.083 844.547 544.765
1278 0 88.3587 13.3886 1183 64.563 844.283 541.314
1279 0 90.4926 13.6917 1239 64.7619 844.103 538.931
1280 0 93.3454 13.9375 1301 64.4796 843.875 538.431
1281 0 97.4365 14.1425 1378 63.8179 844.101 536.181
1282 1 51.2842 10.2566 526 65.7757 844.331 561.167
1283 0 54.3962 11.9494 650 64.3123 844.725 560.489
1284 0 56.3197 12.0384 678 65.4366 845.146 557.906
1285 0 57.2829 12.2375 701 65.1369 844.722 556.381
1286 0 60.2299 13.4485 810 63.4938 845.03 557.232
1287 0 62.3117 14.0423 875 63.0457 844.878 554.705
1288 0 64.2752 12.8821 828 64.9614 844.669 553.301
1289 0 67.4771 13.3971 904 63.4281 844.924 552.587
1290 0 69.3252 14.1074 978 62.7055 844.792 550.861
1291 0 71.2664 13.4425 958 63.595 845.067 550.159
1292 0 73.3974 13.57 996 63.2791 845.094 549.428
1293 0 77.4402 13.5718 1051 62.6651 845.298 548.096
1294 0 77.3689 14.5278 1124 62.3167 845.427 545.363
1295 0 78.3874 12.1448 952 65.7731 845.208 546.81
1296 0 82.3096 13.1333 1081 64.1674 845.031 546.513
1297 0 84.4694 13.7801 1164 63.7921 845.036 542.733
1298 0 88.3759 14.0989 1246 62.5169 844.987 542.027
1299 0 92.4302 14.9194 1379 60.9021 845.361 540.344
1300 0 94.4509 14.1449 1336 62.3001 844.807 538.408
1301 1 47.4427 10.1596 482 64.0913 844.763 563.359
1302 0 50.1959 11.0567 555 64.3892 844.431 560.795
1303 0 51.1578 11.7089 599 63.5409 844.785 560.344
1304 0 53.1955 12.3131 655 62.3573 844.304 559.369
1305 0 56.2282 13.0184 732 60.9194 844.399 558.969
1306 0 58.1105 13.4399 781 60.781 844.177 560.124
1307 0 58.1951 13.6953 797 60.7478 844.4 557.363
1308 0 61.2834 13.6416 836 60.2464 844.514 557.574
1309 0 63.2679 13.4033 848 60.1828 844.244 555.637
1310 0 63.2508 13.2172 836 61.1423 843.925 553.789
1311 0 66.4017 12.334 819 61.5433 843.619 554.663
1312 0 69.3438 13.8008 957 59.6332 844.269 552.608
1313 0 71.3144 13.6578 974 60.2279 843.294 550.914
1314 0 74.2052 13.6513 1013 59.9062 843.287 550.338
1315 0 74.2903 13.2588 985 61.1584 843.098 548.588
1316 0 78.2688 13.2492 1037 61.0771 842.561 551.23
1317 0 80.2928 13.4508 1080 61.1435 842.892 547.635
1318 0 83.2834 14.3126 1192 59.6183 842.689 547.326
1319 0 87.2401 12.4599 1087 61.2603 842.163 548.317
1320 0 80.3598 11.9338 959 64.5954 842.446 545.281
1321 0 82.3588 10.4543 861 65.8595 841.861 548.455
1322 0 83.1498 10.8599 903 63.7663 841.977 550.525
1323 1 50.1504 9.77061 490 62.4551 842.098 565.786
1324 0 50.1495 9.71097 487 163.934 842.078 565.836
1325 0 52.0543 11.123 579 61.6511 841.509 563.496
1326 0 52.0772 10.8685 566 62.3746 841.617 564.442
1327 0 54.0795 11.8899 643 61.8056 841.003 561.163
1328 0 56.121 12.5443 704 60.6648 840.962 562.054
1329 0 58.0687 13.484 783 59.5581 840.798 561.186
1330 0 63.0762 13.5867 857 58.3582 840.95 560.442
1331 0 64.1433 12.2694 787 60.8539 840.873 559.851
1332 0 65.0769 13.6147 886 58.5293 840.765 557.584
1333 0 65.1044 12.4876 813 60.3456 840.94 557.679
1334 0 69.074 13.7968 953 60.8017 841.758 557.356
1335 0 72.0238 13.0235 938 60.8806 841.453 556.44
1336 0 72.1003 13.6893 987 60.5816 841.639 552.568
1337 0 75.0819 13.3055 999 60.6036 841.089 554.015
1338 0 78.0557 12.9907 1014 61.2988 841.41 551.478
1339 0 81.0514 13.7937 1118 60.0957 841.286 550.14
1340 0 81.0609 12.5955 1021 61.6014 840.957 548.509
1341 1 43.051 10.6153 457 63.1488 841.416 568.536
1342 0 43.0652 10.5654 455 63.3319 841.585 568.829
1343 0 44.0432 10.5351 464 63.5668 841.065 567.793
1344 0 47.0477 11.6478 548 61.5529 840.823 567.788
1345 0 49.0868 12.5696 617 60.0827 840.494 567.797
1346 0 50.0897 11.719 587 61.5213 840.302 567.772
1347 0 49.0638 12.7793 627 62.0494 840.209 565.512
1348 0 50.0685 12.7226 637 62.2135 839.636 564.903
1349 0 54.0699 12.2434 662 61.7175 839.84 564.302
1350 0 54.089 12.2761 664 62.1928 839.649 564.785
1351 0 56.0613 12.5755 705 62 838.963 563.279
1352 0 58.1544 13.6533 794 60.9433 839.181 561.579
1353 0 59.1095 13.2128 781 61.5698 838.921 562.138
1354 0 60.1468 12.7688 768 63.2656 838.441 558.878
1355 0 64.1814 14.0227 900 60.5578 838.55 559.281
1356 0 64.1622 13.0762 839 63.0215 838.224 558.322
1357 0 65.2048 12.5144 816 64.2855 837.967 556.064
1358 0 70.1606 14.4098 1011 60.8724 838.156 557.895
1359 0 71.1867 13.1907 939 63.4026 837.511 555.913
1360 0 73.162 12.6022 922 64.4284 837.388 554.482
1361 0 75.1948 13.1924 992 63.9808 837.366 553.367
1362 0 78.2125 13.7702 1077 63.896 837.532 552.043
1363 1 41.0768 10.4439 429 67.2028 837.531 572.105
1364 0 42.0286 11.1353 468 65.1175 837.141 571.323
1365 0 43.0233 10.9243 470 66.2723 837.196 568.923
1366 0 47.0223 11.3988 536 65.5336 837.17 567.815
1367 0 46.0509 11.7479 541 66.3789 837.693 567.299
1368 0 48.0642 12.6289 607 64.9077 837.448 568.295
1369 0 51.0502 12.5171 639 65.4397 837.886 567.833
1370 0 52.0619 12.5812 655 65.6885 837.843 566.266
1371 0 54.0896 11.9986 649 66.3112 837.835 566.767
1372 0 54.1547 13.0737 708 65.6794 837.554 564.925
1373 0 56.0132 12.6934 711 67.0999 837.955 564.844
1374 0 57.0469 13.1471 750 66.864 838.189 563.724
1375 0 59.0149 14.0642 830 65.5518 837.823 562.796
1376 0 61.0615 12.6594 773 67.7206 837.466 561.943
1377 0 64.0428 13.491 864 66.3009 837.597 560.125
1378 0 64.0499 14.3013 916 65.941 837.927 559.666
1379 0 67.1438 13.0317 875 67.9954 838.416 559.567
1380 0 67.0175 13.5785 910 67.3264 838.277 558.835
1381 0 71.0448 13.7237 975 67.039 838.469 556.65
1382 0 72.0635 13.7518 991 64.9304 838.543 555.672
1383 0 75.1037 14.4201 1083 63.7267 838.241 556.273
1384 0 78.1413 13.8467 1082 66.6192 838.751 554.586
1385 0 78.0798 13.3197 1040 69.2933 838.763 553.913
1386 0 82.0969 15.299 1256 66.1449 838.416 552.161
1387 0 84.1634 13.9728 1176 68.523 838.037 551.392
1388 0 87.1171 15.0028 1307 67.0757 837.947 548.394
1389 0 90.0701 14.5775 1313 67.3374 837.788 546.458
1390 1 45.0398 12.1226 546 71.0055 837.973 569.24
1391 0 46.0459 12.9219 595 70.1261 837.874 569.479
1392 0 49.129 12.7216 625 70.096 837.523 567.914
1393 0 51.083 13.1159 670 70.8985 837.828 567.41
1394 0 51.1154 14.2031 726 69.1625 838.439 565.964
1395 0 54.0278 14.2889 772 68.5868 838.718 564.342
1396 0 54.0261 13.3454 721 70.7379 838.537 564.601
1397 0 57.0733 15.191 867 66.406 838.606 563.745
1398 0 58.0404 14.9379 867 67.361 839.189 562.234
1399 0 59.0726 14.3721 849 68.5418 839.292 560.81
1400 0 64.1805 14.3346 920 66.8337 839.658 560.06
1401 0 62.2432 13.5436 843 69.2669 839.815 559.972
1402 0 66.0778 14.1046 932 67.3348 840.054 558.725
1403 0 69.0751 14.477 1000 66.113 840.442 557.697
1404 0 70.0777 14.3698 1007 66.5253 840.385 557.21
1405 0 73.0681 14.4523 1056 65.911 840.62 555.185
1406 0 77.1164 14.7439 1137 64.9692 841.09 552.44
1407 0 79.087 14.4145 1140 65.5561 841.119 550.897
1408 0 82.1514 14.7898 1215 64.6543 841.581 550.013
1409 0 84.0675 14.5478 1223 65.0482 841.357 549.462
1410 0 86.0893 14.787 1273 64.6465 842.008 548.368
1411 0 88.1444 15.52 1368 63.4247 842.067 545.925
1412 1 45.0606 11.8507 534 67.5524 842.464 567.948
1413 0 47.0925 12.8046 603 65.204 842.297 566.378
1414 0 48.023 12.3066 591 65.8968 841.931 565.357
1415 0 50.0277 12.2732 614 65.7964 842.319 566.243
1416 0 52.0587 14.5989 760 63.4671 842.141 564.336
1417 0 53.0154 12.9019 684 65.0541 842.629 564.096
1418 0 55.0994 14.9729 825 62.2303 842.735 560.952
1419 0 54.0816 13.2947 719 65.0501 842.465 560.309
1420 0 57.1206 14.5657 832 62.482 842.185 559.037
1421 0 62.0769 14.4659 898 61.2439 842.166 558.607
1422 0 62.0991 13.3174 827 63.6155 842.27 557.221
1423 0 64.1255 14.7211 944 61.5095 842.273 557.224
1424 0 67.1249 14.4507 970 61.3268 842.414 556.003
1425 0 69.2445 14.8604 1029 60.0836 842.281 556.591
1426 0 71.0508 14.0463 998 62.0822 842.036 554.136
1427 0 72.1062 14.867 1072 60.9674 842.134 553.672
1428 0 76.0427 14.676 1116 60.3746 842.382 551.447
1429 0 78.151 14.3696 1123 60.9101 842.221 550.231
1430 0 80.0735 14.7365 1180 60.5136 842.14 548.87
1431 0 84.1198 14.3486 1207 60.227 842.23 548.304
1432 0 88.0864 15.2237 1341 58.7815 842.05 547.736
1433 0 88.1008 13.7456 1211 61.2783 841.661 544.251
1434 0 91.0972 15.3133 1395 60.3771 841.837 545.018
1435 1 46.0419 11.9022 548 62.8339 841.283 566.779
1436 0 48.0932 12.7461 613 63.0359 841.377 564.254
1437 0 49.0188 13.8722 680 62.3368 841.718 565.39
1438 0 50.0444 12.6088 631 64.5483 841.669 563.187
1439 0 52.0919 12.9195 673 63.6657 841.25 563.33
1440 0 56.051 14.0586 788 60.5 841.001 562.94
1441 0 53.0253 12.8618 682 64.0836 841.538 560.764
1442 0 59.1385 14.6436 866 59.9734 841.401 560.114
1443 0 59.0777 14.4725 855 60.7801 840.768 559.343
1444 0 63.1722 15.1649 958 58.9426 840.564 559.586
1445 0 64.1358 14.8279 951 59.5405 840.299 557.783
1446 0 66.1499 14.4067 953 60.2424 840.232 556.671
1447 0 67.1234 14.0934 946 61.6945 839.893 554.575
1448 0 69.0846 15.0106 1037 60.7416 839.989 554.996
1449 0 72.0524 14.9058 1074 60.2821 840.498 554.265
1450 0 73.1607 14.5023 1061 61.6155 840.352 552.072
1451 0 77.1084 14.4213 1112 61.893 840.482 551.402
1452 0 80.0893 14.3715 1151 61.9748 840.403 550.854
1453 0 83.1084 15.0406 1250 61.3792 840.431 550.317
1454 1 38.021 11.9145 453 66.4967 840.159 569.492
1455 0 42.0291 11.7062 492 66.435 839.803 569.433
1456 0 44.0148 13.0638 575 65.2383 839.294 568.817
1457 0 43.031 12.0843 520 68.6154 839.927 567.646
1458 0 46.0114 13.6488 628 65.8758 839.768 567.341
1459 0 47.0364 14.1167 664 66.1114 839.827 564.889
1460 0 49.0192 13.3621 655 67.1176 839.918 564.637
1461 0 47.035 13.8408 651 68.0568 839.74 563.343
1462 0 52.0871 14.1686 738 65.6585 839.958 562.916
1463 0 53.0271 13.974 741 67.1808 839.977 562.753
1464 0 56.0908 13.9595 783 67.2759 839.436 561.527
1465 0 56.0695 14.5177 814 67.9066 839.873 560.819
1466 0 58.1181 14.006 814 68.371 839.674 559.635
1467 0 60.0839 14.563 875 67.9909 839.667 559.874
1468 0 62.0788 13.9822 868 69.1244 839.418 558.176
1469 0 62.0854 13.9807 868 70.1659 839.513 558.783
1470 0 66.103 14.9918 991 68.6428 839.249 557.747
1471 0 67.1192 13.9453 936 70.5919 838.97 556.995
1472 0 71.0897 15.0655 1071 67.7442 838.314 556.599
1473 0 72.0832 14.733 1062 69.4096 838.323 553.723
1474 0 75.0848 15.0763 1132 69.25 838.511 553.013
1475 0 79.1089 15.0805 1193 69.1241 837.732 551.563
1476 1 39.0467 12.4978 488 72.5287 837.234 570.82
1477 0 40.0941 11.2485 451 74.5632 836.599 569.696
1478 0 42.0986 13.1596 554 72.5686 836.827 567.684
1479 0 44.0238 13.3791 589 72.8472 837.153 567.409
1480 0 45.0157 13.8174 622 72.4904 837.826 565.793
1481 0 47.0429 13.7534 647 72.7172 837.345 566.176
1482 0 49.1302 14.37 706 71.8329 836.901 565.96
1483 0 50.0514 13.3463 668 73.9371 836.795 565.678
1484 0 52.0684 14.2889 744 72.9866 837.227 564.487
1485 0 51.0435 13.9489 712 75.5534 837.051 563.559
1486 0 52.0739 14.153 737 76.0828 837.972 562.725
1487 0 55.0477 13.679 753 76.6454 837.799 563.279
1488 0 57.0828 12.9461 739 78.8525 837.934 561.487
1489 0 58.1073 14.0602 817 77.4149 837.405 561.705
1490 0 61.0652 14.2798 872 76.8085 837.971 561.533
1491 0 62.0758 14.2245 883 77.5051 837.639 560.77
1492 0 65.037 13.8998 904 77.917 838.053 560.324
1493 0 66.0488 13.914 919 78.4777 838.363 558.521
1494 0 66.0488 13.914 919 168.949 839.363 558.521
1495 0 70.0907 14.0247 983 79.3703 838.091 555.139
1496 1 38.0227 10.9145 415 80.1398 838.554 571.414
1497 0 40.0252 10.5684 423 78.9314 838.411 571.511
1498 0 41.0167 11.5806 475 78.9116 837.905 571.213
1499 0 40.0283 11.6168 465 81.572 838.237 569.978
1500 0 43.0307 12.7351 548 80.1095 838.25 568.608
1501 0 45.065 12.3377 556 80.4227 838.401 568.444
1502 0 46.0288 12.5573 578 80.6574 838.625 566.746
1503 0 47.0461 12.2646 577 81.4766 838.764 566.752
1504 0 47.1146 12.2255 576 83.2969 838.497 566.205
1505 0 51.0678 11.9057 608 82.9342 838.526 565.141
1506 0 52.0728 12.4057 646 82.6904 838.802 563.921
1507 0 52.0297 12.1854 634 83.0741 838.894 563.125
1508 0 55.0277 12.8481 707 81.5304 839.091 563.41
1509 0 55.1235 12.1727 671 83.2489 839.104 561.012
1510 0 58.0744 12.3118 715 82.6098 839.594 561.099
1511 0 60.1317 13.1711 792 80.654 839.851 559.88
1512 0 63.1218 12.262 774 82.2455 839.994 559.668
1513 0 63.026 11.17 704 85.3153 840.036 557.233
1514 0 66.0485 12.1577 803 82.9788 840.456 556.873
1515 0 69.0967 12.5476 867 82.1015 840.615 554.454
1516 1 37.0651 9.60473 356 78.4663 841.028 572.725
1517 0 38.0373 11.0681 421 77.1781 841.435 570.798
1518 0 38.1184 10.1526 387 78.6977 841.491 569.579
1519 0 39.0229 10.4298 407 77.1646 841.85 569.565
1520 0 40.0809 11.1025 445 76.4045 841.719 566.838
1521 0 41.0978 11.2171 461 75.9718 842.028 568.395
1522 0 43.0803 11.6759 503 75.332 842.374 566.247
1523 0 43.101 11.1134 479 76.2067 842.267 565.474
1524 0 44.0691 11.0735 488 75.5082 842.428 565.484
1525 0 47.1087 11.8237 557 73.8276 842.576 565.44
1526 0 48.094 11.6231 559 73.7621 842.46 565.32
1527 0 49.102 11.6085 570 73.7158 842.674 563.511
1528 0 51.0935 10.2753 525 74.2533 842.977 565.387
1529 0 53.0743 11.531 612 72.4592 842.879 562.539
1530 0 54.1362 10.9354 592 73.2297 843.101 561.128
1531 0 56.1998 11.6015 652 72.0982 842.926 561.36
1532 0 57.179 11.1579 638 74.1552 842.879 559.259
1533 0 60.1323 11.7907 709 72.9831 843.2 558.948
1534 0 60.1238 10.6613 641 75.1404 843.2 557.757
1535 0 64.1638 11.2213 720 74.5931 843.233 557.146
1536 0 66.1333 11.7188 775 73.9135 842.972 554.83
1537 0 68.4145 11.4742 785 74.1924 842.647 555.065
1538 0 71.3154 12.4097 885 72.6147 842.577 553.681
1539 1 38.0863 9.60974 366 73.0656 842.997 571.292
1540 0 40.1316 10.1666 408 70.9681 842.98 570.887
1541 0 40.1429 10.9608 440 71.0568 842.855 569.966
1542 0 39.2028 10.535 413 73.2276 842.538 568.852
1543 0 43.1989 11.2734 487 70.7947 842.737 568.331
1544 0 42.1769 10.9776 463 72.8272 842.402 566.689
1545 0 44.1422 11.0778 489 72.4908 842.517 566.127
1546 0 46.242 10.1856 471 73.1677 842.565 566.777
1547 0 46.1245 11.469 529 71.5331 842.427 565.563
1548 0 48.1928 10.7277 517 72.5261 842.408 563.265
1549 0 49.1765 10.6555 524 72.3492 842.46 563.594
1550 0 53.1898 11.976 637 69.0722 842.083 561.752
1551 0 54.1348 12.2657 664 69.0889 842.471 562.298
1552 0 57.1929 11.4525 655 70.1389 841.485 560.724
1553 0 57.1154 12.1333 693 69.8701 840.828 558.912
1554 0 58.2476 11.8803 692 69.9147 841.048 558.289
1555 0 61.3446 12.4542 764 69.072 841.228 556.784
1556 0 63.3197 10.9761 695 71.4921 841.22 557.573
1557 0 65.2995 11.8531 774 70.3049 841.668 555.35
1558 0 68.3386 12.16 831 68.9819 841.819 555.928
1559 0 70.2453 12.3425 867 69.6194 841.858 554.476
1560 1 37.1246 9.88562 367 68.7956 841.861 571.166
1561 0 36.0562 9.31878 336 71.0327 841.604 569.411
1562 0 38.0751 10.5318 401 69.1197 841.686 570.459
1563 0 39.0322 10.8628 424 69.4481 841.653 567.941
1564 0 40.0224 10.3942 416 70.6971 841.147 568.293
1565 0 44.0199 11.4267 503 68.3121 841.087 566.6
1566 0 45.0467 10.2338 461 70.3536 840.796 566.866
1567 0 45.0893 11.0226 497 70.6539 840.316 566.368
1568 0 48.05 11.5297 554 68.3881 840.395 566.482
1569 0 49.0214 11.2604 552 69.4565 840.58 565.154
1570 0 50.088 11.36 569 69.4359 840.573 564.394
1571 0 51.0566 11.8104 603 69.2371 840.123 564.975
1572 0 53.0179 11.2603 597 70.268 839.71 563.414
1573 0 53.0306 11.8988 631 70.1712 839.719 562.2
1574 0 56.0934 11.8552 665 70.009 839.51 562.104
1575 0 57.124 11.2912 645 71.107 839.186 562.029
1576 0 59.1074 11.5552 683 70.8814 838.878 560.334
1577 0 61.0646 12.3803 756 68.7354 838.751 562.221
1578 0 62.1704 11.9028 740 69.977 838.593 559.086
1579 0 64.1975 12.1033 777 70.1712 838.35 555.517
1580 0 65.2436 12.0472 786 70.0433 837.732 557.473
1581 0 67.2107 12.2302 822 70.0292 837.92 553.106
1582 0 68.2947 12.3582 844 69.7287 838.283 556
1583 0 72.2899 13.5012 976 67.3084 837.846 554.424
1584 0 74.2313 12.1916 905 68.5227 837.94 555.04
1585 0 75.378 12.696 957 68.0825 837.224 551.152
1586 1 38.1233 8.9709 342 69.1287 837.345 571.076
1587 0 40.1508 10.7594 432 67.081 837.37 570.539
1588 0 41.162 11.1025 457 66.9365 837.663 570.061
1589 0 44.1788 10.4122 460 67.05 837.526 568.433
1590 0 44.2443 11.6173 514 64.8054 837.971 567.63
1591 0 45.4035 11.2106 509 66.0472 838.615 564.768
1592 0 47.0817 11.6181 547 65.245 839.753 565.336
1593 0 49.0847 12.2441 601 64.1913 839.115 565.541
1594 0 51.0581 12.6327 645 63.0992 839.336 563.67
1595 0 50.0872 12.2586 614 64.7036 839.282 562.552
1596 0 52.1873 12.8192 669 63.2676 839.208 565.037
1597 0 53.1163 12.1808 647 64.728 839.189 561.159
1598 0 54.0957 12.6628 685 63.9007 839.101 561.089
1599 0 58.1487 12.726 740 63.3351 839.384 562.486
1600 0 59.1475 12.6125 746 63.5791 839.665 560.763
1601 0 60.2519 12.6137 760 64.4132 839.232 558.387
1602 0 61.379 12.9034 792 64.1591 839.869 557.972
1603 0 65.458 13.3062 871 62.7853 839.825 555.485
1604 0 67.2175 13.7018 921 62.6819 840.045 554.166
1605 0 67.2175 13.7018 921 153.459 841.045 554.186
1606 0 71.625 13.0401 934 63.591 839.858 551.589
1607 0 73.3705 13.8339 1015 63.0433 839.927 551.815
1608 0 75.4029 13.7395 1036 63.6979 840.376 548.696
1609 0 80.4985 14.2114 1144 62.042 840.396 549.809
1610 1 42.2913 10.5695 447 66.2125 840.226 567.063
1611 0 43.3854 11.5016 499 64.9559 840.912 566.922
1612 0 47.299 11.6704 552 65.0272 840.536 566.92
1613 0 47.299 11.755 556 161.041 840.516 566.957
1614 0 46.1146 11.9051 549 67.031 841.064 566.157
1615 0 48.0877 12.7059 611 65.8642 841.476 564.648
1616 0 49.1178 12.073 593 67.7083 841.427 563.852
1617 0 52.0721 13.3853 697 66.033 842.271 561.811
1618 0 53.0943 13.8056 733 65.5593 842.509 561.442
1619 0 56.1656 13.1575 739 66.475 842.655 559.582
1620 0 55.2113 12.5518 693 68.6162 843.521 558.733
1621 0 58.1999 12.9382 753 67.9827 843.533 558.317
1622 0 59.0626 12.9524 765 68.5647 843.804 556.894
1623 0 63.1067 13.1523 830 67.0855 844.018 556.56
1624 0 64.0898 13.0442 836 67.9557 844.089 555.506
1625 0 67.1737 12.9068 867 67.5905 844.095 555.746
1626 0 66.079 12.6061 833 69.5978 844.228 553.348
1627 0 69.0666 12.8861 890 69.0034 844.593 551.598
1628 0 71.1563 12.6201 898 69.5323 844.747 552.362
1629 0 73.06 13.0714 955 69.1644 844.666 550.048
1630 0 77.1347 13.0681 1008 68.4931 844.763 550.59
1631 0 79.0787 12.241 968 70.5579 844.43 547.796
1632 1 41.0178 9.55682 392 71.0969 844.362 564.722
1633 0 43.0193 10.8788 468 68.8291 845.107 564.526
1634 0 45.0835 10.78 486 69.3436 845.023 565.2
1635 0 48.1946 11.6611 562 67.9733 845.198 563.562
1636 0 48.0578 11.8399 569 68.9631 843.775 563.45
1637 0 50.1063 12.214 612 67.366 844.114 562.794
1638 0 50.1146 12.3717 620 68.9339 843.406 561.076
1639 0 53.0614 11.7034 621 69.0982 843.415 559.741
1640 0 53.0752 12.0772 641 68.5741 843.562 561.042
1641 0 55.0693 13.256 730 66.6342 843.101 558.825
1642 0 57.1031 12.3286 704 67.9673 843.077 558.903
1643 0 58.0628 11.7631 683 69.8433 843.237 555.571
1644 0 59.1305 12.5485 742 68.6321 843.53 556.34
1645 0 60.0507 12.0565 724 70.1644 843.079 554.894
1646 0 62.0523 12.0705 749 69.737 844.017 555.98
1647 0 65.0269 12.6256 821 68.5262 844.421 553.122
1648 0 67.0456 12.6481 848 67.6934 844.202 553.33
1649 0 69.0652 12.0176 830 69.3747 843.728 551.711
1650 0 72.1474 12.0864 872 68.8578 843.742 551.604
1651 0 75.0354 12.3275 925 68.2724 843.368 549.474
1652 0 76.0359 11.2447 855 70.0444 843.122 549.088
1653 1 38.0748 9.7177 370 69.7108 842.408 565.262
1654 0 40.1398 9.44201 379 69.2929 842.201 565.517
1655 0 42.1471 10.7955 455 68.0857 841.936 564.273
1656 0 44.1041 11.4502 505 66.6693 841.76 563.909
1657 0 47.047 10.6277 500 66.428 841.822 563.362
1658 0 47.0584 10.4976 494 67.8684 841.85 562.095
1659 0 49.0933 11.5087 565 66.6442 841.542 560.752
1660 0 52.0457 12.393 645 64.9132 842.797 561.746
1661 0 52.1191 12.0493 628 66.0653 842.481 560.831
1662 0 55.1338 12.0253 663 65.1765 842.139 556.787
1663 0 57.0883 11.526 658 65.3465 842.366 558.467
1664 0 58.1193 11.614 675 65.8963 842.222 555.779
1665 0 59.0653 11.8174 698 65.5186 841.563 555.37
1666 0 61.1368 12.0713 738 64.9946 841.679 556.603
1667 0 62.0771 12.0012 745 63.5154 841.871 555.026
1668 0 65.0744 12.6163 821 61.8173 841.652 553.21
1669 0 68.1302 12.4321 847 62.0921 840.89 552.936
1670 0 69.1027 12.4887 863 61.4229 841.175 553.121
1671 0 71.0484 11.9496 849 62.6667 841.139 550.816
1672 0 73.119 12.5959 921 62.1238 840.935 549.356
1673 0 74.0616 11.828 876 63.516 840.564 546.236
1674 0 76.073 11.8307 900 63.2156 840.91 546.698
1675 0 78.1528 12.2836 960 63.076 840.625 542.911
1676 0 84.0753 12.9051 1085 61.6848 840.339 544.003
1677 0 86.1214 13.0281 1122 61.8547 840.394 543.467
1678 1 45.0956 9.82357 443 62.3025 839.964 564.312
1679 0 47.0456 10.6067 499 61.7395 839.854 562.92
1680 0 49.0716 11.6768 573 61.4852 839.859 561.593
1681 0 48.1247 11.3871 548 62.5949 839.338 558.217
1682 0 51.0833 12.4307 635 61.6142 840.033 560.945
1683 0 51.0545 12.7119 649 62.2465 840.063 560.351
1684 0 55.0993 12.4503 686 59.8659 840.357 561.931
1685 0 55.1487 12.693 700 60.8886 840.001 558.464
1686 0 56.0944 12.0511 676 61.8817 839.911 558.043
1687 0 56.1327 11.9182 669 62.7175 839.354 558.54
1688 0 60.1776 12.8453 773 60.4217 839.549 557.348
1689 0 60.1672 12.3822 745 61.2658 839.185 558.012
1690 0 62.0878 12.4018 770 61.3104 839.356 556.962
1691 0 64.0814 12.3125 789 61.5805 839.103 555.766
1692 0 66.0627 12.4881 825 60.777 838.998 554.245
1693 0 67.0679 12.5544 842 60.8124 839.321 552.461
1694 0 69.1094 12.5164 865 60.6647 839.388 552.008
1695 0 72.1258 12.7832 922 60.1811 838.912 550.415
1696 0 75.0585 13.3896 1005 59.1602 838.641 549.011
1697 0 76.3246 13.6915 1045 58.9684 838.271 547.1
1698 0 80.1001 13.583 1088 58.0983 838.058 547.106
1699 0 81.1597 12.7403 1034 59.6103 837.746 545.321
1700 0 84.263 12.4373 1048 59.8426 837.825 544.739
1701 0 86.2633 12.7517 1100 59.4291 837.35 545.318
1702 0 90.2601 13.871 1252 58.0096 837.353 541.296
1703 1 49.0573 11.2725 553 58.8011 837.094 564.821
1704 0 49.0539 10.0705 494 60.7368 837.443 563.01
1705 0 52.1494 11.1219 580 59.8776 837.567 560.995
1706 0 52.2322 11.8318 618 59.5922 837.328 561.453
1707 0 56.1703 13.1742 740 58.3486 837.27 560.934
1708 0 56.0882 11.8385 664 60.5452 837.389 560.941
1709 0 59.1001 12.0135 710 59.907 837.969 560.018
1710 0 60.0811 12.9991 781 59.315 838.096 557.288
1711 0 62.1632 12.5959 783 59.6041 838.013 557.14
1712 0 64.0831 13.779 883 58.1993 838.613 557.002
1713 0 67.0764 13.0896 878 58.0923 838.032 556.466
1714 0 69.0553 15.321 1058 55.7807 838.793 554.807
1715 0 71.1203 14.1169 1004 57.3476 838.784 553.527
1716 0 74.2121 13.4614 999 57.8519 838.539 553.05
1717 0 75.1092 13.8731 1042 58.0403 838.911 549.575
1718 0 78.0652 14.0139 1094 57.2303 838.812 548.745
1719 0 81.1905 13.7455 1116 57.5726 839.042 547.442
1720 0 84.1068 12.282 1033 58.7435 839.12 550.48
1721 0 89.132 14.7983 1319 56.1205 839.183 545.238
1722 0 92.2031 14.4355 1331 56.3388 839.262 543.624
1723 1 48.055 9.55155 459 60.4684 839.828 565.728
1724 0 49.0165 11.7511 576 59.1024 840.082 562.415
1725 0 51.0769 11.3554 580 59.7793 839.864 561.798
1726 0 55.0951 13.3224 734 56.827 839.623 559.929
1727 0 56.0898 12.9435 726 57.5014 839.84 560.391
1728 0 57.1245 12.5165 715 58.2811 840.252 560.369
1729 0 60.0668 13.2353 795 56.8516 840.253 556.879
1730 0 62.0534 12.9243 802 57.0574 840.267 555.597
1731 0 66.0527 14.3068 945 54.7217 840.255 555.16
1732 0 65.0834 12.7375 829 57.2593 840.486 555.472
1733 0 69.0487 13.4253 927 56.3215 840.824 554.903
1734 0 71.0451 12.8369 912 56.9989 840.963 552.447
1735 0 75.1159 14.6041 1097 54.1659 840.955 551.186
1736 0 78.0939 14.5338 1135 53.711 841.254 550.561
1737 0 80.2088 14.4124 1156 53.013 841.452 550.183
1738 0 79.1163 14.5988 1155 53.3411 841.269 548.038
1739 0 84.0552 14.1336 1188 53.6726 841.557 547.805
1740 1 38.0573 10.1952 388 57.1469 842.552 566.665
1741 0 42.0128 9.75893 410 56.8585 842.776 567.029
1742 0 42.0864 11.4526 482 53.7697 842.826 565.666
1743 0 45.1016 12.3721 558 53.4391 843.186 563.125
1744 0 48.0252 12.2436 588 53.5816 843.486 564.381
1745 0 51.0706 11.8464 605 54.2479 843.129 564.21
1746 0 50.0608 12.6646 634 54.0379 843.628 561.409
1747 0 52.07 12.7137 662 53.4517 844.405 562.13
1748 0 55.143 13.3109 734 53.2752 844.191 559.266
1749 0 56.1016 12.3169 691 55.3343 844.246 557.26
1750 0 57.0539 12.4794 712 54.9607 844.167 556.313
1751 0 58.0928 12.9964 755 55.0662 844.707 554.343
1752 0 59.0444 12.5499 741 55.8246 844.73 555.154
1753 0 64.0633 13.7988 884 53.6324 844.942 553.842
1754 0 64.0633 13.7988 884 155.136 844.942 553.842
1755 0 68.0945 13.4813 918 54.1721 844.886 551.126
1756 0 71.1034 13.9234 990 53.7495 844.631 550.208
1757 0 73.0754 12.3434 902 55.1996 844.141 551.086
1758 0 74.1075 13.7773 1021 54.2449 844.226 549.532
1759 0 75.1682 13.8888 1044 55.0929 844.249 545.998
1760 1 39.0971 10.1542 397 57.1839 844.116 565.66
1761 0 42.1263 11.1332 469 56.3582 844.343 564.512
1762 0 44.0334 11.2642 496 56.4597 844.409 563.312
1763 0 45.0369 12.2344 551 56.0817 843.871 561.361
1764 0 47.0397 12.3087 579 55.5717 843.411 563.214
1765 0 48.0546 12.8188 616 55.7581 843.672 561.484
1766 0 50.0396 13.7691 689 55.1785 843.536 560.763
1767 0 50.0482 12.3881 620 57.9081 843.229 560.377
1768 0 52.0499 13.7368 715 56.2434 843.389 560.05
1769 0 52.1042 14.1064 735 57.2803 843.053 558.299
1770 0 55.0804 13.7798 759 57.1238 843.001 558.116
1771 0 56.0268 13.5292 758 57.8179 842.949 556.666
1772 0 57.0561 13.9862 798 57.6704 842.807 558.536
1773 0 58.0404 14.3521 833 58.0936 842.962 556.137
1774 0 61.0301 13.8784 847 58.6175 842.603 555.292
1775 0 63.0232 14.8199 934 57.2473 842.306 553.29
1776 0 63.0411 14.0702 887 57.1037 842.545 553.125
1777 0 68.0971 14.3472 977 55.6745 842.382 551.877
1778 0 69.1347 13.7702 952 57.9076 842.045 550.863
1779 0 73.096 14.4741 1058 56.7694 842.015 550.376
1780 0 73.1592 13.4364 983 58.6785 841.851 549.004
1781 0 76.0736 13.7498 1046 58.8356 841.903 548.752
1782 0 81.2304 13.7633 1118 58.5 842.028 547.008
1783 0 84.1329 14.0254 1180 58.0703 842.309 547.758
1784 1 43.0495 10.848 467 61.0193 841.636 565.338
1785 0 45.0862 11.3117 510 60.8392 841.533 564.078
1786 0 47.1319 11.3936 537 60.6499 841.289 563.294
1787 0 47.1319 11.4148 538 163.18 840.297 563.26
1788 0 51.0263 13.5616 692 58.7327 840.994 562.451
1789 0 51.0572 12.0061 613 62.0033 841.036 560.84
1790 0 52.1596 12.1933 636 61.5283 840.934 560.744
1791 0 56.0089 14.0513 787 59.0356 841.236 558.39
1792 0 56.0512 12.1318 680 61.6088 840.915 559.674
1793 0 58.0365 12.6644 735 60.9592 840.341 558.327
1794 0 60.0789 12.9496 778 60.1581 840.181 557.442
1795 0 63.0912 13.7737 869 58.4039 840.433 557.84
1796 0 63.0606 13.3681 843 60.4223 840.393 554.61
1797 0 67.1123 14.3491 963 58.4538 840.148 553.692
1798 0 69.096 14.4871 1001 58.1678 840.377 553.372
1799 0 70.087 13.9826 980 59.1724 840.451 553.853
1800 0 72.093 13.5519 977 59.7943 840.067 551.091
1801 0 74.0905 13.389 992 60.1109 840.076 550.786
1802 0 78.0999 13.7516 1074 59.432 839.821 549.338
1803 0 80.063 14.1514 1133 59.1509 839.841 549.138
1804 0 83.0878 14.0454 1167 59.1474 840.057 546.077
1805 0 86.0959 14.8904 1282 57.4821 840.144 546.231
1806 1 43.0531 11.2884 486 60.0206 840.331 565.646
1807 0 43.0506 9.9418 428 61.2617 840.164 566.121
1808 0 45.1019 9.97741 450 60.4044 840.211 565.744
1809 0 48.0212 11.7864 566 58.3286 840.265 564.625
1810 0 49.045 13.1716 646 57.291 839.986 558.754
1811 0 51.0556 11.7715 601 58.2213 839.89 561.933
1812 0 52.0629 11.7358 611 58.0475 839.63 561.725
1813 0 55.1396 12.7313 702 56.7621 839.717 559.399
1814 0 58.1619 11.3304 659 57.6813 839.81 560.853
1815 0 57.0537 11.6206 663 58.4133 840.3 559.195
1816 0 61.056 13.0045 794 56.5882 840.338 556.389
1817 0 62.1036 12.1088 752 57.8258 840.649 556.915
1818 0 62.1036 12.0444 748 153.63 840.632 556.937
1819 0 65.0735 12.5243 815 57.9227 840.477 554.317
1820 0 69.0698 13.7832 952 56.1481 840.675 555.082
1821 0 70.0676 14.3576 1006 56.0755 840.039 552.209
1822 0 73.174 14.0624 1029 55.967 839.883 551.728
1823 0 75.0288 14.1945 1065 56.4864 840.36 549.67
1824 0 76.0908 12.2354 931 59.0473 840.328 548.356
1825 0 77.0532 11.4077 879 60.4972 840.372 546.466
1826 0 83.0751 13.0123 1081 58.3525 840.335 545.611
1827 0 86.1089 14.0171 1207 57.3513 840.746 543.532
1828 0 88.1086 12.6662 1116 59.4319 840.917 542.039
1829 1 48.0551 10.5712 508 58.0728 841.652 563.486
1830 0 51.123 11.2278 574 58.1202 841.664 561.943
1831 0 51.043 10.2071 521 59.9367 841.432 559.605
1832 0 53.0399 11.218 595 60.1445 841.666 560.067
1833 0 53.0602 12.2502 650 59.3554 841.577 559.883
1834 0 56.0637 14.0019 785 56.8586 841.673 558.973
1835 0 59.1035 13.5017 798 57.8571 841.741 558.509
1836 0 59.1218 13.2438 783 58.9323 842.275 556.16
1837 0 61.0791 14.2111 868 58.3929 842.381 556.417
1838 0 62.131 13.6808 850 58.8035 843.138 556.426
1839 0 65.0759 13.5841 884 58.1018 843.433 555.883
1840 0 66.1102 12.8876 852 59.9577 843.491 553.982
1841 0 68.1156 11.7594 801 61.0774 843.659 552.487
1842 0 71.1403 13.0165 926 60 843.827 548.718
1843 0 75.1067 13.8736 1042 58.404 843.494 548.683
1844 0 77.1322 13.0425 1006 59.9523 844.03 546.824
1845 0 79.2741 12.6145 1000 60.639 843.973 544.656
1846 0 81.06 12.0898 980 60.8857 844.301 546.613
1847 0 85.1132 13.2882 1131 59.3059 844.274 544.782
1848 0 88.1132 13.8345 1219 58.6021 844.685 541.332
1849 0 91.0615 12.3543 1125 60.2924 844.867 540.446
1850 0 95.1824 13.0696 1244 59.2227 844.523 539.826
1851 0 97.1193 13.1282 1275 59.5388 844.57 535.575
1852 1 50.0474 9.95057 498 59.008 844.871 561.347
1853 0 50.0214 9.95573 498 57.8956 844.566 560.763
1854 0 51.0585 10.2236 522 57.7567 844.557 558.385
1855 0 55.0772 12.1103 667 55.2729 844.331 557.934
1856 0 56.0818 11.6794 655 55.8718 844.189 556.443
1857 0 56.0671 11.076 621 56.4557 844.174 555.208
1858 0 59.0804 12.1529 718 55.0153 844.216 554.947
1859 0 60.1059 11.5463 694 55.9164 844.218 552.911
1860 0 62.2077 11.7831 733 55.3752 844.123 553.171
1861 0 64.1009 11.6847 749 55.3591 843.656 551.47
1862 0 65.0727 11.2797 734 55.7616 843.586 550.733
1863 0 70.0772 12.9143 905 53.2144 844.035 551.364
1864 0 69.0537 12.7003 877 54.4493 843.112 548.127
1865 0 70.0634 12.3317 864 55.0648 843.323 547.524
1866 0 73.1402 12.4419 910 54.8308 843.224 546.602
1867 0 78.0863 12.8832 1006 54.3797 843.106 545.086
1868 0 78.1135 12.8275 1002 54.9301 842.8 543.489
1869 0 79.127 12.7896 1012 55.1709 843.037 544.843
1870 0 85.1485 12.5076 1065 54.1634 842.897 543.114
1871 0 85.131 11.9111 1014 55.0986 842.879 541.721
1872 0 88.187 12.3941 1093 54.8655 842.614 538.823
1873 1 50.0383 10.2721 514 53.9825 843.877 562.414
1874 0 49.0236 11.4435 561 54.2317 842.938 558.563
1875 0 50.0758 10.6439 533 54.6417 841.831 559.508
1876 0 54.1091 11.1072 601 53.9235 842.329 557.484
1877 0 53.1266 10.7856 573 54.9354 842.192 557.11
1878 0 57.0931 12.9963 742 51.9286 842.337 558.224
1879 0 58.0323 11.8382 687 52.9636 841.45 558.399
1880 0 60.0672 12.6858 762 52.9318 840.773 555.339
1881 0 61.1223 13.6611 835 52.2395 841.55 557.372
1882 0 60.1425 12.3207 741 54.7328 841.04 554.88
1883 0 64.045 12.8659 824 54.2172 840.812 552.808
1884 0 68.1073 14.1688 965 52.9637 841.085 553.394
1885 0 69.1217 13.8162 955 54.3131 841.173 552.593
1886 0 71.1052 14.5981 1038 53.7697 841.172 551.896
1887 0 72.2064 13.7522 993 55.2931 840.827 550.3
1888 0 73.2047 13.4964 988 56.2308 840.7 550.404
1889 0 77.1428 14.1296 1090 55.1587 840.563 549.158
1890 0 80.2248 14.6588 1176 55.0816 840.541 546.467
1891 0 84.2909 14.5686 1228 54.9039 840.822 546.421
1892 1 44.0563 9.60136 423 57.6927 840.872 566.974
1893 0 43.018 10.1585 437 57.6728 840.652 565.677
1894 0 46.0451 10.1857 469 58.0362 840.328 563.516
1895 0 50.021 12.5947 630 53.8413 840.302 562.986
1896 0 49.1281 12.4165 610 55.5 840.382 560
1897 0 52.0405 11.4334 595 56.2756 841.012 563.008
1898 0 53.0058 11.7534 623 57.0048 840.552 562.212
1899 0 53.0296 12.2385 649 56.1834 840.368 562.159
1900 0 56.0466 13.8099 774 53.9522 839.628 560.889
1901 0 58.0976 14.1142 820 53.989 840.009 559.066
1902 0 59.0746 13.8469 818 54.2078 839.787 560.418
1903 0 59.0772 11.7304 693 56.8802 838.96 559.469
1904 0 61.1371 12.4802 763 56.2988 838.773 557.448
1905 0 63.1224 12.7847 807 55.7807 838.838 557.696
1906 0 65.0918 12.5515 817 55.8666 838.419 556.181
1907 0 66.128 12.7026 840 55.6726 838.72 556.194
1908 0 69.101 13.994 967 54.092 838.829 555.377
1909 0 72.0803 13.8734 1000 54.115 838.097 554.602
1910 0 73.232 13.0954 959 55.1011 838.21 554.286
1911 0 75.1093 13.8997 1044 54.2883 838.534 553.635
1912 0 77.2239 12.8069 989 55.6279 838.323 551.968
1913 0 83.2246 14.5991 1215 52.5564 838.57 553.281
1914 0 80.1271 12.6299 1012 56.332 838.123 549.403
1915 0 84.1378 13.4303 1130 55.2699 837.765 549.303
1916 0 85.2749 12.8525 1096 55.938 838.13 547.81
1917 1 47.0596 10.8586 511 55.5166 837.932 568.112
1918 0 47.0381 11.7564 553 55.9277 837.584 568.089
1919 0 47.0393 11.5435 543 56.4751 838.497 567.11
1920 0 51.0449 10.6573 544 56.6912 838.805 563.792
1921 0 51.0908 11.9395 610 55.5295 838.152 564.592
1922 0 55.0332 13.0285 717 54.5551 837.805 560.057
1923 0 53.062 12.3252 654 55.9327 837.752 563.904
1924 0 57.1625 13.6278 779 53.8472 837.846 561.492
1925 0 57.0336 13.0975 747 55.1017 837.632 561.036
1926 0 59.0604 13.2068 780 55.0974 837.424 560.285
1927 0 59.0933 13.301 786 55.5153 837.322 560.441
1928 0 61.1567 12.7868 782 56.5524 837.703 559.807
1929 0 62.0981 13.2693 824 56.1845 837.294 556.96
1930 0 66.2048 13.6697 905 55.8133 837.381 557.117
1931 0 68.157 13.9677 952 55.6471 837.109 557.228
1932 0 70.1462 12.645 887 57.4014 836.982 555.389
1933 0 71.119 11.994 853 59.2427 836.902 553.475
1934 0 75.2241 13.7722 1036 56.8349 837.493 554.305
1935 0 78.1275 13.8236 1080 57.5833 837.738 551.173
1936 0 79.1709 12.9846 1028 59.393 837.813 547.753
1937 0 84.1361 14.4647 1217 56.9252 838.14 548.791
1938 0 85.2279 13.6692 1165 58.6987 838.255 546.761
1939 0 88.2512 12.8837 1137 60.0967 838.627 546.412
1940 1 47.1618 9.35079 441 60.2018 838.045 567.159
1941 0 47.0461 9.96894 469 60.1386 837.872 567.051
1942 0 48.2014 10.8296 522 59.8908 838.33 564.709
1943 0 50.1248 11.2918 566 60.136 837.928 563.325
1944 0 54.0342 12.5846 680 56.5456 838.572 562.956
1945 0 55.0596 12.5682 692 56.9581 839.936 566.361
1946 0 54.0275 12.0864 653 59.3568 839.876 563.153
1947 0 57.0877 12.5946 719 57.2962 840.113 563.865
1948 0 57.0746 11.8792 678 58.9941 839.507 562.569
1949 0 57.0558 12.0408 687 59.8559 839.967 560.678
1950 0 62.0386 13.814 857 56.9708 839.985 560.765
1951 0 63.0818 13.3795 844 57.3235 840.352 561.052
1952 0 65.0612 13.6641 889 57.5174 840.317 558.871
1953 0 67.0829 14.7131 987 56.4894 840.547 557.551
1954 0 69.0768 14.7951 1022 56.2446 840.579 555.765
1955 0 72.0553 14.0864 1015 56.799 840.255 551.998
1956 0 73.0631 13.4952 986 57.8438 840.191 551.638
1957 0 77.1269 13.5232 1043 57.7076 840.074 549.782
1958 0 80.0721 14.0498 1125 57.2204 840.295 549.902
1959 0 81.0605 12.9533 1050 57.6581 840.51 551.232
1960 1 44.0934 9.57059 422 58.4384 840.855 568.031
1961 0 45.0359 10.2585 462 57.5823 841.299 567.545
1962 0 48.0335 11.1589 536 56.0075 841.735 566.308
1963 0 47.0561 12.347 581 55.8881 842.091 564.482
1964 0 48.0153 12.4127 596 56.0067 842.015 563.681
1965 0 49.0477 12.0495 591 56.3858 842.032 563.898
1966 0 50.035 12.3713 619 56.6381 842.633 563.257
1967 0 52.0415 11.5485 601 57.2246 842.988 565.276
1968 0 53.0631 13.2107 701 55.1355 843.121 563.552
1969 0 54.0434 11.6758 631 57.5975 843.334 561.125
1970 0 58.0734 13.5174 785 55.7567 843.665 559.325
1971 0 58.0698 13.3288 774 56.199 843.836 559.955
1972 0 60.0686 11.1872 672 58.7098 843.768 559.286
1973 0 58.0618 11.9528 694 59.1196 844.133 555.927
1974 0 63.1087 12.1853 769 58.3355 844.415 555.81
1975 0 67.0155 12.8925 864 56.8171 844.817 555.705
1976 0 68.0314 13.3762 910 56.7648 845.218 554.4
1977 0 71.0271 13.4174 953 56.2749 845.614 554.231
1978 0 70.0816 12.8422 900 57.5767 845.301 552.799
1979 0 72.1032 13.3836 965 57.0311 845.578 553.288
1980 0 76.0702 13.0406 992 57.38 845.055 549.963
1981 0 80.1243 13.2045 1058 57.1229 845.435 547.629
1982 0 81.1141 13.1297 1065 57.4469 845.523 546.176
1983 0 84.089 13.0814 1100 57.4727 845.255 546.043
1984 0 89.0511 13.2059 1176 57.0612 845.386 542.873
1985 1 45.0806 9.53846 430 58.2767 846.042 565.488
1986 0 47.057 11.1992 527 56.2941 846.091 563.679
1987 0 49.0976 10.5912 520 58.1038 845.694 563.429
1988 0 49.075 11.187 549 57.9271 845.703 562.539
1989 0 53.0727 11.9647 635 56.622 844.776 561.926
1990 0 54.1402 11.1932 606 57.5297 844.708 560.111
1991 0 53.0562 11.1768 593 58.2395 845.002 558.685
1992 0 56.2053 12.0451 677 56.9453 844.609 558.996
1993 0 56.1201 11.9209 669 57.9596 844.284 556.188
1994 0 56.1201 11.9209 669 158.839 844.284 556.188
1995 0 61.1024 13.4528 822 55.6022 844.22 556.293
1996 0 63.1179 12.041 760 56.5947 844.079 555.262
1997 0 64.0418 12.9915 832 55.744 843.668 553.329
1998 0 66.1131 11.7828 779 57.3209 843.651 552.347
1999 0 70.1942 12.2945 863 56.3998 843.372 550.888
2000 0 71.1627 12.633 899 56.614 843.343 548.433
2001 0 75.1189 12.6999 954 55.8994 842.887 550.041
2002 0 75.1095 11.9825 900 56.4878 842.664 549.741
2003 0 78.3728 12.5937 987 55.6616 842.617 547.55
2004 1 43.0907 9.86292 425 55.5882 842.652 565.696
2005 0 42.1984 9.38424 396 56.4823 843.015 562.727
2006 0 46.1814 9.89576 457 56.2976 842.965 558.74
2007 0 47.2253 11.8157 558 54.3136 842.737 558.382
2008 0 50.0252 12.3938 620 52.7242 841.737 560.011
2009 0 49.1621 12.4689 613 53.8646 842.63 561.445
2010 0 51.0902 11.8222 604 54.6474 842.343 560.023
2011 0 51.1485 11.3982 583 55.0172 842.491 559.7
2012 0 55.1129 13.808 761 52.2549 842.099 558.194
2013 0 55.121 11.4113 629 54.9444 842.014 558.052
2014 0 57.1118 11.7139 669 54.0792 841.871 558.377
2015 0 62.0535 12.8438 797 52.7202 841.795 556.144
2016 0 58.0923 11.3096 657 55.7428 841.726 556.775
2017 0 63.093 12.5371 791 53.7282 841.661 553.325
2018 0 64.0989 12.8707 825 53.4194 841.393 555.984
2019 0 67.0873 11.3136 759 54.9842 841.283 553.531
2020 0 69.1862 12.8783 891 53.4983 841.626 552.927
2021 0 72.0399 13.0206 938 53.3284 841.672 551.787
2022 0 73.0516 12.7855 934 53.576 841.619 549.796
2023 0 76.0959 13.7195 1044 52.7174 841.515 547.896
2024 0 77.1265 12.8101 988 54.6984 842.013 540.508
2025 1 41.0263 10.0911 414 54.3309 841.657 565.662
2026 0 45.1117 10.0861 455 53.7385 840.982 565.105
2027 0 46.0753 11.6982 539 52.961 841.16 563.321
2028 0 46.0739 10.5266 485 54.4227 841.122 564.691
2029 0 48.0846 11.9165 573 54.4921 841.304 562.501
2030 0 49.0247 13.3198 653 53.121 841.436 561.77
2031 0 50.021 11.3552 568 55.7324 841.472 562.732
2032 0 51.0487 11.8318 604 54.851 841.531 562.214
2033 0 54.0667 12.4846 675 54.4015 841.326 561.75
2034 0 57.0452 11.7451 670 54.9119 840.909 559.894
2035 0 58.1177 12.4059 721 54.5492 841.036 559.419
2036 0 60.0427 12.4078 745 54.5423 840.997 559.76
2037 0 62.1096 12.8322 797 53.7014 840.447 560.585
2038 0 63.0941 12.8221 809 53.9172 840.612 557.998
2039 0 66.0895 13.0429 862 53.5545 840.298 557.771
2040 0 66.2065 12.6876 840 53.9845 840.017 555.245
2041 0 67.1481 12.0778 811 55.3798 839.963 555.296
2042 0 70.137 12.2332 858 55.0758 840.321 555.225
2043 0 71.0312 14.205 1009 52.5808 840.282 557.247
2044 0 72.0576 13.3088 959 54.5547 839.878 553.968
2045 0 74.0361 14.1283 1046 53.848 840.155 550.642
2046 0 77.0634 13.4046 1033 54.1007 840.44 552.211
2047 0 81.1127 14.0422 1139 53.0737 840.275 550.465
2048 0 83.1002 14.0914 1171 53.0342 839.862 549.101
2049 0 85.0522 13.3683 1137 53.5743 839.939 547.573
2050 0 87.075 14.0109 1220 53.2213 839.915 545.674
2051 0 89.1465 12.9001 1150 54.3643 839.275 546.506
2052 0 93.1548 13.0213 1213 53.9406 839.03 545.044
2053 1 50.1161 11.2938 566 55.6555 839.125 565.392
2054 0 50.0324 13.5112 676 53.892 839.203 564.466
2055 0 51.0272 12.4639 636 55.0597 838.926 564.975
2056 0 53.0305 13.9731 741 53.3063 838.318 565.846
2057 0 54.0654 13.2802 718 54.0682 838.376 563.518
2058 0 54.0853 11.5928 627 56.3844 838.376 563.045
2059 0 57.1046 12.7485 728 54.2074 838.679 564.413
2060 0 59.1959 13.9537 826 53.2312 838.547 562.667
2061 0 59.1072 13.3994 792 54.4432 838.323 559.448
2062 0 63.0755 13.5869 857 53.776 838.504 561.081
2063 0 64.0559 12.9262 828 54.9517 838.231 558.715
2064 0 64.0542 13.5979 871 54.4294 837.894 559.163
2065 0 68.142 15.1448 1032 52.7742 838.145 558.309
2066 0 70.0551 14.2602 999 53.6176 838.513 557.398
2067 0 72.1786 12.857 928 55.5399 838.872 556.792
2068 0 73.0924 14.1191 1032 54.9583 838.95 552.796
2069 0 76.0791 12.855 978 56.3916 838.768 553.915
2070 0 79.1602 16.5614 1311 52.3921 838.413 552.547
2071 0 81.1261 13.3126 1080 57.0583 838.835 552.071
2072 0 82.0701 13.1838 1082 58.1017 839.622 550.207
2073 0 83.131 14.1824 1179 57.6039 839.472 547.381
2074 0 89.0663 14.2254 1267 57.1942 839.227 546.904
2075 0 90.1484 13.4889 1216 58.6743 839.188 546.249
2076 0 94.2172 14.4772 1364 57.6026 839.078 544.534
2077 0 96.1928 14.1695 1363 58.9332 839.582 543.337
2078 0 100.174 14.2053 1423 59.059 840.146 541.394
2079 0 104.098 15.3413 1597 57.5016 840.361 539.822
2080 0 107.193 16.1951 1736 56.7005 840.914 537.854
2081 1 57.1235 10.486 599 61.4708 840.376 562.075
2082 0 60.1028 12.645 760 59.5513 840.995 560.988
2083 0 63.1435 13.113 828 58.6244 841.169 560.943
2084 0 65.0898 13.0282 848 59.6321 841.836 558.856
2085 0 66.0868 14.3902 951 58.2892 842.008 558.415
2086 0 70.0396 14.706 1030 56.9369 841.958 557.156
2087 0 70.101 12.5105 877 60.8689 842.107 554.1
2088 0 71.0693 13.2406 941 60.5027 842.793 553.617
2089 0 74.1517 13.9714 1036 59.5405 842.839 550.984
2090 0 77.1553 12.9998 1003 61.2552 843.283 551.269
2091 0 80.1463 13.5003 1082 60.1322 843.369 552.096
2092 0 82.103 14.2139 1167 60.0043 842.877 548.194
2093 0 85.073 14.7168 1252 59.5008 843.379 546.7
2094 0 88.2083 12.5725 1109 62.0947 843.335 544.62
2095 0 90.1202 13.7261 1237 60.6944 843.384 544.405
2096 0 91.1118 13.7743 1255 61.5028 843.267 540.265
2097 0 96.3538 13.4919 1300 61.9185 843.456 540.206
2098 0 99.2511 13.6522 1355 61.5277 843.372 538.618
2099 0 102.153 14.5469 1486 60.9031 843.533 538.353
2100 0 104.109 12.9192 1345 63.8089 843.659 536.644
2101 0 107.218 13.8223 1482 62.8212 843.511 533.704
2102 0 111.17 14.4644 1608 61.8688 843.821 534.694
2103 0 114.183 13.6185 1555 63.3537 843.98 529.521
2104 0 114.183 13.601 1553 159.329 843.971 529.38
2105 0 120.175 14.3707 1727 62.6728 844.391 529.387
2106 0 123.191 13.4913 1662 64.2497 844.224 523.513
2107 0 129.131 14.04 1813 62.8406 844.229 521.328
2108 0 132.181 13.7161 1813 63.5339 844.65 519.711
2109 1 74.0541 11.9507 885 63.0599 844.459 550.644
2110 0 77.0793 13.1683 1015 61.4709 844.988 549.914
2111 0 76.0427 12.493 950 63.3621 845.174 547.447
2112 0 80.0495 12.4798 999 63.0841 845.287 547.308
2113 0 85.0885 13.3743 1138 61.3629 845.08 544.396
2114 0 86.0488 12.4581 1072 62.7388 845.499 545.297
2115 0 90.0523 13.3478 1202 61.4567 845.344 542.228
2116 0 94.0901 13.7953 1298 60.151 845.133 541.763
2117 0 96.1397 14.5205 1396 59.5365 845.324 538.995
2118 1 53.0214 9.95824 528 62.2121 844.388 562.328
2119 0 53.0211 11.4294 606 62.1832 844.058 558.814
2120 0 54.032 10.8084 584 63.4606 843.877 558.226
2121 0 55.0451 10.9365 602 63.902 843.565 557.857
2122 0 58.1292 12.9711 754 61.4363 843.651 556.078
2123 0 60.082 12.5329 753 61.3904 843.297 557.106
2124 0 61.0622 12.6756 774 60.5336 842.676 556.605
2125 0 62.1906 14.3752 894 59.6387 843.095 555.409
2126 0 65.1425 13.5242 881 60.1249 842.37 555.084
2127 0 68.3816 13.3077 910 59.6231 842.003 553.444
2128 0 70.2864 13.9145 978 59.0726 842.225 551.571
2129 0 74.2362 15.2082 1129 57.101 841.78 548.201
2130 0 74.1991 14.3802 1067 59.1509 841.977 547.782
2131 0 77.1699 15.265 1178 57.7368 841.944 547.451
2132 0 79.1827 14.5865 1155 58.6182 842.162 547.268
2133 0 80.2333 14.2833 1146 59.1754 841.743 546.688
2134 0 85.3193 14.3578 1225 58.4882 841.612 544.576
2135 0 88.3897 15.4317 1364 57.1642 841.403 542.639
2136 1 46.1794 10.3293 477 59.7631 840.396 566.526
2137 0 48.2484 11.5651 558 59.2724 840.602 565.64
2138 0 49.078 12.5922 618 58.4078 840.448 566.091
2139 0 50.0559 12.6658 634 58.7713 840.333 562.844
2140 0 52.105 13.5496 706 58.2125 840.256 561.902
2141 0 53.1853 13.6316 725 58.7641 840.177 559.708
2142 0 55.1076 14.0634 775 58.1819 840.071 561.008
2143 0 55.1396 12.0784 666 60.8018 840.432 560.461
2144 0 59.2158 13.5437 802 58.98 840.576 558.211
2145 0 59.1398 13.5611 802 59.3292 840.293 558.04
2146 0 62.1329 14.0666 874 58.8947 840.237 556.898
2147 0 61.1173 13.0078 795 61.0101 840.303 556.644
2148 0 64.1009 13.5723 870 60.5322 840.699 554.677
2149 0 67.1416 13.1364 882 60.8923 840.515 556.387
2150 0 70.0741 14.4704 1014 59.7604 840.195 554.354
2151 0 69.1357 14.9995 1037 60.1292 840.203 553.92
2152 0 70.1626 12.9556 909 63.1606 840.449 551.957
2153 0 76.1378 14.4738 1102 60.7868 840.584 552.252
2154 0 76.106 14.7295 1121 61.3773 840.548 549.122
2155 0 80.1469 14.1864 1137 61.3597 840.307 549.546
2156 0 83.1996 13.4616 1120 62.075 840.604 548.377
2157 0 85.0793 13.4815 1147 62.4821 840.369 546.671
2158 0 88.0832 14.316 1261 61.6067 840.105 543.293
2159 1 45.0566 11.0306 497 63.9879 840.314 566.227
2160 0 48.0162 11.7877 566 62.6025 840.23 566.631
2161 0 48.0831 12.4784 600 62.5233 839.74 567.005
2162 0 49.0774 13.7334 674 61.5282 839.905 565.32
2163 0 52.1336 13.4654 702 61.6068 839.95 564.872
2164 0 52.0695 12.8482 669 62.5605 839.946 565.924
2165 0 54.1692 12.9779 703 62.2461 839.327 564.996
2166 0 58.0782 13.6368 792 61.3384 838.859 562.578
2167 0 62.0202 13.1086 813 61.5879 838.739 562.052
2168 0 64.0722 14.6709 940 59.6745 838.256 559.448
2169 0 63.0924 13.2345 835 62.6862 838.263 558.802
2170 0 64.3123 13.5744 873 61.9152 838.187 557.477
2171 0 69.187 13.543 937 61.2049 838.322 556.58
2172 0 71.2121 12.9753 924 61.8983 838.278 555.991
2173 0 73.2225 13.1107 960 61.9479 838.028 555.908
2174 0 74.1852 13.8033 1024 61.7578 837.927 553.807
2175 0 78.1652 12.4736 975 62.361 838.313 554.096
2176 0 82.0646 13.4772 1106 61.1203 838.268 552.688
2177 0 85.1763 13.2783 1131 62.0893 838.599 549.412
2178 1 45.112 10.1303 457 63.6083 838.501 569.068
2179 0 46.0468 11.1843 515 61.3146 838.917 569.095
2180 0 47.0395 11.1608 525 63.8019 838.779 566.783
2181 0 51.0652 13.6101 695 60.3396 838.616 566.233
2182 0 53.0463 13.3657 709 60.3695 838.48 565.615
2183 0 54.0703 12.8167 693 61.1818 838.589 565.078
2184 0 54.1064 12.8635 696 62.1853 839.085 563.527
2185 0 56.0798 12.2682 688 62.1628 839.538 564.991
2186 0 59.0958 13.2835 785 60.9885 839.761 561.364
2187 0 61.0609 13.6257 832 61.0433 840.147 559.522
2188 0 63.1121 14.1177 891 59.3793 840.224 559.521
2189 0 65.2424 12.6452 825 61.7333 840.207 558.698
2190 0 69.2828 14.3037 991 58.8809 840.526 557.566
2191 0 69.3485 14.1604 982 59.5041 840.592 554.539
2192 0 71.2141 13.1575 937 61.9242 840.656 555.126
2193 0 76.2815 14.6562 1118 59.3721 841.307 553.892
2194 0 78.2145 14.2557 1115 59.8278 841.02 552.165
2195 0 82.2094 14.2928 1175 58.9115 841.295 552.771
2196 0 82.1138 14.0415 1153 60.4406 841.356 548.221
2197 0 85.1512 13.7755 1173 60.5951 841.366 545.676
2198 1 43.1781 10.6072 458 61.0852 841.454 567.891
2199 0 47.1077 10.7201 505 61.2772 841.444 566.051
2200 0 47.0371 12.5645 591 59.1912 841.404 565.633
2201 0 50.1375 11.0696 555 60.2234 841.524 566.701
2202 0 52.0777 13.9983 729 58.2812 842.029 564.085
2203 0 53.0758 13.4148 712 59.4199 841.531 563.131
2204 0 55.0695 13.147 724 58.9378 841.956 563.504
2205 0 52.0702 12.4831 650 61.6831 841.969 560.592
2206 0 57.0668 13.2476 756 60.0172 842.447 559.708
2207 0 58.0342 11.8378 687 61.8719 842.946 560.029
2208 0 62.0574 13.6487 847 59.4628 842.607 557.673
2209 0 65.1241 12.9292 842 59.3575 842.392 557.355
2210 0 65.0649 13.4789 877 59.667 842.344 557.055
2211 0 69.0823 12.5647 868 59.6394 842.12 556.306
2212 0 71.0862 13.3641 950 59.6716 842.2 552.942
2213 0 71.1212 12.7107 904 60.9701 842.137 551.871
2214 0 73.0595 12.1545 888 61.7748 842.208 549.233
2215 0 75.0496 12.7516 957 61.2915 842.3 549.662
2216 0 80.0394 13.8682 1110 59.918 842.599 545.27
2217 0 82.1334 14.6956 1207 59.2419 843.176 544.139
2218 0 86.1657 13.4508 1159 60.4236 843.419 544.87
2219 0 87.1515 13.7003 1194 60.3057 843.583 543.85
2220 0 89.1107 13.5898 1211 61.2535 843.68 541.982
2221 0 93.1117 13.167 1226 62.2455 843.641 538.838
2222 0 95.1721 12.8294 1221 62.9222 843.497 537.088
2223 0 98.1448 13.8978 1364 61.673 843.622 537.364
2224 0 104.105 13.6881 1425 62.1839 843.839 535.575
2225 0 105.137 13.6678 1437 63.1169 843.516 533.12
2226 0 108.104 14.0513 1519 62.7749 843.991 532.799
2227 0 112.232 14.6927 1649 62.2347 843.939 529.021
2228 0 114.192 13.3897 1529 65.9451 843.632 526.46
2229 0 120.238 14.6792 1765 63.6334 843.836 526.248
2230 0 123.347 14.2524 1758 64.4209 843.469 520.511
2231 0 129.353 15.1523 1960 63.0179 843.527 520.737
2232 0 129.186 14.2508 1841 65.0782 843.533 516.838
2233 0 134.405 14.1066 1896 65.1862 843.407 515.668
2234 0 140.294 14.4982 2034 64.5683 843.701 516.933
2235 0 144.274 15.1586 2187 64.1363 843.165 508.668
2236 0 150.353 15.6698 2356 63.216 843.163 510.687
2237 0 156.446 15.7499 2464 62.8693 843.103 506.65
2238 0 161.383 14.7351 2378 63.8461 842.616 504.796
2239 0 165.347 14.2791 2361 64.9996 842.829 503.252
2240 0 170.385 14.8722 2534 65.1429 842.601 498.237
2241 0 177.375 14.7259 2612 64.5115 842.88 497.684
2242 0 183.524 15.6001 2863 63.0688 842.669 494.535
2243 0 189.319 15.3973 2915 63.6069 843.451 489.592
2244 0 195.442 15.8564 3099 63.3259 843.148 484.943
2245 0 205.388 17.7323 3642 60.5382 843.102 481.318
2246 0 211.448 15.8999 3362 62.807 842.912 479.45
2247 1 151.364 11.7796 1783 67.8761 843.191 510.269
2248 0 157.249 13.2847 2089 65.7942 842.883 508.684
2249 0 161.246 13.7368 2215 65.7661 843.124 505.129
2250 0 166.371 13.4819 2243 65.8078 843.017 505.107
2251 0 173.427 14.8131 2569 63.942 843.109 500.538
2252 0 177.315 14.4996 2571 64.6375 842.798 493.205
2253 0 182.305 14.3934 2624 65.3525 842.829 492.972
2254 0 189.412 13.6845 2592 66.4688 842.343 489.267
2255 1 47.0879 8.0063 377 61.8488 843.013 563.947
2256 0 44.065 8.62362 380 62.0211 843.024 561.784
2257 0 47.1045 9.78676 461 59.243 842.469 562.334
2258 0 50.0805 10.7826 540 58.7185 842.687 560.541
2259 0 49.0366 11.053 542 59.7011 842.286 558.668
2260 0 53.0423 10.256 544 58.6379 842.463 561.564
2261 0 56.019 11.264 631 57.6545 842.674 560.515
2262 0 56.0229 11.1919 627 57.4179 842.53 560.612
2263 0 59.0609 11.6828 690 57.1594 843.058 557.478
2264 0 59.07 11.2409 664 57.9337 843.146 557.211
2265 0 63.0668 11.4957 725 56.9214 842.879 558.807
2266 0 62.046 11.3464 704 57.6889 842.812 556.132
2267 0 65.0264 12.1797 792 56.351 842.994 554.092
2268 0 65.0707 11.3262 737 57.6431 842.864 552.851
2269 0 69.0566 11.3675 785 57.958 842.879 553.191
2270 0 69.0615 11.4536 791 58.1176 843.042 552.472
2271 0 72.0532 11.3111 815 58.081 842.978 550.182
2272 0 77.0474 11.8758 915 56.506 842.64 548.351
2273 1 39.0243 8.78939 343 58.5073 841.224 568.883
2274 0 41.0104 9.6317 395 57.8911 841.322 565.299
2275 0 42.1001 9.45365 398 58.407 841.229 564.837
2276 0 45.0393 11.8785 535 54.9159 842.817 564.645
2277 0 47.0238 11.4623 539 55.2208 842.796 560.278
2278 0 48.162 11.5444 556 56.3363 841.806 562.543
2279 0 51.0651 11.7301 599 55.4791 843.199 544.192
2280 0 51.0984 11.7225 599 55.8748 842.125 546.187
2281 0 54.0455 12.804 692 55.1662 842.212 539.617
2282 0 56.0996 13.6364 765 53.9739 842.14 537.729
2283 0 57.0639 11.7412 670 57.0716 841.581 540.33
2284 0 58.1033 14.1816 824 54.6626 841.521 539.564
2285 0 60.1114 13.1755 792 56.4255 841.282 540.282
2286 0 60.0679 12.1862 732 57.7814 841.35 541.9
2287 0 61.0552 13.9382 851 56.7497 841.506 540.417
2288 0 63.2583 12.773 808 58.5198 840.804 541.291
2289 0 65.2353 12.2786 801 58.6529 840.577 544.482
2290 0 68.129 13.9588 951 56.9232 840.429 543.072
2291 0 69.2134 13.9857 968 56.6663 840.256 546.317
2292 0 71.2454 12.9412 922 58.0846 841.018 547.875
2293 0 72.3366 13.4233 971 57.897 839.773 547.197
2294 0 75.2604 12.955 975 58.5528 840.057 548.533
2295 1 39.3066 10.787 424 58.6533 840.373 566.144
2296 0 39.2192 10.6835 419 59.7828 839.895 563.709
2297 0 42.2953 11.2069 474 59.4494 840.215 564.574
2298 0 42.2414 11.4106 482 59.0498 839.983 564.56
2299 0 45.2498 11.4476 518 58.3224 840.081 563.743
2300 0 44.1646 12.2496 541 57.2828 840.312 563.017
2301 0 45.2011 11.0174 498 58.5803 839.978 561.751
2302 0 48.1293 12.8404 618 56.3236 840.228 560.846
2303 0 48.0729 12.1066 582 58.1821 839.692 561.77
2304 0 51.1239 13.9074 711 55.2124 839.889 559.997
2305 0 53.0466 13.7049 727 55.5076 839.887 559.67
2306 0 55.0743 14.4351 795 54.6742 839.888 558.514
2307 0 53.0951 13.2027 701 57.3695 839.418 559.128
2308 0 57.042 12.3944 707 57.4342 839.306 560.057
2309 0 58.1143 12.5959 732 57.2719 839.724 556.714
2310 0 59.1538 12.6957 751 57.5326 840.149 556.133
2311 0 60.0856 11.9829 720 58.8042 839.875 554.422
2312 0 62.1558 12.7422 792 57.8333 840.336 553.097
2313 0 65.1858 14.6504 955 55.2147 839.907 553.448
2314 0 66.3581 13.9245 924 56.2825 840.644 553.649
2315 0 67.1942 11.9653 804 58.9764 840.343 552.989
2316 0 71.1906 13.3164 948 57.4736 840.441 549.811
2317 0 75.3147 15.734 1185 54.1342 841.1 550.062
2318 0 76.5763 13.8163 1058 56.9234 841.348 548.986
2319 1 38.2217 9.99433 382 59.4241 841.678 568.607
2320 0 42.3218 10.2075 432 59.2801 841.586 565.104
2321 0 43.1374 11.2431 485 58.0536 841.697 565.579
2322 0 44.0434 11.2389 495 58.3535 842.125 565.444
2323 0 45.0837 12.377 558 57.8154 841.848 565.529
2324 0 46.0525 11.552 532 59.3383 841.744 563.173
2325 0 48.0871 12.3942 596 58.0017 842.017 562.5
2326 0 47.0795 10.9389 515 60.6427 841.672 561.728
2327 0 51.1024 12.5434 641 58.0156 841.836 560.652
2328 0 53.1768 12.9568 689 58.0653 842.016 560.405
2329 0 53.0315 12.1249 643 59.1882 842.154 560.333
2330 0 53.1011 13.5402 719 58.3491 842.378 557.569
2331 0 58.1037 14.8355 862 55.7575 842.709 558.7
2332 0 57.1235 13.5321 773 57.7633 842.918 558.721
2333 0 60.1323 14.4016 866 56.8164 842.967 556.648
2334 0 60.0848 12.6155 758 58.8786 842.702 555.992
2335 0 62.0593 14.47 898 57.0947 843.268 554.905
2336 0 63.098 13.6296 860 58.3953 843.281 553.569
2337 0 64.0833 12.0312 771 59.9767 843.61 553.739
2338 0 69.1419 14.0291 970 56.7897 843.927 552.857
2339 0 71.0952 13.6015 967 57.8449 843.536 550.41
2340 0 75.0791 14.1984 1066 56.6614 843.902 549.412
2341 1 40.0475 10.8371 434 58.7742 843.846 565.032
2342 0 41.0338 10.9909 451 58.8381 844.559 564.175
2343 0 43.0948 13.2266 570 56.1123 844.342 561.911
2344 0 45.0971 12.329 556 57.3813 843.525 561.933
2345 0 45.1618 11.8684 536 58.2052 843.373 561.479
2346 0 48.1141 13.3433 642 56.19 843.555 560.081
2347 0 51.0648 13.0814 668 55.6183 844.067 561.71
2348 0 52.0855 13.401 698 56.6003 844.275 558.457
2349 0 50.1113 12.5521 629 58.275 844.526 557.431
2350 0 54.0252 12.9199 698 57.6562 844.57 555.407
2351 0 56.1082 14.1512 794 56.1977 844.951 555.542
2352 0 55.2122 11.7909 651 59.5023 844.664 553.823
2353 0 59.0691 13.6958 809 57.1409 844.802 553.513
2354 0 59.0999 12.3181 728 58.9341 844.431 555.223
2355 0 62.1513 14.0785 875 57.1954 844.437 552.146
2356 0 64.0805 14.0604 901 56.8779 844.646 551.684
2357 0 67.0991 14.0836 945 57.2667 844.349 550.463
2358 0 65.2062 13.3116 868 60.0173 844.109 548.586
2359 0 72.1096 13.7152 989 58.366 844.22 548.156
2360 0 75.242 14.9783 1127 57.0009 844.399 548.256
2361 0 76.1427 13.9869 1065 59.0207 844.395 547.215
2362 1 40.0296 9.91767 397 60.9446 844.375 563.295
2363 0 42.0469 10.5596 444 60.3108 843.61 562.856
2364 0 41.034 12.0388 494 59.251 843.743 561.901
2365 0 43.0589 11.2172 483 60.7226 843.004 559.824
2366 0 46.1509 12.9358 597 58.9883 842.915 559.352
2367 0 47.113 13.0749 616 59.1997 842.258 559.075
2368 0 48.0541 12.1322 583 60.5592 842.336 559.799
2369 0 50.034 12.0118 601 61.1198 842.453 559.228
2370 0 53.0608 13.5882 721 59.3287 842.596 557.119
2371 0 52.117 12.9132 673 60.8559 842.415 557.147
2372 0 55.1123 13.2457 730 60.3726 842.401 556.51
2373 0 56.0322 12.6177 707 61.4413 842.246 556.96
2374 0 59.1303 12.7515 754 61.2785 842.053 555.247
2375 0 60.1632 14.4607 870 59.6356 842.006 554.239
2376 0 61.1015 13.7803 842 60.6591 841.95 555.164
2377 0 64.1169 13.2726 851 61.772 842.032 553.223
2378 0 63.0668 13.2875 838 62.2327 842.084 554.134
2379 0 69.0718 14.5501 1005 59.3055 841.896 553.926
2380 0 70.1558 14.5818 1023 60.5709 841.996 550.564
2381 0 69.1417 12.1779 842 61.3325 841.74 550.746
2382 0 74.1193 14.706 1090 58.2761 842.114 548.906
2383 0 75.2038 13.2041 993 60.2306 842.208 549.286
2384 0 79.2027 14.7722 1170 58.2769 842.071 548.555
2385 0 83.2064 14.3739 1196 58.7349 842.135 545.482
2386 0 84.1781 14.8495 1250 58.4968 841.834 545.438
2387 0 88.1652 14.8358 1308 57.7179 842.304 543.35
2388 0 91.0928 14.9188 1359 57.6188 842.037 543.406
2389 0 93.1424 14.3114 1333 58.6684 842.017 542.496
2390 1 49.0258 11.239 551 61.4483 842.43 561.911
2391 0 50.0777 11.3024 566 61.4806 842.551 562.811
2392 0 52.0673 11.6964 609 60.5501 842.255 561.624
2393 0 54.056 12.4316 672 58.942 842.324 562.339
2394 0 56.0907 13.7812 773 57.8719 842.408 558.876
2395 0 57.0225 13.2755 757 59.1044 841.847 556.819
2396 0 59.0236 13.808 815 57.6589 842.415 558.66
2397 0 59.0417 12.6013 744 60.3011 841.363 556.538
2398 0 63.0816 12.7296 803 59.4545 841.851 554.79
2399 0 63.0464 13.609 858 59.3473 841.296 554.821
2400 0 67.1107 13.7385 922 58.8004 840.869 553.739
2401 0 69.0637 13.5672 937 59.1163 841.076 552.748
2402 0 70.1079 12.6662 888 60.9414 841.18 551.939
2403 0 70.0691 13.0157 912 60.7643 841.047 550.808
2404 0 74.0807 12.5809 932 60.3326 840.652 551.033
2405 0 79.0845 13.7448 1087 58.7626 840.378 549.199
2406 0 80.0595 14.1894 1136 58.794 840.482 547.059
2407 0 85.123 13.3219 1134 59.0556 840.415 546.172
2408 0 86.0778 14.2197 1224 57.9224 840.652 546.094
2409 1 45.0633 11.2065 505 58.7743 839.887 564.364
2410 0 48.0168 10.2256 491 60.2953 839.554 563.733
2411 0 48.0171 11.2668 541 59.7671 839.584 562.939
2412 0 50.0303 11.0333 552 59.3134 840.13 562.88
2413 0 53.0378 11.6143 616 59.1786 839.456 561.761
2414 0 54.0979 12.5883 681 58.8179 840.47 562.711
2415 0 55.0573 13.1863 726 58.2617 839.949 562.731
2416 0 56.1114 13.099 735 58.7333 839.895 560.535
2417 0 57.0652 12.9851 741 59.6424 839.418 560.192
2418 0 62.1094 14.555 904 56.2544 839.986 559.781
2419 0 62.0203 13.1731 817 58.1224 839.526 559.917
2420 0 64.0446 13.8966 890 58.2022 839.451 559.029
2421 0 67.095 13.4883 905 59.0685 839.101 556.457
2422 0 66.0728 15.271 1009 58.0387 839.612 557.352
2423 0 71.0913 13.8836 987 59.0912 839.615 557.139
2424 0 70.1162 13.5347 949 60.9737 839.217 554.173
2425 0 74.0886 12.8495 952 61.6985 839.658 552.235
2426 0 75.1052 14.2334 1069 60.8148 839.714 551.81
2427 0 78.0855 13.8566 1082 61.3142 839.591 550.923
2428 0 84.1528 14.5212 1222 59.7275 839.408 551.003
2429 0 86.1724 16.0956 1387 58.2343 839.502 546.513
2430 1 44.0814 10.4579 461 61.9892 839.349 570.139
2431 0 46.0657 12.3519 569 60.6696 839.736 567.649
2432 0 49.0649 12.4121 609 59.9442 839.885 566.865
2433 0 51.0774 13.6851 699 58.6767 839.971 565.886
2434 0 53.1126 12.4829 663 60.7345 839.913 563.911
2435 0 53.0768 11.9638 635 61.5181 839.94 562.496
2436 0 54.0634 12.6703 685 60.581 840.288 563.764
2437 0 57.0438 13.0251 743 59.7012 840.112 561.639
2438 0 58.0574 12.5049 726 60.5647 840.113 560.263
2439 0 61.021 13.0939 799 59.4931 839.374 558.881
2440 0 62.0549 13.2141 820 59.311 839.678 557.828
2441 0 62.0749 13.677 849 58.8363 839.444 559.269
2442 0 64.1256 12.5535 805 61.1304 839.569 556.17
2443 0 67.0337 13.3515 895 60.1207 839.884 554.524
2444 0 69.0354 13.1092 905 60.916 840.109 552.854
2445 0 72.128 14.6961 1060 58.3717 840.217 553.505
2446 0 73.0389 14.3896 1051 59.3454 839.917 550.148
2447 0 74.0372 12.9124 956 61.181 839.905 548.43
2448 0 79.1088 13.197 1044 60.091 840.067 547.103
2449 0 83.1873 13.4756 1121 59.5281 840.779 548.285
2450 0 85.145 14.352 1222 58.946 840.583 543.752
2451 0 87.0915 13.7327 1196 59.74 840.737 543.742
2452 1 44.0794 10.2315 451 61.5144 840.761 564.96
2453 0 47.0895 10.2146 481 61.632 840.601 562.815
2454 0 49.0644 10.0684 494 59.9271 840.354 561.935
2455 0 52.1045 11.8032 615 57.0016 840.558 560.616
2456 0 53.0355 12.2559 650 57.5631 841.312 559.238
2457 0 57.0519 13.1634 751 55.5353 841.068 559.591
2458 0 57.0584 12.496 713 57.2623 841.534 557.808
2459 0 59.1265 12.2788 726 57.511 841.731 555.833
2460 0 61.1552 13.1469 804 56.6007 841.805 555.377
2461 0 61.1386 12.9051 789 57.161 842.096 554.726
2462 0 64.0777 12.1727 780 57.3897 842.374 554.188
2463 0 67.2084 13.2275 889 56.0427 842.69 552.606
2464 0 68.2669 13.7841 941 55.0255 842.859 552.518
2465 0 71.0845 14.0115 996 54.9508 843.341 549.781
2466 0 71.2353 13.8976 990 55.2465 843.408 546.415
2467 0 74.2422 12.7017 943 55.9947 843.575 547.963
2468 0 79.2345 13.1256 1040 55.5327 843.517 545.619
2469 0 81.2445 14.8564 1207 53.8517 843.568 542.837
2470 0 83.2499 14.4505 1203 54.5012 843.539 543.35
2471 0 88.2544 14.5715 1286 53.8515 844.042 542.152
2472 0 88.1558 14.1341 1246 54.4872 844.239 539.622
2473 0 91.3083 15.256 1393 53.5793 844.441 539.762
2474 0 93.1587 14.7276 1372 54.8673 844.929 535.587
2475 0 96.1932 14.5229 1397 55.0007 844.533 536.099
2476 0 98.2063 14.0724 1382 55.5796 844.781 535.004
2477 0 103.16 15.0253 1550 54.3852 844.736 533.036
2478 0 104.134 14.2605 1485 55.2869 844.732 530.842
2479 0 110.123 15.855 1746 53.5017 844.711 530.034
2480 0 113.199 14.4524 1636 54.6699 844.447 528.934
2481 0 118.148 14.6088 1726 54.8754 844.873 526.579
2482 1 62.0794 12.9995 807 54.3086 844.877 553.739
2483 0 63.0553 12.1481 766 55.1201 844.368 553.92
2484 0 67.0586 13.1676 883 54.5255 844.163 550.448
2485 0 68.1968 13.4757 919 54.37 844.072 548.682
2486 0 70.0695 14.0147 982 53.9369 844.092 549.122
2487 0 71.1211 13.02 926 55.3099 844.052 546.863
2488 0 75.1537 14.0778 1058 53.9905 844.063 546.947
2489 0 77.1897 13.4733 1040 54.6683 843.816 546.662
2490 0 80.0704 13.1135 1050 54.88 844.088 542.943
2491 0 85.1056 15.2869 1301 52.4558 843.892 542.613
2492 0 86.1827 14.4229 1243 53.6702 843.842 539.94
2493 0 88.2128 15.7914 1393 52.3855 843.861 542.404
2494 0 92.1577 14.269 1315 53.7042 843.645 540.227
2495 0 93.1104 14.123 1315 54.8335 843.414 536.633
2496 0 96.1563 14.9236 1435 54.0997 843.616 536.332
2497 0 100.089 14.1174 1413 54.741 843.12 535.375
2498 0 101.098 15.2228 1539 53.82 843.321 534.93
2499 0 105.146 15.0362 1581 53.9728 842.724 530.09
2500 0 110.176 15.448 1702 53.0964 843.16 532.235
2501 0 114.151 15.5321 1773 52.8878 842.924 530.448
2502 0 116.13 13.9671 1622 55.1067 842.648 526.269
2503 1 63.0611 12.2738 774 54.8708 842.78 553.565
2504 0 65.0692 13.186 858 53.7226 842.796 552.92
2505 0 69.0709 12.4365 859 54.1991 842.853 550.611
2506 0 66.133 12.2027 807 55.0235 842.715 550.634
2507 0 74.04 14.9514 1107 51.2511 842.345 550.238
2508 0 77.1448 13.4034 1034 52.4014 842.488 548.456
2509 0 79.1097 13.437 1063 52.9708 842.337 544.245
2510 0 83.1084 13.1034 1089 53.2287 842.288 542.471
2511 0 86.1214 12.4127 1069 53.4415 842.468 541.786
2512 0 90.1373 13.8233 1246 51.8547 842.579 541.191
2513 0 92.121 14.253 1313 51.3336 842.304 540.443
2514 0 95.3334 13.3322 1271 52.2636 842.079 534.103
2515 0 98.2646 12.3137 1210 53.1934 842.128 534.406
2516 0 100.229 12.681 1271 53.3462 841.994 531.282
2517 0 103.295 12.8854 1331 52.6266 841.621 531.122
2518 1 52.2071 10.2093 533 51.9981 841.105 556.088
2519 0 56.1594 11.592 651 51.0415 841.777 554.696
2520 0 56.0727 11.5564 648 51.517 841.54 555.233
2521 0 58.0567 12.2467 711 50.6821 841.415 556.8
2522 0 63.1234 13.4815 851 48.6392 841.771 556.027
2523 0 61.1268 12.4986 764 50.7788 841.475 553.174
2524 0 64.1849 13.1183 842 50.0344 841.732 553.325
2525 0 66.1629 13.3761 885 50.4034 841.398 551.466
2526 0 68.2198 12.621 861 51.2276 841.42 550.404
2527 0 69.2883 13.7974 956 50.8201 840.928 545.128
2528 0 75.2229 13.3869 1007 50.5591 840.791 547.71
2529 0 74.2098 12.5051 928 52.2554 841.114 545.275
2530 0 79.2319 12.6843 1005 52.004 840.934 543.854
2531 0 80.3025 11.6933 939 53.4249 840.504 542.973
2532 0 85.2352 12.7999 1091 52.0917 840.413 541.902
2533 0 87.2834 13.4046 1170 51.912 840.215 540.371
2534 0 89.2621 13.4548 1201 52.0816 840.426 539.148
2535 0 92.1635 12.9335 1192 52.8289 840.128 537.71
2536 0 97.1489 14.2359 1383 50.9161 839.978 540.291
2537 1 48.0292 9.34848 449 53.3808 839.755 562.432
2538 0 50.0475 11.6689 584 52.6541 840.375 560.247
2539 0 52.0941 11.9399 622 52.7315 840.473 559.441
2540 0 53.1191 10.6553 566 53.7226 840.477 559.928
2541 0 55.0941 12.9778 715 51.4196 840.524 560.887
2542 0 55.0899 12.7065 700 52.2157 840.236 555.504
2543 0 57.0796 11.8957 679 53.8189 839.811 555.462
2544 0 61.0808 12.8846 787 52.5909 840.183 555.507
2545 0 62.0773 13.4993 838 52.0907 840.216 555.372
2546 0 63.109 12.6131 796 53.1219 840.256 553.696
2547 0 63.0992 11.2204 708 54.5494 840.384 554.02
2548 0 68.1231 13.2407 902 52.1319 840.073 555.46
2549 0 69.0874 11.2901 780 54.6218 840.097 552.526
2550 0 71.0677 14.0852 1001 52.3177 840.542 552.505
2551 0 74.1114 12.967 961 53.2466 840.408 549.391
2552 0 77.0823 14.0499 1083 52.3029 840.318 549.054
2553 0 79.1045 11.4911 909 54.3927 840.384 549.607
2554 0 81.0568 12.0533 977 54.2487 840.379 547.551
2555 0 83.1924 13.9195 1158 52.7427 840.396 546.057
2556 0 85.1652 13.4327 1144 53.4528 840.496 544.539
2557 1 42.0254 8.32829 350 55.4829 840.566 567.134
2558 0 45.0898 11.0446 498 52.8976 839.946 566.898
2559 0 45.087 9.84762 444 54.3761 839.595 566.043
2560 0 48.122 11.2215 540 53.3333 839.646 564.698
2561 0 49.1064 11.1187 546 53.9414 839.626 563.54
2562 0 50.1331 11.5692 580 53.7379 839.678 562.131
2563 0 53.0761 12.1147 643 52.9907 839.409 561.19
2564 0 54.0796 11.0578 598 54.3863 839.44 561.677
2565 0 55.0628 12.1134 667 53.3928 839.216 561.492
2566 0 57.047 13.8307 789 53.3764 839.256 560.469
2567 0 58.0259 12.8391 745 54.7409 840.325 559.699
2568 0 61.0286 12.0927 738 55.0786 840.743 559.163
2569 0 63.0591 13.4636 849 53.7845 840.522 556.622
2570 0 62.0739 11.8085 733 56.3261 840.345 556.191
2571 0 67.0386 13.6787 917 53.9913 840.6 555.954
2572 0 69.1518 13.5065 934 54.1981 840.334 555.943
2573 0 70.08 13.827 969 53.5862 840.266 554.292
2574 0 72.1207 12.3681 892 55.1827 840.124 551.902
2575 0 74.061 12.9623 960 54.5677 840.095 551.522
2576 0 78.1218 12.9413 1011 53.9397 840.225 549.476
2577 0 79.1212 11.9437 945 54.8487 840.056 549.436
2578 1 44.0585 11.5982 511 53.3679 840.012 568.479
2579 0 42.1018 10.5696 445 54.7236 839.665 566.906
2580 0 46.0368 11.5343 531 53.113 839.316 565.887
2581 0 46.0368 11.5343 531 139.452 839.316 565.887
2582 0 50.1373 10.4513 524 54.2366 839.326 565.527
2583 0 52.0756 12.7123 662 52.1208 838.704 565.452
2584 0 51.0277 10.7197 547 54.8793 840.005 561.905
2585 0 52.1694 11.386 594 54.3771 839.707 561.902
2586 0 55.02 12.1592 669 53.5426 839.851 560.245
2587 0 55.0446 10.8094 595 55.2303 839.829 561.402
2588 0 57.1198 11.7823 673 54.5632 839.724 559.936
2589 0 61.055 12.4969 763 53.1809 840.08 559.907
2590 0 61.0267 12.6502 772 54.1464 840.057 557.633
2591 0 64.052 12.5679 805 54.0509 840.124 556.327
2592 0 66.0607 11.9436 789 54.9949 840.319 555.368
2593 0 68.0429 12.1835 829 54.8335 840.559 556.317
2594 0 71.08 12.2679 872 54.9656 840.171 553.905
2595 0 73.2311 12.522 917 55.3926 840.047 552.581
2596 0 75.1019 12.1435 912 56.0011 840.364 552.28
2597 0 78.2807 14.2692 1117 54.2265 840.83 551.764
2598 1 42.0858 9.64695 406 57.9458 841.057 567.626
2599 0 46.041 11.2943 520 54.4827 841.421 567.91
2600 0 46.041 11.2726 519 149.528 842.428 567.956
2601 0 46.057 12.1588 560 56.3857 841.111 565.407
2602 0 51.0783 12.1774 622 55.3923 841.22 566.304
2603 0 49.0834 11.4499 562 57.4146 840.931 564.356
2604 0 51.1266 12.3615 632 57.1503 840.922 563.435
2605 0 53.1384 11.423 607 58.1614 841.682 563.204
2606 0 55.1577 12.8178 707 57.1103 842.314 561.488
2607 0 55.1577 12.8178 707 152.938 843.337 561.515
2608 0 56.1071 12.3692 694 59.2248 842.388 559.354
2609 0 59.0527 12.8191 757 59.0502 842.423 559.293
2610 0 59.1074 13.044 771 59.2659 842.764 557.217
2611 0 60.064 11.8707 713 61.0379 842.94 558.077
2612 0 64.1045 13.0256 835 58.9521 843.253 556.248
2613 0 65.0998 14.3011 931 58.1654 843.738 555.696
2614 0 66.1828 13.2512 877 59.9042 843.569 555.54
2615 0 67.1242 12.5588 843 61.3369 843.689 551.716
2616 0 68.0906 12.6743 863 60.8946 843.826 553.331
2617 0 73.1376 14.2061 1039 58.8749 843.859 553.136
2618 0 72.068 13.5289 975 60.9682 843.603 551.232
2619 0 75.1422 13.3613 1004 60.3805 843.709 550.58
2620 0 77.1852 14.1219 1090 59.8945 843.967 548.813
2621 0 82.1303 13.4299 1103 60.4787 844.811 545.697
2622 0 83.1435 13.627 1133 61.0821 844.394 543.241
2623 1 45.0315 10.7702 485 62.4536 844.355 563.666
2624 0 47.0408 10.544 496 62.9839 844.607 563.673
2625 0 48.0563 10.7166 515 63.1223 844.687 561.781
2626 0 49.1044 9.71399 477 62.9769 844.761 564.017
2627 0 53.3064 12.5313 668 59.7096 844.819 558.142
2628 0 56.0494 13.3811 750 59.284 845.029 558.037
2629 0 57.1109 13.6401 779 59.0475 844.316 559.361
2630 0 60.3027 13.6146 821 58.5615 844.43 557.808
2631 0 61.1321 13.1846 806 59.8623 843.81 554.833
2632 0 64.1095 13.0402 836 59.5251 843.469 554.914
2633 0 64.1286 14.1902 910 58.7835 843.649 554.693
2634 0 67.0734 13.9101 933 58.8842 843.989 552.368
2635 0 68.096 13.7747 938 59.1279 843.98 552.659
2636 0 72.1636 13.3862 966 59.3437 843.928 551.936
2637 0 73.1054 14.3765 1051 58.6156 843.81 549.008
2638 0 77.0702 14.1689 1092 58.1804 843.644 550.435
2639 0 78.0957 14.1365 1104 58.981 843.49 545.467
2640 0 81.1428 14.493 1176 58.4728 843.671 546.236
2641 0 85.1113 14.5692 1240 57.9879 843.72 545.84
2642 0 86.1223 14.3169 1233 59.1176 843.587 543.659
2643 1 46.1581 10.5724 488 61.9201 843.572 562.326
2644 0 49.1553 13.2437 651 58.7957 843.624 559.547
2645 0 51.0958 12.5646 642 59.1121 842.96 561.357
2646 0 52.1459 12.7335 664 59.9202 843.468 558.068
2647 0 54.0604 14.0953 762 58.7323 843.322 558.196
2648 0 52.0375 13.2597 690 60.1377 843.433 558.517
2649 0 55.0439 16.1507 889 54.5534 843.831 558.118
2650 0 56.1252 12.4187 697 58.4032 843.618 557.61
2651 0 57.0608 13.8799 792 57.6351 843.523 555.828
2652 0 61.046 14.7102 898 56.3808 843.634 555.804
2653 0 62.0721 14.3543 891 56.9293 843.966 556.064
2654 0 63.1047 14.2462 899 57.5384 843.63 554.399
2655 0 66.0765 13.8325 914 57.7768 843.249 554.218
2656 0 69.0756 13.5648 937 57.9413 843.187 552.13
2657 0 72.2296 14.3847 1039 56.3118 843.212 553.747
2658 0 74.0909 15.0086 1112 56.0719 843.295 550.729
2659 0 77.1175 15.2235 1174 55.8952 843.106 546.928
2660 0 79.0977 13.4644 1065 57.9775 842.962 548.421
2661 0 81.1394 14.9619 1214 56.6285 843.105 546.437
2662 1 43.0652 9.17215 395 60.043 842.562 563.256
2663 0 45.0277 12.2591 552 57.9348 842.94 562.286
2664 0 48.0468 12.3838 595 56.3092 842.773 563.973
2665 0 48.1651 13.1631 634 56.0521 842.954 562.781
2666 0 51.1171 12.6963 649 56.2203 842.619 561.809
2667 0 53.0917 13.6179 723 55.5187 842.62 561.05
2668 0 54.0612 14.2431 770 54.6182 843.021 561.317
2669 0 53.1303 12.6858 674 57.7107 842.298 559.463
2670 0 57.171 12.3314 705 57.6043 842.504 558.665
2671 0 58.0401 11.6988 679 58.3682 843.007 558.486
2672 0 60.0485 12.4899 750 57.8773 843.144 556.369
2673 0 62.0503 13.3763 830 56.8904 842.904 554.952
2674 0 64.04 15.1468 970 55.1072 842.997 554.655
2675 0 64.1133 12.7431 817 58.5214 842.346 553.011
2676 0 66.052 13.2471 875 57.6846 842.185 554.523
2677 0 69.0365 13.7174 947 57.4065 842.057 551.573
2678 0 70.1025 14.5929 1023 57.0352 841.854 551.831
2679 0 73.2194 13.8761 1016 57.5217 841.657 549.436
2680 0 75.1995 13.8831 1044 57.8496 841.658 550.133
2681 0 78.1018 13.2007 1031 58.5713 841.037 548.262
2682 1 39.066 10.3927 406 59.7192 841.111 566.106
2683 0 41.159 12.6339 520 56.8731 841.142 566.888
2684 0 41.1021 12.0432 495 56.8444 841.071 567.261
2685 0 45.0607 13.3376 601 56.2097 840.837 563.674
2686 0 45.0549 12.5846 567 57.8219 840.559 563.051
2687 0 45.0937 11.6868 527 58.6755 840.751 563.478
2688 0 50.08 12.8794 645 56.1225 840.781 564.767
2689 0 50.086 12.1591 609 58.1757 840.677 563.56
2690 0 53.0882 13.0349 692 56.9075 840.449 562.169
2691 0 55.0208 14.1038 776 55.5258 840.543 561.829
2692 0 54.0831 13.2019 714 57.2605 839.965 559.345
2693 0 57.1498 11.986 685 58.1942 840.048 559.038
2694 0 58.0691 12.7607 741 57.4318 840.063 559.12
2695 0 58.0951 13.9254 809 56.5439 839.962 557.639
2696 0 59.1214 12.2291 723 58.5367 839.978 556.441
2697 0 66.2158 13.9544 924 54.9318 839.806 554.943
2698 0 66.087 13.1039 866 56.7494 839.522 553.816
2699 0 68.1143 12.802 872 57.1697 839.846 552.119
2700 0 70.1636 11.7867 827 57.8803 839.823 554.215
2701 0 73.1846 13.3771 979 56.4096 839.524 551.762
2702 0 73.1484 13.2744 971 56.8115 839.605 549.428
2703 0 76.1898 13.742 1047 56.2034 839.739 548.772
2704 0 79.168 12.9219 1023 56.6833 839.768 549.893
2705 0 81.1631 14.5509 1181 55.7536 839.462 547.835
2706 0 83.1679 13.2744 1104 57.4574 839.696 545.362
2707 0 84.2717 13.2191 1114 57.6041 839.538 546.513
2708 0 88.2307 12.6827 1119 58.4048 839.987 544.262
2709 0 91.2138 13.5835 1239 57.4826 840.054 543.667
2710 1 50.0777 10.1043 506 58.9664 839.808 563.245
2711 0 53.0857 11.4343 607 58.2224 839.692 563.651
2712 0 53.181 10.3232 549 60.0565 839.464 561.807
2713 0 54.0477 11.2863 610 59.2639 839.777 561.631
2714 0 58.0746 13.4138 779 56.706 840.352 561.295
2715 0 57.0502 12.7957 730 58.2726 840.19 560.258
2716 0 61.0865 12.9816 793 56.6759 840.443 559.265
2717 0 62.0902 13.3515 829 56.9276 840.172 557.082
2718 0 65.0909 14.7486 960 55.2531 840.439 557.332
2719 0 67.0757 13.8798 931 56.1493 840.014 557.004
2720 0 68.0462 13.3292 907 57.71 839.965 553.552
2721 0 68.0823 13.0577 889 58.6592 840.042 553.732
2722 0 76.1675 15.9517 1215 54.53 840.235 555.367
2723 0 78.092 14.675 1146 56.4407 840.062 552.847
2724 0 80.1312 14.0145 1123 57.0329 840.289 551.963
2725 0 85.0781 14.0812 1198 56.9282 840.407 550.712
2726 0 86.058 14.1532 1218 57.4951 840.284 548.015
2727 0 88.17 13.474 1188 58.8822 840.119 543.936
2728 0 93.1607 15.0171 1399 57.0193 840.146 544.251
2729 1 50.0393 10.8315 542 60.1125 840.185 563.474
2730 0 49.0139 8.73221 428 63.4463 839.981 563.797
2731 0 55.0427 11.6273 640 59.8578 840.636 562.505
