time division length width area intensity CMx CMy
0 0 45.3126 12.7558 578 73.3651 179.915 594.732
1 0 49.1896 13.4581 662 72.3112 179.479 591.559
2 0 49.1385 12.3732 608 74.0641 179.789 591.66
3 0 51.127 13.3589 683 73.1567 179.627 590.236
4 0 51.127 13.3785 684 162.927 178.635 590.211
5 0 56.0939 13.3883 751 71.8322 179.262 589.25
6 0 58.148 14.3255 833 71.2485 179.271 586.336
7 0 59.1582 14.1654 838 71.5489 179.585 587.023
8 0 61.0914 13.7172 838 73.994 179.912 585.089
9 0 63.0584 13.2734 837 76.368 179.959 583.851
10 0 65.1363 14.2163 926 76.1015 179.387 582.694
11 0 66.1426 13.5163 894 77.7472 179.082 582.647
12 0 70.0764 14.2701 1000 77.148 179.377 580.409
13 0 71.1004 14.3459 1020 77.6765 179.68 580.077
14 0 74.1204 14.409 1068 77.8801 179.108 577.166
15 1 38.0253 11.9131 453 79.9912 179.623 594.797
16 0 39.1103 12.7588 499 79.8617 179.569 592.922
17 0 41.0869 12.7778 525 78.8381 179.189 593.065
18 0 43.2315 13.2311 572 78.3409 179.129 592.483
19 0 45.2445 14.2117 643 77.0249 179.207 592.285
20 0 45.0433 13.9643 629 78.8299 179.428 591.31
21 0 47.1819 14.5607 687 77.5415 179.294 590.798
22 0 48.1334 14.356 691 79.1187 178.968 589.881
23 0 52.0936 14.0324 731 78.8085 179.468 589.695
24 0 53.0412 14.385 763 79.0577 179.469 587.758
25 0 54.1458 14.4425 782 79.188 179.547 587.312
26 0 56.1572 15.7059 882 77.0578 179.706 586.44
27 0 59.0313 15.0767 890 103.184 179.673 585.131
28 0 60.0732 14.8486 892 79.8016 179.478 584.624
29 0 60.2057 15.1149 910 80.6077 179.755 584.732
30 0 63.0878 15.6607 988 79.6559 180.154 582.992
31 0 64.1543 14.4028 924 82.7619 180.248 583.266
32 0 67.1517 14.7874 993 82.0433 180.27 581.461
33 0 67.0954 14.8445 996 83.3173 180.106 581.607
34 0 72.0873 14.6212 1054 82.7173 180.656 580.595
35 0 74.0719 15.9305 1180 80.8966 180.457 577.136
36 0 74.0623 15.4599 1145 82.9493 180.415 576.989
37 0 77.1093 15.1992 1172 83.3345 180.41 577.958
38 0 81.2388 14.919 1212 83.3729 180.224 576.322
39 0 83.1274 15.5665 1294 82.677 180.529 573.957
40 1 40.021 13.5679 543 86.2449 180.676 594.09
41 0 41.0414 13.6935 562 86.5819 180.425 594.374
42 0 42.097 14.1578 596 85.5436 179.948 593.525
43 0 44.103 14.3981 635 85.0488 180.386 592.29
44 0 46.1068 14.3363 661 85.2073 180.598 591.973
45 0 47.3105 14.5211 687 84.4527 180.566 590.114
46 0 48.0939 14.5549 700 83.9971 180.579 589.11
47 0 51.2698 14.9601 767 82.721 180.802 587.595
48 0 53.2203 15.5204 826 81.0521 180.685 586.763
49 0 54.115 15.1899 822 81.8759 180.719 585.258
50 0 56.249 14.898 838 81.8282 180.959 585.196
51 0 59.2184 15.4006 912 80.4364 181.276 584.115
52 0 59.3546 14.6071 867 82.4002 180.993 583.388
53 0 61.6579 14.8399 915 82.1945 180.689 581.709
54 0 65.3711 14.8231 969 73.6398 180.857 578.701
55 0 68.3722 15.2109 1040 72.9106 180.906 579.549
56 0 69.3315 14.4235 1000 74.72 181.555 578.938
57 0 73.3768 15.1819 1114 73.7226 181.339 576.809
58 1 37.2631 12.13 452 77.8053 180.465 595.066
59 0 37.0711 13.5685 503 77.4016 180.843 592.573
60 0 40.1684 12.124 487 77.5195 180.84 593.924
61 0 40.1218 14.2067 570 77.4035 181.365 591.832
62 0 41.1758 14.4017 593 77.1939 181.108 591.197
63 0 44.1712 14.3533 634 76.5016 180.715 590.544
64 0 44.1725 14.5339 642 76.5592 181.026 589.031
65 0 48.1731 13.7836 664 77.0919 181.215 587.127
66 0 49.0726 14.1627 695 76.4705 181.16 586.128
67 0 51.1263 14.7869 756 75.791 181.132 584.325
68 0 55.1904 14.6221 807 74.3829 181.296 583.788
69 0 55.163 13.9043 767 76.7705 181.455 582.744
70 0 59.1265 15.543 919 72.7432 181.596 582.474
71 0 60.0778 14.2981 859 75.6263 182.029 580.607
72 0 62.1395 14.4996 901 75.6448 182.565 578.253
73 0 64.0742 14.2959 916 75.9443 183.175 577.462
74 0 67.1786 14.8261 996 75.1355 183.096 575.74
75 0 70.1528 14.9816 1051 74.6166 183.568 575.34
76 0 72.054 14.6973 1059 75.1464 183.291 574.102
77 0 74.1802 14.9096 1106 75.0533 183.099 572.773
78 0 76.0358 14.046 1068 76.6189 182.995 571.115
79 0 81.1215 15.0761 1223 74.3262 183.936 568.75
80 0 83.221 14.2272 1184 75.5228 183.79 566.002
81 0 89.1692 15.3641 1370 72.619 184.347 564.298
82 1 44.1292 10.8092 477 76.327 184.696 584.899
83 0 48.1177 12.5526 604 74.7285 184.76 583.589
84 0 49.0544 12.7817 627 75.5502 185.544 583.703
85 0 50.0675 13.2821 665 75.2015 186.236 583.538
86 0 53.0564 14.0228 744 72.8226 186.022 582.059
87 0 53.1207 14.1376 751 73.5912 186.316 579.518
88 0 56.225 13.6594 768 73.5599 186.444 578.366
89 0 57.1471 13.334 762 74.4934 186.526 575.916
90 0 62.1528 13.7242 853 73.3271 187.125 575.923
91 0 64.0635 13.2681 850 74.1894 187.515 575.227
92 0 65.1176 13.2683 864 76.1806 187.41 572.169
93 0 68.049 13.2551 902 76.5588 187.3 568.888
94 0 70.1756 13.7227 963 75.2326 187.498 570.642
95 0 75.2038 13.8823 1044 74.1858 187.607 566.513
96 0 76.1756 14.0202 1068 73.5684 187.618 564.616
97 1 38.2122 10.0753 385 70.2831 187.852 584.743
98 0 41.1311 9.57913 394 70.1015 187.655 584.693
99 0 39.0935 10.6411 416 71.1178 187.635 582.546
100 0 45.1385 11.0992 501 68.6607 187.503 581.455
101 0 45.0795 11.4464 516 71.0233 187.758 581.661
102 0 46.1009 11.1061 512 73.6328 187.414 581.318
103 0 47.0571 11.7942 555 74.3946 187.467 578.937
104 0 50.1317 11.0509 554 74.4097 187.765 578.814
105 0 52.0862 11.3274 590 73.2763 187.553 577.063
106 0 54.1701 11.427 619 71.4895 188.239 576.094
107 0 54.076 10.5407 570 73.4632 187.979 575.882
108 0 56.2969 11.244 633 72.3239 188.325 576.409
109 0 59.2141 12.1086 717 71.2218 187.817 574.844
110 0 57.0725 10.8108 617 75.2139 187.742 572.997
111 0 61.2353 11.3497 695 73.4504 187.581 572.538
112 0 62.1369 10.1067 628 75.5669 187.852 571.14
113 0 64.1711 10.659 684 75.3874 187.439 569.387
114 0 68.2585 11.9546 816 72.7365 187.377 568.125
115 1 37.0401 9.61121 356 71.4438 188.525 583.812
116 0 38.0793 9.69031 369 71.8753 187.913 581.436
117 0 40.0545 10.0613 403 71.0695 187.836 580.891
118 0 39.0131 10.1504 396 72.7399 187.859 580.333
119 0 40.0461 10.3381 414 74.0749 187.696 581.072
120 0 43.0457 10.9651 472 72.3623 188.153 580.964
121 0 46.1201 11.5568 533 72.1201 187.923 579.833
122 0 45.0151 10.9519 493 73.3002 187.919 579.805
123 0 49.2126 11.623 572 71.1469 187.836 578.378
124 0 49.2526 11.2481 554 73.204 187.303 578.148
125 0 54.1195 12.768 691 69.4342 187.049 576.764
126 0 53.2569 11.9984 639 71.3646 186.203 577.327
127 0 55.2282 10.9727 606 73.6914 185.8 574.866
128 0 57.4546 12.3054 707 72.1429 185.679 574.504
129 0 58.3893 12.4852 729 71.8066 185.406 574.317
130 0 61.5453 11.1625 687 74.3785 185.424 571
131 0 64.4293 12.5254 807 72.0297 185.458 572.224
132 0 65.4427 11.1854 732 75.2582 185.477 571.82
133 0 68.2796 11.8776 811 73.5721 185.248 571.395
134 0 70.4742 11.9902 845 74.3527 185.322 569.285
135 0 70.4742 12.0753 851 155.243 184.301 569.336
136 1 37.0564 9.12123 338 73.8935 186.379 584.689
137 0 39.093 9.95063 389 72.3882 186.571 585.468
138 0 41.1764 10.8315 446 71.509 186.404 583.361
139 0 41.0966 11.9231 490 69.5612 185.824 583.708
140 0 43.1343 10.1775 439 72.5604 185.731 584.503
141 0 45.1273 11.523 520 70.0577 185.619 583.371
142 0 45.2051 11.2819 510 71.4902 185.047 581.622
143 0 47.2058 11.757 555 70.5009 185.16 581.068
144 0 49.177 11.3468 558 70.4731 185.041 581.333
145 0 50.0657 12.164 609 70.5846 184.741 579.654
146 0 51.0942 11.058 565 73.1239 184.575 578.614
147 0 53.1916 11.6372 619 72.5186 184.447 577.698
148 0 54.1284 12.4334 673 71.5483 184.202 576.776
149 0 57.1069 12.2577 700 71.4514 184.05 577.883
150 0 56.122 11.5819 650 74.8077 184.085 577.589
151 0 57.1006 12.5042 714 74.3277 184.265 576.028
152 0 61.1469 12.1347 742 73.3302 184.373 575.512
153 0 60.1524 11.9197 717 75.2469 183.905 574.275
154 0 61.193 12.387 758 75.1662 184.003 572.869
155 0 63.1215 12.3254 778 75.4756 184.069 570.514
156 0 66.1485 12.6685 838 74.9451 184.033 572.097
157 0 67.1305 12.3938 832 75.9627 184 570.893
158 0 70.2906 12.1922 857 76.2684 183.84 568.861
159 0 73.2511 12.9691 950 74.2442 184.015 568.959
160 0 74.2358 13.1203 974 75.1376 183.625 568.018
161 0 75.1308 12.6047 947 75.7804 183.869 567.77
162 0 77.3264 12.5313 969 76.8101 183.916 565.335
163 0 80.2924 12.7036 1020 76.3931 183.565 564.428
164 0 83.1588 13.0112 1082 75.6525 183.826 562.582
165 0 86.3979 13.0212 1125 75.8613 183.952 560.461
166 0 86.2986 13.2215 1141 76.2375 184.014 560.417
167 0 90.4162 13.3273 1205 76.0548 184.227 557.669
168 0 92.3325 12.455 1150 78.3409 184.659 556.771
169 1 48.1072 9.60355 462 76.5866 184.805 580.632
170 0 50.1121 11.2148 562 74.452 184.929 579.635
171 0 52.0636 11.7356 611 75.1849 185.642 578.028
172 0 53.0608 11.6093 616 76.5114 185.891 576.709
173 0 53.1517 12.248 651 74.8925 185.977 577.192
174 0 56.0555 13.3617 749 72.9386 185.734 575.211
175 0 57.1111 12.1343 693 75.4964 186.255 574.215
176 0 57.0749 11.6163 663 76.4796 186.436 574.087
177 0 60.1229 11.4432 688 75.9651 186.749 573.036
178 0 61.0777 12.2139 746 74.8378 186.669 572.157
179 0 65.2513 13.0572 852 73.0622 186.892 570.644
180 0 68.1048 13.0681 890 73.0472 187.561 568.581
181 0 70.0794 12.6999 890 74.3798 187.382 567.747
182 0 71.1204 12.8655 915 74.365 187.651 567.405
183 0 75.0885 12.8915 968 74.3471 188.025 565.467
184 0 74.0955 12.9428 959 75.2367 188.126 565.853
185 0 78.1039 13.5461 1058 74.2401 188.233 562.906
186 0 81.1479 13.8143 1121 73.4969 188.779 562.882
187 0 84.107 13.5898 1143 73.0831 188.707 562.107
188 0 86.1428 13.0365 1123 74.7035 188.604 559.209
189 0 89.1083 13.1413 1171 74.5141 188.797 556.864
190 1 48.0259 9.78638 470 75.1106 189.326 578.194
191 0 49.049 11.1521 547 74.7221 189.528 576.122
192 0 52.0364 11.4151 594 72.7778 189.544 576.914
193 0 54.1074 11.4587 620 71.5419 189.652 576.835
194 0 57.1365 11.9188 681 68.5198 189.304 574.423
195 0 57.1521 12.0031 686 67.9913 189.582 573.755
196 0 59.0206 13.131 775 65.809 189.723 573.521
197 0 60.0968 11.8642 713 70.1907 189.833 573.741
198 0 62.073 12.1953 757 71.7939 190.015 572.085
199 0 65.0501 12.4058 807 71.7274 189.791 570.164
200 0 68.1054 12.7303 867 71.098 190.721 570.325
201 0 68.0986 12.4819 850 72.9988 190.684 566.827
202 0 71.1355 12.1599 865 73.0694 190.966 566.584
203 0 75.0876 13.3577 1003 70.1585 190.776 565.86
204 0 77.0493 12.9138 995 71.2211 190.268 565.228
205 0 80.0555 12.2165 978 72.7485 190.482 562.657
206 0 82.0709 13.3056 1092 72.3471 190.519 561.288
207 0 85.048 13.0515 1110 72.8712 190.297 561.105
208 1 45.0998 10.5544 476 72.6197 191.16 580.674
209 0 46.113 10.6477 491 71.9185 189.833 581.045
210 0 47.1491 10.3501 488 73.7602 190.203 579.932
211 0 49.132 11.8864 584 71.726 190.08 578.187
212 0 51.1578 12.0412 616 71.8377 189.93 577.935
213 0 52.0684 12.1763 634 73.8691 189.719 577.118
214 0 52.1234 12.2018 636 74.4277 189.887 576.242
215 0 55.1055 13.1384 724 73.2403 189.855 576.275
216 0 55.1348 12.7506 703 74.8051 190.016 574.307
217 0 59.093 12.6749 749 73.2777 189.268 574.084
218 0 59.1157 12.1795 720 74.9347 189.538 574.071
219 0 60.101 12.895 775 74.4116 189.221 572.317
220 0 62.1049 13.2035 820 74.1012 188.905 570.294
221 0 65.0997 12.9494 843 74.4555 188.79 571.03
222 0 67.2211 13.5523 911 73.3227 188.636 571.824
223 0 69.0738 13.5652 937 73.1259 188.72 571.801
224 0 70.1747 12.9676 910 74.6989 188.599 570.396
225 0 73.1369 12.5381 917 75.7895 188.197 569.405
226 0 74.135 13.1382 974 75.2023 188.476 568.614
227 0 77.1277 13.6916 1056 73.7642 188.067 567.286
228 0 78.298 13.6785 1071 75.5453 188.104 565.163
229 0 81.1671 13.0102 1056 76.8163 187.588 563.526
230 0 83.2284 13.2647 1104 76.6078 187.554 562.087
231 0 87.3611 13.6102 1189 76.0791 187.284 560.511
232 0 89.3562 13.463 1203 76.6309 187.315 560.098
233 0 91.2429 13.5024 1232 76.6989 187.333 558.673
234 0 94.2853 12.844 1211 78.2964 186.098 556.307
235 0 97.5344 12.7032 1239 78.41 186.395 554.405
236 0 99.2471 13.1389 1304 77.8052 186.48 553.928
237 1 54.24 11.2647 611 77.2062 186.219 576.73
238 0 57.4961 11.1312 640 77.4625 186.28 575.245
239 0 58.2859 12.0784 704 76.3338 186.378 573.777
240 0 59.1905 13.313 788 73.703 186.756 573.036
241 0 63.3436 13.2768 841 72.5945 186.662 573.826
242 0 65.5083 13.0976 858 73.0443 186.216 571.83
243 0 68.3333 13.6098 930 71.9473 186.365 570.891
244 0 68.3867 13.3359 912 73.102 185.939 569.846
245 0 72.3632 13.6257 986 72.2211 186.152 569.522
246 0 74.3608 13.9321 1036 72.0878 185.95 568.638
247 0 77.1786 13.255 1023 73.3822 186.186 566.245
248 0 80.509 13.7624 1108 72.6661 186.416 563.555
249 0 84.303 14.2106 1198 71.3556 185.643 564.563
250 0 87.2328 14.7651 1288 70.5823 185.833 562.911
251 0 86.1751 14.5053 1250 72.212 185.749 561.282
252 0 91.297 14.6445 1337 71.0524 186.184 559.296
253 0 94.2362 14.4424 1361 71.8751 186.126 558.931
254 0 96.2808 14.115 1359 72.7204 185.648 557.692
255 0 99.3029 13.8465 1375 73.632 185.777 556.278
256 0 103.284 14.6489 1513 72.4118 185.839 557.073
257 0 105.156 14.1219 1485 74.0337 185.842 555.805
258 0 109.358 13.9359 1524 74.3235 185.817 552.197
259 0 113.15 14.1671 1603 73.9601 185.648 551.254
260 0 117.206 15.076 1767 72.7923 184.746 549.497
261 0 120.238 13.9473 1677 75.3846 185.041 545.905
262 0 126.231 15.0042 1894 73.359 185.235 543.255
263 0 131.255 14.2928 1876 74.5842 185.018 541.906
264 1 55.0756 10.876 599 72.409 184.853 580.551
265 0 57.0587 12.0052 685 72.5927 184.58 578.996
266 0 60.0874 11.8827 714 73.5686 184.282 578.168
267 0 62.0899 12.7557 792 73.0821 184.38 575.36
268 0 65.0979 14.3476 934 70.5225 184.609 575.169
269 0 67.0545 12.5719 843 74.2883 184.185 573.579
270 0 67.1075 12.0851 811 76.4131 184.47 572.731
271 0 71.1182 12.88 916 74.1343 184.709 570.128
272 0 76.0479 13.0576 993 72.5549 185.16 570.259
273 1 36.0175 8.88457 320 73.45 185.534 587.162
274 0 39.0978 9.46345 370 72.5027 185.651 587.311
275 0 38.0219 10.3625 394 72.2081 185.624 586.495
276 0 41.032 10.3822 426 71.0845 185.291 586.035
277 0 42.0454 11.0119 463 71.0583 185.05 584.253
278 0 43.1128 12.015 518 70.7432 185.537 583.334
279 0 44.0328 11.9911 528 71.3617 185.504 584.494
280 0 48.0329 12.1583 584 69.9144 186.057 582.652
281 0 46.0672 11.7871 543 72.6317 186.103 580.75
282 0 47.0325 11.2476 529 73.6238 186.393 580.452
283 0 52.0624 12.9652 675 69.0281 186.47 580.521
284 0 52.0113 12.3627 643 70.3219 186.101 580.156
285 0 53.0372 12.0293 638 71.1708 186.365 579.447
286 0 53.0439 12.3483 655 71.2977 186.629 576.995
287 0 55.0809 12.9627 714 69.8333 186.185 577.359
288 0 59.0633 13.24 782 68.7199 186.694 577.326
289 0 57.094 12.5057 714 71.1092 186.001 575.629
290 0 61.0568 13.4793 823 68.887 186.225 573.626
291 0 63.0731 13.7301 866 68.7298 186.745 572.045
292 0 64.0436 12.6633 811 70.6967 187.35 570.938
293 0 64.0664 12.8617 824 71.0425 187.039 569.721
294 0 65.0651 13.0485 849 70.6832 187.086 569.773
295 0 69.0564 13.4528 929 69.6932 187.147 568.017
296 0 71.147 12.6639 901 70.7636 187.282 564.469
297 0 73.06 13.222 966 70.3644 187.316 564.169
298 0 76.0543 12.6883 965 70.5088 187.775 563.065
299 0 78.1062 13.1488 1027 70.0545 187.854 561.744
300 0 83.1072 13.6932 1138 69.2408 187.991 558.696
301 0 84.1179 13.5167 1137 69.7274 188.361 557.22
302 0 88.1923 13.1417 1159 70.497 188.822 555.547
303 0 90.1214 12.006 1082 72.5619 188.576 554.928
304 1 47.2634 10.6425 503 70.2445 188.197 577.831
305 0 47.2061 11.5239 544 69.8401 188.335 575.537
306 0 50.1033 12.4143 622 67.4453 188.116 576.968
307 0 51.2667 12.2692 629 68.7758 188.281 573.404
308 0 53.2831 12.3679 659 68.6646 188.258 573.639
309 0 55.0733 11.6027 639 69.8451 188.271 573.43
310 0 55.3512 12.5562 695 68.7899 188.088 572.23
311 0 58.1578 13.1023 762 68.2139 188.856 571.549
312 0 61.1819 12.0133 735 69.4449 188.724 570.774
313 0 63.1286 13.0052 821 68.4531 188.75 569.007
314 0 63.1116 12.47 787 69.9466 189.023 568.131
315 0 66.1369 12.7614 844 69.8365 188.3 567.989
316 0 67.1829 13.2176 888 69.4595 188.342 567.465
317 0 71.1373 12.6657 901 70.5028 188.655 565.224
318 0 73.1432 12.6738 927 70.2934 188.194 565.057
319 0 77.1311 13.0557 1007 69.6594 188.153 562.963
320 0 80.3543 13.3534 1073 69.1743 187.896 561.269
321 1 43.1509 10.3127 445 70.6135 187.326 578.389
322 0 42.0756 9.98203 420 72.0786 187.583 578.929
323 0 46.1175 10.8636 501 70.5569 187.337 577.283
324 0 46.1036 10.6282 490 71.6816 187.453 576.231
325 0 48.0188 12.2036 586 69.6689 186.942 576.57
326 0 50.1012 11.6764 585 71.1761 187.055 573.911
327 0 51.1727 12.3699 633 69.8246 187.975 573.768
328 0 53.0878 12.8467 682 69.1789 187.375 573.764
329 0 54.1823 12.015 651 71.9155 186.765 572.118
330 0 57.0267 12.9764 740 69.1554 187.03 573.747
331 0 57.0417 12.5522 716 71.6955 186.744 570.359
332 0 61.1394 12.5288 766 71.5627 187.449 570.612
333 0 64.1521 13.7642 883 69.4473 187.28 569.908
334 0 65.212 13.1111 855 71.4 186.616 568.826
335 0 67.2359 13.8616 932 71.3133 186.885 567.63
336 0 68.2776 13.1229 896 72.6719 186.519 567.052
337 0 72.2175 13.6809 988 71.8097 186.694 566.314
338 0 75.3596 13.6147 1026 72.4016 186.819 565.835
339 0 76.4165 13.9891 1069 72.7633 186.381 566.155
340 0 80.3393 13.8537 1113 73.1797 186.609 564.102
341 0 81.45 13.2842 1082 75.1978 186.314 561.809
342 0 84.4912 13.3623 1129 75.6847 186.144 560.244
343 0 88.3627 14.3726 1270 73.9094 186.565 558.376
344 0 91.3696 13.9324 1273 75.2333 186.445 557.327
345 0 95.4155 13.9705 1333 74.3833 186.215 556.432
346 0 95.4005 13.7525 1312 76.6029 186.412 553.752
347 0 100.408 14.1422 1420 75.3789 186.135 552.56
348 0 102.287 14.4495 1478 74.9283 186.204 551.547
349 0 106.399 14.1166 1502 75.257 186.435 549.973
350 0 112.338 14.9193 1676 73.1778 186.127 549.713
351 0 114.342 14.7015 1681 74.1154 185.823 546.481
352 0 118.384 14.6556 1735 74.4755 185.973 542.981
353 0 122.279 14.3034 1749 75.0555 185.897 542.102
354 1 61.2652 11.0503 677 77.1137 186.347 573.089
355 0 65.1898 11.4589 747 75.075 186.04 571.675
356 0 68.2438 11.9132 813 74.9336 185.934 570.323
357 0 69.1633 12.7958 885 73.2983 185.933 567.886
358 0 72.2294 12.8756 930 73.6935 185.809 566.138
359 0 74.2553 12.7129 944 73.8273 185.468 564.786
360 0 78.1586 13.5878 1062 71.7778 185.819 564.132
361 0 80.1657 12.9981 1042 73.2294 185.453 562.473
362 0 82.2419 13.059 1074 73.8399 185.6 559.594
363 0 86.2129 13.7335 1184 72.141 185.84 557.073
364 0 88.2809 14.2386 1257 71.7876 186.026 556.707
365 0 90.1364 13.6238 1228 73.684 186.077 553.126
366 0 92.3409 13.6776 1263 74.2597 186.055 553.399
367 0 96.2617 14.0866 1356 72.9934 186.81 550.798
368 1 48.0647 10.2154 491 73.7434 187.542 576.625
369 0 51.1971 10.3912 532 72.9887 187.759 576.577
370 0 55.1691 11.5826 639 70.8138 187.601 575.268
371 0 55.1539 11.7671 649 70.4068 187.57 573.961
372 0 56.1214 11.1722 627 71.4354 187.804 573.571
373 0 58.2081 12.3694 720 70.9222 186.367 572.514
374 0 60.1814 11.6481 701 71.9957 188.422 573.884
375 0 62.3156 12.549 782 69.2187 188.203 574.435
376 0 63.1906 11.8689 750 69.504 188.416 572.667
377 0 64.2287 12.5022 803 68.8007 188.345 570.031
378 0 68.1756 12.7318 868 68.3376 188.118 569.955
379 0 69.2854 12.5856 872 68.5126 188.275 568.867
380 0 72.3189 13.6894 990 67.0131 188.407 566.53
381 0 74.4102 13.1837 981 68.1203 188.509 565.653
382 0 77.2828 13.0301 1007 68.0457 188.528 565.35
383 0 78.3426 12.9814 1017 67.9695 188.767 564.161
384 0 83.4946 13.6536 1140 66.0211 188.828 563.513
385 0 86.3275 13.4488 1161 66.5883 189.069 560.814
386 0 89.4306 12.8703 1151 66.7081 189.181 558.929
387 0 91.3625 13.3206 1217 66.3821 189.072 557.272
388 0 92.2741 12.7338 1175 67.3038 189.235 554.385
389 1 50.5942 10.8115 547 66.1371 189.859 578.358
390 0 50.4196 11.3448 572 65.4493 189.35 577.642
391 0 54.5145 10.4926 572 65.292 189.813 577.15
392 0 54.4284 11.2625 613 65.1827 189.793 575.237
393 0 55.3935 12.4022 687 62.9549 189.782 575.691
394 0 58.4825 12.2943 719 62.2754 189.879 574.999
395 0 61.443 12.8249 788 62.5546 189.972 572.025
396 0 62.2103 12.8435 799 62.9312 190.13 572.264
397 0 63.444 12.9248 820 63.7268 190.721 572.161
398 0 64.4331 12.4936 805 65.1963 190.675 570.073
399 0 67.7668 13.0595 885 64.2463 190.868 569.55
400 0 70.5514 12.5724 887 65.2018 190.378 568.174
401 0 70.5271 12.5909 888 66.375 190.712 567.225
402 0 75.531 12.8821 973 65.4255 190.703 566.175
403 0 76.4836 13.31 1018 65.4077 190.6 565.325
404 0 81.9757 13.1502 1078 65.5037 190.587 562.168
405 0 83.8452 13.0598 1095 65.9808 190.794 561.121
406 0 85.8352 13.3162 1143 65.916 190.987 559.423
407 0 90.4382 13.8216 1250 64.8848 190.803 559.936
408 1 45.5263 11.6416 530 66.7868 190.568 579.174
409 0 45.5251 11.1147 506 67.7905 190.18 579.767
410 0 49.7981 12.4302 619 65.8643 190.275 578.472
411 0 51.3886 11.3255 582 67.2904 190.199 578.598
412 0 53.4448 12.4989 668 67.4536 190.007 575.765
413 0 53.4037 12.6583 676 67.9541 190.161 574.759
414 0 54.5618 12.408 677 68.8183 189.931 574.612
415 0 58.5166 13.808 808 66.5631 190.257 573.368
416 0 59.3526 13.0576 775 67.9871 190.377 572.27
417 0 60.6129 13.644 827 67.3748 189.912 571.333
418 0 64.7608 13.6502 884 66.4197 190.166 571.698
419 0 64.7579 13.4964 874 67.1384 189.622 569.515
420 0 68.9031 13.8455 954 65.7673 189.351 568.419
421 0 70.6711 13.4567 951 66.8002 189.25 568.369
422 0 73.6053 13.9664 1028 66.0739 188.76 567.296
423 0 73.5059 13.4955 992 68.0796 188.872 565.35
424 0 75.7388 13.8766 1051 67.6651 188.385 563.285
425 0 76.5594 13.7932 1056 69.0777 188.225 563.111
426 0 79.6225 13.5766 1081 69.3913 187.925 561.474
427 0 83.4782 13.6323 1138 69.3708 187.808 560.156
428 0 86.4377 14.0679 1216 68.5872 187.963 560.131
429 0 89.5819 13.8532 1241 69.3191 187.531 557.717
430 1 46.4097 10.6012 492 73.0793 187.86 578.36
431 0 50.3834 11.8492 597 71.9983 187.737 575.722
432 0 50.2673 11.6975 588 71.6888 187.65 577.374
433 0 53.1977 12.9141 687 69.9301 187.426 576.328
434 0 54.1681 13.4212 727 69.89 187.212 574.974
435 0 57.3797 13.3671 767 69.9009 187.253 573.579
436 0 56.2484 13.4759 758 71.0515 187.121 572.827
437 0 58.2748 13.2647 773 71.7568 187.22 572.802
438 0 60.3068 13.3982 808 71.7252 187.121 571.782
439 0 63.3538 14.1586 897 70.4682 187.224 572.36
440 0 66.2293 14.2535 944 69.6314 186.917 571.168
441 0 67.2704 14.1667 953 70.382 186.311 569.775
442 0 69.2147 13.4942 934 71.9593 186.877 567.813
443 0 72.1536 14.5523 1050 69.6667 186.225 566.749
444 0 73.2353 14.1872 1039 70.8903 187.045 565.6
445 0 76.228 14.5091 1106 70.0868 187.203 565.946
446 0 79.1591 13.9971 1108 70.5289 187.06 565.842
447 0 82.2838 13.9031 1144 70.9799 186.782 562.045
448 0 85.1552 14.409 1227 70.1108 186.766 562.062
449 0 86.1451 13.6282 1174 72.0204 187.158 560.43
450 1 47.1392 10.7129 505 71.0475 187.451 581.105
451 0 47.1678 10.7064 505 70.7762 187.572 580.02
452 0 48.0833 11.3137 544 70.3548 187.548 579.263
453 0 50.0449 10.5106 526 71.4259 187.156 577.394
454 0 50.0866 11.9793 600 69.8133 187.67 577.462
455 0 53.2203 12.251 652 70.0752 187.026 577.216
456 0 55.2365 12.3288 681 69.6975 186.952 577.304
457 0 57.0965 12.5752 718 68.9986 186.859 576.841
458 0 58.2074 12.9021 751 68.775 186.622 575.791
459 0 58.1536 12.3294 717 70.424 186.971 574.876
460 0 62.1493 13.017 809 68.8962 187.326 573.691
461 0 62.1524 12.5981 783 70.2197 186.909 572.103
462 0 63.2011 12.8637 813 70.091 186.968 571.308
463 0 66.2713 12.4187 823 69.8311 186.679 570.659
464 0 69.2113 12.9892 899 68.7141 187.003 569.17
465 0 74.2577 13.6821 1016 66.7844 186.872 568.589
466 0 74.3401 12.7253 946 69.1871 186.642 567.547
467 0 77.3107 13.3358 1031 68.4588 186.506 565.697
468 0 79.1515 12.634 1000 69.75 186.439 564.515
469 1 42.1086 10.8766 458 67.8712 186.965 583.45
470 0 41.167 10.5667 435 68.3724 186.687 584.283
471 0 44.2962 12.1004 536 65.5448 186.782 584.33
472 0 46.212 11.5338 533 66.439 186.261 583.37
473 0 48.2863 11.8253 571 66.4116 186.772 582.058
474 0 49.2616 12.2611 604 66.3344 186.644 582.156
475 0 50.3473 11.9967 604 67.3493 186.919 581.568
476 0 50.3569 12.471 628 67.1099 187.059 581.75
477 0 52.3809 11.6836 612 68.5261 186.765 580.026
478 0 54.2471 12.1113 657 67.0441 186.895 579.514
479 0 56.2109 13.0402 733 66.3124 186.91 577.34
480 0 58.2393 12.5001 728 67 187.179 576.984
481 0 59.2113 12.9029 764 66.9018 187.302 577.246
482 0 61.1312 11.5653 707 69.0622 187.208 575.219
483 0 63.385 12.9368 820 66.8732 187.109 575.21
484 0 64.3148 13.0297 838 67.5227 187.119 573.689
485 0 67.1934 12.8435 863 67.4867 187.447 573.385
486 0 69.3431 12.6905 880 67.8205 187.731 571.109
487 0 71.1756 12.5745 895 68.3598 187.612 570.351
488 0 72.237 13.1096 947 68.5005 187.871 568.267
489 0 75.2544 12.5574 945 68.581 187.948 566.003
490 1 40.1244 9.44562 379 68.4195 188.253 585.504
491 0 42.1205 11.1822 471 67.2887 188.225 584.446
492 0 45.1549 11.5602 522 66.0402 188.49 584.385
493 0 45.1408 11.8739 536 66.4086 188.157 583.172
494 0 47.3706 12.2228 579 65.342 188.13 582.959
495 0 45.1433 10.8986 492 68.6687 188.211 581.02
496 0 48.1417 12.3801 596 66.5956 187.879 579.31
497 0 49.2473 12.2646 604 66.8775 188.177 578.932
498 0 51.2277 11.771 603 67.8425 188.308 577.949
499 0 53.1767 12.8064 681 65.7078 188.423 578.131
500 0 55.1608 13.2884 733 64.5784 188.276 578.157
501 0 53.249 12.0002 639 68.6823 188.225 576.319
502 0 57.2674 13.0615 748 65.4866 188.155 577.386
503 0 59.2182 13.2223 783 66.0064 187.971 574.538
504 0 60.2113 12.5558 756 67.6865 188.007 573.741
505 0 61.1147 12.8611 786 68.0267 187.889 572.244
506 0 64.1329 13.6591 876 67.0616 188.118 571.315
507 0 64.1329 13.6124 873 169.937 188.111 571.342
508 0 68.1087 13.2582 903 68.8594 188.289 570.178
509 0 71.1857 12.938 921 69.9805 188.469 569.599
510 0 74.282 14.3507 1066 67.6407 188.159 569.792
511 0 75.2245 13.6259 1025 69.7766 188.441 566.51
512 0 76.2697 13.7276 1047 70.3381 187.933 566.657
513 1 42.2133 11.1576 471 70.4437 189.017 583.178
514 0 45.0624 10.5187 474 69.6371 188.928 581.555
515 0 44.1641 10.4157 460 70.2522 188.241 581.054
516 0 48.2034 11.1818 539 66.8701 188.508 580.132
517 0 49.1893 11.4659 564 66.8777 188.615 579.716
518 0 52.0862 11.9417 622 66.1415 188.735 578.593
519 0 51.2904 12.1075 621 68.5717 188.821 579.643
520 0 54.3297 11.8167 642 68.9891 189.263 579.083
521 0 55.3653 12.4446 689 68.6372 188.862 576.612
522 0 57.3241 11.9147 683 69.1698 189.037 575.937
523 0 57.3448 12.294 705 68.7291 188.858 574.701
524 0 58.1736 13.0644 760 67.8947 189.345 574.511
525 0 60.2438 12.6818 764 68.7526 189.344 573.554
526 0 64.2078 13.503 867 66.2837 189.144 573.541
527 0 65.165 13.0592 851 67.5476 189.38 572.853
528 0 67.2115 11.9622 804 69.4279 189.158 569.919
529 0 67.3944 12.1523 819 68.8669 189.215 570.437
530 0 69.2816 13.0626 905 67.9116 189.246 568.67
531 0 72.2475 11.779 851 69.0141 189.213 568.577
532 0 74.2828 12.937 961 67.3746 189.485 567.575
533 0 76.2391 12.5264 955 68.511 189.237 566.174
534 0 79.2403 12.746 1010 67.9287 189.231 564.498
535 0 81.2156 12.3991 1007 69.1509 189.209 562.775
536 0 84.2668 13.2555 1117 67.4933 188.988 559.609
537 0 87.417 13.2697 1160 67.9086 189.357 557.972
538 0 90.3232 12.7653 1153 68.144 189.422 558.114
539 0 93.347 12.6624 1182 68.5956 188.694 555.988
540 0 96.3551 13.2634 1278 67.8599 188.727 555.155
541 0 99.3203 13.4112 1332 68.2185 188.763 552.242
542 0 101.302 13.3462 1352 68.4845 188.692 552.337
543 0 106.297 13.34 1418 68.4168 188.62 549.398
544 0 108.421 13.5121 1465 68.714 188.022 548.464
545 0 111.392 13.2146 1472 68.926 188.144 548.008
546 0 115.494 13.1263 1516 69.3786 188.014 544.404
547 0 118.326 14.1305 1672 67.9318 187.498 544.364
548 1 65.2309 10.9304 713 68.136 187.717 571.539
549 0 66.2489 11.9398 791 67.0607 187.965 569.748
550 0 68.2433 11.7814 804 67.2363 188.194 570.509
551 0 70.3151 12.1311 853 67.5885 187.781 567.751
552 0 71.173 12.4626 887 67.9718 187.747 567.835
553 0 73.3569 12.2961 902 68.3825 187.613 566.198
554 0 78.1538 13.4095 1048 66.1393 187.983 566.079
555 0 80.3377 13.63 1095 66.6247 187.622 563.57
556 0 82.3373 12.971 1068 67.5056 187.785 561.875
557 0 85.2498 12.7038 1083 67.578 187.789 560.501
558 0 85.293 12.5802 1073 68.5219 187.616 559.694
559 0 90.3698 12.9247 1168 67.8793 187.554 557.33
560 0 92.3097 13.1839 1217 68.4536 187.608 556.099
561 0 95.4106 12.9231 1233 68.7721 187.806 555.337
562 0 98.3795 12.6856 1248 69.3942 187.692 552.475
563 1 50.0527 9.66982 484 68.0021 187.88 579.103
564 0 49.0513 9.03136 443 68.088 187.37 577.684
565 0 52.0699 9.81373 511 67.4951 187.168 576.295
566 0 53.0631 10.12 537 67.3724 186.875 575.939
567 0 56.0396 11.0814 621 66.6087 187.356 574.501
568 0 59.0715 12.7134 751 65.0373 186.47 572.884
569 0 60.0808 12.4665 749 65.6769 185.582 571.29
570 0 60.1306 11.5914 697 67.6772 185.663 572.386
571 0 61.0819 12.1149 740 67.9365 185.434 571.068
572 0 63.0808 12.3334 778 67.3021 186.136 569.414
573 0 67.0713 13.0905 878 65.6469 185.999 569.353
574 0 69.097 12.8515 888 66.205 185.486 568.24
575 0 71.1893 12.7266 906 66.6722 185.513 566.897
576 0 70.1282 12.3916 869 68.3797 185.106 566.1
577 0 74.101 12.402 919 68.0566 185.053 565.762
578 0 76.1313 12.242 932 68.235 185.116 564.7
579 0 80.1275 12.53 1004 67.51 184.785 562.982
580 0 83.2647 12.9947 1082 66.5878 185.328 562.822
581 0 86.1491 12.5364 1080 66.9787 185.184 560.909
582 1 43.013 9.46227 407 67.2924 185.489 582.027
583 0 44.0324 11.4915 506 65.7332 185.433 581.783
584 0 46.0751 10.1573 468 67.1517 186.049 580.729
585 0 47.0321 11.7367 552 65.6902 185.609 579.982
586 0 47.0506 11.6683 549 66.7395 185.588 577.893
587 0 51.046 12.5573 641 63.7582 185.518 579.167
588 0 50.0616 12.0651 604 65.8576 185.121 578.47
589 0 52.1143 11.8585 618 65.7896 184.636 577.896
590 0 52.1062 12.1291 632 65.6487 184.941 577.177
591 0 56.0858 12.7127 713 64.3212 184.682 576.365
592 0 55.153 13.254 731 64.5855 184.356 576.331
593 0 59.0966 12.6911 750 64.58 184.635 575.631
594 0 61.0856 12.8999 788 64.1383 184.844 575.396
595 0 61.2225 13.0834 801 63.8489 184.291 573.081
596 0 63.1369 11.7522 742 65.1644 184.368 573.992
597 0 67.0858 11.9996 805 64.4335 184.853 573.913
598 0 68.1501 13.4116 914 63.2341 184.894 571.241
599 0 72.1616 13.3173 961 63.2477 185.125 569.934
600 0 71.3669 11.7421 838 66.1146 185.079 569.195
601 0 76.1926 13.8071 1052 62.2966 184.699 568.631
602 0 79.1112 13.5126 1069 63.1356 184.691 566.046
603 0 81.1202 13.178 1069 63.8915 184.706 564.754
604 1 41.0215 9.70223 398 65.3744 184.985 585.585
605 0 45.0892 11.7101 528 63.2557 185.528 584.129
606 0 46.0896 10.3928 479 64.5929 184.912 584.263
607 0 47.046 12.2221 575 64.193 184.583 582.602
608 0 48.0543 12.6732 609 64.243 184.509 581.856
609 0 50.0693 12.3828 620 64.7242 184.479 580.776
610 0 52.1217 12.7394 664 63.8645 184.364 579.292
611 0 53.0273 12.9745 688 64.1628 184.589 578.125
612 0 54.1288 12.5626 680 64.9853 184.953 577.276
613 0 54.0832 12.8136 693 65.8225 184.641 576.799
614 0 58.1621 12.7918 744 65.3898 183.953 576.052
615 0 59.0962 12.3866 732 66.1967 184.795 575.738
616 0 62.0891 13.9799 868 64.4608 184.608 574.191
617 0 62.1274 12.7802 794 66.7645 184.545 573.344
618 0 65.2066 13.0815 853 66.1899 184.567 572.299
619 0 67.123 13.0358 875 66.0023 184.371 570.922
620 0 70.0786 13.2565 929 65.6093 184.424 570.882
621 0 74.2478 14.0341 1042 64.7505 184.352 569.457
622 0 74.0584 13.5434 1003 67.2971 185.124 568.042
623 0 76.0881 13.2741 1010 67.8337 185.28 566.982
624 1 40.0873 11.6745 468 67.6581 185.848 584.528
625 0 41.0696 9.93437 408 69.9485 185.605 583.909
626 0 42.1159 11.0172 464 68.7371 185.64 582.42
627 0 42.1063 11.756 495 67.8242 185.907 583.857
628 0 46.0792 12.1313 559 66.8694 185.775 582.728
629 0 47.1598 12.8711 607 66.6705 185.278 582.035
630 0 47.0903 12.5503 591 68 185.782 580.54
631 0 51.1541 12.7458 652 66.7025 186.176 579.867
632 0 52.294 12.2767 642 68.2072 186.335 579.296
633 0 54.1694 12.867 697 66.9871 186.364 578.145
634 0 55.0871 12.8524 708 66.5621 186.318 577.698
635 0 57.1842 12.8182 733 67.3943 186.592 576.265
636 0 58.1472 13.0015 756 67.4431 186.737 573.246
637 0 60.1365 12.6712 762 67.5774 186.803 574.34
638 0 62.0792 12.919 802 66.7781 186.738 573.33
639 0 66.123 13.5203 894 65.7136 186.868 572.33
640 0 67.1205 13.066 877 67.0365 187.166 569.384
641 0 69.1961 13.1944 913 67.1939 187.349 568.286
642 0 72.068 13.2375 954 66.9078 187.653 568.275
643 0 74.0558 13.1117 971 66.9949 187.999 566.562
644 0 75.1108 13.1805 990 67.4424 188.692 564.189
645 0 78.1532 13.2432 1035 67.3787 188.256 563.934
646 0 83.1844 12.9832 1080 67.5472 187.936 560.712
647 0 85.1526 13.8105 1176 66.2279 188.182 559.194
648 1 46.0904 11.4557 528 66.9659 189.267 579.578
649 0 48.1291 11.4484 551 67.7096 188.917 578.114
650 0 50.1582 11.6232 583 66.8165 189.158 577.479
651 0 51.1565 12.1001 619 67.231 190.481 578.321
652 0 52.2627 12.2841 642 67.5717 189.352 575.463
653 0 55.0949 12.306 678 66.885 188.507 574.292
654 0 56.1678 13.157 739 66.161 188.567 571.945
655 0 59.1755 12.3531 731 67.0178 189.089 571.155
656 0 61.1724 12.947 792 65.3927 189.343 572.011
657 0 63.1643 13.267 838 65.2482 188.864 569.014
658 0 63.1184 12.8964 814 66.7482 188.751 567.839
659 0 67.136 12.1544 816 66.9694 188.799 568.298
660 0 69.1288 12.7154 879 65.8146 188.759 567.433
661 0 73.1719 13.2974 973 64.8243 188.97 565.934
662 0 72.1029 12.6486 912 66.8586 189.058 561.78
663 0 76.1457 12.8832 981 66.1131 189.81 560.789
664 0 79.0737 13.1017 1036 65.4189 190.161 560.534
665 0 81.0716 12.3348 1000 66.315 189.71 558.854
666 0 82.1195 12.5305 1029 66.4305 189.33 556.907
667 1 45.1399 10.7665 486 65.1337 189.004 578.3
668 0 47.2643 11.6367 550 63.6782 188.956 579.165
669 0 48.3649 11.3099 547 64.8501 189.731 576.633
670 0 47.2003 13.0508 616 62.8523 189.177 573.49
671 0 49.2505 12.142 598 63.7843 189.535 574.814
672 0 52.1623 13.4005 699 61.9585 189.28 573.298
673 0 52.1522 12.0417 628 64.3726 189.519 573.564
674 0 53.1336 12.4027 659 64.6874 189.466 571.402
675 0 56.1265 12.846 721 63.1928 189.438 571.54
676 0 56.1036 12.7265 714 64.0952 189.58 571.755
677 0 59.1791 12.4537 737 63.6893 189.745 570.597
678 0 60.1518 11.8533 713 64.5863 189.777 570.048
679 0 60.1182 13.0243 783 63.1469 189.967 568.692
680 0 64.1125 13.0084 834 62.6547 189.817 567.785
681 0 67.1024 12.9802 871 62.5557 189.975 566.588
682 0 67.1271 13.1244 881 62.5346 189.934 565.178
683 0 69.1679 12.6504 875 63.2229 189.901 564.771
684 0 72.0887 13.2476 955 62.7435 189.829 562.985
685 0 75.1708 13.1168 986 63.2241 189.574 560.823
686 0 77.2315 12.7798 987 63.5289 189.499 559.932
687 0 79.1419 12.8503 1017 63.821 190.155 559.853
688 1 44.0418 10.2176 450 64.7911 189.564 577.202
689 0 44.0602 10.6899 471 64.7134 189.915 577.183
690 0 48.0361 11.8869 571 62.4326 189.608 576.06
691 0 47.0946 11.7848 555 63.5297 189.589 574.742
692 0 49.0789 12.103 594 62.4731 189.862 575.65
693 0 50.176 12.1771 611 63.1309 189.234 575.637
694 0 53.1345 13.1176 697 61.2166 189.475 574.092
695 0 54.1719 12.3496 669 62.5904 189.148 573.148
696 0 57.1303 13.443 768 60.7174 189.435 572.046
697 0 58.1388 12.4702 725 62.1959 189.862 571.615
698 0 58.1527 12.3124 716 62.5768 189.534 570.764
699 0 64.1462 14.0928 904 58.7179 189.15 568.874
700 0 63.1122 13.8959 877 60.0582 189.148 567.737
701 0 66.068 12.3963 819 61.8034 188.789 567.237
702 0 67.1294 12.9004 866 61.0797 188.46 565.61
703 0 69.1007 13.285 918 61.0087 188.29 565.83
704 0 71.1833 12.826 913 66.8938 188.381 564.09
705 0 74.0836 12.8908 955 71.1916 188.084 563.462
706 0 75.1927 13.0199 979 74.0889 187.871 561.012
707 0 78.159 13.8692 1084 74.3386 188.048 562.241
708 0 82.1692 12.9489 1064 79.0254 187.773 561.685
709 0 83.0885 11.8548 985 88.9157 187.747 560.456
710 0 86.2971 13.4072 1157 67.9188 187.768 557.334
711 0 89.1336 13.5751 1210 68.4835 188.066 557.431
712 0 93.1588 13.3643 1245 69.539 187.569 556.33
713 0 96.104 13.2461 1273 70.6457 187.159 553.797
714 1 52.0391 11.7604 612 71.0016 187.964 576.497
715 0 53.0392 12.142 644 72.1817 187.966 576.311
716 0 55.1079 12.412 684 72.4181 187.642 575.626
717 0 57.0885 12.2967 702 73.416 187.316 573.766
718 0 58.1137 12.682 737 73.7476 187.111 573.701
719 0 61.0611 13.0197 795 73.4918 187.133 571.533
720 0 61.1842 11.9802 733 76.5593 187.001 569.652
721 0 65.3452 14.0791 920 73.5435 186.92 568.997
722 0 68.2606 13.9173 950 73.8368 186.864 568.84
723 0 71.3106 14.0793 1004 74.3675 186.657 565.953
724 0 73.227 12.8778 943 76.0901 186.74 564.769
725 0 75.2837 13.7746 1037 76.0752 186.358 562.639
726 0 78.4212 14.4221 1131 74.3413 186.841 562.885
727 0 79.519 12.7265 1012 77.3666 186.414 561.584
728 0 84.3955 12.9272 1091 76.7727 186.583 561.961
729 0 87.3456 14.7575 1289 74.2196 186.631 561.682
730 0 89.3876 12.5521 1122 77.4911 186.248 558.84
731 1 45.4756 12.1164 551 75.7604 185.904 579.86
732 0 45.4756 12.0724 549 145.494 184.931 579.84
733 0 51.1186 11.3266 579 77.1865 186.39 577.292
734 0 52.2142 12.3146 643 76.9269 185.921 577.267
735 0 53.1377 12.0442 640 76.8094 185.631 576.1
736 0 52.1456 12.35 644 77.4394 185.862 576.043
737 0 54.2207 12.9102 700 77.0471 185.633 573.156
738 0 58.3167 13.1352 766 76.9426 185.354 573.363
739 0 57.2338 13.5584 776 76.1224 185.586 574.027
740 0 58.3084 12.674 739 77.6022 185.371 574.31
741 0 57.3139 11.4283 655 79.8656 185.627 574.328
742 0 63.3765 13.8853 880 77.6761 185.244 571.723
743 0 68.4351 14.0571 962 77.7173 184.693 567.425
744 0 68.5873 14.0842 966 77.8778 185.16 568.86
745 0 68.5464 13.0568 895 79.7609 185.17 568.933
746 0 73.6793 14.0881 1038 79.8882 185.151 563.398
747 0 78.6889 14.7035 1157 78.471 185.252 566.353
748 0 80.4618 16.2437 1307 76.4904 184.998 567.077
749 0 83.5442 13.8849 1160 80.7069 184.802 561.646
750 0 84.574 12.1196 1025 83.3151 185.006 556.385
751 0 91.5985 14.247 1305 80.2383 184.892 557.575
752 0 94.3891 14.3873 1358 75.7143 184.709 555.433
753 1 54.3374 12.9377 703 74.6088 184.115 576.23
754 0 52.0693 12.2145 636 76.2956 184.346 574.86
755 0 57.1008 12.9245 738 73.5623 185.133 577.864
756 0 57.1898 11.8902 680 75.4882 184.882 576.916
757 0 58.2319 12.8795 750 75.156 185.064 577.451
758 0 62.1736 13.2532 824 75.2828 185.15 576.919
759 0 62.2157 12.1834 758 76.1596 185.041 578.231
760 0 66.1229 13.8227 914 75.209 184.852 576.213
761 0 66.1455 13.6819 905 77.7083 184.474 571.262
762 0 69.1339 13.6981 947 78.5132 183.996 570.757
763 0 71.2189 13.283 946 78.4334 184.2 571.858
764 0 75.3027 13.4657 1014 78.9753 184.371 569.778
765 0 74.344 13.6393 1014 80.2229 183.944 569.265
766 0 73.4276 12.2161 897 83.1237 183.645 567.343
767 0 81.5257 13.6399 1112 80.6781 183.246 563.24
768 1 42.214 12.1761 514 78.1556 183.035 584.689
769 0 45.086 11.223 506 80.7036 183.569 583.719
770 0 44.1473 11.8467 523 81.434 184.128 583.478
771 0 47.0431 11.6701 549 81.2641 184.291 584.104
772 0 49.1557 11.4127 561 80.2709 183.335 584.364
773 0 51.1262 12.2442 626 79.9105 183.043 581.796
774 0 50.095 12.0172 602 81.5299 183.088 582.023
775 0 52.1143 13.3169 694 79.8674 183.151 581.634
776 0 53.1544 12.4543 662 82.8036 183.239 581.03
777 0 57.1906 13.0266 745 82.3987 182.538 579.693
778 0 57.1585 13.6463 780 82.6167 182.846 577.017
779 0 59.1621 14.587 863 76.2445 182.875 577.29
780 0 61.0916 11.9165 728 79.6346 182.581 576.073
781 0 64.08 14.2322 912 77.1864 182.865 574.762
782 0 64.1631 11.5019 738 81.8103 183.039 575.003
783 0 66.1678 13.1333 869 81.2255 182.965 572.353
784 0 67.1956 12.2478 823 83.1956 182.869 569.953
785 0 70.0927 14.0386 984 81.7012 184.233 571.751
786 0 70.1896 12.338 866 85.0416 183.562 568.098
787 0 74.1758 13.6028 1009 84.0991 184.168 568.316
788 1 36.178 9.34269 338 85.8491 184.361 586.672
789 0 37.1805 10.7583 400 83.7275 185.025 587.465
790 0 42.1554 11.2915 476 83.5819 185.429 583.832
791 0 44.1274 11.5801 511 83.4462 185.614 584.401
792 0 45.1622 11.8462 535 83.5981 184.991 584.114
793 0 47.1858 13.3303 629 82.5262 185.485 581.665
794 0 45.2478 11.8901 538 86.0985 185.102 581.967
795 0 48.2903 12.1556 587 85.4753 185.16 580.252
796 0 51.3761 12.6907 652 84.6411 185.411 581.523
797 0 52.1563 11.2355 586 87.2611 185.538 578.619
798 0 52.1597 12.0208 627 82.4833 185.335 577.743
799 0 58.2512 13.3559 778 81.1003 186.204 577.235
800 0 54.1392 13.0959 709 84.3103 186.544 575.78
801 0 58.0986 12.7198 739 84.6712 186.775 574.616
802 0 60.2137 11.9076 717 85.5718 186.851 574.227
803 0 61.0698 12.9033 788 86.3668 187.299 571.794
804 0 64.1263 13.7853 884 85.8179 187.137 573.484
805 0 66.1899 12.1771 806 86.9231 187.017 574.259
806 0 67.0664 13.2853 891 86.5937 187.233 574.435
807 0 70.1191 14.889 1044 85.3812 187.086 569.377
808 0 71.1368 13.7341 977 87.3603 187.19 569.294
809 0 73.3207 12.6704 929 89.5716 187.158 567.174
810 0 74.0971 15.0343 1114 88.1706 187.415 565.609
811 1 39.1345 12.1887 477 86.6981 187.457 586.925
812 0 40.2336 10.439 420 89.6857 186.729 585.302
813 0 43.1371 11.8923 513 89.1092 186.988 583.903
814 0 45.1375 12.4509 562 88.3523 187.861 583.288
815 0 46.1646 12.0222 555 90.0631 188.243 580.953
816 0 44.1847 12.0404 532 91.0414 187.974 581.357
817 0 48.1659 11.4189 550 91.66 187.555 579.458
818 0 51.307 12.6883 651 90.3103 188.121 579.306
819 0 49.2676 11.3259 558 92.3226 188.038 577.971
820 0 49.2676 11.3868 561 137.112 187.034 577.932
821 0 52.2696 14.2722 746 89.6836 188.582 580.412
822 0 51.1504 10.5571 540 94.8741 187.817 579.839
823 0 59.2353 12.0536 714 94.881 187.189 574.863
824 0 60.206 13.2213 796 95.794 187.923 574.71
825 0 61.2123 15.5524 952 94.6376 188.098 571.274
826 0 61.0735 12.1984 745 93.3718 187.438 573.173
827 0 64.1908 14.1453 908 92.0958 187.703 571.707
828 0 64.2382 14.8043 951 92.6257 187.134 570.546
829 0 67.2685 13.6765 920 95.2533 187.261 568.257
830 0 69.136 10.8337 749 97.2096 187.148 570.347
831 0 71.3952 14.1746 1012 95.2372 188.045 569.142
832 0 74.2584 13.0356 968 97.626 187.381 565.423
833 0 74.2584 13.049 969 134.964 186.392 565.514
834 0 81.2642 14.3483 1166 93.6818 186.898 565.545
835 0 82.5172 16.0815 1327 92.6571 186.425 565.454
836 0 82.4451 14.2034 1171 66.0803 186.654 563.665
837 0 85.4063 14.3198 1223 64.5568 186.269 560.405
838 0 88.3073 14.291 1262 63.4873 186.145 558.541
839 0 90.5232 13.5103 1223 64.0368 185.922 559.661
840 0 92.4 13.4524 1243 63.2381 186.032 558.554
841 0 95.2863 13.7271 1308 62.8761 185.769 557.213
842 0 99.2427 14.6106 1450 62.6034 186.295 552.749
843 1 52.2997 12.6961 664 62.7199 187.039 577.395
844 0 52.2197 10.858 567 64.3862 186.617 578.922
845 0 54.0337 11.974 647 64.3988 186.141 575.206
846 0 55.1506 12.7469 703 63.5562 185.717 575.179
847 0 60.3273 13.4102 809 62.0717 185.944 572.651
848 0 60.42 13.7868 833 62.2101 185.641 572.999
849 0 62.4967 13.1207 820 63.761 185.652 572.16
850 0 64.3163 14.1644 911 61.7914 185.718 572.578
851 0 65.433 13.2349 866 64.2864 185.797 568.725
852 0 67.3944 12.7013 856 65.0129 185.636 568.627
853 0 70.3923 13.0696 920 64.8989 185.67 566.966
854 0 72.3868 13.1378 951 65.1914 185.681 565.935
855 0 76.4425 14.3376 1096 63.3266 185.18 566.09
856 0 77.572 13.4713 1045 65.3694 185.601 564.362
857 0 81.3924 13.6008 1107 64.8446 185.586 562.963
858 0 84.3666 12.5168 1056 66.8125 185.414 559.876
859 1 45.2009 10.2432 463 66.9827 185.054 579.562
860 0 47.2771 11.4432 541 65.7523 184.277 579.009
861 0 49.0361 11.3386 556 66.7554 184.214 580.363
862 0 54.119 13.0269 705 64.4539 185.543 577.895
863 0 55.2737 13.3698 739 63.6698 185.624 578.359
864 0 55.1932 12.6102 696 65.1667 185.945 577.19
865 0 56.2567 13.0118 732 61.8675 185.093 576.635
866 0 57.3328 13.2559 760 58.9447 184.938 574.267
867 0 59.2484 13.148 779 59.914 184.855 576.569
868 0 62.4439 13.1958 824 59.9636 184.386 573.83
869 0 63.303 13.2379 838 61.216 184.721 572.606
870 0 66.5762 14.6299 974 59.0236 184.42 570.185
871 0 67.3052 13.4314 904 61.8153 183.865 571.814
872 0 71.5369 14.6078 1045 60.044 184.092 570.008
873 0 73.5803 13.9847 1029 61.2342 184.313 567.877
874 0 73.5864 13.3313 981 63.1346 183.686 568.779
875 0 76.4637 13.8105 1056 62.892 184.208 566.843
876 0 77.6265 13.3717 1038 63.9817 184.234 566.171
877 0 81.4892 13.7564 1121 63.43 184.041 565.436
878 0 84.5679 13.5512 1146 63.8927 184.22 564.56
879 0 87.7853 13.0318 1144 64.7421 183.941 561.422
880 1 45.4809 11.2795 513 65.2495 184.384 581.825
881 0 46.5136 10.7065 498 67.1807 184.855 581.022
882 0 49.3889 12.2497 605 64.2298 184.788 580.769
883 0 49.2023 12.3165 606 65.5462 183.99 580.764
884 0 51.2474 12.9372 663 64.6124 184.985 583.424
885 0 53.2846 12.7804 681 65.743 185.414 580.465
886 0 54.0392 13.7678 744 64.664 185.349 578.129
887 0 55.2982 12.948 716 66.3408 185.334 577.61
888 0 56.3066 12.9292 728 66.658 185.181 578.232
889 0 60.2112 14.117 850 64.3835 185.498 576.134
890 0 59.2466 12.507 741 68.359 185.362 575.012
891 0 63.2777 13.4012 848 67.3785 185.433 573.205
892 0 63.3491 12.3759 784 68.3597 185.551 574.014
893 0 67.2446 14.2762 960 65.0896 186.134 572.575
894 0 66.3047 13.5888 901 67.8779 186.112 570.125
895 0 68.3353 13.346 912 67.977 186.639 570.288
896 0 69.2267 13.4341 930 68.5538 186.659 568.846
897 0 72.2181 13.2654 958 68.5835 186.711 566.485
898 0 75.1821 13.5005 1015 68.5783 186.68 565.438
899 0 78.2659 13.8247 1082 67.5268 186.921 566.173
900 0 80.2159 13.8252 1109 67.9576 187.348 565.068
901 0 85.2679 14.0967 1202 66.6248 187.217 563.021
902 1 43.2705 10.8157 468 69.4209 187.848 583.199
903 0 46.2404 11.8727 549 68.1293 187.951 581.246
904 0 47.1725 12.1045 571 68.4676 187.984 579.268
905 0 47.0419 12.2232 575 69.6643 187.75 576.563
906 0 50.0551 13.8647 694 66.9496 188.216 577.615
907 0 50.1042 12.8133 642 68.81 188.732 577.497
908 0 53.0825 11.9625 635 69.3024 188.515 577.017
909 0 54.0968 12.6995 687 68.4498 188.672 575.544
910 0 55.0727 12.8376 707 69.5573 188.62 574.082
911 0 58.2763 12.9384 754 68.5729 187.773 574.671
912 0 59.2607 12.4872 740 70.0459 187.841 573.935
913 0 58.2886 13.2101 770 70.5584 188.356 571.692
914 0 63.3549 12.6115 799 70.2854 188.496 572.061
915 0 65.1903 13.2995 867 69.8604 188.279 569.428
916 0 68.2921 13.7498 939 69.0735 188.474 570.091
917 0 68.2402 13.262 905 71.0541 188.442 567.47
918 0 71.2117 13.7477 979 70.5485 188.904 567.711
919 0 73.607 13.083 963 71.188 189.042 565.882
920 0 73.3789 12.9738 952 72.4601 189.029 564.466
921 0 78.3454 14.0659 1102 70.5944 189.47 563.701
922 0 83.2968 14.2502 1187 69.4431 189.578 562.368
923 0 82.5472 13.2167 1091 71.0917 189.314 558.304
924 0 85.4099 13.886 1186 70.398 189.343 556.286
925 0 87.4092 13.5455 1184 71.0296 188.979 554.719
926 0 89.5509 13.6235 1220 71.682 189.257 553.709
927 1 48.1956 10.5196 507 71.7594 189.696 574.791
928 0 50.1716 11.2614 565 71.131 189.763 574.538
929 0 53.1829 13.0305 693 68.3117 189.872 574.42
930 0 54.1333 12.2845 665 70.8165 189.208 571.887
931 0 55.1676 12.2536 676 71.9467 189.322 573.266
932 0 61.1651 13.2428 810 70.816 190.122 574.214
933 0 61.0993 12.8152 783 73.0255 189.964 572.406
934 0 64.1977 12.9132 829 72.4934 189.801 572.472
935 0 65.4283 13.0524 854 72.8489 189.916 569.309
936 0 66.2699 13.279 880 72.8784 190.116 568.874
937 0 69.2667 13.051 904 73.2721 189.875 567.14
938 0 72.3398 13.6854 990 71.8343 189.199 566.607
939 0 75.2449 13.5026 1016 72.8652 189.602 564.406
940 0 78.3973 13.9291 1092 71.3553 189.699 564.679
941 0 81.2259 13.6656 1110 72.5279 189.454 563.071
942 1 40.1618 10.3332 415 72.7084 190.077 584.388
943 0 40.1146 9.94651 399 74.6667 189.524 584.388
944 0 43.1441 10.9864 474 71.4198 189.295 582.711
945 0 45.0698 11.1605 503 72.1829 189.054 582.362
946 0 44.1217 11.9669 528 71.0814 189.121 581.131
947 0 46.0959 11.9099 549 71.674 188.308 579.138
948 0 48.3427 11.5219 557 71.9659 187.7 579.686
949 0 49.1278 11.9484 587 70.6729 187.569 579.472
950 0 50.1855 11.9955 602 71.495 187.37 577.915
951 0 53.1536 12.6614 673 68.3581 187.422 577.67
952 0 54.327 12.075 656 69.689 187.366 577.912
953 0 55.31 12.7825 707 68.867 187.704 576.532
954 0 59.2874 12.9032 765 68.051 187.28 574.537
955 0 58.1931 11.3931 663 70.5475 187.486 574.662
956 0 61.3115 12.0043 736 69.591 187.648 573.942
957 0 62.206 11.7673 732 69.8443 187.496 573.403
958 0 65.2549 12.7806 834 67.5372 187.167 572.241
959 0 65.261 12.7182 830 68.0747 187.331 572.078
960 0 69.296 12.5404 869 67.6479 187.194 569.94
961 0 69.2122 12.31 852 68.5528 186.654 568.211
962 0 75.2082 12.8975 970 66.7443 187.427 567.658
963 1 40.1672 9.31108 374 68.5775 188.307 586.008
964 0 41.2336 10.7194 442 68.6561 187.624 582.516
965 0 43.2162 9.48719 410 69.6805 187.9 584.034
966 0 44.1385 10.4444 461 67.321 188.254 583.08
967 0 44.153 11.9358 527 65.9241 188.249 580.287
968 0 46.3548 11.8003 547 65.4918 187.318 580.665
969 0 48.1998 11.8465 571 65.4308 187.058 580.97
970 0 50.1869 12.9715 651 63.9647 187.16 580.966
971 0 50.4213 11.7212 591 67.1032 186.788 579.394
972 0 53.2755 11.9567 637 66.7881 187.485 579.454
973 0 53.2606 11.4343 609 69.0509 187.066 577.274
974 0 56.1985 11.9932 674 67.3947 186.788 577.571
975 0 57.2476 12.839 735 67.3973 186.585 575.792
976 0 60.3881 11.542 697 68.7389 186.565 575.819
977 0 61.2822 12.3853 759 69.3992 186.262 574
978 0 64.2271 13.063 839 68.1025 185.868 573.566
979 0 66.2507 12.5885 834 68.6115 185.704 574.005
980 0 67.3552 12.7978 862 69.2146 185.447 572.848
981 0 70.2895 12.2209 859 70.7206 185.634 571.461
982 0 72.2383 12.1957 881 71.1907 185.623 570.094
983 0 73.2849 13.1678 965 70.571 185.393 567.943
984 0 75.3268 12.7976 964 71.4004 185.449 568.316
985 0 77.2224 12.4834 964 72.4523 185.372 567.449
986 0 78.4012 12.232 959 73.6861 185.181 566.884
987 0 82.2675 12.6417 1040 72.5875 185.362 565.931
988 1 43.1594 10.3338 446 73.0135 186.022 585.583
989 0 44.3116 11.7351 520 71.7269 185.706 584.158
990 0 47.2666 11.0649 523 73.5296 185.409 583.887
991 0 46.1844 11.9304 551 72.3321 185.497 583.408
992 0 49.2175 11.8251 582 72.7457 185.73 582.232
993 0 51.1129 12.5017 639 71.928 185.933 582.646
994 0 51.2669 12.5422 643 73.0311 185.484 581.596
995 0 53.3867 12.9058 689 71.5239 184.788 581.742
996 0 54.29 12.4701 677 73.1108 184.988 580.387
997 0 55.2749 12.465 689 73.3469 184.73 579.393
998 0 58.3003 12.6758 739 72.3207 184.622 578.689
999 0 58.2634 12.9584 755 73.2278 184.821 577.869
1000 0 61.2848 12.9559 794 72.0693 185.356 576.611
1001 0 62.2483 13.4301 836 71.6579 185.008 577.362
1002 0 65.2288 13.5676 885 70.6847 185.012 576.316
1003 0 67.4409 13.6119 918 70.1144 184.498 574.252
1004 0 68.2211 13.339 910 70.8857 184.562 573.596
1005 0 69.5496 13.8894 966 70.6077 184.904 572.683
1006 0 74.3404 13.4516 1000 69.792 185.251 572.69
1007 0 74.3635 13.3802 995 70.3899 185.53 571.144
1008 0 76.4739 13.9394 1066 68.9259 185.39 570.707
1009 0 78.345 13.0959 1026 70.5507 185.809 570.291
1010 0 82.4874 13.7476 1134 68.4735 185.605 568.697
1011 0 83.5311 13.1328 1097 71.484 185.886 567.058
1012 0 86.6378 14.0008 1213 69.0948 185.867 565.815
1013 1 46.3426 10.5518 489 71.002 186.28 585.986
1014 0 46.2972 10.627 492 72.3598 186.264 584.591
1015 0 50.4096 11.0693 558 70.3692 185.901 583.435
1016 0 50.2531 11.7406 590 69.9169 185.739 581.949
1017 0 53.1669 12.094 643 68.7714 185.949 581.876
1018 0 55.192 12.5199 691 67.7178 185.909 581.22
1019 0 55.2018 12.6807 700 68.62 185.751 580.341
1020 0 57.2168 12.5662 719 68.8136 185.78 578.663
1021 0 59.2113 12.6327 748 67.8783 185.575 577.73
1022 0 59.1772 12.9273 765 68.4824 186.159 577.175
1023 0 60.2209 12.3877 746 69.3995 186.284 577.818
1024 0 63.1668 13.2031 834 67.8357 185.755 574.811
1025 0 65.2798 13.557 885 66.7107 186.107 574.214
1026 0 66.1554 12.7276 842 68.3385 185.948 574.162
1027 0 68.2123 12.7396 869 68.0875 186.272 571.919
1028 0 70.1609 12.7421 894 69.1197 186.296 571.068
1029 0 74.1758 12.4569 924 68.2478 186.058 568.087
1030 0 76.1394 13.3571 1017 66.7778 186.422 567.081
1031 0 78.1798 12.8166 1002 68.1148 186.775 567.289
1032 1 40.0163 10.3708 415 65.8964 187.369 586.147
1033 0 42.0221 10.4945 441 65.7007 187.875 584.342
1034 0 44.0295 10.8564 478 64.9749 187.851 584.331
1035 0 43.0342 10.5265 453 66.7152 187.79 582.629
1036 0 46.0211 12.1683 560 64.2679 188.045 581.262
1037 0 46.0862 12.0427 555 65.2937 187.173 581.566
1038 0 47.1711 11.5325 544 66.2132 187.099 579.305
1039 0 49.1114 11.5045 565 66.2956 187.561 578.973
1040 0 52.181 11.6134 606 65.2129 188.056 578.289
1041 0 53.1221 12.4054 659 64.2382 188.499 577.942
1042 0 52.1543 11.5427 602 66.1545 188.36 575.437
1043 0 56.1414 12.2904 690 64.6188 188.848 575.336
1044 0 57.2235 12.1279 694 65.1945 188.772 574.945
1045 0 60.1899 13.042 785 63.4306 188.676 573.145
1046 0 60.1223 12.7241 765 63.0967 188.74 573.894
1047 0 61.0975 11.2116 685 65.3664 189.212 572.296
1048 0 64.1429 12.098 776 64.2448 189.061 572.611
1049 0 66.2062 12.1892 807 64.3556 188.968 571.066
1050 0 68.1298 12.667 863 63.5191 188.917 569.647
1051 0 71.0991 12.7146 904 63.3009 189.301 570.395
1052 1 35.0483 10.3286 362 64.9337 190.365 585.746
1053 0 38.0894 11.1054 423 63.9504 190.291 584.903
1054 0 38.1096 9.44644 360 65.3694 190.519 585.617
1055 0 40.1518 10.3607 416 64.2837 190.603 584.906
1056 0 42.2353 11.9331 504 62.5913 190.04 583.165
1057 0 45.1906 12.0158 543 63.0184 189.934 583.464
1058 0 44.2862 12.3289 546 63.7912 189.767 583.288
1059 0 45.2442 12.9077 584 63.3356 189.531 582.473
1060 0 46.3105 12.6537 586 64.4232 189.894 582.676
1061 0 48.2484 12.4771 602 64.3422 190.188 580.915
1062 0 51.2528 13.131 673 62.6627 189.786 580.799
1063 0 51.3077 12.5517 644 64.278 189.202 579.287
1064 0 52.2327 13.3633 698 63.6877 189.365 578.417
1065 0 53.255 12.8814 686 64.691 189.478 578.601
1066 0 57.261 13.8838 795 62.2943 189.223 577.546
1067 0 58.3869 12.794 747 64.3963 188.963 576.548
1068 0 59.2168 14.0332 831 62.9723 188.884 575.085
1069 0 61.2064 12.5967 771 64.7678 188.979 574.917
1070 0 65.2786 13.4041 875 63.5154 188.501 573.382
1071 0 66.2516 13.494 894 64.0884 188.569 572.36
1072 0 67.3786 13.016 877 65.8005 188.575 571.7
1073 0 70.2263 13.9834 982 64.6864 188.679 570.74
1074 0 72.2371 13.9817 1010 65.0376 188.635 569.477
1075 0 74.2346 14.1578 1051 64.8735 188.398 568.908
1076 1 39.2473 11.109 436 66.7661 189.089 586.321
1077 0 40.1919 11.47 461 67.6659 188.794 584.638
1078 0 43.1679 11.3742 491 67.3136 188.629 584.825
1079 0 43.0558 12.4025 534 66.6835 188.616 582.655
1080 0 43.0455 11.5459 497 68.326 188.294 582.565
1081 0 44.0648 13.2078 582 66.2474 188.223 580.698
1082 0 46.1199 13.0096 600 67.0267 187.73 582.03
1083 0 49.0841 12.774 627 66.6316 187.976 580.935
1084 0 49.1738 13.3608 657 67.0898 187.845 580.301
1085 0 50.0636 13.5228 677 67.3826 187.456 579.968
1086 0 52.1339 13.3119 694 67.2853 187.458 578.663
1087 0 54.0246 13.0496 705 67.3887 187.678 579.614
1088 0 54.1656 13.9387 755 67.1179 187.286 577.841
1089 0 57.0619 13.5993 776 67.2771 187.29 577.602
1090 0 57.1065 14.2541 814 67.0246 187.563 576.101
1091 0 60.0598 14.8519 892 65.5202 187.772 575.939
1092 0 62.1151 12.4607 774 69.624 187.549 574.451
1093 0 65.1758 13.4406 876 67.6963 187.371 573.288
1094 0 67.0969 14.5759 978 66.2249 187.324 570.548
1095 0 70.0976 14.1374 991 66.4723 187.501 571.069
1096 0 71.1944 13.9337 992 67.5625 187.032 570.292
1097 0 74.1147 14.2617 1057 67.1656 187.112 569.237
1098 0 77.0543 13.9642 1076 68.0381 186.716 568.057
1099 0 78.1711 14.174 1108 68.2392 186.867 567.222
1100 0 81.1079 14.3143 1161 68.3368 186.762 563.661
1101 0 82.1027 14.0556 1154 69.5962 187.067 563.776
1102 1 45.109 11.9932 541 70.6784 187.403 583.518
1103 0 43.1157 11.3184 488 71.6947 187.174 583.807
1104 0 45.1863 11.2645 509 73.0354 186.745 581.686
1105 0 46.1873 12.0379 556 71.786 186.845 582.124
1106 0 49.1053 12.3612 607 71.3707 186.262 581.941
1107 0 48.2055 12.1978 588 72.5153 186.626 581.252
1108 0 54.14 13.6129 737 67.8345 186.711 580.939
1109 0 52.1466 13.3278 695 70.5007 186.217 580.54
1110 0 55.1045 13.4653 742 69.6806 186.166 578.581
1111 0 56.0512 13.3806 750 70.3733 185.739 577.289
1112 0 56.1165 12.8126 719 72.1711 186.163 578.175
1113 0 59.1614 14.0294 830 69.9614 186.005 576.269
1114 0 62.0616 13.6477 847 69.2739 185.719 576.006
1115 0 63.1237 14.0201 885 69.1379 185.92 574.373
1116 0 64.12 13.3656 857 70.9545 185.525 574.303
1117 0 68.0453 13.7261 934 69.9722 185.126 572.636
1118 0 68.1813 13.3174 908 71.4108 185.415 571.629
1119 0 71.1094 13.205 939 72.2673 185.234 569.223
1120 0 74.0694 14.2839 1058 69.8819 185.04 569.228
1121 0 78.0876 14.0867 1100 70.4882 185.121 568.081
1122 0 79.1298 13.6611 1081 71.6883 184.973 567.179
1123 0 82.1044 14.1405 1161 70.5039 184.383 565.302
1124 0 84.1211 13.1715 1108 71.7464 184.957 562.932
1125 0 88.2376 14.5063 1280 68.9508 184.882 563.333
1126 0 92.1815 14.005 1291 70.9589 185.506 560.782
1127 1 48.0388 9.92947 477 73.6562 185.646 583.981
1128 0 51.0854 11.5884 592 71.9611 185.525 581.201
1129 0 54.0199 12.9952 702 69.2977 185.298 582.218
1130 0 53.0985 12.7311 676 70.8639 185.491 580.654
1131 0 56.0885 12.0702 677 71.6809 186.006 580.161
1132 0 58.167 12.8939 750 70.5813 185.376 579.689
1133 0 59.1034 12.7742 755 71.0662 185.811 579.437
1134 0 62.2394 12.709 791 71.5183 185.871 576.823
1135 0 63.3228 13.8339 876 70.3904 185.869 574.951
1136 0 65.0892 13.7657 896 70.4185 186.032 576.883
1137 0 67.0943 13.3991 899 71.822 185.472 573.986
1138 0 71.1805 13.529 963 70.8557 185.463 573.191
1139 0 72.179 14.0068 1011 71.0218 185.924 570.861
1140 0 75.1831 13.8196 1039 71.1886 185.989 568.525
1141 0 78.1467 13.8713 1084 72.7371 186.22 568.939
1142 0 81.1009 14.3525 1164 72.0859 186.189 566.946
1143 0 84.1217 14.2175 1196 72.6931 186.625 566.115
1144 0 88.169 13.8257 1219 73.475 186.546 565.078
1145 0 87.1565 13.7683 1200 74.8367 186.819 563.461
1146 0 91.241 14.2151 1297 74.1064 186.54 561.284
1147 0 95.2699 14.0128 1335 74.3423 186.569 561.315
1148 1 51.1392 11.6349 595 75.9613 187.751 581.844
1149 0 52.095 11.8246 616 76.6526 187.644 581.2
1150 0 54.2801 12.6934 689 74.7939 187.827 581.221
1151 0 54.1418 13.0214 705 75.0809 187.841 579.772
1152 0 56.1916 12.8667 723 75.4426 187.963 578.387
1153 0 59.13 12.7177 752 75.2314 187.769 577.145
1154 0 59.1587 13.2187 782 75.3913 188.13 576.797
1155 0 63.13 13.892 877 73.5918 188.384 575.149
1156 0 64.0918 13.7927 884 74.4672 188.981 573.238
1157 0 65.1017 13.8552 902 74.7772 188.933 572.926
1158 0 67.235 13.4008 901 75.727 189.315 570.102
1159 0 69.3462 13.4975 936 75.7553 189.693 570.751
1160 0 74.1596 14.0777 1044 74.567 189.948 569.328
1161 0 74.2091 13.7449 1020 76.5569 190.444 568.733
1162 0 78.2237 14.3818 1125 74.792 190.575 567.188
1163 0 80.1807 14.4424 1158 75.1839 190.559 565.946
1164 0 81.4626 13.9819 1139 75.9982 190.273 564.607
1165 0 87.1509 13.9528 1216 75.3067 190.561 563.543
1166 1 41.1734 11.7309 483 80.0518 190.65 583.905
1167 0 44.0952 11.5205 508 78.8898 191.102 584.575
1168 0 46.0398 13.1842 607 77.6689 191.086 581.618
1169 0 46.0787 12.9127 595 77.7731 190.992 581.16
1170 0 49.1783 13.7256 675 76.0696 190.686 580.17
1171 0 48.1799 14.0515 677 76.5451 190.632 579.638
1172 0 50.1825 14.2081 713 75.8485 190.411 579.896
1173 0 51.1745 13.5614 694 77.5029 190.641 578.454
1174 0 54.0823 13.5534 733 76.7449 191.124 578.764
1175 0 56.3033 13.7825 776 76.2719 190.474 576.544
1176 0 58.2672 13.644 795 76.2981 190.654 575.064
1177 0 59.2173 14.0162 830 75.7494 190.676 575.088
1178 0 62.1596 14.318 890 74.9022 190.39 573.889
1179 0 65.6041 13.7187 900 75.8989 190.332 571.161
1180 0 67.2117 14.0452 944 75.3114 190.539 571.36
1181 0 68.2712 14.3252 978 75.4346 190.075 570.265
1182 0 72.1491 13.2642 957 77.3145 190.742 568.347
1183 1 35.1331 13.4061 471 78.2611 190.471 584.34
1184 0 36.1702 13.4365 486 78.3519 190.348 585.13
1185 0 39.2332 13.6109 534 78.324 190.208 583.451
1186 0 40.2912 13.5762 547 78.3327 190.596 583.212
1187 0 42.2939 13.8554 586 78.5307 190.7 581.758
1188 0 41.3543 14.6055 604 78.4619 190.394 582.533
1189 0 44.348 13.7548 610 79.8836 189.88 581.197
1190 0 44.3581 14.3153 635 79.8079 190.272 580.014
1191 0 45.2663 14.8455 672 78.7857 189.979 580.735
1192 0 47.3332 14.7465 698 79.0788 189.973 579.269
1193 0 51.4041 14.8237 762 77.101 190.012 580.281
1194 0 49.5115 14.8854 737 79.4301 189.677 579.874
1195 0 50.2529 14.5265 730 80.9397 189.688 577.119
1196 0 53.5049 14.5968 781 80.0704 189.601 578.457
1197 0 55.5464 15.4826 860 78.2756 189.572 578.112
1198 0 57.5928 15.054 867 79.6113 189.623 577.073
1199 0 59.2303 15.0599 892 80.1054 189.025 576.404
1200 0 60.3372 14.7836 892 81.3834 189.527 575.576
1201 0 62.5285 15.417 964 80.6255 189.487 573.592
1202 0 64.5816 14.772 954 82.3176 189.113 573.949
1203 0 66.424 15.5215 1031 81.8836 189.168 572.828
1204 0 67.6493 14.8708 1006 84.1362 188.599 572.636
1205 0 70.4536 15.8544 1117 82.7001 188.587 570.784
1206 0 71.4057 14.5787 1041 86.3276 188.828 570.015
1207 1 35.376 12.8053 453 91.1722 188.965 587.422
1208 0 37.5463 12.5978 473 91.7822 188.607 586.554
1209 0 37.5215 12.9259 485 89.8948 188.384 586.565
1210 0 38.378 13.2889 510 91.0078 188.422 585.567
1211 0 40.3341 14.4047 581 89.0688 188.102 585.37
1212 0 42.3467 13.6492 578 89.7803 187.908 585.042
1213 0 44.3005 14.1308 626 89.0863 188.193 584.417
1214 0 45.4136 14.1808 644 89.1801 188.12 584.769
1215 0 44.28 14.9052 660 90.2136 188.055 583.5
1216 0 47.4986 13.8951 660 91.4576 187.511 582.929
1217 0 47.3295 15.4661 732 89.1557 187.638 582.68
1218 0 50.2624 14.8819 748 89.2995 187.532 582.753
1219 0 51.3477 14.9568 768 90.1341 187.21 581.909
1220 0 53.3584 15.3678 820 88.178 187.14 581.441
1221 0 54.2436 14.6561 795 90.3799 187.293 579.65
1222 0 57.3142 15.1969 871 88.6521 187.075 578.946
1223 0 57.3242 15.2815 876 89.1084 186.452 578.492
1224 0 61.3766 14.8265 910 89.0319 186.347 577.936
1225 0 62.3157 14.7314 918 89.5142 186.548 576.838
1226 0 65.3014 14.1345 923 90.8689 186.54 575.276
1227 0 69.4969 15.0079 1043 88.6424 186.278 573.084
1228 1 36.408 11.5084 419 94.685 187.084 588.554
1229 0 35.3254 12.4839 441 95.0975 186.646 588.014
1230 0 38.3455 13.6391 523 92.0153 186.744 587.141
1231 0 38.2991 14.1779 543 91.0368 186.969 587.055
1232 0 40.3272 13.0929 528 92.6402 186.504 586.434
1233 0 40.185 14.1346 568 92.0123 186.72 585.711
1234 0 42.2903 14.4005 609 90.5567 186.737 586.148
1235 0 43.4334 13.9063 604 92.2997 186.937 586.818
1236 0 43.4171 14.8559 645 91.1659 187.033 585.859
1237 0 44.272 14.5012 642 91.7352 186.871 585.597
1238 0 45.2143 14.1769 641 92.5772 186.488 585.222
1239 0 47.3175 15.0684 713 89.9495 185.958 584.7
1240 0 48.269 14.7921 714 91.4342 186.31 584.19
1241 0 51.0964 14.6977 751 89.9854 186.123 581.301
1242 0 52.2737 14.4815 757 90.004 186.132 581.41
1243 0 52.1618 14.8576 775 90.24 186.169 582.063
1244 0 54.3093 14.8409 806 90.1117 186.15 581.365
1245 0 56.2956 14.7436 830 90.0988 186.229 580.037
1246 0 58.2003 14.5016 844 90.8709 186.262 578.706
1247 0 59.1927 15.0018 888 90.3502 186.285 576.393
1248 0 57.1883 14.1288 808 96.3403 186.254 576.181
1249 0 60.3129 15.0548 908 93.5385 186.379 575.225
1250 0 65.3412 15.0441 983 91.9471 186.316 573.823
1251 0 67.2684 15.0145 1010 92.0069 186.17 572.777
1252 0 68.4396 15.5027 1061 91.3252 186.271 570.472
1253 0 69.3459 14.6079 1013 93.8075 186.368 570.636
1254 0 73.2043 15.1084 1106 92.0823 186.578 569.722
1255 0 75.166 14.4879 1089 93.0202 186.287 567.413
1256 0 78.2689 15.1401 1185 90.8051 186.034 566.828
1257 0 83.1526 15.2851 1271 89.3163 185.978 565.428
1258 0 83.1575 14.2982 1189 93.1447 186.378 561.952
1259 0 85.2459 14.1121 1203 92.3924 186.819 562.611
1260 0 90.34 15.3531 1387 88.3345 186.435 562.004
1261 0 92.2005 15.3036 1411 88.8179 186.422 560.935
1262 0 95.3025 14.6796 1399 89.5625 186.628 557.818
1263 0 98.1078 15.6461 1535 87.344 187.034 555.993
1264 0 101.25 15.3285 1552 87.5947 187.31 554.86
1265 1 55.1064 10.9062 601 89.7238 188.14 577.815
1266 0 57.1103 12.1694 695 87.5698 188.012 577.033
1267 0 57.1478 12.3714 707 86.7581 187.813 576.057
1268 0 60.1384 13.3359 802 85.1222 188.004 574.212
1269 0 64.0388 14.0696 901 82.3041 188.25 574.364
1270 0 64.1266 13.1459 843 84.7355 188.839 574.225
1271 0 65.0631 13.9403 907 84.6086 188.969 571.627
1272 0 68.1092 13.6839 932 83.6373 189.512 571.555
1273 0 68.0858 13.6005 926 85.1857 189.779 569.09
1274 0 73.0934 14.2557 1042 83.2054 189.88 567.512
1275 0 75.1303 13.5498 1018 84.3851 190.1 566.432
1276 0 77.1015 13.5665 1046 84.3996 190.203 565.302
1277 0 79.14 13.394 1060 83.8151 190.332 564.875
1278 0 82.1367 13.4532 1105 83.8009 190.744 562.512
1279 0 86.0979 13.4847 1161 83.2584 191.167 562.04
1280 0 88.1006 13.0079 1146 84.4913 191.016 559.614
1281 0 91.1385 13.7483 1253 82.9401 190.856 558.168
1282 0 93.1526 13.7946 1285 82.5253 191.028 556.74
1283 1 53.1798 10.944 582 80.2491 191.555 577.99
1284 0 55.237 9.92088 548 81.3011 191.896 579.206
1285 0 55.1923 11.2335 620 80.5645 191.177 576.497
1286 0 55.1923 11.161 616 158.252 190.185 576.615
1287 0 60.2738 11.1159 670 79.2134 191.828 574.379
1288 0 63.2031 12.3095 778 77.1979 191.841 572.835
1289 0 65.1836 11.7975 769 77.9532 191.913 571.384
1290 0 68.205 11.5387 787 77.6595 191.981 570.273
1291 0 70.176 12.0411 845 76.8296 191.499 568.886
1292 0 74.2468 12.9029 958 74.4311 191.557 567.987
1293 0 75.266 11.3996 858 77.4371 191.331 566.88
1294 0 76.1752 11.5654 881 76.8751 191.751 565.678
1295 0 81.2671 11.5299 937 77.4109 191.182 563.766
1296 1 44.0712 10.3015 454 74.5727 192.214 582.793
1297 0 46.0256 11.0156 507 73.3136 192.018 582.183
1298 0 46.1328 10.9467 505 73.8891 191.509 580.65
1299 0 48.2174 11.0334 532 74.0414 191.274 579.336
1300 0 50.1344 11.6287 583 72.6141 191.223 580.237
1301 0 49.1273 11.8264 581 73.0602 190.528 579.1
1302 0 51.2336 11.4768 588 73.5272 190.872 579.274
1303 0 53.2061 11.6152 618 72.9984 190.544 576.722
1304 0 55.2157 11.6633 644 72.4845 190.404 576.873
1305 0 55.1667 11.9456 659 72.563 190.385 576.648
1306 0 57.1994 11.0141 630 74.0508 190.289 576.189
1307 0 59.1465 10.9051 645 74.1907 190.091 575.375
1308 0 62.1995 12.1544 756 72.3876 189.966 573.909
1309 0 60.3072 11.1927 675 74.8326 189.73 573.219
1310 0 63.2897 11.7713 745 73.4846 189.69 572.009
1311 0 66.1695 11.6972 774 75.2132 189.326 571.366
1312 0 68.1828 12.2318 834 73.7098 189.62 571.02
1313 0 69.2466 11.7695 815 75.3337 188.733 569.791
1314 0 72.263 12.33 891 73.9697 188.493 568.199
1315 0 74.199 12.0756 896 73.7935 188.452 568.714
1316 0 75.3076 12.1103 912 74.0548 187.843 569.287
1317 0 77.3772 12.3421 955 74.4147 187.933 568.024
1318 0 82.4682 12.8292 1058 72.6172 187.683 565.63
1319 0 84.297 12.2187 1030 74.3748 186.694 565.892
1320 1 45.4 10.3524 470 76.3277 187.111 583.977
1321 0 48.2782 10.8952 526 73.7319 187.574 583.551
1322 0 52.3322 13.0703 684 68.4211 187.077 581.575
1323 0 51.2819 12.3435 633 71.5529 187.188 581.403
1324 0 53.3985 13.1839 704 68.9616 186.96 579.331
1325 0 54.1846 12.1252 657 71.4307 187.292 578.374
1326 0 57.2268 13.1756 754 69.4894 186.545 578.296
1327 0 57.2797 13.2159 757 70.9908 186.799 578.24
1328 0 59.0992 12.8259 758 70.5818 187.418 579.131
1329 0 61.099 14.0264 857 68.8028 187.239 579.197
1330 0 60.0935 12.0479 724 74.1975 187.558 576.456
1331 0 65.1112 12.9317 842 71.8171 186.947 576.653
1332 0 66.2029 13.8211 915 69.7377 186.468 575.543
1333 0 65.3068 12.9389 845 72.2083 187.036 575.828
1334 0 66.1844 12.4803 826 76.1295 186.938 574.672
1335 0 67.2687 12.517 842 75.7494 187.061 573.036
1336 0 70.2542 13.3657 939 73.1619 186.242 571.581
1337 0 72.3012 12.6969 918 74.3802 186.268 570.61
1338 0 74.3098 13.3226 990 73.099 186.336 570.47
1339 1 45.2216 12.3392 558 71.5179 186.247 585.129
1340 0 42.1958 11.3755 480 73.7021 186.269 585.867
1341 0 46.2953 11.729 543 72.4622 186.208 585.326
1342 0 48.2675 13.4045 647 69.3493 186.488 585.246
1343 0 49.1629 11.6348 572 73.0367 186.219 583.797
1344 0 51.1437 12.592 644 73.014 185.637 582.402
1345 0 53.2521 13.145 700 72.1114 184.846 581.36
1346 0 54.2249 13.61 738 70.9743 185.24 581.446
1347 0 55.1564 13.1263 724 72.2251 184.924 580.858
1348 0 54.1092 12.715 688 74.0058 184.901 580.327
1349 0 58.1881 13.5079 786 71.6489 184.547 580.99
1350 0 58.1527 14.032 816 71.5625 184.33 578.778
1351 0 60.0949 14.4272 867 69.9412 184.136 578.021
1352 0 61.2181 13.4111 821 72.7442 184.401 577.234
1353 0 72.2913 17.5125 1266 60.1485 183.832 571.476
1354 0 75.1753 14.8453 1116 64.7231 183.918 571.498
1355 0 77.224 15.5781 1203 63.1895 184.013 570.995
1356 0 82.2993 16.9868 1398 59.6216 183.662 567.86
1357 0 86.2959 14.8211 1279 63.6919 183.436 567.38
1358 0 80.2002 14.9875 1202 65.812 183.553 563.434
1359 0 83.4017 17.3618 1448 60.8467 183.276 556.68
1360 0 84.2405 17.2482 1453 63.2319 183.52 563.708
1361 0 83.1217 16.554 1376 65.7347 183.615 561.823
1362 0 84.3276 16.0683 1355 67.4827 183.882 562.381
1363 1 41.0802 12.1226 498 76.5382 183.681 583.088
1364 0 44.2284 12.1415 537 74.9572 183.819 584.069
1365 0 45.1356 12.4957 564 74.7074 183.775 583.746
1366 0 46.2064 12.8986 596 74.2668 183.928 582.851
1367 0 48.2806 12.9037 623 75.3371 183.716 581.594
1368 0 49.2286 14.4631 712 71.6559 183.083 582.272
1369 0 51.2885 14.5842 748 72.5548 182.872 581.628
1370 0 51.1581 14.6213 748 73.4679 182.833 580.499
1371 0 55.2358 15.6601 865 70.6197 183.398 580.418
1372 0 56.3118 14.2599 803 73.67 182.798 578.25
1373 0 56.2493 14.578 820 74.3671 182.889 577.34
1374 0 58.3032 13.8929 810 75.158 183.384 578.888
1375 0 59.1969 15.2542 903 73.9347 183.423 575.729
1376 0 61.156 14.5366 889 75.1586 183.754 575.888
1377 0 61.321 14.2366 873 77.0206 183.771 576.852
1378 0 64.4038 15.0302 968 74.1157 183.445 576.55
1379 0 67.266 15.2826 1028 74.2986 184.08 573.894
1380 0 69.5222 15.1462 1053 74.1918 184.113 574.077
1381 0 69.2308 14.7767 1023 76.2278 184.022 572.522
1382 0 73.3357 15.5586 1141 71.723 184.193 573.777
1383 0 74.338 15.8465 1178 71.0492 184.313 574.563
1384 0 76.2479 15.6988 1197 72.7694 183.925 571.247
1385 0 77.2911 14.5812 1127 77.197 184.308 570.012
1386 0 83.3626 15.0427 1254 75.252 184.443 567.299
1387 0 86.2536 14.9327 1288 75.3835 184.405 566.79
1388 0 88.387 15.285 1351 75.0851 184.818 566.159
1389 0 91.4561 14.9908 1371 75.2502 184.787 565.823
1390 1 46.3336 12.3668 573 79.1623 185.195 585.389
1391 0 48.3837 12.8969 624 78.5208 184.933 584.872
1392 0 50.3031 14.2735 718 76.9735 185.104 582.896
1393 0 52.2291 13.9769 730 77.6904 185.415 581.767
1394 0 55.1796 13.8094 762 76.8097 185.65 581.513
1395 0 57.1944 14.984 857 75.8285 185.887 580.617
1396 0 58.3459 15.2196 888 75.1847 186.196 579.422
1397 0 61.2742 15.1614 929 74.084 185.964 579.219
1398 0 62.236 14.9913 933 74.9035 186.305 577.37
1399 0 64.1765 15.0834 968 74.688 186.719 577.142
1400 0 66.3571 14.4521 959 75.6361 186.924 574.872
1401 0 69.4282 15.354 1066 73.5535 187.117 574.821
1402 0 72.2143 15.1494 1094 73.2706 187.561 573.283
1403 0 75.172 15.0322 1130 73.4239 187.482 572.839
1404 0 75.4113 15.6741 1182 73.7453 188.041 570.103
1405 0 77.2479 15.625 1207 73.4598 188.108 569.342
1406 0 80.2131 15.0599 1208 74.0091 188.588 567.315
1407 0 84.2827 15.4006 1298 73.3213 188.929 567.934
1408 0 85.275 15.2683 1302 74.2158 189.08 566.307
1409 0 87.3132 14.511 1267 76.0813 189.043 563.122
1410 0 91.2134 15.1074 1378 74.3266 189.277 562.423
1411 0 95.214 16.1216 1535 72.0436 189.516 560.079
1412 0 98.278 16.4838 1620 71.5222 189.683 559.985
1413 0 98.4453 15.3486 1511 73.9762 189.794 558.291
1414 0 103.316 14.896 1539 73.9578 189.727 558.177
1415 0 107.301 15.0325 1613 73.6057 189.624 555.086
1416 1 57.1331 13.7048 783 75.0434 189.722 578.198
1417 0 58.1734 14.113 821 73.5006 190.374 576.314
1418 0 59.1875 13.4488 796 74.5804 190.339 575.869
1419 0 64.2313 15.4442 992 70.505 190.124 574.727
1420 0 65.15 14.6124 952 71.979 190.062 573.93
1421 0 68.262 15.3819 1050 70.2105 190.263 572.272
1422 0 71.3033 14.3612 1024 71.7793 190.4 571.821
1423 0 71.1338 14.1845 1009 72.442 190.278 570.667
1424 0 75.156 13.8113 1038 73.1792 190.107 568.351
1425 0 77.1113 14.4726 1116 71.8262 190.105 567.389
1426 0 78.3681 14.6616 1149 72.1514 190.135 566.115
1427 0 83.1772 14.6434 1218 71.3407 189.542 564.349
1428 0 84.3705 15.1356 1277 70.4769 189.872 564.334
1429 0 88.2357 15.0846 1331 70.2757 189.45 563.446
1430 0 90.236 14.8389 1339 71.3323 189.697 559.971
1431 0 93.3314 14.5396 1357 71.2675 189.877 559.762
1432 0 95.1807 15.2342 1450 70.8814 190.189 557.643
1433 0 100.176 16.0817 1611 68.9795 189.729 559.33
1434 0 101.268 15.1085 1530 72.6288 190.027 554.843
1435 0 104.178 15.5599 1621 71.575 189.871 554.924
1436 0 107.175 15.1154 1620 72.8654 189.583 551.914
1437 0 113.144 14.919 1688 73.2222 189.742 548.129
1438 1 64.0561 11.9114 763 75.0092 189.993 573.729
1439 0 67.0543 12.5272 840 74.244 189.717 571.04
1440 0 69.1059 13.6457 943 71.3425 189.636 569.761
1441 0 69.1964 13.281 919 72.2873 189.737 569.884
1442 0 74.1388 13.9198 1032 70.1366 189.674 567.729
1443 0 76.2253 13.67 1042 70.5336 188.902 565.879
1444 0 79.1449 14.3155 1133 68.8138 189.082 565.605
1445 0 83.178 14.5591 1211 67.9232 189.15 565.472
1446 0 86.2946 14.3926 1242 68.1715 189.66 562.191
1447 0 88.1751 14.4032 1270 67.8693 188.917 559.785
1448 0 92.4771 14.0575 1300 68.1254 189.242 558.212
1449 0 95.2323 14.0394 1337 67.9783 189.14 558.566
1450 0 96.3741 13.8211 1332 68.2793 188.567 557.391
1451 0 100.408 14.3813 1444 67.1565 188.675 555.612
1452 0 104.427 14.6897 1534 66.9628 188.009 553.942
1453 0 107.365 14.1853 1523 67.6422 187.874 551.065
1454 1 59.339 11.4764 681 67.5448 188.279 577.181
1455 0 64.0926 11.3898 730 67.5699 187.429 574.601
1456 0 64.0926 11.3118 725 165.047 186.429 574.629
1457 0 67.1806 12.6227 848 66.8467 186.537 573.282
1458 0 71.1436 13.3252 948 65.6772 186.697 571.347
1459 0 73.1702 14.4321 1056 64.0786 186.933 572.382
1460 0 75.3226 13.6214 1026 65.8801 186.478 570.51
1461 0 78.2396 13.8549 1084 65.214 185.993 569.977
1462 0 80.1468 14.1989 1138 64.0967 186.42 568.164
1463 0 82.1849 13.5061 1110 66.1225 186.642 565.884
1464 0 86.2082 13.5718 1170 65.906 186.6 564.274
1465 0 88.2292 13.0796 1154 66.9749 186.536 563.795
1466 0 90.3178 12.7218 1149 67.5161 186.642 561.587
1467 0 94.253 13.8139 1302 65.6912 186.628 561.594
1468 0 98.2272 14.3545 1410 64.7028 186.449 559.143
1469 1 51.2043 11.1319 570 67.6246 186.305 580.314
1470 0 55.163 11.5113 635 66.9197 186.186 579.068
1471 0 57.2578 12.1206 694 65.5101 185.686 579.112
1472 0 58.2706 12.1502 708 65.8136 185.129 577.816
1473 0 61.1316 13.1029 801 64.598 185.149 578.248
1474 0 62.1609 13.1111 815 65.9202 185.643 577.194
1475 0 64.2087 13.752 883 64.9185 185.151 576.373
1476 0 64.359 12.7721 822 66.8589 185.234 574.839
1477 0 69.3481 13.7855 956 64.0293 185.093 573.29
1478 0 72.3171 13.7588 995 63.5005 184.998 573.241
1479 0 73.3965 13.4203 985 64.7025 184.849 570.354
1480 0 75.2804 14.6917 1106 63.2586 184.5 571.24
1481 0 77.3166 13.5029 1044 65.7979 184.117 568.26
1482 0 78.2851 12.9016 1010 67.6574 184.574 567.294
1483 0 86.2843 14.1509 1221 64.5356 184.595 567.201
1484 0 87.4235 14.6986 1285 64.365 184.808 565.824
1485 0 87.4146 13.3959 1171 67.2801 184.293 563.607
1486 0 92.3925 13.0638 1207 66.7854 184.329 563.244
1487 0 96.3798 13.2185 1274 67.2017 184.374 559.856
1488 1 55.2029 10.706 591 68.709 184.381 580.569
1489 0 58.1527 11.6246 676 67.0932 184.324 580.355
1490 0 55.1028 11.3606 626 69.4952 184.42 579.329
1491 0 59.1981 11.7571 696 67.9023 184.533 577.897
1492 0 60.2622 13.0098 784 67.4209 184.195 575.463
1493 0 63.1538 13.38 845 66.1858 184.38 575.051
1494 0 64.2985 13.4995 868 66.3433 184.485 574.611
1495 0 67.1777 12.8168 861 67.3531 184.926 573.667
1496 0 69.2036 12.7739 884 68.0622 185.148 572.631
1497 0 72.1941 14.2809 1031 64.9961 185.165 571.146
1498 0 75.4251 12.7411 961 68.3309 185.281 572.059
1499 0 77.204 13.3672 1032 67.7364 185.324 569.652
1500 0 79.2659 13.4358 1065 68.5371 185.669 568.686
1501 0 81.1857 13.8079 1121 69.1249 185.562 565.962
1502 0 82.3021 12.928 1064 70.8515 186.125 564.976
1503 0 89.2688 14.2939 1276 67.7563 186.321 564.071
1504 0 90.1833 13.273 1197 70.0376 185.984 562.896
1505 0 90.1833 13.3506 1204 164.957 184.98 562.958
1506 0 97.1746 14.9216 1450 67.3428 185.883 558.91
1507 0 98.2875 14.5899 1434 68.2266 186.319 558.32
1508 0 102.431 14.3608 1471 67.9198 186.584 557.494
1509 0 105.235 14.3393 1509 67.6243 186.474 554.021
1510 1 59.2006 10.6249 629 68.7218 187.21 577.955
1511 0 57.2154 10.609 607 69.1153 188.222 577.562
1512 0 61.2468 12.0006 735 67.2204 188.122 577.094
1513 0 64.2083 12.5062 803 66.2715 187.984 577.131
1514 0 66.4742 13.0276 866 66.2344 188.053 575.245
1515 0 65.2912 12.697 829 67.5018 188.144 575.004
1516 0 68.1881 12.6708 864 67.8738 188.334 572.648
1517 0 71.14 13.5086 961 65.9729 188.518 571.104
1518 0 72.2231 12.1568 878 68.0547 188.789 569.449
1519 0 73.1809 12.8995 944 67.0286 188.89 569.426
1520 0 75.1876 13.4464 1011 66.271 188.904 569.642
1521 0 77.1708 13.049 1007 67.2036 189.425 566.595
1522 0 80.2738 12.8685 1033 66.8819 189.62 566.836
1523 0 81.2467 12.9605 1053 66.9687 189.604 563.818
1524 0 86.2897 13.7792 1189 64.5618 189.927 563.92
1525 0 87.3144 12.6783 1107 66.5438 190.126 562.314
1526 0 88.2247 13.0689 1153 65.9636 189.922 559.637
1527 0 92.3115 13.1511 1214 64.7727 190.438 560.684
1528 0 95.2827 13.4022 1277 64.6069 190.588 559.899
1529 0 99.2938 14.301 1420 63.3106 190.464 558.07
1530 0 101.518 14.0369 1425 63.6604 190.686 556.018
1531 0 105.307 14.6429 1542 62.7043 190.213 555.758
1532 0 107.326 13.827 1484 65.6408 190.317 552
1533 0 110.311 13.9514 1539 65.5296 190.133 549.588
1534 0 113.232 13.8741 1571 65.7467 190.064 548.474
1535 0 116.399 14.0895 1640 65.5909 190.543 546.03
1536 0 118.367 13.906 1646 66.0887 190.275 545.965
1537 0 123.308 13.3487 1646 67.2837 190.042 543.157
1538 0 128.321 13.2714 1703 66.8303 189.846 543.432
1539 0 131.321 14.1029 1852 65.9806 190.139 537.585
1540 0 136.534 14.2163 1941 65.3431 189.97 537.303
1541 0 140.241 13.7977 1935 66.2925 189.702 531.824
1542 0 145.365 13.9374 2026 65.578 189.962 530.976
1543 1 87.2952 11.822 1032 64.7016 190.107 561.352
1544 0 89.3153 11.4874 1026 65.6803 189.958 557.736
1545 0 93.4747 12.1102 1132 64.3905 190.386 556.42
1546 0 95.382 12.5705 1199 63.1651 190.294 556.07
1547 0 98.3833 12.492 1229 63.3678 190.033 556.149
1548 0 100.254 12.5481 1258 63.6041 189.917 553.7
1549 0 106.206 12.3251 1309 63.3338 189.811 550.838
1550 0 108.459 12.6499 1372 63.2063 189.469 549.674
1551 0 112.387 13.0977 1472 62.3967 189.779 547.082
1552 0 116.355 12.9861 1511 62.4997 189.233 545.691
1553 0 120.309 14.255 1715 60.8962 189.113 543.703
1554 0 120.283 12.72 1530 63.6497 188.982 541.459
1555 0 125.204 12.843 1608 63.6312 189.019 540.358
1556 0 130.23 13.7142 1786 62.467 188.597 538.709
1557 0 134.435 14.0663 1891 62.0227 188.818 536.223
1558 0 139.376 14.0484 1958 62.3815 189.72 534.434
1559 0 143.451 14.2418 2043 62.3686 189.308 533.202
1560 0 148.462 14.2663 2118 62.6379 188.968 528.899
1561 1 90.2999 11.8716 1072 60.861 188.97 561.794
1562 0 91.1852 10.5719 964 64.0975 189.645 556.331
1563 0 95.2005 11.7857 1122 61.8859 189.499 558.082
1564 0 97.2834 11.8314 1151 62.5639 189.287 554.767
1565 0 101.189 13.0153 1317 61.6538 188.65 552.597
1566 0 104.375 13.3173 1390 60.5683 188.815 554.082
1567 0 108.29 12.9097 1398 61.8662 188.486 550.813
1568 0 109.152 12.4322 1357 63.3176 188.211 547.492
1569 0 112.244 13.0786 1468 62.6771 187.946 547.311
1570 0 115.256 12.6935 1463 63.1818 187.925 542.883
1571 0 118.276 13.2571 1568 62.2309 187.411 543.552
1572 0 123.259 12.4048 1529 63.2479 187.574 539.866
1573 0 125.28 13.4898 1690 61.9899 187.029 538.743
1574 0 131.257 12.9898 1705 62.2563 186.945 535.306
1575 0 135.345 13.4398 1819 61.4057 186.852 534.626
1576 0 139.48 13.6794 1908 61.5194 187.045 529.626
1577 1 91.564 9.08654 832 59.2632 186.972 563.624
1578 0 93.3934 10.7824 1007 59.005 186.586 560.749
1579 0 92.3983 10.0435 928 60.9019 186.86 558.24
1580 0 97.3957 10.75 1047 60.2015 186.411 556.874
1581 0 100.444 11.5089 1156 59.2413 185.854 556.646
1582 0 102.459 12.0439 1234 58.6483 186.201 555.41
1583 0 107.392 12.9339 1389 57.2037 184.954 553.773
1584 0 111.58 12.4126 1385 57.639 185.151 551.141
1585 0 110.447 10.204 1127 60.4996 185.386 547.362
1586 0 116.352 12.4794 1452 57.407 185.313 548.571
1587 1 85.2784 11.9256 1017 52.5801 191.133 563.536
1588 0 86.2033 11.3105 975 54.841 191.029 560.592
1589 0 89.3093 12.2048 1090 54.2532 190.921 556.716
1590 0 91.3708 11.4807 1049 55.6034 191.064 555.417
1591 0 94.2098 11.7398 1106 55.9539 191.354 554.15
1592 0 96.2027 12.2762 1181 56.3599 191.572 555.136
1593 0 98.1682 12.5703 1234 56.6856 191.53 550.301
1594 0 103.084 13.4453 1386 55.5815 190.925 550.475
1595 0 103.132 13.3421 1376 56.8198 191.007 544.802
1596 0 113.701 11.9436 1358 58.204 190.12 537.295
1597 0 109.766 11.6885 1283 58.9376 190.354 537.239
1598 0 115.77 12.8962 1493 57.5244 190.496 531.92
1599 0 116.845 12.2384 1430 59.2965 190.42 533.981
1600 0 121.679 13.6671 1663 56.8196 190.366 526.741
1601 0 120.968 13.6069 1646 57.9301 190.631 530.7
1602 0 123.947 13.7881 1709 58.7712 189.882 529.502
1603 0 125.678 13.3277 1675 59.8776 190.241 526.867
1604 0 129.881 13.6048 1767 59.5037 190.315 528.457
1605 1 83.4951 11.7013 977 49.9621 186.455 561.508
1606 0 83.1377 12.5455 1043 48.8476 187.154 563.038
1607 0 86.1961 11.9611 1031 50.5005 187.67 559.859
1608 0 95.457 13.933 1330 47.9789 186.848 551.058
1609 0 88.413 12.4869 1104 51.2409 187.592 525.25
1610 0 92.316 13.6704 1262 50.2678 188.092 524.47
1611 0 93.4375 13.7097 1281 51.0016 188.198 524.279
1612 0 96.4121 13.3386 1286 51.8585 188.188 522.854
1613 0 99.3133 14.6405 1454 50.262 188.809 520.657
1614 0 101.388 14.5678 1477 50.5281 188.867 522.422
1615 0 102.507 15.1795 1556 50.4955 189.226 518.831
1616 0 104.427 14.1055 1473 51.7508 189.434 514.686
1617 0 106.324 13.5435 1440 52.7542 189.708 515.149
1618 0 108.422 14.3883 1560 51.5218 189.879 513.959
1619 0 112.465 14.2355 1601 51.3023 190.009 517.369
1620 0 116.645 13.8026 1610 51.4112 190.528 517.653
1621 0 119.535 14.0628 1681 51.6217 190.174 516.168
1622 0 121.706 14.5597 1772 50.7889 191.027 516.075
1623 0 121.438 14.2624 1732 51.6686 191.492 515.645
1624 0 125.476 14.2896 1793 51.7513 191.558 515.413
1625 0 130.5 13.6705 1784 52.3823 191.606 512.977
1626 0 131.449 13.9217 1830 52.9011 191.477 511.609
1627 0 133.673 13.8247 1848 53.3382 191.795 512.272
1628 0 137.549 14.344 1973 52.8763 191.526 510.57
1629 0 139.343 13.7718 1919 53.9448 191.281 513.967
1630 1 84.3404 10.1138 853 54.1735 190.569 546.572
1631 0 88.2838 9.77529 863 53.7242 190.928 549.629
1632 0 88.3374 10.4373 922 53.4718 191.034 551.295
1633 0 93.4114 10.4484 976 53.5502 191.212 552.356
1634 0 97.4243 11.2908 1100 52.5473 191.062 551.366
1635 0 98.4357 11.4593 1128 52.8129 191.549 548.735
1636 0 98.2822 11.701 1150 52.8991 190.592 550.471
1637 0 102.356 12.3979 1269 52.2443 190.292 548.363
1638 0 105.296 12.8779 1356 51.6866 190.376 547.387
1639 0 107.298 12.3954 1330 52.3504 190.234 547.992
1640 0 111.409 12.6292 1407 52.4321 190.074 544.266
1641 0 113.335 12.2469 1388 53.2392 190.06 542.579
1642 0 114.379 13.3241 1524 52.6286 190.085 543.189
1643 0 115.378 12.004 1385 54.613 190.329 540.295
1644 0 122.333 13.0627 1598 53.0864 190.023 539.539
1645 0 125.416 13.4513 1687 53.0338 189.576 537.311
1646 0 129.263 12.8652 1663 53.6945 189.447 535.891
1647 1 79.3336 8.93694 709 52.6291 188.848 562.846
1648 0 78.1529 8.94401 699 54.9843 188.587 558.864
1649 0 82.3014 10.097 831 53.4465 188.513 561.633
1650 0 80.0734 11.7767 943 53.9682 188.11 560.17
1651 0 82.1672 12.0851 993 53.9517 188.261 559.032
1652 0 85.1778 12.4798 1063 52.3829 188.232 558.217
1653 0 88.1824 13.1546 1160 51.5267 189.139 556.943
1654 0 89.1287 12.4427 1109 52.7998 189.084 558.369
1655 1 91.4313 10.0403 918 57.6819 187.997 556.767
1656 0 91.3969 10.0003 914 58.756 188.422 556.071
1657 0 96.2747 11.8411 1140 56.0886 188.771 554.173
1658 0 98.3672 11.4571 1127 56.8784 189.003 552.115
1659 0 104.367 11.7949 1231 56.1909 189.286 551.391
1660 0 104.377 11.8992 1242 56.6184 189.513 549.048
1661 0 109.458 11.8767 1300 56.5892 189.995 548.497
1662 0 110.299 11.4416 1262 58.2179 189.773 543.759
1663 0 114.459 12.0655 1381 57.3121 189.958 545.17
1664 0 117.435 12.3302 1448 57.8847 190.164 543.846
1665 0 120.446 12.8937 1553 57.3883 190.025 541.473
1666 0 126.388 12.7702 1614 58.311 190.007 536.478
1667 0 127.584 12.4076 1583 59.3215 190.04 536.368
1668 0 132.403 13.5043 1788 58.113 190.558 535.361
1669 0 136.259 13.3422 1818 58.7976 190.491 531.211
1670 0 136.31 12.9705 1768 59.7913 190.614 527.337
1671 0 138.401 12.406 1717 60.9482 190.407 524.237
1672 0 146.221 13.6711 1999 57.982 190.599 520.7
1673 0 149.298 12.9539 1934 58.4364 189.395 521.13
1674 0 151.283 12.7773 1933 59.536 190.155 521.401
1675 0 158.261 14.6909 2325 56.8791 190.315 521.776
1676 1 84.1308 10.0082 842 55.323 186.448 561.703
1677 0 85.0999 9.55347 813 55.6679 186.503 562.665
1678 0 88.1631 9.97015 879 55.6064 186.827 560.259
1679 0 89.1596 10.5429 940 55.0681 186.92 559.323
1680 0 92.2706 11.0219 1017 55.3933 186.677 555.085
1681 0 95.1486 10.8567 1033 55.9719 186.987 554.876
1682 0 98.1469 11.2688 1106 55.7486 187.001 555.163
1683 0 102.122 11.8877 1214 55.2232 186.558 552.89
1684 0 104.155 11.3965 1187 56.2578 187.005 550.457
1685 0 108.186 11.4156 1235 56.0939 186.93 551.329
1686 0 113.117 12.8893 1458 54.3011 185.882 548.479
1687 0 114.144 11.687 1334 55.7541 186.022 546.567
1688 0 118.154 12.0098 1419 55.7914 185.636 543.587
1689 0 122.157 11.6735 1426 56.1851 185.565 542.245
1690 0 126.155 12.2865 1550 55.5071 185.13 543.248
1691 0 129.278 13.0571 1688 55.4046 184.754 543.227
1692 0 132.197 13.7673 1820 54.3742 184.452 541.661
1693 0 134.23 12.3892 1663 55.9327 184.627 537.791
1694 0 139.261 12.0852 1683 56.3488 184.352 536.211
1695 0 142.4 12.8933 1836 55.6928 184.13 533.105
1696 0 145.226 12.2981 1786 56.794 184.139 531.624
1697 0 149.121 11.5544 1723 57.8857 184.107 527.891
1698 0 155.126 12.4286 1928 57.0156 183.819 525.411
1699 0 160.184 13.9027 2227 55.2555 184.247 524.744
1700 0 165.376 13.4481 2224 55.7527 183.665 522.129
1701 0 169.244 13.0817 2214 56.1847 183.443 523.186
1702 0 176.281 13.938 2457 55.2776 183.314 519.596
1703 0 179.229 14.3895 2579 55.5223 183.381 516.215
1704 0 182.273 12.5691 2291 59.4046 183.261 514.012
1705 0 189.432 13.5722 2571 58.0949 184.095 509.583
1706 0 195.282 13.2526 2588 58.8682 184.449 504.319
1707 0 200.183 12.8832 2579 59.4331 183.41 504.09
1708 0 209.316 14.256 2984 57.9135 182.93 501.612
1709 0 215.446 14.1521 3049 58.37 183.09 496.511
1710 0 221.403 13.6764 3028 59.0727 183.329 492.68
1711 1 172.576 10.888 1879 60.6301 183.19 525.712
1712 0 177.441 12.0434 2137 60 182.89 519.813
1713 0 183.291 12.4501 2282 60.1551 182.945 514.288
1714 0 189.439 13.9834 2649 58.4096 183.145 514.476
1715 0 192.395 12.7186 2447 60.0311 183.013 510.725
1716 0 199.653 14.5603 2907 58.0726 183.427 508.761
1717 0 203.746 13.7524 2802 59.4718 183.453 504.683
1718 0 210.511 13.6477 2873 59.6763 183.024 499.962
1719 0 218.61 14.981 3275 58.018 183.224 497.352
1720 0 225.517 13.9147 3138 59.3948 183.73 493.44
1721 0 232.502 14.2838 3321 59.3969 183.608 491.917
1722 0 239.511 15.0766 3611 58.6372 183.927 483.452
1723 1 187.375 10.9246 2047 60.7235 184.23 520.581
1724 0 186.493 12.2417 2283 59.4477 184.203 518.047
1725 0 193.394 12.3065 2380 60.1197 184.592 513.087
1726 0 197.471 11.7283 2316 61.4875 184.032 506.276
1727 0 205.366 11.813 2426 61.4415 184.151 505.183
1728 0 213.325 12.8114 2733 60.1855 184.213 497.635
1729 0 220.411 14.1826 3126 59.0144 184.226 493.013
1730 0 228.561 13.7163 3135 57.7282 184.717 494.093
1731 0 231.414 12.6527 2928 59.5512 184.811 486.482
1732 0 240.836 13.204 3180 58.9723 185.007 480.373
1733 0 251.727 15.0203 3781 56.3311 184.951 472.048
1734 1 189.484 11.4046 2161 59.7918 184.698 508.151
1735 0 198.498 12.9472 2570 58.4253 185.071 505.403
1736 0 202.419 13.7537 2784 57.4529 184.976 501.343
1737 0 211.344 14.2753 3017 56.9884 185.799 495.617
1738 0 217.492 13.4901 2934 58.0143 185.699 492.032
1739 0 224.76 13.3609 3003 58.2974 185.585 485.51
1740 0 232.755 14.5389 3384 55.9991 185.824 489.217
1741 0 240.864 14.037 3381 56.9438 185.705 478.522
1742 0 246.656 15.2804 3769 55.3229 186.311 474.936
1743 0 254.53 15.3224 3900 54.9082 186.054 472.098
1744 0 261.824 15.3844 4028 55.1524 186.178 462.887
1745 0 268.62 14.4256 3875 56.1468 186.327 458.271
1746 0 280.809 15.4838 4348 54.8671 186.253 455.965
1747 0 287.692 14.3417 4126 56.1602 186.404 453.167
1748 0 294.627 14.7644 4350 56.0572 186.487 443.727
1749 0 306.696 15.8985 4876 55.0263 186.828 442.989
1750 0 314.565 15.7456 4953 55.9235 186.704 435.202
