time division length width area intensity CMx CMy
0 0 66.0376 12.9472 855 79.1263 408.212 580.37
1 0 67.1007 12.8613 863 79.9143 408.015 579.346
2 0 72.0321 13.5773 978 77.8988 407.937 578.263
3 0 72.1487 13.2088 953 79.277 407.954 576.69
4 0 76.0871 12.972 987 79.2898 407.532 575.6
5 0 80.0637 13.7516 1101 77.4314 407.408 573.721
6 1 41.0557 10.912 448 76.5134 406.908 591.908
7 0 43.0238 10.6453 458 76.5764 407.541 592.541
8 0 44.0501 11.7139 516 77.0426 408.101 591.659
9 0 45.1037 10.9969 496 79.5625 408.173 590.601
10 0 47.0917 12.0616 568 78.8644 408.213 588.738
11 0 46.1496 11.8528 547 79.8355 407.724 589.689
12 0 48.0906 12.5388 603 79.8789 408.104 588.189
13 0 50.0999 12.495 626 79.2668 408.414 588.013
14 0 53.1324 12.1583 646 78.8839 407.78 585.822
15 0 55.0874 12.9068 711 76.5767 408.032 584.096
16 0 54.0805 12.1855 659 78.8877 408.134 582.926
17 0 56.1199 13.0969 735 76.9483 407.69 582.974
18 0 59.1853 12.9424 766 76.5796 407.723 581.564
19 0 61.1055 13.3048 813 75.8339 407.78 580.173
20 0 64.0618 12.7065 814 75.8378 408.28 579.118
21 0 64.0534 13.4107 859 75.2468 408.036 577.623
22 0 67.0501 12.8411 861 76.0767 407.784 577.065
23 0 70.1904 13.1499 923 74.8082 408.315 577.811
24 0 72.1382 13.4325 969 74.3622 408.504 574.725
25 0 75.2208 13.6398 1026 74.1053 408.683 573.087
26 0 76.0882 12.9192 983 75.1099 408.805 572.726
27 1 40.0157 10.5459 422 97.5379 408.957 591.972
28 0 39.0282 10.3259 403 73.7816 408.501 590.618
29 0 41.0581 11.2036 460 71.9109 408.909 591.107
30 0 43.0345 11.5024 495 71.9818 409.307 590.446
31 0 45.0253 11.7934 531 72.4087 409.183 589.983
32 0 44.0948 11.0217 486 74.9095 409.302 589.066
33 0 47.0468 12.2856 578 72.6557 409.007 589.05
34 0 48.1046 12.3481 594 72.2778 409.678 588.441
35 0 49.0836 11.4295 561 74.2906 409.474 586.201
36 0 50.1057 12.0346 603 72.6833 409.393 586.456
37 0 53.0603 12.9664 688 71.577 409.632 585.827
38 0 55.1239 11.5014 634 73.2823 409.495 585.659
39 0 56.1419 12.2725 689 72.2221 409.614 584.958
40 0 55.06 12.4046 683 72.6032 409.637 582.824
41 0 60.0521 12.4392 747 71.3815 409.461 583.436
42 0 61.0856 12.2942 751 71.6511 408.96 580.68
43 0 63.0434 12.8324 809 70.5377 409.389 580.874
44 0 64.0985 12.6524 811 71.9507 409.751 579.639
45 0 68.1175 12.3757 843 71.605 409.611 578.556
46 0 70.1553 13.0425 915 71.1082 409.82 576.53
47 0 72.255 12.3313 891 72.4512 410.046 575.43
48 0 73.1931 12.7471 933 72.4437 409.892 573.25
49 0 76.2278 12.7644 973 72.0761 409.948 571.741
50 0 80.2817 12.7551 1024 72.0117 410.183 569.379
51 0 83.1916 13.1263 1092 70.9844 410.332 569.839
52 1 42.1001 10.8313 456 72.3487 410.007 589.482
53 0 44.1889 11.8808 525 71.6286 409.764 588.352
54 0 44.042 10.1948 449 67.6303 409.817 587.412
55 0 48.1186 12.0536 580 65.6017 409.853 587.564
56 0 50.0558 12.4661 624 65.0929 410.309 586.923
57 0 51.0912 13.2508 677 65.2349 410.066 585.612
58 0 54.0999 13.1978 714 64.8319 409.84 585.716
59 0 55.0824 13.2166 728 64.7459 410.21 584.047
60 0 55.0221 12.4132 683 67.7072 410.41 583.843
61 0 57.1235 12.6218 721 67.8571 410.748 584.012
62 0 59.1036 12.7403 753 67.4847 410.404 584.142
63 0 63.0518 13.37 843 67.4009 410.017 581.297
64 0 65.0791 13.7371 894 67.057 410.381 579.082
65 0 67.1332 13.7041 920 67.925 410.47 578.215
66 0 66.0938 12.4671 824 70.4915 410.437 577.597
67 0 69.058 14.4371 997 68.7161 410.437 575.178
68 0 72.0943 13.0385 940 70.9979 410.536 574.148
69 0 76.127 13.5957 1035 70.0473 410.523 574.232
70 0 77.1426 14.2723 1101 69.5886 410.627 572.817
71 0 80.3349 14.2777 1147 69.9643 411.085 568.669
72 0 81.1447 13.975 1134 71.6623 411.392 567.601
73 0 85.1401 14.1884 1208 71.1382 411.922 567.151
74 0 87.0991 14.3744 1252 71.8922 411.793 565.358
75 0 89.1685 14.1754 1264 72.7872 412.404 565.296
76 0 92.301 14.2577 1316 72.9932 412.138 563.076
77 0 94.2995 13.5844 1281 74.5902 411.828 562.027
78 0 96.1719 13.9438 1341 74.6137 411.843 561.747
79 1 52.1153 11.3786 593 74.4148 412.423 583.121
80 0 52.1069 12.1673 634 74.6104 412.311 581.323
81 0 57.1037 12.7312 727 73.5915 412.99 578.341
82 0 59.1233 13.8524 819 71.862 413.52 578.269
83 0 59.2534 13.1132 777 74.1763 413.445 577.972
84 0 60.0892 12.3649 743 76.7308 414.071 576.575
85 0 65.1623 14.2107 926 72.8726 414.494 576.945
86 0 68.1437 14.3961 981 72.5953 414.38 574.756
87 0 69.105 13.7183 948 75.0021 414.688 571.604
88 0 71.3159 13.9801 997 74.651 414.901 571.119
89 0 73.2583 14.4694 1060 74.8472 415.004 568.858
90 0 75.2776 13.5897 1023 77.0323 415.688 569.228
91 0 78.3059 13.5367 1060 77.5406 415.877 566.679
92 0 83.1517 14.0105 1165 77.8936 416.031 565.1
93 0 86.1048 13.8901 1196 79.1254 416.028 562.671
94 0 89.0803 13.9762 1245 78.555 416.085 561.222
95 1 49.0686 12.0444 591 77.0761 416.298 580.093
96 0 46.1721 12.0419 556 77.1727 416.266 579.914
97 0 51.2029 12.2649 628 75.5701 416.331 578.766
98 0 51.2029 12.2063 625 170.499 416.339 578.741
99 0 52.1364 12.0837 630 75.6571 416.181 576.851
100 0 56.2245 13.1793 741 73.6032 416.096 575.866
101 0 58.2441 13.0485 760 73.9987 416.484 575.128
102 0 59.1674 12.8449 760 76.2684 416.254 573.682
103 0 60.1648 12.1167 729 78.7133 416.134 572.273
104 0 62.278 12.7172 792 77.9318 416.394 571.265
105 0 65.2178 13.0946 854 76.5082 416.138 568.794
106 0 67.2989 12.8977 868 75.4839 416.767 568.318
107 0 69.265 12.5893 872 76.5218 416.525 567.287
108 0 72.1794 12.7322 919 76.3069 416.844 566.151
109 0 75.2168 12.8562 967 75.2161 416.326 565.896
110 0 78.2933 13.1429 1029 74.8717 416.115 563.866
111 0 79.3332 12.9454 1027 75.778 415.919 561.506
112 0 83.2845 12.7395 1061 74.7248 416.029 559.743
113 1 41.1186 10.2144 420 73.731 416 579.193
114 0 42.1254 10.7536 453 72.9801 415.885 578.514
115 0 45.1247 11.6566 526 70.692 416.222 577.542
116 0 46.1305 12.508 577 69.0607 415.681 576.04
117 0 50.1894 12.134 609 68.0525 415.401 576.228
118 0 48.1672 13.3701 644 68.0388 415.436 576.27
119 0 51.0475 12.3414 630 69.219 415.179 575.568
120 0 52.1204 11.5694 603 70.2139 415.68 575.204
121 0 53.094 12.1106 643 69.7123 415.981 572.991
122 0 56.0797 13.3025 746 67.2131 415.918 572.756
123 0 58.0647 12.3138 715 68.0727 415.98 572.452
124 0 60.2104 13.2535 798 67.0388 415.505 571.843
125 0 62.0698 12.5665 780 68.1782 415.414 570.346
126 0 64.197 12.6797 814 68.613 414.719 567.726
127 0 69.1007 12.9521 895 67.6 414.486 566.884
128 0 70.2001 13.1054 920 68.0891 414.634 565.086
129 0 72.1276 13.0186 939 68.8349 414.149 564.59
130 0 75.1048 12.6623 951 69.7413 414.147 563.327
131 0 78.1013 12.7655 997 70.2116 414.143 563.101
132 1 38.0442 9.9621 379 70.3483 413.422 582.873
133 0 42.1153 10.9461 461 69.436 412.946 581.286
134 0 44.1274 10.9683 484 70.5558 412.969 580.306
135 0 44.1274 10.9229 482 145.539 411.965 580.454
136 0 47.0433 12.0952 569 68.4236 413.293 578.044
137 0 48.0232 11.8068 567 70.1817 413.958 578.093
138 0 50.1207 11.8913 596 69.2836 414.403 578.597
139 0 51.1177 12.6179 645 68.7457 413.87 578.788
140 0 50.1724 11.7794 591 72.1591 414.281 577.58
141 0 54.2158 13.0774 709 69.6714 414.165 576.134
142 0 53.0904 12.1868 647 71.8022 413.895 576.906
143 0 56.1252 12.8641 722 70.0665 413.751 576.589
144 0 57.1519 13.0004 743 70.5828 413.651 574.331
145 0 59.1766 12.9612 767 70.7666 413.449 575.475
146 0 59.0802 12.4746 737 73.2809 413.445 571.45
147 0 62.1263 13.0862 813 71.7872 413.339 571.766
148 0 65.1169 13.9288 907 70.4862 413.075 571.558
149 0 67.3201 13.7552 926 71.365 412.915 568.268
150 0 68.1608 12.4558 849 74.2108 412.971 569.133
151 0 69.1688 12.1153 838 75.5752 413.159 567.177
152 0 73.1601 13.2859 972 73.3025 413.165 565.848
153 0 74.2641 12.5767 934 74.9261 412.763 565.789
154 0 77.2512 12.906 997 74.5186 412.715 563.064
155 0 79.2062 12.9662 1027 74.3427 412.648 561.224
156 0 83.1453 13.1096 1090 74.2982 412.616 560.628
157 1 45.1122 10.6401 480 74.7062 412.36 579.79
158 0 45.1499 11.2071 506 72.7174 412.152 580.85
159 0 47.1276 10.6519 502 72.9721 412.339 579.902
160 0 50.1056 12.1344 608 70.574 411.918 579.171
161 0 49.0803 11.4303 561 72.0802 412.137 578.139
162 0 51.0837 12.6655 647 70.5023 412.291 576.966
163 0 53.1871 12.8415 683 69.4158 412.081 575.671
164 0 54.1212 12.435 673 70.0253 412.281 575.779
165 0 57.2196 12.7579 730 69.3877 412.342 573.474
166 0 59.1625 12.846 760 69.0605 412.376 572.707
167 0 60.1474 12.2865 739 70.0988 412.574 572.789
168 0 64.165 12.5614 806 69.1762 412.857 573.344
169 0 65.123 12.8526 837 69.0717 413.167 570.282
170 0 66.1697 12.347 817 70.2521 412.93 568.589
171 0 70.3112 12.8998 907 68.2315 413.174 569.19
172 0 71.1502 12.7758 909 69.7316 413.455 565.056
173 0 74.221 13.2847 986 68.1034 413.942 565.921
174 0 78.1135 13.3524 1043 67.7258 413.566 564.454
175 0 79.3036 13.152 1043 68.6155 414.149 561.603
176 0 82.2353 13.4127 1103 67.9338 414.191 561.104
177 0 86.1813 14.0634 1212 66.8969 414.576 558.297
178 0 89.2295 14.5804 1301 66.2729 414.437 556.28
179 0 90.1244 12.5382 1130 69.9345 414.685 554.701
180 0 93.2433 13.2556 1236 68.8107 415.306 553.122
181 0 98.3066 13.641 1341 68.3326 415.174 551.976
182 0 102.209 14.4019 1472 67.1841 415.516 551.126
183 0 105.122 13.6032 1430 68.4329 415.841 547.766
184 1 57.1766 9.96911 570 69.0561 415.43 574.87
185 0 58.1165 11.2705 655 68.8855 415.869 570.111
186 0 62.2145 12.5051 778 66.7853 416.548 570.361
187 0 62.1375 12.3758 769 68.1144 416.769 567.324
188 0 67.1554 13.0146 874 65.9119 417.388 569.392
189 0 68.1798 12.7017 866 66.8972 417.483 567.462
190 0 71.1864 12.6429 900 66.9678 417.577 564.66
191 0 74.175 13.2659 984 66.6677 418.088 562.752
192 0 76.077 13.276 1010 66.0941 418.254 562.551
193 0 80.1879 13.5806 1089 64.9908 418.787 561
194 0 84.2033 14.0612 1184 61.9873 418.45 560.562
195 0 84.3078 13.8896 1171 62.0205 418.855 557.278
196 0 88.313 12.6935 1121 62.7012 418.405 556.09
197 0 92.1724 12.8889 1188 63.6902 418.509 554.829
198 1 48.153 10.2174 492 65.872 418.486 576.998
199 0 49.0858 10.6344 522 66.5632 418.412 575.693
200 0 52.2234 12.0253 628 65.2516 419.158 574.191
201 0 53.1003 11.789 626 66.1741 419.155 572.462
202 0 55.3085 13.3433 738 64.3076 419.542 571.427
203 0 56.1368 12.2914 690 65.8725 419.272 570.99
204 0 55.2354 12.5282 692 66.7587 418.646 571.762
205 0 57.0345 13.4831 769 66.2575 418.59 569.746
206 0 60.1283 11.7748 708 69.5297 418.489 570.29
207 0 63.1043 12.9785 819 67.6239 418.636 568.388
208 0 66.1449 13.3646 884 67.2568 419.231 568.486
209 0 68.1309 13.1805 898 67.9399 418.671 567.304
210 0 69.1349 13.7123 948 68.1899 418.959 565.348
211 0 72.0968 13.0519 941 69.4102 418.769 563.051
212 0 74.0678 13.3931 992 69.5302 418.612 563.283
213 0 75.0372 14.2996 1073 68.8649 418.34 561.986
214 0 80.1346 14.5131 1163 67.5752 418.586 561.927
215 0 81.1205 13.4245 1089 70.1028 418.621 560.643
216 0 83.1176 13.6433 1134 69.545 418.648 559.531
217 1 44.1114 11.3349 500 67.956 417.232 579.336
218 0 45.0268 11.2377 506 69.1976 417.69 577.757
219 0 47.0511 11.6469 548 67.8686 417.502 577.653
220 0 48.1067 11.7031 563 68.9609 417.236 576.714
221 0 49.1497 12.6145 620 67.1452 416.935 576.924
222 0 51.1525 12.7266 651 66.874 416.8 576.61
223 0 53.2118 12.8919 686 66.3353 416.971 576.147
224 0 54.1651 12.2773 665 67.5805 416.827 575.486
225 0 56.1289 13.665 767 65.4172 416.435 575.399
226 0 57.0562 13.2851 758 66.6834 416.842 571.483
227 0 59.0453 13.6167 804 65.0833 416.427 573.02
228 0 61.0998 14.1735 866 64.6778 416.389 572.335
229 0 61.0717 12.69 775 67.129 415.985 570.565
230 0 63.0683 12.9225 815 67.2037 416.156 569.228
231 0 67.0863 13.4305 901 66.0744 415.86 567.851
232 0 67.1069 13.3667 897 66.602 415.882 567.279
233 0 69.1973 13.0496 903 66.6213 415.874 566.46
234 0 71.1069 12.8258 912 67 414.615 564.582
235 0 74.1546 12.838 952 66.3477 414.902 564.267
236 0 78.1624 13.0753 1022 65.9677 415.11 561.47
237 0 80.2229 13.5747 1089 64.8356 414.487 562.632
238 0 83.2013 13.3772 1113 64.5535 414.439 561.934
239 1 43.2296 11.0572 478 63.7385 414.354 579.847
240 0 44.0555 10.396 458 64.1048 414.603 581.258
241 0 48.0709 10.4429 502 63.6713 414.522 579.811
242 0 47.0572 10.9441 515 63.1398 413.977 579.92
243 0 50.0427 11.3903 570 61.9474 414.233 579.686
244 0 50.0682 12.0436 603 62.7048 413.94 577.96
245 0 50.0578 11.4867 575 63.6591 414.214 579.165
246 0 52.0533 12.7946 666 61.8889 414.206 579.044
247 0 54.088 12.1654 658 63.0623 414.439 577.957
248 0 58.1535 12.6218 734 61.9183 414.673 576.65
249 0 60.0424 13.3905 804 61.3234 413.956 576.107
250 0 61.0424 12.8763 786 62.5051 414.159 575.211
251 0 63.0266 13.0897 825 62.3745 414.159 574.376
252 0 65.0721 11.9406 777 63.7272 414.683 573.598
253 0 67.114 12.8587 863 63.9235 414.683 571.397
254 0 70.1667 13.3967 940 63.7213 414.216 569.74
255 0 74.0384 13.1959 977 63.9591 414.271 569.975
256 0 77.2424 13.3994 1035 63.9198 414.273 568.557
257 0 78.2257 13.0392 1020 64.9265 414.194 567.346
258 1 40.14 10.6378 427 65.7213 414.391 586.681
259 0 42.0248 10.9459 460 64.2804 414.157 587.061
260 0 41.0173 11.5561 474 65.2004 413.456 585.089
261 0 44.0699 12.1398 535 64.1271 414.004 585.593
262 0 44.0924 11.5439 509 65.5029 414.269 584.603
263 0 47.0255 12.6315 594 63.963 414.136 583.519
264 0 49.1175 12.3785 608 64.4276 413.993 582.668
265 0 50.0775 13.3193 667 63.991 413.777 581.519
266 0 52.1279 13.2942 693 64.0317 413.602 580.506
267 0 54.1592 12.4079 672 65.4554 413.765 579.732
268 0 54.132 12.2663 664 66.363 413.895 579.586
269 0 55.1768 12.4328 686 66.5816 413.443 578.974
270 0 58.1919 13.1118 763 65.4456 413.554 577.55
271 0 61.0742 13.7046 837 64.6129 413.719 577.159
272 0 63.15 13.4125 847 65.0638 414.314 576.128
273 0 66.0547 12.3534 816 66.3199 414.312 574.064
274 0 66.1571 13.0296 862 66.2007 414.329 574.103
275 0 70.1457 13.4435 943 65.4878 414.34 571.732
276 0 73.1433 13.453 984 65.5051 414.058 570.807
277 0 72.1114 13.1741 950 66.6158 413.948 569.745
278 1 38.0528 11.1687 425 66.3271 414.285 586.311
279 0 40.0813 11.9258 478 65.728 414.414 585.927
280 0 42.1119 11.7544 495 65.2263 414.352 584.762
281 0 43.1016 12.1573 524 65.105 414.672 583.179
282 0 46.0748 12.7402 587 64.6201 414.99 583.046
283 0 46.1035 12.4286 573 65.5009 414.99 582.204
284 0 48.243 13.3284 643 64.3313 414.809 581.754
285 0 47.0362 13.1813 620 66.9048 414.866 579.965
286 0 50.1133 13.5493 679 65.6451 415.144 579.882
287 0 52.1517 13.8826 724 65.0815 414.812 579.579
288 0 54.0398 12.5463 678 67.5501 415.392 579.335
289 0 54.1644 12.6467 685 68.6423 415.469 577.492
290 0 55.145 13.3285 735 67.8109 415.642 576.63
291 0 58.0841 13.1878 766 67.6658 416.179 575.864
292 0 60.0512 13.7216 824 67.3119 416.951 574.643
293 0 63.1856 14.4337 912 66.2379 416.484 572.7
294 0 63.3308 13.8637 878 67.8702 416.556 572.485
295 0 65.1735 13.2876 866 68.9446 416.559 571.133
296 0 67.2475 13.428 903 69.2625 416.607 568.039
297 0 69.3178 14.2532 988 68.1964 416.661 566.645
298 0 71.2294 13.1687 938 69.7463 417.145 567.369
299 0 73.0999 13.5294 989 69.4065 417.161 565.751
300 0 77.347 13.9631 1080 68.7269 417.143 563.668
301 1 41.1775 11.7054 482 68.4274 416.981 582.071
302 0 41.0488 11.7421 482 69.2697 417.388 581.293
303 0 43.1509 12.2593 529 69.9149 417.44 579.922
304 0 43.2993 12.6561 548 69.7719 417.359 577.704
305 0 46.1145 13.2496 611 67.9018 417.429 577.561
306 0 45.1673 13.0183 588 69.2041 417.269 577.925
307 0 48.1765 12.6618 610 69.141 417.252 576.757
308 0 50.1015 13.4726 675 67.9022 417.127 575.748
309 0 52.0356 13.3754 696 68.3463 417.08 573.866
310 0 51.0672 12.3171 629 71.2528 416.916 572.769
311 0 56.0667 13.5553 760 68.2908 417.896 572.641
312 0 56.018 13.6385 764 69.2016 417.881 572.12
313 0 57.034 13.6585 779 69.258 417.875 571.905
314 0 58.0805 13.3091 773 69.564 418.167 572.057
315 0 58.057 12.6772 736 71.697 417.534 569.909
316 0 63.0743 13.3176 840 69.4238 417.53 568.863
317 0 66.228 13.4233 889 69.2621 417.771 567.16
318 0 65.0986 11.7975 768 72.1732 417.254 566.319
319 0 68.125 13.622 928 69.6627 417.247 565.151
320 0 70.1656 14.2377 999 68.5726 417.032 564.158
321 0 72.1143 13.4509 970 70.2402 417.08 562.228
322 0 75.0986 13.702 1029 69.9796 417.211 561.169
323 1 37.0694 11.1952 415 71.2651 416.894 580.39
324 0 40.0266 12.4417 498 69.1285 417.078 578.904
325 0 44.0493 13.4622 593 66.8651 416.332 577.919
326 0 42.0732 12.5258 527 69.1765 416.351 577.334
327 0 47.1395 13.2585 625 66.5872 416.405 576.976
328 0 48.1266 13.2151 636 67.3601 416.008 576.423
329 0 46.0198 13.6897 630 68.4841 415.556 576.259
330 0 49.1901 13.519 665 67.6421 415.875 576.095
331 0 51.1959 13.5558 694 67.8184 415.693 573.373
332 0 53.0951 13.6548 725 67.6855 415.927 572.914
333 0 55.108 13.5371 746 67.9504 415.886 572.693
334 0 56.099 13.4762 756 67.9947 415.313 572.443
335 0 55.1616 12.7081 701 70.5934 415.555 570.994
336 0 60.1345 13.6195 819 67.7009 415.309 571.56
337 0 62.0293 13.8966 862 67.8724 415.542 569.751
338 0 64.0489 14.1923 909 67.3674 415.509 569.425
339 0 65.2712 14.4321 942 67.173 415.1 568.822
340 0 67.0559 13.705 919 68.6877 415.24 567.899
341 0 70.1165 14.0481 985 68.2325 415.029 567.07
342 0 72.0893 13.6775 986 69.714 414.783 563.579
343 0 74.0795 13.931 1032 68.968 415.064 564.439
344 0 78.2363 14.0344 1098 69.9262 415.024 561.214
345 0 81.1593 14.8227 1203 67.995 414.697 561.009
346 0 83.1516 13.7099 1140 70.1 414.886 558.779
347 1 38.1085 11.2836 430 71.3326 415.014 580.753
348 0 42.0907 12.4018 522 70.0019 415.224 579.443
349 0 42.2341 12.6201 533 70.2871 415.281 578.735
350 0 44.1513 12.4572 550 69.1473 415.136 580.135
351 0 44.2697 12.9886 575 70.0609 414.772 577.318
352 0 47.0707 13.9577 657 68.102 415.183 576.982
353 0 50.2128 13.2237 664 67.9277 414.995 578.11
354 0 50.1996 13.2272 664 69.2154 415.152 576.131
355 0 53.3047 13.9575 744 67.6976 415.058 575.384
356 0 56.2164 13.9817 786 67.6489 414.884 574.415
357 0 56.2108 13.396 753 69.0093 414.943 572.942
358 0 57.1476 13.8938 794 68.5491 414.927 574.29
359 0 60.26 14.1553 853 68.5475 414.57 571.529
360 0 64.15 14.0296 900 67.9967 414.888 571.303
361 0 63.3449 14.0501 890 69.5933 414.402 568.528
362 0 66.4082 13.6128 904 70.125 414.487 567.308
363 0 69.3119 13.5475 939 70.41 414.64 567.044
364 0 70.3778 13.9106 979 70.3177 414.74 565.611
365 0 73.3745 15.0325 1103 68.7235 414.89 564.138
366 0 77.4416 14.9015 1154 68.7877 414.954 565.776
367 0 78.1528 14.7148 1150 69.433 415.639 563.665
368 0 82.1851 14.6255 1202 69.2238 415.996 562.339
369 0 83.2693 14.6392 1219 69.945 416.249 560.615
370 0 86.3836 14.4125 1245 69.9084 416.199 560.35
371 0 88.4102 14.3649 1270 70.5929 416.18 558.08
372 1 44.134 11.7596 519 71.7168 416.597 578.543
373 0 46.1239 11.7509 542 71.2196 416.498 576.699
374 0 49.1854 12.3411 607 70.9061 416.644 575.318
375 0 52.1725 12.6503 660 69.6667 417.011 575.93
376 0 54.1127 13.0099 704 68.0028 416.567 573.793
377 0 54.1081 12.5305 678 68.8407 416.776 573.382
378 0 57.1239 13.2344 756 68.1905 416.647 571.382
379 0 60.085 13.664 821 66.447 417.045 571.25
380 0 61.0747 13.5572 828 67.6896 417.368 567.585
381 0 62.1359 13.1969 820 68.4902 417.56 567.883
382 0 66.0548 13.2617 876 68.1176 417.715 566.531
383 0 70.1305 13.3751 938 67.403 417.935 564.769
384 0 71.293 13.4094 956 68.114 417.988 562.638
385 0 74.1535 14.0384 1041 67.0202 418.077 562.453
386 0 75.1079 13.8867 1043 67.5494 418.49 560.915
387 0 81.2985 13.063 1062 67.9416 417.977 559.59
388 1 42.2603 9.15752 387 65.8966 417.339 579.724
389 0 42.4626 10.103 429 65.0303 417.692 579.725
390 0 43.3912 9.97898 433 66.1663 417.517 577.603
391 0 46.3274 10.361 480 65.9688 417.946 576.475
392 0 48.1951 12.2419 590 63.3576 418.397 575.803
393 0 47.2264 11.1167 525 66.4381 418.265 573.861
394 0 50.2619 11.7783 592 65.4493 418.372 573.071
395 0 53.1172 11.917 633 64.4566 418.466 573.611
396 0 53.1944 11.2982 601 66.6839 418.679 571.246
397 0 57.2717 11.3145 648 65.4059 419.042 571.71
398 0 58.1551 11.9336 694 65.1354 418.775 571.069
399 0 59.4908 11.195 666 66.2147 419.707 570.144
400 0 62.3559 11.5627 721 65.4508 418.968 568.911
401 0 65.6396 10.8776 714 67.1541 419.139 566.682
402 0 65.6328 11.2139 736 67.5625 419.042 565.788
403 1 34.265 8.60937 295 63.5492 417.732 583.654
404 0 32.2391 8.25085 266 66.2782 417.816 581.598
405 0 35.179 9.40901 331 65.4743 418.23 579.604
406 0 37.0858 10.6779 396 64.0126 418.525 580.02
407 0 37.3751 10.622 397 65.869 419.023 579.632
408 0 40.3118 11.3118 456 64.5044 419.215 578.768
409 0 41.2654 11.4624 473 64.5222 418.603 578.152
410 0 42.2285 11.1062 469 64.7079 418.627 578.465
411 0 44.3583 10.8661 482 65.2054 418.608 577.809
412 0 44.271 11.3844 504 64.4921 418.583 576.347
413 0 47.293 11.3759 538 64.3699 418.695 575.37
414 0 49.3305 12.3048 607 62.4745 418.158 574.702
415 0 49.1775 11.794 580 64.8052 418.538 574.1
416 0 50.1388 11.7075 587 65.5281 418.583 573.261
417 0 51.2272 12.1225 621 64.7987 418.114 572.845
418 0 54.3174 11.4328 621 64.8712 418.206 571.847
419 0 56.1453 11.773 661 63.6536 417.719 571.071
420 0 54.2194 10.476 568 66.0106 417.523 569.197
421 0 56.1629 11.8228 664 64.3193 417.383 569.976
422 0 60.1365 10.1769 612 65.8137 416.819 567.611
423 0 64.3386 11.3929 733 63.4161 416.962 568.407
424 0 65.1429 12.296 801 62.201 416.371 567.041
425 0 67.1296 10.9341 734 64.0109 416.131 567.45
426 1 33.0332 9.35424 309 63.5469 414.887 582.395
427 0 34.0675 9.51054 324 63.6389 414.701 582.463
428 0 35.0594 9.86896 346 63.3844 414.743 581.968
429 0 36.0183 10.2725 370 64.1378 414.584 579.846
430 0 38.0124 10.7597 409 62.489 414.702 580.289
431 0 39.0397 12.0646 471 61.1486 414.73 579.132
432 0 39.2318 11.7762 462 62.0043 414.716 579.574
433 0 41.1841 12.6262 520 60.375 414.698 578.892
434 0 43.2508 11.8379 512 62.0039 414.449 578.402
435 0 44.2902 11.7407 520 61.8173 414.513 578.085
436 0 46.0897 12.5841 580 60.4224 414.783 576.798
437 0 45.2557 12.109 548 61.7427 414.838 577.144
438 0 46.1322 11.402 526 63.7471 414.945 574.795
439 0 48.1773 12.7238 613 61.4405 415.013 576.708
440 0 48.1375 11.3217 545 64.167 414.747 575.061
441 0 50.1517 12.1232 608 63.6612 414.372 574.401
442 0 49.1703 11.3483 558 65.5932 414.821 573.952
443 0 56.1214 13.0966 735 60.9959 414.177 574.682
444 0 53.1386 12.1004 643 64.6921 415.033 574.342
445 0 57.2665 13.3586 765 62.0784 415.272 574.818
446 0 57.0428 12.9377 738 63.294 415.191 573.081
447 0 59.1687 12.7939 757 63.7741 414.946 572.546
448 0 60.0511 12.889 774 64.0724 414.946 571.721
449 0 65.0562 12.7582 830 63.4614 415.365 570.182
450 0 66.0821 12.545 829 64.1773 415.083 569.317
451 0 69.1672 12.8529 889 63.5343 415.191 569.196
452 0 69.0705 13.3197 920 63.8576 415.203 566.534
453 1 36.2661 9.7336 353 65.7762 415.147 582.459
454 0 38.1843 11.235 429 64.1026 415.049 583.657
455 0 40.1459 12.0311 483 63.3747 414.387 582.772
456 0 41.1657 12.0731 497 63.666 414.314 581.668
457 0 42.0513 11.9854 504 64.5079 414.173 579.909
458 0 44.0654 12.2091 538 63.8662 414.052 580.665
459 0 44.0717 12.6385 557 63.5889 414.4 580.794
460 0 46.0755 12.6097 581 63.7143 414.606 579.876
461 0 47.1824 12.3351 582 64.567 414.833 578.543
462 0 47.1835 12.3772 584 65.1404 414.661 577.695
463 0 49.2248 12.6969 625 64.5264 414.382 577.221
464 0 51.2383 11.9442 612 65.3399 414.838 576.776
465 0 53.2042 13.0817 696 64.4253 414.659 575.841
466 0 54.1402 13.0956 709 64.8406 414.518 574.915
467 0 58.1678 13.0485 759 64.1502 414.43 574.896
468 0 58.1034 13.4932 784 64.7105 414.369 574.037
469 0 59.1929 13.2448 784 65.3087 414.246 574.278
470 0 62.2289 13.3861 833 64.9964 414.657 573.12
471 0 63.1857 13.31 841 66.1546 414.744 572.751
472 0 66.0827 14.1641 936 64.9295 414.156 571.865
473 0 67.0877 13.6836 918 66.4695 414.817 568.768
474 0 71.1861 14.3146 1019 65.0559 414.624 569.083
475 0 71.1437 13.536 963 67.1817 414.767 568.074
476 0 75.0996 14.6206 1098 65.3069 415.133 568.053
477 0 78.1682 14.085 1101 66.337 414.873 565.114
478 0 80.149 14.9347 1197 65.2239 414.942 563.472
479 0 83.1256 13.7503 1143 67.2826 415.016 562.402
480 0 87.1411 13.7363 1197 66.8739 415.184 561.155
481 1 44.2405 10.2621 454 68.337 414.705 582.971
482 0 47.3654 12.203 578 65.4429 415.083 581.216
483 0 46.3274 12.498 579 65.8791 415.161 581.062
484 0 50.3418 13.0508 657 64.4825 415.17 580.423
485 0 48.297 12.1747 588 67.6599 415.597 579.197
486 0 51.1201 12.8325 656 65.8552 416.067 577.619
487 0 54.3438 12.881 700 65.1271 415.961 576.606
488 0 56.3689 13.0568 736 65.1386 416.152 576.05
489 0 56.4761 12.6071 712 65.5843 415.909 575.57
490 0 59.3613 12.8535 763 65.0288 415.971 574.228
491 0 60.2149 12.6381 761 65.2063 415.882 574.292
492 0 63.4003 13.5804 861 64.0859 416.204 571.847
493 0 67.2243 13.5665 912 63.0208 415.943 571.317
494 0 68.1819 13.4346 916 63.7762 416.225 568.022
495 0 69.2626 12.4887 865 65.1514 416.207 567.385
496 0 72.1533 12.1131 874 65.4954 415.979 565.762
497 0 75.3317 13.0224 981 63.9256 416.064 564.448
498 0 78.291 12.3386 966 64.8251 416.341 562.423
499 1 41.0464 12.2057 501 62.4471 415.733 580.962
500 0 42.157 10.5558 445 64.609 415.591 580.083
501 0 43.1639 11.0972 479 64.3069 415.645 579.981
502 0 45.1517 11.8268 534 63.2996 415.476 578.569
503 0 47.1426 12.0698 569 63.5571 415.475 577.012
504 0 47.1883 12.4819 589 63.511 415.808 577.119
505 0 47.349 12.0805 572 64.4406 415.769 576.886
506 0 53.2277 13.4329 715 61.1147 415.94 576.151
507 0 52.1754 12.573 656 63.8933 416.145 573.787
508 0 53.2228 12.9832 691 63.3126 416.179 574.116
509 0 55.1632 12.3996 684 63.9942 416.183 574.374
510 0 57.1099 13.0975 748 63.2206 415.957 572.084
511 0 60.1002 12.2795 738 63.5867 416.266 572.033
512 0 61.1524 13.4909 825 62.7188 415.825 570.743
513 0 62.1304 12.8922 801 64.2884 416.338 570.196
514 0 65.1841 13.5923 886 63.3781 416.553 567.546
515 0 67.1528 12.3748 831 65.0626 415.875 566.449
516 0 71.0854 12.9984 924 62.7619 416.561 567.528
517 0 72.0862 12.7625 920 64.0043 416.672 564.434
518 0 76.2714 13.688 1044 62.4741 416.61 563.971
519 0 78.1255 13.5935 1062 62.7674 416.702 564.302
520 1 42.0541 10.0822 424 62.6816 416.637 582.745
521 0 43.0557 9.98705 430 64.0558 416.919 580.419
522 0 44.1016 11.2014 494 62.1619 416.654 581.178
523 0 44.1701 11.3425 501 62.4192 416.539 580.824
524 0 46.3134 11.8324 548 62.3321 417.387 579.396
525 0 48.4313 12.3267 597 61.8576 417.208 577.747
526 0 48.4832 12.1898 591 63.5025 417.152 577.137
527 0 48.375 12.4858 604 64.2417 417.444 576.588
528 0 51.4656 12.7658 657 63.2161 417.181 575.505
529 0 53.2462 12.7521 679 63.0412 417.196 576.131
530 0 55.267 13.281 734 62.7016 417.497 573.792
531 0 55.2098 12.8238 708 64.0155 417.371 572.966
532 0 57.2972 12.2868 704 64.4034 417.669 572.32
533 0 57.1271 12.8661 735 64.8612 417.482 571.192
534 0 61.2231 13.5243 828 63.1232 417.723 570.079
535 0 62.1616 12.6445 786 65.1654 417.733 567.606
536 0 64.1186 13.1475 843 63.9846 417.434 567.875
537 0 66.174 12.996 860 64.6174 417.647 566.809
538 0 68.1827 13.5958 927 63.7756 417.819 565.325
539 0 72.1202 13.0061 938 64.0362 417.221 564.805
540 0 73.111 14.348 1049 62.4786 417.232 563.349
541 0 76.1701 12.9185 984 64.4136 417.228 561.916
542 0 78.1401 13.7701 1076 63.0586 417.046 562.311
543 1 39.1135 10.917 427 63.0609 416.813 580.354
544 0 42.0673 10.816 455 62.6242 416.16 580.211
545 0 42.0894 11.4518 482 62.8237 416.315 580.176
546 0 44.093 12.7685 563 60.865 416.368 577.808
547 0 47.0974 11.8266 557 60.7666 415.867 578.772
548 0 46.2909 12.227 566 62.9452 415.843 576.677
549 0 47.2209 12.0074 567 63.0917 415.938 576.272
550 0 49.2681 13.1119 646 61.5 415.985 576.807
551 0 52.1235 13.4872 703 61.1266 415.913 574.33
552 0 53.0957 12.2986 653 62.3308 415.79 576.038
553 0 53.1227 12.3299 655 63.3145 415.685 573.357
554 0 56.2034 13.0597 734 62.0163 415.816 573.651
555 0 57.1556 12.9996 743 62.8641 415.588 571.19
556 0 60.1117 13.1921 793 62.5183 415.74 570.238
557 0 61.1032 13.0926 800 62.3713 416.049 566.845
558 0 63.1294 13.211 834 62.2818 415.8 568.518
559 0 66.1889 13.2953 880 62.3523 415.815 566.477
560 0 67.1347 12.7952 859 63.8219 415.977 565.956
561 1 35.0568 9.81264 344 63.0262 415.631 584.14
562 0 36.0332 10.7401 387 62.0362 415.687 583.894
563 0 38.0494 11.3537 432 61.4491 415.463 583.032
564 0 38.0276 11.255 428 62.9696 415.596 581.542
565 0 39.0088 12.1767 475 61.9789 415.227 580.817
566 0 41.1394 13.0775 538 61.5613 415.093 580.123
567 0 42.1755 12.282 518 62.8185 415.346 579.431
568 0 42.0301 12.9193 543 62.895 414.753 578.845
569 0 44.1991 12.3306 545 63.2697 415.13 578.075
570 0 47.0423 12.6269 594 63.0135 415.037 576.869
571 0 48.1656 13.2045 636 62.3632 414.555 576.794
572 0 50.1706 13.6534 685 61.7226 415.032 576.155
573 0 49.252 11.6543 574 65.4965 414.909 576.287
574 0 51.1115 13.1477 672 63.8854 414.4 574.951
575 0 54.1959 13.5435 734 62.7956 414.413 574.405
576 0 55.1773 13.0126 718 64.7047 414.039 574.042
577 0 57.1903 13.901 795 63.8956 413.995 573.357
578 0 58.1768 13.4418 782 64.3913 413.926 573.032
579 0 59.2419 13.0988 776 65.7487 413.499 572.023
580 0 62.1163 13.5874 844 64.7571 413.98 570.193
581 0 64.1187 13.2411 849 65.4723 413.915 570.496
582 0 69.1891 13.7594 952 63.9391 413.485 568.947
583 0 68.1359 13.0915 892 66.7388 413.521 567.169
584 0 74.1593 13.7812 1022 64.5342 414.061 568.012
585 0 74.1407 12.7595 946 67.6057 413.696 564.903
586 1 38.1394 10.6714 407 67.1843 413.275 582.823
587 0 41.0973 11.2903 464 67.1509 413.377 581.593
588 0 43.1565 12.0028 518 67.61 413.459 579.367
589 0 45.0683 12.4256 560 66.4643 413.077 579.825
590 0 45.0727 13.2675 598 66.0452 413.36 579.119
591 0 46.0865 12.7152 586 67.3294 413.097 578.498
592 0 50.1354 12.8053 642 65.9579 412.807 578.902
593 0 51.0349 13.1674 672 66.2872 413.089 577.876
594 0 51.0937 12.7804 653 67.1118 413.221 577.989
595 0 53.0909 13.6935 727 65.3287 412.697 576.732
596 0 55.0724 12.0387 663 67.3801 412.697 576.463
597 0 57.0895 12.6994 725 66.7062 413.08 574.97
598 0 59.1551 13.3378 789 66.2332 413.336 573.271
599 0 60.0683 13.3848 804 66.3458 413.347 573.251
600 0 62.1108 13.0251 809 67.0408 413.396 571.056
601 0 65.123 13.6665 890 65.3989 413.011 570.985
602 0 67.0646 13.6883 918 65.5686 413.044 569.56
603 0 70.0674 13.9152 975 64.9221 412.987 568.207
604 0 72.1897 13.6446 985 66.0223 413.231 567.25
605 0 74.0557 13.7194 1016 65.8061 413.677 566.667
606 0 75.1267 13.4306 1009 66.219 413.178 565.318
607 1 41.1373 11.1091 457 68.0569 412.845 581.958
608 0 43.1133 11.7829 508 67.124 413.11 581.813
609 0 44.1542 10.7577 475 68.5158 413.143 581.739
610 0 45.0738 10.9598 494 68.9798 412.881 580.281
611 0 48.0814 12.9988 625 66.488 413.432 578.994
612 0 50.1984 13.0084 653 66.7749 413.424 577.502
613 0 51.156 12.5108 640 68.1 413.261 577.688
614 0 52.1378 12.8697 671 68.0522 412.58 576.162
615 0 52.1045 12.9739 676 68.4157 413.414 575.614
616 0 55.0152 13.3054 732 68.1995 412.926 575.284
617 0 56.0972 13.0844 734 67.6989 412.946 573.292
618 0 57.0582 13.3022 759 67.2424 413.082 573.358
619 0 58.0568 11.8849 690 69.4594 413.033 572.303
620 0 62.0509 13.1989 819 66.9512 413.195 571.919
621 0 64.0627 13.1122 840 67.2655 413.045 569.65
622 0 64.0613 13.7837 883 67.7214 413.965 568.413
623 0 67.0834 13.3565 896 68.5335 414.213 566.41
624 0 71.0756 13.8585 985 67.5858 414.124 566.045
625 0 72.1293 13.3788 965 69.0788 414.088 563.878
626 0 75.2453 13.7284 1033 68.3659 414.124 563.318
627 0 77.1588 13.9971 1080 68.462 414.146 563.894
628 0 80.0776 13.7242 1099 69.6124 414.1 561.403
629 0 83.097 13.6828 1137 69.8654 414.07 559.838
630 1 41.1187 11.5519 475 70.4274 414.187 578.714
631 0 44.1607 11.7978 521 68.1958 414.779 580.399
632 0 44.0379 11.2176 494 71.0263 414.769 579.225
633 0 47.0544 11.7523 553 70.3689 414.342 577.673
634 0 47.0327 12.8634 605 69.1207 414.089 575.855
635 0 51.1292 12.2435 626 69.9984 414.927 577.546
636 0 53.0705 12.0971 642 70.5218 415.064 575.447
637 0 54.0833 12.5732 680 70.4897 415.247 574.216
638 0 55.0353 12.7918 704 69.4986 415.124 574.402
639 0 54.0404 11.769 636 72.5016 415.033 572.789
640 0 58.0749 13.7753 800 68.3388 415.475 571.701
641 0 61.0729 13.9833 854 67.9321 415.753 571.046
642 0 62.0808 13.6918 850 68.8976 416.026 569.358
643 0 64.0931 13.2152 847 69.5336 416.279 567.708
644 0 66.0845 13.1498 869 69.4039 416.865 566.435
645 0 68.0465 13.0793 890 70.218 416.529 565.025
646 0 70.1744 13.3097 934 69.8694 416.425 564.435
647 0 73.1593 13.2724 971 69.6674 416.696 562.742
648 0 75.0471 13.325 1000 69.747 417.016 562.328
649 0 78.0547 13.5802 1060 69.0557 416.881 559.844
650 1 41.0216 10.336 424 67.9222 416.611 580.377
651 0 42.0652 11.7912 496 66.4214 417.935 578.694
652 0 42.0433 10.8222 455 68.6615 417.297 577.618
653 0 44.1292 11.1717 493 68.0345 417.118 576.765
654 0 47.0561 12.4957 588 65.2823 417.112 575.93
655 0 48.0345 12.9282 621 65.1481 417.523 575.655
656 0 47.1143 12.3529 582 67.6014 417.962 572.998
657 0 49.1617 12.1843 599 67.4524 417.569 573.209
658 0 51.1002 11.3698 581 68.6919 417.432 572.606
659 0 54.1229 12.952 701 65.6063 417.28 573.091
660 0 52.0568 12.3711 644 67.6584 417.29 571.665
661 0 55.0491 13.0066 716 66.6089 417.538 569.711
662 0 59.0476 12.1597 718 67.0223 417.45 568.355
663 0 57.0811 12.6837 724 67.5401 417.525 567.232
664 0 61.1862 13.4344 822 65.8455 418.045 565.679
665 0 64.0641 13.9704 895 63.7106 417.642 567.835
666 0 63.0867 12.6493 798 67.8496 417.482 563.447
667 0 66.1087 13.2055 873 66.9542 417.226 564.412
668 0 70.1457 12.6451 887 66.8828 417.477 564.386
669 0 72.1495 12.6266 911 67.2986 417.877 564.057
670 1 38.0446 10.8031 411 64.7105 417.151 579.268
671 0 39.0283 10.1721 397 67.0403 417.398 576.569
672 0 42.0265 11.4452 481 64.4304 417.268 577.312
673 0 42.0532 11.5092 484 65.8223 417.37 575.86
674 0 42.0446 11.8208 497 66.0905 417.423 573.384
675 0 44.0758 12.4331 548 65.5602 417.531 574.639
676 0 47.112 12.0564 568 65.8451 417.532 573.755
677 0 49.085 11.6125 570 66.0965 417.763 574.311
678 0 50.0773 12.1213 607 65.2817 417.817 573.619
679 0 48.0473 12.1963 586 67.2116 417.947 570.693
680 0 50.0677 12.3633 619 66.7851 417.945 570.362
681 0 52.1463 11.9088 621 67.3076 418.797 570.498
682 0 54.2207 12.0803 655 67.2916 418.846 568.556
683 0 58.0671 14.3971 836 62.878 418.782 568.011
684 0 58.0223 12.6503 734 66.4332 418.804 566.579
685 0 61.1466 12.6745 775 66.0258 418.446 565.619
686 0 61.1217 12.4506 761 66.3771 418.261 564.371
687 0 65.0578 12.8347 835 66.0084 418.485 562.674
688 0 68.101 12.4521 848 66.2217 418.143 563.125
689 1 34.0463 10.3976 354 65.3983 417.876 580.446
690 0 35.0955 11.1695 392 65.9388 417.161 579.413
691 0 33.1301 10.8663 360 69.1028 417.111 578.075
692 0 39.0969 11.9703 468 65.406 417.818 578.297
693 0 40.145 11.8819 477 65.9413 417.66 578.172
694 0 39.259 12.3793 486 66.4362 418.023 576.004
695 0 41.056 11.8375 486 67.0267 417.718 575.107
696 0 42.0558 12.317 518 66.0888 418.371 573.855
697 0 45.2334 11.8497 536 66.3153 418.662 574.89
698 0 44.1315 11.8736 524 66.9389 418.466 573.58
699 0 47.2173 12.3683 584 66.1301 418.134 571.783
700 0 50.2354 12.8595 646 64.5805 418.115 572.13
701 0 51.2179 12.5542 643 65.0498 417.667 570.969
702 0 52.1956 13.2004 689 64.6313 417.206 569.498
703 0 52.0973 12.3423 643 67.3904 416.928 569.123
704 0 57.2627 13.0801 749 68.7036 417.131 569.294
705 0 56.1734 11.3755 639 76.3662 416.62 567.615
706 0 57.3297 13.2741 761 77.3876 416.577 566.317
707 0 60.2244 13.4331 809 78.3053 416.778 566.31
708 0 62.3195 13.7196 855 81.9661 416.567 565.151
709 0 64.2884 14.0305 902 89.4091 416.475 565.105
710 0 66.3098 13.6028 902 73.1741 416.363 564.251
711 0 68.396 12.9832 888 75.7613 416.675 562.314
712 0 70.2909 13.4015 942 75.4374 416.379 563.423
713 0 74.3044 13.4985 1003 76.1216 416.008 561.042
714 1 37.0683 10.3862 385 76.9169 416.61 578.951
715 0 40.1129 11.7917 473 74.8266 416.63 580.541
716 0 41.0566 10.79 443 77.246 416.341 579.718
717 0 41.1156 11.2853 464 78.7996 415.474 578.082
718 0 44.2093 12.4634 551 77.02 415.43 578.666
719 0 44.1551 13.0223 575 76.9061 415.591 577.95
720 0 44.1651 12.8156 566 78.5442 415.475 577.581
721 0 46.2906 13.4153 621 78.2641 415.517 577.287
722 0 48.3422 12.184 589 80.2716 415.428 576.317
723 0 49.2848 12.0524 594 80.7896 415.178 576.766
724 0 51.1532 12.7265 651 80.2304 415.287 574.791
725 0 52.1273 13.3136 694 80.9164 414.941 573.952
726 0 53.3971 12.5288 669 79.5755 415.375 575.317
727 0 55.271 12.9544 716 80.236 414.989 573.906
728 0 57.1039 12.8187 732 80.668 415.15 573.398
729 0 58.0958 13.3228 774 80.0478 415.205 572.775
730 0 60.072 13.0676 785 80.572 414.994 571.566
731 0 60.1678 12.4153 747 82.2222 414.523 571.949
732 0 64.2171 13.1429 844 81.4301 414.78 570.372
733 0 65.0867 13.7662 896 81.3281 414.536 569.122
734 0 69.1069 13.4429 929 81.8924 414.566 569.241
735 0 71.1658 12.8011 911 82.6465 413.943 566.901
736 0 72.1041 14.5207 1047 81.3658 414.363 566.195
737 0 72.1209 12.2711 885 85.339 414.075 563.366
738 0 78.124 13.4146 1048 83.9647 413.866 563.388
739 0 79.1361 12.9145 1022 85.5587 414.146 560.594
740 0 83.1242 13.4137 1115 84.7031 413.961 560.886
741 0 86.1063 13.5646 1168 85.5034 414.023 559.965
742 0 87.1004 12.5143 1090 88.0477 413.767 558.172
743 0 91.1283 14.7045 1340 85.2881 413.704 557.696
744 1 48.0517 12.8611 618 82.8172 413.885 579.856
745 0 48.1639 12.582 606 84.9901 413.929 580.012
746 0 50.2227 11.668 586 87.4164 414.101 577.143
747 0 54.2215 12.8731 698 85.3968 413.971 578.825
748 0 51.389 11.9481 614 89.0244 413.445 575.42
749 0 53.1868 12.6159 671 88.6244 413.449 575.48
750 0 55.3188 12.6539 700 88.5243 413.589 575.003
751 0 57.0993 13.17 752 87.5519 413.294 575.504
752 0 58.2437 12.3275 718 83.7075 413.174 573.017
753 0 61.2279 13.9152 852 82.4507 412.975 572.008
754 0 65.0856 14.1199 919 81.1284 412.859 572.686
755 0 65.0984 14.6855 956 81.8368 412.991 570.724
756 0 67.203 12.3655 831 84.8279 412.978 569.817
757 0 67.2468 13.3984 901 84.8435 413.009 569.579
758 0 70.1558 13.6696 959 85.3983 413.412 569.414
759 0 74.3984 14.3014 1064 83.875 413.095 567.918
760 0 77.1869 14.8341 1145 84.5555 413.253 566.075
761 0 79.3995 13.388 1063 86.7244 413.049 565.653
762 0 82.2362 14.0328 1154 87.6291 412.827 564.113
763 0 83.2101 12.2461 1019 90.2395 413.18 563.068
764 0 86.2197 14.0339 1210 89.5521 413.485 560.819
765 1 44.1868 11.8361 523 89.26 413.413 581.901
766 0 45.0908 10.4012 469 91.1663 413.239 582.755
767 0 47.0216 11.5691 544 89.3787 411.84 581.8
768 0 48.09 14.3481 690 87.4174 412.461 579.978
769 0 50.0899 12.8968 646 89.918 412.348 580.034
770 0 52.1981 12.989 678 90.9204 412.136 577.972
771 0 51.0696 12.8256 655 93.374 412.197 578.189
772 0 53.0685 13.4731 715 92.3636 411.793 578.408
773 0 53.12 12.3306 655 94.9664 411.595 577.411
774 0 58.1725 13.374 778 93.2442 411.577 576.746
775 0 59.0704 13.8817 820 92.8549 411.65 577.041
776 0 60.0818 13.2653 797 95.537 411.647 576.939
777 0 63.0773 13.4914 851 96.5958 411.412 575.221
778 0 63.112 15.3536 969 96.0083 411.693 572.358
779 0 65.1846 13.0092 848 92.5837 411.825 572.6
780 0 67.1494 12.8222 861 92.9152 411.879 572.668
781 0 71.1353 13.6219 969 92.6481 412.096 569.467
782 0 74.0761 13.4996 1000 93.883 412.283 568.058
783 0 73.2361 12.3163 902 97.9069 412.116 566.017
784 0 77.3084 13.569 1049 96.3222 412.15 565.868
785 0 79.2621 13.0075 1031 97.5839 413.155 564.907
786 0 81.2815 13.6562 1110 96.9216 412.929 564.483
787 0 84.1967 13.3259 1122 99.2772 413.138 562.529
788 0 87.211 12.5328 1093 100.899 413.156 562.012
789 0 89.1487 12.8661 1147 100.874 413.393 559.24
790 0 94.2174 13.713 1292 98.024 413.704 556.2
791 0 96.0536 12.7429 1224 99.8848 414.146 556.328
792 0 99.3216 13.1291 1304 100.804 414.25 551.647
793 0 103.186 12.6374 1304 100.721 414.584 552.586
794 1 58.1216 12.8352 746 97.6005 414.335 574.949
795 0 57.1324 12.3398 705 99.4681 414.146 573.772
796 0 62.071 13.0335 809 98.0371 414.391 573.125
797 0 62.0915 12.5621 780 99.4154 414.486 572.532
798 0 65.14 13.0949 853 93.8242 413.702 568.925
799 0 66.145 13.2436 876 95.1735 414.421 565.462
800 0 70.0985 12.8961 904 96.0686 414.872 564.799
801 0 73.1303 13.3734 978 94.9836 415.01 564.558
802 0 75.1993 12.3671 930 96.9548 415.11 562.64
803 0 73.1704 11.9721 876 98.4189 415.013 562.566
804 0 78.2498 12.1151 948 98.7416 414.874 561.559
805 0 84.1595 12.809 1078 98.0037 415.006 558.508
806 0 86.0823 12.581 1083 98.9631 415.412 557.011
807 0 88.2379 12.523 1105 99.1529 415.252 554.219
808 1 45.0171 11.0625 498 95.488 414.831 576.934
809 0 46.0767 11.0468 509 95.8094 414.792 576.383
810 0 49.0696 10.3526 508 97.0709 414.85 576.087
811 0 51.0361 11.4625 585 96.9179 415.024 575.458
812 0 48.036 10.7211 515 100.629 415.041 571.744
813 0 52.0303 11.6278 605 99.6545 415.516 573.828
814 0 56.0253 12.6015 706 98.5581 415.188 572.545
815 0 55.0631 12.4766 687 99.8472 415.945 570.408
816 0 61.0814 10.7725 658 99.8207 415.667 573.407
817 0 59.1024 12.8421 759 100.685 415.48 567.162
818 0 60.1034 11.2306 675 102.133 415.969 569.333
819 0 65.3996 13.257 867 98.8535 416.345 565.276
820 0 66.3116 11.823 784 101.878 416.249 565.867
821 0 68.1887 13.0667 891 101.567 416.571 564.403
822 0 73.1761 11.6432 852 103.824 415.876 565.211
823 0 73.4102 12.3007 903 106.059 415.826 561.463
824 0 76.4515 13.368 1022 106.527 415.853 562.142
825 0 78.359 11.6005 909 109.266 415.8 557.301
826 0 80.4778 13.4944 1086 102.213 415.604 559.026
827 0 84.5048 14.7684 1248 100.973 415.9 558.365
828 0 87.5963 13.4024 1174 104.316 415.572 555.259
829 0 90.5729 12.719 1152 106.232 415.553 556.598
830 0 97.7039 13.111 1281 104.77 415.745 556.194
831 0 95.4789 12.1388 1159 109.384 416.322 550.874
832 0 95.3087 13.451 1282 110.091 415.607 552.03
833 0 101.396 12.6336 1281 109.198 415.524 549.102
834 1 63.3494 10.4184 660 100.697 414.653 576.492
835 0 63.119 9.44248 596 104.107 413.993 574.727
836 0 57.1141 10.838 619 74.4572 414.076 567.619
837 0 56.1308 13.0232 731 70.0068 413.724 559.995
838 0 59.0585 12.2421 723 68.899 413.47 560.564
839 0 59.1203 12.9566 766 68.6501 413.444 559.721
840 0 60.0628 12.7866 768 67.013 413.509 562.147
841 0 61.1117 11.8308 723 69.3956 413.389 558.994
842 0 63.0378 12.0563 760 68.9316 413.846 557.501
843 0 67.1732 12.237 822 68.1375 414.386 562.184
844 0 68.0525 12.4463 847 68.5632 414.064 566.028
845 0 67.2472 11.5693 778 70.9113 413.644 565.086
846 0 71.1303 13.5807 966 68.4534 413.994 565.276
847 0 71.1303 13.5666 965 148.153 415.987 565.256
848 0 77.1462 12.9235 997 69.4754 413.9 563.183
849 0 79.2008 13.9014 1101 69.4632 414.619 561.989
850 0 82.1168 14.1019 1158 69.0907 414.235 561.226
851 0 83.0723 13.4822 1120 70.7357 414.516 559.769
852 0 87.1262 13.5206 1178 70.247 414.324 560.334
853 0 88.1539 13.431 1184 70.9941 413.809 559.461
854 0 92.2396 12.9879 1198 72.01 414.247 555.097
855 0 95.316 13.0828 1247 71.6431 413.626 553.633
856 0 96.2756 12.8485 1237 72.5918 413.854 551.791
857 1 53.1867 10.0589 535 72.671 413.742 573.819
858 0 58.2564 10.6254 619 70.0872 413.447 568.165
859 0 60.1248 11.3763 684 70.0395 413.873 564.506
860 0 60.187 10.6335 640 71.725 413.053 562.483
861 0 65.2298 12.3103 803 69.3387 414.895 562.674
862 0 63.1592 11.8431 748 71.0401 413.476 559.096
863 0 70.1398 12.5178 878 68.6287 414.556 556.925
864 0 71.2937 12.694 905 68.4718 415.129 554.202
865 0 72.1642 13.1644 950 64.6274 414.443 553.863
866 0 73.1139 12.6789 927 60.3053 414.44 557.36
867 0 76.174 12.6815 966 61.1573 413.667 554.116
868 0 81.4199 12.8347 1045 60.3139 413.778 555.543
869 0 81.2899 11.8588 964 62.834 413.976 556.262
870 0 87.4179 13.2467 1158 60.3014 413.733 555.891
871 0 89.3502 12.479 1115 61.157 413.286 554.08
872 0 92.2687 12.637 1166 60.5369 413.22 552.593
873 0 95.416 13.1844 1258 59.9165 413.678 551.608
874 0 97.4251 12.5532 1223 60.6566 413.087 550.129
875 0 101.517 13.0225 1322 60.177 413.466 546.057
876 1 53.2419 9.31596 496 59.504 414.163 572.865
877 0 55.1903 10.346 571 58.1996 413.897 572.862
878 0 55.249 9.23094 510 59.4824 414.169 574.255
879 0 57.2063 9.15983 524 60.2939 413.912 570.538
880 0 59.1728 10.6468 630 58.6206 413.74 570.283
881 0 59.0533 11.3795 672 57.2932 414.439 570.234
882 0 60.0521 11.5566 694 58.0346 411.829 572.301
883 0 64.0737 11.7521 753 58.0305 411.874 569.619
884 0 65.0901 10.6622 694 58.5879 411.556 570.052
885 0 67.182 11.8782 798 57.9398 411.949 569.825
886 0 67.0395 11.4261 766 59.0392 412.03 566.268
887 0 70.1322 12.5477 880 57.4011 412.087 567.149
888 0 72.1293 12.5192 903 56.7996 412.558 565.501
889 0 72.0453 11.1597 804 58.0883 412.352 564.57
890 0 78.1294 12.5945 984 56.6392 412.448 560.93
891 0 79.2504 12.2397 970 57.6742 412.66 559.145
892 0 82.393 12.319 1015 56.6049 413.018 559.908
893 0 85.2595 11.4826 979 57.5107 413.482 555.799
894 1 46.2236 9.58385 443 56.8217 414.077 576.242
895 0 47.1727 9.96339 470 57.4128 414.515 575.311
896 0 49.1193 10.4643 514 56.7626 414.92 575.447
897 0 50.1812 10.0835 506 56.4229 415.168 576.326
898 0 52.2244 11.6038 606 55.0578 415.125 573.67
899 0 54.1392 11.0825 600 57.435 415.668 570.287
900 0 57.275 11.1218 637 55.4317 415.584 572.937
901 0 56.1853 9.93142 558 57.4695 415.629 570.717
902 0 60.2228 12.4039 747 53.6011 415.687 571.647
903 0 63.2082 12.182 770 54.8234 415.214 570.843
904 0 60.1595 11.7687 708 55.3955 415.267 565.429
905 0 62.1126 11.4148 709 56.275 415.203 566.453
906 0 66.2863 13.0796 867 54.0842 416.235 564.867
907 0 69.5687 12.3331 858 54.88 416.626 562.239
908 0 72.4002 13.0525 945 54.1862 416.572 560.608
909 0 73.4988 12.4764 917 55.3359 416.583 559.866
910 0 77.4026 12.5706 973 54.8335 416.725 559.583
911 0 79.2088 12.5996 998 55.1052 416.851 558.27
912 0 83.4219 13.6535 1139 54.4109 416.692 555.938
913 0 86.5205 13.9158 1204 54.4543 417.113 554.773
914 1 44.2015 10.0223 443 56.1535 417.339 574.93
915 0 47.1253 11.6074 547 54.6197 417.605 573.042
916 0 48.1523 10.8406 522 55.8467 417.799 572.466
917 0 49.203 10.9749 540 55.2815 418.057 569.228
918 0 53.0379 11.0487 586 56.7867 419.024 571.428
919 0 53.0379 11.0299 585 142.911 420.014 571.426
920 0 54.2135 13.5575 735 53.9646 417.389 573.393
921 0 53.1437 12.024 639 55.6588 417.685 571.419
922 0 56.1362 11.9887 673 55.9079 417.954 569.259
923 0 65.244 14.8519 969 49.8741 417.947 566.378
924 0 65.21 15.059 982 50.4562 417.84 564.366
925 0 65.2052 13.6952 893 52.9765 417.459 564.14
926 0 65.1467 13.4619 877 54.5656 417.579 567.487
927 0 67.2947 12.9877 874 55.1911 417.114 565.58
928 0 68.2391 13.907 949 55.1412 417.42 564.271
929 0 71.1602 13.8701 987 55.458 417.649 561.622
930 0 74.2192 13.9182 1033 55.5392 417.345 563.898
931 0 73.4111 13.2541 973 57.9733 418.212 563.562
932 0 76.402 12.8792 984 58.5508 418.007 562.075
933 0 78.3352 12.2806 962 60.5301 418.176 559.512
934 1 41.1231 11.5021 473 58.1839 417.693 580.218
935 0 44.1503 10.8493 479 60.3215 417.499 577.52
936 0 40.1048 10.4227 418 62.6005 417.656 576.682
937 0 45.1912 11.4624 518 60.8475 417.952 576.402
938 0 46.2802 11.6248 538 60.4424 417.234 576.877
939 0 47.1208 11.6933 551 61.4174 418.26 575.581
940 0 48.2103 12.0514 581 61.0189 418.184 575.463
941 0 51.2466 12.7618 654 60.0367 417.885 575.378
942 0 52.1835 12.9926 678 59.7861 417.757 574.975
943 0 53.1471 12.7006 675 60.3437 417.486 576.505
944 0 54.1788 12.0158 651 61.9186 417.341 573.333
945 0 56.0779 12.8393 720 60.8333 417.033 572.562
946 0 60.158 13.1819 793 59.6103 417.066 570.581
947 0 63.3863 13.6307 864 58.8137 416.279 570.296
948 0 62.1718 11.9186 741 61.6829 416.884 569.665
949 0 66.1631 12.6203 835 60.9784 416.697 566.926
950 0 68.2594 13.6538 932 59.7779 416.487 566.633
951 0 70.2832 13.6021 956 60.0994 416.44 565.045
952 0 72.1825 13.4382 970 61.2763 416.412 565.015
953 0 75.2547 13.7533 1035 61.2812 416.73 563.324
954 0 78.1334 12.0819 944 63.4566 416.254 562.007
955 0 82.2936 13.4883 1110 61.0901 416.468 561.077
956 1 39.103 10.9966 430 63.3791 416.444 580.953
957 0 40.073 10.6805 428 64.3224 416.175 581.173
958 0 43.2431 11.7244 507 62.0039 415.657 579.515
959 0 42.3261 10.5372 446 64.6256 415.87 580.22
960 0 44.2351 11.6649 516 63.186 415.682 578.955
961 0 47.3019 12.3885 586 62.2509 414.993 577.679
962 0 49.07 12.1663 597 62.7973 415.75 577.152
963 0 51.1053 13.1102 670 61.3119 415.455 576.664
964 0 52.0573 12.8704 670 61.5269 415.563 576.831
965 0 53.1418 13.1723 700 61.5329 415.924 576.074
966 0 53.4134 12.5437 670 63.0209 415.887 574.549
967 0 59.3139 12.9818 770 60.8688 415.539 573.991
968 0 59.306 12.562 745 62.4953 415.454 572.628
969 0 60.3685 12.7881 772 62.6308 415.386 571.947
970 0 62.4213 12.6399 789 63.9708 415.288 569.975
971 0 64.2162 13.4701 865 63.1457 415.055 570.891
972 0 67.1685 13.1609 884 63.9038 415.68 568.826
973 0 69.3919 14.2092 986 63.1359 415.387 567.232
974 0 69.3919 14.1803 984 166.472 414.374 567.185
975 0 75.2512 14.3785 1082 63.5961 414.799 565.006
976 0 76.4155 13.8323 1057 65.2053 414.629 565.075
977 0 80.3975 14.3537 1154 64.1473 414.564 565.093
978 0 80.3975 14.4283 1160 163.885 413.569 565.084
979 1 44.1597 11.2093 495 66.7798 413.739 580.38
980 0 44.0818 10.3444 456 68.7829 413.803 580.081
981 0 48.2112 11.2837 544 66.796 414.388 579.715
982 0 49.0681 12.1056 594 66.5572 414.443 579.214
983 0 51.0962 12.9168 660 66.1727 413.288 578.165
984 0 50.1615 12.7588 640 67.7953 414.155 578.12
985 0 53.2161 12.8908 686 67.0466 413.949 578.105
986 0 55.3733 13.6528 756 66.1878 413.885 576.787
987 0 58.1925 12.2353 712 67.9579 414.096 576.997
988 0 59.2555 12.9102 765 67.2092 413.831 574.932
989 0 59.073 13.2548 783 67.3142 413.655 574.432
990 0 62.1788 13.1717 819 67.0672 413.447 575.733
991 0 64.1765 13.3538 857 67.0665 413.145 573.664
992 0 67.155 13.8039 927 65.8328 413.275 571.662
993 0 68.1691 13.1878 899 67.6007 413.399 571.986
994 0 70.255 13.1948 927 67.9288 413.247 571.238
995 0 72.2847 13.4468 972 68.4877 412.986 569.82
996 0 75.2177 13.308 1001 68.0579 413.304 569.345
997 0 78.2431 13.7648 1077 67.3788 412.97 568.162
998 0 81.2806 14.616 1188 66.2828 413.009 565.418
999 0 85.1801 14.4283 1229 66.4939 413.273 565.026
1000 1 45.1281 12.1211 547 68.5996 412.764 584.141
1001 0 45.0656 11.2281 506 70.0929 412.285 583.814
1002 0 49.135 12.1299 596 68.7735 412.488 582.23
1003 0 50.0548 12.7261 637 68.0298 412.11 581.843
1004 0 51.057 13.2009 674 67.7582 412.05 580.409
1005 0 52.0534 13.294 692 68.0564 412.272 580.88
1006 0 53.2891 13.8302 737 68.0149 413.09 580.414
1007 0 54.2652 12.6969 689 70.0102 413.393 580.087
1008 0 57.1643 13.5574 775 68.8297 413.244 579.121
1009 0 60.194 13.4897 812 68.3362 413.749 578.964
1010 0 62.2139 13.6947 852 67.892 413.684 577.441
1011 0 65.1281 14.1567 922 68.346 414.154 575.591
1012 0 65.2091 13.5564 884 69.6131 413.981 575.018
1013 0 69.232 13.2309 916 69.7707 413.94 573.226
1014 0 72.1654 14.7716 1066 67.2683 414.005 572.348
1015 0 73.1209 13.7717 1007 69.291 413.824 571.78
1016 0 76.2341 14.3505 1094 67.7879 413.734 569.616
1017 0 77.1606 13.8801 1071 69.5434 414.002 567.898
1018 0 81.1634 14.7727 1199 67.1952 413.906 566.334
1019 0 82.2093 13.1007 1077 70.6416 414.079 567.448
1020 1 38.0221 12.7031 483 72.559 413.398 587.122
1021 0 41.0677 12.5646 516 71.8953 413.51 586.155
1022 0 41.0728 12.4413 511 73.8532 414.084 584.873
1023 0 42.0125 12.7343 535 73.6355 414.125 583.738
1024 0 46.1558 14.7977 683 70.1376 413.817 581.95
1025 0 48.0591 14.3573 690 70.0855 414.793 579.739
1026 0 47.0403 14.2431 670 71.7701 414.582 580.504
1027 0 48.0494 13.1948 634 73.5757 415.011 579.819
1028 0 51.0621 14.1201 721 71.7809 414.883 579.108
1029 0 52.1025 14.2603 743 72.2328 414.968 577.743
1030 0 53.168 14.1062 750 72.2347 415.253 577.384
1031 0 56.2878 14.6923 827 71.0919 415.549 576.069
1032 0 65.1337 18.0705 1177 61.0374 415.464 571.276
1033 0 67.1669 16.1389 1084 64.4945 415.933 570.064
1034 0 67.2054 17.2159 1157 63.9144 415.84 569.889
1035 0 69.2838 16.2087 1123 65.6082 415.914 568.342
1036 0 70.1618 16.0486 1126 66.9121 415.988 568.266
1037 0 72.2027 16.1767 1168 67.089 416.454 567.75
1038 1 31.0988 12.5728 391 74.8849 416.128 586.01
1039 0 32.1636 12.2499 394 74.2792 416.759 585.896
1040 0 34.2751 12.8081 439 73.8542 417.141 584.437
1041 0 37.0961 13.0202 483 73.2857 417.476 582.911
1042 0 37.5 13.7867 517 72.3075 417.636 583.321
1043 0 38.2966 13.9699 535 72.0374 417.996 582.445
1044 0 41.2197 15.2597 629 69.9587 418.175 580.418
1045 0 42.2982 14.6342 619 71.4992 418.107 580.412
1046 0 45.2873 15.0373 681 68.1762 418.276 579.791
1047 0 46.1691 14.7718 682 69.6584 418.881 578.119
1048 0 48.1947 15.0432 725 69.3917 418.499 577.997
1049 0 48.3526 15.6145 755 68.694 418.567 577.597
1050 0 53.3612 15.8542 846 66.6229 418.645 576.661
1051 0 57.3947 16.918 971 63.3677 418.991 573.173
1052 0 56.2783 16.8271 947 65.6093 419.172 572.817
1053 0 60.3888 16.0791 971 66.1895 419.11 572.148
1054 0 62.7762 15.6429 982 67.2658 419.248 572.671
1055 0 61.4784 14.8019 910 70.7363 419.309 571.895
1056 0 63.2684 14.968 947 70.8237 418.956 570.692
1057 0 68.5394 16.0346 1099 68.0582 418.814 569.557
1058 0 68.7695 13.8143 950 72.4379 418.818 568.957
1059 0 70.6241 14.3577 1014 71.8067 418.435 567.71
1060 0 74.4596 14.1553 1054 71.8387 418.773 567.191
1061 0 76.4226 14.145 1081 72.284 418.985 565.16
1062 1 38.2654 12.0997 463 76.2462 418.965 581.888
1063 0 39.4848 12.1313 479 75.5115 418.294 581.66
1064 0 42.3906 13.1161 556 73.777 418.522 580.669
1065 0 43.3645 12.8907 559 74.8086 418.544 580.419
1066 0 45.2782 13.5385 613 73.7651 418.401 579.318
1067 0 45.2467 14.432 653 72.7734 418.222 578.738
1068 0 46.4887 13.7238 638 74.4279 418.158 577.694
1069 0 50.3802 14.1325 712 72.0421 418.344 577.35
1070 0 52.3183 13.8384 724 72.634 417.703 575.978
1071 0 54.3475 14.4993 788 71.4378 417.976 573.896
1072 0 54.3218 13.8986 755 73.6993 418.004 573.597
1073 0 55.4822 13.9685 775 74.0942 418.061 571.551
1074 0 59.374 14.5518 864 72.4294 417.912 571.409
1075 0 62.3036 14.4614 901 72.6826 417.719 570.619
1076 0 63.1296 14.8425 937 72.4995 417.427 569.779
1077 0 65.7476 14.5405 956 72.7113 417.112 570.059
1078 0 65.2519 14.6969 959 74.2951 417.02 568.889
1079 0 68.215 14.8061 1010 74.1099 417.07 568.005
1080 0 70.3641 14.3255 1008 75.9177 417.015 567.542
1081 0 74.2733 13.962 1037 76.4716 416.78 565.107
1082 0 77.2242 14.9047 1151 75.1347 416.894 564.412
1083 0 79.3699 14.2245 1129 77.124 417.009 561.702
1084 0 81.415 15.1446 1233 76.0122 416.684 561.728
1085 0 83.4844 14.1823 1184 78.5971 416.361 559.645
1086 1 44.2325 10.1509 449 77.2962 416.318 581.45
1087 0 43.2363 10.3848 449 78.3363 416.486 580.653
1088 0 46.494 12.1736 566 75.3339 416.205 579.177
1089 0 46.494 12.3027 572 160.372 416.185 579.343
1090 0 50.1963 12.4113 623 74.0787 416.698 576.681
1091 0 52.0938 12.4775 650 73.4877 416.912 577.452
1092 0 54.1295 12.1006 655 74.3695 416.992 576.449
1093 0 54.1534 11.2643 610 75.8033 416.475 575.421
1094 0 57.4245 12.2596 704 74.1293 416.568 574.611
1095 0 59.2359 12.2223 724 74.3273 416.706 572.887
1096 0 61.2802 12.1246 743 74.2369 416.26 571.694
1097 0 63.4904 12.2381 777 73.7696 416.337 570.21
1098 0 64.2791 11.0456 710 75.5507 415.979 570.523
1099 0 66.2754 11.075 734 75.4537 416.128 568.721
1100 1 34.2539 8.8457 303 72.3036 415.746 584.802
1101 0 34.2979 9.65075 331 72.4985 416.094 583.601
1102 0 36.2537 9.93002 360 70.5806 416.192 584.447
1103 0 37.1988 10.1347 377 70.1565 415.952 584.008
1104 0 38.4292 10.7991 415 68.7831 415.672 583.398
1105 0 41.2547 10.8351 447 68.3803 415.779 581.729
1106 0 41.2444 10.4499 431 68.9954 415.155 580.861
1107 0 43.1529 10.1268 437 68.7735 415.577 582.384
1108 0 42.0283 9.44601 397 69.403 414.264 580.846
1109 0 43.0465 10.0124 431 68.7146 413.828 582.042
1110 0 45.0572 9.6544 435 68.7839 413.818 580.014
1111 0 47.0842 11.1078 523 66.5774 413.522 579.834
1112 0 47.0653 9.36997 441 69.8345 414.07 578.361
1113 0 51.1263 11.8726 607 65.453 413.919 577.858
1114 0 51.1174 10.1531 519 67.8632 413.746 576.636
1115 0 53.1426 10.7447 571 66.6918 413.951 576.667
1116 0 56.2342 10.6697 600 66.8567 413.65 575.732
1117 0 56.3137 10.9565 617 65.7002 413.211 576.076
1118 0 57.3885 10.5944 608 67.1135 413.556 574.418
1119 0 59.2345 9.876 585 67.8427 413.509 573.706
1120 0 60.5667 10.3852 629 68.1002 413.2 571.981
1121 0 63.4711 11.0601 702 67.0356 413.215 572.705
1122 0 63.675 9.2501 589 69.3413 413.071 571.747
1123 0 65.5155 9.72289 637 69.0031 412.546 570.435
1124 0 69.6523 11.2703 785 67.0382 412.991 567.683
1125 0 71.6056 7.9882 572 70.0402 412.909 569.997
1126 0 73.7286 9.87406 728 68.8379 413.669 568.485
1127 0 73.7286 9.84693 726 145.207 413.678 568.518
1128 0 76.8087 9.8166 754 70.1419 413.106 567.341
1129 1 39.1276 10.4785 410 66.3659 411.915 585.659
1130 0 40.1147 10.2955 413 66.2252 412.262 584.915
1131 0 43.0858 10.5139 453 66.1832 412.945 584.775
1132 0 44.0737 10.2782 453 66.4834 412.605 584.351
1133 0 42.0654 10.6501 448 67.8951 412.725 582.598
1134 0 46.0593 10.3996 479 67.4823 412.948 581.282
1135 0 46.0287 10.8411 499 68.2685 413.042 580.579
1136 0 49.0867 11.225 551 66.6534 413.203 580.995
1137 0 50.033 11.3725 569 67.5483 412.675 580.032
1138 0 51.1417 11.693 598 66.7207 412.547 578.839
1139 0 54.1602 11.6875 633 66.5498 414.047 576.578
1140 0 56.1787 11.944 671 64.8778 414.025 575.314
1141 0 57.2321 11.7417 672 67.2277 414.147 574.624
1142 0 58.2478 11.4339 666 67.7628 414.399 572.587
1143 0 60.4617 11.8753 718 67.3565 414.749 573.276
1144 0 61.4596 11.6662 717 68.0139 414.75 572.335
1145 1 32.2118 8.5683 276 66.9348 415.047 587.221
1146 0 33.1221 10.2348 339 64.7817 414.593 585.587
1147 0 33.4925 9.82309 329 67.076 415.085 584.848
1148 0 34.3699 9.83418 338 66.8728 415.657 583.536
1149 0 35.5154 10.5025 373 66.3968 416.196 584.097
1150 0 37.1769 12.0236 447 65.1074 415.456 584.474
1151 0 38.129 11.9332 455 65.8264 415.387 582.921
1152 0 39.1291 10.9893 430 67.9302 415.463 582.688
1153 0 38.0678 12.0574 459 67.4771 415.534 582.736
1154 0 40.1805 12.3941 498 66.8313 415.876 582.018
1155 0 42.0445 11.2976 475 68.3432 416.116 582.149
1156 0 44.1025 12.1081 534 67.1273 416.766 580.051
1157 0 44.0723 11.8896 524 68.8015 416.653 579.502
1158 0 44.4301 12.379 550 68.2509 418.32 576.129
1159 0 49.2035 14.1047 694 63.7622 418.599 575.476
1160 0 49.3653 13.5925 671 65.4247 418.706 575.227
1161 0 50.2762 12.4313 625 68.5344 419.546 577.43
1162 0 50.24 13.0374 655 68.826 419.58 575.053
1163 0 51.2664 11.9767 614 70.8664 419.65 575.801
1164 0 51.1499 12.9228 661 70.2769 419.566 573.679
1165 0 53.252 12.3188 656 70.8384 419.915 573.23
1166 0 55.0973 12.5596 692 71.5072 419.694 572.905
1167 0 57.1942 12.9384 740 70.8878 420.136 570.223
1168 0 61.2559 13.0763 801 70.6954 420.196 562.655
1169 0 61.3319 13.4188 823 71.1628 419.995 562.855
1170 0 61.1324 13.4462 822 72.2263 419.956 565.822
1171 0 63.0989 13.3917 845 72.2592 420.266 567.981
1172 0 64.2125 13.284 853 73.4021 419.925 566.796
1173 0 68.2194 13.266 905 72.9094 420.274 566.999
1174 0 70.1318 13.8168 969 72.9866 420.712 565.71
1175 0 71.1211 13.4419 956 74.7416 420.304 563.38
1176 0 72.2256 13.7901 996 74.6637 420.333 562.431
1177 0 77.134 14.6628 1131 72.7507 419.501 561.19
1178 0 81.2812 15.1204 1229 71.4158 419.262 559.155
1179 0 79.2025 13.8253 1095 76.0804 419.102 559.521
1180 0 83.2315 13.6367 1135 76.2617 419.383 559.036
1181 1 47.0659 11.7707 554 76.7292 418.639 577.014
1182 0 48.0499 11.384 547 77.3108 418.87 576.728
1183 0 48.034 12.1789 585 77.6974 418.579 574.756
1184 0 50.1488 12.3831 621 78.868 418.448 574.222
1185 0 49.0534 13.312 653 78.5988 418.058 573.155
1186 0 53.2215 13.6035 724 75.4765 418.7 575.443
1187 0 53.2391 13.0355 694 77.9409 418.738 573.8
1188 0 54.1391 13.0036 704 77.9915 418.531 573.303
1189 0 56.1436 13.7505 772 76.6386 417.895 573.617
1190 0 58.2733 13.9172 811 76.4229 418.264 572.767
1191 0 57.2721 13.0081 745 79.1866 417.989 572.345
1192 0 59.2283 13.8447 820 77.3561 417.966 570.344
1193 0 62.1652 13.9789 869 76.2543 418.025 570.388
1194 0 64.1113 14.0225 899 75.9099 417.751 569.174
1195 0 67.1123 13.3507 896 76.4754 417.612 567.345
1196 0 68.0788 13.7047 933 75.6988 417.526 568.34
1197 0 72.1887 14.5037 1047 73.7641 417.557 566.051
1198 0 73.1411 13.4535 984 75.7297 417.545 564.412
1199 0 74.0709 14.1216 1046 74.913 417.067 564.19
1200 0 78.1397 13.8086 1079 74.2178 417.613 563.307
1201 1 40.0529 11.0604 443 74.4831 417.027 582.056
1202 0 41.0211 11.6769 479 73.8685 416.687 580.518
1203 0 42.0525 12.1515 511 72.9883 416.722 580.086
1204 0 44.1949 12.0602 533 72.5403 416.306 580.039
1205 0 45.1246 12.5874 568 72.9331 416.875 578.606
1206 0 47.1613 12.8071 604 71.6656 417.19 578.043
1207 0 49.1332 13.1276 645 71.6419 416.995 577.057
1208 0 48.1167 12.3866 596 73.8775 416.669 576.082
1209 0 50.0712 13.1812 660 70.9136 416.32 576.473
1210 0 52.1977 13.1806 688 70.686 416.259 575.981
1211 0 54.0544 12.8204 693 71.4214 416.159 574.937
1212 0 54.0911 13.1815 713 71.8233 415.91 575.459
1213 0 58.1338 13.4001 779 70.0822 416.023 574.525
1214 0 59.141 13.3917 792 70.5051 415.942 573.263
1215 0 60.1238 13.4722 810 70.3173 415.804 573.428
1216 0 63.0619 12.9555 817 71.0967 415.361 572.411
1217 0 64.0953 13.8076 885 70.2847 415.643 570.945
1218 0 67.1341 14.0614 944 69.4915 415.486 569.697
1219 0 68.257 13.7129 936 70.5962 415.157 569.496
1220 1 35.0438 10.8436 380 72.1263 415.418 586.311
1221 0 37.1354 11.7139 435 71.6207 415.395 584.359
1222 0 38.1239 11.6463 444 71.6599 414.986 583.75
1223 0 41.0835 12.0973 497 71.1066 414.382 582.342
1224 0 41.0678 12.2967 505 71.6931 414.006 582.069
1225 0 44.0811 12.908 569 69.942 414.499 581.673
1226 0 46.0614 12.6787 584 70.5634 414.56 579.824
1227 0 47.0704 13.278 625 69.7232 414.416 579.381
1228 0 47.0438 12.9454 609 71.5238 414.194 577.778
1229 0 49.0234 12.8102 628 70.8678 413.877 578.35
1230 0 51.0649 13.3164 680 70.2412 414.107 577.529
1231 0 53.0715 13.755 730 69.4822 414.212 576.978
1232 0 53.0672 13.9823 742 70.5863 413.749 575.394
1233 0 55.069 13.583 748 71.4746 414.083 575.545
1234 0 57.154 13.105 749 72.1802 414.124 574.748
1235 0 60.0981 14.1935 853 70.4385 414.171 573.787
1236 0 61.0442 14.4158 880 70.7432 414.695 572.128
1237 0 63.1365 14.9993 947 69.7402 414.328 572.699
1238 0 65.0745 13.861 902 71.5333 414.235 572.687
1239 0 65.0964 14.2711 929 71.5942 413.865 570.938
1240 0 70.1547 13.3277 935 73.0182 413.941 570.277
1241 0 71.1162 13.4287 955 73.0471 413.505 568.394
1242 0 73.1564 13.56 992 72.0988 413.619 567.531
1243 0 75.2306 13.2659 998 73.2735 413.679 567.994
1244 0 79.1695 13.2753 1051 72.7802 413.676 566.451
1245 1 41.0502 10.7673 442 73.1923 413.606 585.38
1246 0 41.0473 11.6938 480 73.05 413.667 583.454
1247 0 43.0232 11.4589 493 73.8621 413.929 582.156
1248 0 46.0479 12.5739 579 73.4301 413.888 580.843
1249 0 47.1086 12.779 602 73.49 414.251 580.302
1250 0 46.0625 12.5916 580 74.6759 414.109 580.062
1251 0 51.1319 13.0251 666 72.5796 414.063 579.652
1252 0 50.0982 12.8947 646 74.6053 414.3 578.039
1253 0 53.1034 13.3325 708 73.7232 414.549 577.346
1254 0 52.0713 12.3869 645 77.0279 414.633 576.019
1255 0 56.1319 13.8602 778 73.2571 414.492 575.86
1256 0 56.1319 13.8246 776 165.464 413.513 575.874
1257 0 61.1036 13.5671 829 74.2835 414.09 572.366
1258 0 61.1662 13.4061 820 75.9659 414.489 572.17
1259 0 64.0836 13.8569 888 74.9471 414.972 570.426
1260 0 68.1556 13.6746 932 74.2736 414.628 571.057
1261 0 69.1718 13.8351 957 75.4692 414.641 568.541
1262 0 69.169 13.4887 933 77.254 414.97 567.232
1263 0 74.1025 13.3869 992 76.874 415.392 567.659
1264 0 75.2328 13.7706 1036 76.695 415.678 566.137
1265 0 80.3287 13.4821 1083 76.8199 416.367 562.805
1266 1 39.2029 10.9686 430 76.0837 416.691 583.737
1267 0 40.0716 12.0534 483 75.4534 416.94 581.615
1268 0 41.2331 11.1076 458 77.7118 417.041 581.14
1269 0 42.0547 12.3173 518 75.8571 417.427 581.477
1270 0 44.1166 12.263 541 76.1183 417.893 579.579
1271 0 46.2609 11.8242 547 77.3199 416.645 578.971
1272 0 46.2775 12.5763 582 77.2302 417.34 579.237
1273 0 48.158 12.7705 615 76.0309 417.522 579.376
1274 0 51.1861 12.562 643 76.3624 417.879 577.712
1275 0 51.4166 12.8363 660 75.7955 418.02 577.65
1276 0 52.1627 13.4195 700 75.6429 418.246 576.68
1277 0 53.1803 13.6329 725 75.0717 418.503 575.792
1278 0 56.1315 13.2724 745 74.3624 418.988 575.403
1279 0 58.0826 13.3947 778 73.6478 419.626 574.608
1280 0 58.1456 13.9649 812 73.4877 419.642 573.225
1281 0 60.0949 12.8463 772 74.7966 419.497 572.184
1282 0 64.1626 13.9645 896 72.2031 419.527 570.961
1283 0 66.151 13.3634 884 73.0419 419.722 569.045
1284 0 67.1882 13.1571 884 73.5113 419.903 568.64
1285 0 71.1425 12.5523 893 73.3751 419.28 567.551
1286 0 72.2838 13.5992 983 72.5483 419.47 565.082
1287 0 76.2007 14.1993 1082 70.232 419.787 564.297
1288 0 77.2095 13.0683 1009 72.3082 419.786 561.8
1289 0 81.2191 13.1742 1070 71.6925 419.713 561.008
1290 0 84.1927 12.9465 1090 71.7422 419.804 559.845
1291 1 46.0482 11.4445 527 72.6717 419.911 579.169
1292 0 48.0447 11.073 532 73.0752 419.773 578.519
1293 0 46.085 12.3901 571 71.8757 419.504 577.452
1294 0 48.0599 12.6093 606 71.099 419.731 576.517
1295 0 51.0958 13.3866 684 69.7822 419.323 575.711
1296 0 51.0896 12.5662 642 71.8489 419.379 575.005
1297 0 55.0667 13.7651 758 68.7032 419.249 573.809
1298 0 56.1658 12.926 726 70.2961 419.19 573.011
1299 0 57.1687 12.9616 741 70.5776 419.533 571.574
1300 0 61.347 12.6331 775 70.2787 419.378 570.452
1301 0 62.4607 13.2884 830 69.5157 418.658 568.823
1302 0 64.2616 13.554 871 70.1297 418.992 568.264
1303 0 66.573 14.0447 935 68.7636 418.89 566.308
1304 0 69.2469 13.3869 927 69.3344 418.736 567.204
1305 0 70.2999 13.6416 959 69.8227 418.867 565.728
1306 0 73.4977 13.6875 1006 69.6064 418.608 564.979
1307 0 75.2455 13.5025 1016 70.4478 418.577 561.426
1308 0 77.4449 13.7905 1068 69.956 418.343 561.986
1309 0 80.4611 12.7764 1028 71.5632 418.077 559.872
1310 0 82.4157 13.7352 1132 69.9973 418.002 559.087
1311 1 42.2524 12.0466 509 72.0255 417.77 578.821
1312 0 44.4184 11.144 495 72.7091 418.125 577.721
1313 0 46.3861 11.5552 536 73.2201 417.427 577.216
1314 0 48.3114 12.999 628 71.5096 417.475 575.92
1315 0 50.1961 13.3676 671 70.5082 417.531 576.127
1316 0 52.3014 13.0398 682 70.8431 417.016 577.633
1317 0 52.6046 12.8126 674 72.0608 416.671 575.494
1318 0 55.3235 13.159 728 71.0838 416.518 573.423
1319 0 56.5556 13.5265 765 71.0915 416.089 572.893
1320 0 58.5476 13.7666 806 71.3238 416.072 571.115
1321 0 60.3396 14.1366 853 70.4725 415.927 571.756
1322 0 63.6048 14.7159 936 68.6774 415.514 570.452
1323 0 63.538 13.7083 871 71.7979 415.538 569.855
1324 0 65.384 14.2695 933 69.8017 415.501 569.423
1325 0 68.5357 13.7009 939 70.6997 415.808 567.157
1326 0 72.6039 14.2279 1033 69.7377 415.089 566.877
1327 0 73.3931 13.3527 980 71.6857 415.297 565.695
1328 0 77.4056 15.0118 1162 68.1859 415.334 565.151
1329 1 38.3116 11.9024 456 72.2478 414.871 582.471
1330 0 41.2226 11.8624 489 71.3599 415.104 582.035
1331 0 41.1422 12.396 510 71.4451 414.955 581.484
1332 0 45.3669 12.3658 561 69.3209 414.419 580.807
1333 0 44.1427 12.5049 552 70.1286 415.029 581.649
1334 0 47.0925 13.1019 617 72.128 414.781 581.078
1335 0 46.0714 13.3272 614 71.7378 415.106 579.296
1336 0 49.1786 13.6238 670 70.8239 414.533 577.104
1337 0 50.2172 13.6009 683 70.9517 414.499 576.996
1338 0 53.1378 13.098 696 71.0963 414.674 576.211
1339 0 55.0744 13.7632 758 69.3562 414.381 574.269
1340 0 56.3206 13.3344 751 69.8029 413.971 574.048
1341 0 60.655 13.651 828 68.4082 414.208 572.626
1342 0 59.7242 13.3279 796 69.7563 414.69 571.802
1343 0 64.4446 13.8569 893 67.6551 414.251 569.756
1344 0 65.5039 13.6786 896 68.8516 413.924 569.444
1345 0 66.3218 13.5702 900 69.4667 413.284 570.043
1346 0 70.5259 14.1508 998 67.1884 413.708 569.935
1347 0 71.4292 13.8179 987 68.5765 413.421 568.24
1348 0 75.5613 14.0813 1064 67.4521 413.39 567.021
1349 0 76.5733 13.6209 1043 69.1237 413.084 566.548
1350 0 79.6048 14.3333 1141 67.7564 412.922 564.368
1351 0 82.5914 14.2509 1177 68.0187 412.779 563.238
1352 0 83.468 13.5741 1133 70.1077 413.068 562.023
1353 0 87.538 14.7365 1290 67.8791 412.668 560.029
1354 0 90.578 13.3366 1208 70.0944 412.784 558.974
1355 1 45.3522 10.672 484 73.0599 412.258 581.163
1356 0 48.4877 11.9412 579 71.7116 412.199 579.573
1357 0 47.4819 11.3728 540 73.2111 411.826 580.089
1358 0 51.3085 12.1422 623 72.2087 411.799 577.992
1359 0 53.4119 12.7125 679 71.0427 411.747 576.966
1360 0 53.1855 13.1615 700 71.4571 411.631 576.366
1361 0 56.1141 12.2785 689 73.4151 411.954 574.001
1362 0 59.2889 13.527 802 71.01 411.959 572.944
1363 0 60.1159 13.3243 801 72.2047 411.637 572.062
1364 0 64.224 13.8889 892 70.7354 411.617 570.691
1365 0 63.2642 12.5821 796 74.3945 411.69 571.328
1366 0 65.16 12.6151 822 74.2238 411.828 570.002
1367 0 70.2514 14.2488 1001 71.2767 411.767 568.238
1368 0 70.1965 13.8184 970 72.8649 411.649 567.09
1369 0 72.3362 14.4879 1048 72.7958 411.393 566.861
1370 0 74.2277 12.8523 954 75.9067 411.3 566.976
1371 0 76.2799 12.913 985 76.7066 411.913 564.689
1372 0 81.26 13.2414 1076 75.9145 411.197 564.102
1373 0 82.1067 13.5677 1114 76.8357 411.365 562.853
1374 0 83.3536 13.2808 1107 78.4354 411.87 560.245
1375 0 87.3156 13.9723 1220 77.1172 411.984 557.753
1376 0 90.4212 14.6426 1324 76.4637 412.355 556.122
1377 0 93.6621 13.6341 1277 78.7886 412.732 557.37
1378 0 96.4898 14.0118 1352 77.9652 412.343 554.758
1379 0 99.5484 14.2745 1421 77.8198 413.014 553.328
1380 1 55.2805 10.9442 605 78.205 413.486 577.707
1381 0 56.2187 11.6865 657 78.7245 413.344 576.432
1382 0 57.2905 11.9566 685 76.0161 413.619 576.555
1383 0 61.3202 12.1167 743 74.817 413.711 575.486
1384 0 63.1222 12.6421 798 75.6316 413.477 570.949
1385 0 65.1626 13.827 901 75.5505 413.762 570.624
1386 0 66.2113 13.2455 877 76.6249 413.814 568.56
1387 0 67.2908 13.3153 896 76.2165 413.685 568.762
1388 0 70.2877 13.7008 963 74.5992 414.148 566.19
1389 0 73.2351 13.2587 971 75.1565 414.088 565.852
1390 0 74.3633 13.6761 1017 75.4494 414.373 563.776
1391 0 77.3081 13.7243 1061 74.6513 414.057 563.259
1392 0 80.3004 13.8605 1113 74.4394 414.443 560.823
1393 0 82.3947 13.763 1134 73.8942 414.535 560.92
1394 0 86.2262 13.395 1155 73.826 414.853 558.334
1395 0 89.2024 13.7777 1229 73.6347 415.046 556.413
1396 0 91.4088 14.3422 1311 72.5645 415.114 554.794
1397 0 94.3265 13.6971 1292 73.1966 414.974 554.044
1398 0 99.2079 13.3457 1324 72.8414 415.301 550.668
1399 0 102.318 14.152 1448 71.4931 415.644 548.878
1400 1 52.2958 9.7331 509 72.8644 414.914 576.216
1401 0 54.4502 10.5968 577 69.5269 414.757 577.712
1402 0 56.3117 11.5962 653 68.4456 415.263 575.343
1403 0 56.1028 11.7819 661 67.1589 416.363 574.231
1404 0 58.1324 12.2823 714 67.5042 416.875 573.972
1405 0 60.1475 12.3363 742 67.3477 416.93 572.406
1406 0 61.2893 11.7312 719 68.5257 417.438 570.787
1407 0 64.122 12.0551 773 67.4023 417.853 570.334
1408 0 65.2437 11.7559 767 67.5671 418.057 568.648
1409 0 67.0825 12.4026 832 67.2368 417.986 565.077
1410 0 69.3665 12.4844 866 66.4711 418.242 564.182
1411 0 73.4151 12.191 895 66.5464 418.185 565.92
1412 0 74.5697 12.0424 898 66.9688 418.3 563.69
1413 0 79.5498 12.5205 996 64.8394 418.154 563.657
1414 0 80.4412 12.2698 987 64.8318 418.097 563.073
1415 0 81.2849 12.327 1002 65.2136 418.006 556.658
1416 0 85.2705 12.2669 1046 64.6644 418.08 555.287
1417 0 90.4611 12.4473 1126 63.4449 418.685 557.196
1418 0 90.4108 11.8017 1067 64.2024 418.847 553.604
1419 1 47.1945 9.83166 464 63.0388 418.097 574.614
1420 0 50.2296 10.5715 531 61.6855 418.021 573.294
1421 0 50.3045 10.5358 530 61.4623 418.619 573.296
1422 0 53.1074 10.5823 562 61.5249 419.137 572.418
1423 0 55.0821 10.9654 604 60.601 418.465 570.846
1424 0 57.1143 10.7854 616 59.1883 418.982 572.278
1425 0 59.1564 10.7173 634 58.8454 418.274 570.468
1426 0 61.1727 12.3585 756 57.1653 418.187 569.765
1427 0 61.1052 10.801 660 59.6818 417.67 567.633
1428 0 64.1393 12.5508 805 57.2112 417.922 567.641
1429 0 67.1719 12.2373 822 57.1436 417.363 568.207
1430 0 69.2445 12.6075 873 56.8729 417.614 565.086
1431 0 70.2091 12.8046 899 56.5417 417.873 563.11
1432 0 71.1799 11.7027 833 58.3745 418.131 563.175
1433 0 75.2203 12.6695 953 57.1941 417.923 561.193
1434 0 79.1572 12.292 973 58.0832 418.45 561.475
1435 0 79.1572 12.2162 967 130.694 418.46 561.567
1436 0 83.2175 12.6776 1055 58.8322 417.936 558.913
1437 0 86.1941 11.857 1022 60.4393 418.339 556.191
1438 1 46.086 9.72096 448 59.9688 418.46 578.121
1439 0 45.115 9.75286 440 61.0568 418.064 576.332
1440 0 45.1064 9.9764 450 59.9289 418.667 575.78
1441 0 47.137 11.4135 538 58.6227 418.433 574.403
1442 0 49.0581 11.2927 554 58.4495 418.321 573.693
1443 0 51.0817 11.4914 587 57.7462 417.451 575.009
1444 0 51.0819 11.4326 584 58.2021 417.719 574.315
1445 0 51.0819 11.4326 584 127.632 418.721 574.36
1446 0 53.0762 11.6625 619 59.1034 418.254 573.372
1447 0 57.0999 11.3485 648 59.9198 417.687 572.565
1448 0 56.0894 12.0522 676 60.3033 417.963 570.589
1449 0 60.132 12.406 746 59.563 418.019 570.412
1450 0 62.1472 12.9692 806 57.598 417.569 571.516
1451 0 63.0797 12.0324 759 59.8551 417.726 569.266
1452 0 65.1631 12.5685 819 59.4188 416.974 567.921
1453 0 67.1851 14.0359 943 57.702 416.915 567.28
1454 0 71.1558 12.7748 909 59.2343 416.402 566.668
1455 0 73.149 13.6981 1002 58.4441 415.971 565.114
1456 0 75.6218 12.5757 951 60.5237 416.601 563.379
1457 0 77.4315 13.018 1008 60.869 415.335 561.86
1458 0 79.3805 13.4668 1069 60.0486 415.756 559.892
1459 0 86.5845 14.2982 1238 58.2561 416.429 559.072
1460 1 42.2772 10.3129 436 62.9266 416.287 578.493
1461 0 43.3117 11.3595 492 61.3049 416.104 578.992
1462 0 44.3576 11.5651 513 61.3119 416.407 578.809
1463 0 47.2224 11.88 561 60.8414 415.952 577.954
1464 0 48.1519 12.4398 599 60.4357 416.082 577.145
1465 0 47.2573 12.3579 584 62.0531 414.925 578.579
1466 0 51.347 11.7047 601 61.8885 415.062 577.745
1467 0 52.2174 11.6819 610 62.5279 415.103 577.592
1468 0 52.2274 12.1584 635 62.5528 415.083 575.17
1469 0 55.285 12.4084 686 61.7551 415.07 576.016
1470 0 57.2974 12.4089 711 61.5232 414.796 577.076
1471 0 59.1197 13.0752 773 60.8254 414.591 573.779
1472 0 61.1677 12.9971 795 60.1472 413.764 574.332
1473 0 62.1941 12.252 762 61.7927 413.899 571.585
1474 0 63.1897 12.9768 820 60.9512 414.365 572.163
1475 0 65.24 12.6916 828 61.5012 413.789 571.593
1476 0 68.2171 13.2958 907 59.8082 413.67 572.466
1477 0 68.1798 12.7164 867 61.158 413.769 569.405
1478 0 73.1517 13.4652 985 59.6914 413.818 567.526
1479 0 73.1609 13.1491 962 60.7723 413.56 566.31
1480 0 75.1214 12.2335 919 61.6725 413.516 567.046
1481 0 79.2053 12.9032 1022 60.8425 413.068 563.343
1482 0 81.2767 12.9927 1056 60.7519 413.244 563.189
1483 0 85.3035 12.8717 1098 60.8843 412.935 562.209
1484 0 86.2975 12.3642 1067 62.1537 413.042 562.222
1485 1 47.1918 10.7646 508 62.7067 412.226 580.638
1486 0 50.2387 9.99229 502 62.3446 412.345 580.641
1487 0 51.3126 11.3033 580 62.1086 412.334 578
1488 0 55.1831 12.5401 692 59.9971 412.055 576.749
1489 0 55.2325 12.3478 682 60.371 412.133 576.811
1490 0 57.1037 12.416 709 60.9831 412.408 576.518
1491 0 60.1311 11.4916 691 61.6773 412.397 575.577
1492 0 61.1934 12.8609 787 60.7573 412.118 574.023
1493 0 63.1514 13.0163 822 60.7895 412.269 571.788
1494 0 64.0658 12.7525 817 61.47 412.285 572.033
1495 0 64.1795 12.7611 819 62.3871 412.836 571.397
1496 0 68.2053 12.7996 873 61.9439 413.072 571.006
1497 0 71.164 13.4056 954 60.5577 413.144 569.927
1498 0 71.136 12.3707 880 64.2886 413.393 567.953
1499 0 71.1219 12.4715 887 64.8726 414.02 566.794
1500 0 74.2506 12.9427 961 64.1051 414.592 565.198
1501 0 79.2478 13.136 1041 63.3295 414.764 564.994
1502 0 79.1704 13.4015 1061 63.6767 415.258 563.01
1503 0 82.0756 13.2561 1088 63.954 415.624 561.878
1504 1 46.1907 8.9412 413 65.3801 415.719 581.923
1505 0 45.1921 10.3337 467 65.0578 415.876 579.91
1506 0 49.0649 11.2912 554 63.2329 415.704 580.372
1507 0 50.0442 11.1501 558 64.5591 415.557 579.586
1508 0 51.1337 12.0469 616 64.2305 415.255 578.896
1509 0 53.1575 12.4912 664 62.8886 415.146 576.563
1510 0 55.0885 11.5451 636 65.4921 415.307 577.184
1511 0 54.1118 11.5502 625 66.8704 416.203 575.363
1512 0 57.0924 12.9965 742 64.628 416.415 574.046
1513 0 57.0924 12.9965 742 144.911 417.415 574.046
1514 0 60.1277 12.3238 741 66.3657 416.445 572.703
1515 0 62.0962 12.9315 803 65.8817 416.477 571.345
1516 0 62.1309 13.3911 832 65.9784 416.643 570.803
1517 0 65.1403 13.1716 858 65.8485 416.913 570.598
1518 0 67.0853 12.6704 850 67.1753 417.241 567.528
1519 0 69.1191 12.8619 889 66.8661 416.944 567.871
1520 0 70.0652 13.2876 931 66.9409 417.636 565.87
1521 0 75.0826 13.625 1023 65.9198 417.989 564.874
1522 0 77.0535 13.5361 1043 66.209 418.127 566.009
1523 0 80.0437 13.3427 1068 66.3118 418.108 563.177
1524 0 81.147 13.4324 1090 66.6156 418.336 561.755
1525 0 83.1202 12.9692 1078 67.5362 418.339 559.42
1526 0 91.0912 13.6347 1242 65.2383 418.124 558.914
1527 0 91.1289 13.4754 1228 65.794 418.581 555.308
1528 0 95.1368 13.633 1297 65.0386 418.742 554.131
1529 1 51.0875 10.2765 525 64.7238 418.598 577.581
1530 0 53.1904 10.1522 540 64.8093 419.05 578.204
1531 0 55.067 10.3692 571 64.9667 418.799 576.869
1532 0 57.1177 11.4675 655 65.5252 418.797 573.435
1533 0 58.0305 11.8558 688 64.8808 418.66 574.369
1534 0 61.1272 12.2204 747 64.6693 418.415 572.329
1535 0 62.1238 12.3785 769 64.7308 419.049 571.692
1536 0 64.083 12.2185 783 64.4802 418.88 569.884
1537 0 69.1108 12.328 852 63.6596 418.867 569.68
1538 0 68.2087 12.8429 876 64.3607 418.586 567.855
1539 0 70.0917 11.8131 828 65.5688 419.011 566.798
1540 0 72.1404 12.5588 906 64.6898 418.942 564.692
1541 0 75.3262 12.4525 938 64.8785 418.644 563.051
1542 0 77.1181 12.4355 959 64.8373 418.883 564.086
1543 0 80.121 12.7058 1018 64.6994 418.867 561.139
1544 0 81.185 12.7117 1032 65.3227 418.762 559.744
1545 0 85.1698 12.8567 1095 64.7114 419.255 559.267
1546 0 88.2222 12.6499 1116 64.8961 419.277 558.122
1547 0 92.2096 13.209 1218 64.4376 418.99 556.291
1548 0 94.2554 13.6226 1284 64.1994 418.871 555.353
1549 0 96.4718 13.1334 1267 65.3733 418.871 555.108
1550 1 52.0464 10.3562 539 65.1354 419.278 579.391
1551 0 52.1053 10.6131 553 65.3996 419.541 577.322
1552 0 54.0433 11.2317 607 64.8303 418.797 576.005
1553 0 55.123 11.1387 614 65.4837 418.195 577.011
1554 0 57.1016 11.4007 651 65.2657 418.129 574.21
1555 0 59.1073 12.6719 749 62.6275 418.151 575.36
1556 0 61.0838 12.3928 757 63.4478 417.793 574.559
1557 0 62.1458 11.4891 714 64.9846 418.05 574.066
1558 0 64.1242 12.7253 816 64.5625 418.893 571.009
1559 0 66.2132 13.0488 864 64.706 418.341 569.755
1560 0 68.1987 12.4636 850 65.1612 418.095 568.867
1561 0 70.239 12.1015 850 65.4894 417.465 568.136
1562 0 72.2764 12.3138 890 66.0831 417.9 566.854
1563 0 74.2054 12.2633 910 66.4044 417.912 564.632
1564 0 77.2156 12.7565 985 66 417.441 564.508
1565 0 79.162 13.8955 1100 64.1464 416.948 565.145
1566 0 79.162 13.8577 1097 156.554 415.94 565.138
1567 0 85.4107 12.9375 1105 65.3891 416.49 562.195
1568 0 89.2843 13.2722 1185 64.7907 416.266 558.496
1569 0 90.2888 12.8477 1160 65.9517 416.163 556.08
1570 0 93.4301 12.2659 1146 65.5942 416.268 558.477
1571 1 50.2216 10.0753 506 65.7451 415.34 578.427
1572 0 51.1977 10.3716 531 65.7081 415.463 578.539
1573 0 53.1371 9.67309 514 66.177 415.165 578.809
1574 0 54.3461 10.8747 591 64.8545 415.117 577.176
1575 0 57.3366 12.5574 720 62.7694 415.251 575.729
1576 0 57.1986 11.9758 685 64.5197 415.772 574.974
1577 0 61.1777 12.3901 758 62.6636 415.373 574.009
1578 0 62.1546 12.9194 803 62.6139 414.984 573.442
1579 0 63.1495 13.1276 829 63.5754 414.748 575.285
1580 0 63.1934 12.7861 808 64.823 414.623 574.806
1581 0 66.1279 13.2924 879 64.0546 414.256 572.786
1582 0 69.2502 13.4007 928 63.4095 414.588 572.808
1583 0 69.1427 12.8285 887 65.009 413.644 571.299
1584 0 71.1423 12.9318 920 64.7065 413.97 570.254
1585 0 73.217 13.1117 960 64.5312 414.018 568.87
1586 0 76.177 13.6524 1040 63.6913 413.831 568.495
1587 0 79.0808 12.9108 1021 64.9422 413.704 565.732
1588 0 83.1302 13.8939 1155 62.6372 413.629 564.437
1589 0 83.0549 12.2329 1016 65.5886 413.09 563.591
1590 0 86.1071 13.2858 1144 64.1084 413.642 562.774
1591 0 89.0954 13.1769 1174 64.2198 414.065 560.152
1592 0 93.1666 13.7281 1279 63.38 413.85 559.5
1593 0 94.1372 13.7246 1292 63.8537 413.777 557.046
1594 0 98.1958 13.1676 1293 64.0433 413.603 554.949
1595 0 102.358 13.9999 1433 62.8618 413.676 553.794
1596 0 104.405 13.6967 1430 63.449 413.797 554.08
1597 0 109.175 14.1332 1543 62.7174 414.456 550.375
1598 1 59.0612 11.9876 708 63.565 413.77 575.504
1599 0 62.1744 11.0978 690 64.8957 413.439 574.574
1600 0 62.0976 12.1744 756 64.0119 413.996 572.858
1601 0 65.0483 13.0518 849 63.3263 413.777 573.744
1602 0 68.1661 12.9977 886 63.2946 414.006 570.963
1603 0 71.0779 13.5907 966 62.0735 414.67 569.739
1604 0 72.1653 13.3721 965 63.2446 414.563 566.573
1605 0 76.1722 14.0602 1071 61.8973 415.144 566.254
1606 0 76.0343 13.0599 993 63.9849 414.939 564.782
1607 0 78.1394 13.3735 1045 63.4498 415.48 563.965
1608 0 83.1483 13.7225 1141 62.6766 415.637 562.984
1609 0 86.1531 12.9769 1118 63.3837 416.141 561.361
1610 0 88.1458 12.8537 1133 64.0088 416.458 558.379
1611 0 92.1259 13.3622 1231 62.8164 416.544 556.851
1612 0 96.2079 13.5332 1302 62.2727 416.553 554.58
1613 0 99.12 13.1356 1302 62.6275 416.803 553.439
1614 1 49.1914 10.7336 528 61.8125 417.292 578.138
1615 0 53.2228 10.8412 577 62.0711 417.291 576.456
1616 0 55.2221 11.2093 619 59.5719 417.512 576.91
1617 0 56.1975 11.3172 636 60.8192 418.094 575.142
1618 0 56.1077 12.3156 691 60.0246 417.877 574.823
1619 0 59.0995 12.1829 720 60.4514 418.465 572.275
1620 0 58.1029 11.9271 693 62.4531 418.609 571.446
1621 0 62.0704 13.4525 835 60.3808 418.871 568.971
1622 0 66.1173 12.6291 835 60.3269 419.139 569.406
1623 0 68.0802 13.3372 908 59.3315 418.956 567.472
1624 0 68.1545 12.6477 862 60.7158 418.726 566.13
1625 0 70.0451 12.3635 866 60.6201 418.621 566.001
1626 0 72.2018 12.8806 930 60.429 419.042 562.494
1627 0 72.2018 12.9083 932 147.606 420.039 562.549
1628 0 72.2018 12.8944 931 147.157 421.03 562.564
1629 0 82.2138 12.9054 1061 60.5787 419.827 559.237
1630 0 83.3298 12.6725 1056 60.392 419.603 559.702
1631 1 43.0404 10.2462 441 62.1655 419.215 577.197
1632 0 47.0445 10.2244 481 61.3202 420.102 576.32
1633 0 47.0842 11.2352 529 61.0057 420.1 576.159
1634 0 47.1592 11.3446 535 61.5084 420.292 574.931
1635 0 49.1386 12.2918 604 60.3742 419.493 574.76
1636 0 50.1578 11.9423 599 61.5042 419.624 574.015
1637 0 52.0943 12.2854 640 61.4859 419.913 573.491
1638 0 56.1806 12.7446 716 60.6508 419.057 572.55
1639 0 54.1496 12.5209 678 62.2109 419.249 571.776
1640 0 58.1651 13.2554 771 60.7977 419.353 572.156
1641 0 62.1124 13.6527 848 58.8125 419.846 570.63
1642 0 62.2254 12.8243 798 61.6642 419.794 569.362
1643 0 64.1863 12.8999 828 61.686 419.699 569.146
1644 0 67.3136 13.3851 901 61.0954 419.751 567.344
1645 0 67.2319 13.0444 877 62.7822 419.51 566.417
1646 0 70.3533 13.0911 921 63.43 419.246 566.446
1647 0 72.2636 13.7552 994 62.7565 419.395 565.935
1648 0 75.3211 13.2898 1001 63.3097 419.314 565.768
1649 0 75.3277 13.1027 987 64.9868 418.796 563.393
1650 0 81.1334 14.1495 1148 62.2526 418.666 561.456
1651 0 81.1053 13.0571 1059 64.5194 418.675 560.496
1652 0 85.1507 13.846 1179 63.313 418.313 557.984
1653 0 87.1586 13.3894 1167 63.6881 418.764 558.039
1654 1 43.0982 10.9981 474 64.2616 418.658 578.772
1655 0 46.1268 10.818 499 64.5511 418.423 578.07
1656 0 47.1957 11.1451 526 64.9601 417.648 576.582
1657 0 49.1377 12.4955 614 63.5912 418.482 576.358
1658 0 50.1743 12.6559 635 63.1339 418.208 576.578
1659 0 51.1515 12.4141 635 63.5559 417.589 574.613
1660 0 55.1085 13.3736 737 61.4342 417.845 574.687
1661 0 55.0181 12.3959 682 63.4282 418.339 571.468
1662 0 56.1333 12.2209 686 64.4665 417.436 571.535
1663 0 60.123 13.489 811 61.8274 417.392 571.44
1664 0 60.1356 13.0039 782 63.1637 417.542 571.707
1665 0 63.3047 11.9738 758 64.1425 417.124 570.284
1666 0 65.1127 13.3 866 62.6132 417.135 568.621
1667 0 67.0933 12.7136 853 62.3376 417.076 568.387
1668 0 70.3533 13.3469 939 61.196 416.827 566.061
1669 0 73.1602 13.1902 965 61.0311 416.633 565.972
1670 0 73.2781 12.8415 941 61.4453 416.713 565.389
1671 0 78.3574 13.1832 1033 60.5479 416.727 563.621
1672 1 39.1416 9.52951 373 62.5818 416.44 583.509
1673 0 44.11 11.6754 515 60.1942 415.938 581.148
1674 0 43.1332 11.1747 482 61.3029 416.008 581.239
1675 0 46.0565 12.3327 568 59.9489 415.537 579.577
1676 0 46.1038 12.5803 580 60.4897 416.112 579.61
1677 0 47.0875 12.0839 569 61.9666 415.931 577.865
1678 0 49.1017 11.4864 564 62.1897 415.105 579.613
1679 0 51.2026 11.9135 610 61.977 414.933 577.19
1680 0 52.1856 13.4137 700 60.3814 414.959 576.316
1681 0 54.1257 12.3416 668 61.6856 414.849 576.695
1682 0 56.1067 12.601 707 61.4795 414.999 574.992
1683 0 59.1224 12.8547 760 61.0645 415.017 574.343
1684 0 60.0898 12.1318 729 60.7819 415.051 572.369
1685 0 63.1695 13.8675 876 58.2763 414.821 571.158
1686 0 64.1528 13.5614 870 59.1529 414.783 571.292
1687 0 67.1684 13.4885 906 58.9868 414.638 570.258
1688 0 69.1302 13.4095 927 59.2837 414.752 568.67
1689 0 72.3007 13.1949 954 59.4161 414.694 569.276
1690 1 38.0697 10.9011 415 60.012 414.427 584.537
1691 0 38.074 9.48153 361 62.2632 414.393 584.51
1692 0 40.0686 11.63 466 59.8584 413.506 582.719
1693 0 42.058 12.8394 540 59.0111 413.091 581.848
1694 0 44.0309 12.3095 542 59.238 413.618 583.011
1695 0 44.0309 13.218 582 59.0172 413.79 581.723
1696 0 46.1281 12.2268 564 59.9787 413.254 580.801
1697 0 47.096 11.2324 529 62.1172 413.117 579.227
1698 0 48.1422 12.6916 611 59.5074 413.1 580.558
1699 0 49.1332 12.924 635 60.1228 413.079 580.239
1700 0 51.1126 12.1692 622 61.1849 412.953 580.018
1701 0 52.237 12.405 648 61.2546 412.614 577.512
1702 0 54.1408 12.4121 672 61.4628 413.076 576.374
1703 0 57.0681 13.4576 768 60.1354 413.064 575.046
1704 0 57.2272 12.3368 706 62.255 412.993 575.85
1705 0 57.2457 12.8743 737 62.5495 413.041 573.509
1706 0 62.3429 12.0463 751 62.9081 412.889 573.186
1707 0 62.2614 13.4755 839 61.435 413.501 572.961
1708 0 66.3216 14.2035 942 60.7792 413.512 569.575
1709 0 67.3626 12.7519 859 62.2107 413.697 570.416
1710 0 70.5438 13.7929 973 61.1264 413.359 568.952
1711 0 71.2711 12.8102 913 62.9168 413.942 566.25
1712 0 76.6108 14.1886 1087 60.5437 413.81 564.238
1713 0 76.6215 13.26 1016 62.2608 414.25 564.289
1714 1 38.3453 10.7445 412 63.6068 414.672 583.291
1715 0 39.3479 10.979 432 62.6852 414.602 583.271
1716 0 43.3249 11.7715 510 61.7843 414.447 582.749
1717 0 44.1144 12.921 570 60.4772 414.381 580.36
1718 0 44.1536 12.3206 544 61.5092 413.5 579.836
1719 0 45.0146 12.5737 566 61.7067 413.3 579.913
1720 0 47.1312 12.2424 577 62.636 413.773 578.572
1721 0 47.0515 12.2844 578 63.1869 413.78 578.13
1722 0 49.1336 12.8629 632 62.5839 413.922 578.416
1723 0 50.1238 12.7883 641 62.8814 414.012 578.145
1724 0 52.0481 13.2762 691 61.9219 414.269 577.661
1725 0 52.0766 12.7697 665 63.7308 414.433 576.03
1726 0 52.0776 12.8654 670 63.8791 414.082 574.548
1727 0 54.0342 13.51 730 62.3548 414.348 575.645
1728 0 56.1668 12.4807 701 62.6334 414.632 575.294
1729 0 59.1447 13.0696 773 60.9159 415.185 573.336
1730 0 61.118 13.2694 811 60.4131 415.483 572.99
1731 0 66.0754 13.6813 904 58.8938 415.512 571.772
1732 0 65.1126 12.8086 834 61.0815 415.712 569.526
1733 0 68.3117 13.5262 924 60.1721 415.828 569.986
1734 0 71.4718 13.0681 934 61.2281 416.276 566.993
1735 0 75.2989 13.2406 997 60.5637 416.529 567.339
1736 0 78.1474 13.7689 1076 59.6013 416.645 564.602
1737 0 79.1579 12.8983 1021 60.5348 417.004 561.817
1738 1 39.1666 9.90639 388 60.1598 416.742 583.41
1739 0 39.164 11.2859 442 59.3258 417.706 581.597
1740 0 42.1571 11.1251 469 59.3006 418.52 579.67
1741 0 45.0552 12.3182 555 58.218 418.542 579.254
1742 0 45.082 12.1556 548 57.8704 418.354 578.639
1743 0 47.1118 13.2451 624 56.2869 418.697 577.792
1744 0 48.0309 13.5538 651 56.8233 419.177 576.487
1745 0 49.0526 12.5987 618 57.7751 418.861 576.307
1746 0 52.0663 13.6941 713 55.4474 419.626 575.79
1747 0 51.0925 13.1526 672 57.122 420.113 574.121
1748 0 54.0405 13.8045 746 56.7091 420.351 573.773
1749 0 56.0885 13.3717 750 57.7093 420.369 571.056
1750 0 57.0872 12.7699 729 58.4911 420.199 570.357
1751 0 61.0814 13.5066 825 57.6315 420.558 571.001
1752 0 61.1144 13.712 838 58.2112 420.409 569.415
1753 0 61.0365 13.9752 853 58.6225 420.165 569.108
1754 0 65.1164 13.5296 881 59.2554 419.677 568.407
1755 0 67.083 14.6982 986 57.785 419.868 567.769
1756 0 68.0636 14.1485 963 58.7539 419.919 565.702
1757 0 70.0545 14.1319 990 59.3606 419.872 565.239
1758 0 73.1506 13.5884 994 59.5996 419.524 564.098
1759 0 75.1552 14.2638 1072 59.5634 419.52 563.826
1760 0 78.1674 13.6502 1067 60.9147 419.148 559.704
1761 1 42.0298 11.8963 500 61.046 418.608 578.294
1762 0 44.0877 11.7493 518 61.2645 419.195 578.156
1763 0 44.0194 11.6767 514 62.537 419.161 577.362
1764 0 45.0799 11.4907 518 62.4537 419.268 577.562
1765 0 47.1618 11.662 550 62.4127 419.158 576.104
1766 0 49.105 12.3002 604 61.7848 419.022 576.477
1767 0 52.0758 12.3474 643 61.7294 419.397 575.205
1768 0 51.1366 12.7893 654 61.7355 419.101 573.549
1769 0 53.0808 12.5469 666 62.1276 418.802 572.88
1770 0 55.0634 13.9476 768 59.9961 418.542 573.12
1771 0 58.2019 13.7968 803 60.0473 418.379 570.478
1772 0 61.1434 13.7218 839 60.4195 418.353 571.542
1773 0 61.1351 13.2984 813 61.6581 418.376 570.603
1774 0 65.1516 14.0288 914 60.9759 417.914 567.818
1775 0 66.0952 13.0872 865 63.0046 418.013 568.054
1776 0 69.1342 14.1898 981 60.7554 417.991 566.261
1777 0 71.2213 13.6336 971 61.3419 417.923 565.714
1778 0 74.3453 13.4642 1001 62.0729 417.774 565.35
1779 1 39.1823 11.2296 440 62.0455 417.411 581.527
1780 0 42.1567 11.8605 500 61.562 417.624 580.97
1781 0 42.1285 11.726 494 62.1255 417.289 581.04
1782 0 42.1094 11.9926 505 62.2574 416.392 580.776
1783 0 46.0746 12.9138 595 61.0151 416.262 579.071
1784 0 45.3033 12.6039 571 61.9405 416.492 580.877
1785 0 46.2237 13.1751 609 61.9852 416.831 578.89
1786 0 50.2081 12.4083 623 62.069 416.66 578.055
1787 0 50.2021 13.5453 680 61.4574 416.219 577.347
1788 0 54.1247 14.0047 758 60.1755 415.544 576.58
1789 0 52.2337 13.3439 697 62.8637 415.834 574.834
1790 0 55.2874 13.9634 772 61.0738 415.727 576.069
1791 0 57.1084 12.9753 741 63.0634 416.065 574.575
1792 0 59.1852 13.6689 809 62.246 415.664 574.236
1793 0 61.0884 13.2758 811 63.127 415.824 571.891
1794 0 62.1647 13.2873 826 62.776 415.581 572.328
1795 0 65.172 13.426 875 62.2777 415.905 571.45
1796 0 68.3184 13.7298 938 61.7868 415.447 570.285
1797 0 70.2058 13.6741 960 62.1979 415.683 568.844
1798 0 71.2285 13.562 966 62.4772 415.284 569.002
1799 1 39.2347 10.8068 424 63.6627 415.524 583.368
1800 0 39.203 10.6369 417 63.9137 415.779 584.259
1801 0 40.2119 11.4891 462 63.381 415.576 583.45
1802 0 43.39 12.4453 540 62.3352 415.63 581.161
1803 0 45.5033 12.9661 590 62.7525 415.342 580.792
1804 0 45.3527 12.7004 576 63.0833 415.149 581.595
1805 0 47.1475 12.6624 597 62.9313 415.395 580.945
1806 0 50.2763 13.2667 667 61.5547 415.469 580.921
1807 0 51.1902 13.4791 690 61.8174 415.145 578.662
1808 0 51.1401 13.0817 669 63.1719 415.529 577.916
1809 0 54.1289 13.4124 726 61.8099 415.302 578.183
1810 0 55.1987 12.9532 715 62.3622 415.284 578.441
1811 0 58.277 13.5731 791 61.5044 414.625 576.009
1812 0 61.2861 13.6409 836 61.2751 415.077 575.617
1813 0 62.3232 13.3498 832 61.988 414.76 573.972
1814 0 64.4855 14.1582 913 61.5071 414.736 572.035
1815 0 65.332 12.9186 844 63.1469 415.083 573.876
1816 0 68.2347 13.9665 953 62.405 414.886 572.079
1817 0 70.2605 13.4357 944 63.6038 415.257 571.469
1818 0 71.2992 13.5626 967 64.2999 414.834 569.096
1819 0 73.2077 14.0969 1032 63.53 414.837 568.98
1820 0 77.2317 14.0745 1087 64.3671 414.659 566.609
1821 1 40.0877 11.3751 456 65.0417 414.423 584.974
1822 0 38.1038 10.1565 387 68.3127 414.101 583.827
1823 0 41.0435 11.3782 467 67.137 414.636 582.443
1824 0 44.1299 11.806 521 66.1977 414.616 582.532
1825 0 45.04 11.9005 536 67.1679 414.399 581.336
1826 0 45.1395 12.982 586 66.2816 415.288 580.957
1827 0 46.0236 13.341 614 66.3941 415.064 580.288
1828 0 48.0886 12.7681 614 67.2101 415.772 578.844
1829 0 50.0633 13.2033 661 66.6278 415.257 577.287
1830 0 51.1467 13.256 678 66.382 415.326 577.391
1831 0 52.2711 13.5448 708 66.5438 415.678 576.097
1832 0 55.2089 14.0195 774 65.1395 415.456 576.244
1833 0 54.2153 14.59 791 65.8875 415.874 575.193
1834 0 56.1942 13.7559 773 66.6701 415.855 574.336
1835 0 59.1261 13.6488 807 67.0347 416.079 573.088
1836 0 61.1464 13.296 813 66.3739 416.269 573.679
1837 0 62.0964 12.8671 799 67.9962 416.733 572.741
1838 0 65.1369 14.6921 957 64.4504 417.188 570.304
1839 0 68.1645 14.3036 975 64.6267 417.37 568.686
1840 0 68.0552 13.3274 907 66.656 417.647 567.739
1841 0 72.2665 14.1421 1022 65.047 417.897 566.666
1842 0 76.2696 13.7407 1048 65.0124 418.208 565.642
1843 0 78.3655 13.8326 1084 65.2675 418.196 563.899
1844 0 81.1516 13.9862 1135 65.1639 418.322 561.107
1845 0 82.397 13.5442 1116 65.5511 418.673 561.557
1846 0 86.2672 13.7828 1189 64.7183 418.843 560.291
1847 0 89.2533 13.9939 1249 64.4996 418.757 557.836
1848 1 46.1313 11.1421 514 65.4883 418.076 580.409
1849 0 46.32 11.5933 537 65.0894 418.693 579.33
1850 0 49.2556 12.831 632 63.7373 418.584 576.959
1851 0 49.1405 11.925 586 64.8328 418.775 576.435
1852 0 53.1714 12.7512 678 62.5531 418.729 576.025
1853 0 54.1464 12.9464 701 61.1312 418.736 573.549
1854 0 57.2364 13.0162 745 60.2617 418.533 572.62
1855 0 57.0805 12.9466 739 61.1353 418.66 573.055
1856 0 59.1948 13.1768 780 60.7615 418.509 571.963
1857 0 63.0566 12.9408 816 59.9265 418.276 570.358
1858 0 64.1177 13.444 862 59.645 418.211 569.222
1859 0 67.0811 13.3272 894 59.5067 418.019 568.742
1860 0 68.2536 13.9919 955 59.1236 418.324 566.385
1861 0 69.0709 13.7105 947 59.9398 418.169 566.799
1862 0 72.1159 13.8666 1000 59.652 417.889 566.175
1863 0 73.1259 13.8391 1012 60.1245 418.097 563.139
1864 0 78.1102 13.6346 1065 59.9831 417.355 564.228
1865 0 79.1029 13.7416 1087 60.6486 417.702 560.887
1866 1 41.0479 9.96398 409 62.2029 416.866 583.198
1867 0 45.0456 11.0777 499 61.5571 416.727 580.507
1868 0 46.0354 11.187 515 62.3903 416.872 579.736
1869 0 47.0251 11.5683 544 61.9099 417.353 578.147
1870 0 49.0874 12.6102 619 59.7787 417.712 577.22
1871 0 49.0487 12.3958 608 61.4901 417.832 576.911
1872 0 51.072 11.9439 610 61.8754 417.095 576.644
1873 0 54.066 12.8547 695 60.7971 416.698 574.883
1874 0 54.059 12.9303 699 60.8798 416.708 575.559
1875 0 56.0572 12.5764 705 61.2397 416.723 574.372
1876 0 59.0822 13.9128 822 60.2689 416.464 573.655
1877 0 60.0901 12.9972 781 61.3739 416.524 572.558
1878 0 63.0612 12.8922 813 60.8918 416.124 574.032
1879 0 64.0887 13.4345 861 60.9593 416.389 571.427
1880 0 67.0762 13.7008 919 60.8368 415.978 572.148
1881 0 69.0611 13.0899 904 61.7223 416.43 571.133
1882 0 72.0794 14.1788 1022 60.318 416.194 570.234
1883 0 72.2296 12.9864 938 62.6215 416.289 569.554
1884 1 36.008 10.581 381 64.5722 416.714 586.74
1885 0 38.0375 11.6201 442 62.991 416.52 586.652
1886 0 38.0431 10.4355 397 64.7909 416.194 586.202
1887 0 40.0924 11.3737 456 65.2105 415.327 584.557
1888 0 42.2006 12.5117 528 64.5455 415.114 582.79
1889 0 44.2716 12.4459 551 63.9383 414.267 583.984
1890 0 46.3501 12.8587 596 63.4883 414.985 582.366
1891 0 46.3232 12.3696 573 64.1553 415.246 580.937
1892 0 49.1332 13.3515 656 62.2073 415.195 580.541
1893 0 50.1979 13.7057 688 61.548 415.077 580.097
1894 0 50.1865 13.3502 670 62.5791 414.958 579
1895 0 51.0973 13.5624 693 62.3535 415.042 578.569
1896 0 54.2123 13.1336 712 62.9691 415.133 577.308
1897 0 55.1201 13.9332 768 62.2435 415.115 577.698
1898 0 57.1164 13.2186 755 63.3815 415.283 576.279
1899 0 58.2097 13.5716 790 62.7266 415.091 575.908
1900 0 59.221 12.9515 767 63.5463 414.261 574.764
1901 0 62.2904 14.609 910 60.8571 414.229 572.767
1902 0 63.1692 13.5509 856 62.5993 413.85 572.956
1903 0 64.1345 13.3314 855 63.3673 413.791 572.242
1904 0 68.133 13.7525 937 62.0299 413.551 571.954
1905 0 72.1065 12.9531 934 62.9336 413.529 571.282
1906 1 37.1437 9.55749 355 63.7324 413.406 588.915
1907 0 38.1737 11.1333 425 62.7435 413.932 587.358
1908 0 39.2399 11.4424 449 62.539 413.601 587.033
1909 0 41.1237 12.1341 499 61.0721 413.154 587.395
1910 0 43.0419 12.8712 554 60.4711 412.63 586.894
1911 0 44.0355 12.5807 554 61.0018 412.794 584.614
1912 0 45.0303 12.9246 582 61.1873 412.423 585.586
1913 0 47.0705 13.8303 651 59.576 412.679 584.51
1914 0 47.0379 12.862 605 61.2512 412.823 583.539
1915 0 46.0524 12.3989 571 62.8161 412.713 582.846
1916 0 49.1082 12.503 614 61.5049 412.588 584.067
1917 0 52.1145 13.3936 698 59.904 412.511 581.659
1918 0 53.0974 12.7313 676 62.3861 412.377 580.17
1919 0 54.0388 12.6761 685 62.6657 413.039 579.634
1920 0 55.0708 13.4736 742 61.9582 413.644 577.953
1921 0 57.1165 13.7088 783 61.341 412.78 577.842
1922 0 58.2083 13.1253 764 62.6257 412.411 576.724
1923 0 61.1136 13.9576 853 61.1114 412.388 576.029
1924 0 63.1532 13.6493 862 61.4176 412.774 575.184
1925 0 65.2307 14.2111 927 61.7195 412.235 576.571
1926 0 69.1738 14.4853 1002 60.9741 412 573.901
1927 0 70.1882 14.048 986 61.9594 412.152 572.912
1928 0 72.1692 13.2328 955 63.0869 412.099 573.17
1929 0 74.1432 13.2851 985 63.4386 412.216 570.614
1930 0 76.3714 13.6046 1039 63.0866 412.695 569.287
1931 0 81.1392 13.7665 1117 62.2865 412.924 569.628
1932 1 42.0867 11.9991 505 63.9386 412.598 587.05
1933 0 42.0439 11.9637 503 63.5626 412.817 587.598
1934 0 45.0451 12.0768 544 63.9393 412.978 585.801
1935 0 46.0339 12.5342 577 62.8787 412.759 587.052
1936 0 46.1078 13.0781 603 63.6882 413.02 583.57
1937 0 50.0822 13.1184 657 62.6195 413.067 584.925
1938 0 50.3195 13.0168 655 63.9313 412.573 583.559
1939 0 50.1936 13.2487 665 65.0571 413.332 581.147
1940 0 53.1842 12.7481 678 64.8968 412.816 581.316
1941 0 56.1797 13.6526 767 62.8579 413.031 579.794
1942 0 57.2009 13.3564 764 63.6688 412.959 579.537
1943 0 58.209 13.3828 779 64.2182 413.091 578.306
1944 0 59.1637 13.2514 784 62.5893 413.763 577.042
1945 0 64.0971 15.5233 995 58.5528 413.873 576.484
1946 0 66.1117 13.9007 919 60.4407 414.02 575.57
1947 0 69.186 13.4999 934 60.6949 414.03 572.896
1948 0 67.0814 13.4016 899 62.0712 413.694 570.631
1949 0 73.1962 13.498 988 60.9038 413.984 569.817
1950 0 74.176 13.9803 1037 60.4957 413.724 567.612
1951 0 78.109 14.5438 1136 59.493 414.423 567.239
1952 0 79.0919 13.5918 1075 61.3842 414.366 565.607
1953 1 40.0799 10.8533 435 63.1816 413.807 586.6
1954 0 42.0479 10.9875 462 63.8745 413.981 584.712
1955 0 43.1603 11.5384 498 63.1566 414.02 583.542
1956 0 46.1076 12.8178 591 61.6142 414.618 583.563
1957 0 47.1226 12.4781 588 62.3197 414.306 583.531
1958 0 49.1228 13.7818 677 60.6145 414.734 581.056
1959 0 51.0783 12.7451 651 61.6974 415.063 581.126
1960 0 53.1879 13.7061 729 60.5418 414.885 580.151
1961 0 52.1263 14.3689 749 60.518 415.131 580.477
1962 0 56.0515 13.8266 775 60.4258 415.437 578.363
1963 0 55.196 13.6242 752 61.988 415.774 577.608
1964 0 59.0379 14.3806 849 60.7821 415.637 576.304
1965 0 62.0388 14.2169 882 60.271 415.985 574.825
1966 0 63.0958 13.8837 876 61.1735 416.669 573.277
1967 0 66.133 13.9567 923 61.2264 416.951 572.185
1968 0 66.0575 14.1543 935 61.0888 417.475 571.402
1969 0 68.0769 14.1898 966 61.4596 417.977 569.353
1970 0 70.1178 14.4899 1016 62.0778 417.799 567.094
1971 0 76.1367 14.868 1132 60.5442 418.063 566.523
1972 0 74.0714 13.6625 1012 63.4447 418.203 565.29
1974 0 80.1067 14.4183 1155 61.7299 418.358 564.248
1975 0 82.1409 14.7186 1209 61.383 418.912 562.797
1976 1 39.0718 12.2851 480 62.5646 419.379 582.969
1977 0 40.0983 12.4444 499 63.0581 419.661 582.884
1978 0 43.0331 11.6887 503 63.1213 420.113 581.416
1979 0 44.0277 12.1742 536 62.2388 419.998 580.295
1980 0 47.0613 13.1955 621 61.6087 419.576 578.018
1981 0 50.0408 12.5098 626 62.7939 419.452 577.47
1982 0 52.1031 13.9915 729 61.0837 419.728 577.207
1983 0 52.0654 13.7519 716 61.7947 419.615 576.638
1984 0 54.067 13.4278 726 61.9229 419.985 575.022
1985 0 56.1222 13.5775 762 61.8058 419.895 574.927
1986 0 59.1273 14.2066 840 60.2429 420.037 572.907
1987 0 59.0908 13.8769 820 61.2305 419.467 573.612
1988 0 64.1214 14.4258 925 60.5589 419.843 571.414
1989 0 64.0896 14.8074 949 60.6038 419.738 569.941
1990 0 65.3023 14.0883 920 61.75 419.557 569.221
1991 0 67.3608 13.5539 913 62.3198 419.482 569.245
1992 0 72.1719 14.41 1040 60.6404 419.447 567.916
1993 0 72.247 14.0767 1017 62.3884 418.881 566.749
1994 0 75.2184 13.8397 1041 62.2488 418.91 566.149
1995 0 78.228 14.6495 1146 61.0637 418.791 564.509
1996 0 81.2056 14.5926 1185 61.2447 418.833 563.344
1997 0 83.1994 14.1588 1178 61.9321 418.655 561.702
1998 0 84.142 14.3329 1206 62.3333 418.381 559.614
1999 0 87.1523 14.8246 1292 61.6571 418.596 558.316
2000 0 90.1068 14.4606 1303 61.7398 418.257 557.035
2001 1 47.1048 12.2493 577 63.4454 417.889 578.513
2002 0 48.0358 12.3658 594 62.968 417.544 577.907
2003 0 51.0168 12.2705 626 62.2891 417.431 577.618
2004 0 52.0309 12.8385 668 63.1796 417.561 577.154
2005 0 55.2159 14.1626 782 61.1637 416.875 576.35
2006 0 56.12 13.2217 742 62.3868 416.416 575.511
2007 0 57.1178 13.2183 755 62.3417 416.653 574.012
2008 0 60.1777 12.4963 752 62.4814 415.984 573.597
2009 0 62.1906 13.1049 815 61.3951 416.25 571.787
2010 0 65.1266 12.9133 841 61.088 416.419 570.826
2011 0 66.1605 13.2103 874 60.9291 416.316 569.712
2012 0 68.0798 13.4548 916 60.1998 415.846 568.549
2013 0 71.1055 13.6417 970 59.7216 415.97 566.967
2014 0 75.1517 13.3863 1006 59.4712 416.033 566.339
2015 0 79.214 13.4067 1062 58.8559 415.908 566.76
2016 0 81.235 13.0116 1057 59.8174 415.877 565.424
2017 0 84.1915 13.5168 1138 58.9402 415.773 563.399
2018 1 45.1123 12.1696 549 59.2204 415.628 582.506
2019 0 45.0941 11.8641 535 59.3065 415.978 582.086
2020 0 45.0748 11.6473 525 60.44 415.971 580.905
2021 0 48.0391 12.24 588 59.4405 415.752 580.645
2022 0 48.0766 12.5841 605 58.9554 414.836 580.853
2023 0 50.2368 12.8392 645 58.9364 415.58 580.34
2024 0 51.1468 13.0995 670 58.5269 415.343 577.728
2025 0 55.2586 14.0431 776 56.7139 415.354 576.731
2026 0 55.0335 12.5015 688 58.4942 415.099 578.308
2027 0 58.1221 13.6609 794 56.5617 415.377 578.377
2028 0 57.1065 12.3979 708 59.5537 414.342 577.845
2029 0 59.1621 12.863 761 58.6702 414.244 576.695
2030 0 63.1796 14.3243 905 56.832 414.013 574.495
2031 0 66.2075 14.6358 969 56.3571 413.811 575.614
2032 0 69.1491 13.724 949 57.0053 413.924 574.75
2033 0 71.2347 13.5889 968 57.9298 413.692 573.052
2034 0 74.0953 12.9698 961 58.6805 413.184 571.113
2035 0 76.1276 13.5562 1032 57.8295 412.962 570.913
2036 1 34.1103 12.3716 422 61.109 413.1 588.765
2037 0 39.1515 12.4133 486 59.251 413.027 588.831
2038 0 41.0636 11.9571 491 59.2709 413.334 588.69
2039 0 40.1836 11.8456 476 60.6996 413.437 589.181
2040 0 43.0801 13.7651 593 58.6981 413.329 587.713
2041 0 45.1551 12.9775 586 59.6007 413.271 585.823
2042 0 48.2294 14.7628 712 56.7008 413.728 586.087
2043 0 47.2077 14.1714 669 58.8087 414.472 584.35
2044 0 48.1901 13.9655 673 59.4383 414.3 584.646
2045 0 52.1369 14.251 743 57.8493 414.424 582.536
2046 0 53.0841 13.846 735 58.3483 413.928 582.365
2047 0 54.1158 13.3787 724 59.5345 413.858 582.61
2048 0 56.0991 13.2444 743 59.5289 413.715 580.696
2049 0 58.1682 12.9796 755 59.5629 413.413 579.816
2050 0 59.18 14.1264 836 58.1722 413.411 579.286
2051 0 63.1778 14.0239 886 58.0598 413.119 576.605
2052 0 65.0849 13.7666 896 58.3359 412.646 576.404
2053 0 67.2274 13.789 927 60.1845 412.624 575.188
2054 0 68.262 14.3418 979 59.9295 412.173 574.618
2055 0 71.2314 14.6003 1040 59.4654 412.111 573.832
2056 0 74.2411 14.3048 1062 60.3399 412.399 571.31
2057 0 77.3266 14.6004 1129 59.8937 412.066 571.251
2058 0 79.1759 13.7037 1085 61.4212 412.323 571.897
2059 0 82.2329 14.1914 1167 61.2057 412.356 568.104
2060 1 40.2469 11.3798 458 65.7118 411.76 588.908
2061 0 42.1604 11.7409 495 65.2808 411.998 588.119
2062 0 44.1628 13.0427 576 64.2691 412.057 586.71
2063 0 41.1897 12.7944 527 66.0474 411.393 585.338
2064 0 46.1599 13.2583 612 64.4608 411.461 583.809
2065 0 48.0677 13.1273 631 65.5166 411.81 582.388
2066 0 49.1697 13.789 678 64.9926 411.873 580.714
2067 0 52.1723 12.9762 677 65.5968 412.035 580.544
2068 0 54.2137 13.9264 755 65.0185 411.869 578.891
2069 0 57.1987 13.5493 775 65.5716 411.893 578.626
2070 0 57.2187 13.7193 785 66.2204 411.846 576.836
2071 0 59.3535 13.9672 829 66.6309 412.31 576.261
2072 0 61.3873 14.2701 876 66.661 412.387 573.943
2073 0 62.3678 13.693 854 67.9684 412.591 574.418
2074 0 65.105 13.3477 869 68.3245 412.732 574.101
2075 0 68.3544 14.4687 989 66.5956 412.732 573.041
2076 0 68.3544 14.4833 990 173.959 411.721 573.043
2077 0 73.4033 14.2092 1043 67.0911 413.121 571.621
2078 0 74.3152 14.2366 1058 67.8526 413.329 567.974
2079 0 77.3844 14.1243 1093 68.0165 413.483 567.896
2080 0 80.4433 13.7364 1105 68.6751 413.983 566.619
2081 0 82.3771 14.2758 1176 68.5128 413.969 564.557
2082 0 85.5436 14.3436 1227 68.3105 413.839 563.622
2083 0 90.3326 14.5241 1312 67.5259 413.965 563.45
2084 0 93.2856 14.7933 1380 68.0638 415.023 558.722
2085 1 46.2859 11.4722 531 71.1168 414.326 582.518
2086 0 47.3233 11.601 549 70.7486 414.428 582.938
2087 0 48.3682 11.4951 556 71.6277 414.581 581.194
2088 0 49.3469 13.1113 647 69.9536 414.978 578.649
2089 0 51.2518 13.7556 705 68.8652 415.006 578.874
2090 0 53.2426 12.659 674 70.4377 415.466 578.769
2091 0 54.2597 12.477 677 71.5126 415.516 575.96
2092 0 56.232 12.5907 708 70.7655 415.507 576.045
2093 0 58.2445 13.1514 766 69.5535 415.619 575.744
2094 0 60.3043 13.9957 844 69.1126 415.815 573.134
2095 0 63.3195 13.4398 851 69.9495 416.215 571.535
2096 0 63.2854 13.684 866 70.2517 416.307 570.38
2097 0 67.2879 13.4943 908 70.3733 416.328 570.629
2098 0 70.1844 13.2366 929 70.7589 416.033 569.922
2099 0 71.3479 14.2681 1018 69.3772 416.234 568.263
2100 0 74.2517 14.2219 1056 68.8902 416.405 568.537
2101 0 77.2293 13.9066 1074 69.7402 416.425 566.962
2102 0 80.1917 14.4653 1160 68.7509 416.884 565.303
2103 0 81.2365 14.107 1146 69.6972 416.89 563.36
2104 0 85.2439 13.9247 1187 69.5358 417.527 561.548
2105 0 87.4094 13.7971 1206 69.8839 417.918 561.016
2106 1 48.031 10.3891 499 69.7515 417.453 580.866
2107 0 51.0266 11.5822 591 68.0643 417.92 579.327
2108 0 51.134 12.2032 624 67.2324 419.208 577.559
2109 0 53.1486 11.7218 623 67.9518 419.186 576.416
2110 0 56.0917 12.3548 693 67.5613 418.424 576.749
2111 0 58.3038 12.2291 713 67.345 418.201 575.675
2112 0 57.1433 12.1799 696 68.5417 418.458 573.553
2113 0 61.1755 12.1127 741 67.5155 418.478 573.991
2114 0 63.1499 12.985 820 66.0183 418.738 573.179
2115 0 64.1305 12.2874 788 65.9353 418.354 572.754
2116 0 66.1085 12.0559 797 66.1757 418.394 570.056
2117 0 68.1686 12.161 829 65.6043 417.896 569.216
2118 0 70.1042 11.9251 836 65.7428 417.752 567.272
2119 0 75.151 12.3618 929 64.084 417.616 566.131
2120 1 40.0772 11.2782 452 61.3429 416.25 583.65
2121 0 38.007 9.36669 356 64.5309 416.615 583.531
2122 0 43.0515 10.3829 447 61.3221 416.508 583.4
2123 0 41.0544 10.7662 442 61.767 416.337 581.312
2124 0 44.2901 11.7408 520 58.5135 417.373 581.356
2125 0 45.0896 10.712 483 60.4079 417.371 580.971
2126 0 47.189 11.74 554 58.4368 417.027 580.94
2127 0 49.1776 12.3024 605 58.0132 416.774 580.066
2128 0 48.1652 11.1906 539 59.7421 416.416 579.032
2129 0 51.1896 12.1314 621 58.2754 416.357 577.692
2130 0 52.1815 10.9617 572 60.1608 415.925 577.913
2131 0 54.1156 10.6808 578 60.1592 415.83 577.095
2132 0 56.2253 11.8274 665 59.1368 416.015 575.271
2133 0 60.1515 12.269 738 58.1274 415.516 575.733
2134 0 60.1378 11.5734 696 59.773 415.751 574.619
2135 0 61.2061 12.4334 761 58.7359 415.815 573.164
2136 0 63.151 11.9555 755 59.3815 415.726 571.977
2137 0 65.255 12.3209 804 59.2662 415.841 572.986
2138 0 69.15 11.974 828 60.0072 416.268 571.002
2139 0 70.1263 11.9214 836 60.762 415.382 570.724
2140 0 73.1638 12.3012 900 60.2611 415.59 570.21
2141 0 75.1971 12.3276 927 61.4822 414.895 566.988
2142 1 38.1263 8.99642 343 61.9155 415.012 587.892
2143 0 38.1295 9.86114 376 62.5559 415.189 586.287
2144 0 41.1754 11.026 454 60.6013 414.916 587.758
2145 0 43.1831 10.9534 473 60.7315 414.368 586.387
2146 0 44.1899 11.0885 490 60.8837 414.378 586.245
2147 0 44.0415 11.0124 485 62.5196 413.899 584.493
2148 0 46.0783 11.8711 547 61.4954 414.212 585.161
2149 0 47.0576 11.8791 559 62.0948 414.27 583.286
2150 0 47.0602 11.5809 545 63.7872 414 582.804
2151 0 49.0108 11.7117 574 64.3049 414.047 583.718
2152 0 52.0127 11.9394 621 63.4026 414.195 582.045
2153 0 53.0233 11.8816 630 63.2937 414.424 582.029
2154 0 52.054 12.3334 642 64.2212 414.326 580.456
2155 0 55.0717 12.3838 682 63.912 414.32 579.428
2156 0 56.0547 12.7197 713 63.864 413.682 579.553
2157 0 57.0721 12.6857 724 64.5055 414.032 579.362
2158 0 59.078 12.7797 755 64.3258 413.608 577.25
2159 0 59.0778 12.949 765 64.3098 413.663 577.6
2160 0 61.0509 12.5633 767 64.7966 413.063 575.97
2161 0 63.039 12.7857 806 64.1638 412.988 577.354
2162 0 65.0881 13.8581 902 62.8891 413 573.899
2163 0 67.0369 13.5597 909 63.4268 412.937 573.134
2164 0 70.1438 13.3868 939 63.607 412.753 572.337
2165 0 72.1974 13.4631 972 63.3385 412.686 571.796
2166 0 75.1164 13.9783 1050 62.5086 412.939 571.09
2167 0 75.0814 13.4654 1011 64.4372 413.383 568.165
2168 0 79.2005 13.9014 1101 63.0309 413.664 567.648
2169 1 40.083 11.077 444 65.4032 413.739 587.173
2170 0 41.0705 9.61761 395 66.7165 413.311 589.253
2171 0 42.1023 10.8545 457 65.744 413.733 586.775
2172 0 46.0918 11.8459 546 63.5714 413.667 586.419
2173 0 44.1451 11.8473 523 64.3289 413.136 583.964
2174 0 47.0832 13.1894 621 62.6441 413.477 583.649
2175 0 49.1783 13.2375 651 62.5822 412.685 583.094
2176 0 49.1502 12.4516 612 64.4788 412.941 583.242
2177 0 51.1032 13.052 667 64.2174 413.652 582.648
2178 0 54.1013 14.0108 758 61.7124 413.546 581.698
2179 0 54.14 13.0587 707 63.71 412.719 581.007
2180 0 55.0856 12.6167 695 65.4935 413.542 579.203
2181 0 57.1094 13.8856 793 63.7768 413.241 578.206
2182 0 58.1475 13.7065 797 64.1631 413.231 575.821
2183 0 61.1563 13.3429 816 63.9252 413.11 577.335
2184 0 64.3352 14.7198 947 61.6072 413.086 575.219
2185 0 65.0862 13.2593 863 64.3557 413.271 575.147
2186 0 68.2101 13.2238 902 63.9989 413.424 573.827
2187 0 71.1648 14.0519 1000 63.261 413.83 572.79
2188 0 74.2447 13.5498 1006 63.508 413.955 571.641
2189 0 76.321 13.6005 1038 64.0096 413.543 569.722
2190 0 78.2133 14.5755 1140 63.0456 414.058 567.175
2191 0 79.1774 14.3223 1134 63.3765 414 566.181
2192 0 82.3509 13.7461 1132 65.1634 414.377 564.585
2193 0 87.1628 14.3869 1254 63.1691 414.651 562.264
2194 0 88.475 13.6197 1205 64.8183 414.19 560.035
2195 0 93.3052 14.5865 1361 62.773 414.442 560.633
2196 0 95.2592 14.7282 1403 63.5531 414.517 557.741
2197 0 98.3129 14.1284 1389 64.2109 414.75 555.045
2198 1 50.1119 12.6317 633 65.2006 415.665 579.504
2199 0 50.0464 12.8281 642 65.7741 415.14 577.4
2200 0 54.0854 13.2383 716 64.2598 415.874 578.155
2201 0 55.0755 12.9096 711 65.2068 415.992 576.245
2202 0 56.0768 13.321 747 65.8608 416.439 575.865
2203 0 59.0322 13.1623 777 66.1403 416.203 574.349
2204 0 61.0606 13.4293 820 65.0732 416.844 574.043
2205 0 62.0981 13.4787 837 65.3978 416.644 573.023
2206 0 65.0773 13.5839 884 65.7794 416.828 570.68
2207 0 66.0706 14.2878 944 65.4396 417.38 570.173
2208 0 69.0814 13.5058 933 66.5627 417.435 570.194
2209 0 69.1346 13.5388 936 67.6293 417.412 568.607
2210 0 71.1043 13.8107 982 67.998 417.916 565.557
2211 0 74.0791 13.4316 995 67.7407 417.684 564.737
2212 0 77.1135 14.5889 1125 66.2489 417.989 564.199
2213 0 81.1022 14.1057 1144 66.6346 418.547 562.286
2214 0 83.1779 14.1624 1178 66.8404 418.537 561.228
2215 0 87.1024 14.6379 1275 65.9765 418.573 558.947
2216 0 90.0965 13.8296 1246 67.0762 418.638 560.49
2217 0 91.1134 13.8838 1265 67.6577 418.934 557.675
2218 0 95.044 13.9409 1325 68.2823 419.216 554.602
2219 1 50.0364 10.4724 524 68.5382 418.992 578.618
2220 0 50.0718 11.7232 587 68.4293 419.101 577.332
2221 0 53.1732 11.9045 633 68.7599 419.325 574.553
2222 0 53.2198 11.7438 625 69.1296 418.645 576.005
2223 0 54.1122 12.8807 697 67.9914 418.57 574.453
2224 0 58.1165 12.5782 731 67.4282 418.198 574.539
2225 0 60.0715 12.7015 763 68.249 418.008 573.667
2226 0 62.059 12.617 783 68.0779 418.153 574.226
2227 0 62.059 12.5848 781 165.478 419.154 574.264
2228 0 64.0554 12.7077 814 70.2887 418.167 571.143
2229 0 67.0842 12.9091 866 69.7067 418.145 569.896
2230 0 68.0677 12.6785 863 70.8517 418.808 567.65
2231 0 73.1771 13.7475 1006 68.1471 418.889 567.331
2232 0 74.1867 12.4011 920 70.1913 418.78 567.56
2233 0 76.1778 12.8253 977 69.9509 418.915 564.977
2234 0 77.133 12.6924 979 70.4362 418.469 564.25
2235 0 81.3056 13.2463 1077 68.8004 418.33 561.786
2236 0 83.2802 13.3885 1115 68.6224 418.649 560.686
2237 0 85.2261 13.3762 1140 68.9167 418.161 560.29
2238 0 88.1353 12.7872 1127 69.4082 417.927 558.642
2239 0 92.2498 12.7588 1177 69.6049 417.832 557.846
2240 1 51.1113 10.8978 557 69.6804 417.975 577.603
2241 0 52.0708 11.0619 576 68.217 418.269 576.306
2242 0 52.1188 11.4546 597 68.1658 417.814 575.064
2243 0 55.1526 11.6042 640 67.425 418.642 575.119
2244 0 56.1359 12.8616 722 65.7355 418.14 574.259
2245 0 59.2319 11.8686 703 67.2063 417.679 572.92
2246 0 59.2268 12.0047 711 66.8158 417.713 572.518
2247 0 63.2277 12.8425 812 65.6392 418.318 570.76
2248 0 65.4693 13.0595 855 65.5029 418.165 570.877
2249 0 67.3423 12.0726 813 66.1525 418.033 569.867
2250 0 65.2309 11.9882 782 67.6483 417.59 568.248
2251 0 70.1853 12.8517 902 66.3082 417.329 567.931
2252 0 74.2712 13.5315 1005 65.0876 417.239 566.687
2253 0 74.2303 12.4208 922 67.8265 417.114 565.364
2254 0 78.3064 12.7193 996 67.4418 417.449 564.831
2255 1 41.1608 10.4468 430 67.6767 417.453 583.753
2256 0 43.2974 9.93132 430 68.1558 417.647 583.267
2257 0 45.2625 10.406 471 67.4437 417.618 583.295
2258 0 46.2658 10.9152 505 66.9228 417.345 581.253
2259 0 48.2722 11.7252 566 65.6519 417.155 580.602
2260 0 48.1687 11.2106 540 68.3759 417.117 579.854
2261 0 49.0683 12.3705 607 67.0774 417.099 580.28
2262 0 51.165 12.489 639 66.7621 416.748 578.615
2263 0 51.156 11.8657 607 68.5025 416.689 578.832
2264 0 53.2693 12.0144 640 68.3203 417 577.316
2265 0 55.1525 12.4564 687 67.5226 416.857 576.78
2266 0 58.0814 12.0004 697 68.2396 416.887 575.511
2267 0 56.1783 11.6949 657 69.6256 416.589 574.906
2268 0 60.1722 12.7966 770 67.5 417.009 574.319
2269 0 62.1198 13.2164 821 66.3593 416.742 575.512
2270 0 65.1334 12.7584 831 67.6751 417.155 574.776
2271 0 67.0895 12.8485 862 67.471 417.267 572.2
2272 0 68.1132 13.0371 888 67.5124 417.169 569.241
2273 0 71.1942 13.4702 959 66.6413 417.426 567.655
2274 0 71.2704 12.5017 891 68.8002 417.536 567.833
2275 0 73.2167 13.1391 962 68.5083 417.569 566.098
2276 0 76.3608 12.2052 932 70.0923 417.664 564.291
2277 0 80.2982 13.1136 1053 68.1548 417.292 564.187
2278 0 82.4123 12.7165 1048 68.5887 417.198 562.058
2279 0 84.4244 13.2426 1118 68.2281 417.346 560.604
2280 1 48.3339 11.0481 534 65.8839 417.74 581.305
2281 0 47.2122 10.1457 479 67.5386 417.353 582.729
2282 0 48.0508 10.0935 485 68.4722 417.452 582.629
2283 0 52.1949 11.936 623 66.8347 417.388 580.526
2284 0 53.34 12.2235 652 66.9003 416.888 579.046
2285 0 56.3145 11.6311 655 66.9695 416.872 579.22
2286 0 57.1307 12.4102 709 65.89 416.089 578.866
2287 0 59.1263 12.9892 768 65.4557 416.742 576.424
2288 0 61.2792 13.1692 807 65.223 416.249 576.421
2289 0 62.1717 12.948 805 65.1453 415.325 576.642
2290 0 62.0691 12.7277 790 66.1557 415.548 575.577
2291 0 65.3607 12.8212 838 65.3496 415.352 573.411
2292 0 67.4176 13.4535 907 64.7938 415.529 572.184
2293 0 69.3003 12.8571 891 65.6386 415.55 572.013
2294 0 71.4392 13.326 952 65.0924 415.792 570.946
2295 0 73.3051 13.3142 976 65.4385 415.887 568.389
2296 0 76.3267 12.8526 981 65.0805 415.91 568.859
2297 1 40.305 9.15518 369 67.355 416.531 586.797
2298 0 40.2112 8.85326 356 68.3174 416.025 586.163
2299 0 42.2229 10.8235 457 65.5252 415.46 585.184
2300 0 45.2389 11.4282 517 63.6634 415.592 586.139
2301 0 43.47 11.2261 488 64.8709 415.318 586.314
2302 0 46.1294 11.7496 542 64.559 415.43 584.286
2303 0 49.2719 12.157 599 62.7312 415.082 583.147
2304 0 48.1819 12.0377 580 64.2121 414.941 583.064
2305 0 51.2286 12.7858 655 62.5603 414.983 582.589
2306 0 51.1691 12.6053 645 63.6636 414.881 581.113
2307 0 54.3296 13.1972 717 62.6137 414.934 581.035
2308 0 54.2198 12.1727 660 64.5758 415.592 580.965
2309 0 57.2602 13.2029 756 62.8479 415.25 579.438
2310 0 57.1155 12.4135 709 64.4908 415.124 578.791
2311 0 58.1978 12.6293 735 64.8245 415.725 578.211
2312 0 61.1575 13.5225 827 63.4921 415.227 576.241
2313 0 62.1727 13.0121 809 64.2509 415.435 576.606
2314 0 65.4094 13.6372 892 63.2444 415.744 573.693
2315 0 67.3786 13.2386 892 63.9013 415.539 573.761
2316 0 72.2074 14.1952 1025 61.8673 415.199 573.077
2317 0 72.2451 12.513 904 64.9447 415.61 572.189
2318 0 73.1021 12.6809 927 65.2438 415.782 569.583
2319 0 74.1644 13.5779 1007 65.3605 416.222 567.846
2320 0 77.2083 12.8872 995 66.0834 416.217 566.869
2321 0 83.1452 13.5787 1129 63.9805 415.778 564.245
2322 0 84.3748 13.523 1141 65.0105 415.864 561.357
2323 0 87.3014 14.238 1243 64.0193 415.767 560.209
2324 1 41.0193 10.7267 440 67.025 415.625 581.198
2325 0 44.1454 11.6433 514 65.2121 416.34 583.142
2326 0 45.0632 11.7612 530 64.9887 416.013 581.645
2327 0 47.1354 11.7958 556 65.0414 416.915 580.106
2328 0 46.1126 12.4044 572 64.7727 417.42 578.362
2329 0 49.3048 13.1833 650 62.9677 417.818 578.6
2330 0 51.1032 12.7389 651 63.7896 416.92 579.167
2331 0 51.1448 12.4548 637 64.7598 417.651 577.992
2332 0 53.1307 13.9467 741 62.5978 417.876 577.188
2333 0 54.1304 13.0795 708 64.5127 417.77 575.53
2334 0 57.1038 12.8713 735 64.3986 418.381 574.388
2335 0 57.1784 13.8164 790 63.3 418.67 574.365
2336 0 60.117 12.9248 777 63.7349 418.538 574.404
2337 0 61.18 14.4001 881 61.8138 418.947 572.182
2338 0 65.1521 13.6757 891 62.2121 418.841 572.854
2339 0 65.1373 13.7249 894 62.6823 418.705 571.553
2340 0 67.1828 12.9051 867 63.6263 418.696 571.182
2341 0 70.1166 12.7359 893 63.6495 418.649 567.153
2342 0 71.1321 14.1568 1007 61.2572 418.885 568.316
2343 0 74.1295 13.3415 989 62.4499 418.707 566.517
2344 0 76.1221 13.2288 1007 62.7825 419.121 564.769
2345 0 79.1125 12.5391 992 63.3911 419.171 562.043
2346 0 82.1248 12.7854 1050 62.8219 419.164 561.554
2347 0 82.1307 13.3568 1097 62.0328 419.129 561.465
2348 0 86.0947 12.7882 1101 62.0263 419.181 558.711
2349 0 89.1122 13.5223 1205 61.268 419.214 554.966
2350 0 92.3266 12.8349 1185 62.1038 419.018 554.804
2351 1 48.0709 10.2557 493 62.5436 418.897 576.568
2352 0 48.0421 10.5741 508 61.6654 419.079 576.136
2353 0 53.1282 11.4628 609 60.2135 419.103 574.412
2354 0 51.0483 11.6752 596 62.052 419.725 573.76
2355 0 54.1207 12.6754 686 60.6808 419.687 572.876
2356 0 56.143 12.3257 692 60.8006 419.386 573.231
2357 0 58.256 13.6123 793 59.1274 419.266 573.193
2358 0 61.2481 13.3882 820 59.539 419.22 572.55
2359 0 63.1497 13.3176 841 59.9298 418.811 570.125
2360 0 62.1245 12.5072 777 62.4929 419.163 569.574
2361 0 65.0727 13.0162 847 61.5714 418.832 568.628
2362 0 67.1488 13.0903 879 62.1274 418.775 567.255
2363 0 70.1985 13.1627 924 61.3463 418.562 567.748
2364 0 72.2084 13.3918 967 61.8449 418.673 566.876
2365 0 74.2616 13.3851 994 62.2284 418.672 565.886
2366 0 78.2477 12.9077 1010 62.9822 418.568 564.809
2367 0 80.3601 14.3479 1153 61.2845 418.307 563.4
2368 0 83.2497 12.997 1082 63.7588 418.184 561.756
2369 0 88.4277 14.215 1257 61.3492 418.191 561.807
2370 0 90.5484 14.1692 1283 62.6126 418.303 556.565
2371 1 48.2209 10.9289 527 64.7002 417.977 579.48
2372 0 49.2073 11.5023 566 64.6714 417.834 577.297
2373 0 50.2767 11.9737 602 64.5681 417.168 577.043
2374 0 53.2589 12.5801 670 63.9433 417.094 575.613
2375 0 54.199 12.7678 692 64.7543 417.263 573.486
2376 0 54.1318 13.3009 720 64.3278 417.249 573.686
2377 0 56.1832 13.5094 759 64.0356 417.358 573.884
2378 0 60.1012 13.6436 820 62.8427 417.313 572.25
2379 0 60.1633 13.0478 785 64.3516 417.162 571.113
2380 0 64.1553 14.1999 911 61.9638 417.236 571.166
2381 0 61.2187 12.5779 770 63.0935 416.99 569.23
2382 0 65.1932 13.0688 852 61.4765 417.001 570.163
2383 0 68.1706 13.0995 893 61.0997 417.544 568.25
2384 0 71.0908 14.1369 1005 59.5612 417.326 567.675
2385 0 75.1163 13.5656 1019 60.1551 417.491 566.373
2386 0 78.3695 14.2147 1114 59.1894 417.681 565.95
2387 0 79.1202 13.3973 1060 60.2189 417.244 565.618
2388 0 79.2179 13.6838 1084 59.9769 417.091 563.939
2389 0 83.1539 13.8418 1151 59.874 417.284 561.793
2390 0 86.1179 13.7834 1187 59.9621 417.779 560.125
2391 0 91.251 14.3012 1305 58.5241 417.836 561.015
2392 0 91.1404 13.2762 1210 60.376 417.487 557.979
2393 0 95.1486 13.7469 1308 59.2095 417.573 556.714
2394 1 54.0675 11.0602 598 59.2157 417.425 579.085
2395 0 52.0803 10.6374 554 61.1065 417.247 577.626
2396 0 57.2254 11.6557 667 58.7121 417.159 578.054
2397 0 57.3013 12.6001 722 58.0928 416.78 576.265
2398 0 59.1642 12.1695 720 58.775 417.001 574.343
2399 0 62.2099 13.0526 812 57.202 417.305 574.335
2400 0 64.0935 11.7329 752 58.8338 416.15 573.938
2401 0 66.1557 12.9392 856 57.2991 416.282 572.356
2402 0 68.0806 11.5745 788 59.1294 416.551 571.876
2403 0 70.1362 13.1459 922 57.4187 416.438 569.648
2404 0 72.0643 13.0023 937 57.603 416.105 569.984
2405 0 74.0426 12.3848 917 58.3926 415.809 568.756
2406 0 77.1571 12.7921 987 58.5491 415.946 565.537
2407 0 81.2324 13.1105 1065 57.7615 415.527 566.725
2408 0 83.3106 13.0476 1087 58.0202 415.996 564.857
2409 0 86.2399 13.4856 1163 57.6071 415.965 561.952
2410 0 87.2981 13.2878 1160 58.7414 415.441 560.733
2411 0 90.1928 13.5155 1219 58.7744 415.503 559.094
2412 0 94.2199 13.0758 1232 58.9123 415.364 561.825
2413 0 98.3934 13.7103 1349 58.1105 415.357 558.314
2414 0 101.371 13.7021 1389 58.7775 415.22 556.353
2415 0 104.299 12.8956 1345 59.5948 415 555.768
2416 0 108.236 13.3689 1447 59.105 415.129 552.927
2417 1 55.1345 11.4447 631 58.8558 414.493 579.739
2418 0 55.0588 11.0609 609 58.6782 414.627 579.429
2419 0 59.0828 12.8125 757 57.4333 415.358 576.748
2420 0 63.1697 12.7276 804 56.5846 414.782 577.451
2421 0 62.1622 11.9365 742 58.345 414.761 576.336
2422 0 66.1461 12.6084 834 57.5516 414.823 575.144
2423 0 68.2142 12.3581 843 58.1103 414.871 572.832
2424 0 69.1364 12.9744 897 57.8696 414.046 572.433
2425 0 73.0992 13.8305 1011 56.9624 414.18 572.21
2426 0 73.1697 13.8719 1015 57.9232 414.183 571.191
2427 0 75.147 14.0259 1054 57.7552 414.684 569.937
2428 0 76.1271 13.6614 1040 58.5327 414.597 569.222
2429 0 80.2327 12.551 1007 59.6207 414.676 567.963
2430 0 84.3412 13.5995 1147 58.0296 414.445 566.984
2431 0 86.3737 13.2911 1148 58.7848 414.516 565.157
2432 0 87.2089 13.7945 1203 58.4165 415.139 562.431
2433 0 92.1289 14.0021 1290 57.314 415.192 562.436
2434 0 94.1658 14.0072 1319 57.5444 415.246 560.23
2435 0 96.193 13.3274 1282 58.6373 415.386 557.229
2436 0 100.124 12.8041 1282 59.0476 415.18 557.81
2437 1 54.1766 10.7242 581 57.809 415.219 580.931
2438 0 53.0973 10.4148 553 59.5389 415.306 578.519
2439 0 57.2809 13.041 747 56.3052 414.817 578.487
2440 0 60.216 12.8205 772 56.8523 415.062 576.773
2441 0 61.0741 12.1819 744 58.2903 414.293 575.169
2442 0 63.139 11.7677 743 59.7699 414.697 574.343
2443 0 65.0433 13.222 860 58.6384 414.662 572.299
2444 0 69.0893 13.5043 933 57.6881 414.723 573.093
2445 0 68.2419 13.0418 890 59.4247 414.522 571.609
2446 0 72.2176 14.304 1033 57.455 414.771 567.522
2447 0 75.1538 13.7585 1034 58.383 414.756 566.858
2448 0 79.3982 13.7157 1089 58.2525 414.851 566.575
2449 0 79.319 13.515 1072 59.3582 415.021 564.763
2450 0 83.1851 13.7164 1141 59.2892 415.078 562.485
2451 0 86.3671 13.6279 1177 59.4673 414.915 562.954
2452 1 45.2847 10.7983 489 61.4008 414.773 583.62
2453 0 46.3112 11.6171 538 61.5855 415.34 581.814
2454 0 47.2125 12.0095 567 58.9841 414.746 581.303
2455 0 51.0603 13.1609 672 58.0774 414.713 579.82
2456 0 53.156 13.1123 697 58.5179 415.482 581.06
2457 0 52.4479 12.889 676 60.0932 415.868 578.611
2458 0 55.2972 13.2376 732 59.7281 415.996 577.292
2459 0 57.3506 14.3329 822 58.6071 416.221 575.69
2460 0 57.0984 13.0652 746 60.8727 416.294 575.438
2461 0 58.1339 13.8129 803 60.2503 416.516 575.321
2462 0 61.2034 14.3946 881 59.5142 416.707 573.561
2463 0 64.0934 13.8704 889 59.6682 416.883 573.177
2464 0 65.2747 13.221 863 59.9386 416.678 574.934
2465 0 68.5873 14.23 976 59.8105 416.716 571.303
2466 0 69.3377 13.8164 958 60.572 417.405 570.265
2467 0 71.2954 13.6334 972 61.713 417.841 567.501
2468 0 73.3768 13.2194 970 62.5784 418.501 568.656
2469 0 78.2503 14.4792 1133 60.4254 417.665 566.104
2470 0 79.4086 13.7391 1091 62.4821 418.214 564.445
2471 0 80.5185 14.121 1137 62.1847 418.529 563.316
2472 0 84.4331 14.3427 1211 61.4459 418.795 562.786
2473 0 88.2155 15.6889 1384 60.1243 419.089 560.399
2474 0 90.4013 14.4578 1307 62.2487 419.372 558.679
2475 0 92.4423 14.4306 1334 62.7234 419.403 557.739
2476 0 96.507 14.859 1434 62.2015 419.458 556.393
2477 0 99.4067 14.7374 1465 62.172 419.717 555.773
2478 1 50.1175 12.4907 626 63.9313 419.425 578.982
2479 0 53.167 12.5266 666 64.536 419.526 577.701
2480 0 55.1185 12.6092 695 64.0719 418.865 577.747
2481 0 56.128 13.7543 772 63.1101 419.43 575.079
2482 0 58.0892 13.7719 800 63.17 419.444 575.132
2483 0 60.2759 13.1893 795 63.7145 419.274 573.797
2484 0 59.0684 13.3235 787 64.5159 419.441 573.855
2485 0 62.152 13.6922 851 63.906 419.448 572.121
2486 0 67.2895 13.3156 896 64.0112 419.621 571.429
2487 0 67.1264 12.9904 872 64.5229 419.694 571.422
2488 0 69.2128 14.1448 979 63.62 419.124 568.112
2489 0 69.2128 14.1303 978 178.522 419.116 568.129
2490 0 73.2753 14.1657 1038 63.3256 419.085 566.433
2491 0 76.4797 13.9514 1067 63.6017 419.143 565.978
2492 0 79.258 14.5222 1151 62.8228 419.273 564.36
2493 0 82.3667 14.739 1214 62.6829 418.919 564.913
2494 0 83.3964 14.3172 1194 63.5905 419.123 561.65
2495 0 88.5049 14.7563 1306 62.5299 419.011 559.779
2496 0 90.4613 14.216 1286 63.4914 418.686 559.074
2497 1 48.4322 11.8723 575 64.1809 418.096 581.353
2498 0 49.2458 11.737 578 65.4602 418.26 579.635
2499 0 50.4432 12.6281 637 65.1805 417.914 577.564
2500 0 53.1971 13.1398 699 63.7411 418.385 576.478
2501 0 56.1693 13.121 737 62.8087 418.655 576.465
2502 0 58.0714 13.8106 802 63.389 418.193 575.536
2503 0 59.0525 13.2763 784 63.7679 418.119 574.992
2504 0 60.2071 13.4037 807 63.4882 417.8 574.948
2505 0 63.1971 13.2917 840 63.619 418.224 571.864
2506 0 65.0498 12.99 845 64.1207 418.088 572.55
2507 0 65.3535 13.3887 875 63.9451 417.422 570.67
2508 0 68.3158 13.3205 910 63.4319 417.42 571.477
2509 0 70.2479 13.794 969 63.8514 417.301 568.28
2510 0 74.4376 13.5147 1006 64.325 417.657 567.822
2511 0 76.2638 13.7811 1051 64.4719 417.67 565.39
2512 0 78.0767 14.3321 1119 63.4933 417.188 565.303
2513 0 82.2969 13.8037 1136 64.4287 417.094 564.711
2514 1 42.1187 11.6338 490 65.6531 416.386 584.676
2515 0 43.1201 11.9434 515 65.5573 416.763 583.194
2516 0 45.0377 12.4562 561 65.4742 416.583 583.014
2517 0 46.0618 12.5918 580 65.7414 416.072 583.052
2518 0 49.1919 12.8273 631 64.3661 416.583 581.179
2519 0 51.1335 13.8265 707 63.6025 416.851 580.665
2520 0 51.1219 13.9079 711 63.4979 417 580.695
2521 0 52.2065 13.4466 702 64.4915 416.87 578.463
2522 0 53.1256 12.9316 687 65.2009 416.84 579.125
2523 0 53.1144 13.405 712 65.3806 417.518 578.146
2524 0 57.0723 13.8421 790 63.9696 417.567 577.792
2525 0 60.1076 14.2578 857 63.0467 417.044 575.883
2526 0 61.0503 14.0049 855 63.3404 416.926 575.786
2527 0 63.0964 14.3907 908 63.3932 416.421 574.812
2528 0 66.0441 13.9906 924 62.7284 416.766 572.342
2529 0 67.0678 13.7324 921 63.7492 417.08 572.428
2530 0 67.0678 13.6876 918 165.251 418.07 572.447
2531 0 72.1973 14.2803 1031 63.1581 416.626 569.565
2532 0 75.1271 13.9231 1046 64.0554 416.331 569.713
2533 1 37.1479 12.0061 446 65.4596 416.43 586.312
2534 0 40.0661 12.1799 488 63.7008 416.961 587.113
2535 0 40.0415 13.0615 523 64.5201 416.495 584.99
2536 0 43.0862 12.7883 551 64.931 415.904 586.152
2537 0 44.0472 13.7126 604 64.6457 416.437 583.876
2538 0 46.1424 13.9351 643 65.4261 416.733 583.415
2539 0 45.1258 13.5399 611 66.6972 416.27 582.781
2540 0 49.1266 13.2515 651 65.7266 416.175 583.925
2541 0 50.044 14.8469 743 64.572 415.763 581.258
2542 0 52.1044 13.0507 680 67.4074 416.031 581.528
2543 0 51.162 14.0534 719 67.4604 416.028 579.722
2544 0 53.0845 13.8835 737 68.2022 416.145 579.851
2545 0 57.2185 14.7155 842 65.8266 415.871 578.6
2546 0 58.1347 14.604 849 66.5124 416.254 577.883
2547 0 62.0635 14.6624 910 65.8582 416.133 577.607
2548 0 61.2112 14.0007 857 68.1622 415.436 577.195
2549 0 65.125 14.096 918 67.6285 415.499 575.965
2550 0 64.1436 14.1713 909 68.6513 415.605 574.623
2551 0 67.2513 14.4681 973 68.5457 416.048 574.764
2552 0 68.171 13.9795 953 70.1238 415.829 573.386
2553 0 71.1586 14.6714 1044 68.8515 415.944 571.068
2554 0 75.0501 15.5363 1166 67.476 415.931 568.936
2555 0 77.0947 14.4627 1115 69.8108 415.846 568.46
2556 1 38.0914 13.3364 508 72.3169 415.53 588.423
2557 0 37.2431 12.0828 450 73.2511 415.291 588.647
2558 0 40.1186 13.5847 545 72.9872 415.593 586.479
2559 0 39.1103 13.8838 543 72.8103 415.212 587.365
2560 0 42.1272 14.4562 609 71.0131 415.054 586.836
2561 0 44.2823 14.543 644 71.3556 415.331 584.907
2562 0 44.1066 14.2156 627 72.5837 415.043 585.758
2563 0 46.2605 14.3751 665 72.2917 414.958 584.23
2564 0 47.0896 15.5448 732 70.9399 415.023 583.538
2565 0 49.1322 14.9596 735 71.585 415.143 581.988
2566 0 50.2415 15.4255 775 73.3445 415.036 581.574
2567 0 52.1525 15.9149 830 72.612 414.541 581.5
2568 0 55.2201 15.23 841 73.2723 414.628 580.273
2569 0 56.2064 15.3185 861 73.3542 415.028 580.295
2570 0 57.2576 15.8232 906 73.5155 414.332 579.256
2571 0 58.1818 15.8641 923 73.8516 414.295 578.257
2572 0 61.1491 15.5685 952 73.7237 414.199 576.481
2573 0 63.2158 15.4708 978 74.2996 414.304 575.55
2574 0 65.2348 14.3482 936 75.8462 414.431 577.009
2575 0 67.3701 15.2293 1026 74.3372 414.22 575.244
2576 0 69.4785 14.2778 992 75.5766 414.151 573.838
2577 0 74.3801 15.0309 1118 73.4141 413.554 572.137
2578 1 34.3335 13.3397 458 77.9432 413.14 590.513
2579 0 35.2483 13.4191 473 76.7696 413.374 589.979
2580 0 37.247 13.1823 491 76.7026 412.947 590.059
2581 0 37.1686 13.802 513 78.1793 413.329 588.203
2582 0 42.5563 14.7334 627 73.4514 413.456 588.144
2583 0 42.2603 15.3099 647 73.1654 413.445 586.346
2584 0 40.1759 13.3164 535 77.357 413.29 586.32
2585 0 44.3727 14.8064 657 73.7139 413.035 586.055
2586 0 45.4691 15.7909 718 72.4401 413.398 583.699
2587 0 48.4173 15.4903 750 72.268 413.596 584.052
2588 0 48.536 15.267 741 72.9757 413.633 581.885
2589 0 51.429 16.1388 830 70.9096 413.769 581.407
2590 0 52.3178 14.5457 761 73.9606 414.125 581.85
2591 0 53.4127 15.5019 828 73.0205 414.219 579.764
2592 0 55.2424 14.9161 824 73.8313 414.407 578.876
2593 0 57.3044 16.4734 944 71.4619 414.484 578.792
2594 0 60.4263 15.5396 939 72.4654 414.849 576.941
2595 0 61.35 15.6805 962 73.1601 414.759 575.482
2596 0 65.585 15.0034 984 73.0081 414.74 576.48
2597 1 33.5409 12.4028 416 77.3726 414.375 589.627
2598 0 34.4294 13.2154 455 76.3714 414.51 589.64
2599 0 33.3745 12.7343 425 77.0024 414.814 589.184
2600 0 33.3965 13.8038 461 77.564 415.321 588.356
2601 0 38.1854 15.2676 583 72.9142 414.731 587.465
2602 0 38.3954 13.7777 529 75.2703 415.826 588.151
2603 0 39.3351 14.1096 555 75.4577 415.773 586.485
2604 0 42.1457 14.2126 599 73.9299 415.79 585.533
2605 0 43.3965 14.5634 632 72.6661 415.69 585.032
2606 0 42.2535 13.8923 587 74.3049 416.026 585.075
2607 0 45.1949 14.5813 659 73.5432 416.31 583.815
2608 0 46.3208 15.2847 708 72.8263 416.684 582.164
2609 0 48.2303 14.5344 701 73.368 416.95 581.715
2610 0 51.2079 15.3883 788 71.2893 416.697 580.687
2611 0 53.3301 16.201 864 70.1343 417.089 579.961
2612 0 53.2799 15.1652 808 72.6634 417.223 577.939
2613 0 54.5118 15.2628 832 73.3666 417.524 577.418
2614 0 56.3046 15.3984 867 73.2941 417.699 577.159
2615 0 59.3991 15.4043 915 73.2678 418.257 576.134
2616 0 62.3298 15.4501 963 72.0405 418.151 575.186
2617 0 62.3064 14.9583 932 73.9603 418.516 572.694
2618 0 65.2755 15.6567 1022 72.4061 418.335 572.37
2619 0 67.622 15.8972 1075 71.6921 418.288 571.235
2620 0 69.3997 15.3459 1065 72.9831 418.842 570.962
2621 0 72.3956 15.3048 1108 72.583 418.835 568.361
2622 0 76.3763 15.6069 1192 72.0554 418.933 565.455
2623 0 79.2263 15.5252 1230 71.7837 419.006 563.736
2624 0 82.2971 15.1403 1246 72.8034 419.072 561.494
2625 0 85.2484 15.3199 1306 72.157 419.09 562.809
2626 0 88.3343 15.4753 1367 71.5091 418.723 560.226
2627 0 91.2347 15.5204 1416 70.4979 418.892 558.469
2628 0 95.1311 15.7993 1503 69.8669 418.698 557.19
2629 1 47.1761 13.1211 619 70.6963 417.987 578.784
2630 0 49.0923 12.7515 626 70.8227 418.2 578.075
2631 0 50.1284 13.3058 667 69.7511 418.096 578.096
2632 0 50.099 14.132 708 69.4633 418.011 577.232
2633 0 52.0147 14.0345 730 69.3904 418.049 576.433
2634 0 54.0235 13.4941 729 69.5473 418.07 574.901
2635 0 56.0269 13.4935 756 69.4418 418.401 574.015
2636 0 59.1075 13.264 784 69.3151 418.577 572.753
2637 0 59.0535 13.6825 808 69.5941 418.205 572.932
2638 0 60.116 13.5738 816 69.9743 417.988 571.398
2639 0 64.2029 14.2361 914 68.8632 418.156 569.144
2640 0 65.0704 14.5381 946 68.3721 418.241 567.957
2641 0 67.0916 13.7275 921 69.5516 418.512 568.046
2642 0 69.1407 14.9261 1032 68.905 418.572 566.252
2643 0 72.2107 14.1115 1019 70.476 418.766 564.216
2644 0 75.4172 14.3734 1084 70 418.935 563.866
2645 0 76.4254 14.8511 1135 69.7286 418.388 561.58
2646 0 80.1794 15.4903 1242 68.8841 418.324 560.514
2647 0 82.3594 15.8209 1303 68.8135 418.351 558.339
2648 0 84.3539 14.6881 1239 70.519 418.291 556.844
2649 0 89.3082 15.6537 1398 65.8934 418.086 555.136
2650 1 47.3586 9.98763 473 66.797 418.66 578.171
2651 0 49.2186 10.687 526 65.2662 418.62 578.707
2652 0 53.2225 11.7056 623 65.7416 418.25 575.188
2653 0 55.2547 12.18 673 65.2734 417.92 574.033
2654 0 54.2907 12.3041 668 65.8024 417.922 575.985
2655 0 57.2866 12.1145 694 66.9625 417.759 573.768
2656 0 58.087 11.741 682 67.3959 417.799 572.702
2657 0 60.0937 11.8648 713 67.4137 417.105 571.721
2658 0 62.0664 11.8099 733 67.7585 416.783 570.936
2659 0 65.1168 12.516 815 66.3374 416.746 572.144
2660 0 69.1671 12.3758 856 66.8049 416.869 569.647
2661 0 71.257 11.5497 823 67.6634 416.917 568.852
2662 0 75.35 12.2097 920 67.337 417.03 565.971
2663 0 76.359 11.8257 903 68.495 417.172 563.259
2664 0 78.2044 12.429 972 67.6481 417.367 563.992
2665 0 83.212 12.5463 1044 67.7126 417.585 562.935