time division length width area intensity CMx CMy
0 0 58.0652 12.9165 750 164.673 865.467 581.235
1 0 60.1591 12.5667 756 79.1653 866.14 578.975
2 0 60.0572 11.9553 718 79.6894 866.252 579.213
3 0 64.0776 13.0155 834 76.6966 866.411 577.644
4 0 66.1864 12.5252 829 76.9674 865.96 576.615
5 0 67.0457 13.0955 878 76.049 865.883 575.826
6 0 69.162 12.4201 859 76.8708 865.929 573.605
7 0 74.1511 13.5534 1005 73.9453 866.451 573.162
8 0 75.1166 12.9798 975 77.5313 866.858 570.182
9 0 79.0367 13.4495 1063 77.0602 867.089 569.064
10 1 39.0504 11.2419 439 78.9112 866.674 588.945
11 0 41.0892 11.5115 473 78.2093 866.266 588.905
12 0 42.0438 11.6545 490 79.5265 866.343 587.569
13 0 45.0137 12.9294 582 77.1907 866.766 585.766
14 0 46.1337 12.9623 598 76.9264 866.102 585.278
15 0 47.0198 12.4628 586 77.2321 866.471 584.553
16 0 48.013 12.2883 590 77.5729 866.398 584.266
17 0 50.1075 12.7326 638 77.4749 866.061 582.234
18 0 51.1156 13.5575 693 75.4747 866.128 582.631
19 0 54.1112 12.3265 667 77.5427 866.189 580.739
20 0 53.0498 12.1772 646 79.3591 866.594 579.777
21 0 56.0475 13.4707 755 76.8742 866.421 578.396
22 0 59.0453 13.0578 771 76.7445 866.069 578.425
23 0 59.1328 12.6157 746 78.508 866.658 578.197
24 0 61.2795 12.8918 790 78.7291 866.642 576.976
25 0 65.0761 13.6917 891 77.1964 866.654 576.181
26 0 66.0537 12.9289 854 79.2272 866.765 575.13
27 0 68.0801 13.2491 902 105.529 866.816 572.749
28 0 69.1554 13.9107 962 78.9085 866.551 572.451
29 0 71.121 13.006 925 80.6605 866.87 571.558
30 0 75.072 13.6136 1022 79.5998 867.352 569.656
31 0 76.1881 13.716 1045 80.2029 867.447 568.393
32 1 39.0106 10.715 418 80.7943 867.395 588.452
33 0 42.0202 11.5421 485 79.4557 867.885 589.235
34 0 41.0427 11.4271 469 80.7612 868.648 588.861
35 0 44.1315 12.712 561 79.6096 868.346 586.376
36 0 45.1161 12.2573 553 80.9729 868.383 585.454
37 0 45.1284 11.9659 540 82.137 868.298 585.883
38 0 48.0926 12.1224 583 80.9142 867.995 585.194
39 0 50.1061 12.3937 621 79.6699 868.222 585.349
40 0 51.0585 13.0243 665 78.6451 868.329 583.51
41 0 53.1097 12.8602 683 78.3558 868.098 584.25
42 0 53.1261 13.2138 702 78.0769 867.597 583.499
43 0 56.0638 13.8235 775 76.7123 868.063 581.185
44 0 56.0909 13.1037 735 78.7061 868.429 581.992
45 0 59.0695 13.2725 784 77.648 868.241 580.145
46 0 61.0801 13.6378 833 77.2377 868.393 578.761
47 0 62.0512 13.0054 807 78.6369 868.336 576.747
48 0 65.0881 13.2436 862 78.1392 868.235 575.117
49 0 68.0949 13.2903 905 77.1414 868.4 574.783
50 0 70.0628 13.4879 945 76.6201 868.603 574.271
51 0 70.0513 13.2903 931 77.9259 869.003 572.127
52 1 37.0617 10.3611 384 77.0781 868.872 589.607
53 0 39.0092 10.4591 408 77.4436 868.61 588.725
54 0 39.0183 10.2003 398 70.1256 868.613 587.671
55 0 41.0393 12.5977 517 66.8607 868.754 587.544
56 0 43.0139 12.1821 524 67.5324 869.307 586.933
57 0 43.0288 12.3173 530 69.3811 869.368 586.319
58 0 43.0612 11.3327 488 71.0902 869.004 586.584
59 0 45.0731 12.2468 552 68.9728 869.433 586.313
60 0 45.017 12.3509 556 70.2518 869.412 584.806
61 0 47.0167 12.8252 603 70.5158 869.592 585.255
62 0 48.0921 11.5611 556 71.9766 869.403 585.565
63 0 51.1136 13.2059 675 69.9822 868.967 582.896
64 0 52.1014 12.9171 673 70.3299 869.336 581
65 0 54.0148 12.9224 698 71.159 869.593 580.165
66 0 55.0639 12.0587 664 72.3193 869.419 579.724
67 0 56.0383 12.7234 713 72.1318 869.237 578.644
68 0 59.0386 12.8221 757 71.4703 869.371 577.937
69 0 61.0571 12.2017 745 72.3584 869.325 576.93
70 0 63.0474 13.3868 844 70.2097 869.434 575.224
71 0 65.0545 14.0959 917 69.8103 869.65 571.648
72 0 68.0478 13.6669 930 69.8452 869.989 571.788
73 1 33.0387 11.2595 372 72.1452 870.371 587.538
74 0 35.0167 11.1947 392 71.0944 870.235 587.786
75 0 37.0278 11.0998 411 71.7153 870.83 586.81
76 0 38.035 11.4894 437 72.103 870.499 585.934
77 0 39.0176 12.2252 477 70.8134 870.354 585.803
78 0 40.0187 12.9439 518 70.8687 870.201 585.274
79 0 43.1456 13.1416 567 70.3122 871.019 583.871
80 0 43.1057 12.6433 545 72.033 870.826 582.949
81 0 45.125 13.9834 631 70.3185 871.491 581.287
82 0 45.0786 13.2435 597 72.5327 871.992 580.394
83 0 47.1325 12.921 609 72.509 872.076 581.082
84 0 48.0996 13.1186 631 73.3788 872.494 580.729
85 0 49.0965 13.8299 679 72.4683 872.971 580.717
86 0 51.0468 14.1439 722 71.5914 872.726 578.571
87 0 52.2016 14.5589 760 70.6974 873.026 577.391
88 0 52.0634 13.7333 715 72.1371 873.141 576.98
89 0 55.09 13.7593 758 71.8945 873.164 575.81
90 0 57.042 14.7435 841 70.2128 873.811 575.432
91 0 57.1561 14.0142 801 72.6854 874.007 573.276
92 0 60.0685 14.6999 883 72.94 874.366 571.726
93 0 62.136 14.42 896 73.6964 874.406 570.181
94 0 64.0722 14.4056 923 72.9599 874.547 569.522
95 0 67.1044 13.9782 938 72.5725 874.528 567.74
96 0 67.0576 13.9432 935 71.9134 874.582 567.171
97 0 70.1123 14.4055 1010 70.7634 874.643 565.576
98 0 70.1123 14.434 1012 159.568 875.643 565.602
99 0 74.2592 13.4529 999 71.7648 874.369 563.227
100 1 41.0289 11.8453 486 72.4156 874.504 579.885
101 0 42.1255 12.0355 507 73.8915 874.852 579.016
102 0 45.0551 13.6277 614 73.5016 874.474 577.757
103 0 44.052 12.6441 557 77.5206 874.4 577.465
104 0 45.0565 13.1169 591 77.4264 874.721 577.124
105 0 46.0236 13.7755 634 76.6356 874.457 575.073
106 0 48.033 13.8863 667 75.7571 875.084 575.45
107 0 48.108 14.0101 674 76.8472 874.696 575.144
108 0 50.0231 14.7732 739 75.9865 875.043 574.893
109 0 55.0286 14.0109 771 75.5694 874.633 574.173
110 0 55.0352 14.5725 802 76.5524 874.454 571.657
111 0 55.0413 15.2794 841 75.5731 874.334 571.785
112 0 59.0349 14.1272 834 76.4388 874.471 569.753
113 0 60.0793 14.3144 860 76.2267 874.043 569.153
114 0 63.0539 14.3369 904 75.3031 874.118 568.357
115 0 65.0859 14.212 925 76.0465 874.477 566.565
116 0 68.0505 14.7097 1001 75.1239 873.9 565.434
117 0 71.2183 15.1225 1077 74.2591 873.832 564.483
118 1 37.0065 13.376 495 77.1414 873.84 580.077
119 0 39.037 12.4497 486 78.6111 873.383 580.747
120 0 39.0165 12.8664 502 79.1673 874.135 579.914
121 0 41.0381 14.6693 602 75.9468 874.249 579.322
122 0 42.0999 13.3017 560 78.2786 874.248 578.861
123 0 44.0349 13.9435 614 78.8648 874.502 576.632
124 0 45.1392 13.4694 608 80.4885 873.914 576.648
125 0 46.0191 13.9073 640 79.525 873.93 576.35
126 0 49.0505 14.2098 697 78.8049 873.176 575.389
127 0 50.0446 13.6678 684 79.9722 873.047 575.012
128 0 52.0606 14.6752 764 78.7657 872.937 573.474
129 0 53.0251 14.2008 753 79.834 872.776 572.951
130 0 54.0211 14.5499 786 80.0013 872.752 572.12
131 0 58.0736 14.0167 814 80.2543 872.727 572.173
132 0 58.0447 13.8858 806 81.206 872.783 571.769
133 0 61.0228 14.6667 895 79.4279 872.366 570.686
134 0 64.122 14.5348 932 79.9818 872.362 570.101
135 0 64.122 14.5036 930 172.416 872.361 570.126
136 0 68.2107 13.9128 949 81.2655 872.742 565.166
137 0 71.2216 13.9564 994 81.6439 872.949 565.021
138 1 37.0936 12.1584 451 82.5144 873.239 582.419
139 0 37.1323 12.4151 461 81.8807 872.516 583.555
140 0 40.1683 12.6468 508 82.4094 872.844 583.384
141 0 41.2257 13.1714 543 82.1326 872.908 581.214
142 0 41.1452 13.8291 569 82.4341 872.75 580.773
143 0 43.1428 13.3742 577 82.4246 872.804 580.445
144 0 45.145 13.8221 624 81.8333 872.553 579.787
145 0 46.1268 12.9209 596 83.8658 872.309 578.98
146 0 48.1421 13.7302 661 82.1483 872.259 578.681
147 0 50.3523 13.5644 683 82.5315 872.217 577.463
148 0 50.3557 13.7621 693 83.4055 871.723 575.043
149 0 51.2262 13.4697 690 84.1928 871.752 575.704
150 0 54.1964 13.6909 742 82.7871 871.71 575.476
151 0 57.4153 13.5156 776 82.5451 871.92 573.789
152 0 58.2734 14.0201 817 81.2411 872.158 573.842
153 0 60.3768 13.8629 837 81.9546 871.688 572.265
154 0 62.2318 13.514 841 82.7586 871.64 570.518
155 0 65.337 12.9636 847 82.9965 871.711 570.481
156 0 66.3811 14.477 961 81.4277 871.586 568.184
157 0 70.2651 14.2745 1003 81.1815 871.605 568.195
158 0 72.427 13.2547 960 83.125 871.446 567.264
159 0 74.2482 13.4683 1000 82.416 871.665 565.622
160 0 78.3952 14.6055 1145 79.6507 871.172 563.831
161 0 79.3757 13.77 1093 81.677 871.289 561.307
162 0 82.2622 13.6393 1122 81.2799 871.398 561.883
163 0 85.1957 13.1932 1124 81.4991 870.964 560.179
164 1 45.3094 11.7194 531 81.2354 871.785 579.122
165 0 45.2506 12.3534 559 80.0733 871.837 578.685
166 0 49.2875 13.9589 688 76.9695 871.968 577.735
167 0 50.2558 13.4313 675 77.8756 871.93 575.945
168 0 52.3556 13.8285 724 76.5525 872.544 576.706
169 0 53.2506 13.4083 714 77.5504 872.836 575.77
170 0 55.227 13.7071 757 76.8996 872.654 573.568
171 0 58.233 13.7036 798 75.8296 872.922 572.494
172 0 60.1969 13.4891 812 76.1084 873.015 572.539
173 0 59.1761 13.1641 779 78.3633 873.47 571.615
174 0 63.2639 14.2893 904 75.4657 873.178 569.22
175 0 64.3644 13.8586 892 77.2063 873.61 567.818
176 0 67.4077 13.7966 930 76.7022 873.656 568.02
177 0 69.4079 13.4711 935 77.5027 874.107 566
178 0 71.3356 14.1865 1012 76.835 873.958 565.895
179 0 74.5149 13.3128 992 78.9869 874.011 562.927
180 0 76.4056 14.0304 1072 78.2472 874.729 562.406
181 0 79.4329 13.609 1081 79.7114 874.57 560.081
182 0 82.5718 13.5518 1119 80.067 874.774 559.371
183 1 41.2615 11.003 454 80.3304 875.896 578.93
184 0 41.3089 11.4503 473 80.3573 875.903 579.163
185 0 45.3914 12.1609 552 78.8986 875.971 577.121
186 0 45.3292 12.5526 569 78.2847 876.62 577.513
187 0 46.2852 12.4662 577 79.2721 876.497 575.886
188 0 49.2321 12.695 625 77.8448 876.598 575.957
189 0 50.188 12.4133 623 79.0738 876.636 572.897
190 0 51.2422 13.2703 680 77.3471 876.728 572.078
191 0 53.2098 13.5313 720 77.1653 876.986 571.096
192 0 54.2475 12.867 698 77.2894 877.169 571.497
193 0 56.1565 12.572 706 76.5382 877.595 571.271
194 0 59.2333 13.1514 779 72.4236 877.155 569.286
195 0 60.2689 13.5559 817 70.3268 877.535 569.349
196 0 62.404 13.5248 844 69.3389 876.928 567.312
197 0 63.1978 13.0701 826 71.9177 876.887 567.811
198 0 66.483 13.7028 911 72.6301 877.081 565.683
199 0 68.3071 13.1465 898 75.0167 876.983 565.393
200 0 71.431 12.6976 907 76.0309 877.669 563.834
201 0 73.4422 13.1804 968 75.4783 877.723 562.379
202 0 74.4325 13.1932 982 76.2475 877.778 561.137
203 0 79.4715 13.8163 1098 73.8415 877.562 559.167
204 1 43.2846 10.7891 467 74.6788 877.655 578.976
205 0 44.2798 11.4048 505 74.7525 877.836 576.705
206 0 45.2988 11.1261 504 76.2163 877.75 575.569
207 0 48.1971 12.6564 610 73.5082 877.798 575.074
208 0 49.2825 12.7226 627 73.2424 878.525 575.086
209 0 48.3465 12.1002 585 75.1624 877.675 573.472
210 0 52.271 12.8752 673 73.0594 877.746 572.318
211 0 53.3208 12.6592 675 73.6015 877.59 572.052
212 0 54.1953 13.1746 714 73.1232 877.388 571.798
213 0 57.2327 13.2966 761 72.0999 877.068 571.562
214 0 59.2496 13.6203 807 71.3854 877.23 569.711
215 0 60.423 13.058 789 72.8568 877.124 569.961
216 0 62.2086 13.1493 818 72.1125 877.317 568.8
217 0 65.4251 12.9767 849 71.5465 876.298 568.161
218 0 66.3069 13.2716 880 71.8955 876.618 566.777
219 0 68.3391 12.9648 886 72.0835 876.211 564.73
220 0 72.3095 13.4975 976 70.9467 876.009 563.992
221 0 72.2981 13.2507 958 72.2985 875.783 562.619
222 0 78.3894 13.4074 1051 71.1132 875.595 562.211
223 1 37.3003 10.9383 408 72.4559 876.37 582.368
224 0 40.606 12.2888 499 69.996 876.208 582.168
225 0 40.2869 12.5103 504 70.7956 875.786 581.375
226 0 40.5687 12.6699 514 71.3385 875.918 579.185
227 0 44.3546 12.5804 558 70.3369 875.656 579.038
228 0 43.4135 12.2542 532 72.7274 875.632 578.338
229 0 45.3934 12.5789 571 72.2872 875.154 577.098
230 0 47.5387 12.9368 615 70.8276 875.35 577.263
231 0 48.3821 13.0627 632 71.5 875.046 576.559
232 0 48.3367 13.2611 641 71.8627 875.03 576.256
233 0 50.4196 13.6852 690 71.1377 875.014 575.09
234 0 53.4073 13.4813 720 70.5167 873.897 574.631
235 0 55.4539 12.7674 708 71.6116 874.192 573.476
236 0 56.1539 13.4274 754 71.2944 874.826 573.111
237 0 57.1521 13.7528 786 70.8931 874.179 573.303
238 0 59.3161 14.2963 848 70.0165 874.192 572.626
239 0 61.3104 14.4837 888 69.4459 874.389 571.093
240 0 62.1502 14.0788 875 70.592 874.422 569.853
241 0 64.2425 13.3245 856 72.1168 874.25 569.25
242 0 67.3851 13.92 938 70.5768 873.761 569.303
243 0 68.3665 13.3252 911 72.4698 873.696 567.626
244 0 71.4437 14.7109 1051 70.0067 873.345 566.758
245 0 73.3728 14.256 1046 71.1444 873.384 566.533
246 0 76.4665 13.98 1069 71.3714 873.288 566.428
247 0 78.7299 14.1115 1111 71.1971 873.513 564.942
248 0 81.2866 13.4832 1096 72.8814 873.732 562.809
249 1 43.5645 11.7068 510 75.4765 873.267 581.731
250 0 44.4007 12.1845 541 74.9409 873.473 580.924
251 0 46.4233 12.7738 593 73.8803 873.287 579.978
252 0 48.5475 13.6155 661 72.6339 873.605 578.877
253 0 49.3015 13.4276 662 73.8369 873.746 578.612
254 0 51.3468 12.8538 660 74.4136 873.438 578.848
255 0 53.2593 14.1008 751 72.5193 873.451 577.435
256 0 53.2233 13.3588 711 75.256 873.546 577.322
257 0 56.1796 14.5248 816 72.3051 873.447 575.549
258 0 58.1399 13.4503 782 74 873.6 576.012
259 0 57.1772 13.4319 768 75.1771 873.361 575.592
260 0 61.2693 13.3672 819 73.9328 872.521 574.906
261 0 62.3835 14.0742 878 73.2961 872.756 573.895
262 0 64.2624 14.3941 925 72.6627 872.958 571.789
263 0 67.268 13.5131 909 73.8031 872.817 571.354
264 0 69.3975 13.8334 960 73.4198 872.611 569.241
265 0 72.268 14.0865 1018 73.4941 872.41 568.234
266 0 74.1703 13.7791 1022 73.8963 872.196 566.438
267 0 77.6097 14.0704 1092 73.6511 872.296 564.933
268 0 81.3292 13.9556 1135 73.5965 872.392 564.789
269 0 84.2992 14.3062 1206 73.2512 872.032 563.375
270 1 45.2311 12.3588 559 75.0358 872.37 580.893
271 0 46.1753 11.6946 540 75.2574 872.806 582.257
272 0 47.3168 12.8073 606 74.3053 873.083 579.822
273 0 49.2678 12.6046 621 74.3929 873.172 578.94
274 0 52.3225 12.939 677 73.4948 873.211 578.715
275 0 53.2919 13.3416 711 73.5218 873.163 576.65
276 0 54.306 12.8715 699 74.4464 872.957 576.883
277 0 56.2903 13.2705 747 73.9625 872.731 574.486
278 0 56.2468 13.6541 768 73.8737 872.973 574.391
279 0 57.4041 13.2046 758 75.5264 873.051 573.426
280 0 61.2606 13.8588 849 72.9576 873.543 571.432
281 0 64.2625 13.4293 863 73.7961 873.554 569.903
282 0 65.231 13.6898 893 73.7368 873.821 568.554
283 0 67.2118 14.0749 946 72.9006 873.969 567.703
284 0 69.4447 13.6223 946 73.0455 873.704 567.118
285 0 72.2587 13.6454 986 74.0426 873.819 565.617
286 0 74.483 13.9495 1039 73.5207 873.817 563.756
287 0 76.3098 13.9432 1064 73.3055 873.544 562.928
288 0 77.2622 13.8748 1072 74.2612 874.035 562.171
289 0 81.459 14.1421 1152 73.4783 874.144 560.834
290 0 84.4831 14.1093 1192 72.9304 874.271 559.204
291 0 88.3884 13.8027 1220 73.4803 874.727 556.343
292 0 91.2787 13.771 1257 73.5863 875.306 554.87
293 1 48.2748 11.4138 551 72.5535 875.824 577.341
294 0 50.1883 11.4568 575 72.0539 875.797 576.543
295 0 50.1877 11.8555 595 72.237 875.701 574.755
296 0 53.1393 12.3637 657 70.2983 875.991 573.581
297 0 52.1606 12.4423 649 72.0031 875.901 572.632
298 0 54.3207 12.0028 652 72.1426 876.072 571.324
299 0 58.3662 12.4387 726 70.6887 876.026 570.135
300 0 61.4583 12.9519 796 69.0905 876.082 569.559
301 0 61.4219 12.7479 783 70.59 876.451 567.632
302 0 63.3393 12.5515 795 70.4415 876.805 567.693
303 0 66.2036 12.8241 849 70.0059 876.388 566.902
304 0 66.2582 12.2702 813 72.0824 876.23 563.729
305 0 69.2418 13.0846 906 70.3201 876.456 562.357
306 0 70.2995 13.3714 940 70.1138 876.128 561.174
307 0 72.4258 12.4127 899 71.1301 876.075 559.784
308 0 75.1942 11.7695 885 71.4136 875.939 559.579
309 0 78.2804 12.9151 1011 70.1622 876.081 556.151
310 0 81.1617 12.4936 1014 70.7682 875.949 555.187
311 0 84.3101 12.537 1057 70.5279 876.797 554.412
312 0 88.4344 11.9637 1058 71.2089 876.624 552.653
313 0 89.2351 12.5735 1122 70.7487 876.557 550.964
314 0 92.4011 13.1492 1215 69.8782 876.874 549.759
315 1 50.1501 9.2921 466 69.3734 876.959 573.524
316 0 50.1373 10.551 529 68.0132 876.745 571.418
317 0 52.1453 11.3721 593 67.7386 877.115 571.157
318 0 53.069 10.59 562 69.5641 876.464 567.811
319 0 55.0716 11.6575 642 68.2601 876.506 567.673
320 0 56.1185 11.6361 653 69.1179 876.309 566.493
321 0 58.3311 12.2233 713 67.6101 875.912 566.328
322 0 59.3359 11.8478 703 68.8407 876.018 565.627
323 0 61.2456 12.3927 759 68.3781 875.851 566.96
324 0 63.2513 11.5413 730 70.1932 875.962 564.3
325 0 66.2838 11.7525 779 69.8524 875.44 563.176
326 0 67.2009 12.4105 834 69.4065 875.568 562.873
327 0 69.2434 12.3766 857 68.8518 875.42 561.127
328 0 73.2805 12.1451 890 69.2843 874.839 561.217
329 0 75.2032 12.433 935 70.092 874.327 558.339
330 0 76.2016 11.8764 905 71.4442 874.529 558.264
331 1 42.1563 9.89176 417 70.9089 875.07 575.376
332 0 43.2675 9.89196 428 71.8832 875.098 575.014
333 0 45.3938 11.4112 518 70.2124 874.792 574.147
334 0 47.3295 10.6488 504 71.0853 874.111 572.788
335 0 48.258 11.9773 578 69.6696 874.616 573.216
336 0 51.2696 11.8979 610 70.0016 873.911 571.528
337 0 51.3201 11.6134 596 71.6728 874.052 570.549
338 0 53.2205 10.8041 575 73.1913 874.127 569.767
339 0 54.3163 11.9301 648 71.1235 873.634 570.361
340 0 57.256 11.9289 683 71.1288 873.798 568.742
341 0 59.3049 12.0226 713 70.7335 873.489 568.31
342 0 61.3032 11.7938 723 71.4633 873.423 567.311
343 0 61.3461 12.1279 744 71.8038 873.786 566.519
344 0 64.2328 11.7697 756 71.8426 873.909 566.389
345 0 66.342 12.1492 806 70.9988 873.614 565.127
346 0 68.2726 12.8749 879 70.0023 873.871 564.135
347 0 69.3286 11.9864 831 70.9158 873.727 562.838
348 0 72.2226 11.9769 865 70.8104 873.816 562.171
349 0 74.2986 12.9881 965 68.828 874.035 561.017
350 0 76.2816 12.467 951 70.1083 873.607 559.449
351 0 79.2984 12.2827 974 70.1088 873.373 558.026
352 0 81.3213 12.2969 1000 71.214 873.816 557.148
353 1 45.1949 10.8198 489 70.5787 874.734 576.393
354 0 45.1347 10.3468 467 71.6317 874.931 576.574
355 0 46.2227 10.471 484 71.5558 874.818 575.959
356 0 49.0743 11.289 554 68.2112 874.482 574.256
357 0 47.0257 10.59 498 68.255 873.47 572.801
358 0 50.334 11.5628 582 66.4141 873.701 573.636
359 0 51.2489 11.0636 567 68.9683 873.199 572.762
360 0 53.3055 12.0438 642 67.1355 873.407 571.536
361 0 54.2925 12.23 664 67.244 872.979 569.681
362 0 57.2628 11.7179 671 67.2653 873.154 569.686
363 0 58.3315 12.0004 700 67.3843 873.129 567.12
364 0 61.2954 11.4364 701 67.2596 873.27 567.753
365 0 61.3314 12.408 761 66.2444 873.293 566.884
366 0 65.2786 12.776 834 64.946 873.398 568.2
367 0 66.4044 12.1227 805 66.8534 873.852 565.196
368 0 66.4044 12.198 810 158.028 873.858 565.209
369 0 69.3934 11.8887 825 68.1297 874.524 562.801
370 0 71.4074 12.9818 927 65.7152 874.255 561.782
371 0 74.2055 12.5328 930 65.129 875.042 561.543
372 0 75.2228 13.2938 1000 64.676 875.07 560.897
373 0 80.1984 12.7933 1026 64.9103 874.839 558.23
374 0 80.2142 12.6287 1013 66.0069 875.067 556.301
375 0 81.2692 12.6985 1032 66.4952 875.179 555.613
376 1 41.1996 10.4855 432 63.2616 876.079 578.611
377 0 43.2849 10.6735 462 63.5801 876.175 576.368
378 0 43.1549 9.547 412 66.3859 875.92 575.704
379 0 44.1272 12.2827 542 63.7749 876.089 572.38
380 0 47.1987 11.8012 557 63.1293 876.542 573.995
381 0 50.2873 13.0053 654 61.8746 876.424 572.888
382 0 50.4166 12.1984 615 63.639 876.556 572.815
383 0 53.1478 12.5687 668 63.7231 876.612 571.12
384 0 54.2963 12.6896 689 63.2917 876.713 570.202
385 0 56.2766 12.4563 701 63.5835 876.86 568.397
386 0 57.2654 12.2587 702 63.6353 877.058 568.658
387 0 58.1855 12.4258 723 62.6432 877.048 569.14
388 0 60.2185 12.4712 751 63.3302 877.184 566.091
389 0 61.2551 13.0928 802 61.9676 877.576 566.485
390 0 63.1984 12.7218 804 62.49 877.244 565.289
391 0 64.1654 12.2964 789 63.2966 877.567 564.26
392 0 67.2065 13.0791 879 62.3083 877.588 562.998
393 0 69.2807 12.9329 896 62.577 877.442 562.431
394 0 72.1349 13.1698 950 61.8874 877.433 561.174
395 0 71.3063 12.9582 924 63.276 877.28 558.693
396 0 76.3825 12.6338 965 62.8819 877.334 559.335
397 0 77.2226 13.1179 1013 62.6051 877.921 556.764
398 0 82.2788 13.1139 1079 62.0158 877.63 554.721
399 0 84.2122 13.7272 1156 61.2933 878.162 554.862
400 0 84.2122 13.7154 1155 163.247 878.166 554.835
401 1 42.063 11.1262 468 63.9808 878.231 572.511
402 0 47.1595 11.4929 542 61.4539 878.083 573.262
403 0 48.0735 11.628 559 62.4615 877.671 570.919
404 0 49.0618 12.5964 618 61.0243 877.803 570.464
405 0 51.0819 12.2744 627 61.3445 877.938 569.014
406 0 51.0462 12.6552 646 61.291 878.186 569.07
407 0 53.0469 12.1213 643 62.5832 877.956 567.871
408 0 56.1653 12.9439 727 61.0564 878.076 566.989
409 0 56.0781 11.9655 671 62.6408 877.681 566.772
410 0 61.0281 12.6335 771 60.7211 877.567 566.922
411 0 60.0835 12.4161 746 62.0912 877.551 565.154
412 0 64.0324 12.8216 821 61.3313 877.563 563.773
413 0 65.1901 12.0724 787 62.803 877.76 563.278
414 0 67.0932 13.3098 893 61.0538 877.177 560.759
415 0 68.0799 12.8085 872 63.2317 877.439 560.005
416 0 72.1663 12.7206 918 62.7157 877.404 559.354
417 0 76.2106 13.4627 1026 61.7622 876.886 558.5
418 0 77.17 13.5545 1046 62.3337 876.906 556.502
419 0 80.196 13.4795 1081 62.161 876.42 554.096
420 0 83.1164 13.4751 1120 62.0045 876.132 553.411
421 0 86.2609 13.5403 1168 61.9649 876.007 552.279
422 0 88.1355 12.9687 1143 62.762 875.374 551.359
423 0 91.2027 13.7825 1257 61.7383 875.418 548.741
424 0 95.2271 12.9375 1232 62.3961 875.045 547.703
425 1 50.1219 9.81606 492 61.5874 875.096 571.813
426 0 51.0941 9.84459 503 61.2107 875.103 572.01
427 0 52.1617 10.8317 565 60.485 875.018 571.703
428 0 56.178 11.4814 645 60.8558 875.026 569.757
429 0 56.2229 11.8457 666 60.7748 874.704 567.995
430 0 57.0209 11.715 668 60.6632 874.849 566.263
431 0 58.0204 12.7024 737 59.483 874.556 566.664
432 0 61.0181 13.1273 801 58.638 874.335 564.413
433 0 63.0412 12.9598 817 58.8764 874.209 564.499
434 0 65.1063 12.8866 839 59.0739 874.111 562.671
435 0 68.0904 13.8786 945 58.0233 874.108 561.815
436 0 69.1218 12.8903 891 59.6857 874.181 561.327
437 0 70.0462 12.606 883 60.6863 874.037 561.655
438 0 73.1214 13.6759 1000 59.7 874.061 559.646
439 0 74.1183 13.384 992 60.4466 874.06 559.762
440 0 78.0645 13.2326 1033 60.8722 873.702 558.312
441 0 78.082 13.5755 1060 61.3491 873.348 556.61
442 0 80.1216 13.1425 1053 62.0494 873.859 556.937
443 0 85.0662 13.5071 1149 61.3951 873.283 555.514
444 0 86.0667 13.1642 1133 62.7714 874.089 553.885
445 1 49.0367 11.0122 540 61.8963 874.685 573.657
446 0 52.0108 11.0938 577 61.7574 874.458 573.416
447 0 53.0984 11.3751 604 61.4371 874.278 572.252
448 0 53.0162 11.0155 584 62.9041 874.39 572.039
449 0 55.0806 12.4182 684 61.2558 874.696 571.541
450 0 56.0943 12.069 677 61.5066 873.814 571.718
451 0 58.112 12.9405 752 60.8258 873.943 569.081
452 0 59.1413 11.6501 689 62.6139 873.952 569.099
453 0 62.0949 11.9011 739 61.9635 873.747 567.053
454 0 62.1132 13.0085 808 60.927 874.172 566.55
455 0 66.1316 12.0366 796 61.2073 873.93 566.651
456 0 68.1162 12.4787 850 60.9518 873.695 565.249
457 0 67.2054 11.6806 785 62.9554 873.604 562.429
458 0 71.1508 11.9183 848 61.9068 873.626 563.552
459 0 76.1358 13.7517 1047 59.3744 873.901 561.848
460 0 76.1345 12.0313 916 62.4825 874.283 560.027
461 1 38.0927 10.632 405 60.3358 874.277 580.605
462 0 40.0642 10.7827 432 60.7037 874.229 578.854
463 0 40.0699 10.881 436 60.9128 873.7 579.667
464 0 41.1745 11.0505 455 61.5538 873.703 577.103
465 0 44.058 11.9161 525 61.621 873.291 575.276
466 0 45.0864 11.6887 527 62.5123 873.121 575.795
467 0 47.0858 11.8507 558 61.9427 873.219 575.613
468 0 47.135 12.3899 584 62.0771 873.144 575.17
469 0 48.1543 12.19 587 62.7939 873.155 573.761
470 0 51.2535 11.6285 596 62.7248 873.617 574.233
471 0 50.1937 12.0334 604 63.3725 873.561 573.071
472 0 52.0654 12.3499 643 62.5739 873.106 572.538
473 0 54.1218 12.5088 677 62.5288 873.575 571.691
474 0 56.0976 12.1574 682 62.7991 873.403 571.437
475 0 59.1012 12.9101 763 61.7877 873.55 569.511
476 0 61.1556 13.1959 807 61.7361 873.818 569.187
477 0 63.0814 12.5552 792 63.0202 873.572 568.836
478 0 63.0724 13.429 847 62.7473 873.519 566.445
479 0 65.1508 12.7857 833 63.6723 873.631 565.678
480 0 69.1532 13.5641 938 62.4755 873.867 563.554
481 0 72.0253 12.6622 912 63.4211 874.213 564.944
482 0 74.0512 13.126 972 63.573 874.233 562.852
483 0 76.096 13.7721 1048 62.8702 873.848 561.906
484 0 77.2124 12.7829 987 64.8875 873.94 560.846
485 0 81.1374 12.4973 1014 65.2761 874.183 559.023
486 0 85.1089 13.5121 1150 63.7783 874.728 556.553
487 1 45.1218 10.7487 485 65.4206 875.225 577.466
488 0 45.1218 10.8373 489 158.497 875.215 577.335
489 0 50.1819 11.5181 578 65.1522 875.365 575.889
490 0 51.1081 11.6224 594 65.7609 875.14 574.776
491 0 54.0418 13.3415 721 61.6755 874.675 572.583
492 0 55.0187 12.4321 684 63.769 875.48 572.75
493 0 57.0664 13.7559 785 61.9783 875.339 571.399
494 0 59.0259 13.0451 770 63.1312 875.464 570.313
495 0 59.0241 12.7575 753 64.5325 875.616 568.586
496 0 61.0567 12.9716 792 64.404 875.324 568.532
497 0 65.0607 14.3712 935 62.3658 875.511 566.066
498 0 67.0951 13.1008 879 64.6166 875.653 565.603
499 0 68.0502 13.3284 907 65.1643 875.634 564.658
500 0 72.0763 13.8603 999 64.2563 875.298 562.827
501 0 74.0801 13.8769 1028 64.751 875.205 562.691
502 0 77.1309 13.4187 1035 65.4415 874.658 562.234
503 0 79.1101 13.8162 1093 66.2589 874.568 558.568
504 0 80.0911 13.6345 1092 67.4496 874.473 557.264
505 0 84.1843 13.3873 1127 67.5697 874.438 555.619
506 0 87.1255 13.6126 1186 67.5936 874.69 555.291
507 0 90.2171 13.8776 1252 67.9673 874.819 553.415
508 0 93.122 13.8098 1286 68.3297 874.872 553.297
509 0 95.1038 13.48 1282 69.1895 875.145 551.65
510 0 98.1846 13.6885 1344 68.9874 874.985 551.089
511 0 100.181 13.9748 1400 69.3579 875.416 546.966
512 0 103.356 14.5227 1501 68.8847 874.956 546.721
513 1 56.0978 11.2482 631 71.0713 875.578 572.371
514 0 59.1243 13.0572 772 68.399 875.648 571.073
515 0 60.0907 12.8639 773 69.3661 874.969 568.908
516 0 64.2573 12.341 793 68.5359 875.392 568.189
517 0 66.0905 13.3151 880 67.1045 875.035 566.08
518 0 66.0535 12.7472 842 68.5202 875.071 566.077
519 0 69.1144 13.0074 899 67.7086 875.301 565.504
520 0 72.1852 13.3545 964 67.862 875.731 563.503
521 0 74.178 13.4541 998 67.9739 875.571 562.291
522 0 77.2407 13.3738 1033 68.1326 875.772 561.591
523 0 80.2824 13.4276 1078 67.8998 875.502 559.188
524 0 84.1468 13.1437 1106 68.1365 876.061 558.495
525 0 85.1681 13.3266 1135 68.4855 876.054 557.424
526 0 88.2633 13.6977 1209 68.3846 875.902 554.938
527 1 45.018 11.7286 528 68.4451 876.309 577.845
528 0 47.0306 11.8434 557 69.4704 875.959 574.934
529 0 50.1107 12.672 635 67.4346 876.132 574.735
530 0 50.0352 12.0915 605 69.443 876.213 572.924
531 0 50.0593 13.0845 655 68.3344 876.273 572.394
532 0 54.2183 12.8185 695 68.154 876.508 572.252
533 0 56.4085 13.1363 741 67.9001 876.293 570.171
534 0 59.3416 13.6161 808 66.5124 876.604 568.927
535 0 61.2128 13.8696 849 65.8587 876.505 568.329
536 0 62.2754 13.4564 838 66.1444 876.243 567.624
537 0 64.1999 13.4268 862 66.5406 876.555 566.248
538 0 67.295 13.2254 890 66.2135 876.856 564.338
539 0 69.3496 12.747 884 66.8394 876.153 563.99
540 0 71.3337 13.8924 991 65.0323 876.225 563.356
541 0 73.3426 13.8664 1017 65.0531 876.325 562.468
542 0 77.3435 14.2223 1100 63.7927 876.12 560.966
543 0 81.488 13.548 1104 64.7056 876.224 559.553
544 0 81.4096 13.3645 1088 65.7739 875.561 558.267
545 1 40.409 11.0371 446 66.3632 876.267 578.731
546 0 40.2815 10.5259 424 66.9552 876.215 578.252
547 0 43.2453 11.7238 507 65.2012 875.604 576.469
548 0 44.303 11.7148 519 65.6898 875.162 576.455
549 0 46.2776 12.1009 560 65.9429 874.927 575.329
550 0 48.3213 13.493 652 63.9126 874.929 574.94
551 0 48.2187 13.9572 673 64.2125 874.807 574.15
552 0 49.3467 13.1113 647 65.7743 874.703 574.223
553 0 51.4095 14.0246 721 64.2635 874.524 573.702
554 0 51.2141 12.9652 664 66.9217 874.75 573.157
555 0 54.1673 12.5352 679 67.2135 874.49 572.439
556 0 54.3386 13.8392 752 65.5785 874.769 571.372
557 0 56.3339 14.1123 795 64.8528 874.855 569.532
558 0 59.3326 13.4496 798 65.5439 874.771 568.91
559 0 62.4667 14.5678 910 63.0033 874.705 568.812
560 0 63.5045 13.7313 872 64.9415 874.851 567.717
561 0 65.2547 14.0986 920 64.5043 875.12 566.003
562 0 68.2512 14.3001 976 64.0318 874.875 565.401
563 0 70.3558 15.1089 1063 63.2032 874.705 564.109
564 0 72.6643 13.9821 1016 64.9715 874.701 564.26
565 0 76.3446 14.0678 1074 65.2076 874.438 561.929
566 0 79.3748 14.8158 1176 63.869 873.978 560.697
567 1 42.1934 11.4947 485 66.7753 874.718 579.39
568 0 43.2129 11.7789 509 67.165 874.088 578.438
569 0 43.2078 12.8218 554 67.0307 874.325 576.63
570 0 45.1695 12.7077 574 67.4721 874.331 575.774
571 0 47.269 12.4818 590 67.8746 873.88 575.419
572 0 49.212 13.1472 647 66.507 874.309 574.835
573 0 50.1297 12.7469 639 67.6761 874.313 573.966
574 0 54.2106 11.8058 640 68.2812 873.136 572.739
575 0 52.1749 13.3398 696 67.1954 873.341 573.092
576 0 54.1608 14.1431 766 66.6371 873.136 572.424
577 0 57.2959 13.98 801 66.799 873.049 570.821
578 0 58.2038 13.1091 763 67.6619 872.9 571.042
579 0 60.1452 13.3344 802 67.788 872.419 568.611
580 0 62.1633 12.1293 754 68.7878 872.924 568.023
581 0 65.1201 13.4981 879 65.5392 872.78 568.217
582 0 67.3827 13.2675 894 66.0973 872.23 566.555
583 0 70.216 13.8572 973 65.6475 872.264 563.937
584 0 73.4163 13.5256 993 65.4894 872.896 563.596
585 0 74.495 13.464 1003 66.4417 872.513 562.173
586 1 38.2387 10.8267 414 65.9058 873.372 581.184
587 0 41.2164 9.68062 399 66.6015 873.331 581.078
588 0 41.2144 12.1802 502 64.5458 873.275 579.339
589 0 41.1019 11.6053 477 66.2138 872.738 578.375
590 0 43.2138 11.8944 514 65.5058 873.019 577.996
591 0 43.3187 12.6504 548 66.6077 872.672 577.361
592 0 45.2611 12.8366 581 66.4905 872.227 576.494
593 0 47.203 13.156 621 65.8744 872.469 577.158
594 0 48.162 13.4961 650 65.6662 872.468 575.937
595 0 51.1664 13.3681 684 64.7281 871.868 574.509
596 0 54.2132 13.4285 728 63.1841 871.784 574.865
597 0 55.2322 13.2712 733 63.558 872.184 574.142
598 0 57.2032 13.0937 749 63.6515 872.319 572.485
599 0 57.1898 13.2716 759 63.9354 872.458 571.68
600 0 62.1636 12.9658 806 62.6811 872.46 571.036
601 0 62.1575 13.1762 819 63.1941 872.093 569.949
602 0 65.2369 13.8878 906 61.4868 872.014 568.776
603 0 67.2147 13.6577 918 61.8595 872.012 567.559
604 0 69.2483 13.0834 906 62.6137 872.142 568.673
605 0 73.4084 13.4862 990 61.2899 872.105 565.751
606 1 39.1222 11.528 451 61.1707 871.772 583.545
607 0 39.2237 12.2885 482 62.8008 871.635 580.782
608 0 41.2498 12.2667 506 62.6798 871.927 580.654
609 0 44.3915 12.4123 551 62.7713 872.37 580.857
610 0 46.1796 12.3648 571 62.7268 871.723 578.902
611 0 47.5511 13.2279 629 61.407 872.094 577.835
612 0 47.1262 13.3047 627 62.0941 872.163 576.36
613 0 49.513 13.6934 678 61.6932 871.827 576.329
614 0 52.39 13.1132 687 61.9738 871.277 575.875
615 0 52.5542 13.1103 689 62.3643 872.096 574.753
616 0 56.365 13.7674 776 60.7448 872.063 574.425
617 0 55.2749 13.6409 754 61.6101 872.038 573.134
618 0 58.3546 13.7264 801 61.2409 872.019 572.086
619 0 61.4037 13.4357 825 61.217 872.147 571.618
620 0 59.3984 13.9734 830 61.7036 872.222 570.982
621 0 62.283 14.1933 884 61.595 872.071 569.957
622 0 64.3778 14.3217 922 61.5586 872.718 568.89
623 0 67.5208 14.44 975 60.9631 872.907 568.428
624 0 69.5188 13.8811 965 62.2031 872.904 567.406
625 1 34.39 11.8348 407 63.4496 873.307 584.378
626 0 33.3282 11.1917 373 64.8499 873.432 583.992
627 0 36.3868 11.8175 430 65.1 873.505 583.205
628 0 39.5452 12.138 480 63.9833 873.487 582.331
629 0 40.604 12.1663 494 64.8198 873.498 581.006
630 0 41.3241 12.6802 524 64.8779 873.746 579.943
631 0 43.2768 13.1248 568 64.0053 873.868 579.19
632 0 44.2569 13.1279 581 64.5525 874.62 579.057
633 0 46.2938 12.7015 588 65.0493 874.595 577.568
634 0 49.2096 13.1885 649 63.2373 874.502 577.371
635 0 50.2541 13.3323 670 64.0955 874.909 576.437
636 0 52.2088 13.3311 696 64.2098 874.925 574.157
637 0 52.3528 13.5618 710 64.4972 875.006 573.27
638 0 55.3844 13.5959 753 63.0611 874.979 572.657
639 0 57.3148 13.5567 777 63.7426 875.041 571.569
640 0 58.3939 13.9398 814 63.7924 875.246 570.043
641 0 60.1374 14.3837 865 63.2162 875.484 569.058
642 0 61.3183 13.8621 850 63.9094 875.601 569.318
643 0 63.2932 13.5718 859 64.752 875.919 567.925
644 0 65.4022 14.0668 920 63.612 876.443 565.995
645 0 69.5391 13.7045 953 64.3431 876.129 564.404
646 0 69.324 13.7326 952 64.7153 875.861 564.423
647 0 71.242 13.8682 988 65.2004 876.128 562.045
648 0 74.3646 14.0658 1046 64.8461 876.406 561.531
649 0 77.3878 14.4338 1117 64.1191 876.261 560.714
650 0 80.379 13.2995 1069 66.276 876.509 558.749
651 1 38.2481 11.2162 429 68.3263 878.075 577.075
652 0 42.2883 11.6581 493 67.4949 877.286 575.596
653 0 44.337 11.7284 520 66.9673 876.765 575.021
654 0 46.2098 12.2918 568 66.2306 876.798 573.519
655 0 46.1296 12.5082 577 66.8596 877.208 571.735
656 0 46.037 13.1199 604 66.7815 877.263 570.439
657 0 49.1716 12.7716 628 66.5239 876.943 569.624
658 0 51.1118 12.9911 664 65.2395 876.732 569.325
659 0 53.2211 13.209 703 64.8122 876.869 568.78
660 0 54.1494 13.3889 725 64.7214 876.908 568.19
661 0 58.3217 13.1169 765 64.0065 877.111 565.946
662 0 59.1605 13.1676 779 64.1759 876.986 564.824
663 0 61.2826 13.3154 816 63.8615 877.009 563.275
664 0 64.2304 13.8719 891 62.5926 877.425 561.308
665 0 65.2588 13.5614 885 63.426 877.024 560.876
666 0 68.2606 13.6975 935 62.7636 876.906 559.597
667 0 71.1787 13.8525 986 62.5284 876.507 558.694
668 0 75.1768 14.2331 1070 61.8664 876.763 557.575
669 0 78.092 13.9579 1090 61.4229 877.24 558.228
670 0 80.1256 13.7285 1100 62.0091 876.666 553.058
671 1 43.0736 10.5865 456 60.5921 877.296 573.331
672 0 43.1064 10.5553 455 62.1846 877.081 571.352
673 0 44.0647 10.6661 470 62.2106 877.328 571.347
674 0 42.2187 11.3457 479 60.8038 876.152 569.937
675 0 44.2918 11.2662 499 60.8938 876.343 568.94
676 0 44.2017 12.0131 531 60.467 876.363 571.215
677 0 46.1956 11.7327 542 61.286 876.764 570.472
678 0 47.198 12.5217 591 60.4755 876.849 570.14
679 0 49.0895 11.204 550 62.4836 876.415 569.535
680 0 51.0536 12.0853 617 61.6694 876.323 567.867
681 0 52.0136 12.1699 633 60.8357 876.513 568.733
682 0 54.0412 12.509 676 60.7115 876.464 566.797
683 0 54.0624 13.0405 705 60.6596 876.577 566.713
684 0 56.0591 12.3441 692 61.1691 876.75 566.893
685 0 59.1294 13.1238 776 60.1469 876.443 565.327
686 0 57.0317 12.0459 687 62.6317 876.278 561.44
687 0 61.1115 12.5017 764 61.3259 876.31 563.496
688 0 62.0819 12.854 798 61.4624 876.429 562.075
689 0 67.1975 13.4082 901 60.2919 876.639 561.486
690 0 66.0998 12.1786 805 62.8236 876.486 559.092
691 0 71.2446 12.9694 924 60.868 876.43 559.506
692 0 70.1544 12.0876 848 63.2512 876.906 556.264
693 0 75.3054 12.4294 936 61.9744 876.456 557.877
694 1 39.1973 10.4089 408 63.2279 876.441 572.765
695 0 41.0349 10.6495 437 62.7437 876.176 572.094
696 0 42.0598 11.6025 488 61.7418 876.637 572.273
697 0 44.0854 11.5004 507 61.7357 877.227 571.32
698 0 43.0915 11.464 494 155.864 878.227 571.075
699 0 48.184 12.0995 583 60.4597 876.885 571.427
700 0 49.2156 12.6179 621 60.4171 876.675 569.164
701 0 51.3202 12.9968 667 59.8891 876.52 569.75
702 0 53.3298 12.5446 669 60.571 875.852 567.021
703 0 53.485 12.7325 681 60.8767 875.639 566.883
704 0 57.264 12.9226 740 61.6541 875.785 566.018
705 0 58.213 13.2101 769 65.6736 875.493 566.485
706 0 61.2704 12.9916 796 67.7085 875.036 565.452
707 0 61.3229 11.9042 730 71.6986 875.3 564.007
708 0 66.5058 12.9613 862 72.7042 875.211 564.224
709 0 67.3885 14.78 996 78.4317 874.964 562.444
710 0 66.2316 12.9998 861 68.41 874.915 562.857
711 0 69.2136 13.22 915 69.0317 875.242 561.393
712 0 70.1616 13.8395 971 70.0659 874.733 559.009
713 0 72.129 13.3788 965 71.7326 874.412 556.694
714 0 75.2648 12.9808 977 73.0747 874.763 556.261
715 0 79.361 12.7644 1013 74.228 874.721 557.148
716 0 79.2202 14.0621 1114 73.9551 874.592 554.92
717 0 85.1385 14.2826 1216 74.0641 874.47 553.794
718 0 88.2135 13.6827 1207 75.0704 874.316 554.552
719 0 91.2532 14.0707 1284 75.2882 874.567 551.393
720 0 91.2532 14.0488 1282 160.257 874.566 551.36
721 1 50.3413 11.1042 559 78.5993 874.828 572.023
722 0 53.3753 13.1147 700 76.4057 874.877 571.77
723 0 54.312 12.5939 684 78.4415 874.579 569.905
724 0 57.3324 12.5584 720 78.1194 874.646 569.013
725 0 59.2589 11.8969 705 79.5518 874.336 569.189
726 0 61.2878 13.9016 852 76.3333 874.806 566.573
727 0 61.2257 13.0174 797 78.0765 874.193 567.447
728 0 64.2816 12.7097 817 79.1836 874.596 567.252
729 0 67.2698 13.2303 890 78.5899 874.417 564.609
730 0 68.3281 14.1816 969 77.8844 874.136 563.387
731 0 73.4144 13.9755 1026 77.7963 873.915 564.963
732 0 74.2988 13.2034 981 79.8022 873.977 562.369
733 0 76.3901 13.0253 995 80.1538 873.75 561.295
734 0 79.4827 13.3111 1058 81.2344 873.463 558.673
735 0 81.3709 13.42 1092 81.294 873.176 556.591
736 0 84.5017 13.3962 1132 82.1369 873.434 556.828
737 0 83.445 13.7336 1146 82.3839 873.238 557.441
738 0 88.4938 13.1761 1166 83.9811 872.762 555.356
739 0 90.4667 12.7561 1154 84.6776 873.094 555.309
740 0 89.2554 11.0133 983 86.9583 872.777 555.945
741 0 88.4291 10.5169 930 87.2462 872.945 558.357
742 1 53.2537 10.7223 571 84.0595 873.098 575.56
743 0 52.2832 12.3367 645 84.4806 872.437 573.188
744 0 52.2792 12.6245 660 85.5591 872.927 570.926
745 0 54.298 12.9471 703 86.1437 873.286 570.704
746 0 56.32 13.6364 768 86.8099 873.129 569.624
747 0 60.2392 13.3966 807 86.3866 873.375 571.477
748 0 61.4199 12.9274 794 88.3098 873.156 570.083
749 0 64.393 13.8835 894 88.3177 873.073 568.671
750 0 64.371 12.9095 831 90.9242 873.112 567.555
751 0 67.6423 13.4236 908 90.8304 872.968 567.205
752 0 70.8672 13.9839 991 81.1937 872.894 565.086
753 0 71.5045 12.7265 910 84.0077 872.622 564.6
754 0 73.4165 13.4438 987 82.9828 872.411 564.312
755 0 74.6537 12.1226 905 85.7536 872.465 563.073
756 0 77.3483 13.4715 1042 84.3522 872.536 562.56
757 0 80.2112 13.9507 1119 84.2592 872.567 561.801
758 0 81.372 12.9774 1056 86.6572 872.759 561.239
759 0 86.2429 13.9722 1205 84.6116 872.396 559.579
760 0 89.5208 14.4212 1291 84.9659 872.466 558.825
761 0 89.3223 12.8188 1145 88.2664 872.048 556.418
762 0 95.2865 15.3852 1466 85.5157 871.728 554.367
763 0 96.2333 14.0804 1355 87.2546 872.012 554.068
764 0 99.4432 14.1287 1405 88.9872 872.114 549.307
765 0 102.428 13.3167 1364 90.4626 871.913 549.74
766 0 105.445 13.5711 1431 89.8532 871.861 551.303
767 0 108.291 13.6023 1473 89.5316 871.397 548.136
768 0 111.262 13.8772 1544 90.0389 871.569 544.752
769 1 60.2466 11.7019 705 85.5163 872.129 575.365
770 0 62.2584 11.1792 696 87.4411 871.552 572.494
771 0 65.1466 13.4619 877 86.8677 870.231 564.897
772 0 67.2288 11.4386 769 89.3693 869.818 565.242
773 0 70.2835 12.663 890 88.5775 870.506 567.827
774 0 71.35 12.0392 859 89.915 870.648 569.016
775 0 75.417 14.4265 1088 87.4752 870.72 566.67
776 0 76.3453 12.0374 919 92.0326 870.803 565.652
777 0 82.4001 11.1165 916 94.214 870.269 563.826
778 0 80.3802 13.1998 1061 94.5108 870.46 559.032
779 0 84.527 13.4868 1140 86.1833 870.479 559.495
780 0 87.385 13.5721 1186 85.7867 870.496 556.476
781 0 89.4493 13.1024 1172 86.5128 870.704 558.465
782 0 93.5241 12.7988 1197 88.4227 870.687 554.821
783 0 93.6446 11.3301 1061 91.2243 870.621 555.476
784 0 97.6159 13.7375 1341 89.1275 870.65 554.252
785 0 100.421 13.2543 1331 90.4282 871.665 552.663
786 1 53.6784 10.5629 567 89.3175 871.619 572.843
787 0 55.5813 12.7201 707 87.0608 872.01 574.092
788 0 57.4855 12.09 695 89.5482 872.245 570.682
789 0 60.4448 12.4576 753 88.3811 872.758 572.367
790 0 61.5794 12.7965 788 86.1891 872.921 570.338
791 0 61.468 11.144 685 88.7956 872.971 570.704
792 0 64.1706 13.168 845 86.9976 873.853 569.336
793 0 64.355 12.2912 791 88.1593 874.073 568.845
794 0 68.276 13.8555 946 87.426 873.758 567.947
795 0 69.3876 12.3941 860 89.6058 873.34 567.642
796 0 74.2249 11.0206 818 91.6357 873.346 566.599
797 0 73.4103 12.2054 896 91.8683 873.317 564.021
798 0 74.4602 13.1345 978 83.9601 872.711 561.914
799 0 77.3085 12.4566 963 86.296 873.396 557.759
800 0 81.6665 13.6408 1114 85.0027 874.068 558.18
801 0 83.4254 13.7248 1145 85.0498 874.367 559.058
802 0 86.5404 12.5144 1083 87.0305 874.512 557.035
803 0 85.4075 11.1934 956 90.3128 874.372 553.116
804 1 48.2989 10.787 521 86.0345 875.255 574.58
805 0 49.1887 10.3276 508 86.5315 875.561 576.213
806 0 50.1185 11.7721 590 85.8119 875.717 575.702
807 0 51.1572 11.8654 607 86.9423 875.359 573.954
808 0 51.3527 9.83395 505 89.3762 875.818 574.422
809 0 54.3084 10.2931 559 89.6852 875.948 571.864
810 0 55.3567 12.2117 676 89.2456 875.692 570.91
811 0 56.1166 10.888 611 91.7676 875.784 571.684
812 0 57.3471 11.4217 655 92.2305 874.968 571.4
813 0 61.411 12.2291 751 92.6085 875.212 569.029
814 0 62.3196 11.9545 745 92.6966 874.769 569.132
815 0 65.5126 11.8908 779 92.905 875.335 569.198
816 0 65.3169 12.5082 817 94.3464 874.944 564.58
817 0 67.3095 10.786 726 96 874.738 564.028
818 0 71.3758 14.0244 1001 93.3606 875.128 563.442
819 0 73.6007 12.4319 915 95.0765 875.293 562.426
820 0 74.4996 11.584 863 97.7961 875.205 561.603
821 0 75.363 11.3451 855 100.109 875.508 561.05
822 0 77.4393 11.4929 890 102.296 874.949 557.746
823 0 78.4098 11.3506 890 103.652 874.648 558.294
824 0 84.5691 12.4277 1051 103.072 874.782 557.577
825 0 87.6753 12.3068 1079 105.374 874.791 553.375
826 1 46.5202 10.5976 493 98.2231 875.696 574.499
827 0 46.3763 9.91886 460 99.7761 875.663 573.672
828 0 50.455 11.8918 600 98.4267 875.23 574.01
829 0 52.436 11.2899 592 101.204 875.213 572.289
830 0 49.2644 10.332 509 101.609 875.096 570.743
831 0 49.2898 11.686 576 102.484 875.618 570.752
832 0 49.1194 12.3576 607 104.501 874.718 571.414
833 0 57.4945 12.4012 713 100.954 874.727 569.728
834 0 59.4434 12.0451 716 103.473 873.999 566.63
835 0 59.4177 11.7305 697 106.33 873.667 567.145
836 0 62.5012 12.5118 782 71.1087 873.885 566.826
837 0 62.4264 12.5908 786 69.9517 873.654 565.562
838 0 64.5034 12.883 831 68.0457 873.326 563.922
839 0 67.3911 13.1323 885 67.2847 873.376 565.503
840 0 68.6118 11.9367 819 67.2418 873.556 566.901
841 0 72.3121 14.0779 1018 65.1719 873.143 562.896
842 0 72.2833 12.7 918 67.6166 873.597 562.401
843 0 73.3406 13.5941 997 66.9679 873.88 561.421
844 0 77.3586 12.8493 994 68.2565 873.429 560.005
845 0 76.3742 13.1851 1007 68.7448 873.687 559.787
846 0 81.2112 13.4834 1095 68.6776 873.967 559.281
847 0 83.3633 13.2792 1107 69.2647 873.795 559.219
848 0 83.2583 13.32 1109 70.138 873.367 554.454
849 0 85.379 12.6378 1079 71.5134 873.224 556.095
850 0 88.4139 13.2671 1173 70.7076 873.448 554.098
851 0 93.383 14.4031 1345 69.4446 873.329 552.007
852 1 51.403 10.408 535 71.2766 873.834 574.129
853 0 49.3286 9.77121 482 73.4315 873.309 574.303
854 0 53.3993 10.8428 579 71.696 873.544 572.525
855 0 54.5687 11.4901 627 71.6013 872.974 571.179
856 0 58.3531 12.4072 724 70.6837 873.331 570.884
857 0 59.3077 12.7134 754 70.7944 873.145 569.162
858 0 62.3369 12.641 788 71.1751 872.898 569.061
859 0 64.289 12.366 795 71.3031 873.366 569.357
860 0 64.4497 12.6455 815 71.5411 872.344 567.748
861 0 64.3826 11.7889 759 73.1607 872.696 568.772
862 0 67.5097 12.413 838 72.4773 871.995 564.243
863 0 67.4829 12.5069 844 72.7512 872.427 564.263
864 0 71.3756 12.6093 900 71.9444 873.028 562.599
865 0 73.3488 12.6382 927 67.9396 872.45 561.857
866 0 75.4893 12.1739 919 62.6376 872.498 561.582
867 0 78.2196 13.1808 1031 61.2784 872.441 558.919
868 0 80.3828 12.8386 1032 62.3653 872.015 558.278
869 0 83.2619 12.7069 1058 63.1805 872.507 557.506
870 0 85.4346 12.5944 1076 64.0019 872.166 554.926
871 0 89.3465 13.9233 1244 62.0305 871.569 553.171
872 0 91.2262 12.9458 1181 64.2642 871.584 553.041
873 0 94.3596 13.1624 1242 64.2279 871.82 551.797
874 0 96.2914 12.4414 1198 65.6553 871.217 551.555
875 0 99.3204 13.3507 1326 64.3107 871.839 550.236
876 0 104.349 13.3015 1388 64.6484 871.689 548.156
877 0 106.33 13.4205 1427 64.3686 871.43 545.214
878 0 109.241 13.5571 1481 64.1161 871.589 545.899
879 0 112.196 13.9488 1565 63.7891 871.302 541.367
880 1 59.1478 10.5837 626 66.1789 872.173 569.296
881 0 60.1551 11.7363 706 64.6799 872.62 570.055
882 0 60.2071 11.2943 680 66.5603 872.426 569.81
883 0 63.3386 12.52 793 65.0429 872.135 567.734
884 0 66.3124 11.672 774 66.1331 872.105 568.835
885 0 67.1999 12.5 840 65.7786 872.119 566.626
886 0 69.303 12.9865 900 64.8356 872.224 564.634
887 0 71.2092 12.0911 861 66.7224 872.253 563.767
888 0 74.1847 12.415 921 65.785 872.472 562.903
889 0 75.1937 12.7404 958 65.5939 872.328 561.669
890 0 77.1512 12.0672 931 67.3115 872.139 558.351
891 0 82.1646 12.8157 1053 65.7873 872.184 557.49
892 0 83.1555 12.206 1015 66.2443 872.578 556.569
893 1 47.0349 9.86501 464 65.4677 874.103 575.119
894 0 46.108 10.3453 477 64.2055 874.178 574.597
895 0 46.0121 9.2367 425 65.4518 874.264 571.569
896 0 51.0258 10.7201 547 62.2267 873.81 570.843
897 0 51.0244 11.0339 563 61.9414 874.687 570.192
898 0 50.362 11.0599 557 64.6068 874.578 572.828
899 0 53.2768 11.5998 618 63.0081 874.684 572.113
900 0 56.4664 11.0685 625 64.0704 875.096 571.07
901 0 56.3882 11.8465 668 65.6707 874.897 568.355
902 0 58.4062 11.2488 657 64.3744 874.819 569.014
903 0 60.2749 10.983 662 65.2069 874.873 568.266
904 0 62.389 12.1656 759 63.5178 874.851 566.578
905 0 63.3715 11.5983 735 65.1429 874.789 565.624
906 0 65.3451 12.0591 788 64.7132 874.924 563.65
907 0 66.2147 11.9762 793 64.5902 875.348 563.192
908 0 71.2062 12.541 893 63.4882 875.111 561.032
909 0 73.2547 12.5043 916 63.2227 875.42 559.652
910 0 76.2732 12.2979 938 63.5064 875.49 559.619
911 1 40.2075 9.57533 385 63.6104 877.174 577.501
912 0 40.1789 9.6817 389 65.2005 876.802 576.941
913 0 41.1854 10.5134 433 64.0831 877.044 575.931
914 0 43.1931 11.0666 478 64.4979 877.347 575.423
915 0 42.46 11.0222 468 62.047 876.459 573.989
916 0 44.5971 11.4133 509 61.8193 876.75 574.758
917 0 43.4919 10.8526 472 63.7648 876.614 574.379
918 0 45.6095 10.9626 500 64.356 877.174 574.502
919 0 47.6541 11.3317 540 63.3 877.185 573.428
920 0 48.3579 11.8905 575 62.3896 876.984 572.73
921 0 50.4809 11.1131 561 64.0606 877.496 573.408
922 0 50.355 11.5182 580 63.0931 877.509 573.195
923 0 51.4033 11.6724 600 63.39 877.165 570.225
924 0 54.4151 11.5225 627 63.2584 877.295 571.072
925 0 55.2317 11.5876 640 62.9328 876.884 568.691
926 0 58.3403 11.9986 700 62.5671 877.116 568.77
927 0 59.3321 12.3542 733 62.1651 877.282 567.464
928 0 61.3139 12.1506 745 62.204 877.501 567.595
929 0 62.3189 12.2274 762 62.8438 877.478 565.736
930 0 63.3614 12.0894 766 62.8655 877.439 566.607
931 0 65.3143 12.2791 802 63.3603 877.373 564.799
932 0 68.267 13.1835 900 61.8878 877.284 564.711
933 0 71.3366 12.5181 893 63.3998 877.01 563.635
934 0 71.3513 11.8428 845 66.1929 876.6 561.093
935 0 72.3564 11.9547 865 65.6624 876.519 559.371
936 1 37.1891 9.70716 361 66.0859 878.349 577.324
937 0 40.3008 10.6946 431 63.2993 878.23 577.067
938 0 40.2394 10.363 417 63.6906 877.302 576.746
939 0 42.1835 11.0944 468 62.6261 877.5 575.526
940 0 44.419 11.3465 504 62.2401 876.562 575.329
941 0 44.4822 10.8133 481 63.5364 876.497 575.69
942 0 47.4941 11.1593 530 62.683 876.253 574.572
943 0 47.4739 11.2694 535 63.3327 876.484 573.282
944 0 49.5435 12.1106 600 60.7033 875.992 572.322
945 0 52.3826 11.7405 615 60.9187 875.769 573.39
946 0 53.3459 12.3533 659 60.7633 875.692 569.713
947 0 55.4205 11.8909 659 60.9393 874.882 569.792
948 0 54.3246 11.5785 629 61.8824 875.229 568.927
949 0 56.3322 12.6038 710 60.8141 875.094 567.355
950 0 60.3233 12.1346 732 60.6243 875.001 567.447
951 0 60.4326 12.3774 748 60.3623 874.98 567.489
952 0 64.2896 13.3614 859 58.929 875.065 566.54
953 0 62.2823 11.9296 743 62.4132 875.121 565.17
954 0 63.405 11.7499 745 62.8134 874.644 565.091
955 0 67.3562 13.05 879 60.3572 874.925 565.092
956 0 68.363 12.7847 874 61.365 874.991 563.939
957 0 68.2441 12.089 825 63.2521 874.732 562.804
958 0 71.1689 12.7303 906 61.6689 874.352 560.745
959 0 74.0663 12.9344 958 61.7547 874.552 559.493
960 0 79.2435 14.386 1140 59.0044 874.456 551.465
961 0 78.1406 13.5269 1057 61.3368 874.185 544.456
962 0 81.1421 13.1005 1063 61.698 874.968 544.68
963 0 82.0734 13.2686 1089 62.5409 875.071 548.882
964 0 86.1409 14.3138 1233 60.9911 874.587 542.662
965 0 89.0818 13.6279 1214 61.8138 874.762 545.342
966 0 92.2217 13.717 1265 61.7154 874.885 546.662
967 0 94.1814 13.1979 1243 62.9051 874.508 544.475
968 1 49.0537 10.6006 520 64.4212 873.246 570.794
969 0 51.1309 11.6564 596 63.104 873.441 570.748
970 0 53.1159 10.9572 582 64.1117 873.51 570.388
971 0 55.0914 11.7623 648 63.7978 873.517 569.352
972 0 54.0933 11.5726 626 65.2284 874.318 568.935
973 0 57.0497 12.8134 731 62.6525 873.908 566.661
974 0 57.0497 12.8134 731 162.175 873.908 566.661
975 0 60.2394 12.9151 778 63.482 873.994 568.973
976 0 63.1734 12.5844 795 63.2981 873.767 567.799
977 0 65.1532 12.8466 837 63.2879 873.655 566.012
978 0 65.0424 12.9761 844 63.9716 873.192 565.254
979 0 67.1294 12.5727 844 64.827 872.884 564.527
980 0 70.0862 12.8699 902 65.0055 872.626 562.789
981 0 72.1111 12.8968 930 64.8441 872.888 564.013
982 0 74.0449 13.7484 1018 64.3772 873.052 561.906
983 0 77.1248 13.1994 1018 65.8114 872.89 559.819
984 0 79.1613 13.1377 1040 66.6346 873.05 557.413
985 0 82.1479 13.4148 1102 66.1824 872.912 558.542
986 0 84.2194 13.0611 1100 67.3673 872.732 557.24
987 0 88.0741 13.886 1223 66.5568 872.938 554.625
988 0 90.1186 12.9829 1170 68.4077 872.702 553.917
989 0 93.2392 13.2777 1238 68.2173 872.513 551.656
990 0 97.1426 12.8986 1253 69.2937 872.406 550.799
991 0 100.205 14.3306 1436 66.899 872.027 549.171
992 0 104.173 13.6695 1424 68.0133 871.983 548.236
993 1 56.1635 11.2172 630 69.6444 871.616 571.532
994 0 57.092 10.7371 613 70.2055 871.848 570.92
995 0 59.2824 11.8585 703 69.6956 872.004 569.158
996 0 60.0786 11.7013 703 69.569 872.286 569.491
997 0 62.1916 12.1399 755 69.1126 872.15 568.673
998 0 65.1107 12.3021 801 68.8439 872.081 565.935
999 0 67.1891 12.5913 846 70.3759 872.212 566.452
1000 0 70.1496 12.7727 896 69.7065 872.492 565.762
1001 0 70.2032 12.9339 908 70.0231 871.936 565.323
1002 0 74.2131 13.5017 1002 67.6936 871.905 563.043
1003 0 77.176 13.4109 1035 67.8184 871.447 562.21
1004 0 80.2874 13.2026 1060 67.6896 871.566 561.16
1005 0 82.2396 13.3391 1097 67.7511 871.83 560.785
1006 0 85.2681 13.7918 1176 66.7092 872.182 558.706
1007 0 89.273 13.89 1240 66.4016 872.518 558.415
1008 0 91.3936 13.3926 1224 67.3587 872.302 556.373
1009 0 94.5231 14.1553 1338 66.6375 872.938 553.803
1010 0 98.4393 13.2569 1305 67.3548 872.869 553.47
1011 1 51.3741 11.5233 592 69.9088 873.084 575.174
1012 0 56.4592 11.1231 628 69.2134 873.006 574.75
1013 0 55.5313 11.381 632 69.9003 873.076 574.313
1014 0 58.3171 11.8662 692 68.8916 873.263 571.812
1015 0 60.3701 12.7381 769 67.1131 873.137 571.095
1016 0 62.2139 13.0357 811 67.4982 873.084 569.319
1017 0 62.2771 12.7013 791 68.9001 872.757 569.961
1018 0 65.1479 12.863 838 68.0668 872.728 568.64
1019 0 66.1644 14.1768 938 66.9584 872.974 568.075
1020 0 68.2561 13.8596 946 67.7093 872.895 566.017
1021 0 70.2053 14.7425 1035 66.1826 872.829 565.12
1022 0 71.4041 13.0945 935 68.708 873.487 562.805
1023 0 71.4041 13.0805 934 171.961 874.48 562.819
1024 0 77.5364 13.7484 1066 68.227 873.156 560.737
1025 0 77.3951 13.6184 1054 68.7201 873.417 558.642
1026 0 81.4903 13.4004 1092 68.3123 873.129 557.52
1027 0 84.6213 13.59 1150 67.6957 873.609 556.243
1028 0 87.257 13.4545 1174 67.448 873.331 552.083
1029 0 89.4738 13.5235 1210 67.6207 873.38 549.483
1030 1 48.2983 10.3937 502 66.9661 873.93 573.691
1031 0 50.2475 10.4881 527 67.6964 873.991 571.989
1032 0 50.347 10.09 508 67.4094 873.898 570.978
1033 0 52.2283 11.1242 581 66.7281 874.413 569.936
1034 0 53.2909 11.2214 598 66.8813 874.209 568.308
1035 0 60.1586 12.8826 775 65.2219 874.35 569.502
1036 0 60.1406 12.3544 743 67.0188 874.557 568.86
1037 0 62.1718 12.578 782 65.6023 874.973 569.343
1038 0 62.0752 12.646 785 65.2917 874.646 566.459
1039 0 66.2318 13.1961 874 64.0927 874.886 565.632
1040 0 68.0912 12.7623 869 64.8941 875.39 564.216
1041 0 69.162 12.9262 894 65.0839 875.789 564.491
1042 0 70.139 13.5018 947 64.811 875.912 562.329
1043 0 73.2529 13.2827 973 64.7708 876.327 561.862
1044 0 76.186 12.9814 989 65.2659 876.206 559.971
1045 0 78.1983 13.632 1066 64.5038 875.917 559.476
1046 0 81.144 13.0262 1057 64.1788 876.022 558.787
1047 0 84.1622 13.0106 1095 63.916 876.48 556.419
1048 0 87.1475 13.5403 1180 63.9186 876.389 554.192
1049 0 90.3805 13.764 1244 63.3963 876.58 554.338
1050 0 92.3354 13.6784 1263 63.9557 876.534 551.9
1051 0 95.2473 13.6697 1302 64.232 877.008 550.674
1052 0 99.2321 13.8766 1377 64.1634 877.261 547.41
1053 1 49.0287 9.81057 481 65.7609 877.965 574.574
1054 0 50.0988 10.3595 519 65.4528 877.855 572.601
1055 0 53.139 11.6299 618 62.4741 877.595 572.379
1056 0 54.0807 11.7972 638 62.4545 877.235 570.304
1057 0 56.0564 11.9701 671 61.3577 877.021 570.785
1058 0 58.0686 11.8997 691 61.3531 876.909 570.168
1059 0 60.2122 12.7383 767 61.3233 876.859 569.67
1060 0 59.2838 12.6847 752 62.0585 877.211 570.016
1061 0 63.2267 12.4631 788 62.349 877.556 568.391
1062 0 66.2063 12.8387 850 61.2282 877.213 569.334
1063 0 67.1552 13.4316 902 61.0222 876.532 567.029
1064 0 67.199 12.6192 848 63.4941 876.782 565.699
1065 0 70.1727 12.3267 865 63.5214 876.919 565.492
1066 0 73.2217 13.0426 955 62.6901 876.814 563.414
1067 0 75.2863 12.4724 939 63.7572 876.719 563.081
1068 0 77.2564 13.3969 1035 62.5691 876.697 560.971
1069 0 81.1718 13.1942 1071 62.8254 876.802 560.278
1070 0 83.219 12.389 1031 64.29 876.218 558.403
1071 0 86.2057 13.1082 1130 63.1319 876.297 556.46
1072 1 45.0841 10.7133 483 65.0538 876.582 574.944
1073 0 50.1716 10.9026 547 63.8976 876.79 574.402
1074 0 51.1113 10.6826 546 63.9231 876.821 574.46
1075 0 49.2168 10.6671 525 65.1619 876.512 573.406
1076 0 55.2167 11.808 652 61.5092 876.215 573.883
1077 0 54.2769 11.6624 633 62.5118 875.306 572.231
1078 0 54.2769 11.6993 635 159.231 874.283 572.153
1079 0 58.3982 11.8839 694 62.2507 875.347 572.049
1080 0 60.3462 12.8426 775 61.7316 875.194 570.15
1081 0 62.4792 12.1961 762 62.5643 875.008 568.025
1082 0 63.4553 11.5987 736 63.7188 875.136 568.365
1083 0 65.291 12.3601 807 63.0099 875.235 566.657
1084 0 66.3618 12.2812 815 64.2147 875.02 566
1085 0 70.3748 12.2061 859 63.9686 874.666 566.099
1086 0 71.3279 12.3374 880 64.5261 874.691 564.477
1087 0 73.3206 12.6977 931 64.2503 874.842 562.447
1088 0 76.4441 12.2835 939 65.1906 874.745 562.381
1089 0 76.4441 12.2966 940 166.544 875.737 562.385
1090 0 81.5541 12.6542 1032 64.689 875.087 559.19
1091 0 85.4589 12.4972 1068 65.1845 875.338 557.037
1092 1 46.3673 10.3521 480 65.5 876.277 577.985
1093 0 47.4426 9.90671 470 66.9681 875.777 576.945
1094 0 50.3745 10.7991 544 66.1507 875.642 576.417
1095 0 51.2537 11.5114 590 65.4814 876.075 573.859
1096 0 52.2099 11.2622 588 64.7347 875.466 572.554
1097 0 53.1869 11.939 635 65.422 875.734 573.641
1098 0 56.316 11.8084 665 65.9203 874.681 572.777
1099 0 56.4242 11.8034 666 66.7898 874.791 572.766
1100 0 59.2996 12.4621 739 65.5751 874.742 568.95
1101 0 61.2683 12.3555 757 66.0568 875.033 569.613
1102 0 62.2478 11.6791 727 68.1431 874.813 568.838
1103 0 63.4564 11.4567 727 68.5365 874.589 569.802
1104 0 63.4564 11.4567 727 173.638 874.589 569.802
1105 0 66.3157 12.727 844 67.7808 874.123 566.853
1106 0 69.2269 12.4807 864 68.6146 873.475 564.796
1107 0 71.2747 12.2344 872 68.8532 873.908 565.742
1108 0 73.1606 12.206 893 67.4446 873.847 562.28
1109 0 75.434 12.3949 935 67.2941 873.243 561.766
1110 0 77.2672 12.6056 974 67.693 873.074 559.559
1111 0 80.1402 12.7527 1022 66.5205 872.826 560.09
1112 0 83.2717 12.6213 1051 67.0504 873.17 559.646
1113 0 83.2095 12.2342 1018 68.4303 872.908 557.888
1114 0 88.1979 12.7214 1122 66.7807 872.683 557.206
1115 0 90.1564 12.6669 1142 67.3179 872.834 554.757
1116 0 94.264 13.1227 1237 66.536 872.369 552.043
1117 0 96.184 11.977 1152 68.5417 871.936 552.026
1118 0 100.262 12.6468 1268 67.5386 872.228 549.727
1119 0 103.247 12.9495 1337 67.7674 872.126 548.687
1120 0 105.204 13.5165 1422 67.5985 871.947 547.17
1121 0 108.211 13.7787 1491 67.1563 872.017 546.408
1122 0 109.178 12.8872 1407 69.2345 871.854 543.986
1123 0 113.192 13.4196 1519 68.1086 871.344 543.617
1124 0 117.149 13.4786 1579 67.6523 872.008 541.015
1125 0 120.16 13.1158 1576 68.0451 871.716 540.494
1126 0 123.214 13.5699 1672 68.1579 872.379 538.31
1127 0 123.214 13.4888 1662 169.397 873.394 538.152
1128 1 67.2208 10.3688 697 68.8565 872.23 565.752
1129 0 72.0736 11.6409 839 67.1299 871.912 564.824
1130 0 75.1358 12.7902 961 64.7014 872.088 563.448
1131 0 77.1815 12.0884 933 66.2947 872.669 564.073
1132 0 78.1781 11.9982 938 66.8188 872.247 560.571
1133 0 81.1444 12.5825 1021 65.4819 872.589 560.595
1134 0 83.1225 12.8244 1066 65.379 872.747 557.359
1135 0 86.2169 13.0137 1122 64.5856 872.907 555.444
1136 0 89.2129 12.5767 1122 64.9305 873.19 555.324
1137 0 92.2216 12.6868 1170 64.2966 872.652 555.338
1138 0 94.1979 12.8028 1206 64.398 872.488 548.706
1139 0 98.2949 13.256 1303 62.5142 872.954 548.978
1140 1 52.0811 10.0996 526 63.5019 873.504 571.108
1141 0 53.1056 9.75415 518 65.2413 873.554 570.429
1142 0 54.1561 10.3774 562 65.6459 873.701 570.285
1143 0 56.2303 11.1328 626 63.9329 874.117 569.013
1144 0 58.0672 12.3478 717 62.7824 872.953 567.502
1145 0 60.2292 12.3196 742 60.9447 873.92 565.544
1146 0 62.0995 11.8358 735 63.1687 873.709 565.163
1147 0 63.0988 12.5042 789 62.5475 873.787 565.757
1148 0 67.1457 12.2271 821 62.0037 874.602 563.402
1149 0 69.1418 12.4527 861 61.6702 874.31 563.321
1150 0 73.1228 13.3474 976 60.0215 874.53 561.786
1151 0 75.2639 12.2635 923 61.4182 874.827 559.785
1152 0 78.2002 13.0562 1021 59.6249 875.078 558.202
1153 0 77.1612 12.6229 974 60.0606 875.188 555.01
1154 0 82.2848 12.2258 1006 59.9801 875.491 554.367
1155 0 85.2451 12.1884 1039 60.3715 875.601 552.164
1156 1 44.0495 9.30771 410 59.878 876.846 572.671
1157 0 43.0459 9.15302 394 60 876.637 573.505
1158 0 44.0451 9.30863 410 59.4268 876.451 572.885
1159 0 44.0373 10.2867 453 59.106 876.596 571.422
1160 0 50.0449 11.1899 560 59.9393 877.659 571.221
1161 0 51.0669 11.1618 570 59.786 878.184 572.26
1162 0 51.1052 11.7209 599 60.374 877.922 571.462
1163 0 54.2633 11.7759 639 60.0376 877.776 570.643
1164 0 55.2317 11.9316 659 60.0986 877.622 569.395
1165 0 56.1132 11.3877 639 61.6432 877.928 568.617
1166 0 58.1902 11.6858 680 61.4132 877.801 568.397
1167 0 59.1986 11.5037 681 61.8796 878.145 567.322
1168 0 59.2363 11.6483 690 62.4203 878.232 566.381
1169 0 63.1332 11.9113 752 61.7593 878.125 564.215
1170 0 63.2357 11.7022 740 62.3135 877.922 563.866
1171 0 66.103 12.2234 808 61.5941 878.281 563.144
1172 0 66.1644 12.741 843 61.6501 878.027 561.922
1173 0 70.1534 11.9453 838 62.1492 878.412 562.487
1174 0 73.1211 12.3083 900 62.5878 878.774 560.391
1175 0 74.198 12.9249 959 59.9781 878.401 556.308
1176 0 76.1791 11.9455 910 63.5385 878.637 557.498
1177 0 78.2208 12.8355 1004 62.5737 878.646 556.488
1178 0 81.2225 11.9794 973 63.9568 878.511 555.314
1179 0 83.3274 12.4689 1039 63.9163 878.256 551.883
1180 1 45.0742 10.0723 454 64.2952 878.938 571.612
1181 0 46.0902 9.02579 416 65.6851 878.238 571.219
1182 0 48.1028 9.87468 475 64.4084 878.408 569.909
1183 0 49.0991 10.6723 524 64.6756 878.156 568.33
1184 0 49.018 11.3632 557 63.9425 878.169 569.059
1185 0 53.1003 11.6572 619 62.8191 878.775 566.704
1186 0 55.1682 12.0178 663 63.3605 878.205 568.081
1187 0 59.1682 11.6448 689 63.9913 877.878 558.16
1188 0 58.1877 11.5488 672 65.2842 877.768 555.979
1189 0 59.2446 11.7142 694 66.1412 877.042 556.865
1190 0 63.2282 12.6051 797 64.2409 877.418 557.316
1191 0 65.2071 12.4373 811 64.4957 877.137 557.961
1192 0 67.2333 12.2558 824 64.9502 877.042 555.876
1193 0 66.1532 11.9117 788 66.0812 876.968 560.615
1194 0 67.4251 12.1765 821 64.8819 876.419 562.436
1195 0 71.2297 13.295 947 64.1404 876.28 560.52
1196 0 73.1509 12.9868 950 64.1674 876.301 560.952
1197 0 72.3084 12.4328 899 66.9822 876.514 559.32
1198 0 76.1459 12.4367 947 65.0211 876.228 557.072
1199 0 78.1119 12.6357 987 65.4904 875.699 555.823
1200 0 79.2564 12.5794 997 65.3601 875.598 555.137
1201 0 81.1876 13.4134 1089 64.4096 875.415 553.197
1202 0 83.1998 13.5337 1126 64.7327 875.283 551.348
1203 0 86.1436 12.781 1101 66.1671 875.74 552.099
1204 0 89.2491 13.2774 1185 65.6515 875.441 550.354
1205 0 92.3524 13.2428 1223 64.3688 874.878 550.616
1206 1 51.0508 10.2055 521 66.6891 875.029 572.626
1207 0 52.1431 9.70406 506 65.581 874.682 571.676
1208 0 52.0979 10.3075 537 67.6071 874.313 569.088
1209 0 54.0612 10.5806 572 65.75 873.701 569.598
1210 0 53.1732 10.8325 576 66.0174 873.66 566.885
1211 0 54.1529 11.9661 648 64.7654 873.92 567.298
1212 0 59.2321 12.3919 734 64.8174 874.943 568.356
1213 0 61.1806 11.8992 728 65.0701 875.117 567.736
1214 0 61.1915 12.8613 787 64.3151 874.93 567.61
1215 0 62.3406 12.8007 798 64.2807 874.837 567.494
1216 0 67.2016 13.214 888 62.5349 874.24 565.595
1217 0 69.1885 13.0513 903 62.2813 874.417 565.169
1218 0 70.1266 12.0354 844 64.3957 874.127 563.59
1219 0 69.0543 12.3092 850 63.6847 874.428 562.801
1220 0 73.1566 12.6578 926 62.46 874.449 561.94
1221 0 75.0825 11.7204 880 63.9057 874.406 561.53
1222 0 79.0689 13.3554 1056 60.6354 874.187 557.903
1223 0 80.0833 12.3122 986 61.931 873.732 558.52
1224 0 82.1119 12.0932 993 62.3263 873.538 555.577
1225 0 86.2131 12.8983 1112 61.4299 873.945 554.974
1226 1 45.0636 8.9873 405 61.1728 873.815 577.089
1227 0 46.0772 10.005 461 61.3254 873.1 574.284
1228 0 48.0982 10.333 497 58.0161 873.636 572.235
1229 0 48.1175 10.5783 509 61.1532 873.358 573.303
1230 0 52.25 12.1531 635 57.5512 873.52 572.98
1231 0 52.1218 11.8952 620 57.7548 873.853 573.9
1232 0 53.2215 11.7434 625 58.2128 873.456 572.83
1233 0 56.1822 10.9465 615 59.2602 873.642 571.602
1234 0 59.266 12.7729 757 56.753 873.684 570.518
1235 0 61.2985 12.6267 774 57.2558 873.778 569.671
1236 0 62.2168 12.0225 748 58.0495 873.893 569.635
1237 0 61.2277 12.2167 748 58.127 873.571 569.955
1238 0 64.1914 12.8522 825 57.3576 873.455 568.09
1239 0 66.1057 11.9203 788 58.8579 872.984 567.593
1240 0 68.1323 11.3309 772 60.0933 873.332 567.961
1241 0 70.3107 12.3452 868 58.6452 873 564.341
1242 1 41.0385 9.01592 370 59.9351 873.7 581.084
1243 0 39.0172 8.89351 347 60.6311 873.588 583.271
1244 0 42.047 11.1304 468 59.0235 873.547 580.427
1245 0 43.0412 10.8036 465 59.4172 873.649 580.428
1246 0 43.0628 10.7053 461 57.8069 872.204 578.156
1247 0 43.0628 10.7053 461 159.61 871.204 578.156
1248 0 47.2108 11.9252 563 60.4725 873.56 577.323
1249 0 47.3338 11.9576 566 61.5389 873.631 576.518
1250 0 47.1909 12.0362 568 62.5211 873.482 575.062
1251 0 48.2892 11.6382 562 63.4146 873.276 573.87
1252 0 52.2582 12.0747 631 61.9794 873.591 574.868
1253 0 51.4252 11.6674 600 63.7083 873.5 572.752
1254 0 53.2232 12.5321 667 62.8636 873.85 573.619
1255 0 56.3252 12.5166 705 63.1135 873.732 571.627
1256 0 56.1982 11.673 656 65.1921 873.273 571.483
1257 0 61.3132 13.6186 835 61.1317 873.219 567.229
1258 0 66.3673 14.9923 995 57.5548 873.546 564.763
1259 0 61.2151 14.5552 891 61.2974 874.001 566.158
1260 0 66.3123 14.5524 965 60.3865 873.68 565.269
1261 0 67.3223 14.4529 973 61.6351 873.572 565.123
1262 0 66.2586 12.738 844 65.8483 873.87 566.812
1263 0 70.2089 13.0753 918 65.7963 873.892 566.714
1264 0 69.3396 12.7921 887 66.779 874.222 566.558
1265 0 72.5031 13.4753 977 65.7032 874.782 562.789
1266 0 73.3059 13.0412 956 67.1444 874.314 564.304
1267 0 76.2854 13.4233 1024 66.6807 874.52 560.684
1268 0 80.3618 13.5388 1088 65.6618 874.778 560.579
1269 0 82.2825 13.3564 1099 66.8881 874.947 559.857
1270 0 83.334 13.0919 1091 67.2062 875.566 558.275
1271 0 85.3983 12.9042 1102 67.4038 875.9 557.681
1272 0 89.2607 13.2197 1180 66.3822 876.548 554.564
1273 0 92.365 13.8364 1278 65.9163 876.8 553.637
1274 0 93.1999 13.5837 1266 66.8112 876.945 551.532
1275 0 98.3399 13.8092 1358 65.623 877.155 551.683
1276 0 100.311 13.5878 1363 66.6023 877.263 549.903
1277 1 55.1897 11.0528 610 68.623 877.692 571.957
1278 0 56.1587 11.0045 618 69.0615 877.807 572.045
1279 0 57.1563 11.7048 669 68.7788 878.138 569.818
1280 0 59.2639 12.5034 741 68.5911 878.161 568.19
1281 0 63.1988 12.4528 787 67.2694 878.133 566.717
1282 0 65.2727 12.8997 842 66.3658 878.316 565.824
1283 0 67.2185 12.6156 848 67.0224 878.54 565.56
1284 0 67.2107 12.9146 868 66.8502 878.826 564.964
1285 0 71.1743 12.4483 886 67.237 878.261 564.33
1286 0 74.1655 13.1867 978 66.589 879.229 562.227
1287 0 76.1033 13.4685 1025 65.3454 879.462 561.026
1288 0 79.1493 13.7841 1091 65.3941 879.63 559.314
1289 0 78.1464 13.27 1037 174.184 879.567 558.497
1290 0 83.0818 13.1798 1095 66.4384 879.7 556.824
1291 0 88.148 14.192 1251 64.765 879.161 553.594
1292 0 91.3206 13.4581 1229 65.4223 879.224 552.63
1293 1 46.0907 10.0454 463 66.9978 878.302 575.171
1294 0 49.2404 10.4792 516 65.3818 878.347 574.915
1295 0 50.1221 11.073 555 65.2288 877.876 574.223
1296 0 50.0981 11.6771 585 66.0274 877.855 572.05
1297 0 53.1087 12.7286 676 63.7574 877.851 571.473
1298 0 54.1436 11.6173 629 65.7965 877.765 571.645
1299 0 56.1573 12.2513 688 65.0785 878.083 570.208
1300 0 58.2269 11.9704 697 65.9211 879.352 569.994
1301 0 59.0742 12.8821 761 65.5125 878.606 568.31
1302 0 62.109 12.7196 790 65.4911 878.896 567.201
1303 0 62.0915 12.6265 784 66.0791 878.772 566.417
1304 0 65.0894 12.8131 834 65.2998 878.602 565.249
1305 0 69.2117 13.3503 924 63.7359 878.847 564.838
1306 0 69.151 12.6535 875 66.0869 878.536 562.407
1307 0 71.2058 12.7096 905 65.6133 878.515 561.188
1308 0 73.1247 12.3488 903 66.68 877.845 561.334
1309 0 77.2022 13.1991 1019 64.5859 877.741 558.889
1310 1 40.2158 10.2199 411 66.326 876.985 578.543
1311 0 42.3493 10.4606 443 65.4786 877.869 577.851
1312 0 43.1818 10.8379 468 66.0684 877.934 575.425
1313 0 42.059 10.5804 445 65.1955 877.265 573.142
1314 0 46.2254 11.5088 532 65.5771 876.237 575.603
1315 0 46.2726 12.1454 562 65.6797 876.336 573.906
1316 0 47.1716 12.5923 594 64.766 875.423 576.455
1317 0 49.2501 12.2233 602 65.3123 875.402 576.04
1318 0 48.1695 12.0823 582 66.4777 875.263 575.376
1319 0 50.2061 11.8312 594 66.9714 874.675 573.591
1320 0 52.491 11.8116 620 67.35 875.16 573.073
1321 0 53.2852 12.0484 642 67.3006 874.866 573.176
1322 0 54.3883 12.3372 671 66.4188 874.596 571.502
1323 0 58.4139 13.1818 770 64.1805 874.634 571.578
1324 0 57.2703 13.3053 762 64.7297 873.853 570.81
1325 0 60.1381 12.8704 774 65.0413 873.988 570.517
1326 0 61.4669 12.7874 786 64.9262 873.973 571.029
1327 0 63.2801 12.2629 776 66.1907 873.943 569.611
1328 0 65.1778 12.6423 824 65.5 873.909 567.755
1329 0 65.1931 11.9491 779 67.0603 873.85 568.575
1330 0 69.1616 13.7504 951 63.9295 873.936 566.646
1331 0 70.1422 13.4726 945 64.9788 873.122 564.037
1332 0 72.1282 13.3235 961 64.3684 872.903 564.613
1333 0 75.1782 14.0998 1060 62.9425 873.358 564.623
1334 0 76.1416 12.9758 988 68.0385 873.27 564.163
1335 0 78.2451 13.7644 1077 66.3157 873.707 562.077
1336 1 45.0619 11.34 511 68.8708 873.452 578.258
1337 0 44.0855 11.5231 508 69.9724 873.683 578.098
1338 0 46.1325 11.5103 531 69.0508 873.893 578.102
1339 0 47.0647 12.4722 587 68.322 873.584 576.112
1340 0 49.0712 13.3276 654 66.3364 873.173 575.807
1341 0 51.1211 12.4019 634 67.7792 873.342 574.738
1342 0 56.121 10.9406 614 168.645 874.295 574.855
1343 0 54.064 12.8551 695 67.1511 873.472 572.95
1344 0 54.077 12.6116 682 68.3534 873.176 571.893
1345 0 57.0609 12.6181 720 68.2153 872.446 569.624
1346 0 57.0609 12.6882 724 163.268 871.485 569.63
1347 0 61.1581 13.2117 808 67.1436 872.524 569.743
1348 0 60.1043 13.1605 791 68.1972 872.489 568.564
1349 0 65.1245 12.7295 829 68.4029 872.409 568.415
1350 0 65.1295 13.2352 862 67.565 872.233 568.586
1351 0 67.1677 12.6996 853 68.3669 871.823 565.991
1352 0 71.0825 12.7176 904 68.26 871.967 564.781
1353 0 71.0943 13.025 926 68.1058 871.932 564.715
1354 0 73.1682 13.1615 963 68.6324 871.841 562.331
1355 0 73.1264 13.3741 978 68.5481 871.745 561.37
1356 0 77.1205 13.0056 1003 68.6162 871.544 562.029
1357 0 81.1682 13.1209 1065 68.3108 870.988 560.538
1358 0 84.0358 12.8398 1079 68.4819 871.291 559.382
1359 0 86.153 14.0796 1213 66.4138 871.111 557.292
1360 0 86.0921 12.9861 1118 68.5966 870.766 556.497
1361 0 90.1212 13.2599 1195 67.3891 871.004 554.439
1362 0 92.1509 13.7926 1271 66.8269 871.016 552.719
1363 1 52.0498 11.5082 599 67.4574 870.558 574.699
1364 0 52.1208 10.8594 566 69.106 870.458 573.527
1365 0 55.0424 11.7727 648 69.3704 870.58 572.284
1366 0 56.1139 12.2786 689 67.9405 871.147 573.001
1367 0 56.0728 13.1258 736 67.6073 871.236 571.573
1368 0 60.1062 12.428 747 67.9398 870.977 571.676
1369 0 62.1449 13.549 842 66.538 870.679 572.179
1370 0 63.1251 12.1188 765 69.2392 870.63 570.74
1371 0 63.0781 13.301 839 68.6615 870.917 569.739
1372 0 67.1582 12.6269 848 68.684 870.118 569.423
1373 0 68.1707 12.5127 853 69.8335 870.277 567.306
1374 0 70.1368 12.8748 903 68.9114 870.907 568.295
1375 0 73.1084 13.3911 979 68.0225 870.81 565.765
1376 0 75.1056 14.1667 1064 66.9784 871.11 564.571
1377 0 77.0969 13.8138 1065 68.2207 871.187 565.345
1378 0 79.085 13.7194 1085 68.0664 870.875 563.123
1379 0 80.0642 13.4017 1073 69.8322 871.432 561.435
1380 0 85.091 13.4209 1142 68.8065 871.473 560.407
1381 0 87.2337 13.3779 1167 68.7532 871.359 559.976
1382 0 91.1392 14.1322 1288 64.7624 871.78 560.366
1383 0 92.1568 13.7809 1270 66.2433 871.755 557.465
1384 0 95.1103 14.5726 1386 66.3564 871.388 555.504
1385 0 100.189 14.6124 1464 67.071 871.538 553.636
1386 0 103.149 14.2222 1467 67.6735 871.629 552.106
1387 0 106.23 14.1109 1499 67.93 871.422 551.194
1388 1 57.1182 11.8876 679 68.4551 871.901 574.361
1389 0 59.2034 11.4858 680 69.1103 871.878 573.129
1390 0 62.1059 13.1549 817 67.2485 872.182 570.966
1391 0 61.0899 12.7353 778 68.6157 871.972 571.225
1392 0 64.1154 13.0078 834 68.0264 872.42 569.11
1393 0 66.1048 13.1307 868 67.1498 872.615 569.764
1394 0 69.1775 13.2268 915 66.4601 872.926 566.855
1395 0 70.2747 14.0876 990 65.8374 873.273 565.678
1396 0 74.2094 14.1357 1049 65.2707 873.459 565.195
1397 0 76.0911 13.7992 1050 65.4752 873.149 562.792
1398 0 78.1609 13.2803 1038 66.0077 873.542 562.252
1399 0 81.2269 13.9117 1130 65.3221 873.914 560.537
1400 0 82.1095 13.5307 1111 65.8605 874.449 560.11
1401 0 85.1936 13.3695 1139 65.885 874.175 558.706
1402 0 88.2645 13.3123 1175 65.5736 874.701 555.934
1403 1 45.1169 10.3731 468 64.2692 874.596 580.419
1404 0 45.1318 10.7685 486 64.7716 874.924 578.71
1405 0 46.2794 10.7391 497 65.0905 874.761 576.72
1406 0 50.101 12.4349 623 61.6404 875.239 576.063
1407 0 51.2161 12.047 617 61.8444 876.502 575.392
1408 0 52.3103 11.5082 602 61.9502 876.61 574.884
1409 0 55.2408 11.821 653 61.611 876.489 571.458
1410 0 55.2667 12.2316 676 61.5163 876.698 570.16
1411 0 58.1896 12.9405 753 59.7955 877.129 569.55
1412 0 58.2059 12.3012 716 61.5168 877.313 569.806
1413 0 60.2525 12.0327 725 60.8786 877.183 568.68
1414 0 63.1591 12.3498 780 60.0321 877.171 568.618
1415 0 65.1477 12.6789 826 59.9007 876.95 565.213
1416 0 67.2115 13.0484 877 59.5496 877.056 565.819
1417 0 70.1388 12.2186 857 59.706 877.757 565.8
1418 0 70.1984 13.063 917 58.9575 877.684 563.315
1419 0 72.1141 12.7298 918 59.7004 877.609 562.132
1420 0 75.1982 12.6067 948 59.1287 877.588 560.234
1421 0 79.1741 13.0219 1031 58.4054 877.795 559.218
1422 1 41.0423 10.0384 412 59.2913 878.699 579.073
1423 0 42.0718 10.6485 448 58.0379 878.549 578.545
1424 0 44.0696 10.5061 463 59.067 878.263 576.812
1425 0 43.0972 10.2791 443 60.0293 878.079 575.788
1426 0 43.0972 10.3023 444 156.169 878.09 575.755
1427 0 48.2122 11.6568 562 57.5943 876.587 576.546
1428 0 47.2257 11.3709 537 59.2477 876.652 575.786
1429 0 49.1584 11.3714 559 56.7245 876.492 575.649
1430 0 51.214 11.4812 588 56.8197 876.668 573.235
1431 0 51.2982 11.8133 606 56.3102 876.861 572.718
1432 0 52.1938 11.6297 607 57.4053 878.46 572.794
1433 0 54.0752 11.4655 620 57.3903 878.147 571.982
1434 0 56.0475 11.4367 641 58.7067 878.324 571.128
1435 0 56.0475 11.4903 644 154.112 878.318 571.217
1436 0 60.0195 11.7628 706 59.2805 877.84 568.703
1437 0 63.0641 12.0671 761 58.9172 877.957 568.239
1438 0 63.106 12.2492 773 59.194 877.806 567.646
1439 0 64.0853 12.1713 780 59.9923 877.601 566.612
1440 0 68.0866 12.7485 868 58.3606 877.491 565.302
1441 0 69.2205 11.8029 817 59.4051 877.431 565.306
1442 0 72.1084 12.3148 888 58.2714 877.313 563.205
1443 0 74.1012 12.6989 941 57.6036 876.42 561.814
1444 0 76.1472 12.9617 987 57.695 876.514 561.001
1445 1 44.086 10.162 448 58.2411 876.83 578.567
1446 0 44.1858 9.95795 440 58.7795 877.343 577.705
1447 0 46.123 10.1902 470 59.3426 876.37 574.853
1448 0 48.1197 10.9518 527 57.9355 876.835 576.078
1449 0 51.319 11.8475 608 57.1414 876.799 575.158
1450 0 52.0958 12.1123 631 57.3756 876.101 573.296
1451 0 53.1114 11.9748 636 57.8333 876.266 571.219
1452 0 55.3536 12.3388 683 55.8624 875.612 572.997
1453 0 56.2237 11.7744 662 56.426 875.468 572.032
1454 0 56.1405 11.8809 667 56.9175 875.889 571.909
1455 0 59.1853 12.689 751 56.1704 875.197 570.076
1456 0 60.1974 11.9939 722 57.3033 875.266 569.824
1457 0 61.1505 12.9516 792 57.0038 874.245 568.069
1458 0 64.1256 12.7094 815 56.9546 874.517 568.325
1459 0 65.2478 13.3031 868 56.6659 874.902 566.949
1460 0 67.1995 12.4703 838 57.7339 874.477 567.538
1461 0 69.1607 11.7408 812 58.4372 874.14 567.448
1462 0 71.1632 13.4199 955 56.688 874.306 565.163
1463 0 72.1738 12.2898 887 58.7756 874.294 565.536
1464 0 74.1081 13.5343 1003 57.4377 874.192 563.869
1465 0 77.1226 13.4202 1035 57.5014 874.198 562.92
1466 0 81.0517 13.7073 1111 56.5824 874.272 561.496
1467 0 81.1281 12.7576 1035 58.6193 874.243 559.967
1468 0 86.1671 12.8936 1111 57.7804 873.983 558.914
1469 0 87.125 12.7633 1112 58.625 873.944 559.37
1470 0 91.2204 13.6812 1248 57.2949 873.874 556.74
1471 0 94.2511 12.785 1205 58.1012 873.666 555.59
1472 1 51.0599 11.2221 573 58.082 873.545 577.501
1473 0 53.0598 12.1372 644 56.8602 873.882 574.963
1474 0 55.1172 11.793 650 56.8862 874.205 577.285
1475 0 54.1557 11.7255 635 57.4535 872.666 572.92
1476 0 59.0429 13.5325 799 55.1802 873.668 574.25
1477 0 59.2134 11.8892 704 57.9673 872.631 573.074
1478 0 61.2536 13.2237 810 56.158 872.663 572.386
1479 0 64.2342 12.9993 835 56.6431 872.267 571.274
1480 0 63.1291 12.7675 806 57.9144 872.014 571.421
1481 0 67.2204 13.359 898 56.8541 871.522 569.993
1482 0 68.1897 13.3745 912 57.7007 871.856 569.465
1483 0 70.148 12.0745 847 59.6352 871.948 568.156
1484 0 72.1618 12.7768 922 59.2028 872.028 567.046
1485 0 72.1564 12.6947 916 60.3166 871.508 566.217
1486 0 76.1131 13.0201 991 59.4198 871.529 564.767
1487 0 78.1555 13.9849 1093 58.968 871.508 562.897
1488 0 79.1105 13.2094 1045 60.29 871.482 564.226
1489 0 82.2421 14.2749 1174 59.3373 871.572 560.761
1490 0 85.2866 13.4839 1150 60.073 871.653 560.17
1491 0 88.1225 13.4018 1181 60.3167 871.677 557.631
1492 0 90.2608 13.8266 1248 60.629 871.548 556.03
1493 0 94.2158 13.9467 1314 60.3105 871.666 556.977
1494 0 92.2505 13.6043 1255 61.7673 871.672 556.051
1495 0 97.2912 13.8553 1348 61.7211 871.868 552.435
1496 0 99.2557 14.1755 1407 61.5146 871.778 550.382
1497 0 103.088 14.5313 1498 60.9339 871.886 549.486
1498 0 105.259 14.5356 1530 62.5837 872.036 547.82
1499 0 109.147 14.7415 1609 62.0497 872.027 547.432
1500 0 110.221 14.7612 1627 62.6872 872.346 546.356
1501 0 115.354 14.3818 1659 63.0675 872.332 543.147
1502 0 118.17 14.166 1674 63.1744 872.814 541.939
1503 0 122.337 14.2149 1739 63.4129 873.348 539.646
1504 0 123.099 14.2649 1756 63.6708 872.969 541.05
1505 0 129.309 14.7167 1903 62.7346 873.059 536.777
1506 0 132.157 14.6114 1931 63.0104 872.952 536.071
1507 0 138.172 15.0971 2086 62.0892 873.25 532.951
1508 0 141.33 14.8588 2100 62.4305 873.437 528.87
1509 0 148.226 15.2605 2262 60.6658 873.54 526.766
1510 0 151.35 14.7869 2238 62.0576 873.616 523.348
1511 0 155.463 14.4794 2251 62.6673 874.584 521.186
1512 0 160.536 14.4516 2320 62.8069 874.584 518.401
1513 0 168.364 14.9676 2520 61.8679 874.548 516.278
1514 0 172.437 14.9678 2581 62.5014 874.743 514.551
1515 0 177.381 14.5957 2589 63.119 874.712 510.721
1516 0 183.351 14.824 2718 62.7649 874.931 508.815
1517 0 188.377 15.0974 2844 62.4691 875.155 504.044
1518 0 196.603 14.8574 2921 62.4611 875.086 499.208
1519 0 202.517 15.2382 3086 61.7913 875.459 499.383
1520 0 209.401 15.4536 3236 61.6224 875.492 493.376
1521 0 216.578 14.6737 3178 62.8103 875.848 488.925
1522 0 224.523 14.8849 3342 62.3728 876.025 486.235
1523 1 170.246 11.6948 1991 65.4209 876.098 518.2
1524 0 175.27 13.1739 2309 63.6938 876.543 512.885
1525 0 183.433 13.8198 2535 62.3081 876.706 513.472
1526 0 188.348 14.7918 2786 61.3902 876.596 505.603
1527 0 194.384 14.3839 2796 61.3906 876.945 503.581
1528 0 201.255 13.9822 2814 61.5238 877.367 501.26
1529 0 209.328 14.9048 3120 60.5022 877.443 496.17
1530 0 216.369 15.6492 3386 59.2156 877.612 487.223
1531 0 223.267 14.9686 3342 60.2274 877.153 486.838
1532 0 232.659 14.3987 3350 61.6845 876.915 480.699
1533 0 241.569 15.6312 3776 59.7918 876.649 473.335
1534 0 248.609 14.726 3661 61.3485 876.538 472.087
1535 0 247.616 12.1155 3000 64.2323 876.799 478.399
1536 0 246.372 10.4963 2586 65.251 876.672 484.986
1537 1 62.0769 9.69765 602 59.4468 876.37 567.686
1538 0 65.094 12.0902 787 57.9606 877.278 567.41
1539 0 68.1464 11.6514 794 58.2783 876.981 567.639
1540 0 71.1893 12.5721 895 57.3307 876.815 564.311
1541 0 71.1841 12.573 895 57.6804 876.349 563.168
1542 0 74.2856 11.2404 835 58.909 876.43 561.565
1543 0 77.1737 12.2192 943 57.8303 876.83 561.034
1544 0 81.1608 11.3848 924 58.7468 876.792 560.62
1545 0 85.1479 12.6721 1079 57.089 877.126 557.854
1546 1 46.0791 9.91772 457 59.3239 877.278 576.079
1547 0 48.1446 10.0738 485 58.2227 875.93 575.924
1548 0 49.1288 10.4419 513 59.3665 876.554 576.351
1549 0 50.3294 11.0671 557 56.6445 877.474 573.465
1550 1 80.243 7.32775 588 55.915 877.075 573.908
1551 0 79.3467 11.872 942 47.4427 877.173 566.548
1552 0 83.8023 13.6989 1148 44.7831 876.679 563.713
1553 0 84.9637 11.8874 1010 48.0406 876.382 567.082
1554 1 121.585 9.06361 1102 46.8185 875.832 557.577
1555 0 114.172 9.38058 1071 48.3735 876.313 562.739
1556 0 99.1484 9.91443 983 51.119 875.729 567.66
1557 0 107.467 12.59 1353 44.5654 875.812 556.295
1558 0 110.256 8.91565 983 52.3245 876.845 564.704
1559 1 93.6009 14.8396 1389 45.7473 876.339 555.113
1560 0 87.6315 15.0403 1318 47.3923 876.027 557.659
1561 0 95.2814 17.3801 1656 43.0978 875.51 547.902
1562 0 91.121 12.6974 1157 51.758 876.243 559.768
1563 0 94.3134 13.4127 1265 50.5581 876.307 558.264
1564 0 90.4731 18.8343 1704 44.7711 876.238 551.354
1565 0 92.1254 15.3378 1413 49.6879 875.476 558.363
1566 0 92.1254 15.3921 1418 123.637 874.483 558.37
1567 0 94.3033 18.9071 1783 45.9248 876.087 549.781
1568 0 92.3836 15.8361 1463 50.9405 875.129 552.491
1569 0 93.2999 15.8628 1480 51.6878 875.403 551.523
1570 0 90.3226 15.0793 1362 53.7026 875.194 552.001
1571 0 94.2498 15.13 1426 53.7454 874.543 552.56
1572 1 49.1781 10.2485 504 56.2083 874.821 577.839
1573 0 49.2341 10.1962 502 56.8765 874.309 578.506
1574 0 50.1628 10.6852 536 56.5299 874.067 577.366
1575 0 53.1179 12.0298 639 55.5336 873.983 574.875
1576 0 55.1316 12.6606 698 55.0057 874.864 575.789
1577 0 55.1374 12.9495 714 54.8964 874.59 573.769
1578 0 58.2167 12.4363 724 55.6146 874.033 574.318
1579 0 58.253 12.274 715 56.4042 873.869 574.634
1580 0 60.1203 11.8263 711 57.1421 873.539 574.488
1581 0 61.2552 12.603 772 57.3718 873.198 571.465
1582 0 64.1226 12.4761 800 57.4325 873.707 571.683
1583 0 65.2498 12.1533 793 58.3619 872.615 570.562
1584 0 69.1352 12.4249 859 57.546 872.747 569.014
1585 0 69.1815 12.619 873 57.8316 872.727 567.281
1586 0 71.2013 12.4155 884 58.474 872.786 566.828
1587 0 76.2015 13.1625 1003 57.318 872.653 563.708
1588 0 79.2925 12.8512 1019 57.5309 872.379 562.697
1589 0 81.1784 13.0577 1060 57.4245 872.128 562.051
1590 1 43.0895 9.63113 415 58.547 872.995 582.212
1591 0 43.0181 10.6002 456 57.6535 873.684 580.862
1592 0 44.0938 10.4777 462 58.2597 873.483 580.764
1593 0 47.0659 11.877 559 56.6583 873.445 578.617
1594 0 49.0297 12.7474 625 55.0224 873.4 576.907
1595 0 48.053 10.7173 515 58.3282 873.462 578.46
1596 0 52.0552 12.1217 631 56.019 873.624 577.952
1597 0 52.0628 11.7166 610 57.5197 873.59 574.862
1598 0 55.1402 11.8063 651 57.0691 873.487 575.733
1599 0 55.1025 12.4495 686 56.9344 872.637 574.36
1600 0 56.1247 12.3653 694 56.928 872.996 573.958
1601 0 58.1156 13.0946 761 55.661 872.819 574.184
1602 0 59.0814 13.1175 775 56.2942 872.763 571.395
1603 0 61.0377 12.5988 769 57.1014 873.438 571.495
1604 0 60.1226 12.7905 769 57.6931 873.237 569.793
1605 0 63.0887 12.4903 788 57.7272 873.798 569.013
1606 0 64.1588 13.5289 868 56.6866 873.672 567.468
1607 0 66.0778 13.5446 895 56.8592 874.201 567.324
1608 0 68.3205 13.4513 919 57.0642 874.326 567.682
1609 0 69.1054 12.821 886 58.1366 874.96 567.293
1610 0 68.1457 12.7227 867 59.3587 875.371 565.409
1611 0 71.2366 12.7884 911 59.4654 875.402 564.176
1612 0 73.1448 12.9059 944 59.7023 875.415 561.851
1613 0 76.2091 13.2005 1006 58.7883 875.596 563.382
1614 0 78.1689 13.4836 1054 59.0427 875.744 561.737
1615 0 80.2721 12.8314 1030 60.2029 875.797 560.31
1616 0 83.1799 14.1621 1178 58.6452 876.005 558.492
1617 0 84.3031 13.0956 1104 61.0236 876.591 557.554
1618 0 87.2009 13.7843 1202 60.7712 877.06 555.124
1619 0 90.1693 14.3508 1294 60.1762 877.26 555.277
1620 0 92.1433 14.3255 1320 60.9886 877.309 552.606
1621 0 95.2901 14.5031 1382 60.767 877.549 551.154
1622 0 97.131 14.3312 1392 61.2593 877.852 550.602
1623 0 99.2557 14.4274 1432 61.3115 877.881 549.418
1624 0 102.281 14.4211 1475 61.6251 877.659 546.214
1625 0 105.137 14.4953 1524 61.5315 877.626 545.364
1626 0 107.252 14.6571 1572 61.5305 877.757 542.685
1627 0 110.264 14.6467 1615 61.1158 878.018 541.575
1628 0 111.31 14.3653 1599 61.8449 878.164 540.05
1629 0 115.126 14.4103 1659 61.8125 878.618 538.612
1630 0 118.233 14.7843 1748 60.9531 878.042 538.645
1631 0 122.269 14.7789 1807 60.8462 878.102 535.87
1632 0 126.104 14.4643 1824 61.1672 877.916 534.54
1633 0 129.251 14.9244 1929 60.2545 877.807 533.236
1634 0 132.232 14.9057 1971 60.8209 878.15 530.63
1635 0 137.254 14.7536 2025 60.5106 878.117 527.357
1636 0 142.201 14.2615 2028 60.8289 877.964 526.19
1637 0 148.377 14.9215 2214 59.9734 878.36 521.454
1638 0 153.195 15.2877 2342 59.6832 877.732 519.951
1639 0 158.255 15.475 2449 58.7681 878.002 517.803
1640 1 85.2121 12.6156 1075 58.6912 878.3 557.208
1641 0 87.1453 12.221 1065 58.0019 878.294 554.531
1642 0 89.2115 12.5208 1117 58.4369 878.169 554.722
1643 0 93.1805 13.3504 1244 57.3465 878.342 551.477
1644 0 96.1723 13.0703 1257 57.8011 878.709 549.492
1645 0 99.2524 13.5715 1347 57.4714 878.525 548.751
1646 0 102.318 13.2528 1356 57.9639 878.238 545.973
1647 0 104.232 13.5179 1409 57.7275 878.472 545.834
1648 0 109.122 13.4345 1466 57.1003 878.406 544.586
1649 0 112.192 13.7889 1547 56.8927 877.683 543.395
1650 0 118.287 14.6001 1727 55.6636 877.651 539.151
1651 1 63.117 11.8193 746 57.2748 877.747 566.555
1652 0 66.1267 12.0677 798 57.0326 877.236 564.62
1653 0 68.0545 13.1806 897 56.1661 877.455 562.254
1654 0 69.0914 13.171 910 56.1055 877.263 562.818
1655 0 74.1634 12.6073 935 56.4481 877.201 562.217
1656 0 77.1226 12.9664 1000 55.865 876.868 559.654
1657 0 81.143 13.1989 1071 54.9608 876.787 558.572
1658 0 82.1606 14.2039 1167 53.9914 876.536 556.098
1659 0 86.1673 12.615 1087 55.3597 875.947 555.666
1660 0 90.2043 13.9129 1255 53.9873 876.147 554.093
1661 0 91.1894 13.609 1241 54.4392 875.957 551.778
1662 0 94.1143 12.7505 1200 55.3042 875.925 548.726
1663 0 97.2284 13.9877 1360 54.0993 875.891 547.896
1664 0 100.237 13.1987 1323 54.8556 875.967 548.986
1665 1 52.1228 11.1851 583 55.2058 875.468 571.642
1666 0 56.1665 10.7181 602 55.7525 875.422 570.088
1667 0 59.096 11.6421 688 52.8634 875.741 570.496
1668 0 61.0467 11.9908 732 52.8552 875.828 569.891
1669 0 61.2322 12.3301 755 52.4464 875.115 569.963
1670 0 64.2938 12.4273 799 52.5757 875.065 567.212
1671 0 66.1053 11.9658 791 52.9684 874.92 567.124
1672 0 70.1239 12.1784 854 52.1932 874.698 568.162
1673 0 73.1346 13.7418 1005 50.6836 874.774 564.208
1674 0 74.1541 13.5124 1002 51.4192 875.122 564.75
1675 0 76.2188 13.1988 1006 52.0557 874.423 562.283
1676 0 79.1618 12.5945 997 53.0642 874.683 562.651
1677 0 80.0931 13.2221 1059 53.1634 874.765 561.074
1678 0 83.1077 13.4043 1114 53.1813 874.165 560.542
1679 0 86.1189 12.715 1095 53.8594 873.898 558.684
1680 0 89.1462 13.4835 1202 53.9351 873.998 556.138
1681 0 92.0766 13.5105 1244 54.5289 873.809 555.306
1682 0 94.133 13.2047 1243 55.4039 873.767 554.231
1683 0 97.1888 13.0262 1266 56.0166 874.128 552.256
1684 1 53.0245 11.9379 633 54.7172 874.253 573.787
1685 0 53.0245 11.9567 634 171.202 874.262 573.773
1686 0 58.1085 12.0464 700 55.4886 873.986 572.183
1687 0 58.0775 11.7774 684 57.288 873.58 571.582
1688 0 60.0816 13.0489 784 56.3533 873.756 569.644
1689 0 60.0626 14.0353 843 56.6109 874.178 570.323
1690 0 64.0443 14.2402 912 55.7423 873.932 567.283
1691 0 65.0244 13.9025 904 56.9558 873.952 567.259
1692 0 69.0475 13.6862 945 56.7788 872.952 566.032
1693 0 69.1172 12.949 895 58.9352 872.476 565.746
1694 0 72.1484 13.2089 953 58.3809 873.052 566.546
1695 0 75.1048 13.3813 1005 58.9781 872.784 564.384
1696 0 75.0874 13.1979 991 60.0686 872.334 564.224
1697 0 79.071 14.038 1110 59.0514 872.24 561.559
1698 0 81.1874 14.3618 1166 58.566 872.121 561.156
1699 0 84.2025 14.7145 1239 58.5666 871.96 561.157
1700 0 87.205 13.841 1207 60.0348 871.913 560.253
1701 0 89.2315 14.0982 1258 60.4769 871.393 556.937
1702 0 90.1576 13.787 1243 61.5849 871.829 557.305
1703 0 93.1958 13.992 1304 61.8857 871.61 553.74
1704 0 96.141 14.8324 1426 61.1339 871.49 554.407
1705 0 102.266 15.1957 1554 60.4858 871.611 551.875
1706 0 101.223 14.3347 1451 62.9159 871.196 551.205
1707 0 105.367 13.9703 1472 63.767 871.752 549.859
1708 0 109.19 14.8366 1620 62.7895 871.638 547.96
1709 0 109.19 14.8457 1621 167.395 870.633 547.95
1710 1 62.0717 12.2761 762 65.3438 871.505 572.058
1711 0 64.1532 13.4366 862 64.2007 871.732 568.085
1712 0 66.0903 12.9671 857 64.9697 871.617 567.614
1713 0 69.056 13.3949 925 63.8076 872.091 564.707
1714 0 72.0613 15.2509 1099 61.6833 872.415 564.031
1715 0 74.1399 13.515 1002 63.7106 872.181 565.125
1716 0 75.1839 13.7928 1037 64.0029 872.271 563.644
1717 0 79.1002 13.6409 1079 64.3661 872.556 559.98
1718 0 81.1539 13.5052 1096 64.1706 872.543 559.571
1719 0 83.1131 14.7029 1222 62.766 872.565 558.486
1720 0 85.0888 14.4907 1233 63.5693 872.985 558.194
1721 0 88.2075 14.3072 1262 63.9754 872.647 555.719
1722 0 91.1486 13.8675 1264 64.962 872.816 554.362
1723 0 94.1224 13.7056 1290 65.4574 872.826 552.017
1724 0 96.0862 14.1019 1355 65.4273 873.222 550.148
1725 0 100.067 14.7102 1472 65.0408 873.164 550.704
1726 0 102.101 13.9274 1422 66.2222 872.636 549.34
1727 0 103.146 14.7365 1520 64.9382 872.846 548.777
1728 1 53.0319 11.9551 634 66.3801 872.861 573.077
1729 0 56.0824 11.6614 654 64.8869 872.878 571.382
1730 0 57.0795 12.8242 732 63.8798 873.187 569.749
1731 0 60.0609 12.5539 754 63.8037 873.405 569.13
1732 0 63.1092 13.7064 865 62.1006 873.916 568.336
1733 0 65.0676 13.8471 901 63.1065 874.378 567.15
1734 0 66.1064 13.7203 907 64.2778 874.793 567.14
1735 0 67.0911 13.0867 878 65.9317 875.158 565.472
1736 0 72.207 14.3615 1037 63.1948 875.351 564.915
1737 0 74.111 14.0735 1043 63.5916 875.754 563.03
1738 0 76.091 14.5089 1104 62.6377 875.802 562.396
1739 0 79.1288 13.7118 1085 63.3908 876.106 561.201
1740 0 82.207 14.1107 1160 63.3198 876.432 557.972
1741 0 84.0663 13.9295 1171 63.6806 876.71 557.056
1742 0 87.3171 14.2011 1240 62.1411 876.834 554.635
1743 0 92.375 14.5277 1342 61.1192 877.177 553.58
1744 0 94.178 14.5257 1368 62.0826 877.582 552.009
1745 1 50.1339 11.7485 589 64.0747 877.149 572.922
1746 0 52.1298 11.5865 604 62.4586 878.127 573.444
1747 0 54.1612 11.4842 622 62.2926 878.566 573.121
1748 0 55.1162 12.6279 696 61.6609 878.892 570.506
1749 0 57.1348 12.9868 742 60.8976 878.879 568.815
1750 0 59.0902 12.9802 767 61.3286 878.229 566.232
1751 0 62.1881 12.7516 793 61.1879 878.579 566.715
1752 0 63.1102 13.1833 832 60.6058 878.371 566.249
1753 0 65.1338 13.48 878 59.6948 878.105 566.264
1754 0 68.1283 12.9755 884 60.3925 877.577 563.887
1755 0 70.1152 13.4208 941 59.6344 877.791 564.356
1756 0 69.1182 13.1369 908 169.685 877.798 563.815
1757 0 75.2635 13.6454 1027 59.1675 877.735 558.895
1758 0 77.1901 13.1494 1015 59.67 877.677 557.974
1759 0 81.3091 13.258 1078 59.3377 878.107 557.206
1760 0 85.2393 14.0428 1197 58.3442 878.17 556.088
1761 1 47.2678 10.8107 511 60.5597 877.481 572.812
1762 0 47.1657 11.5126 543 59.3517 877.738 574.422
1763 0 49.1882 11.4052 561 60.2478 877.396 572.902
1764 0 50.1175 11.932 598 60.4247 877.227 572.099
1765 0 52.1465 12.7142 663 59.9623 877.204 569.863
1766 0 52.1465 12.7334 664 170.783 877.211 569.828
1767 0 55.1327 13.5128 745 59.3141 877.656 570.76
1768 0 58.1418 12.6587 736 60.072 877.394 569.798
1769 0 58.293 12.7631 744 61.0874 877.02 568.124
1770 0 60.1721 12.6969 764 61.0249 876.95 568.102
1771 0 61.1346 12.5625 768 61.0208 876.68 566.568
1772 0 65.1588 13.3673 871 59.9908 876.894 567.085
1773 0 66.1308 12.8836 852 61.4918 876.64 565.014
1774 0 68.0832 13.1604 896 61.9386 876.28 562.874
1775 0 69.0953 13.2136 913 62.6134 876.272 562.219
1776 0 72.0794 13.4851 972 61.9043 876.378 560.723
1777 0 74.1273 13.922 1032 60.9932 876.226 559.896
1778 1 37.0085 10.7273 397 62.8086 876.584 578.151
1779 0 42.0124 10.973 461 62.3037 876.44 575.662
1780 0 42.0458 11.2496 473 62.8753 876.664 575.584
1781 0 45.1213 11.6796 527 63.0417 876.4 574.744
1782 0 46.1352 11.8348 546 62.3974 876.024 575.385
1783 0 47.1195 12.7336 600 62.2167 875.845 575.303
1784 0 49.0785 13.0403 640 60.7 875.642 576.336
1785 0 49.151 12.8787 633 62.3633 875.705 573.561
1786 0 51.1712 12.7611 653 62.3936 875.573 572.299
1787 0 53.1882 12.5404 667 62.8501 875.271 571.15
1788 0 55.1711 12.3797 683 63.2665 874.495 570.597
1789 0 56.0767 12.0906 678 63.6327 874.867 569.286
1790 0 56.0767 12.1084 679 165.647 873.857 569.283
1791 0 60.1798 13.2935 800 61.9588 874.7 567.599
1792 0 59.2304 12.2234 724 63.692 874.149 567.285
1793 0 63.0841 12.8717 812 61.9667 874.169 566.41
1794 0 62.2437 12.8848 802 62.5337 873.847 565.818
1795 0 64.2986 13.2196 850 61.7012 874.116 564.039
1796 0 67.2577 13.0245 876 61.6644 873.554 563.438
1797 0 71.3179 13.2645 946 60.7696 873.708 563.243
1798 0 74.2813 13.57 1008 60.1032 873.13 562.025
1799 0 76.1553 12.8422 978 60.8824 873.262 560.793
1800 0 76.238 13.1562 1003 61.1226 873.676 559.36
1801 0 78.2561 13.6219 1066 61.0169 873.518 558.471
1802 0 81.1975 13.1162 1065 61.7962 873.54 557.1
1803 0 85.1789 13.8415 1179 60.7091 873.459 556.324
1804 0 85.1196 13.5926 1157 61.7692 873.164 554.631
1805 0 88.3009 13.7598 1215 61.6551 873.382 552.883
1806 0 91.2833 13.3978 1223 61.8913 873.472 553.371
1807 0 93.2678 13.4988 1259 62.2025 873.122 550.974
1808 0 97.2117 12.838 1248 62.8117 873.436 549.345
1809 0 100.249 13.8256 1386 61.7706 873.428 546.83
1810 0 105.234 14.4915 1525 60.141 873.332 547.007
1811 0 108.174 13.5522 1466 61.513 872.818 544.86
1812 0 111.411 14.6664 1634 59.7362 873.363 542.746
1813 0 114.168 15.013 1714 59.2089 872.978 541.468
1814 0 116.298 14.695 1709 60.3113 872.951 540.971
1815 1 63.1046 11.7899 744 61.8145 873.347 568.652
1816 0 66.295 12.5801 834 61.4329 873.65 566.594
1817 0 68.1767 12.9663 884 60.5803 873.842 567.441
1818 0 72.1539 13.3603 964 60.2822 873.402 565.402
1819 0 71.022 13.3198 946 61.1765 873.531 563.5
1820 0 74.2233 12.8666 955 61.8921 873.358 562.796
1821 0 77.4542 13.8663 1074 60.4078 873.561 560.87
1822 0 80.1072 13.6941 1097 60.4886 873.521 558.756
1823 0 84.292 14.0227 1182 59.5829 874.009 559.102
1824 0 84.2542 13.4237 1131 61.5031 873.899 555.882
1825 0 87.3793 13.5158 1181 61.2362 873.558 556.37
1826 0 90.2873 13.8558 1251 61.1415 873.722 553.894
1827 0 94.3975 14.6932 1387 60.1601 873.763 550.748
1828 1 51.2205 12.0655 618 61.1408 874.273 574.167
1829 0 51.2628 11.88 609 61.1609 874.011 573.195
1830 0 52.2105 11.377 594 62.1751 874.024 571.684
1831 0 55.2418 11.8026 652 61.2837 874.155 572.018
1832 0 55.0989 11.2888 622 62.074 874.248 569.145
1833 0 56.2174 12.8786 724 60.6326 874.645 568.493
1834 0 59.049 12.532 740 61.1068 875.076 571.605
1835 0 61.0512 12.8253 783 60.9642 875.129 569.825
1836 0 62.146 13.9027 864 59.6065 875.492 568.59
1837 0 64.1168 12.7112 815 61.2834 875.946 567.742
1838 0 68.1411 12.9878 885 60.0588 876.201 566.186
1839 0 70.1253 13.4759 945 59.1577 876.294 565.348
1840 0 72.2206 13.6249 984 59.1463 876.423 561.312
1841 0 76.1251 13.7668 1048 58.5935 876.801 560.883
1842 0 79.177 13.2614 1050 59.0076 877.324 559.537
1843 0 80.1134 12.7569 1022 59.8836 877.193 558.448
1844 0 83.1729 12.8768 1071 60.0644 877.253 556.694
1845 0 85.1399 13.3897 1140 58.8526 877.523 555.944
1846 1 45.1122 10.618 479 60.2881 877.62 574.24
1847 0 48.2346 10.7392 518 59.2741 877.597 573.191
1848 0 50.0772 11.6021 581 58.1308 877.229 572.029
1849 0 51.1865 12.4447 637 57.1177 877.392 571.474
1850 0 53.0687 12.0033 637 58.0031 878.4 571.914
1851 0 54.1622 12.5549 680 57.4662 877.949 571.819
1852 0 54.1039 12.3836 670 58.1582 878.001 570.639
1853 0 58.1518 12.7941 744 55.703 877.933 569.187
1854 0 58.0939 12.6003 732 56.5205 877.641 567.096
1855 0 59.1636 12.9641 767 56.2334 878.009 568.033
1856 0 62.0569 14.1966 881 54.059 877.852 566.327
1857 0 63.2372 13.3624 845 55.3988 877.529 563.645
1858 0 64.1469 12.6429 811 56.4994 877.626 564.899
1859 0 69.1955 13.3101 921 54.9088 877.381 564.558
1860 0 69.058 13.8 953 54.8888 877.431 562.166
1861 0 71.156 13.4634 958 54.3236 877.441 560.995
1862 0 74.1212 13.6128 1009 55.331 877.198 560.833
1863 0 74.2432 13.146 976 56.1117 877.12 559.486
1864 0 78.1981 13.9517 1091 55.3116 876.463 557.666
1865 0 80.2766 13.8396 1111 55.5914 876.723 556.944
1866 0 85.2964 14.0569 1199 55.1201 876.351 557.802
1867 0 86.1 13.2288 1139 57.4618 876.164 554.785
1868 0 87.1991 13.5437 1181 57.4522 876.18 553.71
1869 0 91.3429 13.7723 1258 56.9189 876.328 552.289
1870 0 95.3916 13.3974 1278 56.511 876.303 552.232
1871 0 97.1439 14.1337 1373 55.9017 876.377 549.991
1872 0 98.3824 12.5734 1237 58.3347 875.608 547.698
1873 0 102.154 14.2432 1455 56.1938 875.21 547.656
1874 1 55.017 10.7967 594 57.83 874.53 571.082
1875 0 56.0364 10.4218 584 56.6764 874.877 566.324
1876 0 59.1787 11.9807 709 55.6657 875.513 568.724
1877 0 62.1882 12.6873 789 55.379 875.929 566.788
1878 0 64.15 12.9072 828 55.43 875.093 567.835
1879 0 65.2376 13.903 907 54.6318 875.043 568.018
1880 0 66.2054 13.0654 865 56.3549 874.638 566.397
1881 0 70.1451 13.1584 923 55.7248 874.972 564.672
1882 0 70.2307 12.8007 899 56.7875 874.795 563.086
1883 0 73.4208 13.0617 959 56.0938 874.781 563.719
1884 0 75.1968 12.5936 947 57.0919 874.634 561.974
1885 0 79.4824 13.5879 1080 56.0528 874.555 559.417
1886 0 80.1717 12.7975 1026 57.2135 874.424 559.279
1887 0 83.3115 12.7833 1065 57.0009 874.315 557.175
1888 0 86.3698 13.257 1145 57.0419 874.114 555.817
1889 0 90.2626 14.5243 1311 55.6629 873.896 554.001
1890 0 94.2686 13.7267 1294 56.8509 874.389 553.636
1891 0 95.4131 13.2581 1265 57.4972 874.375 552.074
1892 0 98.2654 13.9317 1369 56.4741 874.091 550.256
1893 0 100.277 13.1237 1316 57.9202 873.799 550.274
1894 0 103.24 13.5606 1400 57.5936 873.691 548.161
1895 0 106.328 13.8909 1477 57.1591 873.884 545.399
1896 0 109.323 13.8031 1509 57.9867 873.909 543.745
1897 0 113.406 14.2144 1612 57.072 873.816 543.694
1898 0 118.539 13.717 1626 57.8918 873.806 542.474
1899 0 117.302 13.2564 1555 58.9768 873.733 540.202
1900 0 121.206 13.5554 1643 58.3914 872.872 539.128
1901 0 126.187 14.0348 1771 57.7871 872.746 535.534
1902 0 131.32 13.9278 1829 57.924 872.514 534.44
1903 0 136.592 13.8003 1885 57.7714 872.445 533.385
1904 0 140.468 14.3805 2020 56.9772 871.975 533.719
1905 1 78.2006 10.9462 856 58.0864 871.863 564.676
1906 0 80.1283 10.7328 860 58.9814 871.923 561.527
1907 0 84.1754 11.583 975 58.2431 872.205 560.109
1908 0 88.2652 13.1762 1163 56.3775 872.12 558.38
1909 0 89.3059 12.6084 1126 57.9076 871.715 556.676
1910 0 93.2675 13.1664 1228 57.2793 871.615 554.748
1911 0 97.3322 13.8187 1345 56.6513 871.567 551.477
1912 0 99.2602 13.6611 1356 57.604 871.401 551.092
1913 0 103.524 13.1081 1357 58.031 871.604 551.036
1914 0 106.293 14.159 1505 56.7595 870.957 549.794
1915 0 111.656 13.3625 1492 58.1495 870.877 546.918
1916 1 60.1868 11.5142 693 58.6667 870.654 572.524
1917 0 62.1838 10.4529 650 60.3508 870.797 571.932
1918 0 62.2283 11.9078 741 61.7409 871.111 569.277
1919 0 63.1015 11.2359 709 61.0959 871.148 568.674
1920 0 67.0689 12.435 834 59.9412 871.571 567.917
1921 0 67.1134 12.4565 836 60.6459 870.676 566.835
1922 0 72.1004 13.6476 984 58.9075 870.287 564.299
1923 0 73.0343 12.5557 917 60.6085 870.095 564.001
1924 0 76.086 12.315 937 60.8196 870.57 563.139
1925 0 79.3543 12.9294 1026 61.1823 870.993 563.486
1926 0 81.3539 13.3491 1086 60.0645 870.832 564.096
1927 0 85.2803 13.8719 1183 59.6103 870.917 561.349
1928 0 88.4837 14.6807 1299 58.5858 871.132 559.736
1929 0 90.3596 13.5791 1227 60.0497 871.16 557.478
1930 0 94.4823 13.4099 1267 60.2715 871.476 556.547
1931 0 95.3443 12.7433 1215 61.6486 871.578 555.104
1932 0 101.269 13.3012 1347 59.8099 871.267 555.541
1933 1 52.2245 10.9336 571 61.8109 871.557 577.387
1934 0 55.2276 11.0271 609 61.6617 871.854 576.481
1935 0 55.1207 12.3003 678 60.444 871.501 576.187
1936 0 58.2602 11.5516 673 60.8826 871.886 574.036
1937 0 59.1824 11.9292 706 60.5708 872.259 574.752
1938 0 63.1351 12.7346 804 59.0933 871.647 572.694
1939 0 64.2171 12.7069 816 59.9767 872.259 572.007
1940 0 66.0419 13.4006 885 59.2 872.238 571.021
1941 0 68.0522 13.2692 903 59.6224 872.467 569.538
1942 0 69.0753 13.507 933 58.9303 872.294 567.887
1943 0 73.2038 12.8272 939 59.7465 872.252 563.859
1944 0 73.0969 12.6681 926 59.2873 872.654 556.851
1945 0 77.1044 13.8643 1069 57.203 872.869 558.324
1946 0 78.2846 13.3104 1042 58.3925 873.104 560.835
1947 0 82.3265 14.0417 1156 57.0744 873.091 559.852
1948 0 85.1882 13.3821 1140 57.3614 872.514 558.43
1949 0 87.3094 13.664 1193 57.3093 872.716 557.668
1950 0 87.1962 13.5212 1179 58.0992 872.405 556.028
1951 0 93.1844 13.2533 1235 57.8826 873.216 554.551
1952 1 50.1138 10.5759 530 58.1547 873.025 577.519
1953 0 51.2509 11.551 592 58.6689 872.765 573.348
1954 0 52.1432 11.6602 608 58.1809 872.74 572.993
1955 0 54.1939 12.2339 663 56.9774 872.722 572.665
1956 0 56.1011 13.0835 734 55.9128 873.865 572.88
1957 0 58.1264 12.3524 718 56.8788 873.848 573.54
1958 0 57.1592 12.0716 690 58.4333 873.974 571.229
1959 0 60.1914 13.0583 786 56.8626 874.228 570.818
1960 0 61.1196 12.6146 771 57.5214 874.193 570.139
1961 0 64.1455 12.4561 799 57.3354 874.308 570.466
1962 0 64.1892 12.5255 804 57.8333 874.405 568.792
1963 0 68.167 13.1589 897 56.8763 874.87 568.115
1964 0 72.1694 11.9441 862 57.9002 874.713 568.039
1965 0 72.206 12.1181 875 58.1543 874.723 565.642
1966 0 74.0979 12.7399 944 57.4417 875.424 563.427
1967 0 78.1051 13.213 1032 56.4147 875.672 563.192
1968 1 43.1535 11.0999 479 56.9186 876.889 578.985
1969 0 45.0329 9.92608 447 57.8792 877.398 579.26
1970 0 45.0526 11.9194 537 57.7747 877.151 576.119
1971 0 48.0944 10.8952 524 57.9733 877.403 576.99
1972 0 49.0513 10.9681 538 58.4275 877.533 575.738
1973 0 49.1304 11.6018 570 58.1561 876.807 572.168
1974 0 52.0855 11.9611 623 57.5457 877.281 571.329
1975 0 53.1648 11.9064 633 57.4028 877.003 572.185
1976 0 56.1243 11.4923 645 57.5597 877.594 572.86
1977 0 57.1894 12.1701 696 56.5905 877.928 571.74
1978 0 60.1588 12.6498 761 55.7004 877.813 569.335
1979 0 63.1927 12.8179 810 55.0778 877.737 567.336
1980 0 62.1393 12.4881 776 56.5168 877.631 566.702
1981 0 65.2861 11.6104 758 57.7058 877.954 566.956
1982 0 67.3793 12.3925 835 56.9078 877.938 564.194
1983 0 69.1033 13.8054 954 55.4706 877.713 562.029
1984 0 72.2466 12.8034 925 56.0141 878.048 562.208
1985 0 74.1792 12.8068 950 56.2695 877.887 561.078
1986 0 75.3011 12.6426 952 56.4286 877.958 560.318
1987 0 79.3323 13.3489 1059 55.423 877.505 559.241
1988 1 45.171 10.737 485 57.4495 877.864 575.025
1989 0 46.3616 11.626 539 55.9221 877.831 575.698
1990 0 47.3403 10.6041 502 56.3028 877.936 575.546
1991 0 48.1914 10.9978 530 56.3547 877.96 575.787
1992 0 52.3605 12.3375 646 54.5573 878.486 572.797
1993 0 52.368 12.4122 650 55.3523 877.771 571.818
1994 0 53.3725 13.1716 703 55.0697 877.135 571.667
1995 0 57.3429 13.7419 788 53.7944 876.921 570.576
1996 0 57.156 12.8595 735 55.7701 876.996 570.514
1997 0 59.2682 12.5531 744 55.7675 876.767 568.813
1998 0 60.1669 12.8144 771 55.8353 876.599 568.751
1999 0 64.215 14.7473 947 53.114 877.285 565.985
2000 0 63.2111 13.2572 838 56.0585 876.856 566.061
2001 0 72.3078 16.9553 1226 48.3834 876.744 558.669
2002 0 75.117 16.0816 1208 49.577 876.571 561.202
2003 0 77.2134 16.6551 1286 48.888 876.504 559.716
2004 0 77.2112 15.6195 1206 51.558 876.862 559.975
2005 0 75.1199 16.5336 1242 52.1795 876.366 560.386
2006 0 76.2506 15.4097 1175 54.6562 875.838 560.657
2007 0 74.2019 13.4094 995 58.394 875.904 560.745
2008 0 77.3166 14.1626 1095 57.5872 875.222 560.75
2009 0 81.1477 14.5291 1179 57.4953 875.365 558.317
2010 0 85.3092 15.4731 1320 56.0485 875.348 557.473
2011 0 87.1177 14.9568 1303 57.1627 875.112 555.994
2012 0 88.1327 14.0356 1237 59.1302 874.597 553.694
2013 0 92.1389 14.7712 1361 58.0551 874.703 552.161
2014 0 94.1269 13.4818 1269 60.3916 874.331 552.826
2015 1 53.0531 11.7995 626 62.1358 874.599 573.796
2016 0 53.0817 11.4164 606 63.2739 874.375 573.172
2017 0 57.1223 12.412 709 62.1777 873.969 571.326
2018 0 60.0794 12.6499 760 62.0882 873.557 569.804
2019 0 61.0461 13.3506 815 61.5288 873.934 567.472
2020 0 61.0973 13.323 814 62.2985 874.066 566.98
2021 0 64.1127 14.2249 912 60.955 873.975 565.53
2022 0 64.1712 13.2614 851 62.6569 873.566 565.847
2023 0 68.1845 13.6541 931 61.9893 873.692 565.914
2024 0 69.3478 13.5693 941 62.6812 873.552 562.083
2025 0 73.2349 14.5013 1062 60.6064 873.635 562.735
2026 0 74.2403 13.9008 1032 62.3198 873.069 562.417
2027 0 77.1266 14.5864 1125 61.2702 873.389 561.332
2028 0 80.313 14.3065 1149 61.4708 873.003 561.534
2029 0 83.185 14.1732 1179 61.7846 873.143 557.414
2030 0 83.0982 13.6465 1134 63.0679 872.76 556.517
2031 1 45.0788 12.1787 549 63.9271 872.521 576.412
2032 0 48.0369 11.8451 569 64.0457 872.705 574.742
2033 0 47.0422 11.7554 553 64.8445 872.539 574.731
2034 0 47.0422 11.7342 552 179.038 871.527 574.712
2035 0 52.0786 12.4811 650 64.0615 871.42 572.268
2036 0 54.1264 13.7087 742 62.996 871.817 571.64
2037 0 55.0172 13.5776 747 63.4404 871.73 571.751
2038 0 58.0206 13.8744 805 62.1106 871.863 571.93
2039 0 58.1367 13.7607 800 63.3638 871.827 572.035
2040 0 60.107 13.5924 817 63.1224 871.81 571.113
2041 0 63.0673 13.7789 869 63.0725 871.717 569.604
2042 0 65.1357 14.2625 929 62.3315 871.846 567.258
2043 0 65.0925 13.3195 867 64.0196 872.506 566.296
2044 0 69.1059 13.53 935 62.8545 872.147 567.678
2045 0 71.1849 12.7836 910 63.8308 872.309 564.503
2046 0 73.1375 13.3994 980 62.8755 871.788 564.456
2047 0 77.0908 13.6333 1051 62.3787 871.804 564.492
2048 0 78.1586 13.7797 1077 62.2368 871.749 562.622
2049 0 81.1004 14.032 1138 61.7583 871.641 560.228
2050 0 85.3468 14.7164 1256 60.5908 872.039 560.965
2051 0 87.2469 13.7885 1203 61.9933 871.855 559.396
2052 0 90.2989 13.71 1238 62.2464 871.537 557.548
2053 1 54.125 12.5266 678 64.7522 871.521 576.059
2054 0 53.0675 10.9295 580 66.95 870.945 576.262
2055 0 53.0675 10.8353 575 168.492 870.955 576.292
2056 0 57.2334 12.5801 720 64.6514 871.299 574.1
2057 0 60.2906 13.7003 826 63.1586 870.938 572.516
2058 0 62.2124 13.4218 835 63.5629 871.174 573.158
2059 0 63.1919 13.3245 842 64.1603 871.164 570.827
2060 0 65.1117 12.9163 841 64.5137 870.794 569.932
2061 0 68.1856 12.3927 845 64.4947 870.976 569.337
2062 0 71.277 13.7351 979 62.6384 871.141 567.748
2063 0 72.1817 13.2721 958 62.8372 870.643 566.555
2064 0 75.054 13.1239 985 63.2305 870.628 564.897
2065 0 77.2407 14.3318 1107 61.9223 871.267 563.616
2066 0 80.1905 14.2536 1143 62.1059 871.397 562.112
2067 0 80.4146 13.8159 1111 63.2142 871.635 561.737
2068 0 85.507 13.4258 1148 63.3406 871.454 560.144
2069 0 86.2171 14.5215 1252 62.8339 871.438 559.09
2070 0 90.1512 14.5755 1314 62.7854 871.275 555.875
2071 0 93.1939 14.8078 1380 63.0587 871.779 556.5
2072 0 96.1928 13.9304 1340 64.3963 871.826 552.351
2073 0 99.2807 14.1719 1407 64.2992 871.911 551.72
2074 0 103.234 15.0047 1549 63.113 872.063 551.549
2075 0 106.07 14.4338 1531 64.1313 872.066 550.272
2076 0 109.094 14.3362 1564 64.7008 872.113 547.957
2077 0 115.117 15.0109 1728 63.2552 872.601 545.607
2078 1 54.1192 10.754 582 66.4364 872.481 573.737
2079 0 56.1028 10.9798 616 65.6494 872.765 574.56
2080 0 59.0236 12.3849 731 64.4268 873.066 572.101
2081 0 60.0794 12.8829 774 64.8747 873.039 569.877
2082 0 62.0928 13.206 820 63.8951 873.156 569.409
2083 0 65.0741 13.815 899 62.9889 873.353 569.02
2084 0 68.0503 13.8133 940 63.1181 874.31 566.711
2085 0 70.1776 13.4231 942 63.6072 874.175 565.564
2086 0 69.0956 12.0992 836 65.5909 874.175 566.919
2087 0 73.1098 13.5276 989 63.8615 874.229 563.354
2088 0 75.1073 13.6338 1024 63.4912 874.639 563.065
2089 0 76.1273 13.6351 1038 64.1349 874.599 560.974
2090 0 79.1284 13.9015 1100 63.3191 874.655 561.055
2091 0 80.1867 13.3189 1068 64.7846 874.696 557.861
2092 0 84.0808 14.0579 1182 63.4036 874.942 557.004
2093 0 86.1506 13.5576 1168 64.149 875.068 555.582
2094 0 89.1802 14.7678 1317 62.7616 875.214 552.929
2095 0 93.2226 14.3098 1334 63.7361 875.669 550.924
2096 0 96.094 14.2256 1367 63.3526 875.871 549.503
2097 0 99.0607 14.4659 1433 63.4368 875.9 548.996
2098 0 102.123 14.2768 1458 63.6207 875.588 546.229
2099 0 106.201 14.0488 1492 63.752 875.735 546.136
2100 0 111.19 14.5606 1619 63.0142 875.973 542.769
2101 0 115.204 14.2877 1646 63.6385 875.943 541.93
2102 0 118.148 14.0502 1660 64.2669 876.222 539.607
2103 0 121.147 14.3132 1734 64.5433 876.232 534.752
2104 0 126.168 14.3222 1807 64.1063 876.824 534.379
2105 0 130.116 14.1105 1836 64.6808 877.142 534.116
2106 0 135.334 14.9112 2018 63.3157 877.191 529.901
2107 0 136.252 14.0989 1921 65.252 876.898 527.09
2108 0 143.09 14.7669 2113 63.9617 877.155 526.894
2109 0 148.146 14.3507 2126 64.8692 877.008 523.042
2110 0 154.427 14.7966 2285 63.8696 877.439 520.905
2111 0 160.274 15.2364 2442 63.0655 877.516 516.513
2112 0 163.364 14.8809 2431 64.19 877.673 512.076
2113 1 66.1235 10.7829 713 63.871 877.948 564.114
2114 0 66.1235 10.8433 717 168.872 876.939 564.015
2115 0 71.1237 10.1654 723 63.7095 877.615 563.026
2116 0 76.2297 10.1404 773 63.1979 877.564 562.903
2117 0 75.1362 9.70238 729 63.5638 877.355 563.598
2118 0 83.0804 10.881 904 62.8883 876.975 557.157
2119 0 82.1363 9.92253 815 63.3215 876.968 560.701
2120 0 83.1195 11.1165 924 63.3734 876.482 557.201
2121 0 92.2161 11.1044 1024 62.5146 876.892 554.567
2122 0 92.1438 8.86657 817 64.7197 876.734 556.945
2123 0 92.2004 11.2689 1039 62.1704 876.543 555.289
2124 0 92.2025 11.0735 1021 62.3134 876.196 553.148
2125 0 96.1906 10.7495 1034 62.3288 876.253 554.099
2126 0 97.2409 11.7749 1145 61.4087 875.596 549.783
2127 0 99.2874 11.9854 1190 61.4118 875.365 548.275
2128 0 104.239 12.9894 1354 59.8567 875.038 546.112
2129 0 104.239 12.9798 1353 163.741 874.035 546.192
2130 0 109.18 13.3632 1459 59.4037 874.796 543.302
2131 0 113.34 12.5552 1423 60.2115 874.441 541.061
2132 0 117.159 12.3763 1450 60.2731 874.633 540.428
2133 0 121.203 13.2092 1601 59.1674 874.3 536.958
2134 1 68.0883 9.7961 667 59.2699 874.652 566.721
2135 0 69.0821 9.27882 641 59.5959 874.783 566.577
2136 0 74.1466 11.3289 840 58.0762 874.457 561.924
2137 0 75.1156 11.702 879 58.0694 874.526 561.89
2138 0 77.1318 11.9406 921 58.8415 874.789 562.659
2139 0 80.1429 12.4527 998 58.4279 873.896 560.125
2140 0 83.2722 12.6093 1050 58.1248 874.165 560.576
2141 0 84.0803 13.0827 1100 58.6736 873.868 556.938
2142 0 87.1537 12.3116 1073 60.0336 873.897 555.514
2143 0 92.0534 13.0033 1197 59.1763 874.099 554.008
2144 0 95.106 13.3325 1268 58.7137 874.197 555.034
2145 0 98.1225 12.6067 1237 59.7987 873.867 553.277
2146 0 101.104 12.7591 1290 59.7713 874.022 550.365
2147 1 55.0999 9.85483 543 59.4475 874.564 574.578
2148 0 57.0806 9.49534 542 59.7011 874.745 575.275
2149 0 56.0456 10.7769 604 58.8841 874.495 573.743
2150 0 58.0259 10.6332 617 57.5284 873.997 571.052
2151 0 59.105 10.5744 625 57.7872 874.027 571.816
2152 0 62.0856 12.4828 775 56.3265 874.747 570.239
2153 0 64.0763 11.9077 763 56.7051 874.861 572.106
2154 0 64.0454 11.851 759 57.3966 874.671 569.657
2155 0 68.0581 12.7979 871 56.132 874.535 567.753
2156 0 70.077 12.7146 891 56.1055 873.917 568.46
2157 0 70.0423 12.1641 852 58.0106 874.316 567.203
2158 0 72.0862 12.9151 931 57.1987 873.679 566.031
2159 0 73.0321 12.7615 932 58.2704 873.635 565.534
2160 0 76.0508 12.9782 987 57.5937 872.98 564.37
2161 0 79.0628 13.4829 1066 57.2861 873.217 562.848
2162 0 79.1201 12.7148 1006 58.9553 872.862 561.08
2163 0 82.0939 13.2897 1091 58.6315 872.77 561.521
2164 0 87.1775 12.9162 1126 59.0524 872.488 559.435
2165 0 88.1332 12.9803 1144 59.2587 872.21 558.817
2166 0 92.1482 13.0008 1198 59.4674 872.366 556.694
2167 1 52.1095 9.78709 510 59.9902 872.945 577.675
2168 0 51.0872 10.1591 519 59.4239 872.915 577.499
2169 0 54.0762 11.1694 604 57.9156 872.861 576.646
2170 0 53.1241 10.9178 580 59.45 872.284 577.052
2171 0 56.0382 12.3666 693 57.3131 872.746 573.997
2172 0 58.1516 11.8484 689 58.1713 871.914 574.668
2173 0 60.1615 12.4831 751 57.2676 871.425 572.975
2174 0 62.1382 12.3274 766 57.8198 871.668 571.112
2175 0 62.1179 12.1221 753 58.2935 871.482 570.708
2176 0 64.1126 12.3689 793 56.7024 871.752 572.414
2177 0 64.2041 12.5381 805 57.7366 872.354 570.719
2178 0 69.1797 12.1857 843 57.4947 872.329 568.764
2179 0 70.1421 12.4462 873 57.4948 871.527 568.283
2180 0 70.0819 12.5282 878 58.5342 872.276 566.798
2181 0 74.1437 12.7995 949 57.6017 872.006 566.202
2182 0 76.1534 12.2647 934 58.6221 871.812 565.299
2183 0 79.1548 12.9367 1024 57.75 871.665 565.064
2184 0 81.1073 12.6376 1025 58.5278 871.552 562.83
2185 0 84.127 12.2434 1030 59.0495 871.749 563.05
2186 0 84.1152 12.5899 1059 59.1728 871.79 561.769
2187 0 89.2849 13.3281 1190 58.7613 872.172 557.728
2188 1 46.1741 9.72408 449 60.3118 872.488 581.131
2189 0 49.0604 11.6387 571 59.2487 871.984 578.403
2190 0 51.0981 11.4877 587 59.9114 872.475 576.412
2191 0 52.0478 11.6431 606 59.1617 873.972 576.234
2192 0 56.0209 12.1026 678 58.9381 874.26 574.674
2193 0 58.0784 12.3109 715 58.358 874.585 573.196
2194 0 57.0325 12.5718 717 58.8954 873.957 572.213
2195 0 60.0227 12.362 742 59.1536 874.201 569.945
2196 0 63.0362 12.5325 790 58.8013 873.92 571.605
2197 0 64.0957 12.3565 792 59.2803 874.148 568.437
2198 0 65.0505 13.2666 863 58.6002 874.774 567.765
2199 0 67.0512 13.4375 901 58.4373 874.73 566.337
2200 0 69.075 12.4358 859 59.9581 875.022 565.064
2201 0 72.1252 13.2963 959 58.5214 875.073 563.473
2202 0 75.1197 13.3786 1005 58.5881 875.025 561.257
2203 0 77.0732 13.338 1028 59.0817 874.861 561.55
2204 0 79.0956 13.1234 1038 59.3064 875.302 560.872
2205 0 81.1514 12.9757 1053 60.1652 875.1 558.652
2206 0 83.2859 13.5317 1127 59.5253 875.483 557.626
2207 0 86.2733 13.55 1169 60.018 876.296 554.686
2208 0 91.2859 13.6713 1248 59.129 876.504 555.612
2209 0 91.2859 13.6713 1248 165.997 875.504 555.612
2210 0 97.2454 14.0675 1368 59.364 876.772 550.934
2211 1 53.1773 11.0197 586 61.785 876.154 571.57
2212 0 53.0968 10.8293 575 62.4852 876.014 571.983
2213 0 56.1136 12.3143 691 60.534 876.732 569.608
2214 0 58.1971 12.2343 712 61.1152 877.309 568.246
2215 0 61.1305 11.8108 722 61.2133 877.127 564.58
2216 0 65.3012 13.1544 859 59.3888 877.388 565.895
2217 0 64.2041 11.8372 760 61.4737 877.139 566.663
2218 0 70.064 13.5448 949 58.862 877.425 565.482
2219 0 68.1837 12.7157 867 60.6943 877.514 565.76
2220 0 72.193 13.3254 962 59.6341 877.552 563.631
2221 0 74.1328 12.5855 933 61.1233 877.853 562.26
2222 0 75.1911 12.2887 924 61.6374 877.767 561.064
2223 0 77.072 13.2733 1023 60.2805 877.928 560.296
2224 0 79.0873 13.5673 1073 60.6337 877.744 558.277
2225 0 82.203 13.3207 1095 60.2849 877.57 557.847
2226 0 85.0853 12.8929 1097 61.1896 877.965 558.203
2227 0 89.11 13.6573 1217 59.8398 877.292 554.228
2228 0 90.1117 13.4167 1209 61.6964 877.036 553.457
2229 0 96.2305 13.9249 1340 60.3157 877.214 550.228
2230 0 97.253 13.0382 1268 61.5418 877.129 549.782
2231 1 51.0482 10.4411 533 62.546 877.266 572.345
2232 0 51.0811 10.6497 544 63.1967 877.123 571.618
2233 0 55.0973 11.4888 633 61.981 877.148 571.103
2234 0 57.0753 10.9154 623 62.1268 876.189 569.457
2235 0 58.1116 12.2351 711 61.3249 877.049 567.603
2236 0 61.0428 12.1882 744 60.9839 877.901 567.507
2237 0 63.0558 12.9251 815 60.3301 877.297 565.336
2238 0 63.188 12.2175 772 61.2422 876.633 564.93
2239 0 65.0619 13.4948 878 59.5319 876.628 562.835
2240 0 70.0953 13.2106 926 60.2095 876.811 563.689
2241 0 70.2075 12.7052 892 60.3217 877.093 562.024
2242 0 74.1314 12.9905 963 59.6978 876.68 559.431
2243 0 75.2181 13.1484 989 59.726 877.804 558.594
2244 0 77.1816 13.0601 1008 60.0605 877.505 558.174
2245 0 81.1173 13.4004 1087 59.0313 876.811 558.14
2246 0 84.1314 13.5027 1136 58.2324 876.725 556.894
2247 0 87.2468 12.8486 1121 58.6512 876.973 554.649
2248 0 90.1121 12.6953 1144 59.3733 876.434 554.848
2249 0 93.1089 14.2521 1327 56.7038 876.445 552.079
2250 0 96.0885 13.831 1329 58.0196 875.691 550.682
2251 1 56.0532 10.8468 608 59.7977 875.332 571.469
2252 0 55.1336 11.4449 631 58.9255 875.502 571.732
2253 0 58.1634 9.83436 572 61.5594 875.171 569.705
2254 0 60.1008 11.6138 698 59.5544 875.761 567.36
2255 0 63.1384 12.2746 775 58.8232 875.579 567.475
2256 0 67.1145 12.4116 833 56.7635 875.809 560.222
2257 0 68.1263 13.0199 887 56.9538 875.771 561.472
2258 0 71.1998 12.2472 872 57.5356 875.593 563.13
2259 0 71.0877 13.2231 940 57.8702 875.295 563.721
2260 0 74.1473 13.136 974 58.4374 875.013 561.492
2261 0 77.1483 13.1305 1013 58.5459 875.318 562.008
2262 0 79.1141 12.6653 1002 59.2046 875.025 559.335
2263 0 83.1966 14.3756 1196 56.5677 875.164 560.589
2264 0 84.091 13.4735 1133 58.4007 875.543 558.862
2265 0 85.1792 12.8318 1093 60.2855 875.646 555.789
2266 0 89.1821 14.1733 1264 58.1788 875.745 554.946
2267 0 91.1727 13.3264 1215 59.3588 876.041 555.029
2268 0 94.0532 14.024 1319 58.6353 876.353 551.964
2269 0 97.1007 13.9855 1358 58.9102 876.075 552.169
2270 0 100.163 14.6062 1463 58.825 876.252 550.994
2271 0 104.289 13.731 1432 60.0293 875.991 547.418
2272 0 106.174 13.6945 1454 60.74 875.676 546.017
2273 0 109.123 13.6818 1493 60.8593 875.638 542.025
2274 0 113.153 13.9458 1578 60.5779 875.727 543.721
2275 1 59.1559 10.3117 610 61.8525 875.752 570.161
2276 0 61.0943 10.4592 639 62.0782 875.681 568.97
2277 0 61.1627 11.8373 724 61.663 875.25 566.072
2278 0 65.1248 12.407 808 59.3874 874.974 567.684
2279 0 67.0994 12.3399 828 61.2234 875.795 567.688
2280 0 70.0839 12.7847 896 60.4074 875.622 567.987
2281 0 68.1492 12.3552 842 62.2352 875.321 567.768
2282 0 71.1006 13.1644 936 61.0887 875.552 566.363
2283 0 71.1006 13.1644 936 167.298 876.552 566.363
2284 0 76.0805 13.42 1021 61.0754 874.763 561.935
2285 0 77.0444 12.6421 974 61.9559 874.394 561.487
2286 0 83.1346 13.6044 1131 59.855 873.642 558.004
2287 0 85.1911 13.0882 1115 60.4942 874.248 557.629
2288 0 87.2369 12.5635 1096 60.5109 873.957 559.159
2289 0 90.0959 12.7531 1149 60.5022 873.741 556.209
2290 0 90.0959 12.7864 1152 163.586 873.736 556.103
2291 0 94.1506 12.5225 1179 60.9542 873.507 552.405
2292 0 98.2373 12.8464 1262 60.08 873.776 550.341
2293 0 101.23 13.4644 1363 59.4483 873.481 548.629
2294 0 104.215 13.0212 1357 59.9764 873.847 547.799
2295 0 104.215 13.0212 1357 152.366 874.856 547.866
2296 0 110.209 12.6215 1391 59.6096 873.803 544.095
2297 1 64.2272 8.61006 553 59.792 874.078 571.367
2298 0 62.164 10.0058 622 59.1206 874.469 570.092
2299 0 67.1251 10.5475 708 57.6271 873.955 571.088
2300 0 67.077 10.4059 698 58.2937 873.93 569.322
2301 0 70.2181 11.4928 807 56.3705 873.568 568.68
2302 0 72.1512 12.1689 878 56.3041 874.131 566.315
2303 0 75.053 12.3246 925 56.2022 873.981 561.081
2304 0 77.1486 11.9121 919 56.4483 873.826 564.517
2305 0 81.2834 12.5856 1023 55.522 873.836 561.851
2306 0 82.2967 12.4792 1027 56.1431 873.537 558.988
2307 0 85.3899 12.7298 1087 56.1435 873.22 557.556
2308 0 89.3184 12.1923 1089 57.0496 873.82 557.161
2309 0 92.216 13.0888 1207 55.5982 873.396 556.829
2310 0 95.2168 12.8864 1227 56.0733 873.784 555.823
2311 0 98.3094 13.5389 1331 55.8535 874.292 551.424
2312 0 100.213 12.5333 1256 57.3025 873.737 551.417
2313 0 103.322 12.9983 1343 56.761 873.651 549.445
2314 0 109.226 14.2273 1554 54.5843 874.476 546.21
2315 0 110.209 13.8192 1523 55.5227 874.08 545.292
2316 0 114.314 12.9206 1477 56.5951 873.97 546.065
2317 0 119.199 14.1612 1688 54.8164 874.421 544.164
2318 1 62.2174 9.40252 585 56.9897 874.215 572.41
2319 0 64.1372 10.7426 689 56.5864 874.782 570.749
2320 0 68.2616 11.4559 782 55.3887 874.838 570.064
2321 0 71.2148 12.2306 871 55.1688 874.715 565.171
2322 0 73.3068 12.6046 924 55.211 874.754 564.386
2323 0 76.3541 12.4682 952 55.8004 874.682 561.824
2324 0 78.2652 13.5948 1064 54.3637 875.207 561.441
2325 0 78.193 12.2645 959 56.8624 875.781 560.558
2326 0 82.2292 12.9881 1068 56.3876 875.443 558.428
2327 0 86.2628 13.9458 1203 54.4223 876.185 557.852
2328 0 88.2238 13.2957 1173 55.8789 875.872 555.303
2329 0 90.2128 13.2243 1193 56.5323 876.122 554.069
2330 0 94.2063 14.1498 1333 55.6992 875.759 553.611
2331 0 97.2367 13.8117 1343 56.3917 876.344 552.184
2332 0 98.2559 13.3529 1312 57.8178 876.404 549.698
2333 0 100.296 13.6495 1369 57.6516 876.507 549.189
2334 0 103.322 12.9789 1341 59.1394 877.532 547.304
2335 0 106.131 13.766 1461 58.1677 877.45 544.895
2336 0 109.245 13.813 1509 58.0696 877.376 542.787
2337 0 113.162 13.6707 1547 58.4421 877.612 542.835
2338 0 117.093 13.5448 1586 58.5397 877.515 540.814
2339 0 120.293 13.5669 1632 58.8958 877.479 535.703
2340 0 124.54 14.0597 1751 58.7567 877.587 536.329
2341 1 66.3054 11.4772 761 60.498 877.449 564.167
2342 0 67.3592 12.4853 841 60.2354 877.855 563.044
2343 0 70.3506 12.7788 899 59.8354 877.544 561.674
2344 0 72.176 13.6056 982 59.3707 877.457 560.317
2345 0 74.3429 12.9131 960 60.1115 877.494 558.739
2346 0 76.3875 13.5493 1035 59.8386 877.393 559.214
2347 0 77.4216 12.6063 976 61.5482 877.428 557.838
2348 0 79.3233 12.2536 972 62.5165 877.583 554.988
2349 0 82.2288 13.0976 1077 61.3733 877.676 554.409
2350 0 84.3688 12.9787 1095 62.3717 877.711 554.096
2351 0 89.3068 13.448 1201 61.6353 877.834 550.236
2352 0 89.3919 12.7193 1137 63.2858 877.878 550.392
2353 0 93.4059 13.072 1221 63.6642 877.715 546.231
2354 0 94.3694 12.9279 1220 65.0025 877.768 547.203
2355 0 98.4241 13.7263 1351 63.758 877.69 542.939
2356 0 101.463 13.7883 1399 63.8685 877.783 541.303
2357 0 105.459 13.9201 1468 63.6751 877.742 541.505
2358 1 59.4731 12.409 738 64.6138 877.799 564.726
2359 0 62.4042 11.105 693 66.5541 877.45 562.646
2360 0 65.2491 11.9389 779 66.6624 877.544 560.275
2361 0 65.5362 12.4206 814 66.5946 877.01 559.698
2362 0 66.4268 13.2025 877 65.7047 876.772 560.428
2363 0 69.5166 13.6227 947 64.6579 876.58 558.861
2364 0 69.3138 13.6048 943 65.8218 876.618 558.354
2365 0 72.4312 13.4887 977 66.5118 876.732 556.352
2366 0 76.4152 13.0079 994 66.8229 876.7 556.255
2367 0 77.4699 13.36 1035 66.4126 876.276 556.198
2368 0 78.4203 13.8357 1085 67.0092 876.116 554.076
2369 0 83.3778 13.3129 1110 67.5099 876.369 554.364
2370 0 85.3857 14.2881 1220 66.9746 876.484 551.936
2371 0 86.4629 13.1733 1139 68.7147 876.284 551.568
2372 0 90.3058 14.3623 1297 66.9838 876.014 549.27
2373 0 92.2725 14.0345 1295 68.3375 875.777 546.248
2374 0 98.5542 14.3982 1419 67.1755 875.59 546.478
2375 0 98.3325 13.6069 1338 69.3737 875.673 544.693
2376 0 102.368 14.1744 1451 68.6837 875.406 543.447
2377 1 55.1456 11.6238 641 69.9158 875.607 568.462
2378 0 57.1829 11.3845 651 71.4163 875.77 567.14
2379 0 58.1835 11.4294 665 72.2812 875.811 566.238
2380 0 62.1162 13.3138 827 69.2926 875.686 565.462
2381 0 64.1312 12.9422 830 66.1386 875.681 564.759
2382 0 64.0796 14.3884 922 64.6226 875.572 564.158
2383 0 67.0902 14.7414 989 63.8524 876.344 564.458
2384 0 68.0533 14.1213 961 64.9157 876.119 563.619
2385 0 70.0863 14.1968 995 64.8794 876.215 562.544
2386 0 72.0957 14.1201 1018 64.7092 876.234 562.154
2387 0 73.1296 13.8658 1014 65.425 875.88 560.994
2388 0 78.1492 13.6534 1067 64.8744 875.543 558.741
2389 0 79.0481 14.1812 1121 64.4246 875.632 558.131
2390 0 82.0484 14.5768 1196 63.7207 875.733 557.792
2391 0 88.0978 14.2115 1252 63.3307 875.87 557.029
2392 0 89.1285 14.1369 1260 63.8841 875.667 554.159
2393 0 91.0854 14.3602 1308 63.6139 875.53 552.343
2394 0 95.1467 14.4829 1378 63.4405 875.419 550.378
2395 0 96.1264 14.7098 1414 63.3953 875.262 547.467
2396 0 99.1089 14.3176 1419 63.8781 875.505 548.987
2397 0 105.07 14.2857 1501 63.2045 875.253 548.654
2398 0 108.155 15.0247 1625 62.1902 875.468 545.634
2399 1 59.0343 10.8073 638 64.8793 875.133 569.92
2400 0 60.0529 12.0727 725 63.5972 874.61 569.117
2401 0 63.1639 11.7314 741 63.0162 874.637 568.977
2402 0 65.1886 12.134 791 62.0278 874.98 568.148
2403 0 67.0554 12.1243 813 61.2079 874.911 568.25
2404 0 69.1536 12.8265 887 61.1826 875.17 566.538
2405 0 72.0971 13.2876 958 61.1305 874.888 562.877
2406 0 73.1771 13.5698 993 60.5539 874.996 564.404
2407 0 75.1379 12.3373 927 62.5814 874.641 563.307
2408 0 79.0823 13.467 1065 60.7296 874.962 561.941
2409 0 81.1202 12.8821 1045 61.5895 874.981 559.116
2410 0 83.137 12.6779 1054 62.6319 874.47 556.942
2411 0 88.2377 13.9963 1235 60.353 874.607 557.128
2412 0 88.1122 13.4828 1188 61.6246 874.321 555.89
2413 0 94.0854 14.1467 1331 60.1127 874.237 554.722
2414 0 96.0808 13.5407 1301 61.5173 873.902 552.995
2415 0 99.2087 13.3355 1323 61.78 873.808 552.937
2416 0 102.152 13.2548 1354 61.8139 873.981 550.969
2417 0 107.169 13.7539 1474 60.6628 873.656 550.283
2418 0 109.103 13.6477 1489 60.7777 873.651 545.831
2419 0 113.14 13.691 1549 60.6888 873.966 544.877
2420 0 118.261 13.69 1619 60.4614 873.657 543.249
2421 1 64.0741 10.6595 683 60.6442 873.895 570.952
2422 0 66.0207 11.451 756 60.2077 874.124 569.229
2423 0 68.0327 12.5528 854 59.7506 873.919 565.802
2424 0 73.1039 12.3386 902 59.857 873.207 565.845
2425 0 75.1394 12.9892 976 58.8299 873.129 565.352
2426 0 78.0756 12.4495 972 59.9239 873.781 563.6
2427 0 80.0682 13.9631 1118 58.4079 873.945 562.469
2428 0 83.0636 13.2549 1101 59.3342 873.722 560.896
2429 0 85.1739 12.9852 1106 60.2803 873.598 559.834
2430 0 89.2128 14.1011 1258 58.0548 873.473 559.89
2431 0 90.1804 12.9851 1171 60.6294 873.529 556.46
2432 0 94.1804 13.9095 1310 59.4855 874.018 555.605
2433 0 98.2825 13.2475 1302 60.0522 873.856 553.826
2434 0 100.198 13.3236 1335 60.5154 873.696 551.249
2435 0 103.374 13.2915 1374 60.7438 873.936 551.116
2436 0 105.16 13.6269 1433 60.9672 873.782 549.384
2437 0 109.282 13.909 1520 60.9934 874.035 547.818
2438 0 113.336 14.2849 1619 60.6343 874.332 543.43
2439 0 114.288 14.0785 1609 60.9285 873.731 542.689
2440 1 66.2857 10.681 708 61.596 874.86 569.843
2441 0 69.1072 11.5618 799 60.9174 873.925 566.417
2442 0 69.1157 10.5909 732 63.459 874.291 566.928
2443 0 72.1804 12.5103 903 61.3511 873.493 566.244
2444 0 74.1958 11.2271 833 62.5918 872.725 563.466
2445 0 77.2006 12.4481 961 61.1342 873.201 561.713
2446 0 78.0699 12.7962 999 61.4755 872.887 560.522
2447 0 80.2099 12.3676 992 62.2329 872.792 560.282
2448 0 82.1275 12.4684 1024 62.7705 872.663 558.031
2449 0 85.1579 12.0247 1024 63.1221 872.835 557.713
2450 0 89.1189 12.646 1127 61.8891 872.88 556.823
2451 0 92.1416 12.9475 1193 61.7619 873.074 553.54
2452 0 95.1773 13.2595 1262 61.683 873.316 552.214
2453 0 99.1024 13.5214 1340 61.7679 873.529 549.043
2454 0 100.184 12.3772 1240 61.5444 872.978 549.291
2455 0 104.317 13.2097 1378 60.3099 873.034 546.987
2456 0 106.246 12.6687 1346 61.6813 873.878 546.959
2457 0 108.283 13.3077 1441 61.2422 874.208 544.363
2458 0 114.18 12.9532 1479 61.1447 874.437 543.692
2459 0 116.248 14.5637 1693 59.218 874.734 540.001
2460 0 120.171 12.632 1518 61.1146 874.551 537.652
2461 0 123.295 12.9364 1595 60.8671 874.867 538.359
2462 1 70.1458 11.1767 784 59.5306 875.528 565.724
2463 0 72.1884 11.2483 812 58.7783 875.651 565.661
2464 0 73.3172 11.4161 837 58.9916 875.847 562.545
2465 0 74.1582 11.6103 861 59.115 875.732 562.105
2466 0 78.1828 12.637 988 58.1245 876.258 558.465
2467 0 79.1207 12.0575 954 58.7086 876.716 559.783
2468 0 82.1472 12.9767 1066 58.379 877.371 558.429
2469 0 84.1497 12.5847 1059 58.9046 876.547 555.218
2470 0 86.1839 13.0883 1128 59.008 877.174 552.48
2471 0 90.0694 13.2564 1194 58.17 877.389 552.169
2472 0 93.1615 12.9345 1205 58.6415 878.302 549.823
2473 0 95.1585 12.9994 1237 58.7009 878.5 551.405
2474 0 99.1019 13.471 1335 58.5071 878.804 548.644
2475 0 104.106 14.0338 1461 57.2813 878.283 546.685
2476 0 105.108 13.2626 1394 58.9247 878.399 544.872
2477 0 108.226 13.8783 1502 58.3635 878.802 542.885
2478 0 110.209 14.1004 1554 58.2864 878.63 541.423
2479 0 113.07 13.779 1558 58.5854 878.487 539.037
2480 0 119.17 14.1395 1685 57.8528 878.083 539.554
2481 0 121.164 13.4363 1628 59.4109 878.166 536.409
2482 0 123.217 13.0015 1602 60.3377 878.201 532.962
2483 0 130.156 15.2356 1983 57.1715 878.256 532.4
2484 1 75.0761 10.3495 777 60.2857 878.61 559.402
2485 0 77.0297 10.5284 811 59.91 878.716 558.941
2486 0 80.186 11.4733 920 59.2446 878.81 557.488
2487 0 82.1098 12.0205 987 58.9179 878.704 555.332
2488 0 85.0502 13.2628 1128 57.8014 878.248 554.773
2489 0 87.1887 12.5131 1091 59.1989 877.709 550.888
2490 0 90.1511 12.8118 1155 57.5558 877.79 551.156
2491 0 95.2182 13.3588 1272 57.0975 877.512 548.626
2492 0 98.1081 13.5972 1334 56.6582 877.69 546.407
2493 0 98.0607 12.2577 1202 59.0749 877.64 546.157
2494 0 103.121 13.0042 1341 57.6465 877.403 544.868
2495 0 106.105 13.515 1434 56.9086 877.521 543.861
2496 0 109.189 13.4172 1465 57.3085 877.149 542.425
2497 0 112.164 12.8205 1438 58.0591 877.079 539.588
2498 1 66.0868 9.6691 639 57.8013 877.336 565.577
2499 0 67.1382 12.02 807 56.3742 876.777 562.509
2500 0 70.199 11.7808 827 56.1536 877.213 560.672
2501 0 71.129 12.6812 902 55.3714 876.706 560.631
2502 0 73.1419 12.9885 950 55.3768 877.246 561.487
2503 0 73.0798 12.028 879 57.124 876.949 559.287
2504 0 75.1732 12.8902 969 55.9432 876.713 559.805
2505 0 78.149 13.0136 1017 55.9508 877.088 557.071
2506 0 81.2048 12.9426 1051 55.5357 877.171 557.9
2507 0 83.076 13.3492 1109 55.3517 876.578 555.966
2508 0 83.076 13.3252 1107 163.874 876.578 555.973
2509 0 87.2142 13.0139 1135 56.3577 876.431 553.893
2510 0 90.2152 12.6143 1138 57.4657 876.659 551.272
2511 0 92.1322 12.7968 1179 57.1824 876.941 550.344
2512 0 96.1148 13.0885 1258 57.0644 876.471 549.678
2513 0 98.3603 13.3082 1309 57.262 876.29 548.262
2514 0 103.261 14.3714 1484 55.7796 876.238 547.298
2515 0 106.194 14.012 1488 56.3978 876.528 544.828
2516 0 107.166 13.0452 1398 58.3927 876.069 542.882
2517 0 112.241 13.8363 1553 56.6871 875.486 543.801
2518 0 115.171 14.8214 1707 55.4394 875.954 541.024
2519 0 118.164 13.5997 1607 57.0697 875.892 539.19
2520 0 121.167 13.5185 1638 57.0256 876.154 539.689
2521 0 125.359 13.4892 1691 56.89 875.682 535.308
2522 1 74.1324 11.6144 861 55.8839 875.967 564.789
2523 0 72.0842 10.6542 768 57.2656 876.079 566.043
2524 0 72.1196 11.8414 854 56.7904 876.55 564.577
2525 0 76.1622 12.0007 914 56.4825 875.891 561.62
2526 0 77.1742 13.3205 1028 55.2228 875.521 560.245
2527 0 79.2665 12.275 973 56.3638 875.342 559.778
2528 0 81.338 12.6878 1032 55.8711 875.602 556.816
2529 0 86.413 13.285 1148 54.9268 875.888 554.355
2530 0 88.3785 13.8043 1220 54.3951 875.228 552.957
2531 0 90.2782 13.4916 1218 54.6544 875.424 550.662
2532 0 92.1921 13.2441 1221 55.5635 875.147 548.8
2533 0 96.2523 12.727 1225 55.8098 875.287 548.447
2534 0 97.3632 13.8656 1350 55.3348 875.871 546.434
2535 0 100.266 14.3518 1439 54.9527 875.639 544.642
2536 0 102.2 13.2681 1356 56.542 875.185 543.059
2537 0 107.386 14.052 1509 55.6759 875.685 542.556
2538 0 108.246 12.795 1385 58.569 875.589 541.396
2539 0 112.332 13.2731 1491 58.1744 875.245 541.001
2540 0 116.438 14.1363 1646 56.7284 875.216 540.943
2541 0 118.366 13.906 1646 58.1282 874.59 537.717
2542 1 70.1698 10.9876 771 57.939 874.665 564.134
2543 0 70.1478 10.4636 734 58.2357 873.933 564.715
2544 0 72.2434 11.1429 805 58.846 874.19 562.824
2545 0 74.1512 12.0699 895 58.6547 873.943 560.622
2546 0 77.2139 12.6143 974 57.8337 874.43 558.421
2547 0 78.1463 12.6046 985 57.7371 874.659 559.88
2548 0 81.2814 12.3891 1007 58.1132 873.967 560.027
2549 0 82.2034 12.907 1061 58.738 874.045 555.734
2550 0 87.202 13.6694 1192 56.8138 873.934 556.404
2551 0 89.1581 13.3134 1187 58.2873 874.238 553.714
2552 0 92.3145 13.5948 1255 57.9697 873.995 552.691
2553 0 97.2984 14.2037 1382 56.8777 874.192 549.887
2554 0 99.2142 12.1354 1204 59.7367 874.134 549.074
2555 0 102.386 13.9179 1425 57.5298 874.106 550.036
2556 0 104.366 13.9701 1458 58.1413 873.996 547.403
2557 0 106.498 13.1739 1403 59.3186 873.635 545.214
2558 0 110.22 13.7724 1518 58.776 873.93 543.057
2559 0 114.271 13.5292 1546 59.0556 873.834 541.46
2560 0 116.483 13.7617 1603 58.9595 873.735 540.538
2561 0 119.384 13.8544 1654 59.3773 874.025 539.005
2562 1 70.2223 10.5807 743 59.3526 873.786 566.604
2563 0 72.1752 11.5691 835 58.8012 873.847 565.559
2564 0 74.3138 12.7971 951 59.1777 873.979 561.166
2565 0 76.3914 12.3312 942 59.4448 874.151 561.644
2566 0 79.4303 13.1184 1042 59.7332 873.999 562.789
2567 0 80.2994 12.6651 1017 61.3707 873.554 559.599
2568 0 82.2986 13.05 1074 61.1425 873.677 558.888
2569 0 84.3356 12.1657 1026 62.2895 874.172 559.313
2570 0 86.2808 13.2938 1147 61.2842 873.614 558.425
2571 0 90.4603 12.7349 1152 61.5894 873.441 556.065
2572 0 93.3265 12.6759 1183 61.8571 873.367 553.392
2573 0 96.3308 13.817 1331 60.4298 873.329 552.938
2574 0 98.4741 13.0491 1285 61.6732 873.572 551.43
2575 0 103.441 14.617 1512 59.1356 873.437 550.651
2576 0 104.256 12.5076 1304 61.5544 873.1 547.506
2577 0 107.255 13.5285 1451 60.2984 872.642 544.733
2578 0 112.401 13.9233 1565 59.4141 872.772 545.19
2579 0 115.274 12.787 1474 60.4559 872.9 542.143
2580 1 65.1488 9.86972 643 59.8134 872.467 568.862
2581 0 65.3613 10.9698 717 59.7071 872.674 566.372
2582 0 69.2437 10.7447 744 58.5605 872.801 566.202
2583 0 71.2024 11.5024 819 57.2015 873.012 564.828
2584 0 73.2257 10.9251 800 57.9712 872.769 563.689
2585 0 76.1399 11.295 860 57.3023 872.517 564.767
2586 0 76.2368 12.671 966 56.3665 872.881 559.988
2587 0 79.2133 11.8793 941 57.4102 873.045 557.128
2588 0 81.3309 12.6274 1027 56.4878 873.021 555.833
2589 0 83.3108 12.5554 1046 56.5335 873.067 557.595
2590 0 87.3805 12.8061 1119 56.2332 873.409 555.419
2591 0 88.3737 13.1148 1159 56.4711 873.468 552.36
2592 0 92.4596 12.7948 1183 56.6872 873.495 550.211
2593 0 93.2052 12.5851 1173 57.214 873.517 550.87
2594 0 99.3928 12.8078 1273 56.4698 873.951 549.026
2595 0 100.286 13.5014 1354 56.2171 873.903 548.293
2596 0 104.265 12.8998 1345 57.0959 874.104 547.784
2597 0 105.554 12.6475 1335 58.2757 874.333 544.482
2598 0 109.122 13.4529 1468 57.3937 874.535 545.125
2599 0 112.25 13.461 1511 57.4507 874.936 542.89
2600 0 117.329 13.9778 1640 57.0896 875.129 541.015
2601 1 62.0842 10.5341 654 58.7523 875.076 565.446
2602 0 67.1155 12.2475 822 56.2676 875.262 565.484
2603 0 69.1971 11.3155 783 57.9502 875.022 564.86
2604 0 69.2114 12.0356 833 58.3986 875.407 564.535
2605 0 72.1636 14.5087 1047 55.6094 875.491 563.127
2606 0 72.2265 12.71 918 58.2462 875.682 561.917
2607 0 74.0954 12.5649 931 58.4436 875.666 562.742
2608 0 77.1488 13.4156 1035 57.4367 876.004 561.142
2609 0 81.0807 13.0364 1057 58.2923 876.379 559.425
2610 0 81.1224 13.042 1058 59.0331 876.35 556.667
2611 0 85.1591 13.1753 1122 58.9314 876.585 556.398
2612 0 89.2443 13.3902 1195 58.7172 876.54 553.803
2614 0 90.178 13.5177 1219 58.9327 876.88 552.618
2615 0 93.1599 13.6432 1271 58.9457 877.119 552.508
2616 0 96.0666 12.4809 1199 60.2802 877.745 551.951
2617 0 98.2477 12.7942 1257 60.638 877.345 547.936
2618 0 102.207 13.9129 1422 58.9269 877.809 546.222
2619 0 104.074 13.3558 1390 60.0007 877.785 544.451
2620 0 113.119 13.3577 1511 59.9246 878.017 540.985
2621 1 65.1064 10.8438 706 60.1501 877.904 563.273
2622 0 69.0593 11.9318 824 58.4575 877.721 563.534
2623 0 70.0762 12.3152 863 57.6802 878.036 564.027
2624 0 72.1373 13.1277 947 58.038 878.035 560.362
2625 0 73.3 12.9195 947 58.2946 878.165 560.507
2626 0 77.2834 12.5642 971 58.3409 877.519 558.633
2627 0 79.1351 13.1421 1040 57.126 877.44 557.501
2628 0 82.1282 13.0284 1070 57.4421 877.282 556.659
2629 0 84.4414 13.2755 1121 57.2748 877.351 554.446
2630 0 88.4057 13.4041 1185 56.7603 877.557 553.522
2631 0 91.3285 13.8182 1262 56.1894 877.423 551.914
2632 0 93.4763 13.7361 1284 56.5763 877.333 550.261
2633 0 95.5135 13.0139 1243 57.5986 877.245 549.137
2634 0 101.347 13.3897 1357 56.6389 877.265 548.4
2635 0 102.399 14.1408 1448 56.2693 877.629 544.16
2636 0 104.318 13.4397 1402 57.495 877.726 541.949
2637 0 109.567 14.0736 1542 56.4261 877.39 543.601
2638 1 61.4839 10.393 639 57.5493 877.089 565.919
2639 0 64.4287 11.1131 716 56.7528 877.123 564.722
2640 0 66.4976 12.602 838 55.3067 876.971 562.735
2641 0 68.3362 12.7019 868 55.4942 877.024 562.346
2642 0 70.2145 13.829 971 54.3471 876.925 562.36
2643 0 72.1612 13.2481 956 54.9697 876.97 560.596
2644 0 73.4124 13.1722 967 55.6711 877.061 559.29
2645 0 75.2138 13.322 1002 55.4361 876.501 557.846
2646 0 78.3005 13.2694 1039 55.5486 876.496 557.782
2647 0 80.2999 13.1009 1052 55.7405 876.419 556.64
2648 0 82.4429 12.8938 1063 56.2389 876.344 555.457
2649 0 83.3788 13.6006 1134 54.1764 876.106 554.243
2650 0 88.36 13.1281 1160 54.3069 876.63 553.301
2651 0 89.2882 14.1676 1265 54.0261 876.424 549.713
2652 0 93.3523 12.7474 1190 55.8134 876.177 549.887
2653 0 96.3618 13.688 1319 55.3487 875.754 549.405
2654 0 97.4652 13.4715 1313 56.15 875.58 547.012
2655 0 100.399 13.6257 1368 56.2968 875.701 546.36
2656 0 106.481 15.3079 1630 53.9718 876.194 547.562
2657 0 109.47 14.0769 1541 56.0273 876.019 543.544
2658 0 112.524 14.1215 1589 56.3254 875.808 540.845
2659 0 116.68 14.3127 1670 56.1946 875.863 540.873
2660 0 120.592 15.2332 1837 55.6973 876.089 537.94
2661 0 122.709 14.9297 1832 56.4427 876.041 534.92
2662 0 127.358 13.521 1722 58.1574 875.823 532.013
2663 0 130.559 14.0702 1837 57.8198 875.879 529.495
2664 1 74.3562 11.0952 825 57.737 876.361 561.85
2665 0 74.3626 11.4036 848 58.3467 876.29 558.745
2666 0 79.2544 13.0087 1031 55.3754 876.104 558.628
2667 0 82.3615 13.3922 1103 55.5186 876.11 559.156
2668 0 82.3493 12.8234 1056 56.7443 876.173 556.491
2669 0 83.4644 12.8917 1076 57.553 876.127 553.813
2670 0 86.4505 13.3487 1154 57.24 876.396 553.451
2671 0 89.641 13.476 1208 57.3328 876.592 550.823
2672 0 91.5888 13.0365 1194 57.474 876.199 551.125
2673 0 95.4986 13.1625 1257 57.5489 876.328 549.419
2674 0 98.6408 13.0372 1286 57.797 876.497 548.042
2675 0 99.3199 13.3105 1322 58.1914 876.016 547.045
2676 0 103.328 13.3943 1384 57.5882 875.916 544.519
2677 0 106.288 13.661 1452 57.668 876.416 543.568
2678 0 110.384 13.9241 1537 57.892 876.395 542.552
2679 0 113.277 13.5332 1533 58.4031 876.275 540.361
2680 0 116.328 13.9605 1624 57.6792 876.05 539.166
2681 1 65.2966 10.996 718 58.4373 876.288 566.475
2682 0 65.0952 10.7074 697 59.5854 876.7 566.307
2683 0 69.0359 12.0083 829 58.0036 876.355 565.39
2684 0 70.1279 12.9478 908 57.5683 876.188 564.997
2685 0 71.2057 12.3024 876 59.1484 875.344 562.946
2686 0 74.2028 13.2071 980 57.9622 875.399 563.889
2687 0 77.139 14.0785 1086 56.6308 875.21 561.696
2688 0 78.1132 13.122 1025 58.2302 874.694 559.53
2689 0 81.1308 13.3981 1087 58.1527 874.559 558.758
2690 0 84.1396 13.6678 1150 57.607 874.339 557.549
2691 0 87.1536 13.1836 1149 58.3238 874.532 555.568
2692 0 90.1864 12.9288 1166 58.4545 874.662 554.56
2693 0 92.1613 13.3136 1227 58.4833 874.301 554.1
2694 0 96.1683 13.4556 1294 58.5448 874.201 551.698
2695 0 98.2022 13.6962 1345 58.1175 874.836 551.332
2696 0 100.199 14.2517 1428 57.8564 874.553 551.723
2697 0 101.108 13.5498 1370 59.6869 874.313 547.391
2698 0 106.148 14.0936 1496 58.8389 874.05 547.601
2699 0 109.285 14.1648 1548 59.1932 873.89 544.896
2700 0 112.198 13.9663 1567 59.6682 874.17 545.451
2701 0 116.323 13.9783 1626 59.7153 874.091 542.79
2702 0 120.218 14.3822 1729 59.354 874.05 540.112
2703 0 121.125 14.1425 1713 59.958 874.222 539.123
2704 0 126.293 13.8804 1753 60.1643 874.553 538.762
2705 0 129.327 14.8925 1926 59.2923 874.309 535.197
2706 0 134.158 14.2072 1906 60.2497 873.897 532.815
2707 0 139.208 14.6615 2041 59.4189 873.99 531.055
2708 0 143.285 14.4816 2075 60.1933 874.079 528.58
2709 0 147.284 14.876 2191 59.6864 873.565 524.849
2710 1 81.2381 11.3617 923 61.0542 873.692 562.224
2711 0 83.0883 12.0595 1002 59.7535 873.866 562.176
2712 0 85.1528 12.3308 1050 59.9933 873.69 558.655
2713 0 89.1871 13.1633 1174 58.1405 872.899 557.74
2714 0 91.1483 13.0995 1194 59.0117 872.848 555.938
2715 0 93.3131 13.0743 1220 59.3139 873.026 554.17
2716 0 98.1749 13.9241 1367 57.049 873.294 552.704
2717 0 100.141 13.6607 1368 57.2917 873.663 552.164
2718 0 104.29 13.7214 1431 56.9119 873.631 547.629
2719 0 105.288 13.3918 1410 57.6553 873.897 549.189
2720 0 108.139 12.9 1395 58.3376 873.773 544.843
2721 0 112.182 12.872 1444 58.2909 873.979 542.999
2722 0 114.288 14.1397 1616 57.0489 874.28 542.261
2723 0 119.241 13.5189 1612 57.6842 873.876 539.712
2724 0 122.245 12.7367 1557 58.1927 874.249 539.432
2725 0 127.201 13.9229 1771 56.4026 873.939 535.947
2726 0 129.204 13.0105 1681 57.7656 874.059 532.289
2727 0 133.166 13.5621 1806 57.1733 874.014 531.497
2728 0 139.298 13.9127 1938 56.822 874.347 529.625
2729 0 144.222 13.5555 1955 56.9345 874.654 527.288
2730 1 82.2303 10.9692 902 57.5366 874.601 562.381
2731 0 83.166 11.3748 946 57.9461 874.463 560.98
