time division length width area intensity CMx CMy
0 0 75.2439 13.3699 1006 82.0388 561.505 578.951
1 1 40.1667 11.1784 449 80.4655 561.835 595.481
2 0 41.1525 10.4003 428 82.771 561.96 595.068
3 0 43.1331 10.8269 467 83.1135 561.927 593.902
4 0 44.1111 11.3124 499 83.1523 561.395 591.575
5 0 47.2974 11.692 553 81.2857 561.154 591.801
6 0 47.2078 11.227 530 82.6132 561.226 591.243
7 0 48.1926 12.3255 594 81.0673 561.646 591.433
8 0 49.1705 11.5516 568 84.5493 561.96 590.171
9 0 51.1288 12.1654 622 84.4598 561.889 588.633
10 0 51.1778 11.8606 607 86.4465 561.353 588.076
11 0 54.1131 12.4184 672 85.128 560.863 586.741
12 0 55.0889 12.4889 688 85.2384 561.286 586.032
13 0 56.0873 12.3022 690 85.7478 561.507 585.149
14 0 59.1645 12.4568 737 84.905 561.02 583.681
15 0 61.1453 12.1514 743 84.2503 561.217 582.428
16 0 64.2128 12.879 827 82.48 561.212 580.908
17 0 65.0941 12.7661 831 82.3057 561.053 581.11
18 0 67.1196 12.9023 866 82.4942 561.07 579.794
19 0 70.1468 13.0013 912 82.0899 561.231 577.5
20 0 72.1222 12.6452 912 82.5811 561.527 577.367
21 0 75.194 13.5782 1021 80.8012 561.33 575.805
22 0 77.169 13.3344 1029 81.3829 561.038 574.911
23 0 80.2255 12.951 1039 81.4726 561.614 575.041
24 1 45.128 10.5035 474 82.2025 562.131 591.308
25 0 44.1701 10.7539 475 81.819 562.152 591.958
26 0 47.1066 10.4869 494 81.8583 562.099 589.792
27 0 49.1404 11.0703 544 107.369 562.349 588.421
28 0 52.2212 11.8726 620 79.2436 561.919 588.326
29 0 53.1004 12.8436 682 79.0455 562.088 586.249
30 0 55.1812 12.1962 673 80.3923 562.325 586.495
31 0 57.184 12.5385 717 78.9986 562.388 586.183
32 0 58.1365 12.3158 716 79.6034 562.466 585
33 0 59.116 12.4839 738 79.3157 562.278 586.244
34 0 61.2262 13.0336 798 77.8734 562.831 585.16
35 0 64.0906 12.4199 796 78.7726 562.612 582.06
36 0 68.1901 13.5797 926 75.7765 562.475 581.625
37 0 68.1067 12.9356 881 77.7684 562.596 582.166
38 0 70.1374 13.0173 913 77.586 562.357 579.738
39 0 73.0994 13.2696 970 76.7309 562.444 578.135
40 0 76.2632 13.4665 1027 75.7566 562.561 577.008
41 0 78.1972 12.7626 998 77.3056 562.286 577.658
42 0 80.2779 13.5654 1089 76.2828 561.717 574.384
43 0 83.1992 13.4857 1122 76.3841 562.156 573.669
44 1 42.2096 10.3768 438 79.1964 562.701 594.235
45 0 42.2321 11.0342 466 79.2833 562.472 591.897
46 0 45.1742 11.4667 518 78.0405 562.627 591.28
47 0 45.2789 12.3015 557 77.3447 562.727 590.693
48 0 47.1564 12.5328 591 77.8782 562.469 589.1
49 0 49.2134 12.7201 626 77.3195 562.532 588.034
50 0 49.246 12.7726 629 77.4308 562.94 588.626
51 0 51.1591 12.8227 656 77.471 563.306 586.761
52 0 53.2939 13.5663 723 76.0927 563.169 585.349
53 0 53.2473 13.4279 715 76.5259 562.75 585.341
54 0 57.1881 13.3769 765 68.285 562.881 583.767
55 0 57.2537 13.3441 764 69.1767 562.914 584.787
56 0 59.2476 13.0132 771 69.0869 563.466 583.76
57 0 60.233 13.6636 823 69.1446 563.397 581.659
58 0 62.1561 13.3052 827 69.6215 563.019 581.053
59 0 66.3161 13.3301 884 68.5769 563.471 580.82
60 0 67.1642 13.2958 893 68.5957 563.496 580.353
61 0 71.3686 13.7595 982 68.0896 563.789 578.911
62 0 74.2915 13.9989 1040 67.4596 563.565 578.385
63 0 74.1817 13.7231 1018 68.5982 563.188 576.07
64 0 79.4616 13.6166 1082 67.683 563.584 573.946
65 0 83.3688 13.5062 1126 67.3419 563.748 571.641
66 0 84.188 13.4105 1129 67.5208 563.61 569.024
67 1 44.3057 11.2852 500 67.034 563.786 589.318
68 0 46.1392 11.3569 524 66.7786 563.977 588.282
69 0 48.1266 11.4282 550 66.6909 563.702 587.885
70 0 48.326 11.6501 563 66.4654 563.641 586.503
71 0 50.2677 11.7968 593 65.8482 564.017 585.752
72 0 52.4162 12.229 641 65.5741 564.317 583.587
73 0 54.359 12.4175 675 64.6667 564.987 583.339
74 0 56.2467 12.623 710 64.8521 564.787 580.882
75 0 57.1601 12.5087 715 65.3161 565.236 579.572
76 0 61.5225 12.7758 786 64.5522 565.257 577.851
77 0 62.2681 12.0286 749 65.8198 564.872 577.728
78 0 64.4394 12.2906 792 65.5164 564.759 577.664
79 0 68.2594 12.6576 864 64.9734 565.557 575.044
80 0 68.5206 12.3904 849 66.192 565.397 573.43
81 0 72.3625 12.3268 892 66.0673 565.963 570.7
82 0 74.3075 12.704 944 65.9354 566.453 570.051
83 0 77.2586 12.5423 969 66.2332 566.353 569.31
84 1 42.2011 10.6395 449 65.3274 567.27 588.245
85 0 43.1332 11.4065 492 65.5894 567.715 586.348
86 0 43.289 10.8573 470 66.0553 567.366 586.115
87 0 45.1705 11.6226 525 65.2648 567.752 583.952
88 0 48.3221 11.8993 575 64.5426 567.473 583.407
89 0 48.2282 11.8395 571 65.9124 567.601 581.972
90 0 49.3607 12.0744 596 66.4446 568.472 582.005
91 0 52.2732 12.3199 644 66.1941 568.776 580.21
92 0 54.1151 12.4365 673 67.7608 569.703 577.517
93 0 52.1557 12.2709 640 69.7234 569.445 574.914
94 0 55.2635 12.8295 709 67.897 569.597 576.499
95 0 58.2297 12.5709 732 67.3279 569.693 575.115
96 0 59.1616 12.5757 744 66.6734 569.622 574.04
97 0 62.2655 13.2979 828 64.8804 569.601 572.61
98 0 62.2655 13.2818 827 154.862 569.603 572.574
99 0 65.342 12.7942 836 64.7129 568.823 570.2
100 0 68.3438 12.3201 842 65.1865 568.786 569.486
101 0 68.3767 13.0892 895 65.4458 569.305 568.241
102 0 71.2676 13.3721 953 66.1616 568.912 567.294
103 0 74.3022 13.4989 1003 66.676 568.962 564.44
104 0 76.3701 12.793 977 68.4012 569.309 562.668
105 0 77.5009 12.4257 963 68.9844 569.07 561.253
106 0 82.4383 13.1492 1084 67.0563 569.713 561.639
107 1 41.254 9.18699 379 68.8443 570.095 583.301
108 0 43.2815 10.7436 465 67.643 570.125 581.628
109 0 45.2749 10.2264 463 67.8618 569.756 580.724
110 0 47.1509 11.5374 544 67.1029 569.608 579.243
111 0 48.2527 11.3362 547 67.4735 569.108 579.006
112 0 50.2878 11.9313 600 66.15 569.443 576.135
113 0 51.286 12.713 652 65.1396 569.014 577.063
114 0 54.2297 12.4286 674 64.7938 568.956 575.751
115 0 54.2537 12.4784 677 64.5214 569.331 576.084
116 0 55.2788 11.9395 660 66.0788 568.608 573.6
117 0 56.1991 13.292 747 64.822 568.511 572.033
118 0 60.1866 13.3418 803 64.1395 568.492 573.955
119 0 61.1595 13.3912 819 64.5873 568.15 573.451
120 0 62.2541 12.8987 803 65.8232 568.762 571.022
121 0 63.169 13.171 832 65.7476 568.853 571.176
122 0 65.1426 13.7237 894 64.453 568.905 570.126
123 0 66.2291 12.8644 852 66.5869 568.939 568.98
124 0 68.2644 13.9018 949 65.1718 568.458 568.063
125 0 69.1678 13.3733 925 66.3092 568.298 566.982
126 0 71.1379 13.1857 938 66.9222 567.655 566.611
127 0 74.2521 13.3599 992 67.0504 567.462 565.776
128 0 76.2062 13.2273 1008 68.2123 567.511 563.775
129 0 77.2356 13.2581 1024 69.0137 567.21 562.763
130 0 80.2001 13.6658 1096 68.396 567.312 562.142
131 0 83.2754 13.2212 1101 69.5876 567.254 561.548
132 0 87.208 13.6341 1189 69.1674 567.368 560.732
133 0 88.2772 13.8314 1221 69.7559 566.944 558.545
134 0 90.2493 13.8062 1246 70.2777 567 558.132
135 0 90.2493 13.8062 1246 162.949 567.988 558.151
136 1 48.1703 11.314 545 71.5963 567.618 578.116
137 0 52.1916 10.9213 570 71.2333 567.816 578.675
138 0 54.1977 12.1592 659 69.7678 567.692 576.851
139 0 54.2048 12.6188 684 70.1096 566.782 576.411
140 0 57.2175 13.038 746 69.2614 567.182 576.113
141 0 59.2294 12.4263 736 70.1128 567.039 574.137
142 0 60.1722 12.6138 759 70.1858 566.71 573.569
143 0 63.1888 13.4676 851 68.6263 566.578 571.942
144 0 65.2084 12.5751 820 69.8415 566.262 571.206
145 0 69.2769 13.1357 910 68.7736 566.068 570.153
146 0 69.2202 13.1176 908 69.7412 565.903 569.032
147 0 72.2671 12.9243 934 70.0846 565.737 568.421
148 0 74.292 13.0027 966 70.0435 565.428 567.711
149 0 76.2237 13.4341 1024 69.9629 565.438 565.016
150 0 79.2744 13.0055 1031 71.1261 565.389 564.279
151 0 83.2987 13.1695 1097 70.6855 565.793 562.54
152 1 42.311 10.4701 443 69.4898 566.025 584.041
153 0 42.3096 10.0686 426 71.1127 565.566 584.045
154 0 43.2876 11.3427 491 69.5703 565.607 581.776
155 0 47.2185 12.1563 574 68.169 565.537 579.967
156 0 47.216 11.7545 555 69.0522 565.638 580.667
157 0 50.219 12.3858 622 67.8232 565.773 578.968
158 0 51.2106 12.224 626 67.9297 565.68 578.826
159 0 53.1214 11.8973 632 68.0016 565.829 577.215
160 0 53.229 12.6247 672 67.1443 565.312 577.655
161 0 55.2035 12.2094 674 67.4154 565.364 576.101
162 0 56.1574 12.2869 690 67.513 565.497 575.57
163 0 57.2266 11.9699 685 68.1124 565.114 574.918
164 0 60.3774 12.7697 771 66.8716 565.525 573.003
165 0 63.2617 13.0094 823 66.2029 565.492 571.628
166 0 63.3964 13.2184 838 66.5609 565.529 571.075
167 0 66.4821 12.3492 821 67.2887 565.79 570.493
168 0 70.2509 13.5941 955 65.1654 566.261 570.582
169 0 70.3406 12.8944 907 66.7211 566.654 568.642
170 0 75.189 13.353 1004 65.5996 566.602 566.868
171 0 77.2476 13.6833 1057 64.824 566.745 565.871
172 0 79.2496 13.59 1077 65.1681 566.886 564.135
173 0 81.2511 12.8121 1041 66.316 567.431 563.964
174 1 44.1402 10.7612 475 65.621 567.661 581.75
175 0 46.212 10.6033 490 66.0184 568.069 581.298
176 0 45.2088 10.4183 471 67.4055 568.138 580.938
177 0 49.2158 11.8864 585 65.2684 568.342 578.62
178 0 51.1762 12.5253 641 64.5491 568.1 578.242
179 0 52.1869 12.1103 632 66.1851 568.106 577.226
180 0 54.1696 12.2393 663 66.4178 568.944 576.021
181 0 56.2184 13.2697 746 65.5013 568.694 573.847
182 0 57.3332 12.75 731 65.9713 569.218 574.899
183 0 59.2908 12.8519 762 65.9475 569.606 573.285
184 0 60.2071 12.54 755 66.8013 569.589 572.901
185 0 62.1942 13.1684 819 65.5336 569.816 571.541
186 0 62.3689 13.324 831 65.9832 570.438 570.286
187 0 67.2289 13.3722 899 64.5684 570.332 569.002
188 0 66.2746 13.0819 867 66.2111 570.449 568.459
189 0 71.2057 13.8613 987 63.8956 570.429 566.562
190 0 72.2694 13.5327 978 64.8487 570.554 564.535
191 0 73.2182 13.4256 983 65.3622 570.792 565.3
192 0 76.4632 13.3136 1018 64.946 570.9 563.344
193 0 79.3683 12.5491 996 65.5643 571.333 561.122
194 0 84.2373 13.5213 1139 61.5865 571.016 561.424
195 0 84.4215 13.0654 1103 62.5168 571.31 558.064
196 0 89.4818 13.3882 1198 61.1978 570.865 556.651
197 0 92.4376 12.3326 1140 63.064 570.868 557.084
198 0 97.5352 13.5028 1317 62.9962 571.176 554.504
199 1 46.4566 10.8919 506 64.1779 571.324 579.632
200 0 47.35 9.44033 447 66.7338 572.219 578.908
201 0 49.2082 11.3802 560 65.6714 572.361 576.607
202 0 50.2382 11.4654 576 64.9097 572.675 576.444
203 0 52.1109 12.4926 651 62.8894 572.35 574.7
204 0 52.2451 11.7906 616 64.8101 571.367 575.451
205 0 54.3032 11.8593 644 64.6553 571.427 573.845
206 0 56.3066 12.6095 710 64.1183 571.649 572.644
207 0 58.1694 12.2573 713 64.7756 571.6 571.732
208 0 60.342 11.6006 700 65.1414 572.383 571.686
209 0 63.2944 12.5446 794 63.9295 571.846 569.865
210 0 64.1254 13.6763 877 63.0342 572.026 567.783
211 0 64.2054 11.946 767 65.7771 571.784 567.934
212 0 67.129 12.4089 833 65.3553 571.688 566.899
213 0 69.2381 12.9264 895 64.9318 571.426 566.123
214 0 72.2094 12.81 925 64.9903 571.849 565.311
215 0 75.3044 12.8678 969 64.8246 571.813 565.866
216 0 76.1652 12.4729 950 65.5842 572.032 564.26
217 0 79.1996 12.74 1009 65.6264 570.965 560.412
218 0 80.117 12.4443 997 66.5316 571.299 559.43
219 0 82.2615 12.3873 1019 66.208 571.008 560.279
220 0 85.1912 12.8534 1095 66.1498 570.717 557.24
221 0 86.1425 12.2936 1059 66.9075 570.665 557.988
222 0 91.1995 13.3882 1221 65.3882 570.511 555.301
223 1 53.0784 10.2113 542 66.048 571.28 575.184
224 0 55.1685 10.8576 599 64.9933 571.112 575.599
225 0 57.0446 11.3771 649 64.9245 570.695 573.863
226 0 58.0469 11.9559 694 64.4683 570.987 572.63
227 0 60.1956 12.775 769 62.6905 570.48 572.094
228 0 60.2528 12.2982 741 64.3198 569.66 572.486
229 0 63.1911 12.5018 790 63.6987 569.319 569.992
230 0 64.2262 12.8297 824 63.517 569.478 570.262
231 0 66.2668 13.0684 866 62.8764 569.199 569.522
232 0 68.2941 12.0069 820 64.7902 569.271 568.467
233 0 73.1787 13.7608 1007 61.8451 569.293 567.195
234 0 74.2932 13.2314 983 63.6256 567.997 565.321
235 0 74.2738 13.0733 971 64.0752 568.451 563.739
236 0 79.4128 14.2672 1133 61.8482 568.728 562.69
237 0 80.3001 13.4122 1077 63.6713 567.96 562.266
238 0 83.4918 13.0552 1090 64.5 568.006 560.85
239 0 86.4772 13.2174 1143 64.2406 568.167 559.089
240 1 46.2348 10.5764 489 64.7771 569.031 580.857
241 0 49.2118 11.7451 578 63.5277 568.846 579.334
242 0 50.1823 11.0597 555 65.0595 568.44 579.784
243 0 53.1137 13.1793 700 62.6786 568.419 578.51
244 0 54.2423 12.1492 659 64.5372 567.794 578.143
245 0 54.1572 12.8884 698 64.4957 568.011 577.552
246 0 57.1184 13.1656 752 64.2207 567.779 576.137
247 0 60.3221 12.7648 770 64.1351 568.074 575.822
248 0 59.1719 12.151 719 66.2462 568.391 575.277
249 0 62.2382 13.1591 819 64.5946 567.614 575.788
250 0 63.1616 13.1726 832 65.8101 567.74 573.411
251 0 66.194 13.8985 920 64.5022 567.549 571.976
252 0 67.1029 13.3377 895 65.8257 568.108 570.944
253 0 70.218 13.0878 919 66.1545 568.157 571.627
254 0 70.0976 13.31 933 67.209 567.764 570.637
255 0 74.1418 13.4202 995 66.6673 567.843 569.296
256 0 77.0963 13.4766 1039 66.7228 567.919 569.321
257 0 78.1356 13.0542 1020 68.1578 567.813 567.634
258 0 79.1285 13.7877 1091 67.5454 568.004 566.59
259 0 84.2549 13.5304 1140 67.2482 567.714 566.048
260 0 86.2371 13.5325 1167 67.6067 566.812 564.356
261 0 88.1428 13.8298 1219 67.7334 567.178 562.527
262 1 45.0756 10.2273 461 67.4772 567.967 585.805
263 0 46.0713 11.2434 518 66.7799 567.896 584.556
264 0 49.1047 10.7525 528 66.7917 567.608 582.634
265 0 49.133 12.11 595 65.2101 567.324 582.457
266 0 51.0935 11.5279 589 65.9949 567.236 580.681
267 0 53.1363 11.4234 607 66.341 566.679 580.715
268 0 54.1928 11.5698 627 66.362 566.821 579.506
269 0 57.1466 11.6717 667 65.7976 566.627 579.012
270 0 59.2119 12.3793 733 65.1214 566.516 576.798
271 0 59.1994 11.9934 710 65.9775 566.768 575.949
272 0 63.16 12.5712 794 63.8728 567.329 575.272
273 0 64.1608 11.7361 753 65.1846 567.438 573.697
274 0 67.1782 12.117 814 64.1167 567.414 573.378
275 0 70.1742 11.9417 838 63.9391 567.474 571.987
276 0 70.1741 11.9132 836 64.8421 567.31 570.36
277 0 72.1055 11.9963 865 64.3052 567.302 569.665
278 0 75.1515 11.9891 901 63.97 567.383 568.14
279 0 76.1342 11.6505 887 64.478 567.503 567.223
280 1 39.1562 10.2155 400 63.955 569.002 584.57
281 0 44.0767 10.6859 471 63.2335 568.894 582.888
282 0 44.0691 10.3928 458 63.6703 569.105 582.967
283 0 47.1882 11.7614 555 61.4432 568.897 582.29
284 0 47.1159 11.6521 549 61.0765 568.743 580.55
285 0 50.0524 12.5069 626 59.9601 568.936 578.866
286 0 49.0537 11.6811 573 61.5951 569.188 578.829
287 0 52.0658 11.7159 610 61.382 568.928 577.4
288 0 53.0274 11.7109 621 61.9066 569.417 576.76
289 0 56.0995 11.9074 668 61.0344 569.491 577.139
290 0 57.1263 11.6584 666 61.4775 569.593 575.01
291 0 59.0807 12.119 716 61.0098 570.053 573.89
292 0 59.0735 12.0189 710 61.8732 570.803 572.611
293 0 63.09 11.9036 751 61.5593 570.439 572.007
294 0 63.1246 12.0397 760 61.6487 570.35 570.778
295 0 65.081 11.7238 763 62.3316 570.186 569.604
296 0 66.27 12.0416 798 62.2343 570 566.756
297 0 67.2711 11.4314 769 63.1209 569.99 567.475
298 0 73.3067 12.209 895 61.5117 570.165 564.944
299 1 37.2434 9.39764 350 62.6314 570.426 582.677
300 0 36.1209 9.49589 343 63.105 570.303 582.408
301 0 39.186 9.39111 368 63.163 570.75 580.109
302 0 41.1373 10.1368 417 61.741 571.746 580.122
303 0 45.109 11.2616 508 60.1929 570.908 579.213
304 0 45.2824 10.8431 491 61.2179 570.438 577.035
305 0 44.2365 11.2125 496 62.0161 570.615 576.738
306 0 47.1324 11.839 558 60.491 570.332 576.183
307 0 49.3107 11.174 551 61.2505 570.495 575.753
308 0 50.3326 11.5035 579 61.1019 570.338 576.017
309 0 52.3289 10.9882 575 62.4974 570.501 573.179
310 0 54.299 12.3575 671 60.8182 570.213 572.61
311 0 56.2482 11.9293 671 62.8852 571.222 572.304
312 0 57.1535 11.7053 669 63.9297 570.946 571.393
313 0 60.2686 12.9587 781 62.1997 570.885 569.73
314 0 61.2612 12.161 745 63.8577 571.183 569.341
315 0 63.2148 12.1965 771 63.8573 570.521 567.865
316 0 63.2677 11.9176 754 64.5663 570.501 567.269
317 0 66.2137 11.8707 786 64.9796 570.929 567.439
318 0 69.1534 12.2481 847 64.6104 570.39 565.013
319 0 70.157 12.7001 891 64.7677 570.336 564.366
320 0 73.2273 13.1372 962 64.3212 570.105 563.434
321 0 75.2065 12.8313 965 64.8104 569.994 563.143
322 0 77.2129 13.2879 1026 65.1442 570.104 561.663
323 0 81.2255 12.73 1034 65.7882 569.818 560.296
324 0 82.2601 13.4938 1110 65.4703 570.002 556.728
325 0 86.236 13.8341 1193 64.8307 569.384 554.343
326 1 46.2237 11.1631 516 66.6337 569.913 576.733
327 0 47.256 11.4271 540 66.7037 569.604 575.087
328 0 48.1667 11.6678 562 66.7295 569.132 576.128
329 0 51.2995 12.4563 639 65.615 568.734 575.257
330 0 52.1187 13.5652 707 64.826 568.91 574.611
331 0 54.2008 12.7304 690 66.5391 568.601 572.778
332 0 55.169 12.4164 685 67.2438 569.026 572.072
333 0 58.2065 12.9367 753 65.8924 568.991 572.624
334 0 59.2148 12.7502 755 66.9126 568.587 570.558
335 0 59.316 13.3522 792 66.7222 568.823 568.854
336 0 61.1282 13.3817 818 66.1993 568.408 568.943
337 0 64.1594 13.7314 881 65.0204 568.657 568.325
338 0 66.1244 13.8678 917 64.952 568.697 567.45
339 0 65.1196 13.7747 897 65.9944 568.319 567.641
340 0 68.2096 13.5905 927 65.9202 568.54 566.635
341 0 70.1798 13.1234 921 66.5114 568.287 565.968
342 0 71.1015 13.4456 956 66.4017 567.82 564.825
343 0 73.1462 13.7396 1005 66.1781 568.296 563.477
344 0 76.1133 13.3879 1019 67.0226 568.214 562.182
345 0 79.1304 14.7352 1166 64.4717 567.923 561.618
346 0 80.1116 13.5811 1088 66.9467 568.064 560.512
347 0 84.2362 13.9251 1173 65.6232 567.836 558.551
348 0 87.16 14.2267 1240 65.3355 567.984 557.735
349 0 87.2064 13.5655 1183 67.0854 568.135 556.788
350 0 89.1338 13.5863 1211 67.0784 567.872 554.897
351 0 95.1686 13.9437 1327 66.0543 567.589 552.897
352 0 98.1742 14.403 1414 65.2171 567.912 552.228
353 0 102.192 14.2966 1461 65.05 567.799 550.58
354 1 54.1678 10.3198 559 66.1807 568.453 576.018
355 0 52.1884 11.0369 576 66.3507 568.271 575.575
356 0 54.1592 12.0571 653 65.2205 568.126 574.018
357 0 56.1622 12.0544 677 64.8981 568.121 572.267
358 0 60.1516 13.067 786 63.1705 567.983 571.17
359 0 61.1132 11.7487 718 64.4861 567.405 570.862
360 0 63.117 12.564 793 62.9079 567.666 570.052
361 0 65.089 13.0744 851 62.4019 567.263 568.072
362 0 67.0723 12.3449 828 63.4553 567.384 566.379
363 0 70.061 12.7889 896 63.1719 567.551 564.703
364 0 73.1511 12.481 913 63.207 567.882 564.211
365 0 73.2212 12.4008 908 63.9758 567.952 562.578
366 1 39.0208 10.5072 410 61.8512 568.473 582.959
367 0 39.0112 10.0228 391 62.8491 569.059 580.685
368 0 41.0833 10.5152 432 61.2546 569.285 580.375
369 0 41.0647 11.1775 459 61.9194 569.381 578.728
370 0 43.0093 10.6721 459 61.3529 569.192 579.381
371 0 44.0305 10.8561 478 62.1004 569.098 577.749
372 0 44.0158 11.9275 525 61.6324 569.383 577.093
373 0 46.2124 11.6852 540 62.6204 569.061 574.98
374 0 47.0806 12.1281 571 62.5657 569.326 575.089
375 0 49.1322 11.7642 578 62.7388 569.503 574.661
376 0 48.1631 12.3746 596 61.6426 569.78 573.827
377 0 51.0195 11.4858 586 62.0307 568.939 572.461
378 0 54.016 12.1816 658 60.7052 569.111 571.28
379 0 54.1619 12.5919 682 60.6936 569.438 570.393
380 0 56.0605 12.5935 706 61.1346 569.783 570.028
381 0 58.0422 12.9044 749 60.267 570.043 570.673
382 0 60.0741 12.418 746 61.2239 570.095 567.97
383 0 61.1064 12.6828 775 61.2994 570.419 566.95
384 0 64.0088 12.4045 794 61.7393 570.411 566.89
385 0 64.0412 13.0385 835 61.412 570.816 566.095
386 0 68.1507 13.2354 902 60.8592 571.122 564.908
387 0 68.0615 13.3409 908 61.6443 570.975 564.868
388 0 70.0668 12.7593 894 62.8266 571.103 564.489
389 0 74.3539 12.9919 966 62.7008 571.302 561.825
390 0 76.1683 13.9165 1060 61.6547 570.882 559.716
391 0 78.0949 13.2659 1036 62.7905 571.241 559.281
392 0 82.1189 13.4196 1102 62.9891 571.285 557.465
393 0 83.1056 13.7656 1144 62.6066 571.188 556.802
394 0 86.0862 13.0567 1124 63.8399 571.307 555.682
395 0 90.2825 13.2251 1194 63.9447 571.522 551.344
396 1 46.0979 11.0851 511 63.5147 571.873 576.971
397 0 46.232 10.7501 497 64.5091 572.471 576.416
398 0 48.1744 11.0225 531 65.2919 572.269 574.906
399 0 50.1604 12.3603 620 62.8919 572.676 574.455
400 0 52.1647 13.0165 679 61.8468 572.225 573.648
401 0 52.2234 11.7763 615 64.2406 572.496 572.481
402 0 57.1398 12.5307 716 62.3897 572.408 571.267
403 0 56.2005 13.0426 733 62.6862 572.31 570.371
404 0 57.1753 12.0157 687 63.9898 572.249 570.732
405 0 61.1092 13.5495 828 61.6872 572.278 567.925
406 0 62.2227 12.4874 777 63.242 572.407 568.226
407 0 64.159 13.2639 851 62.5029 572.244 568.004
408 0 66.1179 12.8256 848 63.5932 572.371 565.952
409 0 67.0897 12.7888 858 64.4138 572.04 565.924
410 0 67.0943 13.563 910 64.0769 572.251 564.449
411 0 72.1864 13.9639 1008 63.6776 572.165 562.543
412 0 72.1039 13.3141 960 65.1833 572.096 561.159
413 0 75.3042 13.0272 981 65.8624 572.059 560.784
414 0 79.2414 13.7176 1087 64.8454 571.457 559.865
415 0 81.2815 13.3118 1082 66.658 571.625 558.384
416 0 83.2752 14.1459 1178 65.5857 571.694 557.811
417 0 86.1695 13.7636 1186 66.2352 571.293 557.589
418 0 88.1817 13.3701 1179 67.2757 571.369 555.091
419 0 92.3576 14.6821 1356 65.0096 570.906 553.319
420 0 94.285 14.435 1361 65.2447 570.609 554.104
421 0 96.2971 14.1645 1364 66.4743 570.421 549.827
422 0 100.299 15.3342 1538 64.5566 569.847 551.045
423 0 103.24 15.0426 1553 65.4018 569.945 549.258
424 0 108.334 14.4276 1563 66.0096 569.463 545.139
425 0 112.248 14.8421 1666 65.6471 569.25 543.884
426 1 59.2426 12.1365 719 66.1627 569.346 571.723
427 0 60.3092 11.8058 712 67.3286 569.015 570.785
428 0 63.3314 12.9793 822 66.3479 569.116 568.623
429 0 64.1748 12.8399 824 66.2366 568.619 566.462
430 0 67.2055 13.0942 880 66.0193 568.769 565.386
431 0 68.0898 12.5863 857 67.6791 568.66 564.28
432 0 72.0715 14.111 1017 64.7906 568.502 564.474
433 0 73.262 13.9909 1025 65.401 568.243 563.548
434 0 75.0835 14.3574 1078 65.7653 568.088 560.158
435 0 78.2081 14.2185 1112 65.9119 568.201 558.754
436 0 81.2239 13.8137 1122 66.6444 568.136 557.713
437 0 85.2353 13.8323 1179 66.106 568.286 558.962
438 0 86.2828 13.9425 1203 67.473 568.264 555.247
439 1 45.0193 10.751 484 67.3306 568.564 577.155
440 0 46.0377 10.8389 499 66.6152 568.122 577.866
441 0 45.1483 11.8941 537 66.3855 567.406 575.41
442 0 48.0595 12.2764 590 65.7949 568.11 574.437
443 0 50.1379 11.8673 595 65.9126 567.26 574.788
444 0 49.1909 11.5875 570 67.4456 568.293 575.153
445 0 53.0451 13.0455 692 64.7832 568.225 573.688
446 0 54.0635 12.6703 685 65.6715 567.743 573.28
447 0 54.0451 12.9521 700 66.3243 567.606 572.524
448 0 57.018 13.1011 747 65.6372 567.614 573.108
449 0 58.0426 13.0077 755 66.3404 568.054 570.366
450 0 62.0823 12.6928 788 65.8959 567.98 570.484
451 0 63.0987 13.1381 829 66.3209 567.846 567.878
452 0 67.068 12.9123 866 66.2818 567.986 567.754
453 0 69.1257 13.4248 928 65.5927 567.802 566.236
454 0 71.1961 13.512 962 65.4792 568.202 566.728
455 0 74.0464 13.5456 1003 65.5693 567.742 565.381
456 0 75.1713 13.3429 1003 66.5174 567.533 564.208
457 0 78.1904 13.6845 1070 65.9093 567.364 561.294
458 1 42.0443 10.6792 449 65.8352 567.038 580.374
459 0 43.1206 10.3895 448 66.067 567.368 579.721
460 0 46.0405 11.012 507 65.7456 567.643 578.773
461 0 47.1603 12.4469 587 66.1857 568.167 579.779
462 0 50.0629 12.0448 603 66.1692 568.473 578.587
463 0 52.1731 12.1519 634 66.194 568.26 578.674
464 0 53.1544 12.5295 666 66.024 568.599 577.116
465 0 53.1982 12.5004 665 67.1699 568.421 576.242
466 0 55.2351 12.2205 675 66.9615 568.215 576.402
467 0 56.1143 12.0112 674 68.1766 568.144 575.306
468 0 60.2084 12.6892 764 66.5969 568.185 575.373
469 0 61.0648 12.4458 760 67.821 568.042 573.429
470 0 63.0798 12.7458 804 66.5659 568.474 574.066
471 0 66.1919 13.0681 865 66.7087 568.584 571.384
472 0 67.0875 13.6985 919 66.5267 568.198 570.018
473 0 69.1774 12.7932 885 67.8373 568.742 570.498
474 0 72.2157 12.795 924 67.6104 568.613 569.817
475 0 74.1197 13.3028 986 67.6075 568.732 567.49
476 1 40.108 10.9205 438 67.8813 569.448 585.233
477 0 42.0903 10.7151 451 69.0998 568.911 583.989
478 0 42.0648 11.197 471 68.9639 568.677 582.713
479 0 45.0949 10.5999 478 69.1904 568.584 583.257
480 0 47.1212 12.4572 587 66.2521 568.31 582.433
481 0 47.2857 11.4834 543 67.779 568.486 582.304
482 0 48.2887 11.9697 578 67.4879 568.678 581.289
483 0 49.345 12.1795 601 67.3627 568.326 580.238
484 0 50.2938 12.3474 621 67.5894 568.345 579.533
485 0 54.2508 11.9998 651 66.9324 568.739 580.089
486 0 54.3931 12.2258 665 67.6496 569.092 577.221
487 0 55.2624 12.6668 700 67.29 569.037 577.04
488 0 55.2624 12.6849 701 169.194 568.047 577.071
489 0 60.2865 11.7605 709 67.9803 569.018 574.491
490 0 62.2153 11.9585 744 67.9436 568.883 574.402
491 0 64.3553 12.4155 799 67.0788 568.839 573.159
492 0 66.2231 12.7901 847 66.7674 569.22 572.218
493 0 68.4609 12.8979 883 65.9332 569.092 572.255
494 0 68.252 12.2194 834 68.0827 569.126 569.765
495 0 72.139 12.7393 919 66.6648 569.151 568.634
496 0 74.3294 12.902 959 66.5756 568.878 566.602
497 1 36.2293 10.2403 371 66.6011 569.76 585.852
498 0 38.3246 10.0719 386 66.842 569.86 585.562
499 0 41.3784 11.1652 462 65.2922 569.643 583.658
500 0 40.2056 11.7894 474 65.1498 569.38 582.943
501 0 43.2624 11.0489 478 65.3808 569.437 581.81
502 0 44.3434 11.862 526 64.6768 569.217 580.608
503 0 45.2539 12.5956 570 63.7982 569.504 580.293
504 0 48.204 12.1359 585 64.0667 569.532 579.05
505 0 48.2675 11.9335 576 65.2205 569.535 579.019
506 0 51.2526 12.5457 643 64.3701 569.812 577.63
507 0 53.2187 12.2513 652 65.6641 569.946 576.814
508 0 53.2106 12.5915 670 65.7612 569.906 576.639
509 0 56.3237 12.9075 727 65.0179 570.033 575.821
510 0 57.2386 13.1729 754 65.2798 569.61 574.127
511 0 58.1266 13.1437 764 65.3678 570.082 574.103
512 0 59.1615 12.4574 737 66.8996 569.432 573.712
513 0 60.1132 13.3082 800 66.8538 570.645 572.099
514 0 64.0816 13.9666 895 65.0749 570.675 571.77
515 0 65.3072 13.7657 899 65.881 570.074 571.365
516 0 68.2966 13.5878 928 65.1907 570.27 569.32
517 0 69.2244 14.1569 980 65.0908 570.093 567.705
518 0 72.4113 13.52 979 65.6762 570.013 567.506
519 0 73.3316 14.1412 1037 65.0231 569.9 565.399
520 0 77.2007 14.2097 1097 65.0438 570.391 565.122
521 1 41.1689 11.1978 461 67.0933 570.38 582.692
522 0 43.0967 10.9753 473 67.3806 570.444 581.799
523 0 45.1327 11.7875 532 66.0583 570.177 579.882
524 0 45.2363 11.9152 539 66.9109 570.783 579.803
525 0 46.159 12.3703 571 66.986 570.797 578.573
526 0 48.209 13.5452 653 64.6508 570.706 579.199
527 0 48.0584 13.1715 633 66.6288 570.82 577.597
528 0 50.0516 13.4861 675 66.523 571.042 576.56
529 0 52.126 13.4866 703 66.3656 571.044 575.656
530 0 53.2255 13.2643 706 66.7592 571.118 576.052
531 0 55.2524 12.9406 715 67.2797 571.152 575.221
532 0 56.2587 13.3668 752 67.0718 571.254 573.297
533 0 57.1835 14.095 806 66.1737 571.14 574.086
534 0 60.1632 14.0451 845 66.2521 571.214 572.265
535 0 60.2754 13.2724 800 68.4938 571.032 572.101
536 0 64.1398 13.8447 888 66.7736 570.886 570.02
537 0 64.3822 13.948 898 67.5033 571.226 570.01
538 0 67.2704 13.3342 897 68.5195 571.395 568.184
539 0 68.2256 13.9684 953 67.9161 570.638 567.166
540 0 72.1645 13.9404 1006 67.9404 570.683 566.418
541 0 73.2146 14.0956 1032 68.5746 570.763 563.693
542 0 77.2224 13.9338 1076 68.2955 570.568 563.445
543 0 81.2672 13.7817 1120 68.8 570.514 561.841
544 1 40.1259 11.6882 469 70.2218 570.328 580.556
545 0 43.2087 11.2709 487 70.2444 570.558 581.532
546 0 44.1293 12.3727 546 69.8278 570.306 579.462
547 0 47.1126 13.0538 615 68.8179 569.685 577.485
548 0 48.22 12.443 600 69.9433 569.418 577.442
549 0 49.1472 12.8797 633 70.1532 569.487 576.281
550 0 51.2445 12.938 663 69.4827 569.409 576.673
551 0 52.1788 13.0129 679 69.9588 569.359 575.545
552 0 54.2179 12.9662 703 69.9531 569.196 574.858
553 0 57.194 12.886 737 69.8725 569.111 574.581
554 0 56.1863 13.1883 741 70.7072 569.359 573.417
555 0 58.0993 12.668 736 71.856 568.997 572.609
556 0 61.1405 13.2318 809 70.3251 569.3 571.77
557 0 63.1764 14.0084 885 69.5006 569.146 568.947
558 0 64.2387 12.6871 815 71.2368 568.961 569.553
559 0 67.0876 13.0874 878 70.9977 568.777 567.97
560 0 70.164 13.3402 936 70.5171 568.922 567.684
561 0 74.2727 13.1408 976 71.2859 569.062 564.523
562 0 77.2786 12.8884 996 71.3986 569.095 564.632
563 0 80.2287 12.9505 1039 71.3773 568.783 562.623
564 1 40.1727 10.6291 427 70.2506 569.379 582.672
565 0 39.2173 10.9646 430 71.2116 569.049 581.335
566 0 42.345 11.1229 471 71.518 568.527 580.219
567 0 43.2448 11.1459 482 71.2261 568.759 580.276
568 0 46.1398 12.137 560 70.2875 567.988 578.357
569 0 48.1581 12.459 600 70.0617 568.545 577.687
570 0 48.138 11.7786 567 72.0741 568.383 578.289
571 0 48.2315 12.5644 606 71.4109 568.079 577.729
572 0 50.0826 12.679 635 71.9055 568.42 575.808
573 0 52.2805 12.6242 660 71.7894 568.348 575.342
574 0 54.3357 12.5884 684 72.3348 567.566 574.46
575 0 55.2095 13.005 718 71.8398 567.447 574.124
576 0 57.53 12.7064 731 72.5773 567.027 574.16
577 0 58.2652 12.6147 735 73.317 566.916 573.019
578 0 61.2989 13.2466 812 71.0653 566.918 572.634
579 0 62.275 12.3003 766 73.3316 566.488 571.127
580 0 63.3623 12.8467 814 72.4889 566.839 570.141
581 0 66.2548 12.3916 821 72.2777 566.767 570.456
582 0 69.408 12.8659 893 70.9877 566.347 568.944
583 0 71.2576 12.8969 919 71.6681 566.288 567.825
584 0 72.2273 13.0975 946 71.4767 566.775 566.848
585 0 76.3032 12.5028 954 72.2076 566.498 565.288
586 0 79.2725 12.8418 1018 71.8124 566.37 563.625
587 0 79.3584 12.4498 988 72.7773 566.486 563.035
588 0 82.296 12.5887 1036 72.8292 566.497 561.725
589 0 85.3102 12.9176 1102 72.1851 566.01 559.1
590 0 87.3047 13.619 1189 71.5256 566.29 556.683
591 1 48.189 10.2928 496 71.6089 566.202 579.302
592 0 52.2864 10.7867 564 70.9415 565.789 578.418
593 0 52.2435 11.0253 576 70.6788 566.111 579.045
594 0 55.368 11.8841 658 70.5623 566.131 576.403
595 0 58.5086 12.2888 719 68.943 565.577 574.944
596 0 58.4526 12.0097 702 68.9829 565.567 575.259
597 0 61.2412 12.4589 763 68.7051 566.571 573.442
598 0 63.1097 12.3436 779 69.0205 566.723 571.73
599 0 66.3328 12.2865 815 68.5791 566.633 571.681
600 0 68.4535 12.461 853 68.0375 566.628 569.436
601 0 70.341 13.3777 941 66.9586 566.264 567.784
602 0 72.2125 12.6986 917 68.1276 566.155 566.628
603 0 74.3049 12.5833 935 68.2438 566.28 566.348
604 0 77.4488 12.6148 977 68.045 566.24 566.356
605 0 81.3158 12.433 1011 67.5678 566.676 564.793
606 0 82.3378 12.8009 1054 67.1679 566.205 564.821
607 0 85.4526 12.3928 1059 69.1596 566.135 561.39
608 0 88.2526 12.4869 1102 69.6951 566.378 560.306
609 0 89.4137 12.5932 1126 69.8846 566.472 559.326
610 1 46.2305 10.4909 485 68.1753 566.75 581.866
611 0 49.1418 10.0729 495 69.297 567.014 580.725
612 0 49.1286 9.89241 486 70.4609 567.212 579.346
613 0 50.2906 11.7119 589 69.18 566.864 578.029
614 0 52.2609 11.6722 610 69.3541 566.407 576.982
615 0 54.1586 11.3925 617 69.7099 567.423 577.3
616 0 57.2127 12.1477 695 69.9209 566.862 575.194
617 0 58.1704 12.3602 719 69.0807 566.802 575.102
618 0 59.2432 12.7272 754 68.8342 566.931 574.154
619 0 61.0946 11.6049 709 69.9111 566.832 573.179
620 0 62.1412 12.6164 784 68.8176 566.726 571.356
621 0 63.2192 12.8758 814 68.5504 566.563 571.716
622 0 66.1231 11.7357 776 70.357 567.209 569.443
623 0 67.0988 12.2953 825 69.6242 567.492 569.105
624 0 70.1174 12.9925 911 68.3589 567.576 567.115
625 0 73.092 12.2448 895 69.1408 567.658 567.749
626 0 74.0787 12.4732 924 68.6429 567.79 566.241
627 0 78.1212 12.4806 975 68.5405 567.989 565.278
628 0 81.1363 12.7317 1033 68.4134 567.874 563.37
629 0 83.1285 12.9799 1079 67.7609 567.88 563.273
630 1 46.0472 9.96804 459 69.0871 568.906 581.858
631 0 46.0157 9.34463 430 67.8093 568.916 579.677
632 0 47.0176 10.5705 497 67.0382 569.05 580.072
633 0 47.0551 11.0084 518 67.7626 569.147 579.342
634 0 48.202 11.1199 536 67.8172 568.907 578.905
635 0 50.2719 12.2335 615 66.7902 568.974 578.741
636 0 52.4108 12.5928 660 66.0894 569.065 575.677
637 0 51.1426 11.8297 605 67.5273 569.121 575.522
638 0 55.2089 11.9727 661 65.7171 569.148 575.929
639 0 55.1188 12.591 694 65.1888 569.156 575.464
640 0 60.2257 12.9015 777 63.7954 569.302 572.486
641 0 59.3294 12.8941 765 65.715 569.409 571.18
642 0 62.1665 12.9974 808 65.0693 569.672 571.035
643 0 61.2278 13.0496 799 66.1439 569.859 570.273
644 0 64.1883 12.6035 809 66.2398 570.534 569.534
645 0 66.1992 12.5228 829 65.9493 570.201 568.172
646 0 67.2189 11.9758 805 67.0286 569.932 567.163
647 0 72.3348 13.5481 980 63.9337 570.18 564.795
648 0 73.1479 13.0968 958 65.4217 570.555 564.982
649 0 75.2695 12.7674 961 66.8855 570.23 563.871
650 0 81.3248 13.071 1063 66.1345 570.581 561.736
651 0 81.2328 12.9874 1055 66.6455 571.76 560.385
652 0 83.1545 12.7834 1063 67.1374 571.052 560.342
653 0 86.1838 12.543 1081 67.8788 570.439 557.776
654 0 89.3015 12.8105 1144 67.1827 570.448 555.262
655 0 93.2485 12.9546 1208 67.4048 571.017 554.491
656 1 45.2662 9.54355 432 69.5509 572.169 577.773
657 0 49.1863 10.877 535 67.2841 571.546 575.327
658 0 52.2301 11.4493 598 66.5017 571.326 574.861
659 0 54.2495 12.0001 651 65.7035 571.237 573.842
660 0 55.1917 11.8134 652 66.0537 571.241 572.149
661 0 58.3761 12.3852 723 64.675 571.326 571.508
662 0 59.1633 12.0852 715 65.5287 571.301 569.362
663 0 60.2156 12.0899 728 65.6744 571.312 568.249
664 0 64.1846 13.134 843 63.3369 571.84 568.066
665 0 64.1605 12.2973 789 65.294 571.43 567.587
666 0 65.1464 12.0498 785 66.0854 571.274 566.506
667 0 67.1768 12.5639 844 65.6114 570.884 565.436
668 0 70.1408 12.2753 861 66.3659 571.163 565.048
669 0 72.1172 12.9095 931 65.3008 571.569 565.404
670 0 74.2655 12.0783 897 66.136 571.066 561.561
671 0 77.1533 12.3131 950 65.9042 571.555 559.905
672 0 81.168 13.4166 1089 63.7769 571.422 558.211
673 0 85.108 12.4313 1058 64.2231 571.685 558.555
674 1 43.0692 10.4019 448 65.654 572.408 575.743
675 0 45.1281 10.5699 477 65.348 572.612 576.637
676 0 46.1432 11.1826 516 63.6899 572.411 576.57
677 0 47.0535 12.5177 589 62.4601 572.443 575.565
678 0 47.2189 11.7326 554 64.1372 571.834 575.117
679 0 49.2061 12.1936 600 63.1917 572.012 574.147
680 0 51.2554 11.8036 605 63.8893 571.927 572.727
681 0 52.1832 12.2453 639 63.975 572.152 572.399
682 0 53.1446 12.2496 651 63.7788 572.071 571.928
683 0 55.1268 12.8068 706 63.2974 572.064 570.838
684 0 55.2849 12.517 692 64.9335 571.988 569.575
685 0 58.1184 12.3197 716 65.0656 571.69 570.864
686 0 60.1346 12.2891 739 65.4384 571.524 567.161
687 0 59.1273 12.9044 763 65.9882 571.554 567.387
688 0 60.1272 12.1576 731 67.3283 571.145 567.212
689 0 64.0623 13.0186 834 65.8645 571.426 566.109
690 0 66.1447 12.4273 822 66.7202 571.084 565.654
691 0 69.2313 13.4332 930 65.4129 570.964 564.384
692 0 69.1837 13.2401 916 66.7795 571.354 563.664
693 0 72.337 12.8841 932 67.1234 571.206 564.894
694 0 74.1834 13.9384 1034 66.0899 571.466 560.69
695 0 77.4505 13.273 1028 66.9241 570.744 560.09
696 0 80.2049 13.8645 1112 65.9308 571.16 559.696
697 0 81.3272 13.8699 1128 66.7367 571.362 557.534
698 0 83.38 12.6889 1058 68.3006 571.232 556.874
699 1 45.1891 11.0646 500 68.552 571.46 575.666
700 0 46.27 10.7413 497 68.7404 571.437 576.018
701 0 50.1587 11.7228 588 67.4609 570.801 574.668
702 0 51.1665 12.215 625 67.4144 570.432 572.883
703 0 53.2299 13.6014 724 66.2265 570.181 572.316
704 0 54.2691 13.2119 717 70.2957 570.091 570.644
705 0 56.3389 12.5136 705 76.0142 569.982 571.112
706 0 58.2042 12.9888 756 77.3651 569.718 570.339
707 0 58.1767 13.0465 759 80.4058 569.993 569.428
708 0 61.1548 12.5747 769 83.4317 569.776 569.709
709 0 63.2525 13.1378 831 91.0397 569.62 568.568
710 0 63.1537 12.7308 804 76.199 569.728 568.362
711 0 69.1326 13.5537 937 75.1003 570.034 565.268
712 0 71.179 14.0069 997 75.35 569.66 565.187
713 0 74.1472 14.3094 1061 75.5683 569.294 564.297
714 0 75.215 13.0825 984 78.6362 569.725 563.226
715 0 76.1353 13.2265 1007 80.1539 569.605 562.44
716 0 78.2443 13.3684 1046 80.5621 569.609 562.197
717 0 85.159 14.3731 1224 79.1176 569.448 559.187
718 0 85.2908 13.5184 1153 81.6245 569.149 558.729
719 0 90.4498 12.7363 1152 82.6632 569.26 557.159
720 0 90.4498 12.7363 1152 167.427 568.268 557.166
721 1 48.1526 12.045 580 84.5103 569.693 576.34
722 0 51.07 11.6311 594 85.0859 569.675 576.365
723 0 53.1283 12.5357 666 84.2613 569.38 574.712
724 0 56.1824 12.584 707 83.4611 568.86 574.553
725 0 56.1269 13.0062 730 85.6397 568.399 571.299
726 0 59.1627 13.522 800 82.2425 568.931 573.194
727 0 62.0906 13.6252 846 82.1986 568.723 571.842
728 0 62.2186 14.0955 877 83.0855 568.749 569.92
729 0 64.266 12.7906 822 84.7044 568.815 570.62
730 0 68.149 13.808 941 82.899 568.555 570.434
731 0 68.1276 14.1059 961 83.5744 568.081 569.043
732 0 68.2684 12.8171 875 86.3874 568.291 568.014
733 0 71.1744 12.9962 925 85.9016 568.139 567.799
734 0 74.0938 13.7798 1021 85.2997 567.976 567.208
735 0 77.1303 13.6133 1050 85.1343 567.441 564.925
736 0 79.0952 14.0843 1114 85.7558 567.797 563.794
737 0 81.1353 13.8904 1127 86.1207 567.57 563.718
738 1 44.1479 10.8499 479 88.0647 567.704 580.67
739 0 47.065 11.6222 547 88.1517 567.943 579.009
740 0 48.1172 11.5135 554 87.6444 567.821 579.52
741 0 49.1507 12.777 628 88.2357 567.548 578.094
742 0 50.2551 13.0136 654 88.2676 567.388 578.326
743 0 54.1122 13.2502 717 87.6667 567.109 577.134
744 0 56.228 14.1389 795 86.3962 567.434 576.46
745 0 58.1838 14.2652 830 86.8928 567.428 574.794
746 0 60.2236 13.7156 826 88.2518 567.346 575.413
747 0 58.1 13.253 770 90.8688 567.352 574.539
748 0 59.2298 14.0301 831 90.3706 566.887 574.448
749 0 62.1892 13.475 838 91.8998 566.827 571.894
750 0 63.2082 14.5709 921 90.0033 567.079 572.901
751 0 66.1787 15.4128 1020 90.0618 566.819 570.176
752 0 67.1103 13.8131 927 86.0885 566.589 569.287
753 0 69.2012 13.9304 964 86.0768 566.356 568.974
754 0 71.1401 13.2977 946 86.8901 566.113 566.383
755 0 74.1236 14.7052 1090 85.6385 566.166 565.988
756 0 75.1849 14.3779 1081 86.012 566.324 566.895
757 0 76.0947 14.2717 1086 87.6538 566.33 564.528
758 0 80.2135 14.1248 1133 88.3213 566.566 563.103
759 0 83.1362 14.4221 1199 87.4962 566.245 561.754
760 0 84.3962 14.4319 1218 88.5058 566.122 560.727
761 0 88.0757 14.4194 1270 88.8283 565.88 559.518
762 0 93.1934 13.9817 1303 89.3415 565.525 561.104
763 0 93.3615 14.792 1381 90.1021 565.692 554.508
764 0 97.4479 14.1717 1381 91.3461 565.797 555.786
765 0 98.3842 13.5591 1334 93.446 565.646 554.873
766 1 52.2993 11.6063 607 92.2669 565.987 578.105
767 0 56.1989 13.47 757 89.4901 565.563 575.954
768 0 56.1989 13.5412 761 141.381 564.566 575.901
769 0 58.1581 13.3429 776 90.8776 565.68 574.021
770 0 63.1412 14.9665 945 88.3069 565.515 573.2
771 0 63.0967 13.0118 821 92.4446 565.476 572.674
772 0 67.189 13.1123 881 91.462 565.093 573.985
773 0 68.08 14.3361 976 90.4928 564.812 570.599
774 0 70.0924 13.739 963 92.1153 564.948 570.373
775 0 72.1295 13.0321 940 93.083 564.944 570.554
776 0 76.1402 13.659 1040 93.5442 565.174 568.958
777 0 80.2184 13.8622 1112 94.0665 564.718 566.832
778 0 81.1132 14.0421 1139 95.5057 564.776 562.66
779 0 83.2657 13.607 1133 88.3398 564.877 565.29
780 0 88.083 14.7361 1298 86.4345 564.966 562.603
781 0 91.1993 13.0703 1192 89.2106 564.964 561.525
782 0 95.1158 13.8568 1318 89.0971 565.121 558.726
783 0 98.096 13.7212 1346 90.2756 565.157 558.361
784 0 100.375 13.5492 1360 91.7963 565.171 555.257
785 1 54.1433 10.4537 566 91.7597 566.562 578.935
786 0 56.2634 11.7839 663 90.8084 566.514 576.89
787 0 56.2701 12.7066 715 90.9287 566.003 576.008
788 0 56.1954 12.0117 675 93.3882 566.073 574.406
789 0 60.1886 12.4276 748 92.4559 566.44 573.237
790 0 62.1659 12.9492 805 90.2211 566.638 572.168
791 0 65.2805 13.4496 878 89.7528 566.958 571.224
792 0 65.1813 12.5803 820 92.5341 566.979 570.372
793 0 67.1683 13.0568 877 91.6613 567.288 570.87
794 0 70.2653 12.9794 912 93.8761 566.979 569.019
795 0 72.2554 13.8813 1003 93.4885 566.832 567.925
796 0 73.4761 12.3714 909 96.4048 566.935 566.818
797 0 76.2619 13.4405 1025 96.1532 567.276 565.006
798 0 79.1773 13.3372 1056 90.8636 567.056 562.989
799 0 81.2802 14.4439 1174 90.8424 567.856 561.205
800 0 83.2232 13.7942 1148 93.0523 568.185 558.675
801 0 88.2622 13.6525 1205 93.0705 568.563 559.153
802 0 90.3795 13.8748 1254 93.5654 568.795 556.991
803 0 96.1291 13.6275 1310 94.4221 568.88 556.263
804 0 97.3223 14.5085 1412 94.7939 568.773 554.795
805 0 101.223 13.8901 1406 96.1216 568.671 553.364
806 0 103.238 12.9604 1338 97.9581 569 552.091
807 1 55.0866 12.5257 690 92.5406 569.751 575.354
808 0 58.0691 12.0202 698 94.3811 569.91 573.569
809 0 60.0414 12.0417 723 95.6528 569.88 570.553
810 0 61.2674 12.2904 753 95.7357 569.385 572.491
811 0 64.1493 13.3283 855 95.6363 569.461 571.553
812 0 64.1258 12.4131 796 98.1671 569.295 570.643
813 0 65.1556 12.8462 837 99.2879 569.596 570.802
814 0 68.2819 13.3418 911 98.9089 569.355 568.244
815 0 71.2265 13.4079 955 99.4712 569.746 566.738
816 0 71.2337 12.8872 918 101.424 569.812 565.822
817 0 70.1645 11.7153 822 103.156 569.383 566.728
818 0 75.2563 12.2116 919 102.741 569.732 563.992
819 0 79.1931 13.1956 1045 101.982 569.876 562.133
820 0 81.1692 11.9996 974 104.418 569.732 562.131
821 0 82.2158 11.2144 922 106.782 570.132 560.352
822 0 82.2339 12.1848 1002 107.509 569.682 560.617
823 0 82.2575 11.5369 949 109.037 569.382 562.34
824 1 47.1464 11.9627 564 106.768 570.048 576.878
825 0 48.1941 10.52 507 109.002 570.152 575.274
826 0 54.1046 12.864 696 100.996 569.878 574.707
827 0 53.0852 13.3559 709 101.615 570.172 573.879
828 0 52.1699 12.2293 638 103.611 568.549 574.188
829 0 51.1621 11.2388 575 106.209 568.64 575.026
830 0 57.2071 12.6558 724 104.602 568.506 572.517
831 0 58.1689 12.67 737 106.817 569.05 571.144
832 0 60.3068 10.9772 662 109.692 568.37 571.855
833 0 67.2484 10.7512 723 107.646 568.035 570.31
834 0 66.2831 11.3 749 108.515 567.74 568.832
835 0 67.2265 11.7662 791 108.815 567.322 568.833
836 0 66.2942 12.882 854 74.4087 567.657 568.262
837 0 70.1776 13.4088 941 71.2806 567.44 565.949
838 0 73.3114 12.7811 937 70.429 567.212 564.935
839 0 73.4982 12.7758 939 70.7476 567.34 561.668
840 0 78.4997 12.4714 979 68.8509 567.515 563.932
841 0 81.2955 13.4694 1095 68.0155 567.279 561.216
842 0 85.4659 14.029 1199 67.4937 567.865 559.013
843 1 42.2417 10.6767 451 68.153 568.796 581.681
844 0 45.336 11.3155 513 68.4854 568.205 579.591
845 0 46.166 11.4586 529 69.0756 567.665 579.274
846 0 48.1646 12.4158 598 68.9532 568.366 578.918
847 0 49.2404 12.7334 627 68.8437 567.813 578.51
848 0 50.2077 11.9703 601 70.386 567.398 575.191
849 0 50.2077 11.9105 598 155.443 566.398 575.077
850 0 53.132 12.3842 658 70.9119 567.699 574.073
851 0 55.1275 12.2806 677 70.9586 568.007 574.954
852 0 58.165 13.5133 786 69.6489 567.789 573.067
853 0 63.2861 17.2234 1090 63.1734 567.52 568.923
854 0 65.1834 15.2033 991 65.8426 567.771 570.299
855 0 66.2123 15.3899 1019 66.156 567.22 568.638
856 0 65.1294 14.7706 962 68.3025 567.568 568.534
857 0 65.2304 13.7512 897 70.4994 567.652 571.031
858 0 67.1564 13.7738 925 70.1924 567.564 570.166
859 0 70.1596 13.5121 948 70.3703 567.819 568.972
860 0 71.0945 13.264 943 70.912 567.006 568.264
861 0 71.1293 12.878 916 71.8548 567.309 568.07
862 0 74.0935 13.1051 971 71.6406 566.507 564.954
863 0 74.0734 12.9331 958 72.2109 566.691 564.178
864 0 79.1495 13.0765 1035 71.4193 567.165 561.877
865 0 80.1715 14.1821 1137 66.8048 566.505 560.993
866 0 81.1522 14.097 1144 61.5935 566.592 560.191
867 0 86.1978 13.6662 1178 62.882 566.308 557.956
868 0 88.1972 14.3655 1267 61.8224 565.99 557.706
869 0 90.1852 13.8049 1245 63.8506 566.394 555.794
870 0 92.2524 13.5498 1250 64.3328 566.122 554.998
871 0 94.3346 14.0669 1327 63.8689 566.061 552.516
872 0 97.2209 13.9888 1360 64.3375 565.912 552.77
873 0 101.214 13.9112 1408 64.1726 566.307 548.828
874 0 102.302 13.9 1422 64.4944 565.676 549.41
875 0 109.231 15.5726 1701 61.1846 566.468 543.665
876 0 109.431 14.6851 1607 62.9552 566.507 545.281
877 1 57.2007 10.5943 606 65.3894 566.485 573.18
878 0 60.1979 11.0801 667 65.6552 565.907 573.463
879 0 61.2528 11.1505 683 64.5842 565.486 573.119
880 0 62.2105 11.8147 735 64.9524 565.492 570.902
881 0 66.5201 12.5225 833 64.0852 566.002 569.041
882 0 68.2831 13.7223 937 62.6862 565.958 569.624
883 0 71.2445 12.7308 907 64.4333 565.906 567.608
884 0 72.3026 13.0009 940 64.5521 565.953 568.567
885 0 75.3366 13.0083 980 64.5102 566.061 567.119
886 0 78.2566 13.4941 1056 63.804 566.154 563.81
887 0 79.2565 13.5257 1072 63.8013 566.09 563.482
888 0 83.3333 13.164 1097 64.185 566.382 561.785
889 0 86.2821 13.3168 1149 63.8999 566.484 559.836
890 0 87.436 13.1182 1147 64.5815 566.489 555.228
891 0 90.6002 13.7086 1242 63.8502 566.527 555.858
892 0 95.4557 13.8075 1318 62.5114 566.861 554.134
893 1 48.2961 10.27 496 65.3024 567.627 575.192
894 0 50.3615 11.0005 554 64.7996 567.68 574.437
895 0 52.446 11.8217 620 63.1629 568.221 572.523
896 0 56.3085 12.1118 682 62.5088 568.298 572.616
897 0 56.1473 12.8234 720 62.0389 567.881 571.882
898 0 59.1308 13.5631 802 62.0536 568.214 570.969
899 0 60.2188 13.1188 790 62.4038 568.361 571.622
900 0 62.3177 13.0942 816 62.3186 568.855 570.092
901 0 64.2766 12.8351 825 62.76 568.772 567.303
902 0 66.2476 13.359 885 62.1977 568.659 568.202
903 0 69.2984 13.2182 916 62.4574 568.797 565.7
904 0 69.5267 12.9159 898 63.3441 568.854 566.194
905 0 73.4235 13.0204 956 63.6914 568.831 563.192
906 0 74.2995 13.7013 1018 63.7908 569.132 561.172
907 0 78.2773 13.5799 1063 63.444 569.776 559.634
908 0 79.3668 13.5069 1072 63.8172 569.605 557.079
909 0 81.263 13.7086 1114 63.9946 569.813 556.945
910 0 87.3345 14.2326 1243 63.1545 569.998 555.302
911 0 89.3087 12.8767 1150 65.5904 570.233 554.212
912 1 49.0924 11.1219 546 64.707 570.659 575.793
913 0 49.0466 10.541 517 66.1605 571.149 574.095
914 0 50.0332 11.8321 592 64.4122 570.919 574.138
915 0 52.0534 11.8724 618 63.9207 571.05 570.819
916 0 54.1773 12.736 690 64.2565 570.456 571.546
917 0 56.1052 12.2805 689 64.5254 570.441 572.073
918 0 56.103 12.6553 710 65.7479 570.939 571.677
919 0 59.1736 12.6915 751 65.4288 570.999 568.915
920 0 63.1012 13.7081 865 63.052 571.105 570.14
921 0 64.1108 12.416 796 65.701 571.427 568.84
922 0 65.192 12.8083 835 65.382 571.569 568.032
923 0 66.184 13.0696 865 65.9688 571.391 565.872
924 0 69.1196 13.6285 942 64.7155 571.327 565.171
925 0 72.0674 13.3625 963 64.6262 570.993 563.951
926 0 73.1465 13.3431 976 65.458 571.401 564.012
927 0 75.097 12.6503 950 66.2495 571.494 562.824
928 0 77.133 13.8721 1070 64.8701 571.828 561.756
929 0 78.1443 13.5391 1058 65.8979 571.883 560.183
930 0 80.1615 13.2857 1065 66.7869 571.401 558.947
931 0 84.1712 13.2112 1112 66.804 571.462 558.226
932 0 87.146 13.6667 1191 66.4794 571.393 556.329
933 0 89.1233 13.8235 1232 67.1834 571.274 553.816
934 0 90.1118 12.6842 1143 68.7323 571.016 554.665
935 0 96.1924 13.6497 1313 66.9276 570.922 552.069
936 0 99.2007 13.6793 1357 66.7937 571.156 550.686
937 1 54.2141 10.9197 592 67.8868 571.15 573.252
938 0 55.1213 11.8285 652 66.8742 570.474 572.951
939 0 57.1057 11.2423 642 67.5436 571.324 571.974
940 0 58.1901 12.3904 721 66.2982 571.132 572.913
941 0 61.1806 12.6511 774 66.2235 570.6 569.68
942 0 63.1377 13.1142 828 65.1908 570.481 568.953
943 0 65.126 12.5603 818 66.1369 570.276 569.835
944 0 66.3543 12.4031 823 66.4423 569.966 568.926
945 0 69.3132 12.7681 885 65.7627 569.713 566.555
946 0 72.1222 12.4927 901 66.1854 569.716 565.507
947 0 74.1843 12.6981 942 66.3047 569.084 563.854
948 0 77.1652 13.4128 1035 65.1459 569.876 563.601
949 0 77.325 13.1652 1018 65.9902 569.613 562.379
950 0 79.1524 13.3793 1059 66.3787 569.465 560.531
951 0 84.2198 13.4054 1129 65.3888 569.369 559.121
952 0 87.2902 13.3348 1164 65.8978 569.18 558.07
953 0 90.4005 13.1858 1192 66.4379 569.624 557.644
954 0 90.293 13.0907 1182 67.1777 569.114 555.399
955 0 93.4746 13.041 1219 66.7129 569.397 553.793
956 1 49.2621 11.1445 549 67.1967 569.909 576.628
957 0 53.2348 11.0078 586 65.8652 570.012 577.401
958 0 53.1951 11.298 601 65.5025 569.409 575.963
959 0 55.1436 11.189 617 65.5332 569.656 575.794
960 0 57.0689 12.6163 720 63.3236 569.499 573.164
961 0 58.1259 12.1977 709 64.0889 568.826 572.176
962 0 61.102 13.1747 805 62.8621 569.538 570.692
963 0 63.1213 12.8008 808 62.7376 569.519 570.313
964 0 67.1516 13.8046 927 60.8252 569.282 568.425
965 0 68.176 13.2745 905 61.4188 569.409 567.434
966 0 71.2053 13.3417 950 60.7368 569.341 566.16
967 0 72.1652 13.2335 955 60.9895 568.969 564.208
968 0 74.1428 13.6898 1015 60.5882 568.982 562.855
969 0 76.0598 13.0424 992 60.9103 569.236 561.453
970 0 81.1425 13.1867 1070 60.3776 568.805 559.464
971 0 82.1749 13.5443 1113 59.982 568.531 559.96
972 0 86.1359 13.0608 1125 60.656 569.13 558.496
973 0 88.1753 13.5866 1198 60.1736 568.675 556.862
974 0 88.1753 13.5752 1197 155.356 568.705 556.898
975 1 48.1383 10.3452 498 61.5843 568.763 576.97
976 0 50.0181 11.016 551 61.069 568.579 576.287
977 0 52.0855 10.2332 533 62.2927 568.426 574.253
978 0 54.0472 12.4151 671 60.2921 568.049 573.654
979 0 55.1634 13.2515 731 59.3393 567.639 574.108
980 0 55.2201 12.0427 665 61.597 566.929 573.119
981 0 58.1379 13.2444 770 59.5221 567.201 572.688
982 0 60.0879 12.6648 761 60.2576 567.343 571.963
983 0 59.1209 11.7048 692 62.6965 567.094 570.088
984 0 62.1415 12.3267 766 61.6397 566.855 569.273
985 0 64.1416 13.1116 841 61.1379 566.603 570.224
986 0 66.1525 12.3654 818 61.9083 566.37 568.539
987 0 68.0721 13.1331 894 61.2327 566.766 567.362
988 0 70.2742 13.4331 944 60.5508 566.442 567.109
989 0 74.0316 13.4402 995 60.6251 565.846 565.734
990 0 76.0844 13.3536 1016 61.1171 565.791 564.435
991 0 79.1076 12.957 1025 61.4127 566.101 563.827
992 0 81.1782 13.0207 1057 61.4702 566.381 561.886
993 0 83.1301 13.2082 1098 61.7723 566.232 561.409
994 0 85.1637 13.2568 1129 61.6563 565.941 559.857
995 0 90.2638 13.4938 1218 61.8013 565.902 558.645
996 0 92.2588 13.3104 1228 61.8502 566.176 557.357
997 1 46.1557 10.7896 498 62.9618 566.159 578.494
998 0 49.0669 10.2921 505 62.8 565.901 579.133
999 0 49.0997 10.998 540 64.137 566.387 576.141
1000 0 53.0634 11.703 621 61.7762 566.866 576.821
1001 0 54.0906 12.516 677 61.5643 566.521 576.235
1002 0 55.1655 12.0546 665 61.982 565.474 575.31
1003 0 58.063 12.2453 711 61.7412 565.294 575.273
1004 0 61.0217 13.9786 853 59.5182 565.339 574.048
1005 0 59.095 12.1161 716 63.4832 565.809 573.911
1006 0 62.0812 12.838 797 62.2033 566.172 571.78
1007 0 64.1085 12.3385 791 63.2351 566.585 572.917
1008 0 67.11 13.3959 899 62.3648 566.83 572.347
1009 0 69.2777 12.7314 882 63.9524 567.276 570.613
1010 0 70.1362 13.5736 952 63.1008 567.194 569.108
1011 0 73.0799 13.3826 978 64.9704 567.475 568.572
1012 0 74.2191 13.3928 994 65.6167 567.066 568.16
1013 0 76.2296 13.5118 1030 66.3748 566.894 565.318
1014 0 79.2509 13.5267 1072 66.6017 566.882 563.675
1015 0 83.1553 13.2403 1101 66.9455 566.791 562.738
1016 0 86.1849 13.471 1161 66.7149 566.609 560.932
1017 0 87.2671 13.705 1196 67.1112 566.763 558.948
1018 1 48.0247 11.4524 550 67.3091 566.504 580.571
1019 0 49.0759 11.3498 557 68.5404 566.496 580.126
1020 0 49.126 11.6232 571 68.7513 566.692 579.107
1021 0 50.0631 11.885 595 68.4571 566.655 578.818
1022 0 55.0726 14.1268 778 64.9794 567.181 576.337
1023 0 55.0726 14.0905 776 160.41 568.179 576.296
1024 0 56.029 12.3686 693 69.2136 566.851 575.209
1025 0 58.0809 13.4812 783 67.1571 567.153 574.172
1026 0 60.0621 13.7691 827 66.7545 567.469 573.258
1027 0 61.0084 13.6211 831 67.2022 567.941 572.865
1028 0 62.0549 13.3269 827 68.3362 567.883 570.927
1029 0 64.0356 13.7424 880 68.017 567.86 569.92
1030 0 65.0501 13.7433 894 68.0157 567.872 570.04
1031 0 68.0557 14.1649 964 67.6037 567.535 568.869
1032 0 70.0367 13.6071 953 67.8709 567.37 567.369
1033 0 72.1168 13.9912 1009 67.556 567.964 566.145
1034 0 72.0668 13.8344 997 68.6399 568.001 565.047
1035 0 77.2398 13.9436 1077 67.9759 568.111 564.507
1036 0 79.2143 13.3183 1055 69.2844 568.374 561.698
1037 0 81.2382 13.7251 1115 69.2377 568.96 561.173
1038 0 82.1908 13.7972 1134 69.7478 569.029 558.265
1039 0 87.3412 13.7965 1205 69.3344 569.416 556.912
1040 0 90.2457 13.8178 1247 69.2109 569.919 554.916
1041 0 92.2991 13.803 1274 69.5965 570.166 552.262
1042 0 94.2392 14.0387 1323 69.1852 570.15 553.057
1043 0 97.2994 13.9672 1359 69.7653 570.692 551.502
1044 0 102.346 14.3923 1473 68.315 570.629 549.208
1045 0 104.262 13.7922 1438 69.8818 570.495 548.209
1046 0 107.421 14.0196 1506 68.2151 570.636 546.768
1047 0 110.473 14.121 1560 68.2282 571.143 545.834
1048 1 60.2622 11.3504 684 68.8187 570.96 571.716
1049 0 64.1011 11.7315 752 68.1356 571.109 571.136
1050 0 63.1563 11.7961 745 68.2711 571.17 570.238
1051 0 67.1566 12.1954 819 68.9622 571.319 567.756
1052 0 71.1143 11.7838 838 68.8329 571.126 566.961
1053 0 74.057 13.4626 997 66.7854 570.671 564.875
1054 0 75.2473 13.6483 1027 66.9864 570.681 564.086
1055 0 78.1789 13.7761 1077 67.611 570.98 562.521
1056 0 81.1534 13.7764 1118 67.2487 570.695 561.658
1057 0 86.1276 13.6542 1176 66.9915 570.592 560.309
1058 0 88.13 13.6957 1207 67.4374 570.548 557.723
1059 0 90.1193 13.815 1245 67.5309 570.178 555.898
1060 0 95.2498 13.4593 1282 66.7988 570.604 556.109
1061 0 99.2545 14.6089 1450 65.1228 570.955 553.792
1062 1 51.1113 12.0521 616 66.651 570.654 577.117
1063 0 53.0602 11.6095 616 67.3539 570.183 575.836
1064 0 55.0996 11.9965 661 67.3071 570.522 574.495
1065 0 56.1927 12.4749 701 66.8531 570.723 574.993
1066 0 57.216 12.3042 704 67.3679 570.757 573.447
1067 0 60.2948 12.8535 775 66.7871 570.412 572.738
1068 0 63.2178 13.1609 832 65.5036 570.406 572.171
1069 0 63.4127 13.01 825 66.2727 570.502 570.851
1070 0 67.2426 12.2095 821 66.9647 569.965 569.129
1071 0 67.2957 12.7646 859 66.5204 570.121 567.754
1072 0 72.2484 13.0799 945 65.7143 570.205 566.181
1073 0 74.486 12.5124 932 65.9442 570.086 565.328
1074 0 78.3389 13.148 1030 65.2175 570.494 562.849
1075 0 80.3981 13.1222 1055 65.7886 570.261 562.411
1076 0 82.3711 12.5894 1037 66.5198 569.905 561.725
1077 1 46.2772 10.4371 483 67.6687 569.489 578.841
1078 0 49.2475 10.8635 535 66.772 569.488 580.168
1079 0 50.1992 11.6137 583 66.9211 569.446 578.346
1080 0 52.2288 11.8708 620 66.1984 569.302 579.436
1081 0 54.2582 12.8829 699 65.319 568.89 576.365
1082 0 54.242 13.2186 717 64.4519 569.126 577.555
1083 0 56.1747 12.3009 691 66.4501 569.101 574.214
1084 0 57.2989 12.6879 727 66.1334 569.052 575.278
1085 0 59.3054 12.6295 749 67.8518 568.724 573.295
1086 0 61.2841 12.9071 791 67.3047 568.924 572.502
1087 0 63.1711 12.8223 810 67.2593 569.323 572.393
1088 0 64.2851 13.3312 857 67.0222 569.113 571.382
1089 0 64.2851 13.3468 858 170.752 569.121 571.364
1090 0 68.4546 13.6002 931 66.7572 569.326 570.124
1091 0 69.5069 13.1929 917 67.615 569.545 568.786
1092 0 72.4278 13.6826 991 67.2916 569.454 568.586
1093 0 76.4636 13.6797 1046 66.5287 569.373 567.294
1094 0 76.4019 13.6777 1045 67.4536 569.183 565.317
1095 0 78.1965 14.0671 1100 67.2118 569.376 564.015
1096 0 82.4339 13.708 1130 67.8814 568.942 561.655
1097 0 84.5647 13.6345 1153 68.4562 569.074 560.552
1098 0 87.6929 14.8815 1305 66.5012 568.869 558.962
1099 0 90.4 13.8717 1254 68.323 569.018 558.543
1100 1 46.4351 11.6722 542 70.7011 568.987 578.041
1101 0 48.7088 12.8724 627 69.3254 569.228 578.309
1102 0 50.5305 12.9625 655 68.8397 569.438 577.995
1103 0 50.3849 12.4045 625 71.2656 568.771 576.206
1104 0 53.544 13.2601 710 70.2028 568.63 576.037
1105 0 57.3871 13.9056 798 69.0476 568.898 573.051
1106 0 56.3592 13.5204 762 70.5853 568.164 574.588
1107 0 59.2615 13.5839 805 70.8124 568.503 574.407
1108 0 61.5845 13.6398 840 69.9786 568.827 572.196
1109 0 64.3786 15.2225 980 67.5755 568.308 570.791
1110 0 65.815 14.6015 961 68.8117 568.228 570.16
1111 0 68.3606 14.0432 960 69.699 567.766 568.022
1112 0 68.3465 14.1485 967 70.8904 568.102 567.924
1113 0 70.3862 14.392 1013 70.2172 567.913 566.962
1114 0 74.4758 14.0717 1048 70.2242 567.688 567.279
1115 0 77.3001 14.4502 1117 69.8962 567.909 564.364
1116 0 78.4077 14.5521 1141 70.4478 567.546 563.188
1117 0 82.3396 14.0394 1156 70.7215 567.043 563.081
1118 0 83.392 13.9582 1164 71.8067 567.183 561.575
1119 0 87.4168 14.3108 1251 71.1151 567.077 561.26
1120 1 45.2306 11.9609 541 72.4566 567.233 581.098
1121 0 47.2809 11.3153 535 74.1963 567.29 580.602
1122 0 49.1227 11.7054 575 73.4313 566.875 579.327
1123 0 51.2002 12.7734 654 70.7523 566.353 579.164
1124 0 52.2405 12.8062 669 71.284 566.62 577.435
1125 0 53.1942 12.3698 658 72.2584 566.319 578.043
1126 0 55.2822 13.3135 736 71.3139 567.206 577.171
1127 0 55.2822 13.3678 739 167.011 567.18 577.218
1128 0 60.3204 13.1796 795 70.5384 566.894 574.398
1129 0 61.1559 12.9342 791 71.4539 566.503 574.083
1130 0 62.2922 13.4367 837 70.5842 566.464 573.432
1131 0 67.192 14.8232 996 67.3122 567.126 571.222
1132 0 66.1741 14.5676 964 69.3496 566.814 571.014
1133 0 70.3351 13.72 965 70.4798 567.262 571.16
1134 0 71.1445 14.0278 998 70.6182 567.376 568.279
1135 0 73.2522 13.433 984 71.5041 567.692 567.68
1136 0 75.2072 13.5625 1020 71.9382 567.838 567.01
1137 0 78.2155 13.4756 1054 72.1784 567.417 565.916
1138 0 81.1801 13.1313 1066 72.6079 567.249 563.487
1139 0 84.1378 13.0619 1099 72.5287 567.763 561.928
1140 0 86.3556 13.5139 1167 71.8843 567.868 559.852
1141 1 49.0682 10.6382 522 73.908 568.412 577.958
1142 0 50.1229 11.4319 573 72.8743 568.702 578.354
1143 0 50.0788 11.9012 596 74.9497 568.424 574.532
1144 0 52.1318 11.7587 613 74.8173 567.643 572.654
1145 0 56.1106 12.511 702 71.9858 568.386 572.789
1146 0 56.1383 12.7542 716 72.9386 568.665 575.487
1147 0 58.2312 12.9484 754 73.1008 567.687 575.451
1148 0 58.1192 12.6636 736 73.7201 568.526 573.678
1149 0 59.2317 13.5232 801 72.9076 568.411 574.035
1150 0 62.2649 13.3944 834 72.8873 568.876 573.032
1151 0 63.1648 12.8394 811 74.7497 568.951 570.834
1152 0 65.2523 12.4593 813 74.7946 569.446 571.419
1153 0 67.1958 13.0812 879 73.8783 569.485 569.991
1154 0 70.1947 13.2489 930 73.4398 569.989 567.492
1155 0 72.2021 13.0744 944 73.7479 570.232 567.516
1156 0 74.3129 13.5374 1006 73.4622 570.864 564.469
1157 0 75.2599 13.3272 1003 74.0179 570.806 563.892
1158 0 79.2951 13.8092 1095 72.611 571.058 561.519
1159 0 82.2278 13.8274 1137 72.8487 571.298 559.847
1160 0 83.2583 13.2359 1102 74.0354 571.261 558.916
1161 0 85.285 13.4021 1143 74.2135 571.817 557.408
1162 0 88.2188 13.6139 1201 73.8351 571.835 556.33
1163 0 91.1836 13.5331 1234 74.1013 571.793 554.931
1164 0 93.1777 13.5011 1258 74.1614 571.761 552.692
1165 0 99.3288 13.9335 1384 72.6611 572.332 551.556
1166 1 53.2697 10.5876 564 75.0833 572.886 575.211
1167 0 54.2071 11.8988 645 73.9736 573.011 574.147
1168 0 56.255 12.4967 703 72.3912 572.831 572.643
1169 0 56.1323 12.5062 702 72.9601 572.736 571.387
1170 0 59.2261 12.4101 735 72.2612 572.439 570.381
1171 0 61.2305 13.2614 812 70.2426 572.575 569.48
1172 0 63.2827 12.2782 777 72.2046 572.326 568.986
1173 0 64.166 12.6547 812 71.8276 572.546 568.03
1174 0 69.1021 13.0242 900 70.0244 573.252 568.942
1175 0 69.1777 13.6026 941 70.3167 572.634 565
1176 0 70.2311 12.8718 904 71.5896 573.077 565.04
1177 0 74.1494 13.5267 1003 70.2662 572.822 563.645
1178 0 74.1366 13.2728 984 71.9624 572.605 561.948
1179 0 77.4511 13.5311 1048 71.5391 572.457 558.994
1180 0 78.1975 13.1846 1031 72.5684 572.61 559.949
1181 0 82.4974 13.3095 1098 72.1129 572.15 557.998
1182 0 86.1384 13.0256 1122 72.4073 572.447 557.679
1183 0 87.5234 13.2536 1160 72.3371 572.206 554.561
1184 0 90.2271 13.4993 1218 72.633 572.174 554.837
1185 0 92.5401 13.8967 1286 72.5249 571.848 552.779
1186 1 52.1882 12.3591 645 72.6496 572.341 574.436
1187 0 54.2846 12.0108 652 73.8681 572.206 572.867
1188 0 54.1806 12.606 683 73.0205 571.971 573.403
1189 0 56.097 12.9953 729 73.1756 571.394 572.121
1190 0 59.1649 13.5722 803 71.9091 571.677 571.425
1191 0 61.1715 13.4213 821 72.4324 571.306 569.639
1192 0 61.2334 13.3097 815 72.5227 571.346 569.469
1193 0 63.2751 13.4176 849 72.3981 571.403 569.648
1194 0 67.1783 12.8315 862 72.529 570.937 567.884
1195 0 67.2326 13.4459 904 72.4613 570.94 565.625
1196 0 71.1268 13.9329 991 70.6509 570.953 565.064
1197 0 72.0956 13.177 950 72.2779 570.759 563.535
1198 0 73.1027 13.31 973 72.2631 570.815 563.416
1199 0 76.0259 14.3635 1092 70.5797 570.406 562.338
1200 0 77.1751 13.748 1061 71.9783 570.835 560.234
1201 0 83.0344 13.8979 1154 70.4099 570.823 559.406
1202 0 83.1431 13.9639 1161 71.0784 570.529 557.838
1203 0 84.1414 13.6199 1146 72.2312 570.461 555.954
1204 0 90.0846 14.0646 1267 70.6377 569.953 555.553
1205 0 91.1513 14.1962 1294 70.9088 570.034 552.852
1206 0 93.2941 14.0309 1309 71.1176 570.334 552.01
1207 0 99.1502 14.4528 1433 70.1786 570.051 550.941
1208 0 100.152 13.6093 1363 71.7872 569.814 549.255
1209 0 104.146 14.4028 1500 69.114 569.518 548.639
1210 1 57.0179 11.435 652 70.1503 569.207 572.195
1211 0 57.0501 11.8668 677 69.8597 569.078 572.479
1212 0 59.0934 11.3888 673 70.5171 568.532 572.004
1213 0 61.2062 12.2373 749 69.6248 568.961 569.69
1214 0 63.1639 12.523 791 69.6814 568.771 568.372
1215 0 64.0536 12.1929 781 70.1536 568.714 567.933
1216 0 67.1084 13.2919 892 68.8419 568.205 566.382
1217 0 70.1321 12.8187 899 69.3237 568.264 567.107
1218 0 71.2214 13.086 932 69.3712 568.179 564.192
1219 0 74.1439 13.7301 1018 68.5167 567.814 564.55
1220 0 77.357 13.5217 1046 68.978 567.976 562.904
1221 0 78.211 12.7476 997 71.1334 568.162 561.719
1222 0 83.1959 13.1497 1094 69.6883 567.851 560.62
1223 0 85.2542 13.665 1165 69.2558 567.436 559.203
1224 0 87.2456 13.399 1169 70.479 567.408 556.935
1225 0 91.1256 14.0356 1279 69.6075 567.732 554.403
1226 0 91.1761 13.6549 1245 70.849 567.768 554.205
1227 0 95.1739 13.9639 1329 70.4108 567.683 551.715
1228 0 97.1751 14.2115 1381 70.0702 567.586 551.058
1229 0 100.171 13.6666 1369 70.8123 567.237 549.217
1230 0 104.159 13.9498 1453 70.3847 567.283 548.769
1231 0 105.187 13.6044 1431 71.5283 567.546 546.428
1232 1 58.0963 11.24 653 70.66 566.802 570.704
1233 0 59.0609 10.8193 639 71.5962 567.147 569.454
1234 0 64.0938 11.8264 758 70.124 566.679 568.774
1235 0 66.116 12.5991 833 69.1633 566.647 568.329
1236 0 68.0785 12.0596 821 70.6322 567.289 566.581
1237 0 72.1639 13.7881 995 66.7879 567.11 565.878
1238 0 73.2503 12.6962 930 69.2452 566.83 564.722
1239 0 75.1444 13.0016 977 69.3511 566.415 563.321
1240 0 76.1232 13.0578 994 69.9246 566.653 562.973
1241 0 80.0998 12.3221 987 70.4316 566.396 561.632
1242 0 81.2945 12.7438 1036 69.6892 566.588 560.136
1243 0 81.2945 12.7315 1035 168.585 567.581 560.038
1244 0 86.1822 12.9957 1120 69.8652 566.746 557.781
1245 0 91.1113 13.2914 1211 69.2915 566.954 556.046
1246 0 92.1498 12.7727 1177 70.328 567.047 554.766
1247 1 51.0738 10.2988 526 70.4106 567.078 575.502
1248 0 51.1303 10.5026 537 73.095 567.322 573.845
1249 0 53.1503 10.7807 573 72.4921 567.579 573.695
1250 0 55.0533 11.4071 628 72.4809 567.476 573.244
1251 0 57.0741 11.8618 677 72.6913 567.128 571.575
1252 0 57.0486 12.6909 724 71.3716 566.943 570.32
1253 0 59.0667 11.9357 705 72.5986 567.037 570.794
1254 0 63.0974 12.7105 802 71.1833 567.449 568.628
1255 0 64.1982 11.8072 758 72.8325 567.343 568.307
1256 0 65.1188 12.5002 814 71.86 567.23 566.666
1257 0 69.0567 12.468 861 71.1022 567.181 566.174
1258 0 71.363 12.5695 897 71.1929 567.574 564.434
1259 0 72.1821 12.704 917 70.7165 567.998 564.166
1260 0 75.1396 13.242 995 70.0251 567.675 562.836
1261 0 76.2492 13.5477 1033 70.2711 567.665 562.214
1262 0 79.2162 12.5479 994 71.7113 567.832 559.627
1263 0 82.2438 13.5329 1113 70.1842 568.159 558.874
1264 0 85.2781 13.3798 1141 69.8291 568.352 558.228
1265 0 86.2708 12.8085 1105 70.9294 568.692 556.836
1266 0 89.1752 14.0622 1254 69.3341 568.761 554.774
1267 0 93.286 13.2389 1235 69.8955 568.568 553.711
1268 0 95.3293 12.6509 1206 71.4768 568.959 550.794
1269 1 51.253 10.9067 559 69.0841 568.846 574.744
1270 0 54.056 9.98964 540 70.5407 569.393 572.696
1271 0 55.2265 10.9006 602 68.9153 569.703 573.395
1272 0 58.1098 11.4783 667 68.6792 570.399 570.634
1273 0 57.2253 11.7431 672 69.4345 570.711 570.248
1274 0 59.1417 12.8167 758 68.4749 570.356 567.664
1275 0 61.2691 12.5185 767 68.5267 570.507 567.43
1276 0 63.1255 12.2454 773 68.4942 570.797 567.705
1277 0 66.2018 12.2655 812 68.266 571.064 566.717
1278 0 66.107 13.1605 870 67.9736 571.605 566.424
1279 0 67.1818 12.9797 872 69.0608 571.999 565.327
1280 0 69.3082 12.7113 881 69.6969 572.119 563.763
1281 0 74.3033 13.566 1008 67.5734 571.919 562.594
1282 0 75.0945 13.5163 1015 67.932 571.966 562.032
1283 0 76.3138 13.3266 1017 68.9636 572.143 560.622
1284 0 81.23 13.2463 1076 68.5009 572.402 559.52
1285 0 81.3669 13.138 1069 69.2816 571.911 558.636
1286 0 85.4461 13.3886 1144 68.9703 572.136 555.795
1287 0 88.2674 13.9802 1234 67.6134 572.525 554.134
1288 0 89.1136 13.4323 1197 69.0058 572.587 555.044
1289 0 89.1136 13.3986 1194 168.611 572.593 555.023
1290 0 95.195 13.2885 1265 69.3431 572.608 549.797
1291 1 52.2125 10.5722 552 68.7373 572.007 573.306
1292 0 53.1738 11.8856 632 65.7136 571.81 572.516
1293 0 53.1518 11.8905 632 66.4177 572.057 570.949
1294 0 55.1526 12.5107 690 64.9174 573.368 570.888
1295 0 57.1614 12.7359 728 65.3228 573.084 571.036
1296 0 57.1178 11.6776 667 66.9026 573.361 570.166
1297 0 60.1743 12.5801 757 65.0621 573.153 568.524
1298 0 60.2517 12.2652 739 65.7429 573.02 567.847
1299 0 64.1884 13.2267 849 63.6596 573.375 567.115
1300 0 67.1433 12.734 855 64.0877 573.085 567.01
1301 0 69.1364 13.7699 952 62.2773 572.398 565.336
1302 0 69.1691 12.6935 878 64.9351 572.765 562.951
1303 0 71.1809 13.1917 939 64.2151 572.55 563.373
1304 0 73.1782 13.351 977 63.4626 572.138 562.824
1305 0 76.2727 12.9142 985 64.1076 572.219 561.202
1306 0 76.2985 12.7788 975 64.8451 571.986 559.998
1307 0 80.2587 12.8584 1032 64.186 571.993 557.872
1308 0 83.1821 12.4666 1037 64.9528 571.803 558.494
1309 1 48.1229 10.7849 519 64.6301 571.865 575.642
1310 0 48.081 11.1063 534 64.706 571.89 576.245
1311 0 49.0797 12.0416 591 63.9239 571.697 575.719
1312 0 52.1687 11.9995 626 63.6342 571.367 572.92
1313 0 54.0996 12.6988 687 63.6667 570.646 572.824
1314 0 56.1811 13.5277 760 63.0487 570.562 572.236
1315 0 58.2045 13.023 758 63.7665 570.54 572.563
1316 0 58.154 13.1547 765 64.7791 569.974 572.908
1317 0 59.1774 13.0455 772 65.3044 569.984 571.969
1318 0 61.0583 13.3151 813 64.7798 569.887 571.242
1319 0 64.3509 13.2399 852 64.8251 569.366 570.79
1320 0 66.1663 13.1487 870 65.2724 569.384 570.223
1321 0 67.1855 13.3511 897 65.534 569.473 569.712
1322 0 68.2046 14.0606 959 64.1199 568.983 568.444
1323 0 72.0797 13.3463 962 65.4927 568.974 567.585
1324 0 74.209 13.718 1018 63.7937 568.901 566.693
1325 0 77.0949 13.2434 1021 65.0872 568.992 563.73
1326 0 81.1977 13.3132 1081 64.4792 568.419 564.24
1327 0 83.2245 14.2386 1185 63.3308 568.533 562.386
1328 1 46.1226 11.296 521 64.9405 568.726 580.77
1329 0 47.1337 11.3931 537 65.0112 568.62 580.006
1330 0 50.1292 11.7895 591 64.8511 568.876 579.531
1331 0 51.0561 13.1032 669 64.7653 567.957 577.454
1332 0 52.0592 12.8508 669 64.571 567.475 576.72
1333 0 54.1109 12.4559 674 64.868 567.804 577.368
1334 0 54.0721 12.8717 696 67.7141 567.875 577.226
1335 0 57.1045 13.5191 772 65.513 568.122 576.209
1336 0 58.2306 12.7768 744 66.9852 567.466 573.402
1337 0 60.0719 13.0677 785 66.5134 567.522 573.052
1338 0 60.0317 13.8927 834 65.229 567.602 572.888
1339 0 63.1025 13.2166 834 65.3993 567.466 572.489
1340 0 64.0904 12.8568 824 65.8568 567.204 569.994
1341 0 69.0597 13.7852 952 64.0284 567.251 568.663
1342 0 68.1174 13.5795 925 64.7427 567.773 567.054
1343 0 72.0788 12.5279 903 65.6523 567.321 565.783
1344 0 76.1897 13.2826 1012 63.9634 566.955 564.032
1345 1 43.1459 12.7011 548 64.2774 566.642 580.788
1346 0 41.0838 11.3427 466 66.7339 567.114 581.494
1347 0 44.0933 12.6323 557 64.7289 566.641 580.574
1348 0 45.0611 12.4498 561 65.6061 566.633 579.945
1349 0 46.0208 12.7551 587 65.4872 566.339 579.353
1350 0 49.1221 12.9473 636 64.0063 566.082 579.027
1351 0 50.1096 12.8917 646 64.4768 565.902 577.7
1352 0 53.1214 13.6103 723 63.3444 566.044 576.386
1353 0 51.1711 13.1519 673 65.2541 565.712 574.81
1354 0 54.2429 13.034 707 65.2164 565.873 572.738
1355 0 56.215 13.6618 768 63.9258 565.792 572.862
1356 0 58.4874 13.7807 806 64.2816 565.61 571.408
1357 0 58.2824 13.0571 761 65.7267 565.357 571
1358 0 63.3403 14.5721 923 62.5764 565.141 569.216
1359 0 62.4367 14.1743 885 63.9311 565.151 568.294
1360 0 64.6156 13.4797 871 64.7095 565.042 568.436
1361 0 65.3824 13.291 869 65.7319 565.184 567.054
1362 0 69.4168 13.1236 911 65.2843 565.394 566.133
1363 0 76.2728 16.2837 1242 58.9372 564.982 561.655
1364 0 77.4708 15.1283 1172 61.1792 564.962 561.921
1365 0 79.554 15.4109 1226 61.0808 564.946 560.726
1366 0 79.2525 13.8797 1100 64.2782 565.071 560.433
1367 0 82.3347 13.7488 1132 65.1025 565.072 559.26
1368 1 46.4292 11.3721 528 66.6439 565.072 578.549
1369 0 46.3142 12.1777 564 67.422 564.963 577.44
1370 0 47.3753 12.116 574 67.2439 564.768 576.826
1371 0 50.0596 12.8047 641 66.3807 565.089 576.232
1372 0 50.4437 13.0046 656 67.157 564.122 574.319
1373 0 52.4641 13.4949 708 66.5678 564.165 574.127
1374 0 56.4591 12.788 722 66.8019 564.497 573.231
1375 0 56.5063 13.6091 769 66.6528 564.518 571.244
1376 0 58.5293 13.5317 792 66.9407 564.668 570.688
1377 0 61.3347 13.5649 832 66.9892 564.745 571.594
1378 0 60.638 14.1166 856 67.3645 564.438 569.213
1379 0 64.3528 13.4571 866 68.44 565.035 568.524
1380 0 66.2549 13.765 912 67.7182 565.069 568.688
1381 0 65.4063 14.173 927 68.8242 565.012 566.942
1382 0 67.9275 13.5586 921 67.4517 565.172 568.509
1383 0 71.4499 13.1141 937 67.9157 565.358 566.382
1384 0 71.4768 14.1584 1012 67.996 564.945 563.679
1385 0 76.5432 14.2273 1089 68.6272 565.207 563.295
1386 0 77.4711 14.8959 1154 67.9636 565.266 562.873
1387 0 80.8155 13.6855 1106 69.8852 565.217 560.498
1388 0 80.8155 13.6979 1107 169.038 564.225 560.504
1389 0 85.474 14.0979 1205 69.4946 565.729 558.12
1390 0 87.424 14.138 1236 70.2233 566.151 557.184
1391 0 90.6665 14.4155 1307 69.2464 565.874 555.818
1392 1 44.4406 11.2285 499 72.9419 566.327 576.856
1393 0 47.5805 11.5804 551 72.0218 566.339 576.336
1394 0 51.4475 12.3816 637 70.0141 566.562 575.234
1395 0 50.3744 11.8115 595 72.5782 566.918 574.899
1396 0 53.4776 12.7904 684 70.8611 566.988 573.62
1397 0 54.3998 13.1618 716 70.7737 566.827 573.112
1398 0 55.1995 13.7501 759 70.2964 567.003 571.024
1399 0 61.2541 15.15 928 65.9375 567.506 569.177
1400 0 60.2242 13.9313 839 68.9726 567.878 569.967
1401 0 62.3157 13.7365 856 68.9907 567.892 569.68
1402 0 64.2492 14.1013 906 68.2141 568.342 567.851
1403 0 66.5653 13.9262 927 68.2017 568.369 567.188
1404 0 69.3457 14.1177 979 67.7262 568.827 565.243
1405 0 70.3884 14.3347 1009 67.3816 568.87 563.183
1406 0 72.2869 14.2211 1028 67.5097 569.302 561.635
1407 0 77.2653 14.5084 1121 65.81 569.713 562.242
1408 0 78.2302 13.358 1045 68.1684 569.852 559.151
1409 0 81.2443 13.8964 1129 67.1125 569.873 556.987
1410 0 84.2186 13.1562 1108 67.8646 570.107 554.881
1411 0 86.1705 13.9491 1202 66.5349 570.344 553.228
1412 0 91.1311 14.0676 1282 66.1037 570.474 553.214
1413 0 94.1483 14.2541 1342 65.3301 570.549 552.891
1414 0 95.0962 14.3329 1363 65.4101 570.529 552.57
1415 0 99.1472 14.5642 1444 65.0942 570.373 548.355
1416 0 101.126 13.8639 1402 66.3445 570.407 548.003
1417 0 104.207 14.356 1496 65.5902 571.078 545.263
1418 0 108.217 14.3877 1557 65.1066 571.051 543.839
1419 0 112.14 15.0616 1689 63.7217 570.874 543.732
1420 0 115.297 14.493 1671 64.684 570.877 537.806
1421 0 119.227 14.1159 1683 64.8788 571.02 538.358
1422 0 124.316 14.7769 1837 64.2183 571.212 536.662
1423 0 127.219 14.3139 1821 65.3471 571.11 533.975
1424 0 132.42 14.8618 1968 64.6662 570.976 532.05
1425 0 136.404 14.4204 1967 64.7275 570.99 529.839
1426 0 136.404 14.3618 1959 174.995 571.987 529.885
1427 0 146.243 15.317 2240 63.8924 570.574 525.979
1428 0 151.179 14.85 2245 64.416 570.955 524.067
1429 0 157.277 14.5412 2287 64.8312 570.664 520.131
1430 0 161.38 14.6425 2363 64.7296 570.955 515.67
1431 0 169.236 15.1564 2565 63.5704 571.239 513.937
1432 0 177.312 15.4586 2741 62.9088 571.473 511.149
1433 1 100.161 12.2503 1227 64.8835 571.134 548.791
1434 0 103.279 12.9551 1338 65.716 571.428 546.499
1435 0 105.277 13.2602 1396 173.994 571.433 545.408
1436 0 111.506 13.2817 1481 66.2026 571.172 541.212
1437 0 115.414 13.7331 1585 65.7716 571.184 537.668
1438 0 119.465 13.5354 1617 66.2078 570.975 536.397
1439 0 122.297 13.6635 1671 65.6116 570.878 536.036
1440 0 128.278 13.12 1683 65.5514 570.81 533.25
1441 0 133.284 13.5125 1801 64.8401 570.833 530.761
1442 0 137.306 13.2187 1815 64.9565 570.897 528.429
1443 0 142.325 13.3568 1901 64.8185 570.209 524.904
1444 0 147.316 13.6034 2004 64.3338 570.441 522.939
1445 0 153.567 13.8116 2121 63.942 570.437 519.264
1446 0 160.399 13.6036 2182 63.8983 570.997 517.754
1447 0 166.628 13.9832 2330 63.3627 570.377 514.464
1448 0 171.79 13.662 2347 64.2902 570.678 509.631
1449 0 177.624 13.9621 2480 63.9984 570.781 508.984
1450 0 186.001 14.1075 2624 64.1509 570.336 505.28
1451 0 191.627 13.7977 2644 64.3589 570.458 500.775
1452 0 198.832 14.4343 2870 63.299 569.733 498.624
1453 0 204.815 13.4121 2747 64.9374 569.605 495.568
1454 0 211.725 14.1174 2989 64.2395 569.99 491.47
1455 0 219.551 14.3885 3159 63.5575 569.434 491.594
1456 1 51.4714 10.1416 522 59.6437 570.253 573.423
1457 0 51.2109 10.9156 559 59.9517 568.46 574.014
1458 0 52.1332 10.6266 554 60.7545 568.439 574.754
1459 0 56.1435 11.1678 627 60.2871 568.818 574.442
1460 0 57.1269 11.6407 665 59.4 568.465 575.239
1461 0 58.159 11.7781 685 59.5022 568.08 573.312
1462 0 59.1604 11.2406 665 60.2812 568.451 573.368
1463 0 59.108 11.3352 670 60.8343 568.34 572.419
1464 0 63.199 12.4211 785 59.6038 568.354 571.773
1465 0 65.0943 12.0748 786 60.3028 568.33 570.706
1466 0 67.1282 11.843 795 60.6604 568.374 568.79
1467 0 69.2061 11.9354 826 61.0617 568.356 568.228
1468 0 69.0636 12.293 849 60.9729 569.07 567.008
1469 0 73.0647 11.9757 875 61.7314 569.074 566.117
1470 0 75.0679 12.522 940 61.2957 568.949 565.972
1471 0 78.124 12.7874 999 61.1091 568.268 563.891
1472 0 78.0992 12.2408 956 61.819 567.236 563.304
1473 0 83.0827 13.3602 1110 60.4748 567.661 561.625
1474 0 84.0694 12.6205 1061 61.5052 567.901 560.957
1475 1 47.033 9.41892 443 61.7156 567.693 579.043
1476 0 47.0347 9.33353 439 60.7153 566.886 579.822
1477 0 51.0267 10.3867 530 58.3566 567.038 579.757
1478 0 51.1497 10.1467 519 58.7187 567.187 576.767
1479 0 52.2872 9.81119 513 58.8226 566.14 576.115
1480 1 77.087 7.35532 567 60.5079 567.478 576.996
1481 0 82.0874 11.975 983 50.8067 565.229 571.794
1482 0 75.4576 13.7428 1037 50.1774 565.644 570.983
1483 0 71.7091 18.6029 1334 45.9595 565.657 566.956
1484 0 69.5465 17.6285 1226 47.9568 565.825 566.237
1485 0 72.262 15.679 1133 51.0715 565.57 568.613
1486 0 72.2692 16.4524 1189 50.3532 565.407 565.87
1487 0 74.3655 16.7282 1244 50.4695 565.688 565.711
1488 0 77.4135 14.907 1154 52.7539 565.529 565.808
1489 0 70.189 15.3015 1074 55.3343 565.557 568.03
1490 0 77.9584 15.7905 1231 53.0171 565.688 564.998
1491 0 77.0935 16.681 1286 52.6089 565.943 562.656
1492 0 78.1354 16.4074 1282 54.149 565.669 564.041
1493 0 77.1834 15.1587 1170 56.788 565.782 564.209
1494 0 78.2031 15.3702 1202 57.0757 565.709 564.001
1495 0 78.1455 13.155 1028 61.3667 566.084 565.996
1496 0 78.28 12.1998 955 61.9194 565.987 566.071
1497 0 81.2908 12.7198 1034 60.6054 566.162 564.349
1498 0 85.1336 13.4025 1141 61.702 566.215 561.859
1499 1 48.1738 11.1679 538 61.5019 566.68 581.47
1500 0 48.2223 11.5714 558 61.3656 566.959 580.814
1501 0 51.117 11.4248 584 62.2363 567.354 579.794
1502 0 50.0373 12.031 602 62.0947 568.758 580.038
1503 0 53.2283 12.7752 680 61.8279 567.654 578.162
1504 0 55.1767 12.1972 673 61.7875 567.496 578.872
1505 0 54.1636 11.9453 647 63.3879 567.736 576.892
1506 0 55.1181 12.319 679 62.7585 567.757 576.812
1507 0 59.1524 12.527 741 61.6113 568.256 575.985
1508 0 57.1944 13.2181 756 62.3651 568.571 574.982
1509 0 60.2005 13.1394 791 60.6903 568.436 573.091
1510 0 61.1882 13.1234 803 61.5243 568.575 573.274
1511 0 62.2729 13.5211 842 60.9727 569.481 572.094
1512 0 66.1916 12.6904 840 62.0619 569.455 571.99
1513 0 68.202 13.6653 932 60.5515 569.517 570.928
1514 0 70.1422 13.5439 950 60.94 569.654 570.401
1515 0 70.1731 13.6947 961 61.257 569.744 568.983
1516 0 71.2133 14.0002 997 61.0923 570.013 566.834
1517 0 76.1618 14.0096 1067 60.0244 570.302 567.114
1518 0 77.139 13.3525 1030 61.2155 570.416 564.654
1519 0 79.1504 13.8597 1097 60.5971 570.902 563.871
1520 0 82.1278 14.4531 1187 59.7717 570.876 561.851
1521 0 84.2007 13.6935 1153 60.5343 571.3 560.874
1522 0 87.1122 13.5572 1181 60.3683 571.688 560.688
1523 0 90.1093 13.6501 1230 60.2122 571.538 556.863
1524 0 94.1847 13.7283 1293 59.8592 571.827 555.022
1525 0 98.169 14.6278 1436 58.0773 571.754 555.255
1526 1 54.1113 11.1991 606 60.198 571.041 576.048
1527 0 56.0252 11.4413 641 59.7176 571.91 574.516
1528 0 58.055 11.937 693 58.4387 572.629 575.893
1529 0 60.0395 12.5584 754 58.3714 572.549 573.015
1530 0 61.136 13.4291 821 57.0183 572.278 571.553
1531 0 61.1515 13.1313 803 57.8854 571.998 570.537
1532 0 65.1454 12.6179 822 59.2713 572.056 569.484
1533 0 66.1405 13.1841 872 59.0722 571.836 568.055
1534 0 69.1211 13.0206 900 59.09 571.719 568.828
1535 0 70.1565 13.8405 971 58.6653 572.209 566.78
1536 0 72.0761 13.5412 976 59.5564 571.942 565.769
1537 0 75.1287 13.6832 1028 59.3268 571.87 564.827
1538 0 76.0905 13.9439 1061 59.4637 571.732 564.318
1539 0 79.1066 13.6525 1080 60.3843 571.954 562.202
1540 0 80.1259 13.9406 1117 60.4843 571.831 561.051
1541 0 85.2361 14.2545 1215 59.67 571.482 559.552
1542 0 86.1109 13.831 1191 61.1411 571.697 558.261
1543 0 90.1493 13.8326 1247 61.0642 571.673 556.819
1544 0 92.1599 14.0408 1294 61.1059 571.464 555.363
1545 0 94.1508 13.8501 1304 61.9517 571.873 553.861
1546 0 99.1709 14.1372 1402 60.9622 571.934 553.819
1547 0 99.1714 13.8951 1378 62.5327 571.565 550.772
1548 1 59.0528 11.6845 690 62.6841 571.142 572.838
1549 0 62.0643 12.4226 771 62 571.768 572.968
1550 0 63.033 13.2788 837 62.2784 571.079 571.607
1551 0 67.0642 13.1665 883 61.4134 571.681 570.709
1552 0 67.2026 13.3179 895 62.1855 570.745 569.834
1553 0 70.0925 13.9673 979 61.1818 570.383 568.449
1554 0 74.2102 13.7582 1021 60.903 570.254 567.336
1555 0 75.2568 13.1151 987 62.2867 570.422 568.461
1556 0 78.1167 14.1071 1102 60.5136 570.064 565.524
1557 0 81.1327 13.7552 1116 61.0036 570.409 565.133
1558 0 84.2051 13.6571 1150 61.3165 571.255 563.904
1559 0 87.17 13.4679 1174 61.609 570.756 562.814
1560 0 88.0903 14.3489 1264 61.3956 569.863 558.112
1561 1 48.1386 11.55 556 62.7788 569.987 579.577
1562 0 51.0995 11.1938 572 62.2885 570.626 578.598
1563 0 51.0489 12.4978 638 61.5298 570.82 576.68
1564 0 54.0199 11.9586 646 62.4056 570.48 575.652
1565 0 58.1486 13.07 760 60.596 569.81 575.487
1566 0 58.1486 13.0356 758 164.214 568.81 575.503
1567 0 59.0698 13.8819 820 61.0268 569.576 574.334
1568 0 63.1378 13.8902 877 60.1414 569.14 573.34
1569 0 63.0949 13.4401 848 61.3066 569.085 572.376
1570 0 64.0726 13.8905 890 60.9764 569.044 571.484
1571 0 66.1353 13.6236 901 61.1543 568.619 570.274
1572 0 70.4374 13.6149 959 60.3128 568.85 570.002
1573 0 72.2749 14.2788 1032 59.9099 568.529 568.955
1574 0 76.0883 14.0232 1067 59.7207 568.573 568.338
1575 0 76.2889 13.8159 1054 61.4051 568.368 566.396
1576 0 77.2596 14.0436 1085 61.7318 568.725 565.313
1577 0 80.3104 14.2198 1142 61.4685 568.612 564.7
1578 0 84.2606 14.3009 1205 61.4174 568.228 563.325
1579 0 86.3496 14.6266 1263 61.4545 568.233 563.286
1580 0 90.2671 14.2466 1286 62.3025 568.047 561.488
1581 0 92.2885 14.5847 1346 61.9302 567.484 561.717
1582 0 94.4011 14.2583 1346 63.11 567.958 559.046
1583 0 96.2792 13.7101 1320 63.9689 566.921 557.523
1584 0 101.182 14.3899 1456 62.7019 567.168 555.442
1585 1 56.1627 11.5379 648 63.4722 567.06 578.218
1586 0 60.2431 13.0969 789 61.3916 567.118 578.611
1587 0 61.4008 12.6708 778 62.7558 566.782 575.541
1588 0 63.3903 13.7403 871 61.1079 566.576 573.881
1589 0 66.11 12.933 855 61.786 566.179 573.55
1590 0 68.348 12.8607 879 61.4801 566.644 572.164
1591 0 71.1913 13.1477 936 60.9712 566.982 570.964
1592 0 74.2085 13.6372 1012 60.33 566.835 568.608
1593 0 75.2506 12.7707 961 61.7451 566.756 567.839
1594 0 78.2359 13.2804 1039 60.6959 566.652 566.202
1595 0 80.1006 13.3582 1070 61.0757 566.619 564.715
1596 0 83.2069 13.208 1099 60.9672 566.924 563.036
1597 0 85.2208 13.0719 1114 61.5736 567.133 560.228
1598 0 89.2907 13.652 1219 60.5152 567.223 560.666
1599 0 91.2813 13.6611 1247 60.9479 567.101 558.616
1600 0 94.254 14.0365 1323 60.4414 567.521 556.308
1601 0 99.1573 13.3424 1323 61.0272 567.329 555.441
1602 0 102.22 13.197 1349 61.0245 567.244 552.52
1603 0 104.258 14.0804 1468 60.248 567.933 552.476
1604 0 107.277 13.8799 1489 60.2868 567.778 549.41
1605 1 64.2274 11.6617 749 59.9613 568.132 571.067
1606 0 65.156 11.342 739 60.0852 568.001 570.434
1607 0 69.0909 12.1434 839 59.174 568.23 568.732
1608 0 70.1393 12.518 878 59.1196 568.348 568.469
1609 0 74.082 13.4176 994 57.3099 569.433 567.49
1610 0 75.1769 12.9162 971 58.3986 569.587 565.456
1611 0 77.1236 12.7717 985 58.9665 569.51 563.143
1612 0 81.191 13.4005 1088 58.0285 569.651 562.023
1613 0 84.1448 13.4768 1134 57.5485 569.723 561.744
1614 0 84.2345 12.9401 1090 59.1734 570.032 560.407
1615 0 88.3091 13.985 1235 57.9749 570.078 558.491
1616 0 90.2301 13.3658 1206 58.7272 570.207 556.057
1617 0 93.3626 13.2494 1237 59.5683 570.944 556.248
1618 0 97.1997 13.6214 1324 59.4736 571.685 554.023
1619 0 100.276 13.074 1311 60.1953 572.035 549.96
1620 0 104.207 13.3772 1394 60.188 572.132 548.397
1621 0 107.266 13.7789 1478 60.2672 572.353 546.761
1622 1 61.053 10.6629 651 60.0246 573.427 571.488
1623 0 59.117 9.32051 551 62.3811 573.339 570.641
1624 0 64.0463 11.2419 720 60.3917 573.332 569.071
1625 0 64.0932 11.2492 721 60.4036 573.122 568.595
1626 0 65.0541 11.6826 760 60.6632 573.204 566.947
1627 0 69.3366 11.7975 818 59.3753 571.705 564.988
1628 0 67.7043 12.0967 819 61.4823 571.888 566.232
1629 0 73.4149 13.2943 976 58.8104 572.531 565.176
1630 0 73.4566 13.137 965 60.1938 572.068 565.662
1631 0 76.305 13.5378 1033 60.4714 572.07 562.382
1632 0 78.4442 13.1558 1032 61.0174 571.857 561.504
1633 0 81.5023 13.6806 1115 60.4924 571.816 560.908
1634 0 82.571 13.1765 1088 61.8649 572.239 560.278
1635 0 84.4166 12.8766 1087 62.5069 572.261 557.35
1636 0 87.7044 12.907 1132 62.6749 572.102 557.245
1637 0 90.5727 12.421 1125 63.4604 572.621 555.644
1638 0 93.3779 13.9219 1300 61.8877 572 554.134
1639 0 96.4687 13.2686 1280 62.5828 572.252 551.512
1640 0 100.591 13.3909 1347 62.6258 572.48 552.942
1641 0 100.39 13.069 1312 63.2431 572.602 550.313
1642 0 104.975 12.965 1361 63.8376 572.53 548.838
1643 0 108.608 13.2955 1444 63.7805 572.688 545.662
1644 1 64.4154 11.7053 754 62.3926 572.464 569.317
1645 0 66.5276 11.1382 741 64.193 572.328 565.845
1646 0 68.5566 12.311 844 63.16 572.278 566.043
1647 0 68.6344 12.1659 835 64.9078 572.338 565.781
1648 0 71.5838 12.8102 917 64.0971 572.3 564.166
1649 0 75.5123 13.1369 992 63.5262 571.825 564.914
1650 0 76.4475 13.0678 999 64.1231 571.666 562.922
1651 0 79.5536 13.3621 1063 63.6416 571.71 562.024
1652 0 80.6892 13.521 1091 64.066 571.269 560.639
1653 0 83.9636 13.3153 1118 64.1208 571.351 560.503
1654 0 86.6935 13.4497 1166 64.4185 571.599 556.989
1655 0 88.4477 13.4091 1186 64.9958 571.413 555.461
1656 0 92.3861 13.7358 1269 64.3593 571.152 554.321
1657 0 95.5841 13.6215 1302 64.5998 570.978 552.663
1658 0 99.6901 13.873 1383 64.0253 570.732 552.471
1659 0 102.729 13.8227 1420 64.0725 570.255 549.497
1660 0 105.993 13.8028 1463 64.594 570.321 548.582
1661 0 109.686 14.5689 1598 63.1064 570.287 547.366
1662 0 111.783 14.0719 1573 64.2804 570.136 545.975
1663 0 115.508 13.7133 1584 65.0474 570.125 543.367
1664 1 64.537 11.3733 734 64.7003 570.134 569.301
1665 0 67.4605 12.0367 812 63.6712 569.776 569.952
1666 0 68.3627 12.7409 871 63.7176 569.692 569.021
1667 0 73.5006 13.3468 981 60.946 569.757 565.986
1668 0 73.7051 12.6857 935 62.0192 569.497 566.044
1669 0 76.7163 13.035 1000 61.688 569.375 564.009
1670 0 78.4708 13.317 1045 61.5866 569.343 563.894
1671 0 80.4478 13.2011 1062 61.677 569.282 561.88
1672 0 83.4144 13.4269 1120 61.6446 569.21 561.251
1673 0 88.3894 14.0288 1240 60.3073 568.777 560.103
1674 0 87.575 13.3714 1171 62.3313 569.187 559.409
1675 0 91.3698 13.1553 1202 62.1339 568.635 558.498
1676 0 95.5088 13.5171 1291 62.3253 568.909 555.293
1677 0 96.4029 13.3502 1287 63.1064 568.901 553.022
1678 0 99.4745 13.7523 1368 63.1499 568.327 552.317
1679 0 105.357 14.5315 1531 61.224 568.163 552.525
1680 0 106.361 14.1123 1501 62.8981 568.316 548.396
1681 0 109.352 13.9092 1521 63.6542 568.207 548.794
1682 0 113.449 14.35 1628 63.0448 568.392 547.657
1683 0 117.397 14.1826 1665 63.3099 568.282 546.302
1684 0 119.542 13.7358 1642 62.9397 568.239 543.839
1685 0 119.542 13.7776 1647 169.08 568.233 543.764
1686 1 72.3861 11.4801 831 63.2888 568.125 569.351
1687 0 73.1938 11.3671 832 63.1995 567.8 569.34
1688 0 75.2973 12.1651 916 62.3177 567.993 567.662
1689 0 77.2558 13.0735 1010 63.005 567.896 566.747
1690 0 81.3348 13.1678 1071 62.4211 567.792 562.898
1691 0 83.3288 13.5487 1129 61.9894 567.586 562.659
1692 0 87.2053 14.4487 1260 60.7325 566.811 561.149
1693 0 89.4112 13.2869 1188 62.8418 566.412 559.927
1694 0 92.294 13.9879 1291 62.0914 567.115 557.788
1695 0 94.3945 14.4394 1363 62.168 566.864 556.148
1696 0 99.3957 13.8235 1374 62.4098 566.361 554.753
1697 0 101.473 14.2895 1450 61.3828 566.388 554.643
1698 0 104.521 14.686 1535 60.7388 566.264 552.844
1699 0 107.351 14.0754 1511 61.9616 566.105 553.553
1700 0 110.494 13.9284 1539 62.3112 565.968 551.449
1701 0 113.629 14.2569 1620 62.2605 565.557 548.162
1702 0 117.36 13.6162 1598 62.99 565.954 546.538
1703 0 122.463 14.2736 1748 61.6173 565.754 544.194
1704 0 126.554 13.8518 1753 61.9498 565.677 543.325
1705 0 128.411 13.6359 1751 62.538 565.765 541.311
1706 1 72.197 11.3994 823 63.644 565.598 568.652
1707 0 72.2233 11.6029 838 62.3162 566.284 570.773
1708 0 75.2032 12.5394 943 61.4984 566.156 568.177
1709 0 78.2164 13.3987 1048 60.7891 566.126 562.637
1710 0 81.169 13.3918 1087 60.5419 565.807 561.995
1711 0 84.3141 13.5327 1141 60.3926 566.522 559.805
1712 0 86.1029 13.9717 1203 60.0183 566.488 558.658
1713 0 89.279 13.105 1170 60.1957 566.847 557.398
1714 0 93.3299 13.5219 1262 60.0769 567.18 554.281
1715 0 96.4392 14.3821 1387 58.5177 566.885 552.743
1716 0 101.526 14.2033 1442 58.2635 566.895 552.786
1717 0 105.281 14.7605 1554 57.5579 567.111 548.878
1718 0 108.476 14.9987 1627 56.8058 567.069 546.205
1719 0 111.647 14.0085 1564 58.101 567.045 545.524
1720 0 113.368 14.4573 1639 57.9744 567.458 544.826
1721 0 118.389 15.1788 1797 57.0378 567.319 539.506
1722 0 120.563 14.9465 1802 57.6287 567.473 538.474
1723 0 125.323 14.4188 1807 58.2457 567.46 538.732
1724 0 129.554 14.4572 1873 57.8809 567.793 534.731
1725 1 71.2128 11.4446 815 60.681 567.768 565.021
1726 0 72.1847 12.4819 901 59.3596 567.348 563.589
1727 0 76.2193 13.0151 992 58.5383 567.356 563.432
1728 0 77.298 13.5579 1048 58.1422 567.607 561.164
1729 0 79.1083 14.1199 1117 56.6267 567.625 560.753
1730 0 81.1431 13.8398 1123 57.033 567.903 558.543
1731 0 84.3364 14.0746 1187 56.5308 568.079 556.695
1732 0 88.2661 14.377 1269 56.0228 568.389 556.052
1733 0 94.214 14.5095 1367 55.6533 568.511 554.457
1734 0 96.3629 14.7152 1418 56.0021 568.974 552.938
1735 0 98.2363 14.7094 1445 56.4927 569.22 552.484
1736 0 102.172 14.1232 1443 57.3202 569.141 549.952
1737 0 103.253 14.537 1501 56.8061 569.739 548.252
1738 0 108.267 14.4181 1561 56.2076 569.93 548.448
1739 0 111.342 14.6934 1636 55.8661 570.204 543.338
1740 0 115.258 15.3569 1770 55.4028 570.418 540.032
1741 0 117.331 14.6252 1716 56.2424 570.811 541.304
1742 0 124.321 14.905 1853 54.8446 570.92 539.071
1743 0 127.43 13.8664 1767 55.91 571.242 537.752
1744 1 72.2535 13.3973 968 55.8192 571.909 563.124
1745 0 72.3598 12.7972 926 57.5108 571.535 561.03
1746 0 75.5349 13.6096 1028 56.2451 572.316 559.04
1747 0 78.324 13.3165 1043 56.0988 572.78 560.314
1748 0 82.3262 13.7866 1135 56.007 572.705 556.803
1749 0 83.3939 13.3703 1115 57.3013 572.74 554.445
1750 0 87.3216 15.1394 1322 55.2678 572.482 552.637
1751 0 88.4095 13.0303 1152 58.6311 572.793 552.473
1752 0 92.3452 14.1209 1304 57.4854 572.614 549.66
1753 0 95.4262 13.403 1279 58.1384 572.432 549.564
1754 0 97.3121 13.5749 1321 58.483 571.995 548.089
1755 0 102.419 14.5481 1490 57.1678 572.17 546.642
1756 0 101.41 14.1703 1437 168.942 572.137 545.944
1757 1 58.1509 11.0402 642 58.6776 571.975 567.846
1758 0 60.3144 10.9427 660 57.9121 571.879 568.408
1759 0 60.4355 10.474 633 59.7014 572.221 568.014
1760 0 62.2899 11.7997 735 59.8245 572.272 563.864
1761 0 66.136 12.5801 832 58.476 572.024 562.594
1762 0 68.1997 13.5191 922 57.4035 571.95 562.948
1763 0 70.3838 13.5116 951 57.8318 571.729 561.062
1764 0 74.4586 13.4437 1001 57.5634 571.426 559.586
1765 0 74.2317 13.3232 989 58.2609 571.333 557.556
1766 0 78.2732 13.9639 1093 57.5581 571.19 558.567
1767 0 78.3023 13.0647 1023 59.437 571.484 557.381
1768 0 81.3092 13.0244 1059 59.3362 571.195 554.262
1769 0 86.4343 14.3346 1239 57.3325 570.768 555.396
1770 0 87.5834 13.1418 1151 59.0235 570.666 553.723
1771 0 89.5126 13.931 1247 58.3881 570.475 550.139
1772 0 93.3234 14.5194 1355 58.7026 570.568 549.906
1773 0 96.3545 13.9381 1343 59.7208 570.382 548.513
1774 0 98.5579 14.0628 1386 60.1248 570.011 546.77
1775 0 101.515 13.9783 1419 60.9478 569.994 546.401
1776 0 104.629 13.7724 1441 60.5572 570.064 545.638
1777 0 108.366 15.5584 1686 58.1139 569.994 544.217
1778 0 111.614 14.7472 1646 59.842 569.922 543.552
1779 0 114.537 14.4232 1652 60.2881 569.858 539.875
1780 0 117.46 13.7749 1618 61.4468 570.089 540.603
1781 1 63.4821 11.326 719 62.7997 570.064 566.581
1782 0 68.4071 12.0601 825 61.8303 569.608 564.743
1783 0 71.2259 12.6078 898 61.2361 569.454 564.431
1784 0 72.1897 12.7165 918 61.2081 569.027 563.637
1785 0 75.3108 12.1231 913 61.851 569.344 561.961
1786 0 77.571 13.3813 1038 59.8362 569.34 560.777
1787 0 80.2454 13.683 1098 60.1384 568.898 558.057
1788 0 84.4798 13.5772 1147 60.0514 568.184 556.299
1789 0 86.3242 15.0132 1296 58.7045 568.542 553.654
1790 0 90.2606 14.2255 1284 59.7438 568.497 552.286
1791 0 94.3004 14.1463 1334 59.7406 568.599 552.486
1792 0 97.2994 14.0494 1367 60.2004 568.146 549.829
1793 0 101.243 14.1935 1437 60.1684 568.311 548.335
1794 0 102.296 13.4316 1374 61.2082 568.074 548.105
1795 0 107.522 14.2575 1533 60.0724 568.451 545.731
1796 0 109.357 14.2561 1559 60.5099 568.054 545.008
1797 0 113.445 14.192 1610 60.5783 568.199 544.756
1798 0 116.452 13.9113 1620 61.0488 567.595 542.357
1799 0 121.368 13.4303 1630 61.4454 567.894 538.982
1800 1 68.257 11.3541 775 60.1936 568.334 566.203
1801 0 70.2836 12.0512 847 59.3684 568.037 566.051
1802 0 73.234 12.7673 935 59.3433 568.017 562.017
1803 0 78.3419 13.1986 1034 59.2756 567.899 560.088
1804 0 78.3272 12.8691 1008 60.4673 567.583 559.616
1805 0 82.4093 13.3844 1103 59.233 567.751 559.348
1806 0 84.3688 13.4647 1136 59.4217 567.884 558.656
1807 0 89.4767 13.3107 1191 59.5264 567.643 555.708
1808 0 90.564 13.2393 1199 60.0217 567.972 554.863
1809 0 94.3171 12.7018 1198 60.414 567.78 554.678
1810 0 94.4134 12.9325 1221 61.4414 567.655 551.797
1811 0 98.4069 13.749 1353 60.541 567.104 551.818
1812 0 104.548 14.1754 1482 59.3401 567.754 550.859
1813 0 106.58 13.4828 1437 60.595 567.406 548.626
1814 0 111.423 13.6327 1519 60.4621 567.512 546.55
1815 0 112.482 14.0467 1580 60.6639 567.826 544.523
1816 0 116.45 13.5509 1578 61.5805 567.628 541.972
1817 0 120.555 13.7696 1660 61.3482 567.995 542.27
1818 0 124.58 14.7615 1839 60.2153 567.572 540.2
1819 0 128.534 14.362 1846 60.7866 567.663 537.327
1820 1 75.354 10.3777 782 60.766 567.482 567.134
1821 0 76.3131 10.8762 830 60.3578 567.822 566.542
1822 0 77.3727 12.0197 930 59.943 567.52 563.291
1823 0 82.3273 13.7257 1130 58.169 568.022 562.4
1824 0 82.447 12.6384 1042 60.667 568.174 560.201
1825 0 86.3663 13.5354 1169 59.2874 568.036 559.685
1826 0 87.2888 12.7851 1116 60.9194 568.234 558.154
1827 0 91.2732 12.8296 1171 60.6251 568.37 556.896
1828 0 94.5711 13.355 1263 60.6033 569.043 553.178
1829 0 97.4929 13.3548 1302 60.1859 568.907 551.518
1830 0 101.366 13.7522 1394 59.7561 568.775 549.26
1831 0 105.508 12.9943 1371 60.5755 569.015 548.815
1832 0 108.549 13.4133 1456 60.2843 568.933 547.068
1833 0 110.425 13.3213 1471 60.964 569.27 546.194
1834 0 114.539 13.6896 1568 60.0274 569.357 545.043
1835 0 117.671 13.9032 1636 60.1559 569.51 541.144
1836 1 71.3123 10.4891 748 59.9532 569.783 566.992
1837 0 71.2883 10.7311 765 60.0105 570.195 568.093
1838 0 74.3141 11.263 837 59.1804 570.47 565.455
1839 0 76.2396 12.9198 985 58.0558 570.505 561.386
1840 0 78.2783 12.5322 981 58.9236 570.998 561.003
1841 0 79.4019 12.7075 1009 58.8315 571.334 559.853
1842 0 81.4515 12.3386 1005 59.4527 571.768 558.102
1843 0 84.3592 12.5535 1059 59.2767 571.755 557.469
1844 0 87.4397 13.1748 1152 58.2604 571.786 556.893
1845 0 91.4024 13.2272 1209 58.0157 572.055 553.712
1846 0 94.3363 13.2823 1253 57.9984 571.964 553.752
1847 0 95.3919 12.1708 1161 59.3152 571.886 551.107
1848 0 98.3108 12.6639 1245 58.8378 571.953 550.394
1849 0 102.221 12.9914 1328 58.302 572.63 547.595
1850 0 105.205 13.5736 1428 57.6169 572.62 545.557
1851 0 109.329 14.1042 1542 56.8988 572.825 543.775
1852 0 111.512 12.8327 1431 58.2006 572.572 542.56
1853 0 116.398 13.3765 1557 56.2588 572.625 541.04
1854 0 120.524 13.4496 1621 55.9352 572.465 539.3
1855 0 124.33 14.0755 1750 55.576 572.779 537.005
1856 0 126.498 13.0515 1651 56.8013 572.523 535.314
1857 1 74.3916 11.3588 845 56.0248 572.232 562.329
1858 0 75.3177 11.0333 831 56.9254 572.111 558.904
1859 0 80.3632 11.4729 922 56.013 571.977 558.612
1860 0 81.2647 11.5794 941 55.7471 572.23 558.954
1861 0 84.3138 12.3112 1038 55.3295 572.009 556.523
1862 0 88.4245 14.1137 1248 53.613 571.88 553.138
1863 0 89.4291 13.0383 1166 54.8396 572.084 554.252
1864 0 91.6507 13.1696 1207 54.8699 571.331 551.244
1865 0 94.6752 13.1925 1249 55.1769 571.504 551.181
1866 0 98.5852 13.3489 1316 55.2485 571.378 548.757
1867 0 100.387 13.6672 1372 54.7966 571.471 549.757
1868 0 104.633 13.6095 1424 54.6166 571.655 549.97
1869 0 106.445 13.0584 1390 56.1547 571.583 544.104
1870 0 110.331 13.7768 1520 54.473 571.484 544.329
1871 0 113.628 13.6058 1546 54.5537 571.369 543.301
1872 0 115.385 14.0747 1624 54.3054 570.615 540.347
1873 0 120.363 14.4978 1745 53.9828 570.194 540.372
1874 0 124.392 14.2212 1769 54.5076 569.964 536.014
1875 0 127.706 14.0792 1798 54.2814 570.151 535.546
1876 0 130.331 14.187 1849 54.6576 569.747 534.479
1877 0 133.391 14.2588 1902 54.5647 569.714 533.414
1878 0 137.459 14.4553 1987 54.5405 569.071 532.56
1879 1 79.3728 11.3893 904 54.26 569.125 561.782
1880 0 81.401 11.2775 918 54.1961 568.698 563.398
1881 0 84.219 11.1614 940 54.8723 569.083 560.822
1882 0 85.483 11.5813 990 54.9111 569.037 558.662
1883 0 89.182 11.8746 1059 54.7007 569.129 557.009
1884 0 93.4588 12.4975 1168 54.2183 569.07 557.616
1885 0 94.4881 12.1073 1144 55.7675 568.864 554.545
1886 0 98.5002 12.3451 1216 55.5831 568.685 553.025
1887 0 103.914 13.0108 1352 54.3713 568.63 551.219
1888 0 103.491 12.4938 1293 56.0882 568.436 548.641
1889 0 106.603 12.8233 1367 55.8734 568.236 548.58
1890 0 110.394 12.9717 1432 56.2311 568.644 545.315
1891 0 112.521 12.6287 1421 56.5848 568.659 545.133
1892 0 119.811 13.6214 1632 55.0429 568.54 544.088
1893 0 121.67 13.1174 1596 56.0025 568.384 542.05
1894 0 124.489 13.4309 1672 55.8953 568.226 540.622
1895 0 127.457 13.2986 1695 56.6313 568.286 536.795
1896 0 133.727 13.5874 1817 55.9648 568.347 536.737
1897 0 137.721 13.4693 1855 56.1574 568.277 533.793
1898 0 142.623 13.5532 1933 56.344 568.411 532.381
1899 0 146.573 14.4638 2120 55.2849 568.255 530.027
1900 0 149.679 13.6425 2042 56.4971 567.359 526.385
1901 0 154.735 13.2872 2056 56.9455 567.189 522.604
1902 1 95.3895 11.1962 1068 55.6891 567.169 557.37
1903 0 97.2945 10.6584 1037 55.6866 567.094 558.587
1904 0 98.2527 10.6664 1048 57.1842 566.615 553.958
1905 0 100.236 12.3309 1236 55.699 566.586 552.438
1906 0 105.229 12.7056 1337 55.0194 566.489 551.048
1907 0 108.361 12.2922 1332 55.7965 566.827 549.097
1908 0 111.265 12.5916 1401 55.8844 566.768 547.744
1909 0 116.222 13.5861 1579 54.8879 566.438 547.265
1910 0 118.193 12.2765 1451 56.8408 566.296 543.947
1911 0 121.241 13.4196 1627 56.0891 566.336 541.945
1912 1 76.3502 10.1375 774 55.2442 566.864 569.695
1913 0 75.2486 9.31578 701 56.8117 567.177 568.769
1914 0 79.1465 10.2974 815 56.5975 566.548 566.571
1915 0 81.1032 11.5655 938 55.258 566.458 565.81
1916 0 85.3503 11.7047 999 55.5195 566.077 564.534
1917 0 88.1897 12.3824 1092 54.3636 565.42 562.768
1918 0 85.0507 12.5337 1066 57.5741 565.276 559.749
1919 0 90.2101 12.227 1103 57.3146 565.804 560.551
1920 0 93.1734 12.6324 1177 57.384 566.521 557.392
1921 0 95.2066 12.4676 1187 58.3791 565.649 557.003
1922 0 95.1171 11.6173 1105 60.1864 564.926 554.945
1923 0 99.172 12.5237 1242 59.3913 564.979 555.808
1924 0 100.184 12.2475 1227 60.8606 565.095 551.897
1925 0 104.23 12.7219 1326 60.7066 564.88 554.178
1926 0 107.23 13.513 1449 59.9324 564.57 552.827
1927 0 110.405 13.378 1477 60.8477 564.79 551.208
1928 0 112.222 13.304 1493 61.4086 564.835 550.664
1929 0 115.254 12.7197 1466 62.5771 564.866 546.806
1930 0 118.276 12.7836 1512 62.9306 565.358 545.564
1931 0 123.322 13.2337 1632 62.326 565.541 545.257
1932 0 126.561 14.2224 1800 61.4639 565.174 541.016
1933 0 129.386 13.5023 1747 62.6022 565.197 539.706
1934 0 129.409 12.333 1596 64.1842 565.745 540.612
1935 1 83.1806 12.9838 1080 60.1352 565.994 565.62
1936 0 83.2257 12.2438 1019 62.1295 566.063 560.567
1937 0 86.2288 13.0235 1123 60.4283 566.232 563.048
1938 0 88.2792 12.4265 1097 61.8122 565.72 561.204
1939 0 89.291 12.5321 1119 62.4987 566.224 560.429
1940 0 93.3062 12.8502 1199 61.4871 565.922 559.456
1941 0 96.103 12.9549 1245 61.6402 566.083 557.574
1942 0 100.418 13.0256 1308 61.448 566.173 554.74
1943 0 102.338 13.26 1357 61.6706 566.296 552.194
1944 0 105.415 13.7172 1446 59.2794 566.946 550.929
1945 0 108.357 13.4832 1461 59.7105 567.01 550.294
1946 0 113.266 14.2232 1611 58.7592 567.327 547.99
1947 0 114.281 13.9218 1591 59.4004 567.442 545.215
1948 0 117.438 14.0755 1653 59.1367 567.034 544.04
1949 0 117.347 13.7797 1617 60.4106 567.312 543.044
1950 0 122.33 13.8805 1698 60.0501 567.045 541.142
1951 0 127.194 14.4347 1836 59.5093 567.806 538.135
1952 0 131.295 14.2427 1870 59.6706 567.731 537.052
1953 0 134.174 14.1384 1897 60.1529 567.542 534.529
1954 0 141.203 14.4473 2040 59.0137 567.767 533.095
1955 0 146.352 15.2304 2229 57.7752 567.842 528.827
1956 1 86.1188 10.9848 946 59.4038 568.383 559.896
1957 0 91.2404 12.7685 1165 57.594 568.32 558.179
1958 0 92.2177 12.6115 1163 58.4875 568.346 555.049
1959 0 98.1448 13.2457 1300 56.7392 568.615 554.047
1960 0 101.193 13.41 1357 56.7273 568.601 551.344
1961 0 104.382 12.9237 1349 56.9718 568.747 551.89
1962 0 107.283 13.0775 1403 57.0891 568.907 548.618
1963 0 111.263 13.5805 1511 56.4772 569.202 547.905
1964 0 113.253 12.8385 1454 58.1307 568.941 545.256
1965 0 115.239 12.9383 1491 58.4386 569.133 540.787
1966 0 120.263 14.1773 1705 56.4651 569.819 540.059
1967 0 123.252 13.0465 1608 57.7127 570.059 540.488
1968 0 127.247 13.2027 1680 57.3988 570.516 537.517
1969 0 132.306 14.3682 1901 56.2199 570.82 535.195
1970 0 137.356 13.556 1862 57.4055 570.764 531.08
1971 0 142.299 14.2095 2022 56.5138 571.023 528.755
1972 0 145.322 14.0034 2035 57.0457 571.192 528.684
1973 1 84.3128 11.4573 966 56.6956 571.615 558.466
1974 0 85.1592 11.4374 974 57.2136 572.102 556.818
1975 0 88.1284 12.2322 1078 55.9249 572.165 557.655
1976 0 89.0961 12.1666 1084 57.0323 572.536 555.584
1977 0 92.2406 11.882 1096 56.7856 572.547 551.196
1978 0 94.1775 12.126 1142 57.38 572.403 548.028
1979 0 98.3014 12.2684 1206 57.6211 572.294 549.051
1980 0 100.176 12.2584 1228 58.3371 572.113 546.53
1981 0 104.212 12.82 1336 57.8413 572.27 545.993
1982 0 106.235 12.6983 1349 58.7598 572.467 543.225
1983 0 111.265 12.3668 1376 59.141 572.269 542.652
1984 0 113.23 12.8412 1454 58.705 572.776 539.284
1985 0 118.417 12.6586 1499 58.7225 572.544 539.653
1986 0 120.272 12.056 1450 59.511 572.717 538.806
1987 0 124.386 13.0722 1626 59.1248 572.195 534.091
1988 0 127.199 13.0347 1658 59.421 572.556 531.926
1989 0 131.237 13.1365 1724 59.0493 572.407 530.465
1990 0 134.396 12.8649 1729 59.2412 572.239 528.241
1991 0 139.287 12.8368 1788 59.2964 572.162 529.078
1992 0 143.249 13.9198 1994 57.9223 572.269 524.463
1993 0 149.509 12.9089 1930 59.2347 571.639 523.664
1994 1 86.2492 11.061 954 58.7883 571.816 554.94
1995 0 89.0783 11.7986 1051 57.0143 571.442 554.508
1996 0 91.1851 12.4143 1132 56.8012 571.47 552.416
1997 0 92.1426 12.2419 1128 57.5975 571.254 549.276
1998 0 96.1307 12.5454 1206 57.1857 571.027 549.302
1999 0 97.1967 12.7268 1237 57.1762 571.442 546.76
2000 0 102.366 12.3576 1265 56.8925 571.025 546.539
2001 0 105.243 12.5899 1325 56.8551 570.746 543.945
2002 0 107.287 13.0025 1395 56.5756 570.513 542.258
2003 0 109.25 12.7872 1397 56.7831 570.452 540.547
2004 0 112.183 13.2819 1490 57.0369 570.351 539.674
2005 0 118.468 13.4635 1595 56.6445 569.989 535.314
2006 0 120.329 13.5545 1631 56.9608 569.726 537.001
2007 1 72.2417 11.1016 802 56.8441 570.19 561.13
2008 0 72.1763 9.68462 699 58.1774 569.641 560.451
2009 0 78.2664 9.73598 762 57.5866 569.538 560.71
2010 0 77.3905 11.4226 884 56.3224 569.426 558.615
2011 0 82.4209 11.2229 925 55.6789 569.143 557.881
2012 0 84.245 11.9532 1007 55.7915 568.886 555.7
2013 0 88.2204 12.7635 1126 54.6297 568.771 555.119
2014 0 90.3536 12.8053 1157 54.7563 568.779 554.529
2015 0 90.1623 12.8435 1158 55.487 568.689 554.162
2016 0 95.4203 12.7436 1216 55.2845 568.465 551.317
2017 0 98.4617 13.1015 1290 55.2442 568.268 548.933
2018 0 102.379 12.5514 1285 55.6591 567.925 547.787
2019 0 104.304 13.221 1379 55.0167 568.247 545.677
2020 0 109.397 14.1228 1545 54.033 568.372 543.331
2021 0 109.397 14.132 1546 157.902 569.376 543.32
2022 0 112.231 13.9266 1563 55.4024 568.05 539.66
2023 0 118.499 14.9031 1766 54.0221 568.053 541.605
2024 0 119.313 12.7982 1527 56.795 567.908 537.724
2025 0 128.354 14.2809 1833 54.2728 567.861 536.268
2026 0 129.231 14.1143 1824 55.2577 567.285 535.102
2027 0 131.252 13.0131 1708 56.6417 567.444 534.139
2028 0 135.252 14.0183 1896 55.6213 567.167 533.606
2029 0 141.213 14.1984 2005 55.1676 567.241 530.137
2030 0 144.25 14.4194 2080 55.6784 566.643 527.734
2031 0 150.337 14.7336 2215 55.8826 566.307 525.568
2032 0 153.395 14.0226 2151 56.629 566.411 523.31
2033 1 91.1952 12.2704 1119 57.6425 566.15 555.513
2034 0 93.1493 13.0436 1215 57.1473 565.742 553.781
2035 0 96.2081 13.1174 1262 58.1521 565.29 548.258
2036 0 101.43 13.0632 1325 58.1079 565.491 548.209
2037 0 104.471 13.6306 1424 57.4951 565.378 549.407
2038 0 106.289 13.6985 1456 57.59 565.55 547.998
2039 0 109.12 13.1415 1434 58.5446 565.513 546.701
2040 0 114.127 13.7742 1572 57.4777 565.562 546.496
2041 0 115.261 13.2309 1525 58.3954 565.407 543.433
2042 0 119.459 13.5444 1618 58.2219 565.508 540.988
2043 0 124.218 13.9996 1739 57.4135 566.176 539.659
2044 0 127.396 14.137 1801 57.4159 566.087 536.414
2045 0 131.202 13.8184 1813 57.3442 566.248 535.869
2046 0 135.295 13.866 1876 57.2964 565.796 533.099
2047 0 141.299 14.1969 2006 56.9691 566.007 532.636
2048 0 142.137 13.6981 1947 57.944 565.848 531.217
2049 1 86.3227 11.4686 990 58.3646 565.948 562.797
2050 0 87.1995 12.5574 1095 58.189 566.51 560.709
2051 0 93.1163 13.5315 1260 56.8008 566.736 557.583
2052 0 93.1443 13.8387 1289 57.173 566.401 554.281
2053 0 96.2379 12.5938 1212 60.8655 566.339 553.426
2054 0 100.141 13.2514 1327 60.2645 565.928 552.444
2055 0 101.337 12.5028 1267 61.6219 565.767 550.945
2056 0 105.327 13.1685 1387 60.6806 566.012 549.363
2057 0 109.35 13.3608 1461 60.6605 565.615 546.958
2058 0 112.434 13.0565 1468 60.8631 565.909 548.003
2059 0 116.359 13.338 1552 60.9916 566.064 544.009
2060 0 119.249 12.9141 1540 61.7649 565.574 541.956
2061 1 69.1224 10.4163 720 59.8153 566.418 571.021
2062 0 71.1278 11.2614 801 60.3508 565.468 570.242
2063 0 71.2422 10.8363 772 59.557 564.576 566.065
2064 0 73.163 12.4517 911 58.4984 564.578 566.212
2065 0 74.1393 12.7598 946 58.9619 564.281 565.178
2066 0 77.0906 12.5307 966 59.4027 564.461 564.443
2067 0 81.2619 12.7981 1040 59.175 565.069 562.87
2068 0 82.2604 12.9467 1065 59.5305 564.853 560.381
2069 0 87.1072 13.0529 1137 58.9543 564.676 560.316
2070 0 88.2058 13.3098 1174 59.0247 564.778 557.805
2071 0 90.3093 13.1991 1192 59.9379 565.245 558.032
2072 0 92.188 13.3965 1235 60.6429 565.366 554.691
2073 0 95.1225 13.0779 1244 60.6133 565.426 553.774
2074 0 95.1225 13.0463 1241 156.284 565.433 553.759
2075 0 102.284 12.8466 1314 60.8303 565.623 550.721
2076 0 103.174 12.7551 1316 61.3237 565.916 549.788
2077 0 106.352 12.3458 1313 61.9048 566.704 546.603
2078 0 108.272 11.896 1288 62.7127 567.006 544.033
2079 0 113.351 13.2332 1500 61.2933 567.147 543.691
2080 0 117.182 12.7494 1494 61.8246 567.691 541.574
2081 0 120.222 12.6184 1517 62.0534 567.581 539.716
2082 0 123.279 14.0251 1729 60.0746 567.494 538.381
2083 0 125.226 12.7689 1599 62.3446 567.521 537.652
2084 0 129.19 13.4608 1739 61.8792 568.482 532.36
2085 0 132.168 13.2786 1755 62.1624 568.626 531.606
2086 1 78.0764 10.874 849 61.3993 569.324 560.237
2087 0 79.0221 10.1744 804 62.2662 568.751 560.79
2088 0 84.1012 12.3185 1036 59.1448 569.134 558.641
2089 0 85.1129 12.4658 1061 59.4354 567.923 558.469
2090 0 89.126 12.5104 1115 59.1211 567.957 557.482
2091 0 90.1347 12.5257 1129 59.5872 568.268 555.845
2092 0 94.2308 12.48 1176 59.381 568.54 555.994
2093 0 97.223 12.713 1236 59.9264 568.684 551.088
2094 0 100.153 12.7305 1275 60.0306 568.937 549.658
2095 0 103.163 12.3785 1277 61.1104 569.418 546.43
2096 0 104.21 13.1944 1375 60.4327 569.52 546.281
2097 0 107.309 13.3632 1434 60.6241 569.623 545.245
2098 0 111.168 12.3327 1371 62.1335 569.268 544.225
2099 0 114.144 12.9748 1481 61.6307 569.683 541.824
2100 0 118.281 12.5971 1490 62.0121 570.274 541.286
2101 0 121.309 13.3625 1621 61.4614 570.426 538.49
2102 0 123.404 13.4598 1661 61.9127 570.791 537.798
2103 1 72.234 10.7152 774 62.9974 570.773 562.283
2104 0 76.1886 11.1303 848 61.7347 571.468 562.748
2105 0 79.3213 11.7245 930 62.0011 571.61 561.034
2106 0 81.2435 11.9887 974 62.6407 571.14 561.736
2107 0 83.2289 13.1565 1095 61.4192 570.693 560.715
2108 0 86.3176 13.1491 1135 61.6608 571.11 560.556
2109 0 88.3134 12.9199 1141 62.6661 571.253 558.078
2110 0 92.3841 13.1841 1218 62.2726 571.635 555.802
2111 0 94.2794 12.9509 1221 62.8264 571.767 555.215
2112 0 97.3319 13.7262 1336 61.6961 572.028 553.985
2113 0 101.31 14.0361 1422 61.301 572.293 549.422
2114 0 104.416 14.0113 1463 61.3999 572.634 548.308
2115 0 108.601 13.5082 1467 61.4438 572.22 546.307
2116 0 111.392 14.0315 1563 60.4984 572.13 547.049
2117 0 113.467 13.7749 1563 61.4907 571.673 543.104
2118 0 117.507 14.765 1735 59.9654 571.472 541.001
2119 0 118.293 13.5849 1607 61.8382 571.203 539.71
2120 0 124.326 14.5183 1805 60.6931 570.999 538.013
2121 0 128.367 14.2327 1827 60.4275 571.356 538.887
2122 0 130.377 13.9442 1818 61.5319 571.075 536.392
2123 1 75.1834 10.7337 807 62.5204 570.805 563.294
2124 0 77.3512 11.7904 912 60.1436 570.567 562.765
2125 0 79.164 12.493 989 59.2882 570.307 562.256
2126 0 81.1238 12.4624 1011 59.0623 569.602 561.915
2127 0 83.2433 13.3825 1114 58.0898 569.582 560.612
2128 0 86.1121 13.6566 1176 58.0808 569.383 559.666
2129 0 87.2072 13.4507 1173 58.8184 569.555 556.562
2130 0 90.2693 13.1495 1187 58.7346 569.222 556.642
2131 0 94.3003 12.7147 1199 59.0259 568.961 555.479
2132 0 98.3675 14.3238 1409 57.1703 569.067 553.473
2133 0 99.2656 14.1237 1402 57.5228 568.557 552.537
2134 0 101.342 12.7489 1292 58.959 568.79 550.708
2135 0 106.31 13.3383 1418 57.6001 568.946 549.972
2136 0 109.313 13.1366 1436 57.8823 568.692 547.59
2137 0 111.174 13.1235 1459 58.732 568.894 545.293
2138 0 116.158 13.9724 1623 57.3346 569.348 546.772
2139 0 120.314 13.6975 1648 57.3362 568.641 545.913
2140 0 121.4 13.3279 1618 58.2225 568.888 543.988
2141 0 125.368 13.3447 1673 58.3395 568.161 540.607
2142 0 128.166 14.5125 1860 56.9683 568.151 540.151
2143 0 133.141 14.0077 1865 57.326 568.251 538.009
2144 0 136.238 14.115 1923 57.2298 568.284 536.096
2145 0 140.225 14.7548 2069 56.7173 567.934 534.429
2146 0 145.208 14.2485 2069 57.0343 568.116 534.52
2147 0 147.301 13.9103 2049 57.9292 568.117 531.883
2148 0 153.261 13.937 2136 57.7809 568.219 530.566
2149 0 155.24 13.3599 2074 59.3949 568.206 525.367
2150 1 87.2273 11.6363 1015 58.7271 568.034 562.07
2151 0 92.1015 12.8011 1179 57.754 567.967 560.806
2152 0 94.1293 12.9928 1223 58.242 568.082 557.599
2153 0 98.1667 12.8557 1262 58.561 568.23 558.69
2154 0 100.183 12.9763 1300 58.9577 567.961 554.208
2155 0 104.298 13.9121 1451 57.705 567.305 553.697
2156 0 106.322 13.1488 1398 59.4227 566.614 552.562
2157 0 111.246 13.6095 1514 58.5436 567.072 550.371
2158 0 115.272 13.2469 1527 58.8022 566.521 547.868
2159 0 117.277 13.822 1621 58.8544 566.524 544.746
2160 0 122.275 14.3692 1757 57.7399 565.909 544.443
2161 0 124.468 13.4172 1670 59.1713 566.009 543.848
2162 0 134.346 11.9616 1607 59.7617 565.824 543.093
2163 0 134.547 13.5937 1829 58.4292 565.799 537.948
2164 1 74.1718 10.2195 758 58.876 565.203 569.864
2165 0 77.2196 11.5256 890 57.9449 565.115 566.89
2166 0 77.2189 11.8624 916 57.3199 565.314 567.048
2167 0 81.1935 13.7573 1117 56.5685 565.645 565.13
2168 0 81.178 13.1932 1071 57.4799 565.95 563.631
2169 0 84.1573 12.3935 1043 58.5321 565.988 563.605
2170 0 88.1674 14.2003 1252 56.282 565.803 562.557
2171 0 89.1942 13.4089 1196 57.1104 566.11 560.905
2172 0 91.1862 13.763 1255 57.1378 566.049 559.594
2173 0 93.207 13.8402 1290 56.8008 565.188 557.817
2174 0 99.1158 14.3872 1426 55.7756 565.691 556.885
2175 0 100.231 13.5587 1359 57.7351 565.313 555.103
2176 0 102.125 13.8751 1417 57.6627 565.643 555.559
2177 0 104.16 14.2185 1481 58.1857 566.61 553.518
2178 0 107.176 13.9956 1500 58.2353 566.47 551.03
2179 0 109.149 13.9443 1522 58.6905 565.661 549.767
2180 0 115.256 13.8822 1600 59.1294 566.457 548.514
2181 0 116.377 15.0116 1747 57.9668 566.238 545.767
2182 0 119.271 14.5383 1734 58.7751 566.095 546.704
2183 0 122.212 14.6548 1791 58.8303 566.036 544.578
2184 0 126.186 14.9462 1886 58.4364 565.961 543.764
2185 0 128.185 14.5415 1864 59.6738 566.104 542.421
2186 0 131.337 14.4513 1898 59.7144 566.29 539.325
2187 0 136.404 14.743 2011 59.817 566.715 536.533
2188 0 141.468 15.5018 2193 58.5052 567.123 534.418
2189 0 143.32 14.9665 2145 59.6163 566.794 533.951
2190 0 150.311 14.949 2247 59.5372 567.369 529.708
2191 0 156.367 15.777 2467 57.816 567.449 529.026
2192 0 159.428 15.0663 2402 60.0974 567.851 523.447
2193 0 166.395 16.2084 2697 57.9503 568.073 521.034
2194 0 170.509 15.6062 2661 58.823 567.657 520.047
2195 0 176.461 15.7372 2777 58.8196 567.981 515.636
2196 0 181.472 16.1512 2931 58.9727 567.937 515.435
2197 0 184.322 14.7188 2713 60.7199 568.088 512.065
2198 0 191.366 15.1855 2906 59.9976 568.644 509.195
2199 0 197.66 15.9517 3153 59.3035 568.761 503.489
2200 0 202.409 16.9557 3432 58.1504 569.136 499.864
2201 0 210.548 15.8349 3334 59.4592 569.202 498.259
2202 0 215.238 16.038 3452 60.0747 569.538 495.669
2203 0 222.451 15.8597 3528 60.3149 569.42 490.597
2204 0 231.596 15.8595 3673 59.8712 570.066 486.496
2205 0 238.478 16.9659 4046 58.6285 569.918 486.211
2206 0 246.635 16.7778 4138 58.8383 570.118 479.883
2207 0 253.482 16.2773 4126 59.7126 570.637 477.432
2208 0 265.629 18.5108 4917 56.5272 570.787 466.172
2209 0 266.594 16.1744 4312 60.2198 570.648 468.36
2210 0 275.743 15.6522 4316 61.0635 570.957 461.424
2211 0 283.472 15.8217 4485 60.6372 570.684 459.047
2212 0 294.427 16.2485 4784 59.9365 570.858 453.42
2213 0 301.585 15.4484 4659 60.9253 571.321 452.197
2214 1 266.239 11.3657 3026 64.7624 571.397 491.016
2215 0 266.376 12.4561 3318 64.0434 571.504 485.674
2216 0 266.381 13.7923 3674 63.6176 571.458 475.659
2217 0 276.459 14.91 4122 62.468 571.745 467.173
2218 0 284.477 14.662 4171 63.4179 571.884 463.628
2219 0 292.783 16.8384 4930 59.9274 572.059 455.594
2220 0 301.657 15.5972 4705 61.8353 572.062 453.189
2221 0 301.483 12.9526 3905 64.526 572.281 464.943
2222 0 302.55 12.3054 3723 65.0618 572.399 466.125
2223 0 78.0569 12.3756 966 59.8509 572.774 563.157
2224 0 79.0624 12.9265 1022 60.5157 572.278 562.996
2225 0 84.1508 13.7729 1159 59.1182 572.01 560.223
2226 0 87.1806 13.7989 1203 58.729 571.72 561.218
2227 0 88.1757 13.4277 1184 59.5895 571.584 557.298
2228 0 94.1773 14.3665 1353 59.9956 571.638 555.05
2229 0 97.1593 13.5551 1317 60.7882 571.433 554.557
2230 0 99.2566 13.7925 1369 60.775 571.668 552.817
2231 0 102.391 12.9504 1326 61.7391 571.678 550.357
2232 1 60.2281 11.6557 702 61.0983 571.735 570.504
2233 0 60.1604 11.087 667 62.4708 571.691 570.505
2234 0 62.3367 11.6785 728 60.8214 571.082 569.386
2235 0 66.5768 13.1127 873 59.4502 570.75 566.493
2236 0 68.2216 13.5881 927 59.0669 570.948 566.642
2237 0 76.4662 15.7717 1206 54.1766 570.691 559.408
2238 0 77.3514 15.7592 1219 54.6399 570.479 560.749
2239 0 79.4302 16.2658 1292 54.4288 570.382 560.093
2240 0 78.3273 15.1671 1188 57.351 570.363 560.504
2241 0 79.3699 14.1993 1127 58.598 570.556 561.101
2242 0 82.3141 13.9101 1145 58.5755 570.208 560.323
2243 0 82.4184 13.6256 1123 60.0704 571.293 557.242
2244 0 86.5452 12.9412 1120 59.825 570.912 559.331
2245 0 89.4802 15.1095 1352 57.9194 570.351 555.52
2246 0 91.2544 13.939 1272 59.3923 570.2 554.829
2247 0 95.3634 14.9848 1429 58.133 570.494 554.693
2248 0 98.455 14.5244 1430 59.1615 570.411 552.789
2249 0 100.347 14.8784 1493 58.8453 570.248 552.451
2250 0 104.479 15.783 1649 58.1183 569.884 550.283
2251 0 107.42 14.9693 1608 59.4478 569.688 548.593
2252 0 110.389 14.2406 1572 60.3174 569.683 548.038
2253 1 64.2534 13.3067 855 60.7942 569.542 569.47
2254 0 67.1588 12.4034 833 61.5618 569.986 569.295
2255 0 69.3783 13.203 916 62.9312 569.857 566.016
2256 0 71.1991 13.8204 984 61.9827 569.933 564.589
2257 0 72.1541 13.6791 987 62.6231 570.019 564.576
2258 0 75.487 14.2276 1074 62.2197 569.568 562.504
2259 0 77.3233 14.5493 1125 61.9138 569.431 561.772
2260 0 81.5025 14.7112 1199 61.769 569.202 558.946
2261 0 84.4756 14.4065 1217 62.0534 569.367 558.686
2262 0 87.6521 14.2039 1245 62.2771 569.138 556.709
2263 0 87.3039 14.3064 1249 62.6741 569.263 556.766
2264 0 92.5692 14.4541 1338 62.2952 569.589 555.27
2265 0 95.4948 13.8123 1319 63.3222 569.556 552.161
2266 0 98.2469 15.4 1513 60.7905 569.679 551.157
2267 0 102.4 14.6094 1496 61.5214 570.023 550.58
2268 0 104.388 15.1358 1580 60.826 570.584 548.815
2269 0 108.49 14.7203 1597 61.4477 570.548 547.249
2270 0 112.638 14.3913 1621 61.8168 570.835 546.526
2271 1 69.3046 12.2647 850 62.3882 570.435 568.528
2272 0 70.3335 12.5829 885 61.9944 570.25 567.313
2273 0 72.3887 12.5572 909 62.3179 570.397 565.626
2274 0 71.1816 13.4304 956 61.8536 570.357 563.574
2275 0 79.1442 14.821 1173 58.7221 570.471 562.714
2276 0 80.2937 14.3722 1154 59.5884 570.4 561.581
2277 0 83.509 14.2979 1194 59.3618 569.982 559.983
2278 0 85.4623 13.7839 1178 59.6808 569.847 556.638
2279 0 88.586 14.0203 1242 59.3921 570.006 555.746
2280 0 91.3311 13.6317 1245 59.7759 569.825 554.749
2281 0 94.5069 13.9778 1321 59.0197 569.58 555.065
2282 0 97.2297 14.5326 1413 58.0616 569.873 552.478
2283 0 97.2297 14.5634 1416 156.53 569.867 552.482
2284 0 104.376 14.8788 1553 57.293 569.234 550.413
2285 0 108.627 14.2782 1551 58.0277 569.229 546.78
2286 0 112.48 14.8559 1671 57.1011 568.591 546.256
2287 0 115.638 14.3638 1661 57.8627 569.097 543.284
2288 1 67.4577 12.1261 818 58.7751 568.68 569.214
2289 0 70.2574 12.9524 910 57.9363 568.252 567.7
2290 0 70.2574 12.9524 910 170.702 567.252 567.66
2291 0 74.4571 13.5649 1010 58.0248 568.165 565.361
2292 0 77.4409 13.3521 1034 58.088 568.464 562.477
2293 0 81.6037 14.2395 1162 56.79 568.362 561.261
2294 0 81.6037 14.068 1148 58.0793 568.727 558.518
2295 0 81.6037 14.0067 1143 176.073 568.719 558.451
2296 0 89.5776 14.6242 1310 56.1107 568.702 557.106
2297 0 92.5492 14.1546 1310 57.2183 569.134 556.26
2298 0 94.3231 14.5139 1369 57.4448 568.591 554.631
2299 0 97.4013 14.7226 1434 57.0119 567.948 552.709
2300 0 100.511 14.1576 1423 57.494 568.106 554.886
2301 0 102.59 14.0657 1443 58.3042 567.872 551.257
2302 0 106.607 15.0366 1603 57.6089 567.802 550.371
2303 0 109.486 14.4585 1583 58.427 567.873 546.373
2304 0 111.556 14.6294 1632 59.0319 567.732 544.829
2305 0 117.592 15.4517 1817 57.7083 567.791 541.681
2306 0 120.528 14.6771 1769 59.0797 567.754 540.95
2307 0 125.662 14.6106 1836 59.1187 567.662 539.855
2308 0 130.609 14.5932 1906 58.862 568.382 539.148
2309 1 73.4409 12.7313 935 59.9401 568.014 565.408
2310 0 76.4349 13.0438 997 59.9709 568.374 563.854
2311 0 79.533 12.9757 1032 60.2287 568.913 564.209
2312 0 81.4299 12.8822 1049 61.0744 568.412 561.21
2313 0 82.7082 13.602 1125 60.9796 568.48 560.073
2314 0 86.4547 14.7939 1279 59.7803 568.827 558.21
2315 0 89.7301 14.2984 1283 60.3889 568.651 558.724
2316 0 91.6585 14.074 1290 61.4837 568.405 557.984
2317 0 96.4939 13.6693 1319 61.9848 568.628 555.431
2318 0 100.52 14.9224 1500 61.0547 568.765 551.964
2319 0 101.364 14.4134 1461 62.4333 569.258 550.898
2320 0 104.316 13.8521 1445 63.6478 569.361 549.956
2321 0 111.255 15.2532 1697 61.2946 569.333 546.009
2322 0 113.404 14.9642 1697 62.5044 569.344 544.263
2323 0 117.312 14.7811 1734 62.5744 569.246 545.023
2324 0 119.411 14.6469 1749 63.3436 569.764 540.534
2325 0 123.429 15.0289 1855 63.2221 570.411 539.563
2326 0 129.279 14.8206 1916 63.2505 570.075 536.907
2327 0 133.403 15.4644 2063 62.6452 570.873 534.829
2328 0 136.332 14.7288 2008 64.251 570.75 531.183
2329 0 142.472 14.5713 2076 64.4027 570.993 530.631
2330 0 145.232 14.9348 2169 64.2822 570.798 529.241
2331 0 151.421 15.4801 2344 63.5759 571.366 527.208
2332 0 154.412 14.4419 2230 65.6152 571.222 522.664
2333 0 159.315 14.3363 2284 65.9098 571.221 520.922
2334 1 97.1926 10.8959 1059 67.4004 571.906 554.715
2335 0 103.22 11.771 1215 66.8379 572.179 552.371
2336 0 106.175 13.054 1386 65.9791 572.154 549.766
2337 0 107.159 13.0367 1397 66.8189 572.487 547.218
2338 0 110.119 14.0121 1543 66.28 572.399 545.185
2339 0 114.248 13.4182 1533 67.0939 572.356 545.348
2340 0 118.202 14.3906 1701 66.0823 572.319 542.683
2341 0 121.269 13.6886 1660 67.8681 572.124 537.464
2342 0 126.309 14.6782 1854 65.6861 572.456 536.741
2343 0 131.241 13.8829 1822 66.7536 572.21 537.214
2344 0 133.235 14.3881 1917 67.1628 572.539 531.823
2345 0 139.201 14.7125 2048 65.6646 572.508 531.016
2346 0 144.197 13.8907 2003 67.1802 572.315 528.737
2347 0 149.116 13.9958 2087 66.9885 572.279 526.211
2348 0 154.209 14.7592 2276 65.8998 572.166 521.312
2349 0 160.383 14.5153 2328 66.1568 572.159 517.485
2350 1 91.2284 12.3098 1123 66.6198 571.877 553.303
2351 0 93.1913 12.4904 1164 67.1753 571.911 550.047
2352 0 97.2898 14.2358 1385 65.0202 571.864 548.654
2353 0 101.262 13.8255 1400 65.8721 571.931 545.731
2354 0 103.149 13.2721 1369 67.6764 572.161 544.39
2355 0 106.384 13.9401 1483 66.4046 572.19 541.939
2356 0 110.199 13.8295 1524 65.8392 572.325 540.734
2357 0 114.261 14.1431 1616 65.31 572.145 540.428
2358 0 116.199 13.4855 1567 67.4786 572.091 536.561
2359 0 123.174 14.6053 1799 65.5008 571.766 533.999
2360 0 125.292 14.2706 1788 66.6303 572.081 532.707
2361 0 128.172 14.3713 1842 66.8578 571.799 531.813
2362 0 131.457 13.5862 1786 68.1769 571.508 530.278
2363 0 139.313 14.4208 2009 66.0737 571.335 528.9
2364 0 142.449 13.984 1992 67.2947 571.485 525.723
2365 0 146.346 14.4111 2109 67.009 571.556 522.081
2366 0 151.197 14.5638 2202 67.1185 571.368 520.116
2367 0 156.287 14.2366 2225 67.3663 571.125 519.715
2368 0 160.481 14.8802 2388 66.9807 570.77 516.606
2369 0 165.493 14.9493 2474 66.8981 570.968 515.655
2370 1 91.1548 11.8041 1076 68.1561 571.177 553.642
2371 0 94.2348 12.1293 1143 67.916 571.178 549.953
2372 0 98.1487 12.9905 1275 66.7937 570.885 548.247
2373 0 101.226 13.5044 1367 66.2187 570.192 548.421
2374 0 102.249 13.1346 1343 67.3671 569.994 545.191
2375 0 108.252 13.2561 1435 66.2801 570.111 543.114
2376 0 111.311 13.2781 1478 66.6346 569.877 542.51
2377 0 113.251 14.9491 1693 64.7206 570.082 540.017
2378 0 116.451 13.6195 1586 66.2453 570.336 538.101
2379 0 120.251 14.1538 1702 65.3713 570.405 537.588
2380 0 123.197 14.4646 1782 65.454 570.306 534.933
2381 0 126.224 13.8484 1748 63.5709 570.214 533.783
2382 0 130.246 13.9659 1819 63.1655 569.996 533.795
2383 0 135.375 14.7516 1997 61.972 570.551 532.641
2384 0 139.397 14.6918 2048 62.0806 570.369 528.592
2385 0 142.37 14.2024 2022 63.3046 570.492 527.251
2386 0 147.465 13.8813 2047 63.853 570.757 524.208
2387 0 153.406 14.68 2252 62.3659 570.378 524.104
2388 0 155.392 13.9003 2160 63.8139 570.05 520.961
2389 0 160.408 14.4943 2325 63.2404 570.242 517.472
2390 0 167.486 14.3415 2402 63.4047 570.277 515.629
2391 1 95.1814 11.6619 1110 63.1459 570.187 554.44
2392 0 99.2066 12.348 1225 61.7216 569.873 552.716
2393 0 99.188 12.1285 1203 62.7656 569.98 550.098
2394 0 101.185 12.2449 1239 63.063 570.012 548.002
2395 0 106.145 13.2837 1410 61.6135 569.716 545.761
2396 0 109.179 13.5649 1481 61.4517 570.06 543.858
2397 0 112.309 13.2314 1486 62.0464 569.886 543.41
2398 0 115.237 13.3551 1539 61.8025 570.17 541.442
2399 0 120.377 13.275 1598 62.2059 570.076 539.078
2400 0 123.219 13.5288 1667 61.919 569.41 537.148
2401 0 127.244 14.3976 1832 60.673 569.497 536.656
2402 0 131.331 13.9571 1833 61.3524 569.742 535.504
2403 0 134.348 14.321 1924 60.8098 569.658 534.117
2404 0 138.328 14.1403 1956 61.2899 569.314 532.907
2405 0 142.254 14.0664 2001 61.1834 569.088 530.614
2406 0 148.412 14.4597 2146 60.5792 569.047 527.574
2407 0 155.427 14.9073 2317 60 568.642 526.545
2408 0 158.262 15.2974 2421 59.9046 568.843 522.797
2409 0 164.333 14.7932 2431 59.7544 568.762 521.075
2410 0 165.398 14.8853 2462 60.7721 568.415 516.794
2411 0 173.416 14.8833 2581 60.5513 568.46 514.097
2412 0 178.31 14.9908 2673 60.0101 568.358 511.295
2413 0 186.203 15.3488 2858 59.2418 568.235 511.46
2414 0 189.282 15.5429 2942 59.4548 567.994 505.961
2415 0 194.318 15.0938 2933 60.1101 567.885 501.971
2416 0 200.396 15.3446 3075 59.5493 567.961 502.138
2417 0 205.306 14.6903 3016 60.1459 567.68 499.676
2418 0 211.348 15.1599 3204 58.7397 567.669 496.27
2419 0 216.336 16.0167 3465 57.828 568.088 488.939
2420 0 222.314 16.0448 3567 57.8273 567.619 486.56
2421 0 232.333 17.7762 4130 55.4731 567.545 485.395
2422 1 61.0415 11.058 675 52.4533 567.416 576.413
2423 0 61.0669 11.774 719 52.6759 567.072 572.656
2424 0 63.0887 12.2843 775 51.8826 566.314 571.721
2425 0 66.1503 12.0332 796 52.2312 566.382 572.95
2426 0 68.1272 12.2565 835 52.6048 566.217 571.278
2427 0 68.1292 11.625 792 53.4609 566.619 570.96
2428 0 70.1171 12.6788 889 52.739 566.552 570.169
2429 0 72.1109 11.5239 831 53.432 566.767 570.327
2430 1 25.0288 9.82868 246 48.2927 566.581 592.72
2431 0 25.0067 7.95788 199 49.5678 566.749 592.784
2432 0 25.0235 8.59191 215 48.5814 566.991 592.712
2433 0 29.012 9.51329 276 49.2174 567.174 590.047
2434 0 29.0707 8.22133 239 49.6527 567.268 590.448
2435 0 32.1567 8.48967 273 49.6667 566.82 588.531
2436 0 33.0648 9.37553 310 50.4452 566.894 587.51
2437 0 37.1819 11.753 437 48.0137 566.913 586.11
2438 0 35.1533 10.696 376 49.4787 566.851 585.463
2439 0 37.087 11.0011 408 48.8529 566.201 585.154
2440 0 38.1259 10.4916 400 49.1575 566.642 585.082
2441 0 39.0376 10.7332 419 48.3294 566.002 584.785
2442 0 40.1568 7.3462 295 51.1559 566.305 586.261
2443 0 41.1233 10.4807 431 48.9629 566.392 585.114
2444 0 41.1717 10.4926 432 49.1181 566.282 584.095
2445 0 44.1703 11.3877 503 48.0199 566.4 583.135
2446 0 42.0669 11.2202 472 48.8898 566.439 582.328
2447 0 44.1269 10.4925 463 49.9978 566.624 582.015
2448 0 43.1237 9.90174 427 50.2646 566.459 583.316
2449 0 43.0345 9.9455 428 50.4439 566.652 582.505
2450 0 45.0927 9.91292 447 50.6801 566.814 581.676
2451 0 47.0686 11.069 521 49.7985 566.894 580.292
2452 0 47.2296 10.883 514 50.6673 567.134 579.897
2453 0 46.1319 10.2749 474 51.673 567.458 580.789
2454 0 46.0676 10.2241 471 49.4841 566.826 580.645
2455 0 51.0607 9.34182 477 50.3396 566.851 578.069
2456 0 50.0223 8.35628 418 51.9761 567.536 579.306
2457 0 51.0756 9.90688 506 50.7075 567.903 578.674
2458 0 52.1056 10.7282 559 50.3023 568.038 578.259
2459 0 53.0414 9.82251 521 51.6871 568.351 575.768
2460 0 54.0712 9.80189 530 51.183 568.27 576.885
2461 0 54.048 9.51007 514 51.9183 568.599 575.097
2462 0 55.0946 9.85577 543 51.3278 568.818 575.164
2463 0 57.0654 10.9699 626 50.3738 569.058 574.77
2464 0 55.0851 9.87562 544 51.9504 568.938 574.482
2465 0 56.1227 10.2276 574 51.7456 568.976 572.826
2466 0 57.1134 9.5074 543 52.6796 569.611 573.32
2467 0 60.1263 9.57983 576 52.4444 570.189 571.911
2468 0 62.0457 9.47688 588 53.0034 571.039 573.665
2469 0 61.0396 10.2065 623 52.5249 570.656 571.742
2470 0 59.0395 9.89169 584 53.8219 570.961 569.467
2471 0 64.0758 11.5644 741 52.166 571.439 568.602
2472 0 64.1115 10.3102 661 53.0121 572.414 568.953
2473 0 67.1045 11.6982 785 52.3146 572.474 567.197
2474 0 66.1105 8.95471 592 54.772 572.85 568.314
2475 0 67.1307 9.89115 664 53.4247 572.809 568.645
2476 0 68.0464 9.90501 674 53.4243 572.838 567.074
2477 0 69.2323 9.51867 659 54.0091 573.049 566.196
2478 0 74.0766 11.2721 835 52.5701 572.896 563.283
2479 0 75.085 10.0286 753 53.6175 572.722 562.971
2480 0 75.0322 10.5555 792 52.9242 572.328 562.768
2481 0 78.1238 9.36974 732 53.8552 572.758 563.045
2482 0 80.3555 9.61976 773 53.8745 572.859 561.727
2483 0 80.1775 10.3146 827 53.7872 572.709 559.701
2484 0 84.1637 9.82609 827 54.1935 572.82 556.815
2485 0 84.077 10.8234 910 53.6747 572.826 557.8
2486 0 86.2264 9.64902 832 54.9111 572.948 558.078
2487 0 88.1652 11.7166 1033 52.9826 573.075 557.278
2488 0 92.1629 10.3404 953 54.0798 572.564 556.693
2489 0 90.326 9.33286 843 56.3808 572.822 553.843
2490 0 97.2652 10.6307 1034 53.6074 572.468 553.409
2491 0 95.2061 10.514 1001 54.9001 572.619 551.424
2492 0 98.1746 10.41 1022 54.364 572.72 551.415
2493 0 102.32 10.086 1032 54.4196 572.537 552.947
2494 0 101.257 10.3795 1051 54.3901 572.589 552.46
2495 0 111.139 9.62758 1070 55.1785 572.674 548.242
2496 0 111.402 9.82928 1095 54.7479 572.502 550.426
2497 0 111.198 10.297 1145 55.159 572.321 545.107
2498 0 112.203 9.09068 1020 55.6774 572.402 547.242
2499 0 118.27 8.86953 1049 55.0238 571.951 546.724
2500 0 116.201 10.6797 1241 54.4247 571.741 540.466
2501 1 63.0884 6.72073 424 53.2877 571.792 570.484
2502 0 64.0842 8.81652 565 53.9982 571.508 566.306
2503 0 64.077 8.95798 574 52.1672 571.112 569.12
2504 0 64.1006 8.50226 545 51.6697 570.068 569.853
2505 0 64.139 9.37028 601 53.0283 570.238 565.634
2506 0 65.0736 9.89649 644 52.7407 570.065 564.298
2507 0 70.0891 11.6709 818 51.1394 569.886 562.125
2508 0 70.0891 11.6709 818 142.205 568.886 562.125
2509 0 71.1894 11.2798 803 53.1719 570.249 558.603
2510 0 74.0868 11.878 880 52.4716 570.581 561.4
2511 0 76.2328 11.2419 857 53.4737 570.814 558.104
2512 0 77.2548 11.5203 890 53.309 570.37 557.746
2513 0 81.1443 12.4346 1009 52.7988 570.258 557.935
2514 0 82.4331 10.6753 880 54.9364 570.231 554.668
2515 0 84.1956 12.1384 1022 53.5294 570.607 553.209
2516 0 88.2582 11.7156 1034 54.2959 570.348 553.183
2517 0 91.1095 12.4575 1135 53.3084 569.674 551.906
2518 0 93.1732 13.1154 1222 53.0188 570.056 550.637
2519 0 97.2648 13.2936 1293 52.529 570.538 550.182
2520 0 99.4167 13.2473 1317 53.1321 570.655 546.358
2521 0 101.507 12.6592 1285 53.9946 570.318 546.32
2522 0 104.375 13.5474 1414 53.3289 570.389 545.728
2523 0 108.42 13.4662 1460 54.576 570.895 543.58
2524 0 108.4 13.1458 1425 55.3137 571.086 545.476
2525 0 110.452 13.7706 1521 55.6062 570.591 541.196
2526 0 113.449 13.1336 1490 56.6007 570.355 539.179
2527 0 117.537 13.6978 1610 56.2615 569.862 538.691
2528 0 122.473 14.9339 1829 54.532 570.182 534.856
2529 1 73.3142 11.2529 825 57.4315 570.379 562.002
2530 0 74.3125 12.2321 909 56.8537 569.672 560.199
2531 0 79.3021 11.4625 909 57.4708 569.683 561.34
2532 0 79.3827 13.4034 1064 56.5686 569.379 557.415
2533 0 81.2897 12.843 1044 57.6169 569.123 558.165
2534 0 81.2542 11.8517 963 59.0166 569.615 559.583
2535 0 84.184 13.1735 1109 57.9865 569.506 558.55
2536 0 85.1165 13.0057 1107 58.8211 569.066 556.494
2537 0 88.2202 12.8995 1138 59.21 569.474 555.826
2538 0 91.0912 13.2724 1209 59.5161 569.464 555.686
2539 0 94.2591 13.5265 1275 59.6212 569.173 552.375
2540 0 97.518 14.3256 1397 58.5676 569.35 550.898
2541 0 98.1881 13.2806 1304 60.7009 568.747 549.525
2542 0 102.32 13.2037 1351 60.6084 568.998 548.261
2543 0 103.217 14.2321 1469 60.3383 568.839 547.38
2544 0 107.306 13.3636 1434 61.7594 568.942 546.983
2545 0 109.126 14.048 1533 61.0457 568.592 545.917
2546 0 113.255 14.2598 1615 60.4799 569.262 544.189
2547 0 118.444 14.1333 1674 60.2808 569.45 541.87
2548 0 120.291 13.8248 1663 60.9543 569.002 538.292
2549 0 124.482 14.2189 1770 60.391 569.131 535.244
2550 0 125.178 14.2597 1785 60.5154 569.074 534.075
2551 0 129.42 13.4755 1744 61.9811 569.304 532.787
2552 0 134.63 14.0384 1890 60.7794 569.191 530.565
2553 0 140.542 14.8425 2086 58.8691 569.359 528.558
2554 0 144.494 14.9902 2166 58.8112 569.365 525.695
2555 0 149.474 14.7517 2205 58.8576 569.304 522.917
2556 0 152.613 14.7104 2245 59.2045 569.227 522.125
2557 0 156.494 14.6203 2288 59.3693 568.795 520.27
2558 0 164.57 15.0514 2477 58.4586 569.006 518.358
2559 0 165.393 15.182 2511 58.7539 568.855 514.604
2560 0 172.422 15.7172 2710 57.6734 568.535 511.264
2561 0 177.406 16.11 2858 57.1672 568.839 511.383
2562 0 184.61 15.855 2927 57.3369 568.65 506.104
2563 0 188.337 15.6262 2943 57.633 568.646 505.39
2564 0 191.63 14.8307 2842 59.2512 568.602 500.438
2565 0 198.776 15.1628 3014 58.5584 568.564 498.464
2566 0 205.514 15.1474 3113 60.1436 568.515 499.425
2567 0 209.741 15.9101 3337 59.2808 568.1 495.058
2568 0 215.432 14.9514 3221 60.8016 568.037 489.216
2569 0 223.468 15.4832 3460 59.9708 568.441 486.88
2570 1 176.214 12.7232 2242 62.9322 568.022 514.379
2571 0 182.407 13.1519 2399 62.7841 567.837 506.851
2572 0 189.199 13.7739 2606 61.6857 567.64 507.072
2573 0 196.45 14.645 2877 60.8634 567.646 503.677
2574 0 200.414 15.0439 3015 60.8461 567.806 501.082
2575 0 206.315 14.6572 3024 61.4587 567.495 496.284
2576 0 215.397 15.3763 3312 59.8261 567.248 494.931
2577 0 224.32 15.4467 3465 59.7048 566.67 489.877
2578 0 230.691 15.2195 3511 60.6739 566.737 485.489
2579 1 172.369 12.9548 2233 61.8374 566.978 517.323
2580 0 177.25 13.3314 2363 61.386 566.603 516.632
2581 0 182.341 14.0287 2558 61.6063 566.641 508.495
2582 0 189.341 13.8692 2626 61.3991 566.787 508.848
2583 0 193.252 13.4488 2599 62.0446 566.788 504.176
2584 0 199.283 14.3916 2868 60.931 566.757 500.422
2585 0 205.424 14.3946 2957 61.1667 566.415 496.269
2586 0 211.189 14.5557 3074 61.3696 566.801 489.984
2587 0 218.51 15.0749 3294 60.861 566.901 489.892
2588 0 223.348 14.2692 3187 62.0298 567.04 484.519
2589 0 232.525 16.1961 3766 59.316 567.043 478.812
2590 0 237.379 16.619 3945 58.8725 567.514 478.216
2591 0 244.348 16.4397 4017 59.4426 567.648 472.254
2592 0 251.506 16.7352 4209 59.3024 567.869 468.757
2593 0 258.334 16.4516 4250 59.8675 568.108 466.19
2594 0 264.493 15.112 3997 61.7348 568.418 461.598
2595 0 273.437 16.1573 4418 60.7893 568.309 457.158
2596 0 282.51 16.226 4584 60.9636 568.434 456.227
2597 0 289.561 16.2384 4702 61.5198 568.632 447.443
2598 0 299.381 16.5408 4952 61.2266 568.794 444.322
2599 0 310.359 16.2038 5029 61.2792 569.27 441.122