time division length width area intensity CMx CMy
0 0 71.3313 13.8509 988 74.7783 485.198 579.291
1 0 75.2068 14.0679 1058 74.3214 485.058 577.294
2 0 75.2068 14.028 1055 173.701 484.047 577.344
3 0 79.2083 13.9127 1102 75.216 485.064 575.411
4 0 81.2338 14.1567 1150 75.2339 484.69 572.895
5 0 85.3571 13.508 1153 75.1084 484.68 572.812
6 0 88.4629 14.2659 1262 73.5626 484.582 569.048
7 0 91.2148 13.8793 1266 74.1698 485.059 569.908
8 0 94.2082 14.4149 1358 74.7275 485.349 567.346
9 1 49.1657 11.7765 579 76.6684 485.769 589.069
10 0 50.0797 11.5815 580 77.8931 485.184 588.41
11 0 53.1148 12.9154 686 75.8921 484.601 586.93
12 0 55.1884 12.5751 694 76.9769 485.01 586.604
13 0 56.1355 12.2026 685 78.2701 485.285 587.14
14 0 57.1352 13.2318 756 76.5503 484.804 584.807
15 0 59.1017 12.9269 764 75.6702 484.995 584.581
16 0 61.1086 13.3205 814 75.2346 484.978 583.548
17 0 61.1746 13.6985 838 75.1539 484.721 581.665
18 0 64.1054 13.0878 839 75.6949 484.779 581.859
19 0 66.0702 13.5613 896 75.0804 484.903 580.224
20 0 66.1238 13.5201 894 75.9284 485.375 579.506
21 0 70.1115 13.9635 979 74.4699 485.062 577.449
22 0 74.2551 13.8038 1025 74.2293 484.76 576.128
23 0 78.1837 12.8543 1005 75.4269 485.31 575.291
24 0 79.214 12.9144 1023 75.9218 485.362 574.509
25 0 79.214 12.9396 1025 174.142 486.353 574.61
26 1 44.0728 11.776 519 72.5299 485.934 591.719
27 0 44.1427 11.6894 516 98.5446 485.973 591.262
28 0 44.1563 12.1161 535 72.7664 485.381 590.682
29 0 47.2211 12.2615 579 71.9775 485.782 590.72
30 0 48.1471 12.1087 583 72.5489 486.144 589.333
31 0 49.171 12.06 593 72.8769 486.189 588.815
32 0 51.1142 12.1688 622 72.3859 486.262 587.722
33 0 52.2107 12.3155 643 71.944 486.165 589.54
34 0 54.0919 12.4603 674 71.8323 486.549 587.377
35 0 57.1654 11.9653 684 71.9006 486.392 585.838
36 0 58.1641 12.3272 717 71.6555 486.262 584.686
37 0 61.1861 12.3231 754 71.3846 486.3 585.082
38 0 62.135 12.6982 789 71.4259 486.098 582.981
39 0 64.1696 13.028 836 70.9354 486.3 582.758
40 0 64.0878 12.8886 826 71.6707 486.237 580.697
41 0 69.1651 12.781 884 71.233 486.015 580.242
42 0 70.1171 12.2652 860 71.9744 485.512 578.837
43 0 72.1001 12.7878 922 71.3427 486.013 577.361
44 0 77.2751 12.7337 984 71.498 486.453 576.228
45 1 40.0918 10.0769 404 71.802 486.804 593.356
46 0 40.0979 10.2998 413 71.9274 486.862 593.165
47 0 43.1259 10.6201 458 71.6812 487.033 592.151
48 0 42.0805 11.0978 467 72.0942 486.921 591.197
49 0 45.0901 11.599 523 71.0994 486.843 589.971
50 0 45.0336 10.5699 476 72.1239 487.792 590.141
51 0 47.0305 11.248 529 71.3535 487.975 588.571
52 0 48.0983 12.2665 590 70.1169 487.564 587.786
53 0 51.0562 12.4373 635 69.7402 487.046 587.378
54 0 51.2176 13.0229 667 62.7301 487.286 585.477
55 0 51.2002 12.0507 617 65.2301 486.446 586.408
56 0 54.2858 12.7289 691 63.8162 487.006 585.071
57 0 55.1567 12.0928 667 65.4063 486.817 584.666
58 0 57.1899 12.3623 707 64.7864 486.557 583.902
59 0 60.188 12.7102 765 64.2 486.995 582.248
60 0 63.3 13.3333 844 63.2855 486.972 581.796
61 0 63.2885 12.6721 802 65.2818 487.269 581.08
62 0 66.3401 12.6771 841 65.2319 487.011 579.485
63 0 69.2328 12.9707 898 64.6247 486.651 577.504
64 0 70.099 11.9117 835 65.8132 486.935 576.897
65 1 37.1777 10.6247 395 65.2329 487.641 592.605
66 0 39.3038 10.3043 405 65.7358 487.548 591.41
67 0 39.2118 10.9661 430 65.9884 487.544 590.144
68 0 41.166 10.8828 448 66.1094 487.871 590.268
69 0 43.228 11.4046 493 65.8073 487.978 590.122
70 0 43.1174 12.2456 528 65.822 487.506 588.562
71 0 46.3561 12.7276 590 64.3678 487.864 587.364
72 0 47.2949 11.8829 562 65.6032 488.295 586.422
73 0 48.1926 12.8858 621 65.6119 488.725 584.485
74 0 51.2854 12.2647 629 65.7822 488.747 584.758
75 0 49.1653 12.5902 619 67.1519 489.113 582.816
76 0 52.258 12.6871 663 66.81 488.923 582.106
77 0 55.1921 12.683 700 66.6271 488.654 582.009
78 0 56.3607 13.1475 741 66.3954 488.7 582.661
79 0 56.2136 12.8439 722 67.9654 489.414 580.007
80 0 58.1971 12.6467 736 68.1359 489.318 579.156
81 0 62.1926 13.217 822 67.2299 489.871 577.415
82 0 65.2054 13.4958 880 66.5568 490.342 576.062
83 0 66.2174 14.3618 951 66.122 490.502 575.346
84 0 68.1982 12.5956 859 69.7357 491.308 575.424
85 0 70.1275 14.5592 1021 66.6484 491.715 573.31
86 0 72.2067 13.0182 940 69.0053 491.432 573.502
87 0 74.1203 14.5169 1076 67.0214 491.791 569.951
88 1 40.1228 10.6922 429 70.2051 492.159 586.58
89 0 39.1042 10.7405 420 69.2119 492.274 587.812
90 0 42.1422 11.746 495 68.8727 492.808 586.059
91 0 44.1779 11.5442 510 68.2392 492.975 585.48
92 0 44.1599 11.8207 522 70.1015 493.052 583.845
93 0 46.2014 12.0559 557 69.535 493.034 581.856
94 0 48.1735 12.455 600 68.6883 492.925 582.043
95 0 49.1403 12.678 623 68.13 492.937 579.91
96 0 50.1307 12.5472 629 67.3657 493.208 579.293
97 0 51.113 12.7756 653 67.0781 493.323 578.266
98 0 51.113 12.756 652 162.106 493.314 578.288
99 0 54.1402 12.0982 655 66.6611 492.95 577.58
100 0 56.1316 11.9897 673 66.6018 492.796 575.267
101 0 58.0492 12.6445 734 66.6553 493.337 575.146
102 0 59.133 12.3789 732 68.6148 492.851 573.464
103 0 60.09 12.9306 777 68.4633 492.73 571.905
104 0 63.1848 12.4872 789 69.0165 493.016 570.681
105 0 64.1622 12.032 772 69.193 492.671 569.095
106 0 68.1089 12.5975 858 67.2809 493.322 569.199
107 0 68.161 11.8983 811 69.27 492.905 567.952
108 0 72.1466 13.0429 941 67.4219 493.265 566.573
109 0 74.1146 12.8315 951 67.9947 492.787 564.744
110 0 76.1586 12.0407 917 69.1832 492.6 563.821
111 0 80.1933 12.9188 1036 67.9382 492.34 561.86
112 0 83.1471 12.6162 1049 67.2488 492.544 560.093
113 1 42.0163 9.97233 419 66.9427 493.115 581.69
114 0 45.0453 9.92333 447 66.7271 493.076 579.32
115 0 46.071 10.5923 488 65.4139 493.441 579.107
116 0 49.0472 11.1117 545 65.1303 492.798 576.949
117 0 49.0461 11.2343 551 65.3902 492.646 576.922
118 0 51.0726 12.8053 654 63.8073 492.266 575.385
119 0 54.2827 11.6796 634 64.5599 491.035 575.473
120 0 56.1707 12.1772 684 64.3363 491.661 574.272
121 0 56.225 11.1694 628 65.8025 491.839 574.371
122 0 59.2663 11.8449 702 65.4444 492.278 574.075
123 0 60.2165 13.2024 795 64.0377 492.352 572.867
124 0 61.1642 12.5073 765 65.7712 491.877 572.144
125 0 64.1699 13.1058 841 64.5993 491.68 570.402
126 0 65.1199 12.285 800 66.01 491.154 569.686
127 0 67.1257 11.9179 800 67.005 491.011 570.035
128 0 70.1731 11.5286 809 68.0198 490.958 568.618
129 0 71.0872 12.14 863 68.2317 490.71 566.761
130 0 74.1684 13.3345 989 66.2861 490.78 565.848
131 0 77.2222 13.3122 1028 66.7276 490.65 565.31
132 0 79.1691 12.9343 1024 67.8271 490.893 564.634
133 0 83.3362 12.5396 1045 68.8258 490.425 562.26
134 1 43.1276 10.3182 445 69.0921 491.501 584.362
135 0 43.1276 10.2719 443 163.411 491.51 584.391
136 0 46.0889 11.8033 544 68.1213 491.737 579.915
137 0 48.1364 12.2984 592 67.9459 491.785 579.65
138 0 49.059 12.1486 596 68.6426 491.938 579.416
139 0 51.1185 12.383 633 67.0569 491.218 579.373
140 0 53.3001 11.9324 636 67.6431 491.47 579.549
141 0 52.2534 12.7647 667 67.1154 491.393 578.669
142 0 57.1078 13.5183 772 65.0518 491.136 577.232
143 0 57.1385 12.4434 711 67.5767 490.952 575.392
144 0 59.1187 12.2465 724 67.5387 490.798 575.641
145 0 61.1237 12.2375 748 68.0348 490.545 574.695
146 0 62.2561 12.802 797 67.1355 490.144 574.199
147 0 64.3397 13.4598 866 66.0693 489.883 572.343
148 0 65.2803 13.3271 870 66.1483 489.446 572.153
149 0 66.3352 12.9494 859 67.6298 489.376 569.937
150 0 71.3196 13.755 981 65.6565 489.39 570.054
151 0 72.5567 12.5695 912 67.5833 489.57 568.497
152 0 74.6285 13.1049 978 66.4755 489.785 568.203
153 1 42.3183 10.0429 425 66.5906 489.238 584
154 0 42.149 9.22916 389 66.6761 489.301 585.915
155 0 42.2227 10.2315 432 66.9653 489.229 583.19
156 0 44.1303 10.6729 471 66.2463 489.21 584.03
157 0 48.24 11.1526 538 66.0874 489.002 581.546
158 0 49.1825 11.4065 561 66.3993 488.911 580.955
159 0 48.0898 12.7262 612 66.3056 490.327 579.345
160 0 52.1018 11.8614 618 66.6828 489.942 580.008
161 0 51.1638 12.6457 647 66.1391 490.076 578.394
162 0 53.2496 12.432 662 66.5937 490.06 577.858
163 0 55.3144 12.3295 682 66.5176 489.434 576.569
164 0 59.2013 13.4119 794 64.7985 489.704 574.742
165 0 59.2915 13.1048 777 65.9151 489.528 574.205
166 0 61.4204 12.797 786 66.5662 489.55 574.757
167 0 62.2169 13.5654 844 66.1149 489.703 572.906
168 0 61.2333 13.0975 802 67.7756 490.046 573.501
169 0 65.1754 13.1952 860 66.8907 490.406 572.192
170 0 67.2498 12.9071 868 67.6429 490.164 570.434
171 0 70.4288 13.2474 933 66.6742 490.641 567.618
172 0 72.4976 13.1728 955 66.445 490.718 567.817
173 0 74.4976 13.3964 998 66.2615 491.214 567.319
174 0 76.2918 12.6619 966 67.8188 490.924 564.509
175 1 39.2155 9.97056 391 68.8235 491.616 583.969
176 0 42.2581 10.9328 462 67.6364 491.476 583.058
177 0 45.2901 12.0998 548 65.8741 491.704 581.487
178 0 45.2034 11.6805 528 67.2102 491.458 580.229
179 0 47.16 12.7015 599 66.1703 491.741 578.773
180 0 50.0804 13.678 685 64.4978 492.893 578.222
181 0 51.1182 12.7939 654 66.4434 492.803 577.332
182 0 52.0818 12.442 648 67.233 493.057 577.151
183 0 51.1217 12.9299 661 67.5174 493.389 575.067
184 0 54.2552 13.2153 717 66.7601 493.499 575.459
185 0 56.2712 12.7063 715 67.2154 493.552 573.456
186 0 56.2559 13.3675 752 67.0266 494.011 572.568
187 0 58.1273 12.8683 748 67.3061 494.08 572.135
188 0 61.1735 12.6362 773 67.7219 493.978 571.455
189 0 63.1837 13.3104 841 66.2057 493.916 568.949
190 0 64.4022 13.276 855 66.0339 494.036 568.739
191 0 66.3007 13.9214 923 66.4236 494.418 567.498
192 0 69.2318 13.5342 937 65.3895 494.63 567.635
193 0 72.3393 13.5887 983 65.0671 495.109 565.841
194 0 73.2585 14.5512 1066 62.1548 494.828 564.646
195 0 76.1371 14.8942 1134 60.6614 495.233 564.963
196 0 77.3621 13.3399 1032 62.5494 494.687 561.493
197 1 43.2029 10.8095 467 65.1906 494.852 579.122
198 0 44.1533 11.5054 508 65.3957 495.057 580.301
199 0 48.1491 11.049 532 66.688 494.795 579.539
200 0 47.1467 12.0051 566 67.2968 495.735 578.527
201 0 49.0752 12.5114 614 66.943 495.661 576.923
202 0 50.0761 12.7805 640 67.4406 495.716 575.605
203 0 54.1404 12.5599 680 66.4765 495.457 576.196
204 0 56.1464 13.4648 756 65.6958 494.981 575.929
205 0 55.1098 14.0991 777 66.3655 495.169 573.032
206 0 57.1257 13.4965 771 67.8288 495.276 572.578
207 0 57.0475 13.4625 768 68.9219 495.16 572.01
208 0 60.1626 14.1949 854 67.226 496.014 571.478
209 0 62.0343 13.7666 854 68.1909 495.395 569.584
210 0 65.2492 13.4868 880 68.5182 495.69 569.555
211 0 66.0984 13.7371 908 68.6399 495.479 568.111
212 0 69.1502 14.6203 1011 66.8803 495.36 567.106
213 0 71.1203 14.2997 1017 67.9872 495.06 566.129
214 0 75.2448 13.8215 1040 67.8221 495.449 566.304
215 0 76.1145 13.8476 1054 68.8387 495.297 565.444
216 0 78.1824 14.6069 1142 67.859 495.521 563.849
217 0 81.0841 13.4798 1093 70.0759 494.651 560.495
218 0 83.1049 14.5359 1208 68.4503 494.956 560.276
219 1 42.0375 10.9664 461 69.6139 494.868 581.421
220 0 45.0322 11.9914 540 68.8259 494.554 580.17
221 0 47.0638 12.3449 581 68.1893 494.36 579.172
222 0 48.1012 12.9103 621 67.9436 494.071 577.821
223 0 50.0711 13.5008 676 66.3476 494.01 578.107
224 0 49.275 13.0086 641 67.9064 493.914 578.699
225 0 52.1518 12.3102 642 68.1573 493.545 578.826
226 0 54.1158 12.9537 701 67.3652 493.775 576.589
227 0 54.1282 12.766 691 67.492 493.265 576.588
228 0 55.1347 13.2222 729 67.085 493.324 575.767
229 0 58.1584 13.6352 793 66.0883 492.89 574.319
230 0 59.1499 13.0178 770 66.7558 493.001 574.596
231 0 60.0514 12.8723 773 67.295 492.794 573.505
232 0 64.0746 13.4687 863 65.5898 492.76 572.97
233 0 65.2344 12.4014 809 67.1916 492.779 572.218
234 0 68.2429 13.6278 930 65.7409 491.511 569.794
235 0 68.1426 13.4717 918 66.3442 491.83 568.314
236 0 71.2006 13.7639 980 66.199 491.896 566.02
237 0 72.175 13.5227 976 66.5553 491.432 566.675
238 0 76.1394 13.9218 1060 65.5991 491.336 567.4
239 0 79.0617 13.1922 1043 66.4401 491.55 564.776
240 0 81.1223 13.7693 1117 65.9794 491.646 563.619
241 1 45.119 11.0818 500 66.732 492.02 583.56
242 0 46.0402 12.0764 556 66.5342 491.54 581.914
243 0 48.1442 11.9848 577 66.3865 491.433 580.56
244 0 50.0876 12.5979 631 65.7876 490.924 581.1
245 0 50.0773 12.4807 625 66.7136 490.941 580.664
246 0 52.1197 12.241 638 66.721 490.928 580.05
247 0 54.0914 13.4032 725 65.5807 491.241 579.135
248 0 57.1538 12.5626 718 66.0864 491.73 579.11
249 0 57.0997 13.0824 747 66.6881 490.946 578.041
250 0 59.2241 14.1159 836 65.1579 491.007 576.642
251 0 61.1535 12.7384 779 67.2516 490.958 574.994
252 0 64.1891 13.3979 860 65.4233 491.347 574.12
253 0 65.2273 13.3993 874 66.5744 491.281 573.493
254 0 68.0928 12.8207 873 67.3643 490.944 572.513
255 0 71.2681 13.4422 958 66.4718 490.926 572.288
256 0 72.1964 13.02 940 67.9926 491.004 571.299
257 0 74.3422 12.9671 964 68.083 490.883 571.628
258 0 76.3508 13.2546 1012 68.6808 491.144 570.133
259 0 80.3318 13.5314 1087 68.2171 490.862 568.46
260 0 83.2233 14.3349 1193 67.3688 489.897 566.544
261 0 83.2766 13.3771 1114 70.0171 490.238 566.713
262 0 85.3907 13.5846 1160 70.325 490.407 564.887
263 0 89.3153 13.7826 1231 70.2185 490.327 563.871
264 0 92.3431 13.2766 1226 71.0718 490.276 563.428
265 0 96.3356 14.3145 1379 70.2038 489.937 561.096
266 0 99.3051 13.9066 1381 71.7697 489.671 557.624
267 0 104.318 13.8232 1442 72.1533 489.861 555.34
268 1 50.2141 10.9332 549 72.2769 490.472 581.951
269 0 54.2705 11.4058 619 71.1939 490 581.897
270 0 54.1767 12.7915 693 70.8095 489.921 579.524
271 0 57.1478 12.2839 702 70.9501 490.192 578.849
272 0 59.2435 12.4739 739 70.3329 490.597 576.94
273 0 62.3008 12.9372 806 68.8052 490.797 577.021
274 0 64.2078 12.8801 827 69.1209 490.998 574.927
275 0 66.0782 12.6668 837 69.8877 491.3 573.287
276 0 68.1076 11.9957 817 70.787 490.951 572.217
277 0 70.1649 11.7295 823 70.9951 490.764 572.083
278 0 73.0982 12.75 932 69.4957 490.873 568.535
279 0 76.131 13.017 991 69.2644 490.907 568.255
280 0 78.1756 12.4719 975 69.3323 491.289 565.615
281 0 80.2772 12.1828 978 69.8282 491.217 564.63
282 0 83.2466 13.1417 1094 68.3108 491.398 562.417
283 0 87.3502 13.2684 1159 68.5108 491.454 560.972
284 0 91.292 13.3747 1221 67.9722 491.149 559.459
285 0 92.235 13.1403 1212 68.8622 491.291 559.105
286 0 98.2602 12.8943 1267 68.9361 491.43 556.044
287 0 101.25 12.9976 1316 68.8564 491.134 553.806
288 0 104.276 13.0903 1365 69.4864 491.762 550.999
289 0 107.549 13.8727 1492 68.2306 491.785 551.496
290 0 111.24 12.936 1439 69.4712 492.147 547.81
291 0 116.267 13.6754 1590 68.5717 492.582 545.596
292 0 119.235 13.3517 1592 69.2236 492.992 543.331
293 0 123.24 12.853 1584 69.8889 492.938 540.607
294 0 128.586 13.8429 1780 68.0775 492.938 538.627
295 1 54.1577 10.6541 577 66.8856 492.328 577.154
296 0 54.2259 11.3046 613 66.894 492.426 574.68
297 0 59.2265 12.1736 721 64.8544 492.662 573.117
298 0 58.122 11.0285 641 67.078 492.989 572.112
299 0 63.247 12.38 783 64.5645 492.992 571.18
300 0 64.2745 11.871 763 66.2163 493.058 569.945
301 0 66.3333 12.9799 861 64.3159 493.218 568.427
302 0 66.2004 12.0845 800 66.6188 493.464 565.15
303 0 72.2661 12.0388 870 65.4609 493.398 566.217
304 1 39.2474 8.48463 333 67.3874 493.925 581.015
305 0 40.2248 9.91927 399 66.2657 493.905 580.053
306 0 42.1428 9.80002 413 66.8136 493.433 579.632
307 0 43.2791 11.0677 479 65.7223 493.591 578.718
308 0 46.3076 11.6612 540 63.3407 493.396 579.341
309 0 47.2493 12.2753 580 63.5983 493.359 575.957
310 0 47.3704 10.7873 511 65.3757 493.29 575.945
311 0 49.3255 11.6978 577 65.1317 494.021 575.076
312 0 49.3421 12.1397 599 65.0451 494.04 575.766
313 0 49.1663 11.0441 543 67.3867 495.118 573.95
314 0 51.2036 11.8742 608 65.6612 495.426 572.837
315 0 53.1372 12.0631 641 65.1342 494.841 573.546
316 0 54.1715 11.3159 613 65.8646 494.731 572.617
317 0 55.1404 12.3866 683 65.4407 495.07 571.108
318 0 58.1916 12.3901 721 65 494.32 569.184
319 0 59.1051 11.8264 699 65.8169 494.232 569.124
320 0 61.1929 11.9132 729 65.6475 493.931 569.097
321 0 63.1545 13.1265 829 64.0446 493.671 566.774
322 0 64.4201 12.8531 828 65.0133 493.662 565.551
323 0 65.1022 12.2576 798 66.3684 493.584 564.407
324 0 67.415 12.4453 839 65.3802 493.547 562.541
325 0 70.3243 12.9685 912 65.0439 493 562.842
326 0 70.3407 12.1267 853 66.4115 493.107 561.903
327 0 73.2641 12.8166 939 65.1161 492.976 560.111
328 0 75.3287 12.3857 933 66.1093 492.501 560.065
329 0 78.2108 12.6581 990 66.2333 492.012 558.002
330 0 81.38 12.6321 1028 65.4484 492.312 558.534
331 0 83.3267 13.4051 1117 65.0331 492.068 556.679
332 0 87.3701 13.8606 1211 64.199 492.405 554.51
333 0 89.4182 13.8115 1235 64.834 492.279 553.921
334 0 93.2882 13.5387 1263 64.8504 491.784 551.519
335 0 95.4203 13.1523 1255 65.6367 492.062 550.788
336 0 100.272 13.7227 1376 64.3765 491.609 549.949
337 0 101.225 13.2378 1340 65.2358 491.966 548.799
338 1 51.0956 10.1574 519 64.8536 492.884 575.04
339 0 55.1283 11.1921 617 63.2658 492.724 574.454
340 0 57.0461 11.8501 676 62.8254 492.904 573.217
341 0 57.132 12.2873 702 63.5043 492.477 571.558
342 0 61.0911 11.7529 718 63.5752 492.284 572.248
343 0 60.1049 12.8775 774 63.1279 492.651 570.42
344 0 62.2223 12.1982 759 64.0264 491.563 570.418
345 0 64.2768 12.9285 831 62.9795 491.286 569.474
346 0 65.2588 12.2895 802 64.1646 491.551 568.291
347 0 66.159 12.3641 818 64.3753 491.458 568.193
348 0 67.3128 12.1076 815 65.1067 491.607 566.439
349 0 70.3118 12.4872 878 64.533 491.757 565.821
350 0 73.2169 12.2103 894 64.6868 491.428 565.28
351 0 75.1861 12.9545 974 64.1684 491.085 562.564
352 0 79.1541 12.6462 1001 64.4156 491.435 563.469
353 0 81.2326 12.5812 1022 64.8806 491.356 561.587
354 0 82.2494 12.4013 1020 65.7412 491.415 561.082
355 0 84.3428 12.4966 1054 65.9848 491.135 560.7
356 1 46.2305 10.0367 464 65.2112 491.599 579.774
357 0 47.2193 10.2289 483 64.9545 491.627 578.383
358 0 49.2298 10.4002 512 64.9512 491.582 578.654
359 0 49.3003 10.8113 533 64.5629 491.25 578.325
360 0 52.1525 11.4664 598 63.7074 491.438 577.216
361 0 52.1842 12.2642 640 63.8844 491.358 575.578
362 0 53.2547 11.4732 611 65.0033 490.921 574.755
363 0 56.1578 12.269 689 63.8287 491.174 573.588
364 0 55.2605 11.5815 640 66.0641 491.438 572.441
365 0 58.1841 12.4089 722 64.1219 492.018 571.537
366 0 57.1697 12.1218 693 65.013 491.903 573.919
367 0 60.2058 12.3742 745 64.4671 492.485 571.153
368 0 61.4861 11.9377 734 65.5668 492.744 570.576
369 0 62.3669 11.4805 716 66.7374 493.098 569.515
370 0 65.4253 13.053 854 64.0948 492.992 568.896
371 0 67.2547 12.8467 864 64.7176 493.014 565.721
372 0 70.1967 12.9921 912 64.6195 493.135 566.287
373 0 71.2667 12.9514 923 64.7389 492.951 566.067
374 0 74.2007 12.6683 940 65.3957 493.206 563.647
375 0 77.3262 12.8805 996 64.9588 493.517 562.263
376 0 78.3861 12.4512 976 64.7736 493.752 560.803
377 0 82.2896 13.2094 1087 63.2935 493.904 559.971
378 0 84.4072 12.2738 1036 65.2867 493.653 558.593
379 0 87.3348 13.1677 1150 63.9878 493.923 556.497
380 1 49.1212 10.3418 508 65.061 494.557 576.185
381 0 50.1946 11.1366 559 64.2862 494.88 575.674
382 0 51.1364 11.4009 583 64.1286 494.832 574.739
383 0 53.174 12.6754 674 62.9421 495.006 573.344
384 0 53.2489 11.4932 612 64.8219 494.853 572.964
385 0 56.1669 12.6943 713 63.1669 494.985 570.87
386 0 58.19 12.6138 734 63.1962 495.421 571.473
387 0 58.1153 10.8405 630 65.9524 495.287 571.671
388 0 63.1705 11.936 754 63.9708 495.362 570.451
389 0 63.2312 12.4464 787 64.1271 495.701 567.311
390 0 65.2578 12.826 837 63.7228 495.508 567.879
391 0 68.199 12.5955 859 64.2806 495.623 566.229
392 0 69.3233 12.1893 845 65.5278 495.785 566.233
393 0 72.2638 12.828 927 64.891 495.584 563.562
394 0 75.2643 13.2068 994 65.0292 495.599 562.534
395 0 76.12 13.2817 1011 65.6429 495.732 559.924
396 0 80.2033 12.5307 1005 65.9871 495.907 561.847
397 0 81.1615 12.1609 987 67.773 496.212 558.542
398 0 86.2099 12.4116 1070 67.0776 496.063 557.201
399 0 90.1204 12.0949 1090 67.4541 496.328 555.964
400 1 45.0754 10.4713 472 65.553 496.644 576.182
401 0 44.2555 9.73889 431 66.6752 496.93 576.664
402 0 49.2099 12.2943 605 63.3471 496.876 575.226
403 0 49.1514 11.8817 584 64.3339 496.635 575.872
404 0 50.0722 11.9827 600 65.6133 496.793 574.648
405 0 51.1036 12.1322 620 65.8661 496.873 573.41
406 0 55.1515 12.6198 696 64.5388 496.958 572.22
407 0 53.1006 12.1279 644 66.9829 496.599 571.817
408 0 56.1185 12.1707 683 67.063 496.555 571.791
409 0 58.0815 13.8254 803 64.6463 496.162 571.199
410 0 61.151 13.5566 829 64.994 496.172 570.04
411 0 62.0935 11.8853 738 67.9688 495.985 568.931
412 0 63.1159 12.8811 813 67.0615 495.948 567.119
413 0 66.2127 13.215 875 66.2926 496.015 566.619
414 0 68.0766 13.7639 937 65.6073 495.365 565.652
415 0 69.1396 12.9593 896 68.0714 495.684 563.304
416 0 71.1115 12.839 913 68.7426 495.676 561.869
417 0 74.1619 13.2818 985 68.0244 495.217 562.475
418 0 75.1637 12.2932 924 69.9372 495.295 561.394
419 0 80.1947 13.567 1088 66.9357 494.824 559.157
420 0 80.193 12.5073 1003 68.99 494.565 559.047
421 1 44.0731 11.3902 502 64.4701 495.357 580.028
422 0 43.1471 9.89638 427 67.3794 494.752 578.731
423 0 46.1664 11.3936 526 65.2357 494.876 578.629
424 0 46.1489 11.0729 511 66.9178 494.102 576.198
425 0 47.2071 11.5237 544 66.204 493.733 575.616
426 0 51.1124 12.1888 623 64.5522 493.406 576.169
427 0 51.2115 11.4232 585 66.7487 492.463 575.559
428 0 52.2758 11.5158 602 66.9585 492.563 574.527
429 0 54.2102 12.4146 673 65.8098 492.103 572.309
430 0 56.2319 12.5729 707 65.0523 492.274 573.085
431 0 56.2256 12.432 699 65.8984 492.133 571.647
432 0 56.1778 11.5704 650 67.4292 491.849 571.165
433 0 59.1762 12.9275 765 65.3085 491.558 569.817
434 0 60.2703 11.9462 720 66.6361 491.411 571.318
435 0 62.2266 12.3259 767 66.1408 491.528 569.644
436 0 64.217 12.9094 829 65.228 491.373 567.78
437 0 66.2748 13.1121 869 64.8239 491.595 565.689
438 0 69.4725 12.8252 891 64.8238 491.579 567.007
439 0 70.4423 12.166 857 66.0723 491.972 565.966
440 0 74.4279 12.9387 963 64.6573 491.648 564.101
441 0 76.5521 12.7756 978 64.3671 491.236 564.062
442 0 80.4364 13.4392 1081 63.185 491.863 562.497
443 1 42.1941 9.97769 421 63.2067 491.283 582.838
444 0 41.1978 9.90344 408 63.8113 492.221 582.306
445 0 42.1938 11.4235 482 62.7158 492.338 580.353
446 0 45.2502 11.0497 500 62.656 492.482 581.098
447 0 46.1713 12.1287 560 61.45 491.957 579.777
448 0 46.1747 12.3877 572 61.4825 492.729 580.687
449 0 48.2966 11.5743 559 62.7567 492.934 578.987
450 0 48.0443 11.5727 556 63.2518 492.678 578.347
451 0 51.2444 12.1184 621 62.1498 492.675 577.008
452 0 53.1478 12.7381 677 60.4771 492.737 577.601
453 0 54.1404 12.8739 697 61.6829 492.339 574.611
454 0 54.2629 12.3104 668 62.4192 492.861 576.512
455 0 55.2951 13.0934 724 61.3039 492.419 575.108
456 0 58.2493 12.4465 725 61.7228 492.218 575.484
457 0 59.1686 12.0503 713 62.4712 491.867 573.316
458 0 60.279 12.4587 751 62.4527 491.67 573.142
459 0 61.1838 13.8272 846 61.1832 491.871 571.541
460 0 63.2251 13.0486 825 61.9067 492.104 571.333
461 0 67.258 12.8758 866 60.9988 491.706 571.8
462 0 67.3615 11.5942 781 63.0384 491.761 570.757
463 0 69.3919 11.8314 821 62.3362 491.418 570.311
464 0 72.3018 12.1435 878 61.9294 491.88 567.876
465 0 76.3324 13.0875 999 61.0811 491.628 565.516
466 1 42.244 9.77654 413 61.7191 492.036 584.264
467 0 44.2047 11.13 492 60.439 491.88 581.931
468 0 44.1516 12.0947 534 59.8989 491.833 581.032
469 0 46.2439 11.6988 541 60.0758 491.736 580.311
470 0 49.2834 12.1542 599 59.4791 492.043 579.962
471 0 49.2962 12.2119 602 60.397 492.05 580.786
472 0 48.1576 12.5006 602 61.2226 491.517 579.39
473 0 51.1769 11.9781 613 61.292 492.176 579.718
474 0 52.2455 12.4795 652 61.4893 492.048 578.762
475 0 54.1271 12.5261 678 61.5044 492.195 577.621
476 0 56.16 12.8027 719 61.4979 492.428 576.737
477 0 55.1284 12.3348 680 63.1632 492.171 575.16
478 0 57.1586 12.3516 706 63.5113 492.149 574.071
479 0 61.1019 13.4529 822 61.747 492.144 574.316
480 0 61.2089 13.2824 813 62.7798 492.455 572.193
481 0 64.3444 13.2568 853 62.544 492.61 572.437
482 0 67.0963 13.1453 882 63.3209 492.556 571.816
483 0 66.1641 11.5773 766 66.0705 492.282 571.937
484 0 67.1308 12.781 858 65.634 492.367 570.867
485 0 69.1061 13.226 914 65.5635 492.571 569.23
486 0 73.123 12.7183 930 65.828 492.966 568.576
487 0 76.178 12.4839 951 66.6593 492.719 565.805
488 1 40.1504 9.98744 401 66.803 493.167 584.86
489 0 41.1392 10.8899 448 66.5067 492.844 582.799
490 0 42.1302 10.064 424 67.1038 492.79 584.63
491 0 45.271 11.5085 521 65.737 492.637 582.53
492 0 46.1081 11.9936 553 66.6673 492.877 581.461
493 0 50.1385 12.0466 604 66.4934 492.611 579.238
494 0 51.159 12.4123 635 66.5874 492.86 578.022
495 0 52.1905 12.4927 652 66.2883 493.11 578.052
496 0 54.0728 13.075 707 65.2984 493.165 576.673
497 0 56.0678 13.662 766 64.6266 493.789 575.93
498 0 57.0934 12.7335 727 65.6162 493.845 574.411
499 0 58.1776 13.9229 810 64.0938 493.82 575.042
500 0 60.0974 13.7444 826 64.5291 493.351 573.303
501 0 61.2183 13.0353 798 65.5802 493.274 572.154
502 0 64.1702 13.1525 844 64.9953 492.839 571.002
503 0 65.229 13.8129 901 64.4162 492.871 568.507
504 0 68.3195 13.5393 925 64.6508 492.766 567.507
505 0 71.1113 14.3718 1022 63.3552 492.856 568.098
506 0 73.2391 13.4491 985 64.4335 493.019 567.028
507 0 77.3718 14.3592 1111 63.0909 493.041 566.574
508 0 79.3199 13.414 1064 65.1852 493.188 563.628
509 0 80.2047 14.1388 1134 64.6041 493.38 562.951
510 0 83.2272 13.5533 1128 65.6268 493.028 562.21
511 0 86.4132 14.4075 1245 64.8691 493.508 557.496
512 0 89.2234 14.4805 1292 65.0031 492.981 558.267
513 0 92.1585 14.4425 1331 65.9722 493.346 557.111
514 1 50.1382 10.5907 531 69.0603 493.215 576.983
515 0 52.2668 11.3074 591 67.4907 492.687 577.716
516 0 52.1016 11.4776 598 67.4298 493.207 576.624
517 0 53.149 12.3427 656 67.2835 493.206 574.669
518 0 56.0637 13.1993 740 65.8365 493.27 574.07
519 0 58.2447 12.6535 737 66.1872 493.484 574.48
520 0 61.1081 13.337 815 66.1055 493.852 572.486
521 0 62.2744 13.0551 813 66.9729 493.541 572.007
522 0 64.1189 12.5392 804 67.8607 493.757 570.055
523 0 66.2063 12.6423 837 67.4421 493.452 569.444
524 0 68.3222 13.6852 935 66.7636 494.076 567.74
525 0 70.238 12.4149 872 69.3567 494.079 566.025
526 0 72.2383 13.2617 958 69.0167 493.924 566.378
527 0 76.1118 13.3751 1018 69.0707 494.252 565.103
528 0 78.2086 13.042 1020 70.1716 494.075 563.252
529 0 79.2261 13.8086 1094 69.5046 494.081 563.197
530 0 84.2701 13.2075 1113 70.2507 494.253 561.651
531 0 87.2561 13.9818 1220 69.1738 494.164 559.646
532 0 87.2353 13.0566 1139 71.4864 494.469 556.652
533 1 47.1703 10.0275 473 72.1226 494.237 579.085
534 0 47.1551 11.5576 545 70.8495 494.417 577.892
535 0 49.0773 11.7773 578 71.0502 494.349 577.204
536 0 52.1463 12.8101 668 68.8054 494.313 576.352
537 0 53.0853 12.9038 685 69.5942 494.647 574.728
538 0 54.1084 12.6598 685 69.1007 495.166 575.764
539 0 55.1366 13.0404 719 69.1238 494.046 573.67
540 0 56.1832 11.8007 663 71.5671 494.066 572.905
541 0 59.1116 12.4172 734 69.9128 494.309 573.142
542 0 61.1348 13.2003 807 68.6927 494.025 570.986
543 0 62.1435 11.8757 738 70.9919 493.984 570.678
544 0 64.1535 13.5768 871 68.4753 493.286 568.333
545 0 67.122 13.3637 897 68.5686 493.487 568.187
546 0 69.1574 12.8836 891 69.0438 493.373 566.138
547 0 73.0882 13.4632 984 67.123 492.962 566.234
548 0 74.1628 13.3355 989 66.8918 492.637 565.408
549 0 75.2657 13.3527 1005 67.809 492.667 562.87
550 0 80.1475 13.9742 1120 66.283 492.628 563.23
551 0 82.1938 13.4438 1105 66.9466 492.478 561.406
552 0 84.0803 13.8082 1161 66.7364 492.411 558.766
553 0 88.1553 13.7938 1216 65.8561 492.199 558.984
554 1 45.0825 10.7802 486 67.216 492.848 578.786
555 0 48.0868 10.3979 500 67.164 492.468 578.574
556 0 48.0616 12.3591 594 65.4697 492.891 576.742
557 0 49.2278 12.5336 617 64.53 492.457 575.533
558 0 52.2366 12.8837 673 63.1664 492.364 575.447
559 0 54.1612 13.0167 705 63.9475 492.372 574.516
560 0 55.1084 12.3937 683 65.2679 492.643 574.76
561 0 56.2284 12.2892 691 65.4544 492.819 572.997
562 0 58.1449 12.5548 730 64.5329 492.784 573.836
563 0 61.123 12.3521 755 64.306 492.54 573.207
564 0 61.1627 11.919 729 65.2277 492.587 572.914
565 0 63.1874 12.5025 790 65.0785 492.185 570.135
566 0 67.1162 12.4262 834 64.7278 491.669 569.869
567 0 69.1365 13.2058 913 64.632 491.938 568.135
568 0 70.1777 13.1096 920 65.0935 491.4 567.096
569 0 73.249 13.0923 959 65.1022 491.719 566.595
570 0 73.1694 13.4756 986 65.86 491.812 565.504
571 0 77.3936 13.6316 1055 65.4597 491.343 564.046
572 1 39.0839 9.6971 379 68.5013 492.858 582.567
573 0 43.0951 9.88512 426 67.4742 492.716 582.378
574 0 44.1795 10.8195 478 66.9979 491.977 581.967
575 0 46.2087 11.0802 512 67.4023 491.598 580.031
576 0 47.1506 12.2374 577 67.0919 491.088 579.362
577 0 48.1302 11.8013 568 68.1338 490.97 579.359
578 0 49.2268 12.3104 606 67.5858 490.414 577.728
579 0 50.1307 11.9687 600 68.9567 490.14 576.7
580 0 52.1219 12.183 635 67.4756 490.677 577.51
581 0 54.2116 12.1192 657 67.6591 490.431 575.067
582 0 56.1595 12.1974 685 67.1752 489.928 574.46
583 0 57.0916 11.7706 672 68.2366 489.978 572.9
584 0 59.1885 12.9755 768 66.5807 490.587 572.766
585 0 60.0965 12.7794 768 66.7565 490.329 571.889
586 0 62.2346 12.3565 769 66.7984 490.243 570.962
587 0 63.0747 13.2858 838 65.5632 490.319 570.204
588 0 65.1667 13.0281 849 66.2792 490.409 569.648
589 0 68.1378 12.328 840 66.9869 490.094 568.777
590 0 70.1436 12.6312 886 67.07 490.306 566.708
591 0 71.0561 13.2008 938 66.4467 490.053 565.44
592 0 76.1448 13.6713 1041 65.7003 489.706 564.988
593 0 77.1144 13.6032 1049 65.8742 489.985 565.035
594 0 78.1452 12.2976 961 68.4402 490.225 562.519
595 0 83.1093 12.8987 1072 66.1521 489.775 562.258
596 1 46.1253 10.84 500 64.414 490.268 581.626
597 0 45.066 9.16433 413 67.0315 490.709 580.785
598 0 49.0792 11.3694 558 63.6864 490.973 580.722
599 0 48.0655 11.7964 567 63.9136 491.09 579.058
600 0 51.0869 12.7821 653 62.4931 490.948 577.386
601 0 51.0622 11.8679 606 63.7426 490.602 577.315
602 0 56.189 12.7249 715 61.6643 490.62 576.702
603 0 56.0661 12.5209 702 62.2208 490.632 576.717
604 0 59.075 12.9666 766 61.5326 490.614 576.093
605 0 60.1972 12.4591 750 62.1933 491.096 575.919
606 0 62.0918 12.8197 796 61.1457 490.568 575.309
607 0 64.122 12.3047 789 63.0532 490.532 573.066
608 0 66.1376 12.8671 851 62.691 490.615 572.09
609 0 69.0722 13.5655 937 61.7695 490.517 570.951
610 0 71.1404 12.9603 922 62.6139 490.352 570.001
611 0 71.0759 13.2253 940 63.3266 490.444 568.282
612 0 76.1544 13.3544 1017 62.7581 490.589 567.932
613 0 77.2016 12.9013 996 64.509 490.29 565.874
614 0 79.3682 13.1035 1040 64.7308 489.722 565.701
615 1 40.1798 10.1295 407 66.5405 490.708 584.496
616 0 43.2208 10.2728 444 66.9459 490.14 583.75
617 0 45.1378 11.1215 502 65.5876 490.213 583.153
618 0 45.0911 11.3991 514 65.5895 490.043 582.741
619 0 48.1338 12.0498 580 64.5431 489.898 580.662
620 0 50.1025 12.8337 643 63.2691 490.319 581.337
621 0 50.0843 13.1578 659 64.5402 490.431 579.442
622 0 52.3854 13.0571 684 65.0322 490.114 578.544
623 0 53.2742 12.4263 662 66.7417 490.184 578.073
624 0 53.2525 13.1637 701 66.4551 490.322 577.79
625 0 57.1518 13.5604 775 64.9471 490.355 576.488
626 0 58.2916 12.832 748 66.1791 490.378 575.326
627 0 60.2541 13.692 825 65.0085 490.787 574.853
628 0 62.3709 13.4037 836 66.1854 490.927 573.035
629 0 64.19 14.4882 930 64.829 491.135 572.52
630 0 67.2433 15.5406 1045 63.0612 491.225 569.949
631 0 69.3625 13.5231 938 65.8593 491.413 570.087
632 0 69.2879 13.7253 951 66.9159 491.525 568.81
633 0 71.2951 13.4231 957 66.861 491.456 569.057
634 0 75.3096 14.5267 1094 64.6298 491.49 566.426
635 0 77.367 13.7397 1063 66.3622 491.854 567.214
636 0 81.3593 13.3359 1085 66.435 492.092 563.082
637 0 83.5765 14.4538 1208 64.8618 492.257 562.198
638 0 87.3107 13.4806 1177 65.9779 492.246 560.476
639 1 46.1868 11.4751 530 66.0094 491.838 581.236
640 0 47.1564 10.5818 499 66.998 492.357 580.575
641 0 49.112 12.0744 593 65.1855 492.325 579.612
642 0 49.1276 11.6635 573 66.7103 492.497 577.435
643 0 50.2903 13.1437 661 65.0408 492.918 577.66
644 0 52.3093 13.3246 697 64.5624 493.558 576.551
645 0 56.1682 12.9611 728 64.6854 493.199 574.459
646 0 57.2209 12.6527 724 65.203 493.126 573.695
647 0 59.2802 13.4277 796 63.9485 493.231 572.503
648 0 59.2629 12.318 730 66.0466 493.584 572.945
649 0 63.3806 12.5906 798 65.0764 493.482 571.766
650 0 65.2141 13.172 859 64.0629 494.056 570.099
651 0 67.2426 13.2952 894 63.4374 495.221 568.815
652 0 68.4039 12.5139 856 64.7079 494.384 566.794
653 0 71.3237 13.1373 937 63.7343 493.893 566.179
654 0 73.4631 12.1285 891 64.835 493.975 565.153
655 0 76.4293 12.5475 959 64.3994 494.433 562.219
656 0 81.3515 13.5707 1104 62.4167 494.681 560.924
657 1 41.2446 11.1772 461 63.167 494.471 580.204
658 0 42.2902 11.9177 504 62.3571 494.339 579.472
659 0 42.1827 9.88556 417 64.8681 494.511 580.628
660 0 42.1888 11.093 468 63.797 494.513 579.015
661 0 45.3461 10.8278 491 64.0244 494.65 577.049
662 0 48.0982 12.5992 606 61.0347 494.381 575.88
663 0 47.0668 12.1529 572 63.7902 495.643 574.572
664 0 51.0939 12.8978 659 62.1502 496.096 572.398
665 0 51.1395 12.7299 651 63.0891 495.743 572.992
666 0 53.1347 12.6471 672 62.8973 495.519 571.582
667 0 54.2165 11.657 632 64.3877 495.199 573.051
668 0 57.2083 13.0575 747 62.6854 495.295 571.357
669 0 58.2516 12.4632 726 63.5909 495.598 571.263
670 0 58.2898 11.906 694 64.7925 494.867 568.483
671 0 61.3932 12.2815 754 64.4111 495.275 566.038
672 0 65.2077 13.4647 878 61.8223 495.015 566.194
673 0 67.2289 12.5095 841 62.6278 494.944 563.432
674 0 68.1911 12.9929 886 61.9142 495.033 564.753
675 0 70.1808 13.1375 922 62.2527 495.044 562.663
676 0 74.2286 12.5154 929 63.2024 495.114 562.122
677 0 76.156 13.6562 1040 61.5 495.329 561.894
678 0 78.2912 13.5392 1060 62.0811 495.3 558.431
679 0 82.2353 13.2303 1088 62.2537 495.463 558.076
680 1 43.1067 11.112 479 61.9478 495.724 577.885
681 0 43.2121 10.7377 464 63.0603 495.933 578.304
682 0 44.1941 11.9247 527 62.2277 495.844 577.116
683 0 47.106 12.7585 601 61.9617 495.606 575.344
684 0 45.1425 12.3387 557 65.3447 495.548 574.7
685 0 48.2137 12.7765 616 64.0211 495.12 574.567
686 0 48.2893 12.3423 596 64.5067 495.097 572.757
687 0 52.1307 13.1784 687 62.9287 495.13 572.846
688 0 52.1281 13.4285 700 63.2971 494.923 572.473
689 0 53.1572 12.8487 683 64.7687 494.978 571.081
690 0 56.1799 12.9406 727 63.315 494.527 569.909
691 0 56.0911 12.8184 719 64.1502 494.65 569.854
692 0 60.1307 13.0549 785 63.6904 495.029 568.699
693 0 62.1512 12.4374 773 64.5408 494.761 569.292
694 0 65.0831 13.4751 877 63.0057 494.894 567.312
695 0 66.1251 12.2797 812 65.218 494.506 565.42
696 1 37.0898 10.2454 380 62.8947 496.045 583.571
697 0 34.0804 9.53628 325 67.2585 495.868 581.575
698 0 37.2079 11.7717 438 64.2808 495.126 578.639
699 0 39.1 10.6905 418 64.3828 495.196 580.196
700 0 41.1428 12.1528 500 63.63 495.378 578.23
701 0 41.092 12.7762 525 63.5029 493.869 577.179
702 0 44.1509 12.0722 533 63.5103 493.375 577.133
703 0 45.0984 12.506 564 63.8156 493.218 577.117
704 0 46.1076 12.9263 596 67.0168 493.386 575.997
705 0 45.1122 12.5687 567 72.0829 492.868 575.762
706 0 48.0943 12.725 612 74.7958 492.621 574.456
707 0 50.071 12.8018 641 75.4103 492.864 574.111
708 0 51.0933 12.8001 654 79.6789 492.671 573.518
709 0 52.1278 12.2391 638 87.9263 492.491 575.702
710 0 52.2406 12.9401 676 71.7574 492.429 574.209
711 0 52.2406 12.9593 677 151.077 493.421 574.174
712 0 55.0911 13.1419 724 74.232 492.459 571.638
713 0 56.2069 13.2902 747 75.2637 492.175 571.446
714 0 58.1756 12.9264 752 76.9348 492.593 570.92
715 0 60.2985 13.4663 812 77.6638 492.475 570.4
716 0 61.1466 13.2632 811 79.5758 492.424 570.37
717 0 62.141 13.7751 856 80.0222 492.473 568.833
718 0 66.1157 14.7771 977 78.6725 492.344 568.272
719 0 67.2899 13.7465 925 81.013 492.365 566.617
720 0 67.2899 13.7316 924 159.635 492.343 566.684
721 0 71.3484 14.3241 1022 82.4755 492.178 565.216
722 0 74.2183 14.0936 1046 83.3604 492.254 565.894
723 1 41.1166 12.0633 496 83.881 492.196 581.869
724 0 41.14 11.2542 463 85.7408 492.143 580.92
725 0 43.2578 11.6048 502 87.0578 491.859 579.392
726 0 45.1938 12.0813 546 83.8571 492.63 580.595
727 0 45.2057 11.5915 524 86.8683 492.086 578.861
728 0 47.1593 13.8043 651 84.9677 492.18 577.845
729 0 48.2161 12.4232 599 87.6745 492.204 578.234
730 0 50.1009 13.7722 690 86.2319 492.02 576.975
731 0 53.1421 13.3416 709 86.7052 491.653 577.677
732 0 53.1217 12.9514 688 88.4956 491.938 576.536
733 0 55.1185 13.1535 725 88.1131 492.015 575.171
734 0 57.1758 13.7121 784 87.9247 491.921 575.781
735 0 58.2109 13.4339 782 88.5205 491.372 573.59
736 0 61.2105 13.1187 803 88.5068 491.472 573.676
737 0 59.2632 13.3304 790 90.5747 491.034 571.6
738 0 62.2088 13.5029 840 90.6107 490.839 571.914
739 0 67.3998 14.4066 971 89.0103 491.01 569.39
740 0 67.2818 12.7077 855 91.6959 490.807 570.322
741 0 68.3352 12.7167 869 93.5006 490.894 568.777
742 0 72.2643 14.0457 1015 92.3704 490.62 567.357
743 0 74.3589 13.7845 1025 92.8195 490.399 565.998
744 0 76.4244 13.9746 1068 93.4054 490.875 563.534
745 0 79.1461 13.1403 1040 94.9 490.866 563.013
746 0 80.1688 12.7356 1021 96.2929 490.825 562.893
747 0 83.3396 12.983 1082 96.2061 490.818 561.579
748 0 88.3191 14.2212 1256 94.6497 490.33 559.943
749 0 87.2751 13.108 1144 98.0752 490.291 557.927
750 0 93.223 13.9129 1297 95.5436 490.344 558.24
751 0 95.2934 14.9958 1429 95.6242 490.092 553.784
752 0 97.1987 13.2615 1289 91.5322 489.804 552.417
753 0 101.351 13.5766 1376 91.2747 489.669 550.897
754 1 53.0982 12.185 647 87.9907 489.329 576.541
755 0 57.1636 13.4876 771 86.1933 490.014 575.117
756 0 59.2116 11.974 709 89.3724 490.162 574.42
757 0 59.1788 12.3524 731 89.7059 489.844 574.787
758 0 62.2348 13.6419 849 88.6678 490.121 574.428
759 0 62.1006 12.512 777 90.148 489.716 574.445
760 0 66.24 12.4396 824 91.1371 489.711 572.981
761 0 68.1751 13.2893 906 90.6049 489.377 570.292
762 0 72.2698 14.0723 1017 90.1809 489.083 570.221
763 0 72.2902 13.7916 997 91.4965 489.33 568.18
764 0 76.2407 14.3231 1092 91.0357 489.599 568.035
765 0 76.1474 12.4758 950 94.0442 489.249 570.671
766 0 79.1669 13.1368 1040 94.4192 489.067 565.267
767 0 80.2316 12.5138 1004 95.0339 488.485 563.819
768 0 84.2398 12.8205 1080 94.5463 488.811 563.211
769 0 88.2703 14.2743 1260 92.846 488.875 561.067
770 0 89.1172 13.9816 1246 94.3363 488.555 558.896
771 0 93.2304 13.9332 1299 95.5289 488.708 558.481
772 0 95.1658 13.86 1319 95.5375 488.483 556.59
773 0 97.1677 13.0599 1269 96.8172 488.257 554.942
774 0 99.3888 13.2309 1315 96.5947 488.436 555.863
775 0 105.227 13.7893 1451 95.7133 488.45 554.609
776 1 57.3059 11.5346 661 95.121 488.775 577.256
777 0 59.2439 12.6764 751 95.0772 488.626 576.863
778 0 60.3508 12.7587 770 95.8961 488.821 575.308
779 0 63.1889 13.0561 825 88.7721 488.659 574.739
780 0 63.1741 12.4735 788 90.6916 488.629 572.322
781 0 66.27 13.3997 888 90.5113 488.753 570.13
782 0 69.0904 14.5462 1005 88.8149 488.995 569.658
783 0 68.332 11.971 818 93.8374 488.797 570.286
784 0 73.2152 13.4535 985 92.8416 488.914 568.389
785 0 74.4276 13.0731 973 94.149 490.174 567.452
786 0 77.2125 13.6765 1056 94.3608 489.807 564.791
787 0 77.124 13.1995 1018 97 489.999 565.991
788 0 78.3241 12.3078 964 99.5052 490.036 565.7
789 0 83.3716 13.3019 1109 98.0126 490.384 562.316
790 0 86.486 13.7941 1193 96.0319 490.533 561.447
791 0 88.1914 13.5047 1191 97.5449 490.788 560.149
792 0 90.3494 13.3592 1207 99.2999 490.836 558.285
793 0 91.2524 13.2818 1212 100.252 491.089 558.803
794 0 98.211 13.1655 1293 101.643 490.862 556.642
795 0 99.144 14.1108 1399 100.679 490.92 556.416
796 0 101.135 12.3795 1252 103.967 491.228 556.347
797 0 104.149 13.6536 1422 103.757 491.371 550.703
798 0 109.139 13.8722 1514 97.1083 491.089 548.514
799 0 113.47 14.4003 1634 97.7301 491.699 544.08
800 1 62.1297 10.4298 648 97.6682 492.631 572.801
801 0 64.1183 11.5412 740 96.4959 492.712 572.311
802 0 64.1261 11.7893 756 99.4603 492.896 568.095
803 0 67.2417 13.1764 886 98.4865 491.912 567.052
804 0 70.1525 13.9696 980 98.1286 491.797 567.015
805 0 73.2416 13.6398 999 98.8038 491.763 567.328
806 0 73.3429 12.462 914 102.132 492.174 566.798
807 0 76.3466 12.7707 975 101.998 491.935 563.766
808 0 81.3801 13.3816 1089 100.953 492.357 563.092
809 0 83.4017 13.7167 1144 101.253 492.478 560.655
810 0 86.3137 13.4741 1163 102.786 492.475 559.801
811 0 88.2121 12.6967 1120 104.671 492.484 559.79
812 0 93.4298 13.1543 1229 105.149 492.27 555.778
813 0 96.5233 13.3646 1290 105.307 492.865 556.45
814 1 53.1533 10.7425 571 105.046 492.771 574.963
815 0 57.1878 12.695 726 102.966 493.281 573.299
816 0 58.2279 11.1974 652 105.595 493.245 573.066
817 0 60.2114 11.825 712 105.611 493.029 571.676
818 0 63.2358 12.5562 794 104.426 493.368 570.495
819 0 64.238 12.0801 776 105.534 493.589 568.514
820 0 63.1391 12.4962 789 106.265 493.676 569.247
821 0 65.0958 11.3218 737 106.564 494.525 569.92
822 0 71.0641 12.3128 875 107.997 493.953 564.392
823 0 70.1709 10.8592 762 110.772 493.513 564.579
824 0 81.0726 8.54789 693 112.118 493.456 567.382
825 0 80.188 11.3109 907 110.881 493.707 563.164
826 0 79.0917 11.67 923 105.451 493.273 561.12
827 0 80.0764 11.0395 884 106.986 493.472 559.836
828 1 45.0638 10.0968 455 102.965 493.391 579.262
829 0 45.1385 11.6309 525 103.168 493.522 579.015
830 0 45.1265 11.2129 506 104.524 493.328 577.771
831 0 47.2059 10.8461 512 106.719 493.404 577.959
832 0 49.0946 12.3231 605 107.975 493.636 576.357
833 0 53.4213 11.6433 622 107.092 493.334 574.756
834 0 52.046 11.8741 618 106.985 492.924 574.115
835 0 53.1269 11.9337 634 106.56 492.418 573.86
836 0 57.0651 12.7048 725 72.6221 492.825 575.665
837 0 56.1238 12.0448 676 72.7929 492.324 572.678
838 0 58.044 12.4216 721 71.3259 492.393 571.307
839 0 60.0828 12.0168 722 71.8892 492.368 571.626
840 0 63.1097 12.8189 809 69.8084 492.321 570.802
841 0 64.1923 12.7741 820 70.272 492.071 570.687
842 0 64.0969 12.4187 796 71.8417 492.544 568.106
843 0 68.1356 13.0622 890 69.8831 493.022 569.258
844 0 71.1243 13.3288 948 69.2584 492.473 568.422
845 0 73.0272 13.5977 993 68.9718 492.06 567.019
846 0 74.0554 12.3826 917 71.3686 492.323 565.868
847 0 77.1156 12.4229 958 71.5031 492.104 564.817
848 1 38.1234 10.6759 407 71.7789 492.069 583.192
849 0 39.087 9.92657 388 74.1314 491.985 582.186
850 0 43.1263 11.9185 514 70.7062 492.237 580.765
851 0 44.0938 11.0673 488 70.916 492.111 580.49
852 0 44.191 11.3371 501 70.6647 492.112 580.583
853 0 46.3781 12.01 557 69.9551 490.959 580.224
854 0 49.3123 13.0191 642 68.4097 491.045 579.269
855 0 50.2102 11.8502 595 70.8252 490.454 578.635
856 0 50.3128 12.5415 631 70.8273 490.794 577.29
857 0 52.4433 12.6231 662 70.8444 490.81 577.408
858 0 54.2275 12.9455 702 70.4003 490.631 575.583
859 0 54.1637 13.4592 729 70.3292 491.004 575.444
860 0 56.3013 13.3567 752 70.2793 490.044 574.434
861 0 58.1494 13.3621 777 69.695 490.582 575.001
862 0 60.1567 13.1822 793 70.1791 489.849 572.676
863 0 59.195 12.6193 747 73.008 490.11 572.444
864 0 63.1885 13.0245 823 71.7704 490.774 569.552
865 0 64.1519 14.1539 908 67.0826 490.025 569.357
866 0 68.1679 12.8066 873 63.3918 490.203 569.756
867 0 68.1679 12.8213 874 149.752 491.212 569.763
868 0 74.2173 13.8782 1030 62.1019 489.954 567.683
869 0 74.2491 13.1853 979 64.3258 490.343 565.92
870 0 77.3708 13.5581 1049 63.7884 490.099 563.015
871 0 80.3977 13.4705 1083 63.4995 489.772 564.556
872 0 82.5354 14.1152 1165 63.5253 489.882 562.653
873 0 84.5295 12.8949 1090 65.2312 490.084 559.678
874 1 43.346 10.7738 467 67.7794 489.872 580.829
875 0 47.2148 11.6277 549 66.2605 490.231 578.996
876 0 47.2259 11.5403 545 65.1908 489.969 579.004
877 0 48.2274 12.3996 598 64.4749 489.667 579.512
878 0 49.2334 12.1462 598 65.3361 489.836 579.809
879 0 50.2445 12.061 606 65.9521 489.457 577.389
880 0 51.1568 12.7256 651 65.2796 489.459 577.624
881 0 55.1632 12.7621 704 65.1506 489.913 576.43
882 0 56.2103 12.6667 712 65.1896 489.843 576.192
883 0 58.1487 11.8833 691 66.8278 489.753 574.569
884 0 60.2303 12.253 738 66.5732 489.692 574.974
885 0 61.1953 13.1709 806 65.9739 489.841 574.225
886 0 64.1658 12.7482 818 65.9866 489.928 572.665
887 0 65.1099 12.9013 840 66.0881 489.811 571.706
888 0 67.1251 12.946 869 65.9643 490.159 569.841
889 0 68.1479 13.0745 891 66.615 490.104 570.443
890 0 71.1521 13.5625 965 66.0342 490.029 566.795
891 0 72.0852 13.6228 982 66.3574 490.579 564.444
892 0 77.1719 13.904 1073 64.521 490.889 564.856
893 0 80.3271 14.0052 1125 64.3209 491.365 563.559
894 0 81.0975 13.3543 1083 66.2198 491.506 561.602
895 0 85.1705 14.1716 1207 64.9892 492.205 558.89
896 0 89.2574 14.2845 1275 64.3561 492.403 556.491
897 0 89.2953 13.9649 1247 66.0144 492.374 554.526
898 0 91.3021 13.2527 1210 67.3339 492.234 555.809
899 1 51.1274 11.5398 590 66.3746 492.842 578.017
900 0 51.0823 12.1569 621 66.8776 493.04 577.018
901 0 51.0823 12.1177 619 166.814 494.026 577.145
902 0 54.0826 12.0371 651 67.5822 492.783 575.619
903 0 57.1906 12.9042 738 66.4932 492.673 573.304
904 0 59.1945 13.5148 800 65.4225 492.692 570.85
905 0 61.2783 13.3 815 66.0209 492.621 569.955
906 0 63.2144 11.9751 757 67.9921 493.034 571.162
907 0 64.2148 13.0967 841 67.2176 493.364 569.017
908 0 65.1784 13.394 873 66.9874 493.12 568.259
909 0 66.1585 12.591 833 68.1164 493.304 567.364
910 0 71.1821 12.5172 891 67.697 493.319 565.52
911 0 71.1859 12.9099 919 67.6181 493.544 564.568
912 0 74.1805 13.8311 1026 66.4659 493.217 562.964
913 0 78.157 13.4217 1049 66.7502 493.827 563.428
914 0 77.2482 14.1363 1092 67.3681 493.925 560.875
915 0 81.1177 13.166 1068 68.177 493.963 559.174
916 0 85.1219 13.557 1154 67.7513 494.151 558.172
917 0 88.1836 12.9276 1140 68.6412 494.021 555.965
918 0 92.2526 14.1351 1304 66.6802 494.291 555.84
919 1 46.0348 10.0576 463 69.0691 494.754 574.516
920 0 50.0462 10.6701 534 67.7247 494.498 574.586
921 0 49.064 9.3755 460 70.6674 495.037 574.263
922 0 53.0995 11.1112 590 68.4441 495.668 573.298
923 0 54.0588 11.4135 617 68.5073 494.781 572.319
924 0 56.1038 12.0669 677 67.712 494.038 570.449
925 0 57.0673 12.5116 714 66.3585 493.847 569.594
926 0 61.1317 13.2501 810 64.9198 494.126 569.891
927 0 62.105 12.6721 787 66.3545 495.305 569.241
928 0 63.0343 12.7232 802 67.0436 495.536 566.651
929 0 67.0531 12.5274 840 67.0393 495.727 566.008
930 0 69.047 13.7008 946 65.2516 495.352 564.736
931 0 70.0415 12.9495 907 67.419 495.499 564.693
932 0 72.1191 13.3668 964 66.9616 495.327 563.965
933 0 75.0918 13.7565 1033 66.6631 495.097 562.334
934 0 76.1964 13.0321 993 67.8983 495.003 560.852
935 0 79.1197 12.8034 1013 68.1609 494.972 558.749
936 0 81.2102 12.8063 1040 68.251 494.509 556.531
937 0 84.244 13.4016 1129 67.457 494.505 555.873
938 0 84.244 13.3897 1128 157.213 495.499 555.876
939 0 91.3381 13.3679 1221 67.5676 494.373 554.387
940 1 49.146 10.7842 530 67.9094 494.587 576.513
941 0 49.1119 10.812 531 69.2542 494.175 573.994
942 0 50.154 9.78985 491 68.4521 494.11 576.996
943 0 51.1663 10.5147 538 68.3755 493.955 576.98
944 0 55.1776 11.164 616 66.8961 493.55 575.451
945 0 56.1355 11.8463 665 65.9504 493.377 575.233
946 0 56.1063 12.7971 718 64.4554 493.288 573.595
947 0 58.2414 11.9331 695 65.9036 492.377 572.082
948 0 61.1484 12.5923 770 64.961 492.739 569.521
949 0 63.1574 13.1259 829 64.1677 492.59 568.612
950 0 64.1943 12.3375 792 65.5694 492.414 568.25
951 0 66.2364 12.8781 853 64.5604 492.393 567.773
952 0 68.1378 13.3553 910 64.4923 492.374 566.198
953 0 67.1214 12.4253 834 66.5731 492.716 566.79
954 0 72.2112 13.5436 978 64.0256 492.199 565.403
955 0 74.1919 12.7777 948 64.9515 492.426 564.963
956 0 75.1477 13.214 993 65.0222 492.519 563.957
957 0 78.1895 13.1987 1032 64.7829 492.507 561.941
958 0 80.1584 13.0741 1048 64.6441 492.076 560.276
959 0 83.1189 13.8837 1154 63.3761 492.344 559.808
960 0 87.1278 12.7973 1115 64.0332 492.228 560.328
961 0 89.1024 13.0187 1160 64.2267 491.601 556.861
962 0 91.2325 13.0984 1195 64.554 492.319 557.254
963 1 49.1038 10.7527 528 66.6174 493.062 576.742
964 0 51.1129 11.23 574 65.899 492.744 576.683
965 0 51.1328 12.0275 615 64.2309 492.894 577.393
966 0 53.0905 12.6953 674 63.8249 492.654 574.365
967 0 55.1139 12.9006 711 63.3586 492.124 573.713
968 0 57.178 12.7147 727 63.6039 492.151 572.458
969 0 59.0782 12.7458 753 63.2669 491.93 571.798
970 0 61.0841 12.6711 774 64.0401 491.986 570.597
971 0 63.1447 13.4453 849 62.8186 491.708 570.272
972 0 67.1357 13.8674 931 61.9774 492.305 569.266
973 0 69.0773 13.5935 939 62.9244 491.942 567.29
974 0 69.0773 13.6079 940 155.583 490.933 567.212
975 0 73.1522 13.7385 1005 63.1224 491.421 565.95
976 0 75.2373 13.3577 1005 63.6896 491.3 565.175
977 0 78.1294 13.9512 1090 62.8523 491.689 562.736
978 0 79.1622 13.2007 1045 64.778 491.132 561.878
979 0 84.3 13.9264 1174 62.6865 490.656 560.858
980 0 88.1691 13.5762 1197 63.5121 490.622 559.894
981 0 89.2613 12.9171 1153 65.1431 490.741 559.724
982 1 47.083 10.4496 492 65.0793 490.589 580.006
983 0 47.1736 10.8535 512 65.9551 490.402 578.82
984 0 50.0739 11.1236 557 66.1239 490.37 577.95
985 0 52.055 12.0065 625 64.7632 490.149 577.766
986 0 53.0648 12.155 645 64.9984 491.487 578.095
987 0 55.1106 13.1554 725 64.1683 491.677 576.654
988 0 56.0495 12.2749 688 66.1599 491.257 574.81
989 0 58.0938 12.2561 712 66.2893 490.992 575.56
990 0 59.1009 12.7409 753 66.4515 490.772 573.522
991 0 61.074 13.0334 796 65.951 490.323 573.065
992 0 63.2288 13.0478 825 65.9345 490.267 571.739
993 0 65.082 13.3831 871 66.1998 490.362 571.976
994 0 68.2073 12.9605 884 67.1018 490.076 570.847
995 0 70.1808 12.6958 891 68.0438 489.871 571.338
996 0 71.1877 13.1062 933 67.8585 490.23 568.823
997 0 72.1256 13.7815 994 67.7233 489.919 569.359
998 1 36.0641 10.7863 389 69.7147 490.003 586.27
999 0 38.063 10.325 393 70.4453 490.104 586.855
1000 0 40.129 10.84 435 70.646 490.179 584.869
1001 0 42.1428 11.3661 479 69.8518 489.812 585.593
1002 0 43.1382 11.2661 486 70.3786 489.811 585.21
1003 0 45.1941 12.5901 569 68.7434 489.243 582.963
1004 0 47.1585 12.6594 597 69.4422 489.685 582.302
1005 0 47.059 13.8337 651 69.1167 490.424 581.338
1006 0 48.1204 13.2584 638 70.5188 490.654 579.998
1007 0 49.0226 13.4224 658 70.424 491.065 581.149
1008 0 51.0663 13.316 680 70.7706 490.857 580.69
1009 0 52.1159 12.8751 671 72.0969 491.401 580.3
1010 0 55.2251 13.0919 723 70.3734 491.113 579.169
1011 0 56.2426 13.3351 750 72.2907 491.144 578.287
1012 0 56.1203 13.8987 780 71.6282 491.126 577.058
1013 0 58.1678 14.0112 815 71.2135 490.839 575.942
1014 0 60.1437 13.501 812 71.9655 490.85 573.748
1015 0 60.2639 14.0051 844 71.4301 490.686 573.61
1016 0 63.1696 14.2157 898 70.402 490.478 572.294
1017 0 65.1317 13.5264 881 71.7299 490.636 571.965
1018 0 65.1788 14.2684 930 71.0258 490.555 569.889
1019 0 67.1513 14.3259 962 71.1944 490.646 570.712
1020 0 70.1289 13.8317 970 72.1371 490.721 568.939
1021 0 72.1472 13.9021 1003 72.1296 490.543 566.777
1022 0 75.2897 14.6766 1105 71.1729 491.129 565.724
1023 0 75.2897 14.6634 1104 168.028 491.122 565.736
1024 0 79.2413 14.5757 1155 72.1948 490.828 564.652
1025 0 81.3788 13.984 1138 73.3409 491.112 562.299
1026 0 83.2323 14.2012 1182 73.1794 491.079 562.041
1027 0 85.3846 14.5225 1240 72.8581 491.537 560.472
1028 0 86.2869 14.5677 1257 73.9745 491.337 558.698
1029 1 45.0291 11.5037 518 77.0888 491.28 580.197
1030 0 46.0463 11.293 520 77.1019 491.681 580.094
1031 0 47.0495 11.5623 544 77.5974 491.722 579.618
1032 0 49.0295 11.952 586 75.4096 491.551 578.66
1033 0 52.1088 12.3396 643 75.6547 492.204 576.866
1034 0 53.0159 13.0338 691 75.1288 492.543 577.527
1035 0 55.0207 13.2496 729 75.6379 492.58 575.938
1036 0 57.0849 13.5763 775 75.4865 492.899 574.822
1037 0 59.1089 13.5513 801 75.1223 493.424 574.361
1038 0 61.0702 12.985 793 76.7755 493.202 572.456
1039 0 63.0546 13.8927 876 74.8927 493.498 570.808
1040 0 64.1241 12.6941 814 77.4447 493.775 569.767
1041 0 67.2102 13.1528 884 76.1799 493.88 568.732
1042 0 70.1504 13.7419 964 74.9056 493.754 567.059
1043 0 71.1677 13.6298 970 76.299 494.106 564.952
1044 0 75.2477 14.2064 1069 75.0299 494.08 564.525
1045 0 75.1713 13.6222 1024 76.9082 494.103 562.808
1046 0 82.098 13.7275 1127 74.0231 494.145 562.819
1047 0 82.3021 13.1588 1083 76.1597 494.532 560.651
1048 0 87.3224 13.8796 1212 74.4554 494.315 559.675
1049 0 89.172 14.9935 1337 72.3171 494.393 559.193
1050 0 90.2396 13.1206 1184 76.5617 494.406 557.227
1051 0 94.2518 13.761 1297 75.5505 494.691 555.816
1052 1 51.0955 11.0969 567 74.9083 495.146 578.071
1053 0 53.0892 12.1117 643 74.0156 495.502 575.829
1054 0 54.0317 12.3076 665 73.8947 495.251 574.901
1055 0 54.0696 11.3187 612 76.701 495.971 574.114
1056 0 59.1044 11.928 705 74.8199 495.311 573.799
1057 0 60.1713 12.4478 749 75.0975 494.463 572.598
1058 0 60.1848 12.5779 757 75.852 494.347 572.148
1059 0 63.264 12.6928 803 75.0884 494.29 572.118
1060 0 65.1629 13.5046 880 73.7693 494.599 570.886
1061 0 68.1224 12.962 883 74.4417 494.878 569.828
1062 0 68.1981 12.449 849 75.6502 494.485 570.773
1063 0 72.1807 13.3415 963 73.8993 494.125 568.312
1064 0 72.1929 12.9237 933 75.9689 494.343 565.792
1065 0 77.2584 13.526 1045 74.0938 494.658 565.172
1066 0 78.2085 12.6457 989 75.6876 494.605 563.929
1067 0 82.4101 13.36 1101 74.3996 494.484 563.134
1068 0 83.2133 13.8319 1151 73.8766 494.353 562.8
1069 0 85.2321 13.3048 1134 75.2813 494.408 560.966
1070 0 88.2123 13.2521 1169 75.3995 493.889 558.322
1071 0 92.3723 12.5904 1163 75.8014 493.957 556.386
1072 1 47.1975 10.8057 510 75.0667 494.322 579.933
1073 0 49.1312 10.3804 510 76.4784 494.233 577.963
1074 0 50.2361 11.446 575 75.4574 494.198 576.664
1075 0 52.1982 11.9353 623 73.9904 494 576.681
1076 0 54.1372 12.9671 702 71.9672 493.61 575.463
1077 0 56.1337 12.3633 694 72.6153 493.317 574.304
1078 0 57.1727 12.7334 728 72.5632 493.305 574.738
1079 0 60.1655 12.8146 771 72.9339 493.227 573.53
1080 0 59.2007 12.3478 731 75.4487 493.153 573.711
1081 0 64.0731 13.0632 837 72.4098 493.062 571.327
1082 0 66.1328 13.73 908 71.2808 493.143 571.247
1083 0 68.152 13.69 933 71.8521 493.189 568.402
1084 0 69.2531 13.7611 953 72.5813 492.994 568.776
1085 0 70.2291 13.5129 949 73.8356 492.66 568.032
1086 0 72.1464 13.5974 981 74.3976 492.724 565.815
1087 0 75.1697 13.1303 987 75.0446 492.952 565.924
1088 0 77.1822 13.4098 1035 74.7836 492.808 565.98
1089 0 77.1822 13.4487 1038 167.615 492.815 566.005
1090 0 82.1158 13.554 1113 75.2579 492.995 562.26
1091 1 44.0293 10.5384 464 76.653 494.101 582.853
1092 0 45.0414 10.2572 462 78.1558 493.994 582.385
1093 0 46.0522 10.3578 477 79.2432 493.763 580.262
1094 0 48.0873 11.3336 545 77.2477 493.776 578.934
1095 0 50.0199 12.0152 601 74.3661 493.318 577.083
1096 0 51.0339 12.0116 613 75.3409 492.21 575.966
1097 0 53.0541 12.1951 647 74.9969 492.513 575.189
1098 0 56.1001 12.1034 679 76.6274 492.602 576.582
1099 0 55.122 13.0801 721 75.9459 492.535 575.847
1100 0 57.0663 12.7921 730 77.0068 492.5 572.408
1101 0 60.094 13.4789 810 75.6506 492.7 572.547
1102 0 60.1678 13.0302 784 77.2207 492.721 572.537
1103 0 63.1256 13.6236 860 75.5465 492.538 571.781
1104 0 66.0835 14.1488 935 74.2471 492.137 571.091
1105 0 64.0622 12.7064 814 78.5467 492.127 570.677
1106 0 68.0595 12.9152 879 77.6485 491.496 569.43
1107 0 71.1934 12.7399 907 77.4179 491.959 571.064
1108 0 71.1684 13.4329 956 76.9801 491.978 567.681
1109 0 74.1136 13.3444 989 77.1507 491.548 567.681
1110 0 77.0729 13.0785 1008 77.0675 491.365 565.558
1111 0 80.1777 13.1084 1051 77.1342 491.083 563.247
1112 0 82.2087 13.709 1127 75.8811 491.537 563.778
1113 0 86.1189 13.8413 1192 74.8792 491.293 561.578
1114 0 88.328 13.8235 1221 74.321 490.931 560.016
1115 1 48.039 10.9494 526 74.4639 491.529 578.837
1116 0 49.0359 10.6861 524 73.0897 490.987 580.58
1117 0 50.0486 10.6297 532 74.4361 490.669 578.568
1118 0 51.0585 11.3987 582 73.5206 491.108 577.787
1119 0 52.1151 11.1292 580 73.3224 491.081 577.01
1120 0 54.0434 12.6935 686 71.1516 490.831 575.469
1121 0 56.1242 13.0425 732 71.4344 490 576.706
1122 0 58.1834 13.0621 760 70.6434 489.693 574.526
1123 0 59.1136 12.9412 765 70.6562 489.139 573.703
1124 0 62.1071 12.5267 778 70.5668 489.783 572.936
1125 0 64.098 12.6993 814 69.6523 489.743 573.253
1126 0 65.1588 13.4134 874 69.7792 490.359 571.439
1127 0 65.1588 13.4441 876 158.419 491.374 571.422
1128 0 69.1502 12.9139 893 70.0078 490.082 568.531
1129 0 71.1019 13.2627 943 69.7476 489.87 570.485
1130 0 74.1482 12.8931 956 69.9247 490.319 568.568
1131 0 76.1488 13.3686 1018 69.4077 490.984 567.809
1132 0 77.1282 12.5765 970 71.0835 490.879 566.441
1133 0 81.146 12.952 1051 69.7764 491.184 564.293
1134 0 83.2045 13.0642 1087 69.9273 491.219 562.76
1135 0 86.2195 13.5352 1167 68.551 491.151 559.693
1136 0 90.1617 13.265 1196 69.1639 491.196 560.216
1137 0 92.1305 14.1321 1302 68.2327 490.684 557.29
1138 0 94.2193 13.6596 1287 68.5594 490.523 556.081
1139 1 52.071 10.7161 558 68.9337 491.823 577.563
1140 0 55.0536 10.3717 571 69.7215 491.914 576.42
1141 0 55.0406 10.6649 587 70.4412 491.847 575.256
1142 0 58.0341 11.0108 639 69.6839 491.928 574.457
1143 0 59.0695 11.9182 704 68.5426 492.209 572.855
1144 0 61.1823 11.8989 728 68.6868 491.806 571.963
1145 0 62.127 12.7964 795 67.0453 491.989 569.553
1146 0 65.1961 12.8842 840 66.1738 491.564 568.137
1147 0 66.1458 12.9411 856 66.6624 491.558 567.196
1148 0 71.1661 12.4919 889 65.7064 492.337 566.11
1149 0 74.1019 13.3195 987 64.6049 492.177 564.964
1150 0 74.1615 12.5807 933 66.3483 492.392 563.516
1151 0 78.1699 12.8694 1006 65.2972 492.559 561.765
1152 0 79.1215 13.5741 1074 65.8259 493.603 560.96
1153 0 84.2116 13.0148 1096 65.5164 493.797 561.044
1154 0 86.19 12.9249 1114 65.8896 493.89 557.719
1155 0 90.143 13.5341 1220 64.5033 494.019 557.504
1156 0 94.3154 13.879 1309 64.3652 494.028 553.148
1157 1 52.1771 10.8477 566 65.9629 493.753 577.021
1158 0 52.1064 10.5937 552 67.0217 494.147 575.219
1159 0 52.1064 10.6513 555 149.897 495.159 575.209
1160 0 56.141 11.8986 668 65.3668 494.443 572.269
1161 0 59.1292 12.312 728 64.9863 494.776 571.201
1162 0 61.0758 13.4751 823 63.3803 494.989 570.479
1163 0 62.0539 12.3441 766 65.3238 494.975 570.53
1164 0 64.2312 13.2646 852 63.9718 494.856 567.994
1165 0 66.0465 13.0211 860 64.1279 495.037 567.455
1166 0 67.0976 13.0705 877 64.862 494.93 565.179
1167 0 70.037 13.6499 956 63.7981 495.373 565.472
1168 0 72.0535 12.1715 877 65.6625 495.466 564.281
1169 0 73.1171 12.6646 926 65.1501 495.327 563.428
1170 0 77.1215 12.02 927 65.9504 495.228 561.867
1171 0 81.1666 13.1212 1065 63.5455 495.429 561.167
1172 0 82.0896 12.194 1001 65.4995 495.181 560.145
1173 0 86.0959 13.8915 1196 63.2115 495.533 557.916
1174 1 46.0734 10.4833 483 65.6046 497.489 579.907
1175 0 46.0464 12.2051 562 64.5783 496.498 578.342
1176 0 49.1167 11.7272 576 65.1892 495.951 577.536
1177 0 50.3411 11.7796 593 66.2125 496.825 573.831
1178 0 51.1092 12.2483 626 65.8482 496.481 576.342
1179 0 52.1602 12.0015 626 66.4553 496.596 573.155
1180 0 55.1298 13.5136 745 63.7248 496.721 573.021
1181 0 58.3603 13.331 778 63.5861 496.455 573.269
1182 0 58.1661 12.8597 748 66.0548 496.64 571.783
1183 0 59.1459 12.7312 753 66.6175 496.413 570.337
1184 0 61.1683 12.5392 767 67.0939 496.104 571.759
1185 0 63.1532 13.111 828 66.349 496.296 568.534
1186 0 64.122 13.6147 873 67.0561 495.11 556.371
1187 0 64.1993 13.131 843 69.3215 494.865 554.655
1188 0 67.1385 14.3137 961 66.8387 494.837 557.983
1189 0 70.1346 13.4171 941 68.8704 494.371 558.665
1190 0 69.4319 13.8841 964 69.5197 494.766 558.415
1191 0 72.3929 13.8964 1006 69.3429 494.817 559.957
1192 0 73.3248 13.8562 1016 70.0463 495.006 559.906
1193 0 76.2963 14.5223 1108 68.9359 494.916 561.639
1194 0 76.1364 14.1719 1079 70.683 494.31 563.629
1195 0 79.1975 14.6596 1161 70.3592 494.356 560.53
1196 0 84.18 14.766 1243 69.2751 494.275 560.83
1197 0 86.3703 14.0789 1216 70.9696 494.195 558.586
1198 0 88.3302 14.1854 1253 71.0247 494.132 557.63
1199 0 91.2231 14.4481 1318 71.0926 493.819 555.358
1200 1 50.1333 11.4495 574 73.7648 494.253 575.949
1201 0 52.3037 12.7716 668 71.6572 494.293 574.542
1202 0 51.0636 12.5922 643 73.1369 493.911 575.05
1203 0 55.1138 12.955 714 71.8824 494.204 574.318
1204 0 56.1544 12.8574 722 72.5886 493.434 573.519
1205 0 56.1568 12.5363 704 75.0298 493.533 571.884
1206 0 59.2422 12.8625 762 74.063 494.035 571.051
1207 0 59.2943 13.4077 795 74.6365 493.731 569.567
1208 0 62.2868 13.3254 830 73.7651 493.455 570.48
1209 0 65.2682 13.1458 858 72.9872 493.117 568.819
1210 0 66.3613 13.1703 874 73.5378 493.056 567.362
1211 0 69.2426 13.3011 921 72.6482 493.007 568.268
1212 0 72.5292 13.5256 981 72.9123 492.66 565.946
1213 0 74.2673 13.6803 1016 72.3622 492.884 565.638
1214 0 75.4633 13.6755 1032 72.8537 492.64 564.509
1215 0 78.2529 13.712 1073 72.6356 492.639 562.583
1216 0 82.3097 14.1417 1164 71.1521 492.126 561.877
1217 0 87.1705 14.225 1240 70.4403 492.307 561.359
1218 0 88.2123 13.8643 1223 71.5331 492.031 559.405
1219 1 49.1054 11.4651 563 73.7105 491.575 577.52
1220 0 52.2139 11.4912 600 72.0133 491.727 578.623
1221 0 53.1831 12.2031 649 72.1325 491.703 575.649
1222 0 55.1776 12.3057 679 72.1915 491.552 575.507
1223 0 58.1537 12.295 715 71.6322 491.337 574.358
1224 0 58.0872 12.2919 714 72.4902 491.085 572.276
1225 0 62.2606 12.6244 786 70.7595 491.378 572.121
1226 0 63.1321 12.1175 765 72.2353 491.348 570.779
1227 0 66.1785 13.4485 890 69.9079 491.124 569.081
1228 0 68.1536 13.763 938 69.242 490.998 568.042
1229 0 69.1624 13.6057 941 69.8608 490.782 567.279
1230 0 71.2412 13.3631 952 70.5032 490.921 564.676
1231 0 73.193 13.1023 959 70.7091 490.961 564.521
1232 0 76.2773 13.1625 1004 70.992 490.489 563.418
1233 0 77.2387 13.3612 1032 71.4893 490.829 562.16
1234 0 82.355 13.539 1115 70.3309 490.752 561.019
1235 0 83.2289 13.4328 1118 71.2388 490.886 560.417
1236 0 85.203 12.5583 1070 72.5879 491.183 559.908
1237 0 89.4214 13.4084 1199 70.5288 490.89 557.371
1238 1 50.2685 10.7622 541 70.6433 490.481 578.969
1239 0 49.1201 10.8917 535 70.4393 489.966 578.221
1240 0 52.1296 11.6249 606 68.7294 490.353 577.023
1241 0 53.1728 11.6977 622 68.799 489.984 574.585
1242 0 56.1938 11.9942 674 69.1751 490.895 575.619
1243 0 57.1213 11.3618 649 70.7365 491.005 576.78
1244 0 58.1407 11.799 686 70.2668 490.988 576.156
1245 0 58.1227 12.3876 720 70.4375 491.106 574.74
1246 0 62.2453 12.258 763 69.7536 491.249 574.406
1247 0 64.1758 12.7306 817 69.8531 491.187 571.122
1248 0 64.084 12.4368 797 72.7127 491.216 570.877
1249 0 67.172 12.8178 861 72.0151 491.247 569.146
1250 0 69.1189 12.3266 852 73.1761 491.312 568.401
1251 0 72.2185 13.0022 939 71.9979 491.095 565.786
1252 0 73.173 12.8599 941 72.457 491.295 566.023
1253 0 75.1394 12.8029 962 72.8565 491.426 565.678
1254 0 77.2559 13.3194 1029 72.7959 491.621 563.139
1255 0 81.1932 13.0922 1063 72.6444 491.354 562.502
1256 0 82.1403 13.0021 1068 72.8839 491.008 561.607
1257 0 84.1616 13.3315 1122 72.4234 490.97 559.303
1258 0 89.1914 11.907 1062 74.9058 491.451 557.409
1259 1 48.0839 9.85777 474 73.4262 493.017 577.905
1260 0 51.0531 9.87208 504 72.9246 492.597 577.377
1261 0 52.0172 11.3039 588 71.9405 492.743 575.687
1262 0 52.0566 11.3146 589 72.1528 492.971 575.699
1263 0 55.0258 11.7763 648 71.037 493.327 575.563
1264 0 58.1094 12.6141 733 68.9523 493.673 573.73
1265 0 60.102 12.4122 746 69.7654 493.831 573.054
1266 0 61.1106 12.6165 771 69.6368 493.767 572.418
1267 0 61.0263 12.3226 752 70.8511 493.616 570.812
1268 0 64.0486 12.631 809 69.8813 493.718 569.394
1269 0 65.0411 12.2999 800 72.13 494.141 569.871
1270 0 68.0597 12.2686 835 71.9461 494.611 568.041
1271 0 71.085 12.267 872 71.9736 494.724 565.517
1272 0 71.0131 12.8568 913 70.5378 495.325 564.817
1273 0 74.0921 12.255 908 71.1927 495.367 563.938
1274 0 78.1086 12.457 973 70.9075 495.569 561.692
1275 0 80.1372 12.7781 1024 70.8828 495.364 562.755
1276 0 83.1229 12.8845 1071 70.8161 495.544 558.903
1277 0 85.2392 12.5529 1070 70.6075 495.856 558.526
1278 0 87.3959 12.4605 1089 70.5822 496.223 556.605
1279 0 91.3222 12.7242 1162 69.9036 496.645 556.131
1280 0 93.3209 12.4838 1165 70.7356 496.703 553.219
1281 1 52.0758 11.0032 573 68.7958 497.304 574.691
1282 0 53.0598 11.0064 584 67.875 497.37 574.781
1283 0 54.0933 10.5189 569 68.826 497.74 574.752
1284 0 56.0787 11.252 631 68.1236 497.903 572.951
1285 0 56.1545 12.0204 675 67.3852 497.347 572.97
1286 0 56.1545 11.9848 673 155.129 496.343 572.976
1287 0 62.1114 12.7352 791 65.2124 497.829 569.727
1288 0 63.1562 12.0337 760 67.3 497.908 568.928
1289 0 63.1562 11.9703 756 150.007 497.889 568.925
1290 0 67.069 11.8982 798 67.8672 497.927 566.254
1291 0 70.1387 13.3592 937 65.0566 497.479 565.703
1292 0 72.1907 13.2427 956 65.8891 497.407 564.505
1293 0 72.1193 12.5348 904 67.8042 497.087 562.392
1294 0 76.0881 13.1427 1000 66.181 497.473 562.533
1295 0 78.0973 13.1887 1030 67.132 497.074 559.862
1296 0 80.0833 13.3486 1069 66.5304 497.228 559.539
1297 0 83.2937 13.0982 1091 67.0642 497.133 558.235
1298 0 85.2802 13.0511 1113 67.0854 496.833 559.413
1299 0 88.1634 14.0081 1235 65.8308 497.216 554.338
1300 1 48.068 9.7154 467 68.3212 497.128 577.221
1301 0 49.0927 10.0015 491 68.0163 496.193 577.075
1302 0 52.1081 10.6701 556 68.3597 496.27 575.058
1303 0 52.1129 10.7459 560 68.0679 496.032 575.375
1304 0 55.2384 12.2379 676 64.8831 495.888 574.738
1305 0 56.0711 11.2179 629 68.2385 496.235 573.517
1306 0 57.1307 12.6552 723 67.4385 495.696 570.909
1307 0 60.1408 12.504 752 66.9242 495.641 569.836
1308 0 61.0873 11.8519 724 68.0953 495.504 571.113
1309 0 63.1692 12.9018 815 66.7239 495.341 568.173
1310 0 63.0724 12.0972 763 69.0236 495.271 567.045
1311 0 66.0976 11.9066 787 68.8361 495.555 566.165
1312 0 67.0586 12.4816 837 67.6141 496.005 565.673
1313 0 69.0339 12.5301 865 68.1341 495.384 565.309
1314 0 73.0255 12.8859 941 67.8778 495.024 563.711
1315 0 74.0628 12.7189 942 68.5796 494.988 562.938
1316 0 74.0807 12.2569 908 70.0705 494.435 563.38
1317 0 80.0643 13.102 1049 68.531 494.267 562.991
1318 0 81.1005 13.3661 1084 68.2205 494.179 560.601
1319 0 85.0679 12.9073 1098 68.3297 493.62 559.718
1320 0 85.0819 12.0237 1023 70.4643 493.633 557.406
1321 0 90.0862 12.7544 1149 68.577 493.809 559.21
1322 0 95.1909 12.6168 1201 68.0758 493.291 555.97
1323 1 48.0412 9.42941 453 70.5784 493.625 577.596
1324 0 51.0747 9.94621 508 67.628 493.539 577.923
1325 0 54.09 11.1481 603 66.6103 493.833 575.867
1326 0 55.0893 11.4904 633 66.6919 493.13 575.796
1327 0 57.0577 11.6374 664 66.369 493.313 575.333
1328 0 58.0418 12.3015 714 65.5378 493.276 574.801
1329 0 62.0363 12.3637 767 64.5619 493.459 573.716
1330 0 62.0216 11.5927 719 66.3616 493.441 572.853
1331 0 65.0362 12.5622 817 64.9498 492.903 570.84
1332 0 67.0703 13.0311 874 62.4497 492.475 569.83
1333 0 65.0537 12.2822 799 63.617 492.852 572.809
1334 0 69.0941 13.2283 914 64.8195 492.735 570.032
1335 0 70.0457 12.4205 870 65.5172 492.895 568.018
1336 0 74.1237 13.2077 979 63.2829 492.319 564.846
1337 0 76.1141 12.1791 927 64.6494 492.633 562.38
1338 0 78.2047 12.5824 984 64.0915 492.35 563.68
1339 1 45.0971 9.75672 440 65.5273 492.02 581.477
1340 0 46.1453 10.1202 467 65.0021 492.203 579.563
1341 0 49.0623 10.558 518 64.0618 491.521 580.143
1342 0 47.0983 10.4462 492 64.6789 492.006 579.378
1343 0 49.1248 10.1374 498 65.759 492.187 576.978
1344 0 51.1718 10.8263 554 64.3989 491.726 575.457
1345 0 54.2913 10.9041 592 63.7382 490.662 574.514
1346 0 54.0605 12.0236 650 62.0738 491.642 573.043
1347 0 55.2189 11.4997 635 62.7291 489.852 573.613
1348 0 58.177 11.8088 687 62.6099 489.908 571.897
1349 0 59.1721 12.3538 731 62.2025 489.517 573.101
1350 0 58.1485 11.6426 677 64.7253 489.671 571.817
1351 0 61.0259 12.1096 739 64.0108 490.563 570.547
1352 0 63.0936 12.1882 769 64.5618 490.798 569.575
1353 0 66.1346 12.5804 832 63.732 490.393 568.434
1354 0 66.1847 12.5558 831 64.2238 490.367 567.588
1355 0 69.2452 11.7842 816 65.1973 490.24 568.812
1356 0 69.2668 13.2964 921 64.1802 489.953 566.156
1357 0 70.2696 11.8828 835 66.6886 489.528 566.085
1358 0 73.2518 12.6277 925 65.7405 489.402 566.012
1359 0 75.297 12.8823 970 65.3515 489.245 564.252
1360 0 81.4017 15.7245 1280 61.3211 489.464 563.093
1361 0 81.3774 12.7923 1041 66.999 489.353 562.522
1362 0 83.2345 13.4319 1118 66.5492 489.513 561.674
1363 0 85.1647 13.7851 1174 65.9915 489.187 561.854
1364 0 89.2256 13.8525 1236 64.9506 488.934 560.04
1365 0 92.2992 13.1854 1217 66.3007 488.957 558.984
1366 0 95.2537 12.5769 1198 66.7254 489.168 557.649
1367 1 52.1437 10.3944 542 68.4963 489.472 578.376
1368 0 54.1617 11.2441 609 66.6667 489.342 577.465
1369 0 57.1684 11.8772 679 66.0368 489.065 576.708
1370 0 58.0468 11.8697 689 66.7344 489.3 574.795
1371 0 59.0516 12.1419 717 66.5495 489.915 574.54
1372 0 62.0352 13.0087 807 65.0273 489.087 572.882
1373 0 65.0256 13.0564 849 64.7585 489.11 572.826
1374 0 65.0639 12.2956 800 66.125 489.608 573.086
1375 0 68.0763 12.4713 849 65.8916 489.51 570.91
1376 0 66.1125 12.9174 854 65.966 489.598 569.676
1377 0 70.0341 12.7652 894 66.4698 489.648 569.128
1378 0 73.1877 13.5679 993 64.43 489.011 568.35
1379 0 75.1154 13.4593 1011 64.9931 489.43 566.453
1380 0 79.0765 14.4038 1139 62.2072 489.507 564.172
1381 0 80.0641 13.4517 1077 64.2832 489.265 564.749
1382 0 80.1841 13.5438 1086 62.8711 489.495 565.461
1383 0 85.101 14.8177 1261 60.4607 489.747 562.271
1384 0 87.0531 13.0725 1138 63.7742 489.235 561.506
1385 0 89.1289 14.3276 1277 63.3352 489.593 559.782
1386 0 93.1741 14.6178 1362 62.6924 489.752 556.982
1387 0 96.1473 14.2594 1371 63.1007 489.477 555.554
1388 0 98.2311 13.9263 1368 63.7522 490.053 553.774
1389 1 57.0661 11.4253 652 63.7914 490.311 575.143
1390 0 59.0879 11.1529 659 64.2914 490.605 575.053
1391 0 60.1189 12.5252 753 62.4064 490.426 574.841
1392 0 63.0991 12.3298 778 63.1607 491.004 572.44
1393 0 64.116 13.1168 841 62.7967 490.583 572.087
1394 0 64.118 12.1183 777 64.87 490.671 572.251
1395 0 66.3065 13.0756 867 64.0507 491.007 572.057
1396 0 69.1621 13.866 959 62.6903 491.07 569.666
1397 0 71.0812 14.1528 1006 62.2744 490.777 567.93
1398 0 73.2328 13.7507 1007 63.0775 490.881 566.631
1399 0 76.3095 13.6418 1041 63.2671 491.421 565.57
1400 0 77.191 13.7192 1059 63.6383 491.708 563.636
1401 0 79.083 13.1381 1039 64.0683 492.185 563.738
1402 0 81.1137 14.079 1142 63.0263 492.589 562.166
1403 0 85.1481 13.4589 1146 64.0314 492.575 561.325
1404 0 88.127 15.2848 1347 61.3556 493.09 559.888
1405 0 92.3016 13.9434 1287 62.7941 493.239 558.505
1406 0 92.2312 13.6288 1257 63.7263 493.691 555.83
1407 0 97.2609 13.726 1335 63.3536 494.236 553.267
1408 0 102.25 14.1907 1451 62.6051 494.493 551.467
1409 1 52.2326 10.7978 564 64.6135 494.637 574.376
1410 0 54.2499 10.4516 567 65.3668 494.667 572.018
1411 0 53.0441 10.6704 566 65.4664 494.615 569.124
1412 0 58.0584 12.5908 731 62.5705 494.164 569.487
1413 0 60.0767 12.0013 721 62.7351 494.179 569.337
1414 0 63.3265 12.5066 792 62.9116 494.505 570.843
1415 0 64.1715 11.7653 755 64.2199 494.293 570.681
1416 0 66.2276 12.6533 838 64.0979 494.447 568.766
1417 0 68.1865 15.003 1023 60.263 495.494 567.54
1418 0 71.1915 14.145 1007 61.3376 495.537 566.832
1419 0 72.3392 12.7455 922 63.7668 495.194 563.921
1420 0 73.2763 13.5787 995 62.7226 495.208 563
1421 0 77.2961 13.2995 1028 62.677 495.665 560.037
1422 0 81.3052 14.095 1146 61.8743 495.655 559.838
1423 0 84.5058 14.0464 1187 62.3193 495.626 557.876
1424 0 84.3526 12.7441 1075 64.5851 495.359 555.951
1425 0 88.4599 13.2942 1176 63.1565 495.428 554.737
1426 0 88.4599 13.2376 1171 169.097 496.424 554.814
1427 0 96.5856 13.2939 1284 62.9081 494.867 552.406
1428 1 52.1506 9.72184 507 63.7574 495.878 574.982
1429 0 55.2515 11.1852 618 60.2945 495.589 575.919
1430 0 54.1573 10.6357 576 63.125 495.755 572.677
1431 0 57.1633 13.2253 756 59 495.741 572.983
1432 0 58.1913 11.7715 685 60.9737 496.323 572.088
1433 0 59.0666 11.6987 691 61.4313 495.98 572.392
1434 0 60.0939 11.7649 707 62.5545 495.945 570.521
1435 0 60.0939 11.7816 708 161.651 495.938 570.606
1436 0 66.1306 12.2787 812 61.5271 494.592 569.05
1437 0 65.2365 12.8916 841 62.0749 494.757 566.766
1438 0 67.1202 11.7848 791 63.6106 494.626 566.193
1439 0 70.0793 13.0138 912 61.0855 494.535 566.572
1440 0 71.3873 12.9155 922 61.013 494.408 563.524
1441 0 75.1225 13.7243 1031 59.5645 494.513 564.888
1442 0 76.1464 11.9901 913 61.3921 494.632 563.793
1443 0 77.1376 13.5861 1048 59.645 493.838 562.945
1444 0 81.2556 12.7499 1036 61.1139 494.205 560.842
1445 0 85.2528 13.3485 1138 59.6195 494.41 560.405
1446 0 86.136 12.3526 1064 61.3365 494.733 559.289
1447 0 89.2846 13.3842 1195 60.4971 494.169 556.853
1448 0 91.3413 13.2251 1208 60.8336 494.517 556.863
1449 0 93.257 12.3101 1148 62.5061 494.517 554.314
1450 0 97.464 13.2664 1293 60.8252 493.96 554.787
1451 1 52.1349 10.9907 573 61.2007 494.356 575.735
1452 0 55.148 11.7321 647 61.5734 493.47 573.176
1453 0 59.1748 12.8433 760 58.6368 493.414 572.538
1454 0 61.0487 12.6456 772 59.1606 494.233 571.495
1455 0 62.0807 13.3375 828 58.7959 493.401 570.682
1456 0 62.2001 13.1029 815 60.3926 492.562 569.852
1457 0 64.1785 11.8576 761 61.6715 491.647 570.618
1458 0 64.1448 12.9083 828 61.151 491.749 567.508
1459 0 67.1442 12.2274 821 62.2643 492.611 569.52
1460 0 69.1412 13.0024 899 60.4739 492.172 568.884
1461 0 72.1209 13.6992 988 59.669 491.855 566.821
1462 0 74.2033 13.0318 967 60.5305 492.357 565.436
1463 0 77.1326 13.0295 1005 60.4567 492.204 564.968
1464 0 77.0763 12.4552 960 61.6042 492.284 564.374
1465 0 81.3506 12.9686 1055 60.3744 492.102 563.789
1466 0 86.2185 13.0946 1129 59.8087 492.085 560.038
1467 0 86.2996 12.8506 1109 60.8197 491.619 559.02
1468 0 89.3448 12.8939 1152 59.921 491.795 558.372
1469 0 92.3216 11.9149 1100 61.2473 491.701 558.151
1470 0 95.5102 12.6165 1205 60.5726 491.689 556.768
1471 0 99.3198 13.3105 1322 59.4168 491.228 555.023
1472 0 103.458 12.9908 1344 59.5275 490.426 552.847
1473 0 103.458 12.9425 1339 155.423 489.432 552.957
1474 1 60.2145 11.6915 704 59.6918 491.037 575.347
1475 0 60.4065 12.2669 741 58.9622 490.499 573.417
1476 0 61.1813 12.6673 775 58.7561 490.519 572.703
1477 0 64.2904 12.4902 803 58.8941 490.367 572.925
1478 0 67.1735 14.4402 970 56.4866 490.407 570.124
1479 0 67.3051 13.0451 878 58.7027 490.198 570.748
1480 0 69.1436 13.6238 942 57.9915 489.843 570.248
1481 0 73.3359 13.5541 994 58.4366 489.208 567.38
1482 0 76.3071 13.865 1058 58.3336 489.581 567.129
1483 0 78.2322 13.5111 1057 59.3169 489.781 565.081
1484 0 80.2739 13.8152 1109 59.5609 489.932 563.748
1485 0 84.2806 13.811 1164 59.7431 489.357 562.443
1486 0 85.2792 13.1451 1121 60.9929 489.405 561.473
1487 0 90.1137 13.7826 1242 60.3188 489.32 560.361
1488 0 91.3948 12.8782 1177 61.9592 489.206 560.038
1489 0 95.2663 13.7614 1311 60.7658 489.098 557.196
1490 0 98.1702 14.7295 1446 59.8741 489.269 554.939
1491 0 100.325 14.2238 1427 60.4541 489.378 553.444
1492 1 57.0567 10.7086 611 61.9902 489.578 578.141
1493 0 57.1072 10.6116 606 63.1799 489.894 576.469
1494 0 61.1445 11.1048 679 61.9647 489.91 576.072
1495 0 62.1134 11.6883 726 61.8485 490.215 574.124
1496 0 64.0774 11.5173 738 62.9173 490.553 573.058
1497 0 67.1586 12.6566 850 60.82 490.758 570.844
1498 0 68.0615 13.1939 898 61.1871 491.012 571.934
1499 0 70.0583 12.4896 875 62.3474 490.987 570.081
1500 0 71.1553 13.0981 932 62.4388 491.358 569.175
1501 0 74.1725 13.3338 989 62.6087 491.156 567.691
1502 0 76.1023 13.4162 1021 62.7875 491.128 567.148
1503 0 77.1631 13.141 1014 63.5533 491.456 565.523
1504 0 80.1798 13.6069 1091 63.2979 491.089 565.12
1505 0 83.2409 13.2988 1107 63.8943 491.256 562.866
1506 0 85.177 12.5621 1070 65.5467 491.197 562.557
1507 0 88.1992 12.2904 1084 66.012 491.607 560.643
1508 0 89.1572 13.5155 1205 64.2979 491.783 558.221
1509 0 93.1174 12.4252 1157 64.7105 491.849 556.462
1510 1 52.0334 10.3203 537 64.1881 492.678 579.291
1511 0 53.0465 11.0658 587 64.1261 493.499 576.23
1512 0 54.1604 10.3951 563 64.7709 493.65 578.863
1513 0 53.0825 10.625 564 66.8582 493.564 576.098
1514 0 58.0836 12.1549 706 64.3003 493.643 576.646
1515 0 58.1252 12.5763 731 64.9384 493.483 573.408
1516 0 61.123 13.1702 805 63.3391 493.856 571.865
1517 0 64.0983 13.1829 845 63.4828 493.652 570.096
1518 0 66.1188 13.0523 863 63.5087 493.701 571.17
1519 0 68.1563 12.9115 880 63.8568 494.092 569.362
1520 0 69.0802 13.5784 938 63.5458 494.141 569.162
1521 0 71.099 13.1366 934 65.0364 494.456 566.746
1522 0 72.1599 13.0543 942 65.4756 494.556 566.182
1523 0 75.1123 13.5264 1016 64.7382 494.569 565.358
1524 0 78.1218 13.5558 1059 64.5241 494.774 564.638
1525 0 80.182 13.3571 1071 64.9533 494.919 563.824
1526 0 83.0967 13.1413 1092 65.6319 494.643 561.005
1527 0 84.3254 13.5072 1139 65.1905 495.147 559.967
1528 0 89.1618 13.6269 1215 64.223 495.314 559.03
1529 0 93.2065 13.2072 1231 64.8676 495.253 557.439
1530 0 93.1971 12.6613 1180 65.9263 495.292 555.481
1531 0 99.2248 13.6659 1356 64.2714 495.235 553.844
1532 1 56.2555 10.2923 579 65.5734 495.497 576.335
1533 0 56.2368 11.2026 630 66.1063 495.392 575.173
1534 0 58.1842 11.7214 682 65.6584 495.177 574.106
1535 0 61.2352 11.7906 722 65.2008 495.474 572.799
1536 0 63.1922 13.0554 825 62.3939 495.267 572.364
1537 0 64.0699 12.5488 804 65.4005 495.077 570.33
1538 0 67.1875 12.5023 840 65.3167 494.87 570.415
1539 0 67.2021 12.574 845 65.0994 495.098 568.594
1540 0 71.1105 13.3173 947 63.5723 495.117 565.666
1541 0 73.2745 13.2242 969 63.6646 494.632 564.845
1542 0 75.187 13.1938 992 63.3226 494.921 565.147
1543 0 78.1163 13.7615 1075 62.4456 494.875 563.202
1544 0 79.1254 13.03 1031 63.7963 494.678 562.382
1545 0 82.2164 12.8563 1057 63.3699 495.111 562.61
1546 0 85.2101 12.9093 1100 62.9 495.115 560.534
1547 0 87.1187 13.4529 1172 62.6724 494.788 558.456
1548 0 90.2753 13.1487 1187 62.6832 494.703 557.937
1549 0 94.2505 14.3023 1348 60.2663 494.689 558.475
1550 0 96.2623 13.4424 1294 62.1793 494.427 556.026
1551 1 49.1197 11.2175 551 63.4646 495.218 576.417
1552 0 53.148 11.3833 605 62.919 494.602 577.17
1553 0 53.0758 11.9075 632 62.5285 494.478 576.794
1554 0 55.0972 12.487 688 62.6134 494.164 574.34
1555 0 56.0265 12.4048 695 63.3626 494.489 574.77
1556 0 59.1083 12.8239 758 62.1055 494.091 574.146
1557 0 62.1207 13.345 829 60.9723 493.895 574.133
1558 0 63.1027 12.8204 809 62.3894 494.727 572.716
1559 0 66.2685 13.8075 915 60.9016 494.212 571.503
1560 0 66.1503 13.2426 876 61.7158 493.95 569.742
1561 0 69.196 13.7869 954 61.5377 493.647 569.071
1562 0 70.1263 13.0479 915 63.1257 494.165 567.612
1563 0 72.1912 13.6997 989 62.2882 494.13 566.432
1564 0 77.2224 14.0633 1086 61.5018 493.754 565.787
1565 0 77.1794 13.6176 1051 62.6765 493.241 565.933
1566 0 77.1794 13.6176 1051 167.03 492.241 565.933
1567 0 82.1797 13.7625 1131 63.9956 493.136 561.827
1568 0 85.242 14.9222 1272 62.4332 492.835 562.064
1569 0 87.3946 13.1816 1152 65.0512 492.673 560.478
1570 0 91.2477 14.2469 1300 63.0323 492.745 559.906
1571 0 94.3387 14.0875 1329 63.5433 492.245 557.016
1572 1 51.1532 12.1595 622 64.7203 492.711 578.432
1573 0 51.1372 10.8532 555 66.2829 492.539 578.737
1574 0 55.2007 12.5904 695 65.0072 492.207 575.069
1575 0 57.126 12.0611 689 65.135 492.131 574.711
1576 0 61.2757 13.5943 833 62.5438 492.347 574.379
1577 0 59.1161 12.8391 759 64.8182 492.469 573.514
1578 0 63.0914 13.0446 823 63.8044 492.061 574.271
1579 0 64.2717 13.2562 852 64.2312 492.069 574.028
1580 0 66.1051 13.7508 909 63.9131 491.704 573.853
1581 0 69.1772 13.7473 951 63.7676 491.305 572.37
1582 0 70.325 13.3807 941 64.2253 491.785 572.559
1583 0 73.1462 14.054 1028 63.6527 490.707 570.296
1584 0 75.1721 13.6221 1024 64.1865 490.852 569.053
1585 0 77.1426 12.7426 983 65.5666 491.032 566.511
1586 0 80.2748 13.7777 1106 64.1076 490.939 565.699
1587 0 83.2478 13.658 1137 64.3509 490.845 564.828
1588 0 84.285 13.6679 1152 64.9071 490.553 563.609
1589 0 88.2895 13.3085 1175 64.943 490.289 562.866
1590 0 92.3358 13.7 1265 63.9565 490.688 560.779
1591 0 94.3806 13.9012 1312 64.234 491.091 557.593
1592 0 97.3781 14.2229 1385 63.7357 490.834 556.199
1593 0 99.4109 13.5699 1349 64.9414 490.824 556.42
1594 0 103.593 14.499 1502 63.1724 490.543 554.431
1595 0 107.281 14.7557 1583 62.8225 490.47 551.754
1596 0 110.386 14.1413 1561 64.0641 491.042 549.992
1597 1 56.033 11.7609 659 65.7663 491.244 575.86
1598 0 61.0469 10.9424 668 64.4431 491.195 577.897
1599 0 63.0692 13.8102 871 62.8117 491.148 573.375
1600 0 66.1359 12.5953 833 63.6591 491.394 574.002
1601 0 68.208 13.6494 931 62.9721 491.214 571.005
1602 0 71.2944 13.7879 983 61.8718 490.614 570.225
1603 0 71.167 12.8992 918 63.4542 491.317 570.196
1604 0 75.0885 13.4774 1012 62.6146 491.13 567.713
1605 0 78.1658 13.9831 1093 62.2269 491.592 564.419
1606 0 79.1763 14.6003 1156 61.5554 491.562 563.889
1607 0 82.2919 13.9868 1151 62.278 491.88 563.408
1608 0 84.2263 14.3898 1212 62.7285 492.155 561.891
1609 0 86.1243 13.945 1201 63.3222 492.794 559.425
1610 0 91.2215 14.2729 1302 62.9593 493.18 558.349
1611 0 94.2157 15.369 1448 61.7541 493.293 556.32
1612 0 96.1537 14.8616 1429 62.4675 493.033 555.505
1613 0 97.1861 14.7449 1433 63.5269 493.276 553.901
1614 0 101.281 14.6226 1481 63.6084 493.567 553.603
1615 0 103.304 14.4719 1495 64.505 493.522 550.037
1616 0 105.383 13.4936 1422 65.9705 493.693 549.574
1617 1 56.0879 12.3556 693 68.215 494.545 574.753
1618 0 61.2838 13.6415 836 66.1794 494.81 573.06
1619 0 60.1859 12.9266 778 68.6067 495.184 570.706
1620 0 64.2942 15.3202 985 64.9766 495.187 569.04
1621 0 67.2555 15.9392 1072 63.9729 495.328 567.825
1622 0 68.1426 15.0713 1027 65.7819 495.729 566.827
1623 0 70.2072 14.6566 1029 66.1506 495.659 565.834
1624 0 71.3007 15.3294 1093 65.5865 495.52 563.992
1625 0 74.1478 14.8622 1102 65.9129 495.418 563.589
1626 0 77.4474 15.2491 1181 65.1346 495.699 562.533
1627 0 77.1851 13.4612 1039 68.6526 496.019 560.59
1628 0 82.1827 14.6138 1201 67.3272 496.157 559.714
1629 0 85.2304 15.8864 1354 65.4106 496.699 558.982
1630 0 86.1616 13.8925 1197 68.6232 496.109 557.204
1631 0 91.1753 15.4428 1408 66.0213 496.158 553.829
1632 0 95.3031 16.2849 1552 64.6714 496.043 553.528
1633 0 98.2414 14.2913 1404 67.7885 495.635 551.734
1634 1 50.2108 12.7463 640 69.5375 495.969 575.47
1635 0 50.2457 14.2102 714 68.2759 495.695 573.696
1636 0 52.2273 14.2454 744 68.8185 495.48 571.356
1637 0 52.2273 14.188 741 173.64 496.484 571.395
1638 0 58.3615 15.918 929 66.5888 495.283 568.587
1639 0 61.2647 15.0984 925 67.3557 495.577 568.172
1640 0 62.2379 14.6213 910 68.4868 495.766 569.324
1641 0 63.2603 14.7012 930 68.1548 495.815 567.508
1642 0 65.2887 15.2859 998 68.4699 495.666 566.936
1643 0 68.2765 15.3494 1048 68.4408 495.846 565.304
1644 0 68.2585 14.6502 1000 70.298 495.742 565.206
1645 0 70.2003 15.3846 1080 69.3556 495.498 565.68
1646 0 74.184 15.529 1152 69.8082 495.395 563.94
1647 0 78.2691 15.3828 1204 69.7184 495.656 563.499
1648 0 78.3875 15.2575 1196 71.148 495.52 561.544
1649 0 82.2638 15.0491 1238 71.7843 494.988 559.456
1650 0 84.6288 14.6877 1243 72.4529 494.828 556.921
1651 0 87.2554 14.6008 1274 72.5479 494.604 557.69
1652 1 45.2421 12.8862 583 76.2487 494.237 576.614
1653 0 47.3306 13.8388 655 76.2168 494.2 575.089
1654 0 50.3485 14.3798 724 74.8204 494.547 573.496
1655 0 52.2794 14.8051 774 74.4858 494.481 573.634
1656 0 55.2032 15.0716 832 73.875 494.149 572.296
1657 0 54.218 14.5155 787 75.9314 493.957 572.091
1658 0 58.2857 14.6863 856 74.6647 493.764 571.355
1659 0 61.4638 15.0007 922 73.5304 493.153 570.119
1660 0 62.4353 15.2478 952 74.2511 493.399 567.125
1661 0 64.175 14.8968 956 75.0209 493.194 565.844
1662 0 67.3367 15.1329 1019 74.0981 493.252 566.125
1663 0 70.3678 15.4758 1089 73.4068 493.299 565.302
1664 0 74.3088 15.3952 1144 72.9956 493.353 565.591
1665 0 75.4192 14.784 1115 74.5031 493.063 564.67
1666 0 78.3991 15.5359 1218 73.4819 492.934 563.016
1667 0 81.3355 15.2332 1239 72.3212 493.004 561.409
1668 0 84.2605 15.2385 1284 72.2422 492.843 559.874
1669 0 88.4615 15.3852 1361 71.432 492.594 560.11
1670 0 89.2363 14.893 1329 73.2882 492.607 558.148
1671 0 92.3186 14.8724 1373 73.0823 492.588 555.524
1672 0 95.1791 15.6232 1487 71.8628 492.184 556.154
1673 0 98.1783 15.2376 1496 72.3382 491.99 555.794
1674 0 101.205 14.8807 1506 73.2025 492.36 552.351
1675 0 105.385 15.7233 1657 71.5347 492.057 552.313
1676 1 52.1632 12.5759 656 77.3201 491.471 575.02
1677 0 57.3306 13.0297 747 76.0616 491.44 573.609
1678 0 59.3828 13.6908 813 75.5732 490.921 572.768
1679 0 62.121 14.681 912 74.0099 490.851 570.032
1680 0 63.41 14.9188 946 73.9186 491.125 569.293
1681 0 68.2377 15.3288 1046 72.5899 491.068 568.615
1682 0 69.3824 15.5659 1080 72.5806 491.233 567.043
1683 0 73.2437 15.1276 1108 72.6968 491.303 566.195
1684 0 76.2767 15.2733 1165 70.7425 491.445 563.531
1685 0 76.2767 15.2602 1164 169.829 491.439 563.501
1686 0 81.366 15.2152 1238 70.6212 491.223 561.515
1687 0 85.2347 15.3928 1312 70.4398 490.833 559.863
1688 0 87.2214 14.6524 1278 71.3834 491.004 559.257
1689 0 91.3077 15.1904 1387 70.1017 491.008 559.727
1690 1 44.3225 12.0029 532 72.0977 490.383 579.6
1691 0 46.3072 11.8772 550 72.0364 490.418 579.909
1692 0 49.3986 13.9275 688 68.9724 489.725 577.465
1693 0 49.4763 13.2589 656 70.0625 489.297 578.369
1694 0 50.399 13.3931 675 70.5348 489.858 577.576
1695 0 53.2932 13.8479 738 69.9539 489.645 576.423
1696 0 57.4446 13.439 772 69.0699 489.361 576.677
1697 0 57.47 14.2161 817 68.7797 489.293 573.8
1698 0 58.5603 13.5245 792 68.7399 489.255 574.588
1699 0 62.3779 14.4603 902 67.4279 489.177 573.772
1700 0 62.5513 13.7647 861 68.8014 489.003 573.026
1701 0 64.5383 13.3874 864 69.6644 488.569 570.096
1702 0 67.4416 13.3004 897 69.204 488.931 570.031
1703 0 71.7676 13.8921 997 68.2427 488.815 567.499
1704 0 71.3008 13.7025 977 69.5568 488.577 567.634
1705 0 75.4915 13.5512 1023 69.7977 488.729 566.491
1706 0 76.4593 14.1252 1080 69.1981 488.303 563.688
1707 0 80.4934 13.4918 1086 69.7643 488.843 564.105
1708 1 41.186 9.88201 407 66.9681 488.656 583.941
1709 0 45.1531 11.0291 498 64.3313 488.781 582.962
1710 0 44.1724 9.59876 424 66.2052 488.557 584.571
1711 0 47.1062 10.9752 517 64.7485 490.012 581.934
1712 0 47.155 10.985 518 65.6641 489.751 580.712
1713 0 48.1887 10.0439 484 66.0785 490.014 580.612
1714 0 49.206 10.5475 519 65.237 490.006 580.073
1715 0 50.2824 9.94384 500 66.22 489.716 579.03
1716 0 53.357 11.5261 615 63.665 489.686 579.634
1717 0 55.3947 11.5354 639 64.1174 489.959 576.208
1718 0 54.333 10.9878 597 64.866 489.884 575.69
1719 0 57.2875 11.1194 637 64.9309 489.873 573.986
1720 0 58.4672 10.6042 620 65.1177 490.285 574.447
1721 0 59.4297 10.5671 628 65.4283 490.096 573.514
1722 1 32.1572 8.39625 270 63.4481 490.504 587.281
1723 0 35.2677 9.15852 323 61.9226 490.294 585.83
1724 0 35.3986 9.85914 349 62.1862 490.378 584.198
1725 0 37.1863 9.57341 356 62.2697 490.604 585.472
1726 0 39.2526 9.73185 382 62.055 490.186 583.505
1727 0 38.2395 10.5389 403 62.3151 490.256 583.149
1728 0 40.2419 9.91505 399 60.8647 491.221 584.847
1729 0 39.1549 9.44966 370 61.3649 491.257 584.432
1730 0 41.2166 10.2386 422 60.3626 491.571 582.443
1731 0 42.2267 10.6805 451 60.082 491.545 581.2
1732 0 44.178 10.752 475 59.6989 491.924 582.392
1733 0 46.1849 9.83005 454 61.7467 492.033 580.02
1734 0 47.1206 10.6323 501 61.509 492.407 579.279
1735 0 46.198 9.95714 460 63.3674 492.724 579.541
1736 0 47.2125 10.1032 477 63.3187 492.723 579.256
1737 0 48.292 10.7885 521 62.6699 492.944 577.91
1738 0 51.2116 10.2516 525 62.4533 493.135 576.305
1739 0 54.1918 11.2194 608 60.9046 493.319 575.765
1740 0 55.2246 10.6474 588 61.6939 493.684 575.223
1741 0 54.2212 10.8629 589 61.8166 493.947 574.053
1742 0 57.229 11.4627 656 60.5915 493.96 571.412
1743 0 58.1896 10.208 594 60.9024 494.468 573.545
1744 0 61.1572 10.2196 625 62.5344 494.704 569.739
1745 0 61.1043 10.6048 648 62.5648 494.323 569.571
1746 0 64.2048 12.2109 784 60.088 495.26 567.927
1747 0 64.2987 10.1246 651 62.3579 495.65 569.369
1748 0 67.409 10.8146 729 62.0686 495.745 566.973
1749 0 69.299 9.45179 655 63.8198 495.841 565.855
1750 0 73.3216 11.0063 807 62.3271 495.698 563.004
1751 0 74.2651 11.1762 830 63.0916 496.231 560.924
1752 0 76.2666 10.3715 791 63.732 496.068 563.56
1753 1 42.1554 10.3664 437 61.0252 496.126 581.542
1754 0 42.1012 11.4724 483 61.0518 495.576 580.816
1755 0 45.1319 10.99 496 61.623 495.706 579.111
1756 0 45.2165 10.4165 471 62.7325 495.902 578.439
1757 0 46.3657 10.4387 484 63.0868 495.841 577.236
1758 0 47.3275 10.776 510 62.9588 495.592 576.494
1759 0 50.1057 11.0965 556 63.1241 495.761 575.444
1760 0 51.2286 11.5756 593 63.6981 495.55 574.3
1761 0 53.1823 11.8648 631 63.1775 495.396 572.639
1762 0 56.1177 12.26 688 62.4738 495.683 572.333
1763 0 56.1457 12.5922 707 63.6421 495.479 570.368
1764 0 58.1224 13.1103 762 62.2887 495.4 571.308
1765 0 60.1152 12.4262 747 63.6292 495.416 571.483
1766 0 60.2178 12.4714 751 64.498 495.298 572.067
1767 0 61.1161 12.3208 753 66.0093 496.284 568.85
1768 0 63.1395 12.116 765 65.8275 495.741 567.779
1769 0 66.168 13.3599 884 64.1188 495.334 567.248
1770 0 69.2961 14.3587 995 62.4784 495.085 565.134
1771 0 69.3873 14.0804 977 63.9458 495.153 559.164
1772 0 70.664 13.359 944 66.2489 495.334 561.809
1773 0 73.5286 13.1377 966 66.6377 495.147 561.995
1774 0 76.5408 13.9011 1064 66.2021 494.75 560.323
1775 1 39.3783 10.0055 394 71.6193 495.378 577.858
1776 0 39.1961 10.0775 395 71.038 495.592 578.367
1777 0 41.253 11.2719 465 70.1742 495.234 577.017
1778 0 42.2354 10.7966 456 71.0351 495.371 579.487
1779 0 46.0837 11.0668 510 71.2451 495.116 578.149
1780 0 46.0551 11.204 516 72.4341 495 578.357
1781 0 49.0181 12.4852 612 69.9461 495.19 577.511
1782 0 49.1094 12.1565 597 71.4372 494.725 577.355
1783 0 53.1735 13.8039 734 68.7738 494.676 576.093
1784 0 51.04 12.6763 647 72.238 494.195 576.669
1785 0 53.0364 13.2362 702 71.3291 494.506 576.306
1786 0 55.1076 12.3758 682 72.4487 494.387 574.779
1787 0 55.1324 13.3497 736 72.5082 493.863 573.448
1788 0 58.1113 13.1644 765 71.9111 492.65 573.416
1789 0 58.1575 14.0309 816 71.7475 493.047 570.714
1790 0 62.1312 13.8578 861 71.3961 492.947 570.721
1791 0 64.1484 13.157 844 71.9443 492.534 569.305
1792 0 66.0961 13.0114 860 72.2012 492.11 569.063
1793 0 66.1953 13.5357 896 72.4353 492.458 568.286
1794 0 70.0654 14.201 995 70.7779 492.435 567.735
1795 0 70.2013 14.1735 995 71.1789 492.943 567.22
1796 0 74.2651 14.4079 1070 70.3374 492.407 566.752
1797 0 75.2961 13.9715 1052 71.7757 492.614 566.295
1798 0 79.3244 14.1571 1123 70.585 492.029 564.684
1799 1 41.0449 11.8407 486 72.7716 492.416 581.348
1800 0 43.0762 12.3734 533 72.0169 492.972 580.128
1801 0 46.1 12.1475 560 70.8089 492.621 580.625
1802 0 49.0968 12.4652 612 69.5964 492.899 580.654
1803 0 48.1022 12.224 588 70.8163 492.709 580.777
1804 0 48.0214 12.7443 612 70.7369 492.255 579.225
1805 0 49.0748 12.6134 619 70.6931 492.152 580.344
1806 0 53.232 13.7699 733 67.9168 492.413 579.45
1807 0 55.1184 13.7885 760 67.6395 491.939 577.504
1808 0 56.1763 13.1906 741 68.3927 492.345 576.605
1809 0 58.3034 13.567 791 67.4324 492.15 575.98
1810 0 58.2045 13.2979 774 67.3269 491.997 575.91
1811 0 60.0634 13.5024 811 66.9581 491.38 573.963
1812 0 61.0659 13.4609 822 66.9538 491.978 572.657
1813 0 65.0512 13.6815 890 65.0787 491.522 572.875
1814 0 69.0857 14.4458 998 63.5962 491.447 570.143
1815 0 70.0879 13.2691 930 65.8602 491.7 569.995
1816 0 73.1172 12.8561 940 66.0809 491.636 568.623
1817 0 75.0756 14.1591 1063 64.9341 491.807 566.494
1818 0 79.1496 13.8725 1098 64.9736 491.475 566.13
1819 0 78.1901 13.0835 1023 67.2053 491.621 564.929
1820 1 39.0172 12.1229 473 67.0951 491.763 584.611
1821 0 42.0252 11.4931 483 67.4224 491.936 583.147
1822 0 43.0651 11.8425 510 66.3667 491.831 583.818
1823 0 44.1473 12.8207 566 66.4576 492.157 582.493
1824 0 45.1833 12.7038 574 67.3502 492.166 580.814
1825 0 45.0804 12.6219 569 68.2531 491.87 580.708
1826 0 49.1207 13.0088 639 66.8216 492.169 580.584
1827 0 51.1139 13.2645 678 66.4204 492.235 579.236
1828 0 51.1377 13.0432 667 67.4783 492.682 577.361
1829 0 54.0737 12.446 673 67.7132 492.654 576.727
1830 0 54.1014 13.6041 736 66.5734 492.514 575.61
1831 0 56.0877 13.7285 770 66.7403 492.605 575.065
1832 0 58.0812 14.342 833 65.593 492.463 574.876
1833 0 61.1897 14.6593 897 65.0914 492.886 573.331
1834 0 63.1546 14.0607 888 66.3412 492.822 572.225
1835 0 64.2531 13.9137 894 67.1275 492.955 571.743
1836 0 68.1262 14.4144 982 65.8432 493.26 570.056
1837 0 69.0971 14.2987 988 67.0941 493.427 568.317
1838 0 70.2103 14.0435 986 67.5588 493.483 566.654
1839 0 74.2442 14.4119 1070 66.5056 493.726 564.477
1840 0 77.2794 14.5705 1126 66.2229 494.066 563.807
1841 0 80.4265 14.5847 1173 66.0682 494.436 564.037
1842 1 40.189 12.6154 507 67.8166 494.607 581.292
1843 0 42.2449 12.7826 540 67.5907 494.494 581.689
1844 0 41.031 11.796 484 70.0455 494.676 581.601
1845 0 46.1285 13.2023 609 67.0969 495.041 580.678
1846 0 45.1046 13.3467 602 68.0199 494.723 579.882
1847 0 48.0951 13.8892 668 66.5329 494.915 578.463
1848 0 49.194 14.5953 718 65.9039 495.013 577.857
1849 0 49.1535 13.1222 645 68.3922 495.484 577.707
1850 0 50.2283 14.3943 723 66.6736 495.57 575.455
1851 0 53.0915 13.4485 714 67.3459 495.801 573.098
1852 0 57.1723 13.4855 771 66.3424 495.799 572.597
1853 0 58.2842 13.8803 809 64.3066 495.781 571.85
1854 0 61.2154 14.7839 905 62.6729 495.635 570.485
1855 0 63.2706 14.762 934 63.3191 495.943 568.409
1856 0 66.2738 14.0176 929 63.7847 495.73 569.926
1857 0 64.3523 13.9544 898 65.2238 495.403 566.655
1858 0 67.5617 14.002 946 65.3214 495.473 564.931
1859 0 69.3012 14.9348 1035 64.1643 495.248 563.813
1860 0 72.4331 14.2614 1033 64.7183 495.47 564.124
1861 0 74.723 14.4801 1082 64.8604 495.216 564.16
1862 0 76.6929 14.2777 1095 65.8511 495.001 562.087
1863 0 79.4293 14.1132 1121 65.62 495.221 559.691
1864 0 83.7452 15.4039 1290 63.7581 494.696 559.38
1865 1 42.5442 11.729 499 69.1343 494.589 579.124
1866 0 43.2433 13.0887 566 67.1396 494.53 579.532
1867 0 43.2686 13.1735 570 67.9211 494.637 578.907
1868 0 43.3556 12.8472 557 69.3393 494.785 577.259
1869 0 47.3968 14.2837 677 67.192 494.903 575.208
1870 0 48.2977 14.245 688 66.3343 495.32 574.964
1871 0 50.2691 13.8654 697 66.3099 495.359 575.009
1872 0 49.5539 14.348 711 66.0394 494.596 575.278
1873 0 53.3794 14.6873 784 64.9987 494.459 574.884
1874 0 56.3897 15.2865 862 63.5998 494.423 573.665
1875 0 57.4769 13.9012 799 65.209 494.541 574.895
1876 0 57.2504 14.1658 811 66.3342 494.127 573.612
1877 0 59.3123 13.5385 803 66.4595 494.25 572.578
1878 0 63.2634 15.143 958 64.2505 493.773 571.591
1879 0 63.3341 13.8156 875 67.0777 493.598 571.029
1880 0 65.372 14.9911 980 65.4582 493.281 570.357
1881 0 67.3366 13.9449 939 67.4079 493.542 569.192
1882 0 70.333 13.9337 980 66.7755 493.391 570.492
1883 0 74.3933 14.5981 1086 65.5046 493.546 568.781
1884 0 75.4584 15.2667 1152 65.7135 493.422 567.007
1885 0 76.2384 14.4284 1100 67.3518 493.145 565.999
1886 0 79.3912 14.9891 1190 66.605 492.857 563.797
1887 0 83.642 15.1838 1270 65.515 492.797 562.06
1888 0 86.4386 14.3801 1243 66.9775 492.54 560.489
1889 0 86.2957 14.2649 1231 67.221 492.182 559.728
1890 0 92.4157 14.6728 1356 66.0015 492.701 558.518
1891 0 93.3026 14.0082 1307 67.2525 492.738 556.677
1892 0 95.3732 14.113 1346 67.1085 492.559 555.386
1893 0 100.564 14.3491 1443 66.3299 492.412 552.834
1894 0 103.472 14.3614 1486 66.2786 492.311 552.015
1895 0 107.328 15.0474 1615 65.1994 492.364 549.604
1896 0 111.385 14.6967 1637 65.5669 492.316 546.071
1897 0 116.297 14.807 1722 65.5761 492.256 546.053
1898 0 121.209 14.6111 1771 65.891 492.487 545.682
1899 0 124.195 14.6463 1819 65.6086 492.269 541.435
1900 0 129.204 14.3416 1853 65.504 491.447 541.643
1901 0 134.275 15.0885 2026 64.1866 491.301 537.047
1902 0 140.367 14.6046 2050 64.6434 491.155 537.206
1903 1 79.0944 12.2385 968 67.155 491.5 566.182
1904 0 82.1711 13.192 1084 66.0923 491.132 565.522
1905 0 85.1068 12.8192 1091 67.099 490.97 563.301
1906 0 89.1825 13.6462 1217 65.5094 490.698 560.959
1907 0 94.2088 13.7885 1299 64.6359 490.874 559.858
1908 0 96.1819 13.9215 1339 64.7864 490.801 557.695
1909 0 99.2641 13.7512 1365 65.219 490.464 557.473
1910 0 104.364 13.7116 1431 65.1335 490.24 554.182
1911 1 52.0562 10.8152 563 66.9645 491.011 579.002
1912 0 56.092 10.875 610 67.4557 490.856 578.17
1913 0 57.0354 12.1503 693 65.0433 491.147 578.563
1914 0 57.0787 11.5805 661 67.2678 490.573 576.69
1915 0 61.0639 13.5596 828 63.9831 490.483 576.043
1916 0 61.0427 13.1547 803 65.7447 490.367 575.067
1917 0 64.0325 13.743 880 63.95 490.262 574.464
1918 0 67.0335 13.4559 902 65.8126 490.213 571.803
1919 0 67.0612 13.2864 891 66.5264 490.823 571.029
1920 0 70.0612 12.7745 895 67.5866 491.503 569.636
1921 0 71.1639 13.3354 949 67.6754 490.483 568.14
1922 0 75.0616 13.6821 1027 66.3788 490.017 567.247
1923 0 76.1966 13.1633 1003 67.5424 489.982 566.453
1924 0 79.1324 13.1678 1042 67.6795 490.375 564.158
1925 0 82.1092 13.141 1079 67.9277 490.054 564.315
1926 1 48.0248 9.64084 463 66.4492 489.838 582.79
1927 0 46.081 10.1777 469 66.5544 490.043 582.382
1928 0 50.0357 10.9322 547 65.1353 490.223 581.934
1929 0 52.0671 11.3892 593 64.6003 490.157 580.862
1930 0 53.0514 10.8574 576 66.1493 490.503 579.016
1931 0 54.1452 11.4876 622 64.828 489.95 579.124
1932 0 56.2018 12.2416 688 64.2776 489.717 578.955
1933 0 56.2286 11.1153 625 66.688 489.805 578.032
1934 0 57.204 12.6215 722 64.8864 490.159 576.335
1935 0 61.1311 11.5653 707 65.9321 489.979 577.086
1936 0 62.1762 11.6443 724 66.4047 490.293 574.805
1937 0 62.2462 11.1011 691 67.1346 490.486 574.826
1938 0 62.1364 10.8632 675 68.0504 490.05 573.444
1939 0 69.1372 13.1767 911 63.8222 490.398 572.528
1940 0 66.1825 11.6043 768 67.5091 489.938 571.245
1941 0 70.1341 12.4476 873 65.6449 490.045 569.717
1942 0 70.137 11.834 830 67.1313 490.113 569.483
1943 0 73.1478 11.8527 867 66.7059 490.082 567.641
1944 0 77.2187 11.5905 895 64.6939 490.724 565.928
1945 0 78.1026 12.1123 946 64.3499 490.936 564.746
1946 0 83.1466 12.4479 1035 63.2976 491.05 563.899
1947 0 85.1583 12.1891 1038 64.0723 491.041 561.198
1948 0 87.1467 12.0831 1053 63.7939 490.655 558.908
1949 1 49.0251 9.91329 486 61.6049 492.06 579.994
1950 0 50.0382 9.13301 457 62.14 491.757 580.182
1951 0 52.0695 9.96745 519 61.6031 492.441 579.042
1952 0 53.1204 10.7115 569 61.4745 491.74 578.137
1953 0 54.231 11.746 637 60.843 491.449 576.727
1954 0 54.2251 11.5629 627 61.6491 491.662 576.059
1955 0 57.1971 11.7488 672 60.5208 491.527 573.266
1956 0 60.2535 11.5844 698 60.2923 492.122 573.744
1957 0 61.1946 11.7658 720 60.0278 491.917 573.618
1958 0 63.2135 10.9312 691 60.9725 492.045 571.796
1959 0 64.2296 11.1164 714 60.3291 492.155 571.472
1960 0 66.2559 12.0744 800 59.4663 492.075 568.549
1961 0 70.1287 11.7071 821 59.4056 492.044 567.99
1962 0 71.1536 12.213 869 59.0069 492.389 568.392
1963 0 74.1739 12.255 909 59.593 492.755 565.862
1964 0 76.1726 11.5921 883 60.7837 492.623 564.308
1965 0 79.235 12.2799 973 59.5622 492.708 563.841
1966 0 81.2447 11.4838 933 60.6774 493.389 560.973
1967 0 85.1861 11.8447 1009 60.3677 493.73 559.811
1968 1 44.0881 10.0707 444 58.8086 495.23 581.579
1969 0 46.0483 11.4011 525 58.1581 495.194 578.617
1970 0 47.103 9.57476 451 60.337 495.461 579.29
1971 0 49.044 11.4999 564 59.711 495.759 577.828
1972 0 52.1647 11.8087 616 58.1834 495.214 576.455
1973 0 53.3793 12.6266 674 57.2166 495.359 576.436
1974 0 52.3031 11.376 595 59.8185 496.039 576.116
1975 0 56.2295 11.5064 647 59.6785 495.81 573.657
1976 0 54.2685 11.3325 615 60.5724 496.246 574.078
1977 0 58.1208 12.5945 732 58.7842 496.355 572.074
1978 0 60.1627 12.3665 744 59.1048 496.282 570.746
1979 0 61.2345 11.9867 734 59.8856 495.973 570.647
1980 0 62.1711 12.9964 808 59.354 495.939 569.564
1981 0 65.2048 12.4684 813 60.2522 496.242 568.611
1982 0 67.3331 13.1882 888 59.3333 496.445 568.199
1983 0 66.1842 11.8004 781 62.1114 496.287 566.837
1984 0 69.2679 12.4156 860 60.714 496.719 565.798
1985 0 71.1571 12.7183 905 61.2376 496.57 565.554
1986 0 72.1387 12.8364 926 61.4255 496.738 564.351
1987 0 75.3817 13.226 997 61.0712 496.218 563.067
1988 0 77.0898 13.2702 1023 61.4272 496.695 560.486
1989 0 81.203 13.7803 1119 60.2958 496.668 560.242
1990 0 83.0506 13.1004 1088 60.7656 496.448 558.369
1991 0 86.1529 12.5358 1080 61.8491 496.307 556.45
1992 0 88.1871 12.8137 1130 61.4982 496.137 554.305
1993 0 91.2032 12.5873 1148 62.0401 495.065 554.473
1994 1 53.0982 10.377 551 62.1742 495.508 573.993
1995 0 52.0649 9.08481 473 63.9133 495.395 574.7
1996 0 55.1378 12.4234 685 59.7343 495.578 572.737
1997 0 57.0862 11.4564 654 61.4419 495.02 571.476
1998 0 59.0891 11.9142 704 60.6818 494.874 571.369
1999 0 58.1276 11.7672 684 61.848 495.152 571.088
2000 0 63.1808 12.1239 766 60.517 494.73 570.379
2001 0 63.1296 12.5139 790 60.6633 494.576 568.968
2002 0 65.2099 13.0655 852 59.6854 494.243 566.451
2003 0 67.1835 12.6668 851 59.8343 494.059 565.431
2004 0 70.1768 12.9245 907 60.0011 494.084 566.907
2005 0 72.0944 13.3852 965 59.571 492.822 564.882
2006 0 73.1958 12.7193 931 60.6788 492.476 564.448
2007 0 76.2358 12.5925 960 60.551 492.636 562.72
2008 0 79.2146 12.889 1021 59.7042 492.258 561.947
2009 0 82.1949 12.7623 1049 59.8065 492.361 560.149
2010 0 85.2564 13.8289 1179 58.5844 492.58 557.226
2011 1 44.0967 9.93271 438 61.4954 492.263 577.612
2012 0 46.0985 10.9982 507 60.1203 492.085 576.86
2013 0 49.1968 11.8707 584 58.8082 492.204 575.736
2014 0 52.5052 11.2941 593 59.285 492.206 573.196
2015 0 54.2483 13.1248 712 57.4944 492.353 574.152
2016 0 56.2407 12.3754 696 58.4152 492.325 574.665
2017 0 57.3096 13.2788 761 57.1774 492.127 573.619
2018 0 57.3849 13.2962 763 57.8257 492.055 571.858
2019 0 59.6239 12.7969 763 58.5151 492.515 569.134
2020 0 62.6219 13.7013 858 56.845 492.691 565.657
2021 0 63.6379 12.9483 824 57.5546 492.784 567.928
2022 0 64.6833 12.6462 818 58.8105 492.281 567.017
2023 0 68.5828 13.3124 913 57.9244 492.421 568.291
2024 0 68.5729 14.6122 1002 56.3044 492.355 566.293
2025 0 71.5816 12.7966 916 58.1627 492.187 564.187
2026 0 74.5418 14.1934 1058 56.328 491.697 563.864
2027 0 74.7534 12.8021 957 58.4148 491.857 562.883
2028 0 79.6863 13.1641 1049 57.2984 491.669 564.665
2029 0 82.6136 13.9323 1151 56.437 491.588 560.421
2030 0 82.661 12.2428 1012 59.2994 491.003 560.32
2031 1 46.4579 10.2243 475 58.7305 491.263 580.181
2032 0 48.4828 10.5398 511 56.7476 491.456 580.568
2033 0 47.4839 10.2772 488 58.3811 491.162 578.623
2034 0 50.5791 11.5067 582 56.677 490.565 578.478
2035 0 50.1526 11.9435 599 56.5626 489.548 578.928
2036 0 53.0853 12.414 659 56.6161 490.869 578.235
2037 0 53.0337 12.6523 671 57.1639 490.732 577.197
2038 0 56.2079 12.5249 704 56.5795 490.172 577.462
2039 0 57.3813 13.1227 753 56.2085 490.054 577.299
2040 0 58.2753 13.0759 762 56.4396 489.896 576.127
2041 0 61.3657 12.6455 776 56.1675 489.751 576.598
2042 0 62.3318 13.1875 822 55.9088 489.917 573.456
2043 0 64.4942 13.7842 889 55.4612 490.661 572.305
2044 0 66.2709 12.7658 846 56.3144 490.454 573.232
2045 0 68.2011 13.0496 890 56.0011 490.43 571.042
2046 0 71.5347 12.5813 900 55.6367 490.076 570.754
2047 0 73.4955 12.8988 948 55.9093 490.264 569.537
2048 0 76.3119 13.8642 1058 54.7164 490.161 567.68
2049 0 78.3783 12.9373 1014 55.8521 489.882 567.247
2050 0 81.385 13.2948 1082 55.5018 490.224 564.489
2051 0 83.5881 12.9085 1079 56.1622 489.94 562.605
2052 0 86.5487 13.1371 1137 55.956 489.8 560.09
2053 1 47.2413 10.7745 509 56.6287 489.941 582.566
2054 0 46.414 9.50144 441 58.5873 489.517 582.794
2055 0 48.2763 10.5435 509 57.2004 489.358 583.326
2056 0 51.1913 11.4277 585 56.5556 489.291 581.226
2057 0 52.0939 12.823 668 55.5539 489.572 581.079
2058 0 53.1095 12.7284 676 56.8358 488.781 580.749
2059 0 55.1028 12.1047 667 57.2714 488.924 578.351
2060 0 56.1963 12.3852 696 57.1537 488.447 577.22
2061 0 58.1568 12.7586 742 56.3989 488.868 577.46
2062 0 60.1462 12.1371 730 57.2301 488.975 576.079
2063 0 62.1414 11.9566 743 56.9785 488.515 575.081
2064 0 66.2692 12.4794 827 55.9021 488.681 574.289
2065 0 66.1659 11.7886 780 57.1487 489.138 574.727
2066 0 68.2078 11.9781 817 57.6512 489.322 571.108
2067 0 71.2601 13.2753 946 55.9027 489.606 571.301
2068 0 70.3346 12.1135 852 57.8979 489.229 570.072
2069 0 72.2537 12.7052 918 57.39 489.561 569.439
2070 0 77.1913 12.1646 939 58.1235 489.51 567.335
2071 0 78.3134 12.667 992 58.5363 490.045 565.6
2072 0 81.1586 12.3215 1000 59.11 490.074 563.743
2073 0 84.3388 12.6039 1063 59.0329 490.265 562.453
2074 0 86.3214 12.465 1076 59.5818 490.428 561.967
2075 0 88.2679 12.9152 1140 58.7596 490.264 562.157
2076 0 92.278 13.3401 1231 58.6531 490.352 559.171
2077 0 94.2791 13.4282 1266 58.9265 490.746 557.01
2078 0 94.2791 13.5237 1275 140.089 490.727 557.111
2079 0 101.292 13.4463 1362 59.2342 490.787 554.939
2080 0 101.247 13.0275 1319 60.7157 491.3 552.964
2081 0 106.392 13.5349 1440 59.9056 491.288 550.31
2082 1 58.1174 10.8057 628 59.9443 491.764 577.637
2083 0 61.082 10.9525 669 60.3558 491.756 574.114
2084 0 61.0715 12.2316 747 60.0589 492.535 569.846
2085 0 61.2497 12.6368 774 60.0401 492.386 569.545
2086 0 65.5027 13.572 889 58.5276 491.971 571.003
2087 0 66.1305 11.7797 779 61.2593 491.973 570.448
2088 0 69.4333 12.4148 862 60.6102 492.298 568.585
2089 0 69.2014 12.1096 838 61.6671 492.128 568.187
2090 0 72.3073 12.8341 928 61.0927 492.297 566.221
2091 0 75.5565 12.3881 936 61.5791 492.282 565.366
2092 0 79.4447 13.2797 1055 60.4607 492.521 565.114
2093 0 78.2014 13.1711 1030 61.8738 492.78 561.864
2094 0 82.2829 13.4779 1109 61.6366 492.77 561.572
2095 0 84.3744 12.9779 1095 62.2813 493.163 559.547
2096 0 88.4827 13.7654 1218 61.1872 493.343 557.654
2097 0 89.3363 13.2533 1184 62.7804 493.397 556.852
2098 0 93.4837 12.6974 1187 63.5636 493.102 556.414
2099 0 95.3949 13.5018 1288 63.7376 493.339 555.282
2100 0 97.5456 13.2143 1289 64.1001 493.656 553.927
2101 0 103.286 13.448 1389 63.6667 493.608 552.201
2102 1 51.1904 11.5451 591 64.7936 493.915 576.555
2103 0 52.1236 12.5855 656 64.6052 493.869 574.462
2104 0 55.0862 11.9268 657 64.2892 494.476 576.311
2105 0 56.2045 12.8993 725 64.5421 494.818 573.869
2106 0 56.1624 11.9297 670 66.2104 494.996 573.364
2107 0 61.2096 13.0698 800 63.5625 494.481 572.902
2108 0 63.1441 13.4296 848 63.7075 494.756 571.208
2109 0 64.346 13.1321 845 64.2355 494.631 570.895
2110 0 64.1472 12.5337 804 66.2823 494.974 570.178
2111 0 67.2944 12.3339 830 66.5843 495.031 568.367
2112 0 70.2864 13.1035 921 65.6102 495.056 566.988
2113 0 69.4592 12.3382 857 67.5776 495.191 566.443
2114 0 74.3427 12.9804 965 66.8839 495.469 564.642
2115 0 75.4176 13.2065 996 65.8745 495.073 563.835
2116 0 77.3681 13.2354 1024 66.085 494.989 562.735
2117 0 81.4327 13.5327 1102 65.9927 494.535 560.273
2118 0 82.5524 13.1674 1087 67.1233 494.343 558.2
2119 0 86.3627 13.8717 1198 65.7037 494.149 558.021
2120 0 90.4554 13.4763 1219 66.1542 493.87 556.18
2121 0 91.3807 13.7775 1259 66.1501 494.377 552.022
2122 1 47.2409 10.2454 484 68.3347 493.614 576.337
2123 0 50.2516 10.7857 542 66.845 493.522 576.175
2124 0 52.291 11.7229 613 65.6101 493.602 574.274
2125 0 54.1604 12.4076 672 65.9866 494.164 574.85
2126 0 56.0555 11.8989 667 66.4618 493.777 574.46
2127 0 58.2708 12.3046 717 65.4923 493.629 573.021
2128 0 60.1802 13.094 788 64.9962 493.193 571.718
2129 0 63.17 13.1708 832 64.2043 493.317 571.156
2130 0 63.2111 12.6244 798 65.7306 492.738 570.167
2131 0 66.167 12.7254 842 65.2304 492.439 569.428
2132 0 69.2258 12.9287 895 65.2525 492.402 569.166
2133 0 69.3999 12.9251 897 65.8149 491.7 567.268
2134 0 71.45 13.254 947 65.1848 491.761 565.388
2135 0 72.6832 12.3963 901 66.8169 491.739 563.663
2136 0 76.5251 12.8455 983 65.8179 491.502 564.258
2137 0 80.4804 13.0839 1053 65.9031 491.654 561.113
2138 1 42.2264 10.1595 429 66.9301 491.166 582.904
2139 0 41.2665 10.202 421 68.4798 490.646 581.171
2140 0 44.1827 10.9772 485 65.9093 490.761 582.33
2141 0 44.1966 11.2452 497 68.0423 490.481 579.338
2142 0 48.1619 11.8766 572 67.8986 490.713 578.322
2143 0 50.1438 12.7633 640 66.6109 491.477 578.561
2144 0 52.1522 12.8662 671 65.231 491.987 580.75
2145 0 53.2687 12.0897 644 67.1211 491.455 579.089
2146 0 56.0839 12.8379 720 66.2 491.143 579.872
2147 0 55.0724 12.8013 705 67.2823 491.177 577.984
2148 0 56.1567 12.6254 709 68.2468 491.386 577.269
2149 0 60.0616 13.1365 789 66.8859 491.308 575.97
2150 0 63.1913 13.3246 842 66.5808 490.99 576.52
2151 0 64.1439 13.0332 836 67.5646 491.08 576.766
2152 0 65.1335 13.0655 851 67.9013 491.116 574.804
2153 0 68.1596 13.4831 919 67.3536 491.287 574.114
2154 0 70.109 12.5947 883 69.0453 491.114 571.853
2155 0 70.1215 13.2484 929 68.4338 490.903 570.101
2156 0 75.2949 13.0155 980 67.7969 491.01 570.486
2157 0 78.1356 13.6814 1069 66.9486 491.176 568.417
2158 1 40.1429 11.2349 451 69.4302 490.259 585.506
2159 0 43.1399 12.0306 519 68.2563 490.277 585.961
2160 0 44.0909 11.2722 497 69.159 489.622 584.946
2161 0 43.1 11.6009 500 69.59 489.716 584.068
2162 0 47.1912 12.0362 568 67.875 489.82 582.5
2163 0 49.1366 13.0249 640 66.5109 489.606 580.723
2164 0 50.1271 12.3686 620 67.879 490.176 582.294
2165 0 50.1181 12.4705 625 68.6112 489.939 579.768
2166 0 51.075 12.3935 633 68.5308 490.008 580.477
2167 0 55.0341 13.1737 725 67.1641 490.105 579.337
2168 0 55.0354 13.1915 726 67.6102 490.158 577.639
2169 0 55.1002 12.813 706 68.7096 490.347 577.752
2170 0 57.1517 13.6829 782 67.1445 489.971 578.237
2171 0 61.2033 13.0875 801 67.5481 490.353 576.262
2172 0 63.1109 13.706 865 66.5272 490.22 575.91
2173 0 65.0522 13.543 881 67.1986 489.842 572.632
2174 0 66.1731 12.7847 846 68.8735 489.762 572.435
2175 0 67.0669 13.7027 919 67.8128 489.608 571.83
2176 0 70.1321 13.389 939 68.3546 489.813 570.902
2177 0 73.1516 14.3537 1050 67.2857 490.414 569.521
2178 0 76.1973 14.1475 1078 67.1475 489.958 568.399
2179 0 79.2841 13.8868 1101 67.7757 489.009 566.957
2180 0 81.1165 13.8566 1124 68.4706 489.82 564.883
2181 1 42.1907 10.2392 432 71.6829 489.741 584.583
2182 0 44.1701 10.8218 478 70.4289 489.764 584.801
2183 0 46.1186 11.6005 535 69.2897 489.581 584.217
2184 0 48.173 11.687 563 68.7993 489.551 583.901
2185 0 49.0742 12.6747 622 68.7556 489.326 580.489
2186 0 52.1069 13.2996 693 67.1674 490.101 580.745
2187 0 53.0303 13.332 707 67.884 490.468 579.6
2188 0 55.1175 13.0811 721 67.4605 490.8 578.996
2189 0 55.164 12.7076 701 68.8017 490.287 577.247
2190 0 59.1341 14.0359 830 66.3723 490.917 575.823
2191 0 59.0357 13.2801 784 67.4005 490.972 575.746
2192 0 62.3246 13.5741 846 67.6111 491.331 574.259
2193 0 64.158 14.0746 903 66.4396 491.537 571.47
2194 0 67.2517 13.5164 909 66.6876 491.078 571.483
2195 0 67.1451 13.8208 928 67.0884 491.419 569.353
2196 0 69.1714 13.6328 943 68.193 491.56 570.664
2197 0 74.2464 13.1589 977 67.1341 491.603 569.009
2198 0 75.1731 14.1673 1065 66.0488 492.119 567.184
2199 0 78.2874 14.0125 1097 66.2999 492.33 564.002
2200 0 79.4382 13.4948 1072 67.3638 492.671 563.039
2201 1 40.1625 10.1587 408 69.848 492.696 582.233
2202 0 45.1703 11.6891 528 67.3769 493.131 581.629
2203 0 45.1821 11.2877 510 69.7569 492.825 580.194
2204 0 46.1294 12.4432 574 68.3502 493.453 578.864
2205 0 47.1737 12.1254 572 69.1276 493.273 578.523
2206 0 50.2042 13.6443 685 66.4044 493.625 576.974
2207 0 53.1469 13.1334 698 67.2106 494.208 576.07
2208 0 53.1555 12.8867 685 68.4861 494.088 575.981
2209 0 53.0623 12.8528 682 69.2419 494.805 576.336
2210 0 56.1612 12.6778 712 69.8567 495.077 573.902
2211 0 58.1334 13.2282 769 68.8622 494.927 572.832
2212 0 59.066 12.5622 742 70.2237 494.931 573.035
2213 0 61.0493 13.2516 809 69.6415 495.419 571.376
2214 0 63.0756 13.2064 833 70.1597 495.359 570.832
2215 0 65.0319 13.2858 864 69.5741 495.392 570.366
2216 0 68.0945 13.5987 926 69.4665 495.435 567.977
2217 0 70.1372 13.7302 963 69.2575 495.606 567.224
2218 0 70.1698 13.8236 970 70.3567 495.723 566.441
2219 0 73.1033 14.0349 1026 69.4844 495.854 565.279
2220 0 75.1486 13.8925 1044 70.022 495.782 564.715
2221 0 79.1419 13.8233 1094 70.6325 495.828 561.562
2222 0 81.2108 12.9539 1052 71.9268 495.855 560.866
2223 0 83.1547 13.986 1163 70.0954 495.675 560.491
2224 0 86.1901 13.7371 1184 70.7686 495.813 557.994
2225 0 87.1773 13.3177 1161 71.4798 495.652 558.849
2226 0 90.4583 13.1331 1188 71.8998 495.791 557.857
2227 1 49.1381 10.7859 530 72.1792 496.196 577.785
2228 0 48.1732 10.7736 519 74.8131 496.085 577.615
2229 0 50.1771 11.6388 584 73.5411 495.94 576.111
2230 0 51.1389 11.811 604 72.5563 496.131 575.831
2231 0 53.1186 13.2722 705 70.6383 496.051 572.797
2232 0 54.0335 12.8439 694 70.8112 496.354 574.752
2233 0 56.0587 12.7723 716 71.0838 496.216 573.43
2234 0 59.0518 13.4797 796 69.7626 495.73 571.001
2235 0 60.0931 13.0631 785 69.5248 494.582 569.511
2236 0 63.0561 13.4959 851 68.2421 494.911 569.754
2237 0 64.1162 11.9003 763 71.1809 494.417 568.99
2238 0 66.1333 12.8528 850 69.3094 494.216 568.766
2239 0 69.1391 13.0606 903 69.0919 494.062 567.031
2240 0 72.1038 13.3419 962 68.9449 494.307 565.951
2241 0 73.3148 13.2442 971 68.6777 494.399 563.399
2242 0 75.1079 12.7683 959 69.2377 494.101 563.429
2243 0 81.1537 14.2692 1158 65.5509 495.217 561.102
2244 0 83.1471 13.867 1153 67.196 494.893 560.264
2245 0 85.2281 14.2089 1211 66.4946 494.43 561.029
2246 0 88.2663 13.3007 1174 67.9523 494.242 557.477
2247 0 91.1294 12.9925 1184 68.9899 494.465 557.948
2248 1 51.0939 10.5492 539 70.3024 494.529 577.319
2249 0 51.108 11.4268 584 68.7911 494.435 576.224
2250 0 53.0835 11.2276 596 69.7936 494.027 574.871
2251 0 55.1424 12.0778 666 68.7372 493.79 573.803
2252 0 57.1739 13.5551 775 67.6942 493.681 572.775
2253 0 59.0619 12.8001 756 69.045 493.565 572.007
2254 0 61.134 13.6585 835 68.1114 493.752 572.071
2255 0 63.0811 14.0454 886 68.2607 493.792 571.974
2256 0 64.0758 12.8754 825 70.1552 493.824 572.286
2257 0 65.0652 13.2483 862 70.71 493.78 570.038
2258 0 68.0987 13.5098 920 69.9804 493.485 567.72
2259 0 71.0373 13.6266 968 69.687 493.441 568.699
2260 0 74.0733 13.7566 1019 70.4926 493.266 566.831
2261 0 75.1846 13.9656 1050 71.0219 493.598 566.469
2262 0 78.1731 13.7004 1071 71.6713 493.487 563.764
2263 0 80.1595 14.4212 1156 70.4524 493.495 562.833
2264 0 82.1778 14.0427 1154 71.3865 493.899 561.705
2265 1 45.2192 10.9246 494 73.4028 494.209 579.885
2266 0 46.163 10.4629 483 73.6315 494.203 580.557
2267 0 48.1948 11.827 570 71.6614 494.412 580.935
2268 0 49.1232 12.7842 628 70.6529 494.744 579.282
2269 0 52.175 12.7647 666 70.6471 494.562 579.306
2270 0 53.112 12.7467 677 70.4756 494.44 580.171
2271 0 52.1467 12.4457 649 71.812 494.342 578.043
2272 0 57.1516 13.1755 753 69.2537 494.126 577.459
2273 0 56.129 12.5603 705 71.0809 494.157 575.511
2274 0 60.1239 13.6551 821 69.2619 494.214 573.915
2275 0 62.1351 13.3097 827 69.4837 494.299 573.628
2276 0 61.1456 12.184 745 72.0644 494.29 572.891
2277 0 64.1595 13.1547 844 70.2287 493.661 572.103
2278 0 67.1288 12.8708 864 69.934 493.606 571.281
2279 0 69.2286 12.8415 889 69.9854 493.684 569.861
2280 0 71.1461 13.0998 932 69.2425 493.426 570.182
2281 0 74.1165 13.8161 1024 68.2217 493.396 569.565
2282 0 77.1789 13.4104 1035 68.6657 493.63 568.575
2283 0 80.2338 12.8375 1030 69.1262 493.619 566.733
2284 0 84.1369 14.5596 1225 66.0433 492.433 564.777
2285 0 85.1992 13.1105 1117 68.8756 492.435 563.978
2286 1 44.0937 11.5436 509 69.4794 491.548 583.756
2287 0 45.081 11.2908 509 69.3418 492.073 583.521
2288 0 48.2495 11.6478 562 68.0854 491.838 583.468
2289 0 49.0449 12.1725 597 68.2496 492.345 582.199
2290 0 51.0453 12.2636 626 68.2476 492.427 581.559
2291 0 54.0131 12.6636 684 66.9605 492.034 580.408
2292 0 55.155 12.9091 712 66.3862 492.265 580.695
2293 0 56.1736 12.9064 725 67.2828 492.319 578.891
2294 0 58.0909 13.2723 771 67.1518 492.686 578.014
2295 0 60.2105 12.639 761 67.8778 492.637 576.573
2296 0 60.078 12.8999 775 67.4206 492.556 576.119
2297 0 64.128 13.7382 881 66.403 492.873 575.418
2298 0 66.1106 13.1144 867 67.6632 492.429 573.612
2299 0 66.0791 13.62 900 67.0422 491.563 573.712
2300 0 71.2155 13.7189 977 65.6807 491.653 573.863
2301 0 72.1564 14.3161 1033 65.5334 491.512 571.096
2302 0 75.3485 12.8204 966 67.1263 491.273 570.548
2303 0 78.2654 13.9653 1093 65.2553 491.392 566.763
2304 0 80.2975 13.587 1091 65.956 491.17 567.327
2305 0 82.2176 12.9778 1067 66.8491 491.106 566.303
2306 1 44.1633 11.0952 490 67.9347 490.955 583.245
2307 0 45.0923 12.2637 553 68.0687 490.599 581.749
2308 0 48.0735 12.4601 599 65.8848 491.097 582.706
2309 0 50.1644 13.077 656 65.6418 490.71 580.27
2310 0 50.0613 12.8043 641 66.1045 490.994 581.349
2311 0 50.0743 12.9608 649 67.9322 492.595 580.089
2312 0 54.117 13.5632 734 66.0286 492.797 579.929
2313 0 56.0263 12.9939 728 67.0907 492.746 578.743
2314 0 58.2288 13.2924 774 66.3269 492.811 578.109
2315 0 58.1406 13.5362 787 66.155 492.139 577.332
2316 0 61.2142 13.3302 816 66.4853 491.839 576.516
2317 0 62.4763 13.6532 853 66.7503 492.091 575.025
2318 0 63.1132 14.1175 891 66.9809 492.35 574.552
2319 0 66.2185 13.4857 893 67.5622 492.441 574.393
2320 0 68.1992 13.3579 911 68.1262 492.625 573.146
2321 0 69.3109 14.1392 980 67.3337 492.658 568.835
2322 0 72.3683 13.9426 1009 67.5669 492.833 569.906
2323 0 75.4515 14.009 1057 67.4522 492.752 566.503
2324 0 78.331 13.66 1070 67.9075 493.158 565.482
2325 0 80.3326 14.1039 1133 67.4166 493.955 565.153
2326 0 84.4518 14.5053 1225 66.4253 493.611 562.591
2327 0 87.3114 14.1104 1232 67.0787 494.256 560.285
2328 0 90.4214 13.8905 1256 67.5 494.201 559.457
2329 1 46.0704 12.4158 572 68.3339 494.649 581.322
2330 0 48.1288 12.0094 578 69.5813 494.151 579.178
2331 0 50.0198 12.8549 643 69.1058 494.199 576.995
2332 0 50.0924 13.6747 685 68.508 494.21 576.559
2333 0 53.0933 12.9772 689 68.8316 494.042 574.9
2334 0 55.0613 13.9663 769 67.5956 494.586 573.009
2335 0 57.1406 13.738 785 66.893 494.869 573.632
2336 0 58.2123 13.0041 757 67.6777 494.943 572.576
2337 0 59.2576 13.1966 782 67.4003 495.201 571.693
2338 0 62.1703 13.8812 863 66.5933 495.076 570.203
2339 0 63.3391 13.5146 856 66.7956 495.047 568.808
2340 0 65.197 13.6356 889 66.667 495.082 568.744
2341 0 67.1096 15.2288 1022 64.545 494.83 564.551
2342 0 69.174 13.8636 959 66.2013 495.103 564.686
2343 0 70.1752 13.5661 952 66.5914 494.789 564.239
2344 0 73.2747 13.6746 1002 66.7944 495.272 561.783
2345 0 78.0952 14.2646 1114 64.9811 495.356 560.319
2346 0 79.2365 13.7689 1091 66.2603 495.163 559.356
2347 0 84.2494 14.647 1234 64.184 495.152 558.348
2348 0 87.2887 14.4234 1259 64.5647 495.121 556.667
2349 0 89.3052 15.3743 1373 63.209 495.131 556.167
2350 0 93.3361 14.8496 1386 64.132 495.127 554.293
2351 0 96.1592 13.9248 1339 65.0478 495.25 553.839
2352 1 48.1118 12.9906 625 66.4352 495.302 575.342
2353 0 49.0706 12.5941 618 68.1359 495.167 572.801
2354 0 50.1989 12.7493 640 68.1484 495.312 573.33
2355 0 53.21 13.4185 714 67.0882 495.239 570.927
2356 0 53.089 13.4491 714 67.6303 495.303 570.382
2357 0 58.3083 13.7545 802 66.3267 494.981 568.339
2358 0 59.3356 13.8703 823 66.9162 494.987 567.451
2359 0 61.169 13.569 830 67.4518 494.698 565.218
2360 0 62.216 13.8067 859 67.4657 494.868 563.083
2361 0 68.3002 14.8901 1017 64.6323 494.686 564.461
2362 0 68.5804 14.0565 964 66.1587 494.488 563.922
2363 0 71.3447 13.8202 986 65.9594 494.241 561.138
2364 0 74.1773 15.0855 1119 64.6479 494.415 561.68
2365 0 75.316 13.9678 1052 66.7386 494.415 561.982
2366 0 77.3723 14.6693 1135 66.4714 494.224 559.916
2367 0 80.324 15.5246 1247 64.8957 493.963 557.484
2368 0 83.2729 14.2423 1186 67.4418 493.815 556.483
2369 0 86.143 15.1724 1307 66.1936 494.147 555.277
2370 0 90.4762 15.0205 1359 66.2678 494.209 553.731
2371 0 91.3214 14.2245 1299 67.3541 494.002 553.945
2372 0 96.4619 14.4824 1397 66.6707 493.85 550.245
2373 0 99.3467 14.9779 1488 66.1391 493.546 549.688
2374 0 102.232 15.3769 1572 65.7977 493.482 544.947
2375 1 51.1292 12.3022 629 68.4499 493.339 572.134
2376 0 52.2101 12.4688 651 68.7512 493.112 570.86
2377 0 57.1876 13.4295 768 66.5443 493.366 569.846
2378 0 60.2767 13.9026 838 65.0155 493.687 567.984
2379 0 62.3024 14.2691 889 64.6952 493.661 566.159
2380 0 63.3179 13.298 842 66.7316 493.557 564.742
2381 0 65.2859 13.7855 900 62.9822 493.399 564.562
2382 0 69.2034 14.6814 1016 61.2628 493.271 563.92
2383 0 70.288 13.8146 971 62.5736 493.821 562.333
2384 0 73.2563 12.9545 949 63.294 493.585 562.364
2385 0 75.2797 14.2004 1069 62.2123 493.745 560.113
2386 0 79.4241 13.5098 1073 61.8677 493.708 560.67
2387 0 83.159 13.9372 1159 61.3003 493.504 557.903
2388 0 84.2715 13.4565 1134 61.8536 493.159 557.367
2389 0 89.3637 15.4313 1379 59.1233 493.289 555.988
2390 1 47.2237 10.0797 476 61.5042 492.704 578.481
2391 0 48.1518 10.8199 521 60.9347 493.163 577.916
2392 0 50.0969 12.0367 603 59.7148 493.569 574.652
2393 0 52.1636 11.924 622 59.2781 493.778 576.341
2394 0 54.1355 12.6904 687 58.7904 493.913 573.99
2395 0 55.046 12.0081 661 59.8593 493.998 572.171
2396 0 58.1263 12.232 711 59.4444 494.498 574.647
2397 0 61.1482 13.0339 797 58.5609 494.428 574.36
2398 0 63.094 13.8365 873 57.4582 494.357 572.172
2399 0 64.0228 12.9016 826 59.0714 494.548 572.522
2400 0 65.1104 13.0087 847 59.5691 493.898 571.222
2401 0 68.1017 13.2008 899 59.0467 494.079 570.687
2402 0 70.0621 13.6022 953 58.9213 494.164 569.338
2403 0 73.0814 14.3949 1052 58.2928 494.003 568.353
2404 0 73.1338 13.4001 980 59.8878 493.645 568.859
2405 0 76.3217 13.3907 1022 59.6164 493.262 566.458
2406 0 77.1439 14.0257 1082 59.9806 493.477 565.35
2407 0 82.1121 13.9322 1144 59.7045 492.925 564.038
2408 0 84.2087 14.4878 1220 59.0418 493.116 563.104
2409 0 86.2112 13.2697 1144 60.7212 492.877 560.843
2410 1 45.0421 11.5226 519 61.3526 493.054 581.071
2411 0 47.2199 11.2876 533 60.8049 493.128 582.501
2412 0 47.1464 10.3507 488 62.5164 492.703 581.902
2413 0 50.1742 11.6992 587 60.7564 492.453 579.508
2414 0 51.1416 12.5925 644 60.0652 492.18 579.814
2415 0 54.1056 12.9931 703 58.8506 492.205 579.228
2416 0 55.0297 12.8294 706 59.1161 492.374 577.516
2417 0 55.1033 12.3768 682 59.5924 492.157 577.686
2418 0 58.2066 13.2116 769 57.4746 492.069 575.445
2419 0 60.0641 12.7863 768 57.8711 492.275 575.685
2420 0 63.1327 12.64 798 57.599 491.88 576.19
2421 0 64.3455 11.8423 762 59.0223 491.764 574.102
2422 0 66.1386 13.0181 861 57.7131 491.657 572.804
2423 0 68.224 12.415 847 57.6222 491.609 573.536
2424 0 71.1223 13.048 928 56.3685 491.3 572.656
2425 0 72.3391 12.3585 894 57.9172 491.239 571.422
2426 0 74.3206 13.1727 979 57.2594 491.132 567.956
2427 0 76.303 11.7558 897 58.4571 491.621 567.904
2428 1 40.1768 11.2005 450 57.0756 492.076 585.453
2429 0 41.0475 10.2077 419 58.0382 492.129 584.766
2430 0 43.1597 11.2605 486 56.4794 491.942 584.588
2431 0 44.1041 11.4729 506 56.4625 491.889 583.769
2432 0 45.1348 11.7869 532 56.0883 492.312 582.541
2433 0 48.1197 12.0117 578 55.026 492.258 582.329
2434 0 48.1098 11.6816 562 55.9609 492.338 580.413
2435 0 51.036 12.5402 640 54.4219 492.494 580.111
2436 0 53.0252 12.7864 678 54.3024 492.199 579.205
2437 0 53.0888 12.0364 639 55.7183 492.369 578.665
2438 0 56.0786 12.9818 728 54.6772 492.408 576.975
2439 0 58.0383 12.6813 736 54.5965 491.755 576.644
2440 0 60.055 13.0047 781 54.653 492.005 575.297
2441 0 62.1062 14.2176 883 53.2741 491.291 575.503
2442 0 63.1499 12.6366 798 56.3596 491.521 574.925
2443 0 65.0628 12.9567 843 55.9834 491.625 572.781
2444 0 67.1168 11.2043 752 58.0944 491.544 573.451
2445 0 69.104 13.6172 941 56.0574 490.808 570.794
2446 0 72.0948 13.399 966 56.4389 490.861 569.56
2447 0 75.0761 13.4264 1008 56.3968 490.779 567.569
2448 0 76.1893 13.0464 994 56.9326 490.889 566.456
2449 1 40.0421 10.464 419 58.0406 491.697 584.26
2450 0 41.0709 11.0297 453 57.6578 491.788 583.649
2451 0 43.0796 12.7903 551 55.7877 491.835 582.341
2452 0 45.0982 12.9939 586 55.5597 491.838 581.386
2453 0 46.1347 12.3768 571 56.5429 492.075 581.902
2454 0 46.1073 12.2757 566 55.8551 491.572 579.608
2455 0 49.1286 12.7014 624 54.5321 491.482 578.979
2456 0 49.1021 12.4435 611 55.6956 492.245 579.935
2457 0 53.0673 12.5124 664 54.9383 492.545 579.453
2458 0 54.1396 13.4652 729 54.3416 492.523 577.236
2459 0 55.1023 13.6474 752 54.5851 492.956 576.109
2460 0 56.0886 13.1934 740 54.7459 492.804 575.251
2461 0 58.0588 13.2624 770 54.6961 493.179 575.655
2462 0 60.0561 13.0711 785 55.4331 493.409 573.673
2463 0 60.1234 13.3891 805 55.2894 493.622 571.072
2464 0 62.0814 13.4823 837 54.9833 493.582 572.626
2465 0 66.1596 13.7244 908 54.8645 493.551 570.128
2466 0 68.1954 14.0772 960 54.4146 494.22 568.326
2467 0 66.0916 12.3162 814 56.8342 494.489 567.855
2468 0 71.1561 12.6623 901 56.2619 495.225 567.583
2469 0 72.1017 13.5087 974 55.8655 494.397 563.622
2470 0 78.1545 13.7548 1075 55.0521 494.949 562.513
2471 0 80.0881 13.3228 1067 55.2071 495.135 561.59
2472 1 38.0116 10.9967 418 56.6459 495.938 581.579
2473 0 41.1057 11.4339 470 55.2851 495.115 583.043
2474 0 41.0529 11.9602 491 55.9837 495.699 581.173
2475 0 43.1084 12.7353 549 54.9144 495.601 581.126
2476 0 42.02 12.1133 509 56.7583 495.847 579.678
2477 0 46.0234 13.7539 633 54.237 496.161 578.049
2478 0 46.0895 12.3239 568 56.2183 496.174 577.539
2479 0 47.075 13.5741 639 55.3646 496.045 576.886
2480 0 48.0482 12.3834 595 56.9647 495.592 576.573
2481 0 51.086 14.133 722 54.7701 496.037 573.717
2482 0 53.1271 14.0042 744 54.5067 496.103 574.985
2483 0 57.1548 14.382 822 53.8479 496.029 571.769
2484 0 56.1205 14.1303 793 55.2245 496.282 570.774
2485 0 56.1367 13.289 746 56.1032 496.205 570.34
2486 0 61.2078 13.9852 856 54.5923 496.273 570.493
2487 0 63.1293 13.8446 874 54.9485 496.396 569.303
2488 0 65.1188 15.8019 1029 52.9378 495.783 568.402
2489 0 66.2343 13.4371 890 56 495.971 563.669
2490 0 71.0853 13.8707 986 54.4483 495.769 564.211
2491 0 72.1464 13.8607 1000 54.59 495.712 564.612
2492 1 37.0298 9.58687 355 56.9324 495.741 581.121
2493 0 39.0274 10.4286 407 56.6069 495.447 581.248
2494 0 42.0864 11.3338 477 55.5744 495.438 580.21
2495 0 42.0648 11.934 502 55.3446 495.333 579.094
2496 0 43.0825 12.6966 547 55.0366 495.92 577.717
2497 0 44.0662 12.0501 531 56.1055 495.857 576.868
2498 0 47.0774 12.3626 582 55.1357 495.777 577.933
2499 0 47.0445 13.1365 618 54.8463 495.199 576.608
2500 0 47.0145 12.0814 568 56.9085 495.208 575.011
2501 0 50.0742 13.9193 697 54.3644 495.143 575.515
2502 0 51.0378 13.7349 701 55.7589 494.76 574.398
2503 0 53.1796 12.2039 649 57.3914 494.792 572.684
2504 0 55.0599 13.1312 723 55.8285 494.237 574.083
2505 0 55.032 13.6466 751 56.1158 494.881 572.739
2506 0 58.0289 12.5972 731 57.2777 494.603 572.045
2507 0 60.2471 13.6438 822 56.2664 494.057 570.918
2508 0 62.0724 14.4509 897 55.1293 494.098 570.755
2509 0 65.0902 13.5965 885 56.8531 493.971 569.279
2510 0 67.1118 12.6356 848 58.3679 494.304 568.771
2511 0 66.0629 12.7 839 59.0608 494.516 567.644
2512 0 70.2358 12.8282 901 58.8524 494.032 566.757
2513 0 74.2325 14.01 1040 57.7173 494.135 565.912
2514 1 41.0339 10.9178 448 58.4777 494.344 582.136
2515 0 43.0257 9.99402 430 59.7977 494.714 581.1
2516 0 42.0573 10.3668 436 59.3601 494.5 581.367
2517 0 46.0327 11.6439 536 58.2743 494.076 581.274
2518 0 47.0655 12.0045 565 58.2549 494.322 579.66
2519 0 49.0384 11.1341 546 59.3352 494.581 579.606
2520 0 52.0643 11.7355 611 58.7512 494.696 578.028
2521 0 51.0353 12.7363 650 58.1692 494.374 577.477
2522 0 53.0752 12.454 661 58.7852 494.319 576.175
2523 0 54.059 12.1534 657 59.7915 494.094 576.297
2524 0 55.1645 12.9612 715 58.6014 494.109 576.86
2525 0 58.0869 12.3608 718 59.5181 493.568 574.723
2526 0 59.077 12.7461 753 59.5803 493.405 574.271
2527 0 61.0795 12.4101 758 60.5515 493.083 573.226
2528 0 63.1032 12.8837 813 59.8733 493.498 572.342
2529 0 64.1109 12.0416 772 61.2034 493.911 571.856
2530 0 69.16 12.2903 850 60.4424 493.159 569.728
2531 0 71.1026 14.4861 1030 57.801 493.328 569.204
2532 0 73.1872 12.4885 914 60.954 493.184 568.092
2533 1 39.0163 10.1496 396 61.1136 493.722 584.149
2534 0 39.0476 9.91098 387 62.0026 493.729 582.863
2535 0 42.0277 10.6358 447 61.1857 493.427 582.266
2536 0 44.0386 11.9668 527 59.3397 492.732 582.241
2537 0 44.0665 11.7096 516 60.1105 493.029 581.992
2538 0 46.0991 12.9287 596 58.8574 492.857 580.611
2539 0 46.081 12.261 565 61.8513 491.97 580.409
2540 0 48.083 12.1873 586 61.4932 491.869 580.044
2541 0 50.0758 12.7607 639 61.9296 491.272 578.388
2542 0 51.067 12.4934 638 60.9937 491.602 578.815
2543 0 50.1021 12.1951 611 63.1702 491.419 578.182
2544 0 53.1207 12.8199 681 62.1145 491.658 578.251
2545 0 55.0723 12.2566 675 63.3007 491.519 576.646
2546 0 56.1775 12.4605 700 63.1814 492.153 576.73
2547 0 57.1225 12.2894 702 63.8761 491.876 576.865
2548 0 58.2191 11.9033 693 64.4646 491.381 576.618
2549 0 60.0801 11.9008 715 65.2224 491.449 574.326
2550 0 62.1064 12.076 750 65.1627 492.167 573.267
2551 0 62.1064 12.0116 746 156.025 491.186 573.231
2552 0 68.1245 12.8001 872 63.547 492.735 572.588
2553 0 70.1602 13.7542 965 62.1565 492.704 570.162
2554 0 69.1882 12.4443 861 65.0221 492.404 568.636
2555 0 71.2224 13.0436 929 64.1798 492.358 567.807
2556 0 76.1308 13.3454 1016 63.5374 492.264 568.115
2557 1 39.0246 9.1737 358 67.3045 491.316 584.799
2558 0 40.0572 10.8844 436 65.5528 491.748 585.729
2559 0 42.0635 10.7694 453 65.5519 491.762 584.609
2560 0 41.0633 10.7152 440 66.0545 492.568 584.148
2561 0 42.0493 12.3664 520 64.0558 491.969 583.302
2562 0 43.0494 11.661 502 65.6474 491.51 582.984
2563 0 47.0585 12.0701 568 64.2694 491.394 582.123
2564 0 48.1029 12.5356 603 64.0149 491.507 580.823
2565 0 50.0829 12.3994 621 63.3221 491.651 581.369
2566 0 50.142 12.2452 614 66.1743 491.386 580.042
2567 0 50.0739 12.4816 625 66.9632 491.042 579.651
2568 0 52.1449 11.679 609 68.0706 491.085 578.883
2569 0 54.1966 11.8827 644 67.4953 491.578 578.425
2570 0 55.2225 12.9114 713 66.3324 491.048 577.742
2571 0 56.0696 12.7877 717 67.0042 490.817 576.212
2572 0 58.0991 12.8401 746 66.4477 490.815 576.224
2573 0 61.0814 12.9499 791 66.019 490.876 574.866
2574 0 61.1683 12.5228 766 67.3159 491.067 575.158
2575 0 63.1662 13.0766 826 66.3874 490.868 573.743
2576 0 66.2142 14.0906 933 63.88 490.764 573.227
2577 0 67.1613 12.805 860 65.8581 490.206 571.708
2578 0 68.1233 13.6517 930 65.0688 490.359 571.26
2579 0 71.183 14.0764 1002 63.6018 490.512 569.776
2580 0 75.1544 13.1596 989 64.1911 490.133 569.259
2581 0 76.1565 13.0389 993 65.1057 490.375 567.779
2582 0 78.2307 13.5369 1059 63.5297 490.553 568.461
2583 0 80.2109 13.5518 1087 63.2695 490.541 566.31
2584 0 84.1033 13.2932 1118 62.9946 490.367 563.145
2585 1 41.0527 10.8154 444 65.8018 490.73 584.002
2586 0 44.0907 10.7733 475 65.0126 490.945 581.72
2587 0 47.0702 11.2173 528 64.2936 491.117 581.331
2588 0 47.0471 13.1783 620 62.079 491.081 579.221
2589 0 49.1324 13.1888 648 61.6867 490.986 579.606
2590 0 49.2021 11.9304 587 63.4821 491.162 579.271
2591 0 51.1509 12.5316 641 62.9641 491.232 578.334
2592 0 51.1509 12.6098 645 147.529 492.228 578.302
2593 0 54.0797 13.4616 728 61.8736 491.492 577.438
2594 0 55.1324 13.0776 721 62.3232 491.932 576.517
2595 0 57.1119 13.85 791 61.8938 491.81 574.826
2596 0 60.0745 13.4167 806 61.6638 491.98 575.148
2597 0 60.1075 12.9102 776 63.5773 492.095 573.343
2598 0 63.2224 14.362 908 61.4537 492.169 571.394
2599 0 65.1656 14.7777 963 60.7539 492.651 570.796
2600 0 64.0757 12.6881 813 64.9311 492.952 570.914
2601 0 68.1683 13.0999 893 64.6439 492.591 568.455
2602 0 70.0988 13.0673 916 64.3046 493.672 570.624
2603 0 71.1248 13.638 970 64.7887 493.428 567.574
2604 0 76.0774 13.6571 1039 64.1983 493.96 565.309
2605 0 80.1317 14.2141 1139 62.7691 493.857 563.687
2606 0 82.081 14.437 1185 63.0591 494.118 562.303
2607 0 85.2401 13.8902 1184 65.1698 494.028 560.899
2608 1 43.0617 10.334 445 68.5393 494.622 580.654
2609 0 47.0808 10.62 500 68.274 494.828 579.66
2610 0 48.118 11.6796 562 68.3932 494.511 576.95
2611 0 49.3157 12.5923 621 66.694 494.159 575.546
2612 0 53.3017 13.0202 694 65.1398 494.171 573.503
2613 0 54.1358 12.5425 679 66.9602 495.461 574.828
2614 0 56.0951 11.9618 671 68.2861 495.48 574.773
2615 0 56.1042 12.5124 702 68.2493 495.94 573.893
2616 0 58.0515 12.9885 754 67.321 495.74 574.027
2617 0 59.085 12.6259 746 68.9491 496.068 572.277
2618 0 61.2013 13.3657 818 67.5868 495.793 569.454
2619 0 66.066 13.1686 870 66.2494 495.732 570.995
2620 0 67.1159 11.8601 796 69.4158 496.22 568.955
2621 0 69.1404 12.7856 884 68.0803 496.055 566.59
2622 0 70.1784 12.9955 912 68.3728 496.156 563.94
2623 0 74.1636 14.2523 1057 66.0747 496.202 563.489
2624 0 75.1391 12.3371 927 69.7249 496.262 561.182
2625 0 79.294 13.7589 1091 66.6233 496.15 561.546
2626 1 39.1505 10.3702 406 70.1872 495.012 577.776
2627 0 42.0666 10.5785 445 67.1933 495.584 579.348
2628 0 43.0496 12.0559 519 66.8459 495.896 577.892
2629 0 46.0356 11.9907 552 65.3841 495.513 577.833
2630 0 47.1671 12.9327 610 64.6787 495.693 576.666
2631 0 47.1221 12.9026 608 65.051 495.612 576.817
2632 0 50.1006 12.5747 630 65.3048 495.441 576.824
2633 0 50.1253 12.748 639 66.0532 495.286 575.43
2634 0 53.069 12.9454 687 65.0975 495.527 574.956
2635 0 54.1009 13.6042 736 64.3519 495.939 574.567
2636 0 55.0365 13.3003 732 65.0628 496.093 573.049
2637 0 57.0376 14.1135 805 63.6137 495.681 573.943
2638 0 59.0819 13.9467 824 63.7112 495.459 571.998
2639 0 59.1056 13.2136 781 66.146 495.428 569.818
2640 0 62.1437 13.1952 820 65.2841 495.451 569.032
2641 0 63.1717 14.0886 890 64.2517 495.566 568.97
2642 0 66.0698 13.9852 924 64.4892 495.373 567.432
2643 0 67.1086 13.9475 936 65.0652 495.489 565.98
2644 0 71.106 15.0339 1069 62.6623 495.514 565.757
2645 0 70.076 13.0715 916 65.9618 494.876 564.87
2646 0 75.2688 13.5249 1018 64.7043 494.67 562.913
2647 0 76.1067 13.4285 1022 65.3063 494.679 560.897
2648 1 40.052 10.037 402 66.9403 495.035 578.701
2649 0 41.0795 10.3701 426 62.1948 494.695 580.573
2650 0 45.0479 11.1881 504 60.5258 495.119 579.534
2651 0 46.0082 11.3458 522 61.3889 494.617 577.715
2652 0 46.0546 11.0521 509 62.1375 494.206 576.703
2653 0 48.1505 12.3363 594 60.2256 493.498 576.588
2654 0 48.0779 12.6046 606 60.3482 493.503 576.18
2655 0 51.2174 13.0034 666 59.2973 493.548 574.799
2656 0 52.1869 12.2636 640 60.7672 493.605 573.764
2657 0 53.1365 12.8537 683 59.9092 493.527 572.857
2658 0 56.1919 12.92 726 58.8939 493.46 574.197
2659 0 56.1337 12.1317 681 60.4258 493.465 573.567
2660 0 59.2049 13.0057 770 59.5753 493.681 571.995
2661 0 60.104 12.5117 752 60.1343 493.765 570.947
2662 0 64.2094 12.8797 827 59.0314 493.644 569.851
2663 0 63.1427 12.6856 801 60.1523 493.64 569.039
2664 0 64.2574 12.2632 788 61.0317 493.77 568.341
2665 0 67.1808 12.2505 823 60.3609 493.763 567.909
2666 0 69.1809 12.8359 888 59.9752 493.694 565.395
2667 0 71.1539 12.1849 867 60.8616 493.519 565.084
2668 0 73.2082 12.9767 950 59.9579 493.776 562.696
2669 0 77.123 13.848 1068 58.9747 493.963 561.828
2670 0 80.1619 14.4957 1162 57.9148 494.104 560.266
2671 0 82.2836 13.0524 1074 59.5158 494.139 559.691
2672 0 87.4038 13.4205 1173 58.5899 493.475 557.842
2673 1 43.0901 10.6521 459 60.8453 494.094 577.405
2674 0 48.1594 12.0433 580 58.2845 494.291 577.941
2675 0 49.0839 12.0202 590 58.3661 493.705 577.266
2676 0 49.1406 12.7593 627 58.2759 493.581 575.799
2677 0 50.1059 12.5933 631 58.9239 493.918 575.474
2678 0 53.1477 12.3994 659 58.8392 493.976 574.801
2679 0 53.1357 12.628 671 59.1088 493.812 573.796
2680 0 57.1478 12.1264 693 59.2828 493.684 574.097
2681 0 57.1366 13.1614 752 58.1316 493.475 573.574
2682 0 60.0549 14.0538 844 56.8377 494.679 572.703
2683 0 59.0918 13.0136 769 59.3823 494.43 569.449
2684 0 63.1424 13.0024 821 58.7856 494.094 569.636
2685 0 65.0978 12.9344 842 59.3219 494.017 568.753
2686 0 69.1357 13.6254 942 58.1338 493.896 568.684
2687 0 71.1302 13.2714 944 58.3983 493.812 567.867
2688 0 73.0821 13.4643 984 58.2449 493.278 566.61
2689 0 75.111 13.7929 1036 57.8253 493.039 565.888
2690 0 78.0426 13.9539 1089 57.6208 492.969 563.881
2691 0 79.0715 14.0759 1113 57.894 493.238 562.783
2692 0 83.0911 13.1663 1094 58.1673 493.227 563.091
2693 0 84.0871 13.4979 1135 58.4097 492.856 561.093
2694 0 88.2022 13.0042 1147 59.0846 492.848 558.419
2695 0 91.0309 13.5998 1238 57.4782 493.422 557.187
2696 1 51.0858 11.1773 571 58.2102 493.238 579.83
2697 0 53.0718 12.1157 643 57.3686 492.83 577.236
2698 0 54.0714 12.1876 659 57.8103 492.451 576.419
2699 0 55.12 12.3911 683 58.1171 492.24 574.971
2700 0 59.1143 12.8226 758 57.1385 492.927 574.193
2701 0 59.0568 12.7504 753 57.6096 492.788 573.555
2702 0 60.0824 13.3151 800 57.1013 492.673 572.655
2703 0 63.1441 11.1333 703 59.3741 492.629 571.966
2704 0 65.079 13.4606 876 56.7922 493.039 571.646
2705 0 68.0971 12.8052 872 57.414 492.532 571.304
2706 0 73.1461 14.2728 1044 55.5632 492.333 568.895
2707 0 72.1759 12.8852 930 57.9151 492.131 567.354
2708 0 76.2001 13.1102 999 57.5986 492.404 567.438
2709 0 77.1375 13.1324 1013 58.3406 491.774 565.441
2710 0 80.264 13.4805 1082 57.6479 491.814 566.168
2711 0 81.1494 13.7401 1115 57.9256 492.17 565.021
2712 0 83.2741 13.7258 1143 58.1251 491.831 564.059
2713 0 87.2363 13.8704 1210 58.3116 491.788 561.202
2714 0 89.1401 14.2921 1274 58.2504 491.79 560.961
2715 0 95.2288 13.5673 1292 58.4172 491.614 559.498
2716 0 95.1261 14.1496 1346 57.445 491.66 556.127
2717 0 96.1451 13.0324 1253 59.3344 491.686 555.195
2718 0 102.195 12.985 1327 58.9842 491.497 555.214
2719 0 105.368 14.3402 1511 57.3408 491.872 554.638
2720 0 109.139 13.0843 1428 59.4776 491.62 551.897
2721 1 57.0202 10.4174 594 59.8838 492.564 578.364
2722 0 61.0445 10.6971 653 59.7871 492.904 576.101
2723 0 62.0323 11.897 738 58.8184 492.558 574.388
2724 0 63.0817 10.6211 670 60.5478 493.046 573.41
2725 0 64.1103 11.9326 765 58.0928 491.638 572.769
2726 0 69.1866 13.0228 901 56.6626 492.128 570.499
2727 0 70.1063 12.4953 876 57.3836 492.134 570.007
2728 0 71.1546 11.5242 820 58.9024 492.294 569.926
2729 0 73.1761 12.1898 892 57.9361 492.565 567.507
2730 0 77.2864 12.1496 939 57.8285 492.513 567.119
2731 0 79.1683 12.4166 983 57.8596 492.533 565.025
