time division length width area intensity CMx CMy
0 0 55.1359 14.9993 827 117.66 664.572 479.908
1 0 54.124 14.1897 768 120.977 663.665 481.31
2 0 55.1263 13.6958 755 123.633 664.687 479.674
3 0 58.1202 14.384 836 119.324 664.776 480.153
4 0 57.1616 13.3656 764 121.904 664.839 477.458
5 0 61.2289 15.3032 937 114.502 665.168 479.157
6 0 62.1709 15.2 945 115.291 665.001 475.721
7 0 61.1232 14.5444 889 118.276 664.666 475.996
8 0 64.2095 14.4527 928 117.177 665.16 474.639
9 0 64.2079 14.7645 948 118.142 664.939 474.226
10 0 67.1845 15.4351 1037 114.437 664.932 473.128
11 0 68.2548 14.4898 989 117.201 664.839 473.332
12 0 72.1497 14.8026 1068 116.133 665.644 472.317
13 0 71.1488 13.7318 977 118.831 664.211 470.899
14 0 74.2649 14.6637 1089 117.264 663.914 468.302
15 0 76.2762 13.438 1025 120.425 663.746 468.359
16 1 41.0736 11.029 453 121.055 663.808 486.068
17 0 44.0754 12.6828 559 114.819 663.708 486.156
18 0 46.071 12.5676 579 114.366 663.195 486.178
19 0 44.087 12.2939 542 118.871 663.919 485.343
20 0 48.0427 13.488 648 113.037 662.949 485.647
21 0 48.0643 14.9175 717 113.264 663.307 483.269
22 0 49.0465 13.946 684 115.751 663.421 483.642
23 0 49.0885 14.0562 690 116.674 664.754 482.923
24 0 51.1231 15.1595 775 114.213 665.124 481.071
25 0 52.1332 14.2328 742 117.712 665.328 480.301
26 0 53.1966 14.0046 745 119.458 666.365 481.152
27 0 55.0881 14.5585 802 118.4 666.584 479.867
28 0 57.078 13.7882 787 120.227 666.205 479.254
29 0 58.2784 14.1219 823 119.185 665.989 477.221
30 0 59.2472 15.6463 927 115.27 665.909 476.546
31 0 59.2398 15.5976 924 116.889 665.959 474.515
32 0 60.284 13.9672 842 120.165 666.233 475.349
33 0 65.2479 15.0196 980 115.792 666.961 474.089
34 0 66.1567 15.2063 1006 115.28 668.088 472.554
35 0 67.1239 14.5552 977 117.68 667.472 472.295
36 0 69.133 15.651 1082 115.179 667.274 471.63
37 0 70.0954 14.4375 1012 120.519 668.142 469.292
38 0 74.076 14.9441 1107 117.841 668.312 470.016
39 0 77.0771 17.1127 1319 112.146 667.606 467.91
40 0 80.2756 15.0108 1205 117.688 668.69 468.158
41 0 83.1132 15.4608 1285 116.904 669.058 465.042
42 0 83.2245 14.6591 1220 120.349 668.893 464.147
43 0 85.2206 14.4801 1234 120.211 668.808 462.818
44 0 89.1197 15.6419 1394 117.057 668.724 462.42
45 0 93.1625 15.532 1447 117.028 669.335 460.427
46 1 49.1561 14.1996 698 115.822 669.516 483.301
47 0 49.0201 12.3215 604 121.061 669.594 483.348
48 0 50.0483 14.6059 731 116.75 669.365 482.513
49 0 51.0602 13.6897 699 118.119 668.841 482.539
50 0 54.1037 14.657 793 115.59 669.459 481.849
51 0 55.125 15.093 832 113.76 669.232 481.298
52 0 56.0344 15.8474 888 113.082 669.452 480.242
53 0 56.0501 13.256 743 118.521 669.038 480.05
54 0 61.0818 14.8326 906 113.935 668.67 477.868
55 0 62.1429 14.9494 929 113.932 668.997 476.731
56 0 65.1304 14.9239 972 114.186 668.464 476.834
57 0 67.067 14.5824 978 115.169 668.697 473.789
58 0 70.1206 14.7032 1031 116.414 668.592 472.528
59 0 71.0576 15.1145 1074 116.602 668.708 471.53
60 0 74.0787 15.9425 1181 114.579 668.787 470.29
61 0 76.0534 14.5556 1107 117.941 668.738 470.323
62 0 80.152 15.9821 1281 112.727 668.75 468.615
63 0 82.0804 16.1549 1326 113.976 669.318 465.956
64 0 84.1487 15.5558 1309 115.638 670.005 467.42
65 0 87.1298 16.6074 1447 114.243 669.666 462.942
66 0 89.1707 16.1937 1444 112.868 670.112 464.602
67 1 49.0407 13.9476 684 113.373 670.649 483.547
68 0 51.1198 14.3389 733 111.525 670.652 481.599
69 0 52.1513 14.5155 757 111.518 671.174 480.716
70 0 54.0648 13.0399 705 114.06 669.59 481.118
71 0 56.1102 15.0062 842 110.735 670.779 479.214
72 0 59.184 14.3113 847 111.216 670.692 480.116
73 0 59.2027 13.3271 789 113.409 668.861 478.455
74 0 62.1821 13.3318 829 112.982 669.831 477.776
75 0 64.0886 14.6984 942 110.58 670.021 476.011
76 0 67.2074 14.4032 968 111.638 669.616 474.123
77 0 68.1956 13.8865 947 112.91 669.718 472.786
78 0 71.089 14.4045 1024 110.816 670.12 472.736
79 0 75.1112 14.3254 1076 111.365 670.013 471.091
80 0 77.137 14.04 1083 112.579 670.066 470.281
81 0 82.1089 15.8813 1304 107.62 670.615 467.952
82 0 83.2512 14.174 1180 111.664 670.585 467.084
83 0 87.2128 14.1034 1230 111.641 670.366 466.066
84 0 89.3119 13.6376 1218 113.545 670.708 465.03
85 1 50.1216 12.749 639 109.764 671.012 484.108
86 0 51.0912 11.274 576 112.059 671.096 485.427
87 0 54.2398 11.486 623 112.722 671.002 483.618
88 0 54.0293 13.6222 736 110.489 671.208 481.234
89 0 56.0565 13.3258 747 110.173 670.277 480.379
90 0 56.052 12.7025 712 112.684 670.501 478.749
91 0 56.1354 12.3273 692 112.156 670.29 480.357
92 0 61.0288 13.8132 843 108.732 670.668 478.121
93 0 62.0196 12.7057 788 111.47 670.766 478.202
94 0 64.1511 12.8603 825 112.971 670.982 475.696
95 0 66.0552 12.3836 818 114.397 670.823 474.79
96 0 69.0492 13.4397 928 111.916 671.372 474.589
97 0 73.2085 14.4382 1057 108.344 671.542 474.414
98 0 73.2924 13.9851 1025 110.378 672.872 472.941
99 0 76.4039 13.4679 1029 112.511 671.918 471.295
100 0 78.2115 14.269 1116 113.165 671.179 468.854
101 0 81.1024 15.351 1245 110.807 671.616 469.623
102 0 83.1356 13.9772 1162 114.604 671.849 468.178
103 0 87.1562 14.8125 1291 112.979 671.423 467.939
104 0 89.143 14.5048 1293 115.715 671.493 464.456
105 0 91.2085 14.9328 1362 115.538 672.167 463.641
106 0 95.2739 14.0647 1340 117.696 671.984 464.278
107 0 99.1724 13.8345 1372 119.343 672.077 459.651
108 0 103.199 15.2812 1577 116.601 672.736 458.146
109 0 106.215 13.7456 1460 119.755 672.666 457.779
110 0 108.119 14.521 1570 120.182 672.923 456.497
111 0 113.148 14.3617 1625 120.329 672.657 456.239
112 1 49.0402 12.2145 599 115.628 673.456 485.354
113 0 51.0638 12.6313 645 115.4 672.775 484.091
114 0 52.0505 11.7578 612 117.861 672.064 483.673
115 0 54.2463 13.0885 710 114.966 671.541 484.203
116 0 58.0915 13.3066 773 113.053 671.475 484.321
117 0 57.0981 13.3454 762 114.642 671.483 482.657
118 0 59.1107 12.4681 737 117.469 671.845 481.213
119 0 61.1374 12.7254 778 115.6 670.38 480.929
120 0 62.1454 12.1167 753 116.981 670.619 479.594
121 0 64.1766 12.0761 775 118.01 670.146 476.492
122 0 68.1624 13.0277 888 113.542 670.116 476.608
123 0 70.148 13.0296 914 113.869 669.658 474.299
124 0 74.181 12.0246 892 115.558 670.128 473.05
125 1 38.0428 10.6459 405 108.314 671.005 491.684
126 0 38.0143 10.6539 405 112.262 670.793 488.778
127 0 41.0312 11.5522 474 108.283 670.736 489.418
128 0 41.0204 12.1159 497 108.602 670.04 488.781
129 0 42.1889 11.4485 483 110.128 670.153 488.327
130 0 44.1562 12.5917 556 108.119 670.732 486.502
131 0 45.2515 12.4195 562 110.468 671.47 484.993
132 0 46.1201 12.4241 573 110.728 671.756 485.562
133 0 45.2377 10.9422 495 114.754 670.681 485.04
134 0 48.2343 12.1283 585 110.701 671.426 484.501
135 0 48.2657 12.2862 593 110.445 672.452 484.728
136 0 51.1517 12.805 655 108.792 671.922 482.925
137 0 50.1198 11.4526 574 112.503 672.014 484.153
138 0 53.1566 12.0775 642 110.998 671.676 483.31
139 0 55.2143 12.8952 712 109.037 672.278 482.492
140 0 58.1545 13.103 762 108.467 672.383 481.274
141 0 58.2919 14.4274 841 104.964 672.204 482.395
142 0 60.2874 12.6892 765 109.403 672.077 480.643
143 0 61.185 12.9117 790 109.413 672.51 479.943
144 0 62.1281 12.764 793 110.105 671.778 480.421
145 0 65.1021 12.4266 809 111.985 671.363 478.761
146 0 67.1561 11.6445 782 112.561 671.252 477.857
147 0 67.3287 12.0899 814 113.152 671.093 476.993
148 0 72.3176 12.7632 923 111.267 669.978 475.194
149 0 74.1789 12.9956 964 111.906 669.445 474.396
150 0 78.135 13.4639 1052 111.138 669.604 472.224
151 0 80.2098 13.7016 1099 111.552 669.406 471.199
152 1 42.2162 11.9385 504 107.288 669.716 490.371
153 0 44.2212 10.7641 476 109.223 669.336 490.908
154 0 46.1463 12.5687 580 107.034 669.395 487.571
155 0 46.1449 12.1357 560 109.891 669.479 487.695
156 0 47.1416 11.9003 561 111.465 669.668 486.266
157 0 47.1521 12.1522 573 111.092 669.785 486.747
158 0 48.1467 12.8773 620 112.985 669.727 483.563
159 0 51.2283 11.6147 595 114.165 670.289 483.523
160 0 50.2397 9.85277 495 118.838 670.002 480.04
161 0 53.2278 12.2492 652 111.695 669.825 482.801
162 0 54.1456 11.9493 647 114.403 670.338 481.906
163 0 57.1972 12.8503 735 112.586 670.475 480.781
164 0 59.2688 13.4472 797 111.01 670.975 480.546
165 0 59.5961 13.2895 792 112.145 671.179 479.957
166 0 63.0428 13.9112 877 110.615 670.926 478.949
167 0 63.0963 13.8835 876 112.073 671.832 477.594
168 0 66.1459 15.1483 1002 109.276 671.378 477.628
169 0 70.0342 13.9789 979 109.788 671.183 478.98
170 0 70.0695 13.6579 957 113.079 671.747 475.909
171 0 72.0883 14.1909 1023 112.708 672.014 474.898
172 0 74.0749 12.6224 935 116.987 671.344 474.928
173 1 40.0426 10.8135 433 115.952 671.129 491.707
174 0 40.0437 11.4125 457 116.096 670.974 490.904
175 0 42.0296 11.6347 489 116.266 671.137 489.932
176 0 43.0583 12.5179 539 114.712 670.772 491.199
177 0 45.0356 12.8121 577 115.075 670.718 490.426
178 0 49.1447 13.0635 642 114.033 670.436 489.288
179 0 46.0713 13.4574 620 116.447 670.102 488.89
180 0 47.2479 12.4662 589 120.569 669.277 487.333
181 0 53.0777 13.7534 730 115.001 669.186 487.679
182 0 53.2807 15.0523 802 113.761 669.355 485.358
183 0 52.109 13.1263 684 120.671 669.33 484.738
184 0 53.1077 13.1808 700 119.909 669.081 484.813
185 0 55.1553 13.471 743 118.355 669.242 483.74
186 0 56.1652 12.8727 723 120.332 668.874 483.36
187 0 58.0762 12.8969 749 120.585 669.083 481.433
188 0 62.0885 13.7868 856 117.613 668.658 481.861
189 0 64.1436 14.8417 952 116.34 668.621 479.575
190 0 65.1261 13.1437 856 119.772 668.341 478.546
191 0 66.1685 13.7679 911 118.987 668.294 478.472
192 0 69.156 12.9707 897 120.239 668.639 477.143
193 0 69.2022 11.9216 825 123.404 668.379 474.861
194 1 36.0848 11.8332 427 115.377 669.117 492.333
195 0 37.1628 12.378 460 117.009 669.244 489.939
196 0 40.1299 12.5343 503 114.726 669.912 489.71
197 0 39.2012 11.8874 466 117.73 669.749 489.987
198 0 42.1705 12.8763 543 114.564 670.175 489.414
199 0 43.0897 13.089 564 115.043 670.881 488.569
200 0 45.1133 12.3245 556 115.574 670.254 488.691
201 0 45.2219 12.6266 571 115.907 670.569 488.501
202 0 47.1632 13.7395 648 113.403 669.941 487.741
203 0 48.0513 12.1953 586 117.224 670.09 485.833
204 0 51.2152 14.0193 718 112.78 669.54 487.432
205 0 53.0444 13.5547 719 113.89 670.044 486.206
206 0 55.0561 13.35 735 114.422 669.654 485.899
207 0 56.1711 13.6547 767 114.438 670.524 485.785
208 0 57.1955 11.8366 677 119.229 669.73 484.131
209 0 59.1448 14.7773 874 113.534 669.161 481.754
210 0 62.0484 13.1349 815 117.8 669.575 482.341
211 0 64.0587 14.8301 950 114.796 669.778 480.421
212 0 67.0829 13.4908 905 118.625 669.223 480.748
213 0 68.1021 13.7588 937 119.864 669.158 479.96
214 1 34.0194 12.3165 419 117.936 669.575 494.95
215 0 36.0641 12.0341 434 117.553 669.654 494.484
216 0 37.0381 12.7166 471 118.953 668.836 493.408
217 0 37.0686 12.5983 467 121.103 668.54 492.236
218 0 39.0471 12.7026 496 120.665 668.492 493.458
219 0 41.0982 13.6989 563 118.467 668.538 491.57
220 0 41.131 12.3508 508 122.75 668.506 492.203
221 0 42.2777 12.7727 540 120.715 668.5 492.059
222 0 43.2234 12.9791 561 122.089 668.446 489.934
223 0 45.1338 14.8669 671 117.49 668.455 489.297
224 0 46.1009 13.5138 623 121.202 667.864 489.092
225 0 46.0448 13.1176 604 123.136 667.709 488.31
226 0 46.0935 13.8414 638 121.45 668.528 488.143
227 0 47.0398 13.8393 651 122.737 668.673 485.57
228 0 49.0988 14.2162 698 121.387 668.914 486.234
229 0 51.1759 13.5415 693 123.153 669.257 485.635
230 0 52.098 14.3959 750 119.252 669.532 485.816
231 0 53.1087 13.3312 708 123.377 669.58 483.302
232 0 56.0504 15.0044 841 118.096 669.616 482.333
233 0 57.0694 13.7552 785 119.139 670.222 482.232
234 0 57.05 12.638 721 123.29 669.881 481.811
235 0 63.1172 13.768 869 119.73 670.184 480.405
236 0 64.0628 14.6731 940 119.291 670.067 479.127
237 0 66.1096 14.4608 956 119.691 669.892 479.574
238 0 69.1373 13.7842 953 121.481 670.837 478.864
239 1 37.0475 11.1208 412 122.129 670.92 493.32
240 0 40.0376 13.0378 522 119.423 671.172 491.697
241 0 39.0647 10.7514 420 123.95 670.495 493.414
242 0 42.0833 12.9743 546 120.181 669.905 491.751
243 0 43.131 11.7549 507 122.116 669.617 492.509
244 0 43.1056 12.9217 557 121.528 669.882 490.481
245 0 45.0253 12.4819 562 120.916 669.721 490.655
246 0 47.0314 14.9262 702 116.058 669.504 489.044
247 0 48.0339 13.4696 647 119.522 669.445 489.533
248 0 49.0549 13.2912 652 119.192 669.402 489.684
249 0 50.0576 13.1848 660 120.323 668.456 487.495
250 0 53.0355 13.2364 702 118.232 668.261 486.896
251 0 53.0408 12.6695 672 120.351 667.752 485.271
252 0 56.1678 14.4923 814 116.799 668.523 484.565
253 0 58.0874 15.0463 874 116.246 668.267 483.279
254 0 57.1065 12.608 720 122.888 668.543 482.028
255 0 61.1263 13.4148 820 120.624 668.299 482.33
256 0 64.1793 13.9921 898 119.194 669.017 480.435
257 0 63.0544 13.7025 864 122.933 668.47 477.774
258 0 67.0868 13.6092 913 122.693 668.2 478.771
259 0 70.117 13.2778 931 121.956 668.865 478.072
260 0 72.0714 14.8048 1067 119.617 669.517 475.924
261 0 75.069 13.2545 995 124.248 669.187 473.72
262 0 77.1148 13.4993 1041 125.844 669.292 471.911
263 0 79.1531 13.3412 1056 125.884 670.587 471.993
264 1 45.0765 13.2442 597 118.591 670.677 489.985
265 0 45.1256 14.0275 633 117.591 671.329 488.201
266 0 47.1012 13.1419 619 120.535 671.189 488.441
267 0 47.0709 12.4281 585 123.058 671.347 487.961
268 0 50.1379 12.9842 651 121.326 671.673 487.464
269 0 52.1584 12.9414 675 120.379 672.082 489.068
270 0 54.085 13.4233 726 121.986 671.836 487.351
271 0 53.0923 13.0716 694 123.896 671.183 487.235
272 0 55.1824 12.7215 702 124.712 671.456 487.537
273 0 59.2348 13.1342 778 123.023 671.189 486.55
274 0 59.1355 13.9341 824 123.322 671.181 484.513
275 0 62.0489 13.6666 848 123.478 671.432 484.894
276 0 63.1918 13.0238 823 124.481 670.636 485.42
277 0 65.1534 14.228 927 123.796 670.471 481.488
278 0 66.1596 13.1803 872 124.877 669.961 481.412
279 0 70.1074 12.2526 859 125.555 669.163 481.776
280 0 75.1926 14.7355 1108 119.61 668.502 479.14
281 0 74.0846 12.7962 948 125.361 668.544 476.738
282 1 40.0492 12.5845 504 118.865 668.385 493.153
283 0 43.1262 12.6837 547 116.574 668.28 492.898
284 0 44.0807 14.1332 623 114.348 667.981 492.624
285 0 42.1807 11.9723 505 120.628 667.719 491.945
286 0 46.0926 13.538 624 115.862 666.691 488.627
287 0 45.1308 11.9652 540 120.241 667.628 487.406
288 0 47.1652 11.9368 563 118.76 667.654 487.972
289 0 49.2388 14.4804 713 112.485 667.822 486.166
290 0 50.1383 12.7846 641 114.499 668.342 486.833
291 0 49.1423 12.3315 606 116.607 668.332 483.693
292 0 52.0857 13.8618 722 111.378 668.536 484.554
293 0 54.1381 12.5605 680 114.693 668.666 480.89
294 0 56.2297 13.0892 736 111.855 669.221 480.361
295 0 60.3021 13.6645 824 109.547 669.756 480.922
296 0 60.1497 11.9036 716 112.499 670.64 478.951
297 0 64.1642 12.9667 832 110.752 671.174 477.816
298 0 67.1306 13.943 936 108.83 670.812 476.238
299 0 67.1077 13.3368 895 111.204 671.546 476.959
300 0 70.0546 13.1897 924 110.716 672.581 476.428
301 0 74.153 13.3508 990 110.642 672.112 477.24
302 0 78.0771 14.7674 1153 107.461 671.918 475.029
303 1 43.0796 12.3956 534 107.642 671.803 492.449
304 0 44.0612 12.2103 538 108.864 671.472 491.526
305 0 46.0577 12.8752 593 108.695 670.882 491.541
306 0 49.0826 12.3669 607 107.382 670.636 494.124
307 0 49.0462 12.0703 592 110.679 670.623 490.485
308 0 51.1233 11.619 594 111.234 670.657 490.359
309 0 51.276 11.5844 594 114.086 670.192 487.126
310 0 54.157 12.5191 678 111.308 669.478 487.621
311 0 56.1599 12.1617 683 112.29 669.404 485.3
312 0 59.1349 12.2939 727 111.999 668.93 485.736
313 0 60.0813 12.816 770 111.361 668.574 483.684
314 0 62.1707 13.5434 842 110.562 668.843 481.489
315 0 66.1449 13.6519 903 109.588 667.909 479.466
316 0 68.158 12.9552 883 111.499 667.279 479.884
317 0 69.0561 11.773 813 115.358 666.936 477.129
318 0 73.2024 12.7045 930 112.581 666.894 477.048
319 1 36.0205 11.5212 415 109.33 666.429 492.407
320 0 39.0964 10.5636 413 110.678 667.196 491.86
321 0 40.0371 11.2646 451 110.191 667.956 491.741
322 0 41.1263 12.7656 525 106.869 668.543 490.714
323 0 43.1272 13.2863 573 106.485 668.796 488.745
324 0 44.099 12.4039 547 109.276 669.581 490.186
325 0 46.0744 12.3062 567 108.792 670.427 489.654
326 0 47.0909 11.9768 564 112.42 670.993 487.895
327 0 48.1322 12.2164 588 111.41 671.497 488.262
328 0 49.2053 12.4986 615 113.052 671.267 483.94
329 0 51.2569 11.9008 610 113.911 670.021 485.449
330 0 54.1515 12.4096 672 111.551 670.871 485.631
331 0 54.0817 11.9264 645 113.814 671.059 486.498
332 0 57.3032 13.8736 795 109.786 671.406 485.346
333 0 59.2173 12.1586 720 113.944 670.788 484.91
334 0 62.1129 12.7349 791 113.339 671.535 483.729
335 0 63.2014 11.0599 699 118.345 670.84 481.818
336 0 65.3274 11.0826 724 117.948 671.279 482.222
337 0 69.2719 13.05 904 114.137 671.461 482.036
338 0 73.2275 13.342 977 113.832 671.613 481.003
339 1 38.1846 12.5967 481 110.019 671.378 495.958
340 0 39.1036 11.4567 448 112.9 671.491 495.125
341 0 42.1394 11.2247 473 112.725 669.92 495.744
342 0 41.0563 11.7156 481 114.661 668.967 493.815
343 0 43.1576 12.2111 527 113.985 667.742 492.076
344 0 44.1157 11.5832 511 115.372 667.695 491.9
345 0 48.1542 13.6852 659 108.907 667.495 491.897
346 0 47.2791 12.881 609 113.803 667.369 488.81
347 0 49.1179 13.0502 641 113.24 666.924 487.401
348 0 51.163 12.5677 643 113.351 667.778 487.927
349 0 51.2287 12.1611 623 115.645 667.05 486.607
350 0 55.1935 14.0053 773 110.481 667.774 485.88
351 0 56.144 12.3967 696 114.842 667.24 483.371
352 0 57.1477 12.8614 735 115.318 667.084 480.888
353 0 59.2721 13.1934 782 113.644 667.459 480.027
354 0 61.1257 12.4988 764 115.644 667.073 478.23
355 0 64.0942 11.9824 768 113.767 667.616 480.977
356 0 65.25 12.8582 839 113.908 668.495 476.912
357 0 68.286 13.1359 897 113.404 669.48 474.901
358 0 70.218 12.4185 872 113.483 669.722 475.35
359 0 72.2749 12.0512 871 115.064 670.642 473.46
360 1 38.3271 11.9237 457 108.363 671.134 491.037
361 0 40.1066 11.3697 456 109.904 672.149 490.406
362 0 41.2235 12.6384 521 109.019 672.363 490.447
363 0 43.1343 11.8931 513 110.973 672.427 490.895
364 0 45.0467 11.8988 536 111.694 672.601 489.41
365 0 47.0526 12.7729 601 110.291 672.146 490.98
366 0 48.1511 9.92709 478 116.218 671.699 491.391
367 0 51.2272 13.5865 696 109.295 672.052 488.892
368 0 51.2553 12.467 639 114.588 671.543 489.479
369 0 54.2884 12.7283 691 114.25 671.187 489.049
370 0 55.3006 13.074 723 114.755 670.73 486.787
371 0 57.2109 12.5326 717 116.735 670.187 487.229
372 0 59.2936 11.8731 704 118.166 669.641 488.074
373 0 61.3753 12.1547 746 119.65 670.047 484.469
374 0 63.4473 13.8855 881 115.236 669.069 484.587
375 0 66.2952 14.1941 941 116.838 668.213 482.218
376 0 68.3355 14.0044 957 118.241 667.184 480.556
377 0 68.4585 13.1028 897 120.367 667.237 478.531
378 0 71.3615 12.2755 876 122.353 666.256 477.425
379 0 76.4456 13.1858 1008 119.157 666.112 474.89
380 0 77.6234 13.4109 1041 120.065 666.249 474.114
381 0 81.3246 13.6736 1112 118.529 666.167 472.444
382 0 83.4845 13.1162 1095 120.644 666.707 468.3
383 0 87.4021 14.2788 1248 116.393 667.053 467.093
384 0 88.3159 11.9005 1051 122.107 667.424 467.082
385 0 94.3964 14.1107 1332 115.784 667.701 465.797
386 1 48.2636 11.2507 543 115.895 667.783 486.427
387 0 50.1827 11.5578 580 114.797 668.652 486.419
388 0 51.1779 11.6457 596 114.834 670.062 485.216
389 0 54.2795 12.8041 695 111.433 670.645 483.226
390 0 55.2185 13.7273 758 110.394 670.991 483.342
391 0 55.2303 13.1631 727 112.911 671.082 483.111
392 0 58.2714 13.7632 802 109.954 672.035 482.833
393 0 60.1972 13.3561 804 111.56 672.117 480.66
394 0 63.2093 13.8587 876 110.323 672.368 480.975
395 0 64.1105 14.8962 955 109.139 672.321 481.471
396 0 66.2667 12.6006 835 114.296 672.31 481.17
397 0 69.3768 13.3618 927 112.96 671.496 480.786
398 0 70.4378 14.1117 994 112.184 671.261 480.582
399 0 73.36 14.0131 1028 113.209 671.249 478.102
400 0 77.313 13.8657 1072 113.042 670.789 477.874
401 0 79.1675 13.1114 1038 114.372 669.617 477.055
402 0 81.436 13.5567 1104 114.771 668.813 473.557
403 0 85.1746 13.983 1191 113.505 669.383 472.814
404 1 44.1127 11.1986 494 112.093 668.986 493.603
405 0 45.1344 11.1888 505 114.657 667.901 491.366
406 0 49.1019 11.8733 583 112.938 667.808 489.926
407 0 47.1943 12.6922 599 114.063 666.958 487.78
408 0 49.0978 12.8723 632 114.304 666.66 487.701
409 0 51.1435 13.8043 706 112.442 666.642 485.749
410 0 52.1031 12.6096 657 116.033 666.735 483.979
411 0 54.1041 13.5849 735 115.268 666.231 483.513
412 0 56.0814 13.7479 771 114.065 666.332 481.792
413 0 58.122 14.418 838 110.942 666.829 481.348
414 0 61.0605 13.7241 838 113.012 667.369 479.405
415 0 61.1146 13.4338 821 114.365 668.278 477.946
416 0 63.1563 12.9678 819 115.692 668.752 477.564
417 0 67.1566 13.0888 879 114.072 669.284 475.965
418 0 68.1133 12.949 882 114.217 670.169 476.383
419 0 71.0823 14.6731 1043 111.769 670.892 473.804
420 0 74.1463 12.5967 934 115.652 671.676 472.893
421 0 76.2184 13.4088 1022 115.575 672.423 472.257
422 1 40.1263 12.1616 488 109.359 673.033 491.549
423 0 41.0556 11.4235 469 112.789 673.241 491.67
424 0 43.1072 12.5733 542 110.976 672.832 491.393
425 0 42.1555 12.2167 515 113.474 673.262 492.705
426 0 45.1846 11.619 525 113.356 673.213 492.448
427 0 46.2131 11.9447 552 112.703 673.047 493.293
428 0 48.115 12.9897 625 112.427 671.981 492.408
429 0 50.125 13.2269 663 111.721 672.023 491.069
430 0 52.1025 13.8957 724 110.93 671.93 491.032
431 0 52.1879 11.6502 608 115.747 671.074 491.834
432 0 53.0887 12.7711 678 115.254 670.351 489.583
433 0 58.1253 13.0064 756 112.614 669.839 489.417
434 0 58.1819 12.7187 740 115.876 669.004 486.765
435 0 59.187 14.2261 842 114.559 667.967 485.487
436 0 62.1379 12.3918 770 118.096 667.953 483.152
437 0 62.0895 13.4967 838 116.995 667.588 482.605
438 0 65.106 12.9174 841 118.473 667.329 481.338
439 0 66.2857 12.431 824 121.398 666.842 479.123
440 0 67.2524 12.9958 874 121.212 666.7 478.664
441 0 67.3183 12.8494 865 121.314 666.925 479.109
442 0 68.332 14.41 3175 130.682 666.181 408.176
443 0 69.158 15.4259 3427 131.31 665.865 402.142
444 0 70.499 13.3461 1408 130.403 667.302 457.896
445 0 71.455 14.4339 1551 128.727 668.09 457.361
446 0 73.307 14.7182 3375 137.47 667.522 399.519
447 0 75.006 14.5407 3359 139.018 669.222 399.878
448 0 77.119 14.3961 3356 139.96 670.007 403.663
449 0 79.906 15.8062 3792 138.425 670.884 401.199
450 0 82.409 16.7312 4106 135.613 672.279 401.836
451 0 85.917 16.2866 4054 138.263 672.634 397.642
452 0 88.817 16.0272 4084 138.148 673.339 400.476
453 0 91.385 26.3626 10397 108.95 672.666 315.268
454 0 95.834 11.6686 3662 144.881 673.074 392.908
455 0 98.677 14.097 4436 127.36 672.6 380.614
456 1 46.3802 13.4324 623 113.063 672.705 493.093
457 0 48.3664 12.0952 585 116.656 672.244 492.374
458 0 48.1546 11.0893 534 119.217 672.487 492.316
459 0 53.2537 13.5765 723 114.332 672.127 491.725
460 0 54.3337 12.7361 692 116.072 671.632 492.497
461 0 55.1008 12.341 680 118.724 670.594 490.722
462 0 58.1581 13.4977 785 117.786 669.682 489.274
463 1 27.0597 11.1235 301 121.787 669.346 502.146
464 0 32.2325 12.627 407 118.302 668.958 499.582
465 0 33.0272 13.2618 438 119.909 667.959 498.162
466 0 32.0789 12.7498 409 125.306 667.496 496.474
467 0 33.1445 13.3657 443 125.758 667.327 495.499
468 0 33.0427 12.3779 409 130.809 667.868 494.156
469 0 36.0286 12.8509 463 128.289 667.529 493.251
470 0 37.1228 13.8729 515 127.965 666.633 492.006
471 0 39.1146 13.8567 542 128.111 666.758 491.362
472 0 37.1551 12.9188 480 135.642 666.925 489.731
473 0 39.1788 14.2169 557 132.063 666.846 488.282
474 0 41.0856 13.4597 553 132.515 667.628 487.55
475 0 43.1102 14.4513 623 129.669 668.421 487.485
476 0 42.0953 14.2534 600 131.17 668.743 487.732
477 0 44.0624 12.8681 567 133.873 670.381 487.136
478 0 46.1984 14.481 669 125.901 671.634 486.3
479 0 48.2007 14.5849 703 124.878 673.12 486.464
480 0 48.2767 14.2512 688 127.353 673.663 486.936
481 0 51.2004 13.5741 695 128.204 674.111 486.724
482 0 53.1404 14.17 753 127.092 674.623 486.679
483 0 56.1351 14.6789 824 125.579 674.843 484.489
484 0 59.2523 15.6112 925 120.463 675.107 485.738
485 0 59.1906 13.7184 812 126.424 674.365 484.697
486 0 62.129 13.3593 830 125.912 674.066 483.996
487 1 36.1242 13.3152 481 117.108 673.185 499.703
488 0 39.0843 13.8931 543 118.087 672.711 497.639
489 0 40.0319 13.5392 542 117.714 672.033 498.351
490 0 41.0567 13.9563 573 118.433 671.442 497.272
491 0 43.0772 13.5803 585 119.86 670.395 495.841
492 0 42.0925 12.52 527 123.708 669.634 494.757
493 0 43.1085 13.3152 574 122.618 668.643 493.584
494 0 46.0484 12.7909 589 121.307 667.903 492.555
495 0 49.1026 12.4026 609 122.604 667.665 491.102
496 0 49.0541 13.9438 684 120.389 666.797 489.096
497 0 50.1705 14.3112 718 121.794 666.086 485.611
498 0 52.0662 13.0603 680 124.635 665.756 484.512
499 0 54.0368 14.009 757 120.737 665.871 483.546
500 0 56.0899 12.783 717 123.124 666.245 482.406
501 0 59.0369 13.788 814 120.082 665.93 480.033
502 0 61.1076 15.2845 934 116.793 666.79 477.178
503 0 63.1398 14.2382 899 118.789 667.782 477.305
504 0 66.2619 15.2275 1009 114.752 668.34 477.435
505 0 71.224 15.36 1094 114.09 669.148 474.559
506 0 71.0791 12.7886 909 121.399 670.496 473.81
507 0 75.273 14.7065 1107 116.285 672.772 472.337
508 1 40.0101 11.772 471 117.945 674.208 490.796
509 0 41.034 12.4531 511 118.098 676.102 490.205
510 0 44.104 14.2164 627 114.656 676.075 489.678
511 0 44.1636 12.7028 561 119 676.838 490.779
512 0 48.2096 13.9184 671 115.441 677.253 490.438
513 0 50.0858 15.8927 796 111.062 676.867 492.28
514 0 52.0649 14.2706 743 115.686 676.698 491.359
515 0 54.1014 14.325 775 115.978 675.176 490.103
516 0 56.1257 13.7548 772 118.074 674.766 489.561
517 0 57.1672 14.9036 852 116.099 674.063 490.164
518 0 58.0744 14.2576 828 115.733 672.395 490.149
519 0 63.1006 15.4357 974 110.163 671.244 487.129
520 0 62.0484 13.2961 825 116.453 669.108 485.75
521 0 66.1776 13.5393 896 113.588 668.28 485.589
522 0 69.0474 14.1642 978 112.787 666.678 482.505
523 0 72.0974 13.246 955 113.929 665.738 481.309
524 0 75.0939 14.1956 1066 109.648 664.87 481.081
525 0 78.1154 14.7986 1156 109.328 664.029 477.875
526 0 81.1112 14.0178 1137 110.835 662.84 474.977
527 0 86.3013 14.067 1214 109.882 662.295 471.182
528 0 89.1944 14.0704 1255 109.216 661.621 471.304
529 0 89.1831 11.1792 997 115.681 661.141 469.172
530 1 48.1015 10.3947 500 111.728 660.878 488.604
531 0 51.1308 11.2261 574 108.186 661.598 486.526
532 0 52.0677 12.8871 671 106.209 662.538 485.975
533 0 57.0371 13.3948 764 102.237 663.542 486.16
534 0 57.2072 13.4598 770 102.666 664.825 484.191
535 0 60.1299 13.7868 829 101.989 666.673 483.682
536 0 62.1222 12.5559 780 102.519 668.32 485.537
537 0 64.096 13.9322 893 100.015 670.246 483.806
538 0 68.1251 14.2679 972 99.2171 670.957 482.142
539 0 71.1385 14.0993 1003 99.3021 672.775 482.937
540 0 73.0718 13.9178 1017 101.095 673.231 481.879
541 0 75.1166 13.5922 1021 101.146 673.928 483.716
542 0 79.0876 12.9603 1025 101.961 672.111 485.119
543 0 83.1058 14.5598 1210 101.751 670.345 480.322
544 0 85.1204 12.5117 1065 106.199 669.602 479.432
545 0 90.1769 13.3848 1207 104.65 667.637 479.366
546 0 96.0733 14.593 1402 103.082 665.78 475.661
547 0 99.1818 14.8414 1472 103.613 664.195 472.63
548 1 49.0356 12.236 600 103.392 663.567 499.098
549 0 52.0417 13.3739 696 102.231 663.049 495.832
550 0 53.0566 14.3243 760 101.246 661.425 493.9
551 0 55.0437 12.699 699 104.788 661.458 492.203
552 0 57.1567 14.3465 820 101.044 660.69 491.741
553 0 59.0822 14.6745 867 101.272 660.475 488.475
554 0 59.1443 13.8306 818 104.589 659.954 486.037
555 0 62.0728 14.2252 883 103.725 659.888 484.036
556 0 64.0748 14.7016 942 103.102 659.505 482.872
557 0 66.1555 13.1357 869 106.957 659.232 480.804
558 0 67.0795 13.9983 939 107.16 659.499 477.577
559 0 71.1557 13.6461 971 107.702 659.982 476.409
560 0 73.0838 13.8608 1013 109.13 660.448 473.464
561 0 75.1752 13.9275 1047 109.353 661.1 473.013
562 0 79.0647 13.7482 1087 110.297 662.838 471.058
563 0 81.2321 14.6248 1188 109.133 664.909 469.259
564 0 86.1506 15.1015 1301 107.184 666.516 469.8
565 0 87.1525 14.1247 1231 111.616 668.287 466.236
566 0 92.0953 15.2777 1407 108.178 671.099 465.34
567 1 45.1142 11.1495 503 109.262 673.042 491.964
568 0 48.0706 12.9185 621 106.483 674.507 491.797
569 0 50.0754 12.8806 645 106.91 674.074 490.366
570 0 53.0616 12.1557 645 108.428 673.595 491.152
571 0 55.0992 13.7207 756 105.558 673.411 492.234
572 0 57.0543 13.5485 773 108.224 671.732 489.348
573 0 60.1362 13.1368 790 108.686 671.87 490.824
574 0 61.2044 13.0219 797 111.235 671.113 489.694
575 0 63.0932 13.0918 826 112.757 669.876 489.672
576 0 68.0796 13.9836 952 111.256 668.648 488.598
577 0 70.0651 14.5864 1022 112.608 666.758 485.636
578 0 73.1214 14.7973 1082 112.585 665.813 484.961
579 0 75.0379 13.5398 1016 117.273 664.542 482.765
580 0 78.1242 13.5681 1060 118.548 663.46 480.604
581 0 80.1366 13.5019 1082 120.348 662.819 478.207
582 0 85.0527 14.1089 1200 118.852 661.498 476.798
583 0 87.0858 15.0426 1310 117.521 661.089 472.002
584 0 90.1737 13.8954 1253 121.286 660.313 468.964
585 1 46.0498 10.7058 493 121.32 660.592 492.724
586 0 50.0192 12.955 648 117.284 660.914 488.894
587 0 49.0574 11.5171 565 121.299 661.227 488.204
588 0 52.0481 12.8535 669 117.842 662.202 484.912
589 0 52.1124 12.2044 636 120.302 662.498 483.726
590 0 56.0214 12.6559 709 116.643 663.698 482.762
591 0 58.0503 13.4022 778 114.656 664.758 482.096
592 0 59.0478 12.1427 717 118.347 664.661 481.629
593 0 62.1042 13.4129 833 114.541 667.28 480.028
594 0 66.0824 12.7265 841 114.075 670.084 481.828
595 0 69.1727 13.6325 943 112.541 671.718 480.373
596 0 69.0956 12.8952 891 114.386 673.286 481.506
597 0 73.1063 12.2014 892 115.841 673.679 480.008
598 0 77.1434 12.7425 983 115.4 674.163 478.691
599 0 81.1399 13.3103 1080 114.016 673.971 479.13
600 0 87.1028 12.778 1113 113.647 673.748 479.659
601 1 46.1164 10.3651 478 115.655 671.556 499.324
602 0 46.1013 10.824 499 115.303 671.637 500.112
603 0 49.1022 11.4048 560 114.609 669.862 501.982
604 0 52.0978 12.9372 674 109.942 668.322 502.915
605 0 52.1527 11.3513 592 113.598 666.615 500.858
606 0 56.1512 13.1253 737 108.758 665.3 500.468
607 0 58.0885 12.4293 722 111.323 663.947 500.501
608 0 61.165 11.6733 714 113.277 662.092 499.38
609 0 64.0504 12.5526 804 111.399 661.25 498.103
610 0 65.0967 13.0114 847 111.201 660.456 495.996
611 0 68.0538 12.1962 830 112.949 659.87 496.56
612 0 70.0973 12.4113 870 114.185 658.653 494.312
613 0 73.2061 12.1848 892 116.222 658.092 489.307
614 0 77.1659 12.9202 997 114.028 657.667 487.633
615 0 80.2646 12.7329 1022 112.432 658.247 488
616 1 44.0676 10.5747 466 109.622 658.925 501.775
617 0 46.177 11.3476 524 108.296 659.038 501.389
618 0 47.0779 11.3641 535 108.849 659.142 499.071
619 0 49.0258 11.7897 578 109.062 658.19 496.375
620 0 49.0973 11.7929 579 108.953 659.247 495.801
621 0 51.1278 11.5984 593 108.749 659.875 496.605
622 0 55.0852 12.4716 687 105.945 660.82 494.114
623 0 56.0716 11.307 634 108.603 662.363 493.826
624 0 57.1764 11.5957 663 107.867 663.891 494.062
625 0 61.2705 12.3224 755 105.065 665.058 491.966
626 0 64.2146 12.7853 821 103.218 664.971 492.235
627 0 66.2721 12.4336 824 105.052 665.368 491.413
628 0 68.1067 13.1852 898 104.271 665.469 488.415
629 0 73.3264 13.9377 1022 101.946 665.425 491.29
630 0 74.2271 12.6369 938 107.052 663.826 492.662
631 0 77.2297 14.0102 1082 105.436 663.79 491.316
632 0 81.3444 13.5596 1103 107.042 663.086 490.471
633 0 85.2943 12.8731 1098 109.153 661.477 490.493
634 0 89.3877 11.9368 1067 110.513 662.066 484.573
635 1 42.0299 8.58912 361 114.681 662.05 510.521
636 0 44.2582 9.67054 428 115.294 659.939 511.049
637 0 45.1351 11.7425 530 113.466 657.774 509.847
638 0 47.1333 13.5361 638 108.665 656.608 509.232
639 0 48.1884 11.9946 578 114.138 654.41 505.446
640 0 51.2211 12.612 646 110.964 654.164 505.313
641 0 52.104 13.1276 684 111.075 654.161 502.414
642 0 53.1232 12.7063 675 113.022 653.304 500.394
643 0 57.1674 12.717 727 110.763 653.092 497.615
644 0 58.3384 12.736 743 110.257 653.878 496.126
645 0 60.3296 12.6803 765 110.363 654.69 493.928
646 0 63.2209 13.8878 878 107.409 654.739 493.797
647 0 64.2121 13.5644 871 108.719 655.89 491.614
648 0 67.2635 14.525 977 104.358 657.069 491.112
649 0 69.2326 12.8841 892 107.864 658.345 489.97
650 0 72.3365 14.2667 1032 104.605 659.238 487.926
651 0 74.3739 13.217 983 106.922 660.934 487.825
652 0 75.3504 13.842 1043 106.773 661.942 485.652
653 0 78.2792 13.6946 1072 105.862 663.167 486.97
654 0 82.1807 14.2247 1169 104.77 664.784 484.834
655 0 85.1508 14.1866 1208 104.795 665.61 483.98
656 0 88.2788 13.8652 1224 105.112 666.626 483.809
657 0 90.1065 15.4484 1392 102.9 666.779 481.391
658 0 94.2577 13.5055 1273 106.002 665.978 484.098
659 0 97.3305 12.6271 1229 108.594 665.984 481.544
660 0 99.1833 13.1776 1307 108.294 665.064 480.653
661 1 54.0791 10.0039 541 109.501 664.122 505.592
662 0 59.1044 11.9619 707 106.337 663.578 502.557
663 0 61.0628 13.265 810 106.528 662.028 500.264
664 0 65.3123 12.9532 846 106.485 660.979 496.436
665 0 66.1386 13.7288 908 104.322 659.491 493.124
666 0 68.0976 13.7009 933 105.432 658.823 491.146
667 0 70.1497 12.7442 894 105.774 657.652 490.067
668 0 73.1542 11.9064 871 107.222 657.006 489.574
669 0 75.12 14.976 1125 102.152 656.855 484.623
670 0 76.1117 13.4408 1023 103.966 656.42 484.394
671 0 80.1575 13.5858 1089 104.482 656.108 479.039
672 0 83.218 13.2183 1100 106.269 656.648 475.7
673 0 85.1092 12.4546 1060 109.066 657.657 473.579
674 0 89.322 14.319 1279 105.345 658.002 473.427
675 0 93.2375 13.6962 1277 106.652 658.487 472.067
676 0 95.1359 13.1917 1255 107.538 659.951 472.619
677 0 97.3239 13.6246 1326 107.008 661.075 466.416
678 0 102.109 14.0634 1436 105.813 661.778 467.247
679 1 51.0888 11.0788 566 106.839 663.025 492.548
680 0 53.0468 12.8943 684 102.314 665.842 492.455
681 0 55.1032 13.2479 730 101.94 667.901 492.222
682 0 56.1227 12.6687 711 104.062 669.256 493.163
683 0 58.1 14.062 817 102.299 670.67 491.858
684 0 59.1121 13.246 783 104.801 670.289 491.022
685 0 63.0458 12.6733 799 104.862 671.312 494.396
686 0 64.0961 12.216 783 107.162 671.595 493.843
687 0 67.044 13.3047 892 106.786 672.022 492.077
688 0 70.277 12.0551 1679 109.977 670.958 467.403
689 0 73.309 11.4006 1383 110.829 669.62 475.532
690 0 76.319 11.4695 1380 111.532 669.054 476.665
691 0 79.231 13.7402 1652 110.05 667.45 469.163
692 0 83.297 14.6395 1805 111.427 666.445 465.35
693 0 87.304 15.7654 2007 108.478 665.192 464.116
694 0 91.361 12.9716 1691 115.697 664.503 458.995
695 0 95.244 15.5811 2154 110.921 662.136 456.019
696 0 100.262 15.1738 2189 111.954 661.283 454.143
697 0 105.399 15.4719 2296 113.028 660.508 451.373
698 0 110.448 15.0084 2273 114.862 660.697 448.287
699 0 116.362 15.6098 2472 114.431 661.251 441.647
700 1 54.1341 13.6328 738 112.278 662.014 490.16
701 0 56.2243 12.8948 725 113.806 662.11 489.61
702 0 57.2186 13.4572 770 113.509 662.991 486.475
703 0 61.2302 12.0202 736 114.306 664.173 486.073
704 0 64.1389 13.4084 860 112.205 664.758 482.085
705 0 67.2214 13.82 929 111.805 665.58 480.358
706 0 71.1679 14.248 1014 109.817 666.106 477.967
707 0 74.1278 14.2861 1059 108.22 667.306 478.584
708 0 76.0827 14.0505 1069 111.445 668.709 475.221
709 0 79.1384 14.2156 1125 110.494 670.586 475.128
710 0 84.3155 13.9713 1178 110.06 673.733 475.997
711 0 87.2775 13.7722 1202 113.264 674.269 472.92
712 1 47.2464 12.1702 575 108.894 676.316 494.363
713 0 48.2823 12.5512 606 111.432 677.972 494.738
714 0 52.1008 12.7253 663 111.365 678.231 493.486
715 0 52.1167 12.875 671 113.548 676.569 492.848
716 0 56.0948 13.4415 754 111.058 675.7 495.179
717 0 56.0993 13.28 745 115.209 675.019 492.753
718 0 61.2345 13.7831 844 113.173 673.197 494.12
719 0 63.343 13.9558 884 115.122 671.821 491.855
720 0 67.1258 14.3015 960 114.78 670.84 489.645
721 0 69.2754 13.4247 930 118.048 669.877 488.961
722 0 73.2472 15.1405 1109 113.89 668.42 486.967
723 0 75.4118 13.6451 1029 118.847 666.589 483.503
724 0 78.2603 13.4551 1053 121.16 664.684 482.293
725 0 82.2154 14.1214 1161 120.493 663.898 480.33
726 0 84.1999 14.2281 1198 122.325 663.277 476.76
727 0 87.1608 14.5249 1266 123.021 663.133 475.547
728 0 89.3065 13.1457 1174 125.934 662.506 474.523
729 1 47.0507 11.6258 547 124.43 662.808 493.234
730 0 50.0608 13.5635 679 119.143 662.113 491.499
731 0 52.0917 13.4954 703 121.441 662.741 489.092
732 0 52.0921 12.7083 662 122.082 663.329 489.52
733 0 54.11 13.4356 727 121.006 664.056 488.26
734 0 56.1746 14.5617 818 117.406 664.872 487.084
735 0 58.1494 13.4137 780 121.195 666.524 487.636
736 0 60.0829 14.8628 893 117.887 668.298 486.002
737 0 62.2301 13.9804 870 119.205 669.605 487.016
738 0 64.2232 13.3752 859 121.895 671.161 486.794
739 0 67.2292 14.7109 989 119.699 672.502 485.371
740 0 69.1308 13.6408 943 121.655 673.622 487.568
741 0 74.1519 15.266 1132 117.182 674.017 486.455
742 0 76.2086 14.5653 1110 120.685 674.389 485.668
743 0 81.1939 15.2475 1238 117.956 673.944 485.881
744 0 85.2474 13.9359 1188 122.521 672.864 486.565
745 0 87.2226 14.205 1239 122.641 671.43 484.694
746 1 47.2222 13.9553 659 120.678 669.205 506.478
747 0 48.035 13.8441 665 124.537 666.574 503.208
748 0 51.0972 14.854 759 120.809 664.56 502.556
749 0 55.1214 14.5134 800 120.829 663.485 501.964
750 0 59.0764 13.9988 827 121.352 662.197 501.045
751 0 58.1201 14.6937 854 123.02 660.46 498.219
752 0 61.0182 15.0119 916 120.999 660.11 496.572
753 0 63.1072 15.5608 982 122.451 658.899 494.071
754 0 65.0998 13.6713 890 128.438 658.164 492.212
755 0 67.1107 14.4537 970 126.669 658.163 489.707
756 0 69.1521 14.8513 1027 125.625 658.939 487.093
757 0 71.238 15.3008 1090 125.061 658.388 486.061
758 0 73.1008 14.5279 1062 126.658 658.845 483.281
759 0 77.2191 14.6725 1133 126.493 658.48 480.416
760 0 78.0956 14.6615 1145 126.601 659.347 478.518
761 0 82.0695 14.5486 1194 125.936 660.061 477.573
762 0 85.1831 15.543 1324 122.687 661.415 475.704
763 0 90.2012 15.8645 1431 120.528 663.33 475.234
764 1 49.1696 13.2806 653 124.109 665.092 493.302
765 0 51.1573 14.0742 720 121.162 667.175 492.397
766 0 53.1931 13.498 718 122.9 668.923 492.405
767 0 56.0838 15.5125 870 117.363 670.908 491.618
768 0 59.084 14.5386 859 118.908 671.863 492.464
769 0 61.1652 14.4853 886 119.994 672.162 489.812
770 0 66.1088 15.8375 1047 115.66 672.048 489.869
771 0 68.2772 15.8911 1085 117.623 670.919 489.425
772 0 72.3092 15.5029 1121 116.4 670.639 489.188
773 0 75.2213 14.0652 1058 121.342 669.265 489.236
774 0 79.0675 14.924 1180 116.144 667.355 488.357
775 0 83.1702 14.813 1232 117.308 666.669 485.075
776 0 88.2008 15.0906 1331 106.59 665.627 484.699
777 1 47.0312 13.7356 646 105.503 664.687 503.918
778 0 48.0534 14.3174 688 104.003 663.613 502.661
779 0 53.1518 15.8414 842 101.024 661.859 500.046
780 0 51.1268 15.9212 814 101.941 660.493 499.371
781 0 55.345 13.7321 760 105.601 659.395 496.105
782 0 55.3288 13.7542 761 154.758 659.397 496.054
783 0 59.139 14.6604 867 104.776 658.94 491.697
784 0 60.0891 14.4119 866 105.794 659.151 491.081
785 0 64.0618 15.0636 965 104.592 659.598 488.745
786 0 66.1356 14.8785 984 103.952 660.224 487.493
787 0 67.123 14.3468 963 106.186 660.226 485.903
788 0 70.1747 15.2049 1067 104.325 660.366 484.561
789 0 74.1385 16.9682 1258 99.9507 661.441 483.932
790 0 76.2739 14.815 1130 105.25 662.122 482.7
791 0 80.2465 15.8512 1272 102.657 664.244 481.839
792 0 81.143 15.5281 1260 104.371 665.712 480.883
793 0 85.2204 14.2337 1213 106.522 667.993 479.934
794 1 46.0654 14.6748 676 100.254 669.494 501.281
795 0 46.0442 12.792 589 104.885 669.908 501.319
796 0 48.0508 14.4639 695 102.871 670.272 501.954
797 0 49.0487 12.9871 637 107.661 670.144 501.314
798 0 52.0718 13.0205 678 107.298 669.563 501.14
799 0 56.0404 14.3289 803 106.009 668.359 502.123
800 0 61.1606 14.2249 870 107.011 666.798 501.308
801 0 60.0799 13.4987 811 111.24 666.083 501.296
802 0 64.0609 13.7838 883 110.548 664.085 497.7
803 0 67.0821 14.8922 999 110.06 662.115 496.3
804 0 72.0797 15.5661 1122 109.215 660.501 493.514
805 0 74.0961 15.5069 1149 110.394 659.019 492.212
806 0 78.1707 14.9544 1169 111.419 658.273 490.907
807 0 80.0961 14.0332 1124 114.364 656.957 488.67
808 0 81.1311 13.2502 1075 120.82 656.165 484.368
809 0 87.215 15.5478 1356 116.041 655.644 481.681
810 0 91.1783 15.0474 1372 117.464 655.379 478.7
811 1 49.047 12.6613 621 118.279 655.576 496.443
812 0 50.0638 12.5839 630 118.417 656.595 494.811
813 0 54.0694 12.8723 696 117.644 656.681 493.638
814 0 55.0312 12.7927 704 116.646 657.7 491.898
815 0 59.0143 14.0813 831 112.025 658.835 490.638
816 0 62.0765 13.4834 837 114.207 659.695 487.864
817 0 64.168 14.0568 902 114.011 661.524 486.33
818 0 67.06 13.3463 895 113.865 663.459 485.511
819 0 70.2985 14.666 1031 111.592 665.171 483.84
820 0 72.1845 13.7564 993 114.131 667.041 483.526
821 0 77.3366 13.3701 1034 114.263 668.387 482.662
822 0 79.2906 14.7685 1171 112.18 669.396 481.43
823 0 83.2275 14.0699 1171 114.961 670.558 481.456
824 0 87.3568 15.7973 1380 110.891 671.336 480.384
825 0 91.28 14.0228 1280 114.267 671.205 479.822
826 0 94.3175 14.2603 1345 116.679 670.434 475.401
827 0 98.2736 14.9175 1466 115.118 669.926 474.632
828 0 102.551 13.6225 1397 118.827 668.86 473.706
829 0 109.326 15.3943 1683 114.684 666.472 471.902
830 1 55.2124 10.9577 605 115.393 666.079 499.233
831 0 62.1981 12.6531 787 110.28 664.765 496.628
832 0 64.1038 12.9789 832 111.953 663.421 494.096
833 0 64.1594 12.4845 801 113.81 662.246 490.182
834 0 66.1647 12.3177 815 114.572 661.164 488.043
835 0 72.1221 12.5759 907 111.675 660.858 486.841
836 0 74.0603 12.5843 932 111.626 660.363 484.406
837 0 77.1042 12.5544 968 108.725 660.796 483.759
838 0 79.2053 12.0573 955 107.318 660.352 481.251
839 1 41.035 11.8435 486 101.998 661.051 497.34
840 0 43.1714 12.5546 542 99.1125 662.207 499.105
841 0 44.1203 11.4233 504 101.494 662.772 497.935
842 0 43.1048 11.3212 488 104.129 663.857 495.762
843 0 46.2567 13.1657 609 101.711 664.626 494.601
844 0 46.173 11.327 523 105.325 665.134 494.53
845 0 50.249 12.4978 628 101.946 666.702 494.927
846 0 51.4359 13.0454 671 101.452 668.273 495.106
847 0 54.1861 11.8112 640 102.598 670.352 494.984
848 0 56.1677 13.3529 750 100.48 671.584 494.779
849 0 57.2361 12.1427 695 103.56 672.87 495.255
850 0 59.2426 11.647 690 104.814 673.22 497.27
851 0 65.3521 13.4196 877 102.26 673.442 496.022
852 0 67.299 13.0908 881 102.78 673.244 497.073
853 0 69.3285 13.0682 906 105.464 672.159 494.588
854 0 73.2586 13.2817 973 106.525 669.744 497.045
855 0 76.1045 12.5354 954 108.254 667.313 494.547
856 0 78.2113 11.8014 923 112.032 665.717 491.531
857 1 40.097 12.1705 488 104.713 664.232 509.631
858 0 42.1035 12.398 522 105.289 662.008 509.314
859 0 44.0077 13.4522 592 103.802 660.943 506.495
860 0 46.1051 13.3825 617 104.528 659.334 504.972
861 0 47.0305 11.8646 558 106.934 658.952 504.285
862 0 48.0785 12.854 618 104.754 658.634 501.898
863 0 50.0585 11.926 597 107.389 658.119 498.858
864 0 53.0388 12.5568 666 106.239 657.562 496.065
865 0 54.021 11.4955 621 109.512 657.857 494.874
866 0 57.0486 12.7786 729 107.914 658.318 493.793
867 0 58.2167 12.7111 740 108.516 657.651 492.019
868 0 61.0673 13.5097 825 103.39 658.537 490.022
869 0 64.113 13.7102 879 100.993 659.685 489.561
870 0 66.0539 13.4133 886 102.067 661.481 487.574
871 0 68.068 12.3994 844 105.688 661.518 486.899
872 0 70.2114 12.9609 910 104.892 662.667 483.682
873 1 39.2408 10.5248 413 103.022 665.264 502.356
874 0 40.1728 11.5003 462 104.177 666.398 502.011
875 0 44.1817 12.6297 558 100.722 667.229 502.195
876 0 43.1581 13.0219 562 101.523 668.037 501.315
877 0 47.1712 13.1648 621 101.866 668.905 500.713
878 0 49.1977 13.3339 656 102.503 668.848 501.303
879 0 50.2428 13.2357 665 105.92 668.698 500.429
880 0 51.1822 12.9928 665 106.845 669.444 500.25
881 0 53.2513 12.4692 664 108.185 667.753 501.235
882 0 55.1155 12.5192 690 108.593 665.541 500.212
883 0 58.2089 12.3864 721 110.05 664.103 498.283
884 0 62.1097 13.3635 830 106.757 663.118 496.553
885 0 62.191 13.7158 853 105.842 661.26 494.831
886 0 65.2231 13.8448 903 102.614 659.965 491.3
887 1 33.0377 10.9874 363 106.931 659.215 504.738
888 0 35.034 10.6754 374 105.607 659.07 503.516
889 0 36.0293 11.907 429 103.333 658.149 501.848
890 0 37.0337 13.1772 488 102.311 658.004 498.693
891 0 41.1081 13.574 558 99.828 657.548 498.208
892 0 40.1602 12.6244 507 103.456 657.448 496.795
893 0 41.2214 11.6444 480 105.138 657.894 494.194
894 0 43.08 13.3937 577 99.6846 658.674 493.489
895 0 44.079 13.2943 586 99.6297 659.556 491.932
896 0 46.0982 12.5818 580 101.321 661.193 491.031
897 0 48.0509 12.8822 619 100.557 662.349 490.672
898 0 49.0431 13.1313 644 101.329 664.163 490.138
899 0 51.0643 13.9236 711 98.6709 665.093 489.875
900 0 53.1097 14.6113 776 97.6869 666.929 490.054
901 0 53.2459 13.1653 701 101.14 668.514 491.268
902 0 57.3714 13.6305 782 100.277 671.02 491.064
903 0 57.1181 14.6363 836 99.2667 672.299 490.852
904 0 57.2194 13.6492 781 102.175 673.142 490.93
905 0 62.2008 13.0866 814 102.34 673.735 492.383
906 0 65.1744 13.6096 887 101.804 673.375 493.575
907 0 67.191 14.6002 981 100.722 672.232 491.486
908 0 72.1152 14.4768 1044 101.058 670.874 491.267
909 0 74.113 15.139 1122 100.873 668.98 491.267
910 0 79.1618 14.3251 1134 101.088 666.74 489.921
911 0 83.1038 15.607 1297 97.9221 664.892 487.116
912 0 85.1657 15.0178 1279 99.8647 662.837 485.77
913 0 87.0952 13.3877 1166 106.256 662.241 484.051
914 0 91.1589 14.2937 1303 106.03 660.628 479.386
915 0 95.1717 14.5632 1386 105.229 659.84 476.346
916 0 98.1412 14.7543 1448 104.453 658.332 474.84
917 1 48.0327 12.3041 591 102.912 658.322 501.709
918 0 53.059 11.3459 602 105.588 658.37 497.654
919 0 53.0676 11.9282 633 105.179 658.532 495.058
920 0 55.0655 12.694 699 105.132 658.704 492.897
921 0 57.1156 12.7636 729 104.247 659.012 491.949
922 0 59.1493 12.2571 725 105.44 659.05 490.883
923 0 60.1151 13.5906 817 102.927 659.41 491.06
924 0 64.1258 11.6334 746 105.777 660.11 490.365
925 0 66.1961 13.7621 911 101.676 661.349 488.475
926 0 68.0548 13.9153 947 102.206 662.799 486.824
927 0 71.1196 14.2155 1011 99.8862 665.081 489.838
928 0 73.1652 14.8978 1090 100.916 665.77 486.199
929 0 76.1945 14.2924 1089 103.446 667.397 487.357
930 0 80.1197 15.4644 1239 102.119 669.306 485.998
931 0 81.109 13.6853 1110 110.558 669.374 486.204
932 0 84.176 14.1371 1190 110.997 669.741 485.745
933 0 87.1127 15.1987 1324 109.051 669.259 486.003
934 0 92.1548 16.125 1486 108.41 667.994 482.939
935 0 96.2042 14.5212 1397 114.125 666.346 481.338
936 0 99.2147 13.9193 1381 118.075 664.719 480.862
937 0 104.256 15.3948 1605 113.973 662.966 477.637
938 0 109.268 16.3268 1784 113.08 661.524 477.804
939 0 111.291 15.2573 1698 119.25 659.985 474.111
940 0 116.334 15.6274 1818 120.732 658.628 469.202
941 0 121.283 16.4986 2001 119.646 657.631 464.037
942 0 124.272 15.5143 1928 122.809 657.103 462.721
943 0 126.2 14.8812 1878 126.915 655.974 458.173
944 0 132.283 15.5197 2053 126.378 655.746 454.009
945 0 134.346 14.5817 1959 129.428 655.718 452.482
946 0 138.304 14.8658 2056 129.381 655.286 447.359
947 0 144.213 16.0457 2314 125.48 655.58 443.409
948 0 149.388 15.7175 2348 126.001 656.579 441.993
949 0 152.333 15.3282 2335 128.109 656.944 438.698
950 0 154.384 15.2023 2347 129.141 658.085 433.679
951 0 163.345 16.407 2680 124.085 660.252 430.233
952 0 168.259 15.4584 2601 126.156 661.008 428.462
953 0 174.498 16.6019 2897 121.86 663.584 428.548
954 0 179.404 16.2037 2907 122.885 665.615 424.993
955 0 184.356 15.6816 2891 124.536 667.418 419.041
956 0 194.403 16.9545 3296 119.409 669.843 420.337
957 0 200.391 15.2602 3058 123.506 671.183 415.287
958 0 210.462 15.4042 3242 123.937 671.815 411.66
959 0 218.427 15.4102 3366 122.82 672.275 413.329
960 0 228.468 16.6281 3799 122.032 671.789 405.655
961 0 227.339 12.4967 2841 132.168 671.129 412.658
962 0 230.43 11.3657 2619 131.378 670.643 424.206
963 1 263.494 16.6 4374 124.255 668.554 392.141
964 0 262.558 13.7113 3600 133.847 667.147 395.52
965 0 262.495 12.6212 3313 136.761 665.759 400.29
966 0 260.575 9.6594 2517 140.001 664.328 410.464
967 1 71.2201 11.7242 835 113.029 663.891 490.537
968 0 72.2613 11.4169 825 113.67 662.034 487.072
969 0 74.2814 12.6546 940 112.411 661.006 486.553
970 0 76.2733 11.4457 873 117.175 660.614 484.826
971 0 75.2658 11.373 856 119.155 660.252 483.508
972 0 78.1462 12.1439 949 119.508 659.88 481.155
973 0 80.1756 11.6494 934 119.529 660.177 479.249
974 0 82.208 11.1181 914 121.476 660.195 473.887
975 0 85.3207 11.6853 997 119.846 660.44 473.341
976 0 88.2214 12.0266 1061 120.193 660.851 469.41
977 0 89.3119 11.5438 1031 121.483 661.121 471.718
978 0 92.2368 11.9258 1100 120.315 661.93 470.299
979 0 95.2514 12.2308 1165 119.933 663.187 469.148
980 0 97.144 13.444 1306 119.204 665.189 465.911
981 0 100.152 12.7107 1273 122.153 666.839 465.852
982 0 101.359 12.875 1305 123.901 669.088 461.972
983 0 103.18 12.7156 1312 124.771 671.091 466.264
984 0 106.267 13.4849 1433 124.327 672.896 465.04
985 0 109.366 13.5143 1478 126.323 673.468 464.049
986 0 109.227 12.6526 1382 131.592 673.48 464.072
987 0 111.306 13.4494 1497 132.045 673.613 464.096
988 0 115.193 14.2196 1638 131.075 673.898 465.359
989 0 118.191 15.3819 1818 128.672 672.484 464.424
990 0 120.209 14.35 1725 133.808 670.576 464.477
991 1 135.571 21.0296 2851 106.627 668.862 450.485
992 0 134.356 20.9667 2817 110.114 667.258 451.705
993 0 125.182 15.9927 2002 129.216 665.857 457.576
994 0 127.217 17.8199 2267 122.75 664.174 458.958
995 0 129.145 17.1745 2218 126.566 662.857 456.028
996 0 130.255 16.6136 2164 129.944 661.605 455.748
997 0 130.262 16.4131 2138 132.9 660.83 453.355
998 0 132.249 16.9377 2240 132.165 660.79 452.122
999 0 132.275 17.0706 2258 132.983 660.272 451.481
1000 0 135.402 17.8874 2422 130.367 660.336 447.504
1001 0 135.179 16.9849 2296 133.418 660.527 447.831
1002 0 134.164 17.1581 2302 134.906 659.679 445.495
1003 0 133.227 16.4831 2196 137.43 661.168 444.291
1004 0 134.286 16.6138 2231 137.576 661.448 443.866
1005 0 137.216 16.4339 2255 136.814 662.471 445.751
1006 0 139.304 18.0468 2514 130.944 664.883 444.863
1007 0 139.191 17.6017 2450 131.049 664.908 442.671
1008 0 139.115 17.9851 2502 129.609 666.665 442.852
1009 0 139.303 16.9486 2361 131.911 668.307 443.097
1010 0 142.14 18.1441 2579 128.703 670.096 445.89
1011 0 139.122 17.2798 2404 132.2 672.613 444.333
1012 0 142.256 17.9957 2560 127.201 672.884 447.284
1013 0 144.293 20.1119 2902 121.491 673.131 447.818
1014 0 143.216 17.5609 2515 127.599 675.107 448.927
1015 0 144.248 17.5393 2530 128.531 674.193 446.215
1016 0 143.188 17.3408 2483 129.721 673.741 451.234
1017 0 144.204 18.4946 2667 125.567 670.964 452.136
1018 0 143.262 16.7944 2406 132.285 670.625 451.081
1019 0 145.208 18.8902 2743 125.424 667.816 453.113
1020 0 143.207 17.1081 2450 132.56 666.64 451.945
1021 0 144.119 17.888 2578 130.092 664.535 452.484
1022 0 145.121 19.2805 2798 126.249 662.739 448.668
1023 0 145.101 19.2555 2794 126.423 662.227 447.821
1024 0 145.218 17.5736 2552 131.848 660.569 448.721
1025 0 143.177 16.8253 2409 136.19 659.951 445.633
1026 0 144.141 17.1915 2478 133.762 659.26 446.843
1027 0 142.111 16.5997 2359 135.994 659.814 443.532
1028 0 143.166 16.7498 2398 135.093 660.36 442.487
1029 0 145.167 18.2548 2650 129.615 660.3 440.275
1030 0 145.206 18.0847 2626 130.761 659.656 441.545
1031 0 143.178 16.8182 2408 135.068 661.252 440.11
1032 0 144.17 17.5834 2535 131.547 661.751 439.153
1033 0 143.24 16.6782 2389 133.103 663.215 441.312
1034 0 142.209 17.4673 2484 131.186 664.597 439.119
1035 0 144.258 17.7945 2567 128.947 665.297 441.247
1036 0 144.128 17.3734 2504 129.052 667.349 444.379
1037 0 143.207 16.6891 2390 130.416 668.943 440.828
1038 0 145.229 17.524 2545 128.109 670.398 444.053
1039 0 144.2 17.3301 2499 127.72 672.431 443.407
1040 0 146.15 18.8095 2749 122.808 673.232 442.587
1041 0 145.209 17.6022 2556 126.228 673.896 444.553
1042 0 145.22 18.6063 2702 123.657 673.766 446.408
1043 0 146.173 19.8053 2895 120.131 672.824 451.082
1044 0 145.238 17.6262 2560 127.664 671.88 451.13
1045 0 144.204 17.0037 2452 129.832 670.414 452.057
1046 0 143.334 17.7278 2541 128.044 668.165 450.53
1047 0 146.108 18.1442 2651 126.115 666.086 450.944
1048 0 143.417 17.1876 2465 130.663 664.68 450.043
