time division length width area intensity CMx CMy
0 0 49.1591 14.5446 715 122.148 286.362 483.091
1 0 48.1769 13.1806 635 127.08 284.98 482.735
2 0 50.1526 13.2795 666 126.108 285.782 482.452
3 0 52.2582 14.5814 762 120.669 285.849 482.337
4 0 52.1628 13.0169 679 123.228 285.925 482.452
5 0 54.3144 14.5081 788 120.019 286.122 480.9
6 0 54.1676 14.1967 769 121.645 285.767 479.445
7 0 54.1256 13.5795 735 124.493 285.404 478.687
8 0 56.1205 14.3976 808 119.179 285.811 479.312
9 0 60.1782 14.5235 874 117.931 285.593 478.093
10 0 59.1414 14.8627 879 117.092 285.595 475.587
11 0 62.101 14.2993 888 116.592 285.53 477.902
12 0 61.1413 13.5915 831 120.691 286.497 476.345
13 0 63.101 13.9934 883 118.072 285.511 475.561
14 0 65.1348 15.2607 994 114.72 285.54 475.293
15 1 34.0196 11.9343 406 118.677 284.941 488.832
16 0 33.0253 10.9613 362 120.149 285.119 489.304
17 0 38.087 11.9988 457 114.88 285.23 489.206
18 0 38.0195 12.178 463 116.648 284.665 487.821
19 0 40.0161 12.6449 506 113.589 285.555 489.241
20 0 41.0536 12.642 519 113.378 284.674 488.815
21 0 41.1092 12.8682 529 115.756 285.155 486.972
22 0 42.1899 13.4155 566 114.081 285.406 487.263
23 0 45.216 14.11 638 110.782 286.304 486.144
24 0 45.1901 13.7862 623 112.783 286.612 486.026
25 0 48.1283 14.1289 680 112.385 287.094 484.671
26 0 48.2911 14.6197 706 111.31 287.987 486.499
27 0 50.033 14.7703 739 111.663 288.352 484.636
28 0 50.1653 13.8941 697 115.603 287.897 483.149
29 0 51.1577 13.3704 684 115.766 287.896 483.686
30 0 54.105 14.0098 758 113.5 287.736 482.166
31 0 55.0499 14.6231 805 113.46 287.876 481.595
32 0 55.0771 14.3254 789 115.298 288.01 480.797
33 0 58.1216 14.2976 831 116.081 288.612 479.876
34 0 59.0377 15.6849 926 112.945 289.731 479.463
35 0 59.0499 15.6816 926 113.959 289.077 478.9
36 0 62.1028 14.8463 922 116.562 288.793 477.649
37 0 64.0736 16.9492 1086 112.887 289.607 477.619
38 0 67.05 16.3311 1095 114.058 289.641 476.71
39 0 66.1354 15.2717 1010 118.108 288.885 475.182
40 0 71.0904 16.3735 1164 116.253 290.123 474.067
41 0 72.1576 15.7987 1140 118.753 290.507 471.146
42 0 76.2087 16.6648 1270 116.547 290.298 471.494
43 0 77.1103 16.016 1235 118.34 290.189 470.936
44 0 80.3108 16.2245 1303 117.798 289.974 470.516
45 1 40.0847 13.8706 556 120.754 291.216 488.865
46 0 40.0316 13.5143 541 123.113 291.457 489.185
47 0 41.0249 13.9184 571 120.695 291.483 490.051
48 0 45.0199 13.3719 602 119.716 291.105 490.415
49 0 44.0403 12.8746 567 122.18 290.637 489.91
50 0 48.1105 15.3189 737 117.772 291.328 487.498
51 0 49.0292 14.216 697 119.075 291.214 487.646
52 0 51.1454 15.016 768 116 291.247 487.621
53 0 53.0418 15.6103 828 114.353 290.873 486.763
54 0 53.0472 15.0244 797 117.558 290.56 485.366
55 0 54.1707 16.005 867 115.93 290.795 482.962
56 0 56.0223 15.6366 876 117.167 290.36 482.93
57 0 58.1297 15.3794 894 115.723 290.45 481.001
58 0 60.0789 15.4131 926 116.659 290.292 481.119
59 0 62.0502 15.5841 967 116.446 290.53 479.451
60 0 63.1146 14.8935 940 118.463 290.507 476.254
61 0 64.178 14.4909 930 119.582 290.502 476.116
62 0 68.0575 14.429 982 116.346 290.439 475.957
63 0 72.1252 14.4471 1042 116.02 291.056 473.99
64 0 73.137 14.9719 1095 115.44 291.576 474.566
65 0 77.0987 15.318 1181 115.691 291.351 470.206
66 0 80.0996 14.9314 1196 114.153 291.73 469.416
67 0 82.153 15.0573 1237 114.285 292.108 468.852
68 1 42.1057 11.1861 471 113.49 292.227 488.2
69 0 44.0687 14.4093 635 107.962 292.764 486.696
70 0 44.0445 12.2149 538 112.526 291.102 486.755
71 0 46.0437 13.0745 602 111.935 292.183 485.37
72 0 47.0253 12.7166 598 112.082 292.201 484.878
73 0 50.0533 14.1449 708 107.767 290.386 484.993
74 0 52.1012 14.9517 779 106.763 291.365 483.78
75 0 52.0421 14.0079 729 109.026 291.641 483.468
76 0 54.0623 14.0948 762 109.701 291.112 480.475
77 0 57.1147 14.3571 820 109.283 291.343 478.695
78 0 60.1106 14.7229 885 106.85 291.843 478.873
79 0 61.0957 13.8962 849 109.032 291.83 479.342
80 0 62.1019 13.9609 867 109.221 291.796 479.102
81 0 67.0427 15.0948 1012 107.372 292.407 476.643
82 0 68.1289 14.9276 1017 107.322 292.363 477.092
83 0 71.0619 14.3959 1023 110.433 292.083 473.477
84 0 73.2165 14.4503 1058 111.077 292.482 472.373
85 0 77.1849 15.1066 1166 107.526 292.515 473.488
86 0 77.1626 15.0462 1161 109.424 292.436 469.976
87 0 81.3191 15.9249 1295 108.822 292.358 469.155
88 0 84.2577 16.0223 1350 109.307 292.704 466.75
89 0 85.3031 13.6572 1165 114.426 291.759 466.836
90 1 45.0883 12.1761 549 110.148 292.545 486.996
91 0 44.0999 11.6554 514 113.165 292.226 486.809
92 0 47.119 13.3492 629 107.421 292.782 487.175
93 0 48.0817 13.4563 647 108.187 292.832 484.703
94 0 50.0304 12.6523 633 110.597 292.973 484.43
95 0 52.0571 13.8502 721 109.208 292.682 482.713
96 0 54.2088 13.7985 748 108.29 293.14 481.896
97 0 55.1481 12.7112 701 109.576 293.455 482.063
98 0 56.1803 14.0441 789 107.351 294.574 481.141
99 0 57.0842 12.2451 699 112.003 293.641 479.305
100 0 60.1683 14.4096 867 108.212 292.746 477.905
101 0 62.2065 14.0017 871 108.75 293.255 477.573
102 0 64.1777 14.4443 927 108.046 293.413 476.577
103 0 66.1374 13.6232 901 109.565 292.893 476.542
104 0 67.1104 13.7386 922 110.127 292.992 475.924
105 0 70.1872 13.9199 977 109.128 293.632 474.993
106 0 70.149 13.3288 935 111.474 293.392 474.897
107 0 72.1964 13.491 974 112.093 293.465 472.568
108 0 77.2551 14.3809 1111 108.731 293.897 473.341
109 0 80.1469 16.9065 1355 103.187 293.944 472.51
110 0 79.2106 13.6345 1080 112.469 293.974 472.372
111 0 82.1313 14.6229 1201 111.261 293.884 470.116
112 1 46.127 12.2488 565 110.619 294.018 488.906
113 0 47.1222 13.1148 618 109.168 293.29 489.361
114 0 48.1763 14.4054 694 109.293 293.055 487.242
115 0 48.1364 13.6487 657 111.458 293.231 488.225
116 0 51.0563 12.496 638 113.445 293.096 487.951
117 0 51.2853 12.6547 649 114.746 293.19 486.718
118 0 55.1047 13.6467 752 113.06 293.588 484.79
119 0 55.2206 15.2298 841 108.672 291.756 486.755
120 0 57.1871 12.6777 725 113.64 291.946 486.654
121 0 59.1119 14.3118 846 112.96 291.475 482.722
122 0 61.197 14.2654 873 112.076 291.246 482.436
123 0 61.1899 13.499 826 116.086 290.838 480.553
124 0 65.1511 14.2745 930 114.496 291.218 480.804
125 0 67.2562 15.2254 1024 114.088 291.148 476.889
126 0 68.2104 13.0625 891 119.921 291.186 477.528
127 0 71.2485 13.3898 954 118.969 291.179 477.319
128 0 73.1314 14.2483 1042 118.319 290.619 475.088
129 0 74.2164 13.0834 971 121.624 291.325 474.412
130 0 78.2407 14.0336 1098 120.304 291.896 471.268
131 0 79.219 14.0623 1114 120.716 292.596 472.086
132 0 82.2201 12.9409 1064 123.281 292.832 471.289
133 0 83.0641 12.9177 1073 122.867 291.96 470.554
134 0 86.2452 13.1486 1134 120.812 292.539 469.444
135 1 47.0769 11.853 558 117.002 293.932 487.781
136 0 47.1645 12.4458 587 115.635 293.477 487.15
137 0 47.1018 12.8658 606 115.416 293.536 487.276
138 0 50.0506 12.6672 634 115.591 293.123 487.073
139 0 50.0675 12.7827 640 116.286 293.452 486.02
140 0 51.0745 11.6888 597 119.568 293.658 484.673
141 0 51.0912 11.0391 564 119.475 293.502 485.727
142 0 55.2944 13.4191 742 115.292 293.41 484.199
143 0 55.1967 12.392 684 118.003 293.807 483.596
144 0 58.2233 12.9502 754 115.651 293.218 484.606
145 0 60.2069 12.6065 759 117.679 292.744 483.771
146 0 61.13 11.2874 690 119.872 292.596 481.832
147 0 63.1317 12.7194 803 117.169 292.55 480.686
148 0 65.2802 12.837 838 117.043 291.406 478.883
149 1 33.034 9.47509 313 116.109 290.99 496.604
150 0 32.0409 5.96113 191 120.979 291.089 496.157
151 0 35.0156 11.8233 414 112.93 290.986 493.944
152 0 35.0145 12.1093 424 113.634 291.193 492.981
153 0 37.0811 12.1086 449 112.976 290.708 494.174
154 0 38.0232 10.4147 396 114.629 290.997 494.149
155 0 38.0486 11.827 450 116.247 290.804 491.189
156 0 40.1229 11.7888 473 114.97 290.987 490.96
157 0 40.0364 12.1889 488 115.484 291.205 490.836
158 0 42.0571 11.6271 489 115.493 291.139 490.734
159 0 41.0465 11.2068 460 116.978 291.178 489.572
160 0 44.1331 11.4653 506 115.923 291.142 489.281
161 0 43.1587 11.9559 516 116.335 290.878 487.417
162 0 47.256 11.1309 526 117.141 291.662 488.259
163 0 48.0905 13.2666 638 115.268 291.638 485.426
164 0 50.2013 13.904 698 113.741 292.205 486.493
165 0 52.223 13.9402 728 114.302 292.545 485.413
166 0 52.0725 12.0985 630 119.665 292.229 483.683
167 0 55.1997 12.4638 688 118.055 293.128 484.82
169 0 55.3055 13.1452 727 119.63 292.849 484.076
170 0 60.2633 13.7231 827 118.203 292.548 482.193
171 0 64.0865 13.9499 894 117.487 292.971 480.482
172 1 30.044 10.3515 311 120.08 293.203 495.994
173 0 32.0195 11.6179 372 117.863 292.414 496.081
174 0 35.0234 13.7051 480 112.917 291.938 496.077
175 0 38.0492 14.8229 564 113.963 292.09 492.777
176 0 39.0998 14.5525 569 116.475 291.729 493.946
177 0 40.0763 13.8735 556 118.687 291.419 494.117
178 0 42.1329 13.1014 552 121.496 291.069 494.029
179 0 42.2543 13.3714 565 121.89 291.009 493.251
180 0 43.4332 14.5971 634 121.593 289.956 492.938
181 0 46.1152 14.6373 675 122.93 289.975 490.499
182 0 48.2035 13.8579 668 123.479 290.028 491.016
183 0 49.2779 14.6719 723 124.217 289.929 489.21
184 0 52.2778 15.2264 796 121.492 289.725 488.245
185 0 51.1989 14.9808 767 124.021 289.937 487.872
186 0 55.2736 14.5458 804 124.265 289.912 486.891
187 0 56.2818 13.9832 787 126.934 290.069 486.44
188 0 57.162 14.975 856 127.414 289.51 483.37
189 0 62.3182 14.7308 918 126.178 289.66 482.87
190 0 62.2689 14.3731 895 128.106 289.372 480.888
191 0 64.2201 13.2824 853 131.726 289.247 480.535
192 0 67.1577 13.6395 916 130.157 289.465 478.527
193 0 70.2664 13.335 937 131.583 289.307 477.058
194 0 73.1356 13.9604 1021 129.77 289.364 475.575
195 1 38.0438 12.249 466 130.335 289.695 491.577
196 0 36.0622 12.8667 464 131.959 290.263 491.388
197 0 40.0436 13.6851 548 128.21 289.958 490.217
198 0 42.08 13.9734 588 124.755 290.782 491.384
199 0 43.0999 14.362 619 124.943 291.498 489.845
200 0 44.1463 13.9536 616 127.269 290.838 488.058
201 0 45.2763 12.8102 580 129.231 291.103 488.597
202 0 47.1507 13.8704 654 126.329 290.618 488.32
203 0 49.127 13.7603 676 125.098 290.729 487.438
204 0 47.2932 12.2851 581 131.917 290.401 487.676
205 0 50.2751 13.0681 657 129.111 290.951 486.647
206 0 53.2273 12.5875 670 129.224 290.445 486.558
207 0 55.3114 13.9754 773 126.697 291.405 485.181
208 0 56.3517 13.9836 788 126.575 290.78 485.59
209 0 58.2542 13.1493 766 127.918 290.214 484.897
210 0 60.2806 12.1598 733 131.36 290.686 483.292
211 0 63.2645 13.3408 844 127.905 290.832 482.632
212 0 65.3769 13.7969 902 128.004 290.422 481.553
213 0 66.3564 13.096 869 131.459 290.356 478.522
214 1 37.2508 11.3555 423 127.87 290.338 493.444
215 0 38.2166 10.1003 386 128.018 290.194 494.586
216 0 39.0968 11.1518 436 128.255 289.399 493.002
217 0 42.0626 12.2912 517 124.886 289.099 491.062
218 0 44.0586 12.8692 567 123.169 288.979 491.697
219 0 44.0955 13.3347 588 122.522 289.202 490.939
220 0 45.062 13.8254 623 122.921 289.488 489.05
221 0 47.0923 13.1232 618 122.822 289.874 490.097
222 0 47.1159 12.9256 609 125.319 289.839 488.125
223 0 49.1224 12.7844 628 124.866 289.965 486
224 0 51.112 12.3259 630 126.063 289.344 485.256
225 0 53.1395 13.5304 719 121.437 289.249 485.456
226 0 54.2996 12.873 699 122.858 289.961 483.381
227 0 55.2071 13.0599 721 122.23 290.169 481.929
228 0 59.2199 13.2219 783 119.307 290.331 482.296
229 0 59.2199 13.2557 785 139.687 290.313 482.33
230 0 64.2301 13.7786 885 116.58 290.792 478.122
231 0 64.235 13.7153 881 117.73 290.867 477.287
232 0 66.331 12.8296 851 118.613 291.115 476.157
233 1 34.2694 9.80467 336 110.574 291.262 495.619
234 0 35.249 9.6173 339 116.136 291.018 493.292
235 0 38.117 10.494 400 114.325 291.538 492.222
236 0 39.2179 11.5253 452 111.027 291.325 492.274
237 0 40.2323 12.6018 507 111.458 291.357 491.704
238 0 43.1113 13.1984 569 109.193 292.111 491.004
239 0 44.1798 12.7886 565 111.669 292.301 491.304
240 0 46.2468 12.4982 578 111.517 292.415 491.478
241 0 46.2494 11.8056 546 114.513 291.632 490.991
242 0 49.1752 14.6009 718 107.163 291.284 488.95
243 0 50.1952 12.4514 625 112.587 290.99 488.186
244 0 50.1531 12.6812 636 113.091 291.101 487.62
245 0 54.2365 13.8836 753 107.784 291.023 487.992
246 0 55.2192 13.0933 723 109.165 290.674 487.804
247 0 57.1581 12.2467 700 111.843 290.633 486.466
248 0 58.1988 12.6463 736 112.408 290.53 485.424
249 0 61.1444 14.9646 915 106.745 289.744 483.311
250 0 62.1986 13.3283 829 110.959 289.404 482.587
251 0 65.1112 14.3754 936 107.455 288.897 481.854
252 0 66.1226 14.579 964 108.575 289.675 480.496
253 0 67.1265 14.1673 951 110.028 289.452 480.306
254 0 70.1499 13.5424 950 111.794 289.606 477.467
255 0 71.0787 13.7594 978 111.587 289.464 477.865
256 0 77.128 13.3933 1033 111.492 290.11 475.586
257 0 77.0877 13.7895 1063 112.669 289.58 472.075
258 0 78.0936 13.4198 1048 114.668 289.404 471.282
259 1 44.0375 10.7863 475 112.394 289.274 491.107
260 0 42.0705 9.88817 416 116.589 290.123 489.623
261 0 46.1435 13.5664 626 107.481 290.176 488.043
262 0 48.2417 13.8055 666 106.781 290.781 487.842
263 0 49.2009 13.1095 645 108.874 292.172 486.812
264 0 51.24 13.388 686 109.136 291.863 486.02
265 0 53.1057 13.0495 693 108.29 292.739 485.38
266 0 52.0928 12.7273 663 111.195 292.582 485.818
267 0 55.0723 13.6185 750 109.119 293.077 483.225
268 0 56.0748 14.5342 815 107.418 293.301 482.834
269 0 59.1811 12.825 759 110.09 293.452 483.282
270 0 62.0995 14.203 882 107.514 293.014 483.135
271 0 64.1837 13.6483 876 108.836 292.396 480.535
272 0 67.1316 13.0639 877 109.699 292.613 481.423
273 0 69.1117 13.5722 938 109.571 292.278 479.258
274 0 72.1017 14.0496 1013 108.445 292.441 479.924
275 0 74.2389 14.3995 1069 108.309 292.5 479.767
276 0 77.1605 13.7635 1062 111.352 292.013 477.001
277 0 78.2767 12.9668 1015 113.73 291.727 477.276
278 0 81.2145 13.7414 1116 111.532 291.364 475.155
279 0 84.1102 13.3278 1121 113.136 290.42 473.117
280 1 45.0989 11.3972 514 106.733 289.728 493.714
281 0 47.1257 10.2916 485 110.311 289.847 492.274
282 0 48.0981 11.9131 573 107.564 289.684 489.794
283 0 50.0431 11.7698 589 108.635 289.586 488.64
284 0 50.0694 11.8036 591 110.303 289.2 489.007
285 0 52.0862 13.0553 680 107.507 288.738 486.707
286 0 55.1503 11.9129 657 108.591 287.782 484.901
287 0 56.1241 13.3276 748 106.309 288.545 483.154
288 0 57.1334 13.0747 747 107.09 288.64 481.181
289 0 58.1584 13.6696 795 105.34 288.765 480.723
290 0 59.077 12.7969 756 108.075 289.235 480.651
291 0 61.191 12.796 783 107.77 289.135 480.23
292 0 63.1263 12.4829 788 108.119 289.398 478.275
293 0 64.1992 12.7727 820 107.612 289.698 477.77
294 0 66.2216 12.7451 844 107.508 290.44 475.738
295 0 69.1703 13.1415 909 107.501 291.06 474.251
296 0 70.1876 12.7088 892 107.953 292.084 472.887
297 1 36.1463 8.05062 291 105.502 293.134 494.22
298 0 37.0873 7.90028 293 108.294 292.553 491.819
299 0 40.0851 10.7022 429 104.161 293.193 490.38
300 0 42.0528 10.6771 449 102.555 294.381 492.085
301 0 42.0143 10.5202 442 104.468 293.871 490.276
302 0 43.0589 11.1475 480 101.838 294.006 492.279
303 0 44.147 12.5037 552 101.955 292.808 489.446
304 0 46.1437 12.0493 556 102.833 292.764 490.151
305 0 48.1389 12.6093 607 101.059 292.1 489.252
306 0 50.1529 9.92963 498 106.06 291.653 489.372
307 0 51.2717 11.6243 596 102.829 291.706 487.289
308 0 53.1342 11.4992 611 103.087 291.661 487.129
309 0 56.2579 12.3005 692 101.494 291.377 485.613
310 0 55.0893 10.4013 573 107.667 290.429 483.654
311 0 58.1175 12.5263 728 102.982 290.463 484.266
312 0 60.118 12.3258 741 105.208 290.128 482.547
313 0 61.0606 12.3811 756 105.839 289.81 480.403
314 0 62.1381 10.8951 677 109.629 289.768 478.564
315 0 66.148 12.0487 797 105.814 289.158 478.136
316 0 67.1879 11.4902 772 107.339 288.246 479.512
317 0 70.2715 11.1283 782 109.472 287.848 474.641
318 0 73.1697 12.2182 894 107.441 287.931 474.843
319 0 76.2098 12.9117 984 105.965 287.628 474.544
320 0 78.213 13.3482 1044 105.294 288.229 472.108
321 1 42.2516 9.6801 409 104.567 289.633 491.829
322 0 45.1856 10.4901 474 103.747 289.943 490.88
323 0 45.1755 11.5549 522 102.347 289.778 489.149
324 0 47.0567 12.0918 569 102.735 291.07 487.564
325 0 49.0466 12.0905 593 101.872 291.066 486.975
326 0 51.1241 12.6164 645 102.305 292.554 486.157
327 0 53.0925 12.3746 657 102.865 292.74 486.037
328 0 52.1083 12.1286 632 104.81 292.559 483.576
329 0 56.2046 12.6146 709 102.193 291.274 483.519
330 0 55.1825 11.6704 644 104.835 291.939 485.062
331 0 59.1809 13.163 779 101.829 292.352 483.674
332 0 57.0842 11.4743 655 107.641 292.612 483.718
333 0 60.1713 13.0128 783 104.706 292.144 484.25
334 0 63.2096 13.3049 841 103.782 292.887 483.752
335 0 66.2223 14.0587 931 100.375 292.438 483.459
336 0 67.2377 13.1474 884 103.253 292.904 483.536
337 0 68.4555 12.6944 869 105.325 293.038 481.59
338 1 37.3458 9.88062 369 103.837 293.117 498.458
339 0 38.2328 10.0699 385 104.262 292.491 497.075
340 0 38.1644 8.85642 338 105.861 292.728 497.056
341 0 41.1772 12.1426 500 101.268 291.138 494.994
342 0 43.3126 13.137 569 98.5677 290.053 494.104
343 0 46.1824 11.9526 552 101.092 288.973 493.322
344 0 46.0504 11.2051 516 103.781 289.771 491.626
345 0 47.0898 12.9115 608 100.424 288.697 490.885
346 0 47.0919 13.3569 629 100.029 288.466 489.051
347 0 47.3168 11.8351 560 103.5 287.829 489.062
348 0 50.1744 13.4531 675 97.8444 288.807 489.93
349 0 51.1224 12.7146 650 100.837 288.198 486.574
350 0 52.1678 12.5748 656 102.079 288.707 484.812
351 0 54.1963 13.5434 734 99.0082 288.373 483.725
352 0 56.3112 14.1713 798 97.0063 288.259 484.748
353 0 57.2199 13.2996 761 98.3876 288.566 482.861
354 0 56.4916 11.9841 677 103.183 288.331 480.152
355 0 59.2641 12.8746 763 100.759 289.237 479.329
356 0 62.1622 13.7704 856 98.9089 290.051 480.004
357 0 65.2532 13.0875 854 98.7775 291.089 479.943
358 0 67.2933 13.6121 916 98.5644 291.391 476.439
359 1 31.114 8.58134 267 97.4494 293.187 497.176
360 0 35.2337 11.7785 415 94.2096 293.74 493.786
361 0 34.1588 9.30947 318 97.8868 295.148 496.752
362 0 37.0713 11.7072 434 97.2097 294.848 494.244
363 0 36.0176 12.2162 440 98.9114 294.905 493.045
364 0 38.0362 12.567 478 98.2134 294.573 493.755
365 0 38.0335 12.3575 470 100.251 293.9 493.6
366 0 38.0827 11.4225 435 101.708 292.917 496.775
367 0 41.1351 13.7109 564 98.2234 292.904 494.479
368 0 43.2398 12.4191 537 101.095 292.395 495.348
369 0 44.0941 13.3124 587 101.026 292.048 495.148
370 0 45.2236 12.8473 581 103.334 291.539 494.583
371 0 46.2568 12.409 574 104.873 290.993 494.566
372 0 50.1311 13.8836 696 102.282 290.43 493.004
373 0 48.1631 13.2051 636 105.969 290.885 493.159
374 0 51.1286 13.9843 715 104.615 289.952 491.102
375 0 50.0268 13.3129 666 109.872 289.003 490.045
376 0 54.1258 14.3739 778 107.037 288.166 489.26
377 0 55.0924 13.9584 769 106.845 288.261 488.614
378 0 56.0588 13.7891 773 109.517 287.42 487.673
379 0 56.1006 13.0658 733 113.037 287.348 485.333
380 0 60.0964 14.2438 856 110.867 287.567 484.568
381 0 61.0923 15.3374 937 110.184 287.415 482.554
382 0 61.0358 14.4342 881 113.726 288.093 482.069
383 0 64.1574 13.7007 879 116.066 288.46 480.152
384 1 34.0598 10.6284 362 116.928 289.122 495.11
385 0 35.0403 12.4428 436 112.633 289.429 495.7
386 0 36.0674 12.3103 444 112.565 289.496 496.329
387 0 38.04 12.0925 460 116.687 290.061 493.989
388 0 39.0161 12.8665 502 112.203 291.855 494.95
389 0 40.1431 12.9537 520 112.296 292.529 494.021
390 0 39.088 13.0986 512 116.312 292.635 493.324
391 0 40.0549 13.107 525 116.975 292.587 492.829
392 0 43.1101 15.3328 661 111.307 293.446 492.437
393 0 44.1005 13.1745 581 115.25 293.473 493.792
394 0 44.061 14.5707 642 115.293 293.836 492.444
395 0 46.02 14.8196 682 114.559 293.818 494.066
396 0 48.112 14.487 697 115.135 293.987 494.352
397 0 49.1704 14.1142 694 118.633 293.135 492.615
398 0 50.1407 14.6787 736 118.223 292.947 491.711
399 0 53.0308 15.3119 812 115.536 292.989 492.042
400 0 56.0914 15.4926 869 114.381 292.458 491.107
401 0 57.1134 15.583 890 114.622 291.22 489.047
402 0 59.1951 14.8999 882 115.285 290.382 489.126
403 0 61.0699 15.3922 940 114.702 291.133 486.87
404 0 64.1202 14.6288 938 116.482 290.134 485.488
405 0 65.2069 14.0629 917 118.841 289.49 483.818
406 0 66.1537 14.3454 949 119.372 289.604 482.908
407 0 70.1327 14.4441 1013 118.501 288.877 481.888
408 0 71.14 13.9584 993 122.9 288.487 478.915
409 1 36.0548 12.5087 451 120.122 288.869 496.364
410 0 40.1515 14.0966 566 117.645 288.779 492.553
411 0 42.0406 12.9637 545 120.394 288.202 493.64
412 0 42.0839 13.5206 569 120.849 288.22 490.984
413 0 43.0408 13.5685 584 120.591 288.661 490.425
414 0 45.0439 12.7875 576 122.082 289.212 489.743
415 0 46.131 13.375 617 121.703 290.12 489.17
416 0 44.0218 13.9931 616 124.136 290.599 488.63
417 0 49.1609 14.6865 722 119.65 291.252 486.844
418 0 48.0591 14.2325 684 121.575 292.136 487.583
419 0 51.147 13.686 700 123.839 292.874 486.037
420 0 55.1257 13.6597 753 121.548 293.576 486.631
421 0 57.0703 14.5084 828 121.621 294.336 486.082
422 0 56.2256 13.4992 759 126.547 294.647 485.823
423 0 61.1715 16.3802 1002 118.834 295.159 485.886
424 0 61.129 15.0829 922 126.06 294.895 485.196
425 0 64.1941 14.9391 959 126.788 295.14 484.964
426 0 65.1325 15.0309 979 127.775 294.815 484.114
427 0 69.1668 15.0361 1040 126.858 294.615 484.205
428 0 70.1626 14.2526 1000 132.614 293.386 482.399
429 1 39.0173 12.8404 501 126.756 294.04 499.77
430 0 41.0553 12.9825 533 128.629 293.767 498.568
431 0 43.0269 13.8053 594 127.444 292.657 497.305
432 0 43.0855 13.2295 570 130.193 291.998 496.288
433 0 44.0342 14.0573 619 129.835 291.362 495.481
434 0 45.0838 13.1311 592 131.468 290.488 495.157
435 0 47.0836 13.2318 623 131.714 289.38 494.299
436 0 49.1729 14.5812 717 130.339 289.324 490.325
437 0 53.0924 15.3318 814 125.428 288.872 489.903
438 0 54.1226 15.2801 827 126.58 288.605 488.684
439 0 56.1122 15.8967 892 125.115 288.133 486.753
440 0 54.0993 14.0667 761 132.986 287.92 485.24
441 0 59.2771 14.6937 871 127.418 288.031 484.191
442 0 60.202 14.4679 871 129.071 288.107 481.715
443 0 63.1298 14.2563 900 129.263 288.114 480.517
444 0 64.1181 13.288 852 131.738 288.766 479.364
445 0 67.1978 14.7921 994 126.934 289.68 478.19
446 1 34.0998 11.2904 385 129.821 289.862 492.397
447 0 36.1105 12.9325 467 123.214 291.58 492.223
448 0 36.0936 12.4953 451 124.871 292.235 493.016
449 0 38.0559 13.3225 507 121.99 293.199 492.83
450 0 39.1497 12.1074 474 125.58 294.631 491.747
451 0 42.1158 13.1779 555 120.836 294.793 492.043
452 0 43.0791 13.4636 580 120.671 295.571 492.786
453 0 44.2372 13.405 593 119.626 295.676 493.4
454 0 45.18 12.749 576 122.005 295.434 492.946
455 0 46.1517 13.694 632 119.693 294.907 491.592
456 0 49.1506 14.2826 702 117.491 294.499 493.095
457 0 51.0567 12.7701 652 122.325 294.04 491.336
458 0 52.1188 14.1983 740 119.127 294.273 491.53
459 0 54.2246 14.4215 782 117.583 294.168 492.972
460 0 56.1155 13.8643 778 120.577 293.684 490.127
461 0 58.075 13.4137 779 120.478 292.617 489.209
462 0 59.2575 14.7998 877 118.355 291.732 488.604
463 0 62.134 13.8571 861 120.485 290.734 488.157
464 0 65.1175 14.6351 953 120.56 290.399 484.051
465 0 65.176 13.594 886 125.01 289.45 482.6
466 1 35.2072 11.2477 396 123.619 289.432 497.21
467 0 35.0685 11.8055 414 124.353 289.396 497.068
468 0 38.0632 11.6385 443 125.982 289.93 495.637
469 0 40.1435 12.9037 518 122.836 289.571 493.875
470 0 40.0536 14.0062 561 122.312 288.528 493.162
471 0 42.0714 13.8812 584 122.608 288.702 491.68
472 0 43.2006 13.3332 576 126.29 288.724 488.552
473 0 44.1151 13.5101 596 127.203 288.834 488.55
474 0 45.2577 14.075 637 126.256 289.634 487.636
475 0 46.2481 12.7789 591 128.105 290.452 488.342
476 0 48.2777 13.0081 628 127.898 290.664 487.253
477 0 50.3223 13.2943 669 126.41 292.297 485.839
478 0 52.2019 13.601 710 121.67 293.368 486.32
479 0 53.0808 13.9787 742 121.286 294.966 485.527
480 0 57.3738 15.0417 863 117.502 295.338 486.852
481 0 58.3638 13.5015 788 123.251 295.778 485.543
482 0 61.2106 13.1676 806 124.671 296.138 485.225
483 0 63.1509 14.0774 889 122.875 296.273 484.27
484 0 68.273 15.3062 1045 118.585 296.621 482.745
485 0 70.0929 13.5534 950 124.054 295.814 482.277
486 1 39.1688 10.9271 428 124.514 295.654 498.734
487 0 39.0552 12.7 496 122.254 295.016 498.681
488 0 42.1538 12.146 512 123.822 294.369 498.795
489 0 43.2342 14.4099 623 119.278 293.724 498.292
490 0 44.2514 13.9204 616 120.677 293.123 497.786
491 0 45.1585 13.1094 592 123.508 291.971 495.841
492 0 48.1982 15.6022 752 116.832 290.999 494.324
493 0 48.0898 14.1818 682 121.935 290.142 493.537
494 0 52.3029 14.0719 736 119.217 289.329 492.068
495 0 50.1776 13.233 664 124.863 289.245 490.652
496 0 55.2993 14.1051 780 121.136 288.169 487.727
497 0 56.3718 14.5995 823 121.522 287.721 486.022
498 0 58.0486 14.7635 857 120.368 287.259 485.306
499 0 59.2165 14.8438 879 120.09 287.193 483.443
500 0 62.1154 15.1814 943 118.636 287.82 481.425
501 0 63.3773 13.8693 879 123.201 287.556 478.197
502 0 66.2333 14.5999 967 120.586 288.492 477.499
503 0 68.2378 13.8779 947 122.129 289.344 476.241
504 0 71.2165 14.8421 1057 119.897 289.882 474.542
505 1 36.1367 12.2313 442 118.446 290.328 492.305
506 0 38.0862 13.9683 532 115.331 291.679 491.692
507 0 36.0666 12.671 457 120.083 294.182 491.608
508 0 40.0353 14.1875 568 114.68 295.317 492.54
509 0 41.0085 14.0703 577 115.759 297.243 492.118
510 0 43.0425 14.265 614 114.264 297.081 492.34
511 0 44.0789 13.7708 607 116.094 298.059 492.554
512 0 46.0352 13.8372 637 114.959 298.463 493.65
513 0 45.051 13.7178 618 119.375 298.288 493.1
514 0 49.0523 14.454 709 115.99 298.017 493.814
515 0 51.0853 15.2882 781 114.398 296.548 492.795
516 0 50.0191 13.075 654 122.122 296.098 494.161
517 0 54.1366 12.8564 696 120.734 295.29 494.391
518 0 56.0958 13.9939 785 116.857 293.545 493.192
519 0 58.0784 13.8433 804 117.236 292.662 491.476
520 0 60.054 13.1548 790 118.616 290.485 490.811
521 0 64.1146 13.7722 883 116.778 289.492 487.962
522 1 33.0304 10.4449 345 118.014 287.652 503.029
523 0 35.0172 11.6514 408 116.159 286.721 502.169
524 0 38.0675 13.2922 506 109.632 286.2 501.304
525 0 37.0467 11.7419 435 117.269 285.577 499.961
526 0 38.1074 12.2548 467 116.634 284.488 498.619
527 0 40.0346 13.7381 550 113.975 284.016 496.545
528 0 42.1713 12.0461 508 117.693 283.518 496.089
529 0 41.1132 12.7939 526 117.335 283.2 495.869
530 0 45.1927 13.3429 603 114.308 283.075 494.023
531 0 45.2706 12.3259 558 118.023 283.769 492.749
532 0 48.221 12.6916 612 115.325 284.428 492.368
533 0 49.1479 13.1236 645 114.27 285.411 492.662
534 0 50.139 13.0637 655 115.663 286.598 490.841
535 0 52.1856 13.5095 705 114.294 288.274 489.661
536 0 54.1123 12.8067 693 115.131 289.889 491.133
537 0 56.1541 13.552 761 114.25 291.761 490.083
538 0 58.1301 13.6934 796 115.191 292.6 489.167
539 0 62.2718 13.3929 834 115.24 294.299 489.814
540 0 65.3124 15.4182 1007 112.514 294.851 490.337
541 1 36.1389 10.9301 395 115.241 295.714 507.205
542 0 36.2271 11.4279 414 120.841 294.046 505.862
543 0 38.1173 12.8026 488 119.303 292.252 505.885
544 0 40.0991 12.4442 499 120.06 291.319 507.03
545 0 41.1311 12.5453 516 121.843 289.655 505.564
546 0 41.2125 13.7337 566 121.585 287.855 505.739
547 0 45.133 13.6707 617 121.013 286.34 503.801
548 0 45.0906 13.484 608 124.439 285.482 502.641
549 0 47.1587 13.2319 624 124.909 284.476 501.524
550 0 49.178 13.3393 656 123.966 282.825 499.576
551 0 51.2053 14.5298 744 120.446 282.462 497.738
552 0 53.1226 15.3795 817 117.957 281.892 495.37
553 0 53.1404 14.1888 754 121.581 281.751 495.141
554 0 55.1881 13.1731 727 123.827 281.209 492.563
555 0 55.2849 13.5661 750 123.639 281.193 489.843
556 0 58.0848 13.8935 807 122.279 280.712 487.103
557 0 59.1153 14.1249 835 122.595 280.423 485.177
558 0 61.3435 14.5085 890 120.147 280.654 483.889
559 0 63.2599 13.0572 826 123.9 281.229 481.735
560 0 66.1127 14.9744 990 119.433 281.74 480.56
561 1 35.0867 12.1413 426 120.035 282.577 494.906
562 0 37.0192 11.5076 426 122.164 284.101 493.859
563 0 38.0647 11.7957 449 120.947 286.238 493.067
564 0 36.0413 12.2082 440 122.959 288.066 492.927
565 0 40.0684 13.2274 530 119.011 289.894 493.072
566 0 39.1008 12.9154 505 121.287 292.743 493.202
567 0 43.0131 14.763 635 114.786 294.11 493.304
568 0 44.0534 13.529 596 118.822 295.587 493.512
569 0 47.1171 14.4109 679 117.065 295.261 493.078
570 0 48.0671 14.9167 717 117.218 294.868 494.365
571 0 50.0323 14.5506 728 118.934 294.508 494.585
572 0 53.1507 14.4683 769 120.359 292.983 493.585
573 0 53.108 14.028 745 122.027 292.958 495.644
574 0 57.151 14.278 816 120.857 292.259 494.82
575 0 58.2064 14.4314 840 122.296 291.012 494.282
576 0 63.0474 14.1322 891 122.017 289.786 492.967
577 0 64.2744 13.4268 863 125.394 287.969 490.846
578 0 68.2597 13.5805 927 124.851 287.04 488.273
579 1 38.1677 12.2093 466 121.74 285.841 503.049
580 0 39.0739 11.7214 458 123.474 284.817 502.417
581 0 40.0555 11.8586 475 127.286 284.259 499.326
582 0 43.0396 13.5689 584 124.543 282.894 496.911
583 0 44.0846 13.1338 579 124.513 282.629 495.991
584 0 46.0889 13.2787 612 125.835 281.642 493.229
585 0 47.0915 14.4188 679 122.564 281.935 493.072
586 0 48.094 13.6192 655 126.863 281.879 491.125
587 0 51.1426 14.0587 719 124.718 282.033 489.324
588 0 51.0741 13.9014 710 126.246 283.069 487.028
589 0 54.0646 13.4839 729 125.436 283.494 487.488
590 0 54.1363 13.466 729 126.487 284.826 484.314
591 0 57.1193 14.6711 838 121.852 285.691 484.171
592 0 58.2168 14.6006 850 123.131 285.678 483.439
593 0 60.2291 14.1792 854 123.033 288.452 483.694
594 0 65.2655 14.2648 931 119.792 291.398 484.669
595 0 65.311 14.1936 927 120.928 293.024 483.821
596 0 68.2172 13.5889 927 122.825 294.674 482.841
597 0 71.3662 14.1804 1012 120.956 295.003 482.432
598 0 75.2814 13.9211 1048 122.632 295.431 481.761
599 0 79.2388 14.6898 1164 120.418 295.126 480.902
600 0 84.1724 14.696 1237 119.056 295.004 481.628
601 1 41.0478 11.1821 459 120.717 292.49 504.645
602 0 43.1381 11.2198 484 120.409 292.839 505.767
603 0 47.1019 12.8233 604 114.982 291.551 506.972
604 0 48.09 13.4331 646 116.427 289.904 506.263
605 0 49.0927 13.8106 678 115.355 288.345 505.686
606 0 51.0989 13.4641 688 114.067 286.949 506.69
607 0 53.0578 13.5701 720 114.885 285.456 505.885
608 0 56.2008 14.2703 802 113.59 283.505 504.656
609 0 55.2384 13.1249 725 118.823 282.062 504.132
610 0 58.1834 12.6325 735 119.256 281.385 502.902
611 0 61.112 13.6962 837 117.705 280.859 501.307
612 0 61.1369 13.1017 801 120.476 279.789 498.794
613 0 66.1392 13.9403 922 118.658 279.341 496.665
614 0 67.1903 14.2431 957 117.621 279.013 496.789
615 0 68.1909 13.4769 919 120.955 279.414 492.217
616 0 73.2405 13.5035 989 118.847 279.125 489.887
617 1 41.188 11.1683 460 114.28 279.587 506.68
618 0 42.1059 11.2336 473 115.118 279.753 505.765
619 0 44.1575 11.6175 513 116.577 278.906 502.904
620 0 48.1436 11.9434 575 113.169 280.122 501.649
621 0 46.1701 12.1507 561 114.852 281.152 500.927
622 0 47.1429 12.8545 606 115.295 282.381 499.584
623 0 50.1904 12.8909 647 114.951 283.998 499.504
624 0 51.1721 12.5459 642 115.243 285.632 499.659
625 0 54.1832 13.3436 723 112.935 286.9 498.214
626 0 56.1438 13.1448 738 113.266 286.923 498.098
627 0 58.1103 13.4227 780 114.477 287.45 496.505
628 0 61.0737 13.6884 836 113.995 287.508 495.724
629 0 62.0701 12.4214 771 118.185 287.414 496.629
630 0 65.0699 13.0168 847 118.162 285.595 498.29
631 0 69.1311 13.3225 921 116.926 285.431 499.067
632 0 73.1988 13.0876 958 118.491 284.824 497.577
633 0 76.1018 13.1797 1003 119.44 283.314 498.216
634 0 79.2489 14.4986 1149 119.94 282.547 495.107
635 0 81.3011 12.9272 1051 125.152 282.156 492.944
636 0 83.1485 13.8427 1151 125.172 281.116 491.963
637 0 88.2105 14.4767 1277 124.472 278.876 490.445
638 0 90.2842 13.0477 1178 129.249 277.718 488.949
639 1 49.139 11.0706 544 127.301 276.053 509.006
640 0 50.1935 12.2127 613 125.574 275.949 507.302
641 0 53.1136 13.4994 717 122.753 275.869 504.753
642 0 55.1729 13.4124 740 124.142 274.982 501.119
643 0 54.3766 12.5422 682 127.292 274.66 500.242
644 0 59.1083 14.3635 849 121.536 275.39 498.694
645 0 60.3016 13.2335 798 125.298 276.293 497.841
646 0 62.3859 12.5189 781 127.432 276.549 495.529
647 0 66.3426 14.802 982 120.954 277.531 495.099
648 0 68.1705 13.2755 905 125.382 278.845 492.585
649 0 71.2443 13.6853 975 122.55 280.146 492.737
650 0 74.2731 14.0158 1041 122.842 281.059 490.418
651 0 76.3774 13.106 1001 125.777 282.702 489.882
652 1 39.0909 10.514 411 126.209 283.603 508.37
653 0 39.1081 11.5066 450 125.216 285.049 508.042
654 0 43.149 12.6075 544 123.14 286.651 507.546
655 0 43.2784 12.4312 538 124.757 287.481 507.409
656 0 46.2862 13.611 630 121.962 288.414 506.995
657 0 49.2018 14.2881 703 119.626 288.637 506.626
658 0 50.1558 13.9764 701 122.659 287.695 506.725
659 0 51.4518 13.9743 719 123.072 287.647 506.405
660 0 54.4504 14.3617 782 122.513 286.775 505.781
661 0 54.3937 14.3215 779 124.168 285.615 505.65
662 0 58.3465 14.0882 822 123.769 285.176 504
663 0 60.3674 15.4885 935 122.335 283.541 502.017
664 0 64.3919 14.0701 906 123.327 282.456 501.515
665 0 64.2814 13.9076 894 123.145 281.072 498.67
666 0 68.319 13.5394 925 123.699 280.369 495.61
667 0 70.3872 14.0224 987 121.613 279.147 491.728
668 0 72.4295 14.3864 1042 120.78 278.535 489.006
669 1 39.1929 12.1961 478 118.818 278.213 506.634
670 0 40.2786 10.5267 424 120.486 277.722 505.175
671 0 40.1873 12.0685 485 119.608 277.631 501.662
672 0 41.2502 11.4909 474 121.384 278.177 500.39
673 0 43.0442 12.3362 531 120.695 279.252 498.075
674 0 47.0759 13.9987 659 115.1 279.563 497.255
675 0 45.1447 12.5375 566 120.417 280.219 496.647
676 0 49.1092 14.2336 699 114.579 281.65 494.763
677 0 51.2004 13.1249 672 114.882 282.911 494.696
678 0 52.2381 12.979 678 115.465 283.339 492.73
679 0 53.1391 12.8531 683 115.359 284.319 492.578
680 0 57.3455 13.532 776 110.874 286.973 492.906
681 0 57.0861 13.646 779 111.807 288.896 491.737
682 0 59.076 15.0992 892 108.658 290.046 490.678
683 0 61.0471 13.7435 839 111.449 291.628 491.13
684 0 64.2549 13.5709 872 111.935 291.358 489.369
685 0 68.1427 13.7799 939 111.753 292.256 489.921
686 0 69.2422 14.1532 980 112.193 292.588 490.645
687 0 73.2313 14.5156 1063 112.969 293.008 487.91
688 0 76.3347 14.9735 1143 113.46 292.339 486.713
689 0 79.2973 14.3889 1141 114.97 290.983 486.314
690 1 43.0914 10.7678 464 120.407 290.293 504.746
691 0 44.0278 13.0599 575 115.078 288.896 503.817
692 0 45.0585 13.2494 597 116.956 288.146 503.64
693 0 48.0339 13.886 667 114.124 286.84 501.297
694 0 50.1077 13.8102 692 116.386 286.204 498.566
695 0 51.2927 14.4465 741 116.008 283.947 496.393
696 0 53.0592 14.9456 793 115.567 283.197 494.846
697 0 55.114 14.0981 777 118.206 282.278 492.954
698 0 56.0913 14.6903 824 117.693 282.519 489.616
699 0 59.0745 14.541 859 115.711 283.146 490.772
700 0 62.1263 16.1284 1002 113.418 283.385 486.496
701 0 64.0622 15.0323 963 116.085 283.406 485.099
702 0 67.1463 15.429 1036 112.264 284.388 485.09
703 0 68.0888 15.421 1050 114.38 285.534 481.769
704 0 70.0969 14.9079 1045 115.99 286.124 479.471
705 1 37.0182 11.2918 418 117.895 287.208 495.732
706 0 41.0709 12.2958 505 114.202 287.655 493.988
707 0 41.089 11.6576 479 116.468 288.977 494.038
708 0 42.154 12.8813 543 113.985 290.455 493.709
709 0 43.0282 12.3175 530 114.123 292.323 494.8
710 0 45.0217 13.7933 621 112.253 295.464 492.958
711 0 49.0436 13.906 682 109.282 295.969 494.93
712 0 50.0895 13.975 700 109.766 297.399 494.214
713 0 50.0981 13.0145 652 114.512 299.206 494.314
714 0 53.1797 12.9373 688 113.663 299.602 494.154
715 0 53.0839 13.0548 693 113.222 298.33 494.564
716 0 57.1398 13.1782 753 113.402 297.297 494.019
717 0 61.1707 13.8465 847 111.033 296.74 493.685
718 0 61.1129 13.2051 807 113.295 294.864 494.677
719 0 65.2253 13.1084 855 113.773 293.305 492.829
720 0 67.1577 13.0142 874 114.8 292.174 490.176
721 1 39.0319 11.4009 445 111.074 291.378 506.546
722 0 41.0677 11.0062 452 110.929 289.768 505.011
723 0 41.0051 12.2424 502 111.542 287.874 502.554
724 0 43.0324 12.1072 521 113.021 285.798 499.714
725 0 44.0718 11.4586 505 115.826 285.057 498.204
726 0 45.0205 13.1274 591 114.129 284.651 496.939
727 0 48.0505 12.6117 606 114.031 284.442 495.234
728 0 48.1235 14.5251 699 115.24 283.731 496.568
729 0 46.0795 13.2814 612 120.742 283.65 496.374
730 0 49.1408 13.268 652 121.488 283.209 493.092
731 0 49.0717 12.8995 633 122.935 284.043 492.051
732 0 51.094 13.8177 706 119.283 284.69 490.817
733 0 54.0626 13.0959 708 120.78 285.356 489.264
734 0 55.1036 13.8466 763 117.796 286.25 487.028
735 0 59.0759 14.3544 848 115.579 287.949 486.278
736 0 60.1786 14.1412 851 115.286 289.988 487.356
737 0 64.0311 14.4773 927 113.53 291.154 487.327
738 0 66.0552 13.4282 887 116.59 292.576 486.417
739 1 35.0539 12.0386 422 114.564 294.024 502.472
740 0 36.0567 11.1768 403 114.089 295.092 504.757
741 0 36.0775 12.584 454 113.172 295.447 505.394
742 0 39.1468 13.2833 520 113.346 295.804 505.515
743 0 38.0438 12.9587 493 119.396 295.426 506.201
744 0 39.2189 13.3354 523 114.26 294.294 508.625
745 0 37.0189 12.264 454 128.894 293.033 510.61
746 0 39.0501 13.1882 515 125.641 290.868 511.262
747 0 38.1624 13.1281 501 128.058 288.11 511.25
748 0 39.0404 13.3195 520 128.306 285.973 509.66
749 0 42.0213 13.5645 570 126.97 284.939 509.03
750 0 40.1085 13.1394 527 131.92 283.765 508.507
751 0 43.0374 14.499 624 126.564 281.984 507.529
752 0 43.0996 14.0373 605 129.37 281.431 503.755
753 0 45.0446 14.2526 642 129.544 280.122 504.302
754 0 46.0245 14.4923 667 130.601 279.471 502.682
755 0 47.06 15.5334 731 126.569 279.421 501.596
756 0 49.0775 15.0374 738 127.497 280.187 499.934
757 0 49.1583 15.5213 763 127.853 279.738 498.705
758 0 52.0257 14.3391 746 129.255 280.245 496.639
759 0 51.1145 14.1643 724 133.023 279.706 492.796
760 0 54.0707 15.3503 830 126.79 280.59 493.404
761 0 55.0711 15.7433 867 127.206 281.393 490.678
762 0 58.1063 15.7986 918 123.729 282.765 491.198
763 0 61.0758 16.0948 983 122.059 284.708 490.058
764 0 63.1012 16.7192 1055 120.777 286.393 489.197
765 0 65.1241 16.8755 1099 120.49 288.507 487.663
766 1 31.0256 11.7 363 126.278 290.325 505.242
767 0 32.0157 12.4626 399 125.614 292.198 505.481
768 0 36.0677 13.3638 482 123.463 293.402 504.035
769 0 37.0208 14.0462 520 123.902 293.787 503.302
770 0 37.0249 13.7475 509 124.534 293.678 505.358
771 0 41.0173 15.2375 625 118.304 292.675 505.939
772 0 43.0434 14.7525 635 116.943 292.439 505.254
773 0 42.0305 14.4895 609 121.14 290.938 505.023
774 0 44.0512 14.9372 658 117.818 289.093 503.616
775 0 47.0626 15.1075 711 115.226 288.266 503.942
776 0 49.1065 15.3137 752 106.27 287.352 503.12
777 0 52.1206 14.6391 763 106.131 286.294 502.402
778 0 52.0374 14.2974 744 107.61 285.3 501.331
779 0 56.0488 16.664 934 103.578 283.463 499.396
780 0 58.1482 15.2885 889 106.146 282.123 498.476
781 0 60.1204 16.2175 975 105.354 281.098 495.592
782 0 63.058 14.336 904 108.957 280.71 494.472
783 1 31.0678 12.3923 385 109.478 280.844 507.623
784 0 33.1028 12.5669 416 111.695 280.952 504.584
785 0 34.0172 12.8759 438 110.324 281.274 505.402
786 0 35.0503 14.4364 506 108.549 281.864 503.194
787 0 37.0568 13.7896 511 109.975 281.935 502.706
788 0 39.0382 13.474 526 109.589 282.198 501.99
789 0 38.0187 13.0199 495 111.347 283.133 501.85
790 0 40.0621 14.3278 574 108.171 283.969 501.74
791 0 43.0571 13.5634 584 108.534 286.185 500.592
792 0 45.0299 14.1017 635 107.4 287.787 500.546
793 0 46.0196 13.2552 610 107.392 290.064 501.436
794 0 49.0844 13.9963 687 105.243 291.464 502.416
795 0 51.0826 14.4863 740 104.495 291.847 502.849
796 0 53.0789 14.4879 769 106.047 292.268 501.376
797 0 57.0897 14.5385 830 106.066 292.151 501.684
798 0 57.1178 14.1637 809 108.79 291.501 501.324
799 1 31.0331 11.8261 367 113.913 290.537 515.248
800 0 33.0246 12.2939 406 113.268 289.103 515.906
801 0 35.0233 11.992 420 116.502 288.136 516.31
802 0 37.0497 13.4144 497 113.915 286.137 515.038
803 0 38.0164 13.9151 529 118.202 283.79 512.788
804 0 41.0095 14.2894 586 117.932 282.162 512.343
805 0 40.0923 13.7682 552 125.158 280.746 510.138
806 0 43.0953 15.2453 657 121.647 279.788 508.408
807 0 41.0322 13.6478 560 129.402 278.72 508.457
808 0 45.0546 13.7611 620 133.037 277.74 504.858
809 0 46.0776 14.6275 674 133.582 277.153 502.72
810 0 48.0518 14.0265 674 135.418 276.981 501.261
811 0 49.041 14.5592 714 133.889 277.057 499.179
812 0 51.075 14.3123 731 135.807 278.012 497.305
813 0 53.0526 14.6458 777 135.252 278.176 495.301
814 0 54.0835 15.0878 816 132.243 279.109 494.388
815 0 56.0677 14.5003 813 133.899 280.344 492.225
816 0 59.0381 14.804 874 131.622 281.097 493.006
817 0 59.115 14.5479 860 135.197 283.084 489.896
818 0 62.1124 13.701 851 135.969 285.087 488.953
819 0 66.1152 15.5032 1025 129.192 286.826 488.452
820 0 68.1651 15.7119 1071 128.101 288.674 488.668
821 1 35.0624 13.7184 481 129.667 290.01 503.784
822 0 36.025 13.3241 480 130.558 290.883 504.781
823 0 39.0371 13.9611 545 128.628 292.343 505.251
824 0 40.065 14.8009 593 127.425 292.798 504.944
825 0 42.0249 14.3248 602 128.347 292.857 504.978
826 0 44.0811 15.9252 702 126.644 292.064 504.214
827 0 47.0199 15.9507 750 125.408 291.463 504.439
828 0 47.0557 15.2585 718 129.798 290.213 505.333
829 0 49.0351 16.3149 800 128.195 287.909 502.094
830 0 51.0343 15.3622 784 130.055 287.101 502.661
831 0 53.0587 16.2462 862 126.995 285.761 500.503
832 0 55.054 16.1478 889 129.79 284.525 498.985
833 0 57.1567 14.9239 853 130.304 283.288 498.782
834 0 59.046 15.5303 917 131.836 282.282 495.356
835 0 62.1084 14.7001 913 132.026 282.073 494.321
836 0 64.0624 14.72 943 130.842 281.542 492.548
837 1 34.0778 12.1193 413 129.446 281.69 506.489
838 0 34.066 13.1216 447 128.608 281.461 504.038
839 0 35.0139 12.8235 449 129.156 281.717 502.773
840 0 36.1058 14.2636 515 127.282 282.715 502.272
841 0 39.0179 14.6856 573 126.558 283.356 500.74
842 0 41.1158 15.3712 632 124.948 284.69 499.652
843 0 41.0485 14.8361 609 130.076 285.512 500.371
844 0 43.1277 15.0715 650 127.632 286.098 500.892
845 0 45.0822 15.3275 691 126.974 287.521 500.004
846 0 45.0697 13.6455 615 131.613 289.111 501.431
847 0 48.0555 15.0867 725 127.166 291.257 500.426
848 0 51.093 15.5599 795 125.096 292.521 501.205
849 0 54.1136 15.0794 816 125.837 293.953 501.013
850 0 56.0694 15.4986 869 127.65 294.298 501.787
851 0 57.0812 15.4517 882 128.213 294.5 502.188
852 0 61.1719 15.6608 958 128.639 294.293 499.848
853 0 64.1839 16.0476 1030 126.52 293.283 501.791
854 0 68.1123 15.0046 1022 128.704 290.731 501.898
855 1 31.0211 12.1853 378 130.344 288.59 518.68
856 0 37.0147 14.6969 544 126.068 286.991 516.024
857 0 36.2 14.4475 523 128.839 284.803 513.27
858 0 36.0117 13.8566 499 135.172 282.784 512.265
859 0 38.0629 14.6337 557 129.088 281.668 511.82
860 0 39.0355 14.4228 563 134.131 280.085 509.055
861 0 42.0287 14.4663 608 130.753 279.566 508.317
862 0 42.052 14.6961 618 132.439 279.348 506.618
863 0 45.0504 15.0498 678 129.448 278.648 505.456
864 0 46.0898 16.0556 740 126.697 278.295 503.532
865 0 44.0167 13.8584 610 135.546 278.52 503.73
866 0 46.112 14.6383 675 137.68 279.136 500.433
867 0 49.0172 14.6887 720 136.032 278.365 499.99
868 0 49.0285 15.2768 749 131.383 279.455 499.474
869 0 52.1558 15.1469 790 129.532 280.527 496.78
870 0 54.098 15.1762 821 128.002 282.425 496.797
871 0 56.0741 15.1763 851 130.972 282.82 495.998
872 0 58.0486 14.7118 854 131.43 284.361 494.169
873 1 31.0521 13.3324 414 130.961 287.017 507.06
874 0 32.0321 13.6113 436 131.42 288.236 507.268
875 0 36.1608 14.3525 519 123.809 289.033 509.048
876 0 35.0697 14.9702 525 126.99 289.707 507.27
877 0 38.0947 15.1202 576 127.097 290.589 507.554
878 0 37.0838 15.074 559 130.633 290.447 509.49
879 0 39.1228 13.3426 522 136.822 290.1 508.368
880 0 42.0472 15.9107 669 129.981 290.979 507.281
881 0 45.033 15.2999 689 131.277 289.222 507.183
882 0 46.1357 14.6958 678 131.617 287.111 508.223
883 0 50.0802 15.5351 778 130.022 285.718 506.175
884 0 52.0417 14.4692 753 131.252 284.679 506.526
885 0 53.0824 14.7695 784 134.673 282.827 501.892
886 0 56.0298 15.6167 875 128.958 281.595 499.833
887 0 58.0552 16.5877 963 127.515 279.988 497.46
888 0 60.0648 15.8496 952 129.613 279.696 494.858
889 0 63.0679 16.1889 1021 128.71 279.087 493.813
890 0 64.0401 16.4897 1056 130.248 278.969 491.794
891 0 67.1766 15.6453 1051 134.07 278.853 489.238
892 1 35.03 13.9309 488 134.83 279.344 503.457
893 0 36.0246 14.2958 515 131.583 280.01 502.307
894 0 38.0484 13.9296 530 133.813 280.734 500.17
895 0 39.0331 15.3203 598 130.329 281.107 498.627
896 0 41.0482 14.7875 607 130.661 282.825 498.443
897 0 42.0365 15.4865 651 129 284.048 496.78
898 0 43.0601 15.0952 650 131.402 285.685 496.995
899 0 46.0351 15.0103 691 127.922 286.744 497.427
900 0 47.0796 14.6136 688 130.11 288.564 496.776
901 0 48.0883 14.7229 708 128.938 290.23 497.453
902 0 51.0752 14.9779 765 128.759 292.595 497.061
903 0 52.1161 15.5038 808 126.571 294.02 498.017
904 0 55.1031 16.3149 899 122.67 294.834 498.565
905 0 59.13 16.117 953 122.995 295.252 498.525
906 0 60.1167 14.8378 892 127.215 294.872 500.178
907 0 63.1701 16.2102 1024 124.438 293.801 498.778
908 0 68.069 17.115 1165 121.593 292.528 497.464
909 1 36.0228 13.1028 472 125.379 290.589 514.352
910 0 35.243 11.3498 400 128.05 288.34 514.608
911 0 39.0762 13.8703 542 121.677 286.339 513.506
912 0 40.0981 14.5394 583 122.88 284.455 510.022
913 0 40.0659 13.952 559 127.719 283.912 510.447
914 0 42.1622 14.3731 606 127.482 282.285 508.604
915 0 44.2404 13.2684 587 129.193 281.274 506.422
916 0 46.0436 15.1378 697 125.165 279.676 504.531
917 0 48.0554 14.5041 697 128.651 279.422 502.07
918 0 50.1678 14.6907 737 127.86 279.396 500.475
919 0 52.1776 14.2973 746 127.469 279.603 499.808
920 0 57.164 15.8491 906 121.843 279.666 499.051
921 0 57.2413 14.6747 840 126.689 280.318 497.086
922 0 60.2465 15.7519 949 124.738 280.707 495.081
923 0 62.1537 16.1535 1004 123.052 281.243 493.807
924 0 66.2352 14.8562 984 124.565 281.828 493.271
925 0 67.0763 15.2066 1020 124.916 282.983 489.565
926 1 34.0923 12.8182 437 121.497 284.316 507.453
927 0 37.0565 13.6278 505 119.426 286.548 507.119
928 0 37.0558 13.3852 496 122.337 287.405 507.31
929 0 39.0348 14.7304 575 120.565 288.948 507.937
930 0 41.1498 14.4351 594 121.153 290.837 508.961
931 0 42.1726 14.1561 597 126.116 291 508.683
932 0 44.1923 14.3464 634 125.929 291.221 507.483
933 0 47.1203 13.9855 659 124.364 290.455 508.269
934 0 50.1397 14.3998 722 123.648 289.486 508.316
935 0 48.1137 13.0732 629 130.173 287.858 507.022
936 0 53.083 14.2984 759 126.177 286.103 507.884
937 0 54.2233 15.8603 860 123.931 284.392 504.687
938 0 59.1539 15.7386 931 123.037 282.795 503.64
939 0 59.1584 15.4501 914 128.393 281.415 499.967
940 0 62.0562 15.8083 981 128.269 280.15 499.293
941 0 64.0881 14.839 951 131.791 279.019 495.433
942 0 67.2108 14.5512 978 132.823 278.432 493.127
943 0 71.2108 15.1662 1080 130.743 277.399 490.376
944 0 74.0983 15.6144 1157 130.974 277.323 488.361
945 0 76.3109 15.3975 1175 130.97 277.37 486.244
946 0 76.1613 14.7581 1124 133.758 277.028 483.056
947 1 39.1366 12.5202 490 129.376 276.929 499.871
948 0 38.154 13.2358 505 130.434 278.22 498.705
949 0 41.2089 11.9877 494 130.605 278.528 498.188
950 0 43.1373 12.9354 558 129.514 279.896 496.81
951 0 43.0919 13.0187 561 129.023 281.959 495.485
952 0 46.0818 13.6279 628 123.979 282.86 496.56
953 0 47.0315 13.7993 649 124.861 285.441 495.824
954 0 49.066 12.7379 625 124.523 287.461 496.36
955 0 52.069 13.7318 715 122.92 289.452 494.476
956 0 55.173 14.3911 794 120.456 291.932 494.368
957 0 58.0525 14.0735 817 120.001 293.267 493.258
958 0 60.0924 13.0632 785 123.215 293.878 494.391
959 0 63.1731 14.0883 890 120.697 294.458 492.174
960 0 66.4532 14.04 933 121.432 294.053 493.397
961 1 36.1158 11.7677 425 119.812 293.12 509.405
962 0 38.1259 12.039 459 120.107 292.412 509.645
963 0 41.0667 12.1266 498 120.518 290.544 510.006
964 0 44.078 12.7274 561 119.711 289.225 509.182
965 0 46.0968 14.8817 686 115.493 287.888 508.375
966 0 46.0916 12.7355 587 122.947 286.298 506.695
967 0 48.2211 14.2054 685 119.467 284.915 505.001
968 0 48.0846 13.2683 638 122.737 282.864 504.969
969 0 51.2444 13.5039 692 123.555 282.214 500.517
970 0 53.2541 12.8441 684 126.376 281.816 498.621
971 0 56.2251 14.2997 804 119.968 281.379 496.861
972 0 56.2675 12.9915 731 125.341 281.031 495.546
973 0 58.3869 11.9205 696 127.128 281.332 493.467
974 0 62.2539 13.5574 844 121.164 281.731 489.764
975 0 61.3188 11.9865 735 126.584 281.642 488.691
976 0 66.4056 13.026 865 123.009 282.265 487.328
977 1 30.2535 10.6434 322 122.63 282.453 503.348
978 0 33.1438 11.1635 370 117.241 283.489 503.351
979 0 34.0898 11.6751 398 118.897 284.651 502.05
980 0 35.0952 11.768 413 117.68 286.494 501.375
981 0 38.1732 12.4695 476 116.912 288.103 501.248
982 0 38.0194 13.3879 509 117.136 290.444 499.972
983 0 37.1918 12.5565 467 120.737 292.218 502.098
984 0 40.0508 12.2594 491 118.64 294.377 502.073
985 0 43.1833 12.8754 556 116.784 295.083 501.883
986 0 44.0748 13.5225 596 116.827 295.2 503.24
987 0 45.1161 11.6588 526 121.778 295.504 502.481
988 0 47.1035 13.2899 626 117.617 295.984 504.315
989 0 51.5089 14.1723 730 114.792 294.59 503.678
990 0 53.3131 13.4113 715 118.856 292.8 502.632
991 0 53.2743 12.6703 675 121.653 291.283 502.265
992 0 56.3812 14.0118 790 120.013 289.851 499.622
993 0 59.4116 14.2396 846 118.916 288.396 499.054
994 0 60.624 13.8064 837 119.465 286.706 497.686
995 0 66.4134 14.7109 977 117.037 285.476 493.719
996 1 36.2574 10.6737 387 123.034 284.837 508.827
997 0 35.2293 10.5878 373 127.126 283.777 506.651
998 0 39.2856 12.9819 510 119.729 283.5 504.31
999 0 42.0878 13.258 558 119.471 282.871 502.686
1000 0 41.1066 13.1123 539 121.581 282.256 501.803
1001 0 43.0988 14.1999 612 119.271 282.806 499.533
1002 0 44.0476 13.4173 591 120.772 281.829 498.909
1003 0 45.0743 13.1561 593 123.052 283.58 495.769
1004 0 48.0987 13.7218 660 120.029 283.95 494.9
1005 0 49.0221 13.5041 662 121.23 284.844 494.591
1006 0 51.1407 13.0815 669 121.7 287.291 493.862
1007 0 53.1288 13.5896 722 119.972 287.269 493.24
1008 0 54.2041 13.8735 752 118.84 288.955 492.184
1009 0 57.2362 15.2176 871 114.512 290.666 490.897
1010 0 59.1303 13.5125 799 118.528 292.387 491.703
1011 0 63.1114 13.9277 879 115.936 294.943 491.961
1012 0 65.1915 13.7288 895 116.613 295.03 491.152
1013 0 68.2516 13.8458 945 115.908 295.261 489.414
1014 1 37.1226 10.4519 388 115.075 297.624 508.492
1015 0 41.2175 12.2278 504 111.312 296.669 508.617
1016 0 42.1135 12.4901 526 112.407 296.027 507.812
1017 0 42.0314 12.1814 512 115.963 292.92 508.025
1018 0 45.043 13.4982 608 112.365 292.683 507.888
1019 0 48.1636 14.4507 696 109.533 289.981 505.537
1020 0 49.1587 14.0362 690 111.565 289.042 505.229
1021 0 50.1214 14.3851 721 111.979 287.036 503.657
1022 0 52.1005 13.6275 710 113.639 285.166 502.934
1023 0 53.1059 13.7838 732 113.247 284.49 502.116
1024 0 56.1077 13.9197 781 114.26 282.956 497.15
1025 0 58.153 12.7938 744 116.515 282.495 494.71
1026 0 61.199 13.9218 852 113.308 281.707 492.546
1027 0 63.2794 13.4325 850 112.456 282.26 490.654
1028 0 64.1648 13.855 889 112.351 282.891 488.543
1029 0 68.2373 13.6875 934 111.664 282.611 487.149
1030 0 70.2151 14.128 992 112.059 282.006 483.582
1031 0 73.3478 13.8791 1018 111.493 283.732 483.487
1032 1 35.0745 11.7179 411 110.263 284.63 502.124
1033 0 38.2721 11.6795 447 109.501 285.837 500.494
1034 0 38.2062 12.8775 492 108.157 287.118 499.154
1035 0 41.1705 13.2862 547 106.576 288.037 499.83
1036 0 41.1613 11.6615 480 111.358 290.11 499.812
1037 0 43.1282 12.6599 546 109.661 291.568 498.203
1038 0 47.1583 14.1014 665 104.859 293.168 499.4
1039 0 46.2081 13.0064 601 109.556 295.27 498.656
1040 0 50.2217 12.9426 650 109.429 295.945 499.225
1041 0 53.2039 13.2885 707 108.279 296.792 500.352
1042 0 53.1337 13.4754 716 110.93 296.492 499.021
1043 0 57.0859 14.3118 817 109.415 295.384 499.716
1044 0 61.0836 13.6862 836 110.274 294.475 501.236
1045 0 62.1679 14.2839 888 111.086 292.851 498.762
1046 0 65.1633 15.5456 1013 108.269 290.548 497.231
1047 0 67.0852 13.6096 913 113.217 288.309 497.269
1048 0 71.1366 14.0996 1003 112.712 286.861 494.632
1049 1 37.1201 10.8297 402 117.025 284.679 509.905
1050 0 40.0375 12.4134 497 112.141 283.783 508.37
1051 0 38.0232 11.9664 455 117.846 282.574 507.106
1052 0 42.0786 13.4748 567 111.358 281.295 504.751
1053 0 44.0677 14.3643 633 109.67 282.058 502.06
1054 0 46.0317 14.7073 677 108.511 281.297 499.7
1055 0 42.0528 12.2227 514 117.444 281.414 499.389
1056 0 48.101 14.5527 700 109.85 281.647 496.586
1057 0 48.0917 14.4724 696 111.885 282.364 494.22
1058 0 50.2718 14.3619 722 112.075 283.573 493.619
1059 0 52.1546 15.013 783 110.146 283.779 492.889
1060 0 53.1583 14.1652 753 112.768 285.046 491.829
1061 0 57.25 15.4236 883 108.959 285.578 490.488
1062 0 57.2146 14.8913 852 111.688 287.542 490.306
1063 0 59.2868 15.3154 908 110.606 288.82 489.692
1064 0 63.12 16.033 1012 108.252 290.06 489.426
1065 0 62.2555 14.9706 932 112.823 292.338 489.402
1066 0 67.4409 15.673 1057 111.183 295.318 487.472
1067 0 69.2515 15.2776 1058 112.574 295.491 488.586
1068 1 37.0954 12.9666 481 116.809 296.222 504.2
1069 0 41.1909 13.2796 547 115.36 296.331 504.488
1070 0 42.0819 12.6895 534 118.431 295.069 504.669
1071 0 44.0994 14.2859 630 115.602 295.243 505.413
1072 0 44.104 15.01 662 116.388 294.009 505.684
1073 0 46.1483 13.9117 642 119.911 292.558 505.064
1074 0 48.18 14.6949 708 120.694 290.164 503.085
1075 0 52.2131 14.6706 766 118.307 289.084 502.097
1076 0 55.094 15.3374 845 116.559 287.509 501.151
1077 0 58.1616 16.265 946 114.576 286.133 498.544
1078 0 57.2658 14.2493 816 122.319 284.968 496.392
1079 0 60.2783 14.881 897 120.419 283.953 493.119
1080 0 62.152 14.7702 918 120.395 283.338 489.667
1081 0 65.5636 16.2743 1067 115.308 283.44 488.498
1082 0 68.1997 15.3666 1048 117.735 283.18 486.362
1083 0 72.2587 15.6936 1134 117.151 283.118 483.058
1084 1 35.1183 12.1304 426 123.862 283.505 498.843
1085 0 37.177 14.014 521 120.745 283.518 496.244
1086 0 40.1781 13.8882 558 119.944 284.149 495.568
1087 0 42.0576 14.2661 600 118.748 285.052 494.752
1088 0 45.2208 14.8825 673 115.204 286.912 495.212
1089 0 46.1692 15.075 696 116.171 287.698 494.053
1090 0 48.1544 15.0973 727 114.293 290.131 495.495
1091 0 49.035 14.7854 725 115.421 292.062 494.328
1092 0 53.0737 15.3372 814 112.462 294.424 494.957
1093 0 53.0621 15.1332 803 113.888 296.103 493.671
1094 0 56.0448 14.9523 838 112.717 296.741 494.178
1095 0 60.1352 15.6148 939 109.744 297.242 495.076
1096 0 60.3225 13.9086 839 114.039 297.067 495.101
1097 0 64.2546 14.6137 939 113.766 296.864 494.013
1098 0 66.1371 14.1222 934 115.737 295.984 494.06
1099 0 71.1285 15.1276 1076 112.987 293.86 492.64
1100 0 76.1624 15.6639 1193 111.457 292.275 493.208
1101 1 39.1448 12.6198 494 116.704 290.251 508.429
1102 0 43.0726 12.8388 553 113.857 288.929 508.604
1103 0 44.1178 12.8066 565 116.579 287.106 506.108
1104 0 45.0577 14.1596 638 114.986 285.447 503.284
1105 0 47.0696 13.172 620 117.021 284.844 500.682
1106 0 49.0625 13.8599 680 114.45 284.894 500.154
1107 0 52.0508 14.3898 749 113.422 284.682 497.704
1108 0 54.1346 15.5353 841 111.641 283.533 494.2
1109 0 55.1717 14.6452 808 112.744 283.856 493.558
1110 0 57.067 13.4228 766 116.034 283.578 491.358
1111 0 61.1145 15.1355 925 111.234 283.402 489.419
1112 0 62.0793 13.6922 850 115.902 284.047 487.521
1113 0 65.2738 14.8605 970 113.88 285.505 484.707
1114 1 34.0778 11.6205 396 114.258 286.922 500.896
1115 0 36.1648 12.3877 448 110.877 286.949 501.174
1116 0 38.0928 14.7797 563 106.343 287.893 501.052
1117 0 39.0782 12.974 507 108.497 289.582 499.588
1118 0 41.0779 14.4847 595 106.593 291.575 500.079
1119 0 41.0702 13.8543 569 111.752 295.144 499.619
1120 0 42.09 13.9225 586 110.816 295.753 500.244
1121 0 43.2095 12.1501 525 113.882 296.922 502.75
1122 0 45.0838 13.3529 602 111.392 297.738 502.865
1123 0 49.1276 13.4548 661 110.613 296.191 502.466
1124 0 50.1457 13.6602 685 111.515 296.018 502.42
1125 0 54.1093 15.3393 830 107.963 294.717 501.631
1126 0 55.0464 14.5877 803 109.318 293.427 502.184
1127 0 58.1063 15.4717 899 107.087 292.086 501.557
1128 0 59.1118 13.5168 799 113.011 289.975 499.324
1129 0 63.1023 15.2292 961 108.02 288.658 498.763
1130 0 67.1193 15.316 1028 108.061 287.252 497.028
1131 0 67.0631 13.7333 921 111.593 285.955 495.413
1132 1 35.0423 13.0128 456 108.158 284.487 509.689
1133 0 37.0364 11.5292 427 109.752 283.988 508.506
1134 0 36.0323 11.4342 412 112.765 283.762 505.898
1135 0 39.019 13.8394 540 107.731 283.854 502.935
1136 0 41.104 12.6508 520 109.465 284.777 501.717
1137 0 40.087 13.2212 530 110.617 284.368 499.298
1138 0 45.0955 13.5047 609 107.627 283.892 498.184
1139 0 43.0989 13.5502 584 109.38 283.37 496.512
1140 0 45.1163 13.7866 622 108.876 285.304 494.883
1141 0 47.0953 13.3771 630 110.586 285.964 495.838
1142 0 49.07 14.1634 695 107.54 287.127 494.344
1143 0 51.0766 14.5076 741 105.835 288.046 493.416
1144 0 52.1391 14.2312 742 107.305 290.726 494.544
1145 0 54.0352 13.1766 712 108.341 291.749 494.573
1146 0 58.1012 13.9068 808 106.301 293.476 493.041
1147 0 61.1166 15.6095 954 102.452 295.953 492.629
1148 0 64.2385 14.1193 907 106.193 297.035 493.275
1149 1 33.1127 11.1438 369 106.501 297.799 509.843
1150 0 34.2667 11.1478 382 106.005 297.442 509.66
1151 0 36.0544 12.5366 452 104.889 295.885 508.898
1152 0 38.1378 14.7885 564 101.805 294.711 508.349
1153 0 39.1672 13.8892 544 103.289 293.147 509.108
1154 0 41.224 12.7838 527 105.962 291.592 508.218
1155 0 43.1662 13.0426 563 106.847 290.611 507.561
1156 0 45.1802 14.3426 648 103.684 289.068 506.11
1157 0 49.1521 14.1805 697 103.089 287.879 506.432
1158 0 50.0801 12.1406 608 108.579 286.521 503.556
1159 0 53.1598 14.8609 790 101.971 285.178 501.432
1160 0 54.1677 14.289 774 104.145 283.787 499.001
1161 0 55.2355 13.2524 732 107.612 283.234 496.001
1162 0 58.0863 14.2202 826 105.633 282.513 494.318
1163 0 60.2147 12.854 774 109.81 282.118 491.603
1164 0 63.257 14.1961 898 104.904 282.282 489.228
1165 0 63.1111 13.7377 867 107.255 282.401 487.522
1166 1 35.2363 11.7209 413 104.288 283.722 502.327
1167 0 38.1691 12.2612 468 106.124 283.782 498.553
1168 0 38.1048 10.996 419 108.857 284.828 498.477
1169 0 40.1398 11.0613 444 106.876 285.732 499.151
1170 0 42.2058 12.368 522 107 285.793 495.797
1171 0 43.1363 13.098 565 105.588 286.435 496.366
1172 0 45.2082 12.2323 553 106.309 289.566 496.606
1173 0 48.181 12.287 592 106.784 290.613 495.25
1174 0 49.1429 13.1657 647 106.733 292.161 494.213
1175 0 52.1509 13.902 725 103.061 293.854 494.897
1176 0 53.2423 13.9551 743 103.937 295.016 495.284
1177 0 58.1656 14.9573 870 100.287 296.232 495.62
1178 0 57.1621 13.7154 784 106.165 296.524 495.966
1179 0 61.0663 13.7064 837 106.513 296.851 494.369
1180 0 64.1037 14.4765 928 107.235 295.87 493.601
1181 0 67.1191 14.7201 988 106.454 295.066 493.622
1182 0 71.0735 13.7182 975 110.472 293.18 492.817
1183 1 36.0239 11.2981 407 110.474 291.889 510.354
1184 0 39.0908 10.7186 419 109.074 290.694 511.232
1185 0 40.051 13.4828 540 109.835 288.546 507.111
1186 0 40.0366 13.0381 522 110.603 286.739 507.197
1187 0 43.1077 14.081 607 110.03 285.606 504.471
1188 0 44.0937 13.8115 609 113.043 285.143 501.113
1189 0 44.1507 13.7937 609 115.026 283.856 498.396
1190 0 47.2139 14.4025 680 112.429 283.413 496.675
1191 0 50.3162 15.1442 762 108.529 283.196 496.051
1192 0 50.1836 14.0484 705 114.206 283.102 493.811
1193 0 53.4165 14.9766 800 111.498 283.892 490.941
1194 0 53.5402 14.5872 781 113.545 284.644 488.752
1195 0 56.4006 15.0353 848 111.712 284.975 487.718
1196 0 56.2202 13.6428 767 115.228 286.721 486.627
1197 0 58.2743 14.6205 852 112.68 286.777 485.189
1198 0 62.37 15.889 991 107.894 288.041 485.184
1199 0 65.2398 15.6959 1024 108.671 288.65 484.62
1200 0 65.5136 14.0429 920 114.5 290.723 482.043
1201 0 69.3724 14.8186 1028 110.713 293.474 479.61
1202 0 73.5618 14.899 1096 111.617 295.153 480.519
1203 0 72.1758 13.5502 978 117.131 295.808 478.568
1204 1 40.2724 10.8014 435 113.54 298.239 499.749
1205 0 43.1679 12.1155 523 113.283 298.803 497.858
1206 0 46.0672 12.7857 589 110.84 299.012 498.042
1207 0 48.1206 13.9857 673 109.785 298.475 498.655
1208 0 49.2098 13.5745 668 113.054 296.719 498.711
1209 0 52.1396 13.9433 727 111.033 295.993 500.29
1210 0 53.0924 14.7102 781 112.48 294.529 497.991
1211 0 56.102 13.9924 785 113.534 293.308 498.322
1212 0 58.1546 13.7908 802 115.343 291.252 497.016
1213 0 63.1667 14.1689 895 112.787 289.923 495.799
1214 0 64.2058 12.6936 815 117.755 288.865 492.763
1215 0 68.2326 14.2161 970 114.164 287.58 491.165
1216 0 68.1554 12.7649 870 118.887 286.348 487.688
1217 0 74.1846 13.2372 982 116.201 286.182 486.268
1218 1 39.1317 11.6018 454 114.15 286.478 500.214
1219 0 41.0134 10.5331 432 114.692 286.852 500.373
1220 0 43.1161 11.8749 512 112.387 286.715 497.523
1221 0 45.0617 12.494 563 112.14 287.131 494.966
1222 0 48.1094 13.6356 656 109.058 286.491 493.651
1223 0 48.0526 12.0077 577 113.932 287.085 492.12
1224 0 51.0793 12.5687 642 112.159 287.185 490.123
1225 0 53.1108 14.1779 753 107.042 287.503 488.749
1226 0 55.1012 13.1213 723 108.538 290.124 489.34
1227 0 57.0795 13.2272 755 108.405 291.295 488.326
1228 0 60.0943 13.3124 800 106.755 293.365 489.269
1229 0 60.1725 11.9157 717 110.225 295.269 489.746
1230 0 64.0726 14.1558 907 104.816 296.759 488.766
1231 0 66.0845 11.9544 790 110.395 298.125 488.476
1232 0 69.139 14.0152 969 107.744 298.28 486.732
1233 0 73.0956 13.6534 998 107.546 299.318 488.734
1234 0 77.2577 13.6168 1052 107.893 298.581 487.351
1235 0 81.0935 12.6767 1028 110.369 297.236 489.063
1236 0 86.1611 13.8578 1194 108.765 296.155 485.656
1237 1 45.0845 11.9553 539 106.243 295.345 506.488
1238 0 47.1123 11.9502 563 106.295 293.758 506.059
1239 0 46.1537 11.5917 535 109.593 291.636 503.385
1240 0 52.113 12.7991 667 105.322 290.057 503.048
1241 0 55.1261 12.7526 703 104.047 288.789 502.233
1242 0 55.2044 12.8432 709 105.485 287.172 499.437
1243 0 57.1265 13.3038 760 104.639 286.258 498.195
1244 0 58.124 12.5938 732 107.157 284.889 494.055
1245 0 60.0905 13.3465 802 104.488 284.9 491.308
1246 0 63.288 13.0041 823 104.537 284.408 490.724
1247 0 64.1891 13.3044 854 104.528 284.472 487.046
1248 0 67.2233 13.2841 893 104.18 284.406 486.184
1249 0 69.3825 13.3031 923 104.224 285.566 482.713
1250 0 72.1899 13.3814 966 103.275 286.026 483.748
1251 1 40.2936 10.1009 407 103.455 287.251 499.012
1252 0 40.0705 11.0056 441 102.501 288.388 497.649
1253 0 43.1095 11.6216 501 99.6108 288.339 497.427
1254 0 41.3879 10.5586 437 101.865 290.485 496.517
1255 0 47.294 12.5386 593 95.7167 292.162 497.347
1256 0 45.2079 10.883 492 101.098 294.685 496.616
1257 0 48.1831 12.1827 587 99.2624 296.133 496.704
1258 0 50.0758 11.9019 596 100.416 297.153 497.651
1259 0 51.0626 11.6524 595 101.971 297.205 499.097
1260 0 54.1894 12.6224 684 100.512 297.564 497.928
1261 0 58.3258 13.4417 784 98.8367 296.773 496.679
1262 0 61.189 12.4205 760 100.912 295.718 497.829
1263 0 62.0898 12.2081 758 102.588 294.483 498.358
1264 0 66.1503 13.0763 865 102.753 293.158 496.632
1265 0 69.2417 13.489 934 103.781 290.445 492.955
1266 1 38.103 11.049 421 102.974 288.61 509.903
1267 0 39.0558 9.83208 384 106.706 286.807 508.794
1268 0 41.1436 10.7915 444 105.736 284.509 505.664
1269 0 43.1002 12.9698 559 103.839 284.075 503.667
1270 0 45.0474 12.2316 551 106.12 284.049 502.426
1271 0 45.0339 12.5905 567 105.896 283.637 501.265
1272 0 47.1082 13.6919 645 104.571 283.907 498.471
1273 0 46.0597 12.5489 578 108.609 283.998 498.599
1274 0 50.1523 11.6645 585 109.932 283.827 495.725
1275 0 49.0999 13.055 641 108.917 283.527 493.621
1276 0 53.0684 13.737 729 106.757 283.964 492.653
1277 0 56.1763 13.9027 781 105.731 284.928 490.836
1278 0 57.1715 13.853 792 107.059 286.207 489.537
1279 0 57.2258 13.1409 752 109.524 287.82 488.96
1280 0 60.4101 14.236 860 107.628 288.083 487.373
1281 0 63.2097 13.9219 880 108.515 290.011 487.032
1282 0 65.2494 14.299 933 106.88 292.316 487.935
1283 0 67.1544 13.804 927 109.413 294.712 485.904
1284 0 70.2193 13.4009 941 110.242 295.489 486.808
1285 0 73.3273 13.6375 1000 110.813 297.133 486.86
1286 0 74.16 12.945 960 112.832 297.027 485.397
1287 0 79.3796 14.0842 1118 110.81 297.368 483.63
1288 1 43.2261 10.3178 446 112.26 297.323 503.574
1289 0 45.232 11.2089 507 110.414 296.154 502.611
1290 0 48.155 12.6882 611 107.354 294.106 502.471
1291 0 50.1197 13.1485 659 106.263 292.581 502.762
1292 0 52.0354 13.0104 677 107.322 291.292 501.939
1293 0 53.2175 13.3227 709 108.034 289.91 501.756
1294 0 55.1607 13.8323 763 106.965 288.405 499.97
1295 0 57.1623 14.7825 845 104.824 287.639 496.946
1296 0 60.0771 12.4507 748 108.988 286.757 495.083
1297 0 61.1454 13.3943 819 106.603 286.521 493.313
1298 0 65.0523 14.6651 954 103.189 286.154 489.936
1299 0 64.1087 13.0247 835 108.521 285.156 488.625
1300 0 68.1024 14.2873 973 105.031 284.617 485.219
1301 0 70.1947 12.2232 858 108.53 283.999 481.974
1302 0 73.2813 12.2269 896 106.756 284.532 481.45
1303 0 75.2054 13.4432 1011 104.757 284.782 479.085
1304 0 78.1856 13.0459 1020 104.923 286.489 477.587
1305 1 42.1206 10.5412 444 101.491 286.579 496.297
1306 0 42.0913 10.596 446 101.48 288.516 496.37
1307 0 45.1292 12.0543 544 98.5423 290.215 493.901
1308 0 47.0973 11.869 559 98.7639 292.567 492.968
1309 0 48.1759 12.3921 597 98.057 293.809 493.611
1310 0 49.242 12.997 640 97.5625 295.939 492.709
1311 0 52.5684 13.7535 723 96.6611 297.18 492.852
1312 0 52.4791 12.4049 651 98.8679 297.178 492.919
1313 0 55.4585 12.4057 688 99.0625 297.99 493.058
1314 0 58.6219 11.6509 683 99.7672 297.621 492.88
1315 0 60.3189 12.7489 769 97.4785 298.573 495.013
1316 0 63.1215 13.1017 827 97.7195 297.162 493.328
1317 0 66.3764 13.8604 920 97.2685 295.925 492.965
1318 0 68.2122 13.4287 916 100.017 294.431 488.958
1319 0 71.368 13.2833 948 99.4008 292.679 488.905
1320 1 39.1628 11.4394 448 98.6161 290.598 504.232
1321 0 41.2855 11.6506 481 100.069 289.796 503.827
1322 0 43.1652 11.1432 481 100.403 287.503 503.682
1323 0 46.1998 12.2295 565 100.973 286.708 500.715
1324 0 47.2459 12.2127 577 103.801 286.371 498.088
1325 0 49.1928 13.4572 662 100.06 286.36 495.512
1326 0 50.1086 13.6703 685 101.025 286.187 494.457
1327 0 51.1974 13.1257 672 103.47 286.061 492.542
1328 0 53.3236 13.4087 715 102.443 286.069 490.499
1329 0 53.2901 12.1036 645 105.67 287.129 490.262
1330 0 56.3919 11.9521 674 103.528 288.26 489.303
1331 0 57.4807 13.3436 767 103.721 288.546 485.305
1332 0 61.6008 12.0128 740 104.507 289.857 486.162
1333 0 62.2178 13.5331 842 103.353 290.523 485.552
1334 0 64.5025 12.9607 836 105.444 292.039 483.914
1335 0 67.3228 13.0416 878 105.899 293.983 482.621
1336 1 35.274 8.81669 311 103.881 296.862 500.855
1337 0 38.3128 12.6068 483 96.3602 298.665 502.077
1338 0 37.2385 12.4602 464 98.7457 299.739 500.065
1339 0 39.0998 11.9182 466 100.322 301.036 500.768
1340 0 41.1947 11.9433 492 100.362 300.994 501.069
1341 0 44.2004 14.5926 645 94.1519 300.343 502.588
1342 0 46.0947 13.5157 623 96.4928 298.775 502.989
1343 0 48.2804 13.5873 656 97.5061 297.498 502.312
1344 0 48.2432 12.6235 609 100.736 295.75 502.502
1345 0 51.1547 12.3156 630 101.802 293.825 502.89
1346 0 53.2282 12.6249 672 102.484 291.975 500.253
1347 0 55.1137 13.1909 727 101.307 291.176 499.4
1348 0 58.2978 13.8942 810 99.821 289.353 498.007
1349 0 59.1789 12.6228 747 103.826 287.56 496.102
1350 0 63.0987 12.219 771 104.084 287.01 492.54
1351 0 64.1332 12.9262 829 104.668 286.674 490.165
1352 0 67.1145 13.1864 885 104.76 285.908 488.186
1353 0 67.1694 12.3717 831 107.403 286.232 482.651
1354 0 72.1538 12.709 917 104.783 286.055 482.78
1355 0 77.1413 14.3244 1105 100.884 286.166 479.567
1356 1 39.0531 9.34624 365 104.984 285.468 497.49
1357 0 40.089 10.0028 401 102.888 286.711 497.651
1358 0 45.0282 12.3922 558 98.5269 287.796 495.296
1359 0 44.0205 12.4714 549 100.461 288.495 493.721
1360 0 48.1491 14.102 679 96.0471 290.038 494.782
1361 0 48.2198 12.3808 597 99.5796 292.734 495.298
1362 0 50.0858 11.9794 600 101.003 294.178 494.577
1363 0 52.1681 13.9357 727 97.4443 295.93 492.757
1364 0 55.2346 12.5827 695 98.8158 297.896 495.424
1365 0 54.2014 12.841 696 101.178 298.813 494.093
1366 0 57.1885 12.3451 706 102.147 299.458 494.823
1367 0 58.1598 13.1878 767 103.452 299.562 494.142
1368 0 63.3098 11.8623 751 105.763 298.402 494.63
1369 0 67.5999 13.1065 886 103.606 296.581 492.638
1370 0 69.5588 12.1049 842 107.316 295.519 492.363
1371 1 37.2495 9.53034 355 107.158 294.045 510.482
1372 0 39.212 8.4668 332 109.497 292.22 510.078
1373 0 41.2046 10.824 446 107.601 291.056 507.473
1374 0 43.1478 12.1675 525 105.945 289.541 505.017
1375 0 45.2451 12.8191 580 104.916 288.512 504.267
1376 0 46.2394 11.9811 554 107.238 286.888 503.356
1377 0 48.1624 13.0392 628 106.354 285.705 499.248
1378 0 49.1101 11.8102 580 108.738 285.333 496.216
1379 0 50.2014 11.6132 583 109.352 285.117 495.122
1380 0 54.2819 12.1403 659 108.434 284.656 492.78
1381 0 57.142 13.2477 757 103.791 285.416 491.778
1382 0 57.1776 13.187 754 105.397 285.821 489.122
1383 0 59.2365 12.8468 761 106.112 286.418 488.03
1384 0 60.187 11.4643 690 109.812 286.696 487.652
1385 0 63.378 11.5498 732 107.637 287.253 486.433
1386 0 66.2627 12.5712 833 105.753 287.845 485.77
1387 0 69.2765 12.3419 855 105.828 289.367 484.771
1388 1 37.2412 9.96208 371 105.261 290.965 501.426
1389 0 37.2136 10.3726 386 106.466 293.422 501.448
1390 0 39.2823 10.6664 419 106.124 294.714 502.296
1391 0 40.1757 10.255 412 108.214 295.939 502.682
1392 0 46.2736 12.4909 578 103.962 297.157 502.82
1393 0 46.1477 12.6984 586 105.439 298.346 503.044
1394 0 49.1872 11.7714 579 110.244 297.513 502.506
1395 0 53.2673 12.5405 668 108.678 296.32 502.741
1396 0 54.2036 13.3202 722 109.514 295.586 502.434
1397 0 55.1395 12.8946 711 111.941 294.065 502.471
1398 0 57.2507 14.288 818 110.364 291.919 499.737
1399 0 58.4032 13.3212 778 113.347 291.05 501.35
1400 0 61.2922 13.8843 851 113.859 288.972 497.099
1401 0 63.3484 14.1756 898 113.758 287.433 497.607
1402 0 67.3092 14.2477 959 111.338 285.759 495.726
1403 0 70.368 15.5611 1095 109.705 284.622 491.752
1404 0 73.5842 14.6091 1075 111.346 284.206 488.579
1405 0 76.4626 16.3217 1248 106.469 283.764 486.054
1406 0 78.4945 15.0202 1179 110.315 283.622 484.493
1407 0 81.458 14.7806 1204 110.531 283.631 480.774
1408 1 42.1905 11.4718 484 110.721 283.238 499.826
1409 0 41.2024 10.8003 445 115.521 284.056 497.456
1410 0 45.0716 12.8684 580 105.198 284.883 497.995
1411 0 45.0392 12.0562 543 109.613 285.6 496.427
1412 0 47.0491 13.454 633 107.458 286.675 494.193
1413 0 49.1429 13.3081 654 106.882 288.078 493.411
1414 0 51.1194 14.0847 720 104.088 289.431 494.128
1415 0 52.1311 14.0415 732 104.381 291.638 492.553
1416 0 54.1592 15.2144 824 101.133 293.45 492.34
1417 0 56.1729 12.871 723 106.311 295.13 494.019
1418 0 58.1531 13.0518 759 104.972 296.104 492.855
1419 0 62.1547 14.48 900 100.732 297.064 494.963
1420 0 65.1336 13.4646 877 102.096 296.945 494.477
1421 0 66.1794 13.4181 888 103.104 296.72 494.292
1422 0 70.1934 14.7877 1038 99.1416 295.477 494.631
1423 0 74.2514 15.0166 1115 98.9614 294.316 492.401
1424 0 75.1969 14.8543 1117 101.224 292.633 490.372
1425 0 80.1736 14.5684 1168 99.8091 291.337 489.83
1426 0 81.2746 13.559 1102 103.421 289.869 487.304
1427 0 85.2504 13.8533 1181 101.981 288.739 485.553
1428 0 89.1563 15.041 1341 100.184 286.668 481.547
1429 0 91.2547 13.4788 1230 103.428 285.32 479.437
1430 0 95.1044 12.7754 1215 104.372 284.747 478.573
1431 0 100.126 15.5304 1555 97.5749 283.968 475.423
1432 0 100.117 14.3732 1439 102.136 283.123 472.429
1433 0 106.275 14.2085 1510 102.158 283.086 466.248
1434 1 57.0466 10.5353 601 103.636 283.985 491.411
1435 0 60.0723 11.3363 681 101.743 284.17 489.21
1436 0 63.0486 12.7521 804 98.2189 283.405 488.699
1437 0 63.0343 12.7074 801 98.6854 283.844 488.035
1438 0 67.0525 13.1688 883 97.1314 284.821 486.531
1439 0 67.0999 11.6394 781 99.9385 285.594 484.287
1440 0 73.1026 14.2266 1040 93.5692 286.941 482.757
1441 0 75.1454 13.1611 989 95.6107 288.802 484.151
1442 0 78.2385 12.4491 974 97.3296 290.033 480.105
1443 0 83.1722 13.2015 1098 95.5838 292.322 481.35
1444 1 43.2179 10.2273 442 98.3371 294.464 501.267
1445 0 45.0896 11.8209 533 95.1257 296.405 502.152
1446 0 47.0851 11.2137 528 97.7841 297.174 502.227
1447 0 47.1038 11.7188 552 97.2301 296.819 502.886
1448 0 52.2395 12.9978 679 93.9411 296.52 502.934
1449 0 52.163 12.6335 659 96.2094 294.967 502.126
1450 0 55.1768 14.3901 794 92.8829 293.094 501.911
1451 0 56.2132 11.7944 663 99.0211 291.617 502.747
1452 0 60.1742 13.6437 821 96.0085 290.263 498.256
1453 0 63.1577 14.5509 919 94.3765 289.236 498.25
1454 0 66.1948 13.6265 902 96.9534 287.014 495.929
1455 0 67.174 14.4103 968 96.4504 286.821 496.716
1456 0 70.1446 13.7716 966 99.9669 285.945 492.928
1457 0 73.1624 13.6956 1002 100.776 284.768 489.52
1458 0 75.1279 14.2823 1073 100.307 284.209 486.983
1459 0 78.0761 13.9223 1087 101.868 283.77 485.685
1460 0 81.1752 14.7582 1198 100.525 283.321 483.511
1461 0 85.2521 14.6859 1252 101.379 283.328 479.304
1462 1 46.2177 11.6622 539 103.946 284.614 497.432
1463 0 48.1234 11.7614 566 103.274 284.551 497.708
1464 0 50.0993 14.8904 746 96.3231 285.351 496.26
1465 0 51.0736 12.6876 648 101.579 285.809 495.236
1466 0 51.0698 13.1389 671 102.651 286.593 493.332
1467 0 53.2375 14.0315 747 99.9813 287.074 493.668
1468 0 57.1905 14.2506 815 98.8454 289.266 491.368
1469 0 57.1856 13.2026 755 101.109 291.205 494.228
1470 0 60.2264 14.844 894 97.9362 292.518 494.59
1471 0 64.2468 15.8918 1021 96.0989 294.127 494.749
1472 0 65.2249 15.9908 1043 96.999 294.67 495.115
1473 0 66.1068 15.0817 997 100.699 295.302 494.128
1474 0 71.2774 15.1801 1082 99.9945 296.251 494.924
1475 0 71.2398 14.6126 1041 103.92 295.468 493.884
1476 0 75.529 15.9939 1208 100.754 295.435 494.853
1477 0 76.3005 15.6093 1191 103.16 293.767 493.781
1478 0 78.488 16.6267 1305 99.0176 292.773 494.582
1479 1 40.1411 12.0326 483 106.18 290.801 511.7
1480 0 39.287 11.4796 451 107.871 288.829 510.834
1481 0 42.2847 12.7233 538 104.429 287.329 508.903
1482 0 42.1958 14.0535 593 100.774 285.985 509.53
1483 0 42.2045 13.0318 550 105.033 284.524 506.645
1484 0 44.1708 13.4025 592 103.61 284.938 505.012
1485 0 43.35 14.6943 637 101.196 284.184 503.436
1486 0 42.1098 12.9186 544 106.34 283.618 501.108
1487 0 44.1166 14.439 637 102.038 282.944 499.923
1488 0 44.1683 14.1504 625 101.843 283.467 499.832
1489 0 43.0984 13.8752 598 103.321 283.871 498.575
1490 0 44.2968 13.545 600 101.997 284.13 497.888
1491 0 45.2881 14.75 668 98.8338 284.798 497.747
1492 0 46.2664 14.2868 661 98.8684 286.133 497.507
1493 0 43.1626 11.6304 502 105.028 286.871 497.871
1494 0 45.2553 14.6502 663 98.1825 287.983 497.041
1495 0 45.182 14.3641 649 98.47 289.27 498.166
1496 0 45.2096 14.5765 659 97.6419 292.264 499.354
1497 0 46.1711 14.5329 671 97.1788 293.832 498.173
1498 0 45.2931 13.7107 621 98.1208 295.093 499.831
1499 0 46.4185 14.5201 674 95.7433 295.433 501.052
1500 0 46.2029 14.9774 692 95.2659 295.932 501.747
1501 0 46.2985 13.6506 632 97.3323 295.543 504.261
1502 0 47.3951 14.5585 690 94.6797 295 504.503
1503 0 46.3362 13.8337 641 96.61 294.206 505.615
1504 0 47.157 15.2469 719 93.5369 293.36 505.371
1505 0 47.2846 14.2118 672 94.8467 290.942 507.635
1506 0 47.1639 13.3365 629 99.3037 288.927 506.932
1507 0 46.2704 15.1501 701 95.729 288.141 507.909
1508 0 46.2453 15.0934 698 97.4499 286.262 504.239
1509 0 48.1917 15.1064 728 94.1964 285.271 505.584
1510 0 46.1809 15.4826 715 94.7664 283.835 503.074
1511 0 46.3065 15.5702 721 94.2954 283.879 502.365
1512 0 45.1949 14.2936 646 98.1734 282.721 500.845
1513 0 48.1849 14.8179 714 95.0658 283.373 498.598
1514 0 47.2609 15.2557 721 94.0638 283.171 498.2
1515 0 45.1754 13.0159 588 98.7653 283.286 497.973
1516 0 46.2693 12.6218 584 98.7997 283.676 496.76
1517 0 48.1257 13.7557 662 96.0212 284.474 495.73
1518 0 47.1995 14.301 675 94.8593 284.351 494.372
1519 0 46.1889 14.0077 647 94.439 285.394 495.138
1520 0 46.2324 13.7782 637 94.9137 285.699 494.414
1521 0 46.1486 13.6299 629 94.6391 286.92 494.638
1522 0 47.1722 15.7296 742 90.0162 288.201 493.628
