time division length width area intensity CMx CMy
0 0 50.195 13.6268 684 112.073 362.285 482.895
1 0 53.0414 15.2899 811 107.048 361.176 481.523
2 0 52.0988 13.3208 694 113.765 361.859 481.728
3 0 53.0768 14.2624 757 111.893 362.118 481.926
4 0 54.1406 14.2776 773 111.138 362.215 481.437
5 0 54.0398 13.7861 745 113.317 362.45 481.368
6 0 57.0795 13.8404 790 112.229 362.06 479.706
7 0 58.0977 14.0797 818 112.891 361.858 479.033
8 0 58.066 13.278 771 115.709 362.336 478.152
9 0 60.044 13.8731 833 114.905 362.136 477.084
10 0 61.0489 14.7259 899 110.607 361.978 478.373
11 0 62.1223 14.0851 875 114.999 362.021 476.365
12 0 63.0773 14.4585 912 114.078 362.936 477.325
13 0 64.052 14.8941 954 113.144 361.885 476.304
14 0 69.1164 16.4361 1136 108.479 361.915 474.574
15 1 36.0287 12.7953 461 113.223 361.514 491.282
16 0 34.0422 10.8982 371 119.296 361.914 491.822
17 0 37.0919 12.6173 468 116.863 361.838 489.934
18 0 37.0093 10.4028 385 121.127 361.397 490.979
19 0 39.0366 12.9366 505 116.271 362.008 490.826
20 0 40.0279 12.8161 513 119.817 360.949 488.764
21 0 40.098 12.9932 521 120.919 361.215 488.393
22 0 43.0941 13.807 595 117.526 361.355 489.045
23 0 42.0758 13.2618 558 120.844 361.875 488.271
24 0 43.0824 12.5109 539 124.243 361.967 487.237
25 0 45.2022 14.9329 675 118.422 362.553 486.641
26 0 47.1817 15.2814 721 117.563 363.528 486.974
27 0 48.1004 14.5737 701 120.943 363.879 485.545
28 0 49.0372 15.682 769 119.818 363.676 484.986
29 0 49.1386 15.2426 749 121.563 363.834 484.017
30 0 48.1184 15.2125 732 122.908 363.735 483.564
31 0 50.0404 14.3884 720 125.039 363.685 482.91
32 0 52.1315 15.3842 802 122.938 363.918 480.703
33 0 55.1091 16.2768 897 118.89 364.571 481.767
34 0 56.0557 15.1635 850 120.958 365.689 480.966
35 0 57.0562 15.1605 865 119.903 365.095 481.272
36 0 58.0524 15.865 921 120.035 364.868 480.005
37 0 61.1711 16.4293 1005 119.202 365.666 478.487
38 0 61.1079 15.3826 940 123.08 365.715 478.567
39 0 65.1526 17.7583 1157 115.169 365.023 477.517
40 0 66.152 14.2248 941 126.067 366.114 476.55
41 0 68.1777 15.973 1089 121.886 366.521 476.006
42 0 72.1681 15.838 1143 122.582 366.338 474.968
43 0 70.0539 15.0598 1055 125.672 366.164 475.566
44 0 77.1269 16.596 1280 119.124 366.023 475.848
45 0 77.421 15.8226 1225 123.579 366.647 474.108
46 0 80.1242 16.2373 1301 124.01 366.927 471.837
47 0 83.1902 16.0115 1332 124.014 366.92 471.782
48 0 85.1107 15.7677 1342 125.993 366.534 470.345
49 0 87.1173 15.7259 1370 127.105 366.074 468.461
50 1 44.0572 14.1861 625 128.742 366.734 489.331
51 0 48.1052 14.198 683 124.575 366.584 490.067
52 0 47.1277 14.4289 680 127.841 366.519 487.485
53 0 49.09 14.728 723 125.68 366.314 488.057
54 0 50.0772 15.3563 769 125.51 365.757 486.169
55 0 51.0541 14.4553 738 127.072 366.198 485.714
56 0 54.1675 15.2859 828 124.193 365.606 484.429
57 0 54.1266 15.1127 818 123.325 365.741 484.394
58 0 58.1833 16.0871 936 121.681 365.752 481.953
59 0 59.0693 15.4733 914 123.012 365.951 480.131
60 0 62.1893 15.8387 985 120.216 365.999 479.865
61 0 62.0825 14.8673 923 123.834 365.956 478.838
62 0 66.1189 17.0148 1125 116.161 365.972 475.699
63 0 69.2023 15.5197 1074 118.078 366.524 476.642
64 0 70.2116 15.2112 1068 120.382 367.17 474.585
65 0 73.1933 16.7638 1227 116.788 366.884 472.246
66 0 78.0919 16.7367 1307 112.359 367.196 473.993
67 0 78.1706 15.7732 1233 116.161 367.615 472.162
68 0 83.1293 17.4066 1447 110.607 367.701 471.298
69 0 86.2745 17.143 1479 111.273 368.035 468.782
70 0 87.0491 16.7606 1459 113.525 366.525 466.942
71 1 45.1467 14.0431 634 114.347 367.872 487.956
72 0 47.1358 15.1689 715 114.168 367.597 486.413
73 0 49.2089 14.1235 695 114.829 365.794 486.344
74 0 50.0954 15.4106 772 113.891 366.821 485.517
75 0 50.0315 14.9506 748 117.356 367.011 483.726
76 0 53.3761 15.8123 844 114.454 366.444 483.15
77 0 56.1062 16.4331 922 113.127 366.733 481.655
78 0 57.1279 15.5266 887 114.758 367.138 481.776
79 0 58.3252 15.1393 883 117.558 367.093 481.173
80 0 60.1124 14.9553 899 119.355 366.982 480.35
81 0 61.0338 14.8606 907 120.503 367.709 479.988
82 0 65.0755 15.2438 992 118.564 367.705 480.103
83 0 67.2255 14.4737 973 121.862 367.494 477.54
84 0 69.1991 15.347 1062 121.626 367.817 476.38
85 0 73.3036 15.1425 1110 119.735 367.879 476.586
86 0 75.312 15.5619 1172 120.01 367.759 473.465
87 0 78.3197 15.0154 1176 122.586 367.589 474.086
88 0 80.4954 15.5164 1249 122.195 367.912 471.781
89 1 39.1034 12.9912 508 125.031 367.388 489.868
90 0 41.1199 13.3755 550 122.395 367.625 490.856
91 0 43.1481 14.7399 636 121.695 367.363 488.184
92 0 45.4575 15.927 724 117.975 367.713 487.454
93 0 46.0511 14.8313 683 120.613 367.813 486.738
94 0 46.2001 14.3506 663 122.32 368.009 486.998
95 0 50.1642 15.4094 773 119.528 367.878 484.723
96 0 52.2466 16.3264 853 115.508 368.3 485.724
97 0 53.1223 14.4572 768 120.559 368.612 484.143
98 0 54.2634 15.222 826 119.513 369.765 483.105
99 0 56.1678 16.3617 919 116.543 368.705 482.674
100 0 57.1117 15.0932 862 121.553 368.01 480.86
101 0 61.1478 15.438 944 117.945 368.531 481.29
102 0 61.1386 14.6716 897 121.635 368.653 480.007
103 0 63.1402 14.5232 917 122.017 368.168 481.039
104 0 66.1537 14.3 946 123.237 368.202 479.129
105 0 70.0946 16.1211 1130 119.498 368.821 476.757
106 0 71.2294 15.064 1073 123.342 368.654 474.758
107 0 73.1036 14.3085 1046 124.327 368.685 475.852
108 0 77.2718 14.6237 1130 123.111 369.125 474.027
109 0 81.1528 15.2921 1241 120.247 369.189 472.309
110 0 84.3546 15.7312 1327 120.346 369.276 471.533
111 1 44.2151 14.4068 637 121.171 369.27 489.086
112 0 46.1419 13.3068 614 122.246 369.117 488.964
113 0 49.3436 14.0038 691 120.647 368.443 488.535
114 0 49.0887 14.2803 701 122.545 367.98 486.666
115 0 50.1229 14.5442 729 122.568 368.188 485.853
116 0 52.0571 13.7349 715 123.404 368.101 486.145
117 0 57.2294 14.1361 809 119.145 368.069 485.911
118 0 57.2894 14.2958 819 120.155 368.543 484.128
119 0 61.1442 16.1258 986 113.691 367.151 484.545
120 0 60.1776 14.4738 871 119.89 367.223 481.713
121 0 63.0999 15.103 953 118.409 366.723 479.158
122 0 66.0957 15.523 1026 116.333 366.462 478.259
123 0 67.1263 13.6757 918 121.219 366.111 476.896
124 0 69.1658 15.4701 1070 117.636 366.597 478.034
125 0 71.1946 13.9055 990 121.687 366.552 475.238
126 0 75.2188 15.0095 1129 119.923 366.493 473.089
127 0 78.1289 15.1416 1183 119.773 366.654 471.954
128 1 42.1789 12.1862 514 122.074 366.082 488.586
129 0 44.1691 12.9729 573 122.293 366.77 487.096
130 0 47.1022 14.6065 688 116.842 367.44 486.321
131 0 45.121 11.9235 538 123.632 368.141 486.875
132 0 50.0601 13.8034 691 118.483 368.344 485.722
133 0 49.2453 12.651 623 122.518 367.557 483.92
134 0 53.1448 13.8301 735 117.279 367.969 483.861
135 0 53.4163 12.5617 671 119.092 369.189 484.075
136 0 58.1302 15.6201 908 110.004 368.592 482.667
137 0 57.1642 14.2222 813 115.141 368.717 481.582
138 0 60.2708 14.8496 895 113.409 368.343 480.021
139 0 63.1499 15.0911 953 110.977 368.85 480.497
140 0 62.1973 13.5858 845 115.786 369.076 479.231
141 0 65.1248 14.3878 937 113.377 368.786 477.441
142 0 69.293 15.1963 1053 110.81 368.714 476.6
143 0 70.1737 14.4356 1013 112.245 369.083 475.155
144 0 72.144 13.7919 995 113.425 368.527 474.348
145 0 75.2201 13.1082 986 115.03 368.088 474.133
146 0 79.2517 14.7378 1168 110.132 367.835 473.152
147 0 81.2875 15.1069 1228 110.405 367.739 469.985
148 1 43.1022 10.5563 455 110.519 366.642 490.308
149 0 45.1945 12.8777 582 107.457 366.137 488.983
150 0 48.0182 10.8917 523 106.73 366.26 491.09
151 0 48.3014 13.7677 665 105.603 366.353 485.931
152 0 52.1848 14.1229 737 103.531 366.526 486.643
153 0 52.0294 13.5308 704 105.553 366.116 486.783
154 0 51.2092 11.6776 598 110.677 366.232 483.661
155 0 55.4371 13.1681 730 107.251 366.508 484.253
156 0 56.1018 14.0281 787 106.159 366.504 482.893
157 0 58.2968 14.1517 825 105.392 366.632 483.086
158 0 58.0983 13.5804 789 107.327 366.49 482.053
159 0 59.1847 14.3449 849 106.7 366.714 480.596
160 0 60.2315 13.2157 796 109.258 366.502 478.246
161 0 64.2281 15.1491 973 104.699 366.265 477.535
162 0 66.2282 14.3896 953 108.008 366.906 476.487
163 0 67.3364 14.2122 957 108.888 367.085 476.016
164 0 70.1147 15.0325 1054 107.942 367.45 475.713
165 0 72.1618 14.2458 1028 110.494 367.783 473.379
166 0 77.0728 13.7532 1060 109.965 367.377 473.744
167 0 78.0862 15.3164 1196 108.991 368.345 471.345
168 0 82.2422 15.9529 1312 107.931 368.023 469.537
169 0 85.1693 15.616 1330 108.22 367.879 470.771
170 0 88.1449 16.4388 1449 107.016 368.37 470.483
171 1 45.0756 12.8007 577 108.951 368.69 489.756
172 0 45.0495 12.8747 580 109.552 368.186 490.884
173 0 48.0259 13.8259 664 107.974 367.458 489.926
174 0 46.0854 12.2599 565 114.106 367.473 489.584
175 0 49.0252 13.3605 655 111.403 367.753 489.07
176 0 52.0504 14.0825 733 109.553 367.51 489.741
177 0 54.0561 13.9485 754 109.763 367.428 489.564
178 0 54.0878 12.1469 657 114.327 367.237 489.551
179 0 56.1263 14.5565 817 110.578 367.149 487.305
180 0 57.123 13.3396 762 115.449 366.217 484.861
181 0 61.1014 14.6314 894 111.04 366.001 485.691
182 0 62.0617 13.4221 833 114.124 366.222 484.409
183 0 64.0913 15.1659 972 111.181 366.288 483.166
184 0 66.1211 15.4867 1024 109.173 365.996 483.715
185 0 68.085 15.2603 1039 110.599 366.126 481.283
186 0 71.1477 14.3926 1024 113.304 365.851 480.434
187 0 72.0908 15.1892 1095 113.295 366.02 477.426
188 0 73.1596 14.8989 1090 115.369 365.476 476.508
189 0 78.1449 14.4091 1126 115.434 365.627 476.113
190 0 81.0749 15.5412 1260 113.26 365.328 474.083
191 0 82.165 13.7772 1132 119.193 365.176 472.521
192 1 42.0773 12.1918 513 116.415 365.862 490.737
193 0 45.0993 12.927 583 113.398 365.64 490.434
194 0 46.0469 12.8782 593 112.395 365.825 491.094
195 0 46.1118 12.5131 577 115.945 366.028 488.905
196 0 46.0665 12.3083 567 115.28 366.668 489.742
197 0 46.143 12.808 591 117.213 366.389 487.976
198 0 50.1046 12.8731 645 115.541 366.927 487.056
199 0 50.1352 12.4463 624 115.631 367.771 488.224
200 0 54.1115 13.4907 730 112.766 367.084 486.216
201 0 54.07 14.2593 771 112.371 367.42 486.003
202 0 56.1202 13.2751 745 114.662 366.746 483.804
203 0 57.1574 13.4366 768 113.995 366.906 483.225
204 0 59.297 14.1828 841 114.227 366.452 482.087
205 0 62.1768 13.8476 861 113.822 367.071 481.864
206 0 65.0543 13.604 885 114.01 366.689 481.546
207 0 66.2434 13.2542 878 116.222 367.407 479.259
208 0 71.1112 13.1344 934 114.178 366.715 480.609
209 0 74.2111 14.4318 1071 111.191 365.962 479.424
210 0 74.1855 12.2665 910 117.393 366.333 478.526
211 1 44.1649 10.0532 444 114.833 366.525 493.486
212 0 44.1534 11.8451 523 112.067 366.115 494.08
213 0 44.0702 10.9371 482 116.5 366.056 490.799
214 0 47.0915 12.9747 611 111.159 366.414 490.344
215 0 47.1207 14.5372 685 109.016 366.253 488.711
216 0 49.137 13.4725 662 110.795 365.409 488.568
217 0 51.1611 13.7409 703 110.149 365.011 487.112
218 0 52.1162 13.7001 714 110.598 364.919 486.248
219 0 52.1291 13.6968 714 145.469 365.919 486.276
220 0 54.2493 12.8296 696 113.004 364.957 485.141
221 0 55.2207 13.6362 753 111.568 365.011 482.829
222 0 59.1947 12.9572 767 111.059 365.051 482.881
223 0 62.2005 13.6976 852 108.919 365.02 480.714
224 0 61.2146 13.5262 828 111.315 364.566 479.943
225 0 63.254 13.3905 847 110.56 364.39 479.425
226 0 69.1886 14.8001 1024 105.523 365.32 479.287
227 0 67.2851 12.2315 823 112.468 365.34 475.271
228 0 70.4275 13.4323 946 110.047 365.552 474.756
229 0 75.3174 13.5161 1018 108.303 365.846 474.515
230 0 77.3433 14.468 1119 104.643 366.21 474.545
231 1 38.1471 10.7479 410 108.039 366.563 490.885
232 0 38.1981 10.2361 391 108.813 366.644 490.317
233 0 38.1362 10.9345 417 108.029 367.283 489.803
234 0 43.0665 12.4459 536 104.853 366.821 489.793
235 0 42.0843 12.8314 540 106.98 367.004 488.609
236 0 45.1021 12.8154 578 106.254 366.991 488.676
237 0 46.1528 12.2203 564 108.66 367.011 488.933
238 0 47.181 13.0985 618 106.942 367.743 489.173
239 0 46.1511 12.4158 573 111.068 367.684 487.757
240 0 50.1482 12.0842 606 110.394 367.979 488.484
241 0 51.1362 13.2 675 109.148 367.376 487.333
242 0 52.0985 15.7586 821 103.981 367.205 485.889
243 0 55.132 13.6219 751 108.057 366.746 485.558
244 0 56.223 14.069 791 106.748 366.978 486.268
245 0 58.1089 13.991 813 106.173 366.816 485.862
246 0 60.265 14.4528 871 104.958 366.677 483.966
247 0 61.3908 14.0901 865 106.599 366.528 482.979
248 0 63.2342 13.964 883 107.436 366.425 482.347
249 0 64.1173 12.8826 826 109.425 365.571 483.189
250 0 66.1953 15.7715 1044 104.482 365.307 479.388
251 0 69.1608 14.676 1015 106.295 364.88 478.312
252 0 71.4789 14.7736 1056 107.014 365.609 476.83
253 0 73.3444 13.9888 1026 109.58 365.298 475.174
254 0 79.394 15.379 1221 105.242 365.686 475.17
255 0 79.2552 14.5101 1150 108.852 365.412 473.283
256 1 41.2522 10.86 448 112.645 366.176 490.438
257 0 42.3748 11.7759 499 112.154 365.727 488.85
258 0 45.1874 12.9682 586 109.085 365.517 489.391
259 0 46.3198 13.5147 626 107.931 366.209 488.754
260 0 49.1052 14.2347 699 106.155 366.973 487.412
261 0 49.07 13.9596 685 108.099 366.823 486.791
262 0 52.0728 13.9612 727 108.788 366.843 485.641
263 0 52.1415 13.9812 729 110.298 368.178 484.484
264 0 53.0946 13.5984 722 112.742 367.909 484.227
265 0 54.3912 15.0943 821 109.356 368.635 483.309
266 0 58.1448 14.8423 863 109.633 368.626 484.796
267 0 59.4123 13.5157 803 114.904 368.74 481.066
268 0 60.4064 14.5514 879 113.862 369.156 481.815
269 0 61.3722 13.5403 831 117.235 369.357 483.185
270 0 65.2954 14.733 962 114.322 369.35 482.489
271 0 68.4911 14.4544 990 115.342 368.75 480.77
272 0 72.3972 14.9039 1079 114.167 368.94 481.274
273 0 70.4631 14.0357 989 118.601 368.609 479.158
274 0 75.3861 15.5599 1173 115.627 368.784 477.605
275 0 78.3634 14.7263 1154 117.201 368.816 478.588
276 1 43.1373 11.3591 490 117.982 368.776 495.816
277 0 45.0978 13.4153 605 113.509 368.544 496.157
278 0 44.0226 13.2886 585 115.542 367.909 494.188
279 0 48.0462 14.6942 706 110.881 367.074 494.824
280 0 48.0823 13.3105 640 116.003 366.255 493.067
281 0 48.0501 13.3402 641 117.997 366.271 492.671
282 0 51.029 14.4428 737 113.275 365.883 492.096
283 0 50.0742 13.6797 685 117.461 365.816 491.099
284 0 51.1053 14.4408 738 118.137 365.286 491.191
285 0 54.0722 13.445 727 120.499 365.007 488.882
286 0 54.0558 14.411 779 118.924 364.261 486.692
287 0 56.1199 14.861 834 119.309 365.074 484.761
288 0 58.1459 15.0483 875 117.585 365.119 483.573
289 0 61.0945 14.0274 857 119.215 365.383 482.716
290 0 64.2417 16.4535 1057 113.055 365.92 482.03
291 0 65.0976 14.87 968 119.005 365.647 479.8
292 0 68.2049 14.4271 984 120.329 365.844 478.865
293 0 69.137 14.3339 991 121.953 366.008 476.31
294 0 74.1866 14.8814 1104 119.305 366.724 475.496
295 0 75.2028 15.0127 1129 120.975 367.187 474.925
296 1 40.1136 12.3898 497 118.215 368.565 492.634
297 0 41.1015 13.7951 567 117.66 369.198 490.884
298 0 42.0768 14.2834 601 117.401 368.859 491.439
299 0 44.0289 12.7189 560 121.65 369.384 491.252
300 0 46.0393 12.9672 597 119.873 370.193 492.214
301 0 46.0224 13.1675 606 123.254 369.632 491.449
302 0 47.1093 14.5194 684 118.823 369.346 490.936
303 0 48.1527 13.6233 656 122.421 368.992 490.934
304 0 51.115 14.0076 716 120.365 368.676 491.473
305 0 51.2585 13.2271 678 123.647 367.795 491.012
306 0 54.1033 13.7515 744 121.622 367.659 491.066
307 0 56.1131 14.0253 787 121.802 367.715 488.756
308 0 57.1703 13.3986 766 123.478 367.67 488.753
309 0 58.2215 13.8609 807 122.812 367.403 488.375
310 0 62.127 15.4039 957 119.236 366.687 485.121
311 0 64.2149 14.2957 918 121.32 366.655 485.143
312 0 64.1287 13.738 881 125.01 366.111 484.23
313 0 67.1076 14.976 1005 121.997 365.898 482.535
314 0 70.1512 14.9249 1047 122.912 366.046 478.888
315 0 73.1583 14.6531 1072 122.977 365.382 478.492
316 0 75.2068 14.3604 1080 124.757 364.817 477.116
317 1 38.1394 11.1958 427 123.18 364.834 494.787
318 0 39.1342 12.5466 491 121.882 364.829 493.185
319 0 41.1171 13.1819 542 117.242 364.574 494.253
320 0 41.2473 12.1462 501 123.762 365.174 491.375
321 0 44.0257 13.2423 583 118.237 365.748 492.434
322 0 44.0765 12.7506 562 119.692 365.838 492.169
323 0 44.1611 13.5413 598 120.478 365.756 489.212
324 0 47.1064 14.308 674 118.313 366.463 489.533
325 0 47.2107 13.5139 638 119.92 367.502 488.759
326 0 49.0975 14.1555 695 119.196 368.022 487.63
327 0 51.115 14.2228 727 118.314 368.545 487.997
328 0 50.2099 12.8461 645 122.839 368.516 486.952
329 0 54.1337 14.4457 782 117.527 367.225 485.422
330 0 56.0739 14.0172 786 117.067 368.178 485.963
331 0 59.2525 14.4973 859 115.645 368.434 486.235
332 0 60.1953 15.1673 913 114.579 368.697 485.256
333 0 60.1133 15.3044 920 116.487 368.078 483.99
334 0 62.1693 14.9431 929 116.843 368.822 483.963
335 0 65.145 13.9842 911 117.971 368.15 484.12
336 0 65.3745 13.3232 871 120.59 368.535 483.439
337 0 70.2678 14.7294 1035 117.757 368.736 481.412
338 0 72.1731 14.0773 1016 120.619 368.923 480.287
339 1 39.0291 12.6828 495 113.954 368.917 499.356
340 0 39.1809 11.4852 450 120.093 368.853 495.96
341 0 39.122 11.3747 445 121.126 367.274 496.663
342 0 40.1924 12.888 518 119.66 366.176 494.699
343 0 41.2357 12.5862 519 121.63 365.037 493.085
344 0 45.1856 13.1015 592 118.348 365.186 492.598
345 0 46.2114 12.2697 567 120.014 365.101 492.991
346 0 47.2841 12.795 605 119.6 364.86 490.372
347 0 50.1826 14.228 714 116.357 364.356 487.875
348 0 51.1771 13.7757 705 117.197 365.418 488.067
349 0 52.2567 14.2757 746 116.307 364.373 487.13
350 0 55.151 14.1248 779 115.996 365.078 485.815
351 0 55.1345 13.7119 756 118.22 364.565 484.377
352 0 58.0917 14.2189 826 116.774 364.343 482.676
353 0 58.053 13.6944 795 117.459 364.791 482.605
354 0 60.2288 13.2661 799 118.897 364.354 481.204
355 0 66.3011 13.6951 908 116.105 365.013 480.471
356 0 67.2642 14.3464 965 115.762 365.795 478.681
357 0 69.1824 14.4401 999 116.017 366.597 478.209
358 0 72.1217 13.7268 990 116.348 366.95 477.477
359 0 74.2066 16.0228 1189 112.745 367.877 475.481
360 1 39.0118 11.7913 460 116.676 368.98 492.598
361 0 39.0225 12.2237 477 117.071 370.115 492.386
362 0 42.0853 12.3083 518 116.251 370.102 492.299
363 0 44.0412 13.9869 616 112.589 369.927 491.883
364 0 45.088 12.3758 558 115.122 369.846 493.344
365 0 45.1857 13.0572 590 115.961 369.334 491.944
366 0 47.0827 12.4674 587 116.842 369.16 492.55
367 0 48.1819 14.0302 676 113.928 369.01 491.312
368 0 48.2035 11.9286 575 119.739 368.626 492.677
369 0 52.1725 13.4554 702 114.473 368.248 493.142
370 0 52.124 12.4511 649 118.305 367.79 491.062
371 0 55.1813 12.6492 698 118.368 367.155 489.08
372 0 58.2398 13.1525 766 117.978 366.569 488.214
373 0 59.2102 12.5316 742 119.635 366.926 487.418
374 0 62.2625 13.3949 834 116.266 365.963 486.332
375 0 63.1205 12.9593 818 120.559 365.044 484.505
376 1 35.007 12.2547 429 118.079 364.804 497.504
377 0 34.015 9.7898 333 121.24 364.625 497.832
378 0 39.0386 11.9881 468 117.44 363.893 496.297
379 0 39.0547 11.7527 459 120.224 363.608 494.817
380 0 41.1083 13.209 543 118.11 363.665 494.32
381 0 41.0569 13.323 547 120.382 363.589 493.214
382 0 42.2643 12.1616 514 125.196 364.076 491.409
383 0 43.1774 13.2708 573 122.297 364.361 490.686
384 0 43.167 13.135 567 123.977 364.908 490.064
385 0 47.2131 14.551 687 118.507 365.179 489.575
386 0 47.2106 13.1326 620 124.208 364.879 487.827
387 0 49.2988 12.7184 627 124.772 365.735 488.459
388 0 51.1811 13.4034 686 121.026 367.124 486.975
389 0 53.1327 13.9838 743 118.467 367.812 486.346
390 0 54.1126 13.8785 751 119.238 367.956 486.498
391 0 56.1268 15.3225 860 116.014 368.079 485.377
392 0 54.1217 12.5458 679 123.39 369.038 485.676
393 0 61.1842 14.2357 871 117.095 369.266 485.268
394 0 62.1506 15.1728 943 116.225 369.28 483.651
395 0 62.11 13.5405 841 121.05 369.328 484.372
396 0 66.1418 13.2443 876 121.236 369.304 483.807
397 0 70.1729 14.6495 1028 117.742 368.221 480.986
398 1 36.1966 11.7138 424 119.061 369.009 500.052
399 0 37.1231 11.5831 430 120.07 368.923 500.144
400 0 39.1084 12.785 500 117.572 368.334 498.266
401 0 41.1105 12.4542 512 119.582 367.061 496.055
402 0 43.2091 14.1868 613 115.095 366.243 495.271
403 0 44.2637 13.1937 584 117.36 366.75 494.591
404 0 46.2275 13.347 617 117.724 365.737 492.888
405 0 47.1688 12.9535 611 119.725 365.049 491.445
406 0 48.1917 12.886 621 119.575 365.103 491.845
407 0 49.1679 13.7691 677 118.579 364.227 488.809
408 0 50.2072 12.7273 639 121.103 363.984 489
409 0 51.2149 12.4964 640 120.431 364.014 488.731
410 0 57.1715 14.9025 852 113.135 363.837 484.82
411 0 57.1703 15.62 893 113.67 363.441 484.22
412 0 59.1267 14.2406 842 115.248 363.454 483.667
413 0 59.1176 13.4478 795 118.424 363.8 480.531
414 0 63.1355 14.1917 896 114.981 364.309 479.419
415 0 66.1269 14.8502 982 112.451 365.267 478.748
416 0 68.0969 12.9815 884 117.838 365.831 478.26
417 0 71.1356 14.7184 1047 112.7 366.507 476.753
418 1 38.1118 11.8336 451 111.683 368.071 493.355
419 0 40.0332 11.5155 461 114.727 368.642 490.928
420 0 38.0252 12.3602 470 112.915 369.47 492.083
421 0 40.046 13.2098 529 112.316 370.134 491.957
422 0 42.0802 12.595 530 113.457 370.189 491.879
423 0 43.1298 13.4478 580 112.802 370.616 490.424
424 0 45.1941 14.2939 646 108.413 370.63 493.594
425 0 47.1145 14.3905 678 108.876 370.898 493.286
426 0 49.2472 14.8435 731 108.156 370.55 492.261
427 0 48.1017 13.1804 634 113.166 370.208 492.363
428 0 50.1674 13.6144 683 112.013 369.313 493.208
429 0 52.0766 14.4595 753 109.364 369.382 492.796
430 0 52.0839 13.1327 684 114.437 369.044 491.436
431 0 56.1998 16.9574 953 104.569 367.801 489.515
432 0 59.1569 15.5011 917 106.246 367.289 488.989
433 0 60.0867 14.9284 897 108.926 366.726 486.845
434 0 62.1036 14.3148 889 110.918 365.79 485.189
435 1 34.0712 11.564 394 112.764 365.442 497.764
436 0 36.0995 12.6041 455 109.297 365.279 497.631
437 0 39.1269 12.7023 497 108.33 364.899 496.266
438 0 39.0508 12.8807 503 110.547 364.61 494.068
439 0 40.0185 13.2689 531 110.991 363.992 492.156
440 0 42.0464 12.9143 543 111.151 363.794 491.087
441 0 44.1468 12.7076 561 110.392 363.975 490.178
442 0 44.0464 12.2144 538 113.597 363.974 488.344
443 0 48.2506 14.0102 676 108.176 363.842 487.913
444 0 47.05 13.6876 644 111.511 364.727 485.222
445 0 50.1882 14.9437 750 106.041 365.587 486.408
446 0 51.1211 14.0646 719 110.752 365.597 483.93
447 0 53.1174 15.1551 805 108.076 367.235 483.883
448 0 54.1402 13.4651 729 113.215 368.063 483.391
449 0 55.1522 13.6712 754 113.294 368.838 483.076
450 0 57.1922 12.5716 719 115.003 370.291 483.381
451 0 60.3169 14.6891 886 110.629 370.59 481.91
452 0 63.3077 13.3633 846 113.202 371.34 482.682
453 0 66.4634 13.0749 869 113.137 371.432 482.146
454 1 34.3017 10.6117 364 113.195 371.629 496.593
455 0 36.3133 9.96881 362 113.892 371.18 496.707
456 0 40.3309 12.9429 522 108.705 370.575 496.92
457 0 41.2315 13.3636 551 109.437 370.084 495.809
458 0 41.2652 13.4738 556 111.773 370.14 496.466
459 0 43.1388 13.0973 565 113.122 369.798 495.428
460 0 44.2541 12.5638 556 113.149 369.478 495.737
461 0 48.2582 12.8061 618 112.338 368.424 493.746
462 0 47.1234 12.9023 608 114.942 367.493 492.61
463 0 50.2327 14.0745 707 112.347 366.465 491.44
464 0 52.2474 13.6658 714 113.364 366.139 489.868
465 0 56.0745 13.1076 735 113.211 365.204 489.088
466 0 55.0427 14.0436 773 111.959 364.906 488.881
467 0 58.0899 13.5135 785 113.336 364.803 486.149
468 0 58.0246 13.6838 794 115.7 365.373 483.637
469 0 61.2364 14.1093 864 113.669 365.069 481.9
470 0 62.0897 13.7865 856 116.305 363.971 479.151
471 0 64.1102 13.6016 872 116.369 364.114 478.577
472 0 67.1349 12.8398 862 117.411 364.365 477.81
473 1 37.0352 12.5016 463 111.978 364.754 493.028
474 0 36.0741 9.95175 359 115.813 365.783 493.824
475 0 40.0925 12.5709 504 111.518 366.397 491.647
476 0 39.0517 11.7537 459 114.24 366.874 491.429
477 0 40.1369 12.5321 503 114.074 368.25 489.531
478 0 44.117 12.3309 544 107.851 369.342 491.724
479 0 44.086 12.521 552 109.123 370.833 490.801
480 0 45.1856 12.504 565 111.828 371.678 490.398
481 0 46.1982 13.7884 637 110.575 371.97 489.829
482 0 47.1796 13.2049 623 113.18 372.363 489.9
483 0 49.2748 12.5013 616 114.575 372.739 490.265
484 0 52.2297 12.2536 640 113.445 373.067 491.903
485 0 51.1449 13.3933 685 114.94 372.171 489.604
486 0 56.175 13.9208 782 111.779 371.821 489.414
487 0 55.1392 13.1123 723 115.367 370.983 489.722
488 0 58.2373 13.6167 793 113.585 370.277 490.154
489 0 61.0995 13.6826 836 113.584 369.559 489.325
490 0 62.0947 13.7693 855 114.627 368.85 486.922
491 0 65.084 14.0127 912 113.738 367.827 485.594
492 0 68.2537 14.7098 1004 113.689 366.824 483.192
493 0 70.1135 13.9203 976 115.35 365.744 482.757
494 0 74.112 15.2202 1128 111.433 365.146 480.085
495 0 76.1939 15.2112 1159 112.831 364.793 478.278
496 1 40.0655 11.581 464 117.054 364.218 494.019
497 0 41.0659 12.0051 493 117.789 363.627 492.864
498 0 46.0251 13.2319 609 113.453 363.222 491.34
499 0 46.1875 13.6184 629 114.167 363.251 488.789
500 0 47.1116 13.9032 655 114.426 363.8 486.966
501 0 48.2695 14.792 714 112.793 363.611 486.658
502 0 48.134 14.5635 701 115.327 364.328 484.509
503 0 50.1273 13.8049 692 116.126 365.285 484.221
504 0 52.1035 14.1641 738 114.877 365.938 483.705
505 0 53.0925 13.8438 735 115.663 366.588 482.487
506 0 56.1031 14.9368 838 112.541 367.928 483.02
507 0 58.1063 14.267 829 113.353 370.312 484.25
508 0 57.1215 13.0424 745 117.132 371.497 485.584
509 0 63.1512 14.4732 914 112.442 373.174 484.026
510 0 65.1855 15.4329 1006 111.694 373.036 482.467
511 0 67.1022 15.1411 1016 112.913 373.831 483.218
512 0 68.1649 14.4649 986 116.432 374.085 481.77
513 0 69.1363 14.2472 985 119.323 373.836 482.729
514 0 73.0718 15.4916 1132 116.53 373.696 483.651
515 1 40.0275 11.7419 470 120.84 372.713 498.711
516 0 41.0393 12.5002 513 120.31 372.287 499.203
517 0 42.0577 12.8395 540 121.47 371.633 499.337
518 0 42.0366 13.0125 547 119.282 370.016 499.863
519 0 45.0196 13.1276 591 117.372 368.968 499.232
520 0 47.0153 13.4212 631 117.444 366.696 496.94
521 0 50.0948 13.2149 662 116.648 365.601 497.382
522 0 52.1007 14.8942 776 113.113 364.11 494.903
523 0 52.1259 13.6017 709 117.475 363.073 494.48
524 0 53.137 14.4344 767 116.87 362.321 492.584
525 0 56.0687 14.1434 793 117.71 361.617 491.55
526 0 57.1431 13.9824 799 120.116 360.259 488.287
527 0 59.1735 13.6548 808 120.646 359.8 487.45
528 0 64.0979 14.8679 953 117.253 359.207 486.608
529 0 63.1204 14.1634 894 121.824 358.651 484.285
530 0 66.1076 14.1285 934 121.882 358.389 481.483
531 0 67.1338 14.1806 952 122.509 358.983 480.457
532 0 71.1084 13.9646 993 122.329 359.566 479.111
533 1 36.1325 11.0704 400 122.848 360.928 498.215
534 0 38.0341 11.3056 430 122.865 362.107 497.244
535 0 40.124 10.8663 436 124.704 363.991 496.514
536 0 42.2133 13.5502 572 118.087 365.301 495.636
537 0 41.1374 11.5953 477 125.249 367.348 494.803
538 0 43.1935 12.9186 558 122.131 368.09 495.378
539 0 45.1228 13.2084 596 122.438 369.928 495.649
540 0 47.1583 13.4865 636 124.307 370.401 496.569
541 0 48.2332 13.0823 631 124.553 371.014 497.895
542 0 51.1857 13.9492 714 121.357 369.244 498.486
543 0 55.0657 15.1637 835 119.486 367.43 497.418
544 0 57.1434 13.9649 798 121.558 366.776 498.011
545 0 58.0929 13.6505 793 123.008 364.932 498.333
546 0 61.0848 13.7514 840 124.274 363.058 495.846
547 0 64.1022 14.3989 923 122.114 361.587 493.838
548 0 67.0685 14.0453 942 123.641 360.586 492.167
549 0 71.0362 14.7812 1050 120.953 359.862 490.023
550 1 37.0416 11.7706 436 120.216 358.427 506.2
551 0 36.0075 10.4145 375 126.36 358.384 504.403
552 0 38.0054 12.0772 459 124.869 357.819 501.181
553 0 42.0408 13.1301 552 122.174 357.804 499.728
554 0 42.0508 12.3184 518 126.676 357.403 498.332
555 0 42.0508 12.2471 515 161.61 357.443 498.291
556 0 45.0837 13.1311 592 126.454 356.774 494.095
557 0 45.1562 13.9073 628 124.806 356.71 492.42
558 0 47.1918 13.2438 625 126.227 356.773 490.306
559 0 49.1255 13.781 677 126.57 357.247 488.075
560 0 51.2738 14.9784 768 123.763 357.798 486.914
561 0 50.1462 13.341 669 129.68 358.41 486.096
562 0 54.1326 14.446 782 124.93 360.143 486.251
563 0 54.113 13.9523 755 127.207 362.322 485.053
564 0 56.1683 15.418 866 122.931 363.844 484.888
565 0 56.0783 13.6773 767 129.681 365.684 484.673
566 0 59.0848 14.7246 870 124.656 368.453 484.516
567 0 62.2458 13.5431 843 125.72 369.77 484.779
568 0 66.134 14.4555 956 122.459 371.217 484.892
569 0 68.1241 14.958 1019 122.055 370.949 484.146
570 0 70.1378 14.8422 1041 122.589 370.425 484.485
571 0 74.2128 15.3612 1140 121.146 370.203 483.83
572 0 77.1957 14.8842 1149 122.641 368.594 483.135
573 1 40.0283 11.6917 468 123.406 368.752 502.59
574 0 43.0436 12.2202 526 120.783 368.108 502.913
575 0 45.0507 13.2739 598 120.067 366.916 501.946
576 0 46.0669 13.3936 617 122.452 365.642 500.272
577 0 46.0404 13.0972 603 124.386 363.819 500.245
578 0 49.0309 13.6241 668 121.867 362.741 498.753
579 0 51.1098 14.2634 729 120.807 361.669 496.866
580 0 54.0429 14.8956 805 119.411 360.622 495.684
581 0 52.0607 14.5983 760 123.996 359.958 493.664
582 0 57.0214 14.3455 818 122.568 358.605 492.828
583 0 59.1298 14.4766 856 122.761 358.204 489.137
584 0 60.111 14.1239 849 124.278 357.464 488.258
585 0 62.1234 15.1795 943 121.936 357.609 486.724
586 0 66.1144 13.7338 908 125.21 357.388 485.859
587 0 68.1249 14.9578 1019 123.887 357.588 482.588
588 0 69.1512 14.9817 1036 124.256 358.649 481.517
589 0 72.2423 14.3545 1037 127.148 359.087 478.173
590 0 73.0741 15.0258 1098 125.108 360.344 478.251
591 0 78.1084 15.5041 1211 122.424 361.415 477.184
592 0 81.2571 15.5679 1265 122.964 361.225 474.836
593 0 84.0573 15.7869 1327 121.452 364.13 475.729
594 0 86.1252 15.1291 1303 125.536 367.081 472.672
595 1 45.1491 11.6946 528 128.536 368.987 494.644
596 0 47.0799 13.4665 634 124.207 370.672 495.036
597 0 48.0927 14.0146 674 124.571 370.926 494.685
598 0 50.1628 13.7951 692 124.416 371.405 495.565
599 0 55.177 14.5351 802 119.875 371.357 496.394
600 0 56.1163 14.3274 804 121.03 370.893 495.466
601 0 58.2198 14.8918 867 121.163 368.358 496.01
602 0 62.1625 13.883 863 122.074 368.715 497.196
603 0 64.3059 13.6068 875 122.111 367.13 497.942
604 0 67.1664 13.4591 904 122.163 365.301 496.813
605 0 72.3849 14.34 1038 117.915 363.563 495.689
606 0 75.2016 15.6247 1175 114.678 362.347 494.101
607 0 77.1614 14.2558 1100 119.65 360.8 492.924
608 0 81.2731 14.9373 1214 117.619 358.905 491.321
609 0 85.2912 15.066 1285 116.763 357.565 491.102
610 1 42.2332 11.7443 496 119.399 357.012 511.712
611 0 45.1619 13.1306 593 117.793 356.398 509.939
612 0 48.2823 13.8146 667 118.561 355.189 506.766
613 0 51.1916 13.8499 709 117.001 354.848 507.141
614 0 51.1741 13.2098 676 119.484 354.723 505.876
615 0 52.1896 13.4318 701 121.328 355.146 502.528
616 0 54.3834 14.1219 768 118.28 355.006 500.529
617 0 55.1655 13.668 754 122.042 355.121 496.875
618 0 58.241 14.0451 818 118.683 355.333 498.339
619 0 59.3662 14.0147 832 121.52 354.379 494.811
620 0 63.3134 15.3206 970 116.749 355.656 492.032
621 0 64.2086 14.8267 952 119.687 356.598 491.319
622 0 67.2235 14.8311 997 119.225 357.75 490.463
623 0 71.435 15.2306 1088 117.482 359.438 489.364
624 0 74.326 14.275 1061 119.574 361.04 489.467
625 0 77.2529 14.2778 1103 118.922 362.343 488.777
626 0 79.3046 14.438 1145 119.594 362.392 486.872
627 1 44.1227 11.7627 519 120.085 362.757 505.568
628 0 44.2774 13.6864 606 118.066 362.677 504.502
629 0 45.3966 13.4592 611 119.286 362.561 504.524
630 0 49.2476 12.9143 636 118.832 360.843 507.638
631 0 50.1088 14.3488 719 117.031 360.829 506.683
632 0 52.1645 13.8792 724 118.627 360.272 506.791
633 0 52.1998 13.774 719 120.964 358.829 507.765
634 0 57.1725 14.535 831 118.112 358.04 507.733
635 0 57.1728 12.8907 737 124.963 357.558 505.29
636 0 60.3234 13.6431 823 125.084 356.536 503.476
637 0 64.2337 14.9766 962 121.841 354.477 502.684
638 0 65.192 14.3729 937 126.406 353.404 500.117
639 0 70.1833 15.602 1095 122.237 351.466 499.426
640 0 71.1053 14.0074 996 128.403 351.136 494.929
641 0 74.264 14.2465 1058 127.701 351.148 493.799
642 1 39.173 11.3343 444 127.547 350.673 510.624
643 0 40.2632 11.8719 478 127.623 350.458 507.676
644 0 43.161 12.3723 534 124.607 351.228 507.279
645 0 44.3696 12.486 554 126.625 352.083 505.128
646 0 45.2914 13.7995 625 124.205 352.382 503.736
647 0 48.2487 14.3216 691 120.945 353.414 504.505
648 0 48.2098 14.0221 676 122.842 354.667 503.074
649 0 48.1322 13.6083 655 123.837 355.899 501.983
650 0 52.1114 14.066 733 121.363 356.876 500.757
651 0 54.1872 14.7083 797 118.164 358.56 501.119
652 0 54.3062 13.7185 745 122.702 359.533 500.164
653 0 56.159 13.9069 781 122.072 360.798 499.227
654 0 58.2493 13.8199 805 121.901 362.502 499.196
655 0 62.4296 15.4094 962 116.972 363.431 497.97
656 0 64.3307 14.2545 917 120.509 364.262 496.954
657 0 68.2588 15.6317 1067 115.873 364.66 498.324
658 0 70.4067 13.6209 959 121.829 363.785 496.966
659 0 74.4677 13.2272 985 123.669 363.739 494.982
660 0 75.3877 13.7954 1040 124.177 362.696 491.857
661 1 41.3505 10.7858 446 120.67 362.13 512.704
662 0 42.3781 12.6716 537 118.114 361.428 510.873
663 0 43.303 11.2463 487 122.45 359.984 511.717
664 0 42.3425 11.6195 492 124.254 358.663 509.72
665 0 47.2162 12.9828 613 118.566 357.349 506.597
666 0 46.2407 12.8026 592 121.118 356.53 505.356
667 0 47.1 11.4862 541 122.584 355.301 503.418
668 0 52.3112 12.7124 665 117.856 354.636 502.573
669 0 52.2922 13.4437 703 117.716 354.425 499.525
670 0 54.2271 13.0193 706 117.313 354.142 497.132
671 0 56.1928 14.4325 811 114.446 353.783 495.208
672 0 57.238 13.3653 765 118.81 354.265 491.967
673 0 59.2263 12.8997 764 119.416 355.305 492.791
674 0 63.2961 13.2868 841 118.239 355.742 490.394
675 0 64.2036 13.2703 852 119.07 356.146 489.143
676 0 66.218 14.2559 944 116.593 357.697 488.22
677 0 67.2936 12.6609 852 120.473 358.873 486.055
678 0 72.3332 14.1429 1023 116.453 359.507 482.795
679 1 37.211 9.56706 356 118.267 360.885 500.688
680 0 39.1907 10.8699 426 113.298 363.728 501.824
681 0 41.259 11.6581 481 112.383 365.819 501.081
682 0 41.2214 11.3533 468 113.968 367.077 500.848
683 0 45.0872 11.511 519 112.002 368.434 499.551
684 0 44.2312 12.2764 543 113.372 367.678 498.413
685 0 46.3794 11.6647 541 114.072 368.767 500.621
686 0 47.3676 12.3924 587 112.743 368.974 500.939
687 0 49.2539 11.4712 565 115.961 369.241 500.149
688 0 51.4102 12.8574 661 113.964 368.555 499.817
689 0 53.2721 13.4967 719 112.131 367.071 500.171
690 0 55.3348 13.8972 769 112.785 366.415 498.492
691 0 55.1235 12.862 709 115.327 364.989 498.181
692 0 60.1399 13.5185 813 114.336 363.72 495.672
693 0 62.1394 13.0835 813 114.993 362.498 493.309
694 0 65.1265 14.4642 942 112.314 361.804 491.493
695 1 34.0796 9.88861 337 113.077 360.16 506.561
696 0 34.0626 9.8642 336 116.378 359.33 504.164
697 0 35.0861 9.54793 335 116.4 358.337 502.663
698 0 37.045 11.2026 415 112.282 358.542 500.822
699 0 39.1363 10.9362 428 115.507 359.322 498.626
700 0 40.0384 12.7128 509 112.894 359.397 496.918
701 0 42.1453 13.2399 558 111.561 359.581 495.287
702 0 44.194 13.0561 577 111.497 360.494 493.218
703 0 44.1074 13.1044 578 111.567 361.336 493.022
704 0 46.1554 12.6746 585 112.644 361.942 491.66
705 0 47.0873 12.5724 592 114.118 362.638 491.049
706 0 50.2586 13.3112 669 111.492 363.048 488.567
707 0 52.2858 13.388 700 109.611 364.287 489.639
708 0 53.2448 13.391 713 111.872 365.665 488.387
709 0 53.2724 12.6895 676 115.08 367.62 487.814
710 0 55.0907 12.3433 680 115.143 370.896 488.878
711 0 59.3275 13.7879 818 111.335 371.401 488.637
712 1 31.0711 10.2346 318 113.17 373.786 502.189
713 0 32.0602 10.6674 342 110.789 375.377 504.181
714 0 34.0752 11.2985 385 106.787 375.548 504.979
715 0 36.0316 12.5445 452 105.363 374.192 504.338
716 0 36.134 11.1253 402 109.172 373.012 505.376
717 0 38.0501 11.0381 420 108.929 372.602 504.633
718 0 41.1505 13.2441 545 104.782 370.677 504.042
719 0 38.143 11.3258 432 112.039 369.396 503.731
720 0 42.1776 12.2577 517 108.207 368.35 502.677
721 0 43.1821 11.9494 516 110.475 367.39 501.221
722 0 45.2818 12.4774 565 108.044 365.798 501.32
723 0 45.3236 13.2161 599 107.639 363.788 497.561
724 0 46.2052 12.293 568 109.093 361.894 497.43
725 0 48.1629 12.52 603 109.547 360.977 494.851
726 0 50.1722 12.3973 622 109.002 360.603 494.854
727 0 52.155 13.6324 711 106.585 360.352 493.118
728 0 54.43 12.0522 656 109.142 359.433 489.777
729 0 55.0924 12.4881 688 108.17 359.285 487.872
730 0 57.1347 11.9717 684 107.749 358.88 488.45
731 0 58.2985 12.1444 708 108.099 359.746 486.277
732 0 61.2285 11.5959 710 107.961 360.28 485.334
733 0 63.1538 12.8733 813 106.705 360.849 481.394
734 0 67.238 12.8053 861 104.81 361.696 481.362
735 0 68.1739 12.7468 869 106.051 363.428 481.251
736 0 73.0935 13.7495 1005 103.483 365.321 480.408
737 1 38.0385 10.3842 395 104.739 367.195 497.299
738 0 41.1242 10.9911 452 102.96 368.77 499.381
739 0 41.1364 12.2276 503 102.115 370.34 499.189
740 0 42.0938 12.4246 523 103.365 371.316 499.325
741 0 46.0907 12.649 583 101.557 371.628 501.485
742 0 46.1413 12.7651 589 103.63 372.049 500.261
743 0 48.0606 12.8796 619 104.023 371.743 500.113
744 0 50.0404 12.9296 647 103.533 370.594 502.692
745 0 53.0514 12.2523 650 103.494 369.342 503.117
746 0 57.0242 14.1168 805 100.637 366.877 501.646
747 0 57.0613 13.9149 794 102.7 364.378 501.443
748 0 60.0372 12.7254 764 104.836 362.274 498.534
749 0 63.0527 11.8314 746 106.891 361.06 497.591
750 0 66.0428 13.4004 885 104.436 359.983 496.008
751 0 69.0534 12.6858 876 105.887 358.142 494.065
752 1 34.0731 9.09808 310 107.287 357.506 509.932
753 0 38.1131 10.2852 392 107.023 355.768 507.309
754 0 39.1428 11.6241 455 105.044 355.178 505.358
755 0 41.1418 11.9829 493 105.633 355.12 502.341
756 0 41.1067 13.0392 536 104.058 355.879 501.716
757 0 44.0137 13.6321 600 103.153 355.732 499.91
758 0 44.0394 11.853 522 106.979 356.174 497.657
759 0 47.0579 12.6865 597 105.66 355.734 495.605
760 0 48.0316 12.8249 616 105.167 356.458 495.692
761 0 51.0804 13.4102 685 104.581 357.29 491.999
762 0 53.1712 14.4627 769 101.654 358.696 491.407
763 0 56.3354 13.7569 775 102.836 360.703 491.345
764 0 55.2322 14.5024 801 103.623 362.342 488.905
765 0 59.1133 13.4826 797 104.124 364.404 489.389
766 0 60.1753 14.2583 858 104.11 366.221 487.253
767 0 64.2897 14.8546 955 101.746 368.135 489.073
768 0 66.2511 14.1582 938 103.439 369.11 489.038
769 0 72.3224 15.2926 1106 100.223 369.477 488.445
770 0 72.2554 13.5215 977 105.142 369.423 488.219
771 0 76.2746 14.0283 1070 104.959 368.168 487.063
772 1 40.211 12.0614 485 102.458 367.928 505.282
773 0 44.1299 11.6248 513 105.045 366.48 504.706
774 0 45.1472 14.1537 639 99.1549 364.642 502.995
775 0 49.0608 13.4935 662 98.4502 363.864 503.118
776 0 48.2566 13.7598 664 93.387 363.104 500.886
777 0 50.2183 14.2179 714 90.7871 361.933 503.458
778 0 50.0507 14.2655 714 93.3249 360.913 499.944
779 0 54.2355 14.0683 763 94.2896 359.077 498.383
780 0 56.252 14.0439 790 94.3418 357.805 497.091
781 0 58.2939 16.6055 968 90.7996 356.807 493.685
782 0 59.2259 14.6051 865 94.452 356.43 494.658
783 0 59.1543 14.3185 847 97.5455 356.375 490.856
784 0 62.1627 13.5129 840 98.4917 356.593 489.762
785 0 64.2649 13.8645 891 98.6364 356.982 488.524
786 0 66.3767 14.1164 937 97.1793 357.439 485.621
787 0 68.139 12.4598 849 99.1991 357.62 487.14
788 1 37.1216 11.0178 409 94.9364 358.147 502.396
789 0 38.2534 11.2408 430 95.1651 359.16 502.063
790 0 39.2643 12.0211 472 94.053 359.847 501.648
791 0 38.0962 13.0197 496 94.1431 361.905 501.02
792 0 41.133 11.402 469 96.7356 363.42 500.166
793 0 42.1757 12.5665 530 94.4509 365.53 501.551
794 0 45.2831 13.0071 589 93.6927 367.053 501.251
795 0 46.2096 11.5128 532 96.391 367.541 503.586
796 0 49.205 13.3726 658 93.5775 367.824 502.043
797 0 49.0856 12.8958 633 96.1106 367.622 502.412
798 0 53.1265 13.6279 724 92.5981 366.952 503.26
799 0 55.0875 13.2335 729 95.3951 365.706 503.04
800 0 59.1004 13.2825 785 96.1656 364.028 501.91
801 0 61.1161 13.4007 819 97.4493 363.114 501.103
802 0 63.1478 14.4898 915 95.0732 361.2 498.224
803 0 67.1923 13.8409 930 96.8376 359.24 498.645
804 1 36.0766 11.725 423 97.4563 358.021 512.868
805 0 37.1308 11.069 411 99.8929 356.674 511.078
806 0 37.0558 11.0374 409 101.267 355.885 508.912
807 0 41.134 12.0825 497 98.664 354.674 508.62
808 0 42.0101 14.0681 591 98.357 353.89 505.477
809 0 42.1443 13.0504 550 102.878 353.149 502.505
810 0 43.2184 12.9112 558 102.688 353.014 502.204
811 0 44.1751 12.9711 573 102.75 352.976 499.955
812 0 47.1204 14.4523 681 99.8899 353.863 497.226
813 0 46.1571 12.9774 599 105.085 353.983 496.01
814 0 49.1566 14.1995 698 100.819 354.917 494.09
815 0 51.2106 14.0596 720 99.6042 356.104 494.018
816 0 52.1374 14.481 755 99.9722 356.909 493.008
817 0 53.0564 13.2501 703 102.376 358.767 493.134
818 0 54.0836 14.9214 807 99.6617 360.766 491.159
819 0 58.1639 15.4047 896 97.9007 362.427 489.136
820 0 61.211 15.9122 974 96.3306 364.338 489.142
821 0 62.2458 14.8926 927 99.2028 365.63 489.549
822 1 34.1448 11.6855 399 100.16 367.088 505.333
823 0 35.1414 12.4924 439 100.841 368.323 505.784
824 0 35.0947 11.7966 414 103.295 369.179 506.258
825 0 39.0809 12.8707 503 99.9563 369.245 506.726
826 0 41.0274 13.1863 541 100.689 368.372 506.218
827 0 42.1212 14.2209 599 99.0217 367.339 506.204
828 0 42.1364 13.2427 558 103.599 366.056 505.432
829 0 43.0923 12.4848 538 105.621 363.781 505.797
830 0 45.1349 13.6701 617 104.742 362.807 503.734
831 0 48.1477 13.7078 660 104.514 361.47 501.089
832 0 51.2468 13.6984 702 103.801 360.298 500.318
833 0 53.0454 14.365 762 102.445 358.995 499.18
834 0 53.1253 12.6117 670 108.506 357.879 496.413
835 0 58.152 14.892 866 101.736 357.769 495.383
836 0 58.0857 15.6665 910 100.632 357.142 494.679
837 0 59.1396 13.9839 827 103.674 357.365 491.178
838 0 62.0662 14.3395 890 101.089 356.92 488.478
839 0 66.1762 15.0356 995 99.0523 357.055 486.387
840 1 34.1306 11.1044 379 103.57 358.346 501.514
841 0 35.0789 10.7757 378 103.212 359.185 502.148
842 0 35.059 12.265 430 103.1 360.414 500.57
843 0 39.2083 12.7524 500 101.75 361.39 501.53
844 0 41.1007 14.0143 576 100.175 361.783 499.542
845 0 43.1859 13.4303 580 102.467 363.091 498.812
846 0 43.2437 13.3892 579 102.722 364.708 500.484
847 0 45.2074 13.427 607 102.733 366.898 501.018
848 0 46.1968 14.2001 656 102.773 368.183 500.951
849 0 48.1827 14.113 680 104.865 369.443 500.393
850 0 51.14 15.1154 773 103.268 369.837 502.04
851 0 52.1825 13.7786 719 108.014 370.049 502.267
852 0 55.1187 14.8407 818 105.855 369.769 502.163
853 0 57.1941 15.2813 874 105.815 368.863 502.76
854 0 59.0428 14.21 839 109.279 366.204 503.07
855 0 62.1422 14.1611 880 109.305 363.758 501.847
856 0 66.1125 14.6417 968 109.603 362.184 498.314
857 0 68.2031 14.9553 1020 107.901 360.079 498.127
858 1 35.1903 11.8214 416 111.144 358.442 512.538
859 0 37.0434 10.7442 398 110.917 357.374 511.93
860 0 39.0949 13.4545 526 108.798 355.749 509.443
861 0 41.1128 12.7941 526 109.433 355.283 508.376
862 0 42.1064 13.9409 587 107.613 355.087 505.879
863 0 42.1339 13.7894 581 109.948 354.509 503.599
864 0 45.0089 15.0415 677 105.771 354.174 503.753
865 0 43.2017 13.3097 575 113.607 354.313 500.565
866 0 43.0822 12.5342 540 118.304 354.833 498.767
867 0 47.1295 13.4947 636 113.338 354.132 498.366
868 0 47.0462 13.4336 632 109.693 355.112 498.932
869 0 50.0676 15.0996 756 105.581 356.3 494.938
870 0 51.1288 13.3975 685 108.282 358.147 495.695
871 0 52.0464 14.122 735 108.573 358.478 494.691
872 0 53.1373 14.152 752 107.438 360.168 494.176
873 0 56.1343 13.6102 764 106.992 362.616 492.449
874 0 61.0923 14.6991 898 104.214 363.648 492.067
875 0 61.1244 13.9388 852 105.495 364.491 492.249
876 0 67.1272 15.5675 1045 100.079 365.233 491.575
877 0 67.1472 14.3565 964 104.393 365.989 490.142
878 0 71.1656 15.0073 1068 104.763 365.676 488.45
879 1 39.2243 11.2685 442 107.627 365.577 507.321
880 0 40.171 12.1481 488 108.543 366.369 505.66
881 0 42.0765 12.2634 516 108.202 364.731 506.806
882 0 43.041 12.4765 537 110.71 362.572 504.196
883 0 46.1163 13.2057 609 108.655 361.209 503.796
884 0 48.0828 13.5807 653 108.663 360.083 502.681
885 0 52.1103 14.1814 739 105.31 358.256 500.158
886 0 52.0553 14.5614 758 102.125 357.037 499.202
887 0 55.1219 14.3863 793 101.504 355.516 498.701
888 0 57.0718 14.9461 853 101.46 355.245 494.457
889 0 59.0907 15.1124 893 100.998 354.605 490.711
890 0 61.1137 14.5794 891 102.35 354.318 489.071
891 0 62.101 13.5747 843 105.437 354.317 488.966
892 0 65.1239 14.7258 959 103.478 354.6 484.621
893 0 68.19 16.3074 1112 98.6682 355.168 484.236
894 0 69.2423 13.9943 969 103.376 355.954 483.721
895 0 72.1279 14.1554 1021 103.2 356.332 480.425
896 0 75.1933 13.8576 1042 102.955 357.977 480.393
897 0 80.1171 15.5897 1249 100.094 359.4 475.544
898 0 82.123 14.3809 1181 102.966 361.138 476.005
899 1 45.1929 13.4313 607 101.287 362.466 495.147
900 0 46.0999 12.9285 596 102.25 364.153 496.906
901 0 48.1478 14.497 698 100.506 365.791 496.444
902 0 49.0835 13.9966 687 104.269 368.007 495.301
903 0 51.102 13.9133 711 104.031 369.416 495.924
904 0 54.1543 14.2002 769 102.58 370.196 496.992
905 0 55.0959 14.8468 818 103.757 370.669 495.765
906 0 59.1891 15.1886 899 104.273 370.315 497.071
907 0 62.1898 15.3884 957 104.116 369.149 497.406
908 0 65.1657 15.1153 985 106.351 367.885 496.548
909 0 67.0532 15.4355 1035 107.702 365.977 497.276
910 0 72.1197 14.6284 1055 108.462 363.606 495.142
911 0 74.0883 14.6987 1089 106.922 361.723 496.327
912 1 39.0351 12.3735 483 109.582 360.306 510.054
913 0 42.0578 13.5528 570 108.5 359.654 509.981
914 0 42.0133 12.7579 536 113.868 358.035 507.733
915 0 44.0337 13.0128 573 113.281 357.258 506.209
916 0 46.0471 14.2897 658 111.398 355.581 503.726
917 0 48.032 14.6986 706 110.898 355.038 501.751
918 0 50.1025 14.3905 721 111.566 354.967 500.483
919 0 49.1119 13.6219 669 114.498 355.117 498.596
920 0 53.0501 13.0631 693 115.177 355.319 497.85
921 0 56.0436 14.7564 827 111.826 355.89 495.682
922 0 58.1233 15.1918 883 110.149 356.315 494.592
923 0 59.101 16.4295 971 107.487 356.903 492.889
924 0 61.0552 13.5287 826 113.349 357.588 492.852
925 0 63.1626 14.1698 895 111.105 358.72 491.361
926 0 67.2283 14.5177 976 109.909 360.175 490.258
927 0 68.2053 13.0782 892 111.339 362.355 491.484
928 1 34.1465 10.6014 362 108.762 363.71 508.884
929 0 35.1178 10.2797 361 111.105 365.18 509.49
930 0 36.0582 12.2857 443 109.673 366.894 509.025
931 0 39.0512 12.7269 497 109.332 366.954 511.091
932 0 41.1243 14.6386 602 107.65 367.178 509.691
933 0 43.1055 13.7569 593 107.929 366.536 510.604
934 0 45.2349 13.8168 625 108.982 365.387 509.218
935 0 44.0403 12.7383 561 114.476 363.809 508.704
936 0 46.0874 13.1272 605 116.038 361.937 507.461
937 0 48.0963 12.4542 599 115.1 360.174 507.97
938 0 51.128 12.8697 658 115.559 358.71 505.123
939 0 54.1593 13.3495 723 115.372 357.259 503.349
940 0 56.1068 13.4387 754 115.373 355.924 503.053
941 0 57.1542 13.4898 771 116.175 354.964 500.195
942 0 60.1831 13.9574 840 115.036 354.337 495.568
943 1 29.0212 10.4062 302 120.474 353.95 508.414
944 0 32.0476 10.9213 350 120.529 353.769 506.877
945 0 35.0269 13.561 475 114.314 353.505 503.297
946 0 37.0314 12.881 477 113.226 353.105 502.853
947 0 38.0233 13.4128 510 113.178 353.431 500.361
948 0 39.0752 13.4868 527 112.674 354.311 499.546
949 0 40.0506 13.5828 544 112.375 354.704 499.237
950 0 43.0702 13.5825 585 112.256 355.843 497.024
951 0 43.0431 14.2183 612 111.616 358.062 495.538
952 0 46.0503 15.7436 725 106.908 358.903 495.833
953 0 46.0304 13.7083 631 112.552 361.338 495.306
954 0 46.0796 13.4333 619 113.446 363.397 495.229
955 0 48.0344 14.5104 697 111.126 365.334 496.185
956 0 50.015 14.3557 718 111.649 367.627 496.21
957 0 52.0264 15.6459 814 108.563 369.002 495.902
958 0 55.0657 15.309 843 110.679 369.604 495.141
959 0 58.173 15.1101 879 110.013 370.006 496.772
960 0 61.1098 14.3021 874 113.185 369.562 497.325
961 0 65.1388 14.5382 947 113.403 368.734 496.492
962 0 69.127 15.5945 1078 112.947 368.109 496.607
963 1 38.0905 13.4154 511 119.722 366.663 510.609
964 0 39.0315 14.1168 551 119.771 364.985 511.216
965 0 42.0437 14.8179 623 121.727 363.441 509.454
966 0 44.1234 15.23 672 121.365 361.815 509.057
967 0 48.0777 13.5198 650 124.502 360.325 508.097
968 0 47.0347 16.0307 754 122.942 358.357 504.671
969 0 49.0444 15.3942 755 125.248 357.219 503.536
970 0 50.1234 15.4219 773 126.409 356.978 502.349
971 0 52.118 15.7719 822 127.016 356.635 499.464
972 0 54.1356 15.4427 836 128.734 356.232 497.906
973 0 55.3787 16.2517 900 127.158 356.572 495.558
974 0 58.1627 15.8521 922 126.926 356.674 493.598
975 0 59.2759 16.5666 982 127.222 356.741 491.205
976 0 62.3011 16.5005 1028 126.003 357.281 490.244
977 0 62.2385 15.6495 974 130.295 357.459 488.843
978 0 67.1447 16.7996 1128 124.604 358.308 488.011
979 0 70.412 17.2556 1215 122.014 359.536 487.751
980 0 72.1153 18.0822 1304 121.528 361.594 484.239
981 0 75.4996 15.4703 1168 128.455 363.201 485.388
982 0 77.2297 15.7711 1218 128.663 365.573 483.406
983 1 41.211 14.4864 597 129.474 367.43 502.92
984 0 45.2424 14.2566 645 126.967 369.124 503.516
985 0 44.2892 15.6472 693 128.831 369.812 501.824
986 0 47.3617 15.2233 721 128.135 370.008 503.693
987 0 49.2853 15.9683 787 127.03 370.128 503.208
988 0 51.2397 15.691 804 128.483 370.432 502.325
989 0 54.2562 15.4637 839 128.834 369.22 502.26
990 0 57.2215 15.8682 908 128.963 367.467 501.23
991 0 59.1811 16.1538 956 127.857 366.047 501.027
992 0 63.1336 15.8553 1001 129.683 364.367 498.721
993 0 66.1904 16.7094 1106 126.85 363.061 496.983
994 0 70.0624 17.7413 1243 123.126 361.535 494.467
995 0 72.211 16.4241 1186 127.434 360.24 493.306
996 0 76.1928 17.1014 1303 126.313 359.08 491.247
997 0 77.1798 16.7272 1291 129.594 358.373 487.629
998 0 82.1612 16.9423 1392 127.585 358.315 485.734
999 1 42.0635 13.337 561 131.893 357.679 504
1000 0 40.057 12.9316 518 137.805 357.581 500.743
1001 0 43.0532 13.5414 583 135.009 358.041 499.827
1002 0 46.0991 14.1651 653 133.926 357.061 497.583
1003 0 48.2219 15.2628 736 130.261 358.641 496.096
1004 0 48.0225 15.2429 732 132.769 358.925 494.148
1005 0 51.0757 15.1148 772 131.518 359.942 494.964
1006 0 54.0628 15.1675 820 130.487 362.391 493.022
1007 0 56.0304 15.6344 876 129.063 362.348 491.979
1008 0 56.0606 15.5367 871 129.913 364.163 490.676
1009 0 60.0944 15.925 957 128.403 365.868 490.096
1010 0 64.1767 15.7066 1008 128.235 367.594 490.231
1011 0 65.1005 16.2211 1056 128.211 370.119 488.907
1012 0 69.1601 15.399 1065 129.371 370.502 488.982
1013 0 74.1221 16.3379 1211 125.08 370.691 487.87
1014 1 39.0168 11.1234 434 128.406 372.627 507.334
1015 0 41.1141 13.2315 544 126.537 371.862 506.972
1016 0 45.1295 13.8933 627 122.301 371.545 507.207
1017 0 46.1424 13.3283 615 125.252 368.758 507.146
1018 0 47.0394 13.2017 621 127.784 368.375 506.034
1019 0 49.1134 14.1306 694 125.001 365.481 505.682
1020 0 52.083 13.9201 725 124.8 364.41 505.286
1021 0 53.1003 14.9905 796 124.398 362.244 502.564
1022 0 56.1172 13.9529 783 125.641 360.346 501.167
1023 0 59.0684 13.7976 815 125.599 359.871 499.177
1024 0 59.1004 13.0118 769 129.367 358.342 496.273
1025 0 64.2768 13.5352 870 127.748 357.655 492.367
1026 0 68.1227 14.5326 990 122.927 356.979 491.535
1027 0 69.0627 14.4217 996 122.816 357.483 488.452
1028 0 71.1743 14.2327 1013 124.235 357.986 485.558
1029 1 37.015 10.5633 391 124.616 358.169 501.778
1030 0 39.0733 12.259 479 122.056 357.779 499.522
1031 0 40.0606 11.9818 480 123.171 359.321 498.683
1032 0 41.0888 12.3635 508 123.285 359.892 497.563
1033 0 45.0837 13.6857 617 117.4 361.305 496.019
1034 0 46.063 13.373 616 117.289 362.656 497.211
1035 0 48.0957 12.1425 584 119.704 363.476 496.822
1036 0 50.0688 14.0407 703 114.969 365.384 495.784
1037 0 52.0595 14.0608 732 114.373 366.984 494.77
1038 0 54.1842 13.6387 739 116.13 368.261 493.798
1039 0 56.2507 13.7243 772 113.516 370.244 496.188
1040 0 57.1629 13.7327 785 113.411 371 496.302
1041 0 62.1809 14.0718 875 112.254 371.623 495.506
1042 0 64.2246 14.932 959 111.433 371.372 494.394
1043 0 66.2362 12.5611 832 117.845 370.334 494.31
1044 0 70.2182 14.1559 994 115.015 369.53 493.068
1045 0 73.2765 13.2921 974 116.333 368.041 493.979
1046 1 39.1028 10.0504 393 115.369 365.941 511.316
1047 0 41.0394 10.7945 443 114.907 363.892 510.104
1048 0 43.0801 12.7205 548 112.898 362.69 506.274
1049 0 48.0526 12.6736 609 112.992 360.465 505.012
1050 0 48.0318 13.4078 644 112.161 359.842 502.873
1051 0 48.0194 12.3492 593 114.943 358.496 502.744
1052 0 52.032 13.4148 698 112.355 357.305 498.768
1053 0 53.0778 13.1128 696 113.737 357.888 495.547
1054 0 56.0324 14.0276 786 110.637 357.28 493.545
1055 0 58.0495 13.6091 790 110.747 357.153 491.046
1056 0 59.0624 13.3926 791 111.789 357.456 489.43
1057 0 60.014 12.5804 755 112.434 358.327 487.515
1058 0 64.0385 13.8198 885 108.588 359.479 485.953
1059 0 68.0891 14.8629 1012 104.989 359.744 484.347
1060 1 34.1121 10.0551 343 109.446 360.708 500.598
1061 0 35.0487 11.5553 405 107.691 360.983 497.793
1062 0 39.2078 12.217 479 102.762 362.929 499.466
1063 0 37.2226 10.6656 397 107.403 364.511 497.869
1064 0 42.3249 12.1205 513 102.462 365.817 496.864
1065 0 43.3545 11.7866 511 101.202 367.871 498.419
1066 0 43.178 12.0432 520 102.71 370.713 497.802
1067 0 46.141 12.05 556 101.59 370.964 498.063
1068 0 50.1383 12.3857 621 99.9002 372.15 497.853
1069 0 52.1156 12.549 654 99.737 372.055 497.09
1070 0 52.0916 13.2075 688 99.3648 370.834 496.458
1071 0 55.0722 13.1101 722 99.9501 371.014 497.968
1072 0 56.2644 11.9258 671 102.243 369.694 497.459
1073 0 61.384 12.5277 769 101.447 368.454 494.971
1074 0 63.1825 12.7409 805 101.26 366.268 495.012
1075 0 68.2929 13.2517 905 99.2497 365.213 492.715
1076 1 33.2835 9.8247 327 100.358 363.404 508.661
1077 0 37.1588 10.3071 383 99.3133 362.178 506.958
1078 0 39.188 13.0142 510 96.2569 360.926 503.224
1079 0 40.2467 12.7961 515 98.1029 359.784 501.884
1080 0 44.2754 11.1123 492 100.742 359.404 499.917
1081 0 41.2069 12.8134 528 99.2841 359.528 498.92
1082 0 43.0922 12.4616 537 102.279 359.328 495.708
1083 0 46.1783 12.6033 582 102.232 359.431 494.684
1084 0 45.1986 13.4296 607 104.346 359.557 491.84
1085 0 47.161 13.0192 614 105.161 359.759 491.458
1086 0 49.173 13.1169 645 105.836 360.367 489.62
1087 0 52.031 14.6451 762 102.24 361.538 488.795
1088 0 52.038 13.8553 721 106.437 363 487.182
1089 0 53.0772 13.4898 716 107.853 363.81 488.274
1090 0 56.1376 14.3576 806 105.9 366.355 487.798
1091 0 56.1363 13.8235 776 106.756 368.376 488.298
1092 0 60.1537 14.6624 882 104.773 370.57 488.666
1093 0 61.2194 13.9498 854 106.26 372.379 487.982
1094 0 65.1982 14.9237 973 103.123 373.236 486.8
1095 0 66.1817 14.5357 962 103.66 373.792 489.786
1096 0 68.3436 13.9442 953 104.58 373.454 489.179
1097 0 71.2298 13.3792 953 106.449 373.005 488.348
1098 0 75.3735 14.3419 1081 104.386 372.217 486.759
1099 0 78.4366 14.1515 1110 104.991 370.005 485.588
1100 0 81.3214 13.8955 1130 105.71 368.374 487.204
1101 0 86.3177 14.0991 1217 106.302 366.449 483.869
1102 1 44.1117 10.3827 458 108.651 365.686 503.253
1103 0 48.1489 10.696 515 106.862 363.88 502.583
1104 0 50.0753 13.6594 684 101.823 361.918 498.706
1105 0 54.0525 13.0059 703 101.414 361.292 497.872
1106 0 54.0966 13.975 756 100.403 360.618 495.84
1107 0 53.1005 12.3351 655 104.148 360.253 493.295
1108 0 56.0672 14.3399 804 99.7973 359.2 489.728
1109 0 59.1343 13.5454 801 99.5181 359.516 487.884
1110 0 63.1453 13.3818 845 98.1337 359.356 485.862
1111 0 66.1867 14.9577 990 92.8576 359.292 485.703
1112 0 68.1881 13.7414 937 95.4984 359.76 481.818
1113 0 70.1341 14.344 1006 94.6789 361.18 478.39
1114 0 74.1867 13.7491 1020 94.2333 362.787 479.613
1115 0 77.2114 14.1171 1090 94.0294 363.018 478.113
1116 0 81.195 13.7693 1118 94.4687 363.552 476.429
1117 0 84.1369 15.2608 1284 90.2079 365.188 476.117
1118 0 88.2749 14.4548 1276 93.5792 367.348 472.643
1119 0 91.3182 14.7506 1347 93.9651 370.431 471.252
1120 1 49.0189 9.85334 483 97.6625 371.414 496.42
1121 0 52.0936 10.8651 566 98.5265 372.777 494.79
1122 0 57.146 13.7367 785 92.3898 373.549 494.474
1123 0 57.2556 11.7019 670 98.1358 371.839 495.142
1124 0 59.2124 13.8653 821 94.9976 371.553 496.704
1125 0 63.1609 12.5869 795 98.9182 370.302 494.194
1126 0 67.2452 14.2612 959 95.5798 368.925 495.18
1127 0 69.2588 14.6841 1017 96.5536 367.376 494.242
1128 0 72.1798 13.8404 999 99.3063 365.422 492.572
1129 0 76.1178 14.714 1120 96.6741 364.217 491.338
1130 0 79.3026 13.2656 1052 100.698 362.69 489.414
1131 0 81.2846 13.0283 1059 101.166 361.321 485.365
1132 0 84.0648 13.561 1140 102.102 360.108 482.369
1133 1 42.0769 10.5996 446 101.655 359.702 503.924
1134 0 45.0758 10.316 465 101.71 359.32 501.944
1135 0 47.0828 9.87622 465 104.381 359.185 498.884
1136 0 48.0714 11.691 562 102.874 359.982 494.998
1137 0 51.1001 10.6262 543 103.285 359.645 496.099
1138 0 54.1159 11.346 614 101.529 359.435 491.862
1139 0 57.0996 14.6586 837 95.7372 359.037 489.852
1140 0 59.0362 14.1269 834 95.9952 361.361 489.254
1141 0 60.0357 13.5086 811 98.9088 362.09 488.857
1142 0 60.0978 13.3782 804 99.8259 362.893 486.106
1143 0 64.1312 14.5795 935 96.3615 363.791 486.675
1144 0 67.2316 13.2973 894 98.6924 366.246 485.93
1145 0 69.1259 13.5839 939 99.115 367.231 486.192
1146 0 70.0672 13.1588 922 101.229 368.875 488.047
1147 0 73.1646 12.6427 925 103.81 371.304 486.467
1148 0 75.2036 13.6696 1028 104.096 372.374 486.721
1149 0 78.1391 13.9111 1087 105.768 372.78 486.003
1150 0 82.134 13.4658 1106 106.634 372.455 487.093
1151 0 83.129 12.9197 1074 108.62 370.814 489.262
1152 0 85.3308 12.973 1107 110.108 369.857 488.771
1153 0 87.3068 13.8592 1210 110.979 368.617 486.23
1154 0 90.3485 12.9277 1168 113.237 367.143 487.021
1155 0 94.3441 11.5535 1090 114.924 366.219 488.294
1156 1 51.1979 11.7388 601 111.388 364.973 503.752
1157 0 54.1752 12.0904 655 111.476 363.594 503.757
1158 0 55.1508 11.804 651 112.836 362.495 503.238
1159 0 53.198 12.0869 643 114.748 361.247 502.471
1160 0 59.2765 13.0237 772 112.764 359.756 499.953
1161 0 59.388 12.2584 728 116.38 359.141 498.86
1162 0 61.3031 12.691 778 118.848 358.27 494.224
1163 0 59.3476 11.6433 691 121.45 358.1 494.991
1164 0 65.3081 12.709 830 119.922 358.054 488.851
1165 0 70.1713 10.6169 745 121.758 358.426 490.199
1166 0 70.0798 13.242 928 119.783 359.192 484.645
1167 0 79.0814 12.936 1023 116.633 359.296 476.861
1168 1 43.034 10.7822 464 114.002 360.534 496.259
1169 0 44.0275 11.6745 514 111.44 361.321 496.222
1170 0 46.0639 12.2439 564 110.064 361.626 495.445
1171 0 46.0519 11.6608 537 113.136 362.313 493.827
1172 0 48.1195 12.8015 616 109.907 365.234 493.367
1173 0 50.1783 12.914 648 109.872 366.457 492.333
1174 0 53.0607 12.9286 686 111.439 368.106 491.94
1175 0 54.2343 13.8842 753 106.821 369.811 493.96
1176 0 56.1431 13.0559 733 110.573 371.067 492.673
1177 0 59.2075 13.2753 786 109.05 372.078 491.795
1178 0 61.1337 13.2333 809 109.909 372.412 491.601
1179 0 64.1328 13.3785 858 109.014 372.818 492.745
1180 0 67.0622 13.4204 900 110.549 371.929 492.394
1181 0 70.1047 13.7223 962 109.678 371.001 491.708
1182 0 75.0674 15.213 1142 106.968 369.111 489.44
1183 1 40.0267 9.41871 377 113.393 367.515 507.09
1184 0 43.0511 10.9869 473 110.856 366.476 505.915
1185 0 44.1009 12.4941 551 108.214 364.494 505.392
1186 0 45.0863 12.6646 571 111.744 363.312 501.168
1187 0 48.0209 12.7444 612 111.072 362.015 500.059
1188 0 49.0357 12.7866 627 110.919 360.908 499.579
1189 0 53.0389 13.311 706 108.874 359.489 496.2
1190 0 53.0339 12.8031 679 111.669 358.925 493.904
1191 0 55.0343 14.0458 773 108.27 358.464 492.752
1192 0 58.1013 14.1821 824 107.869 358.345 490.103
1193 0 59.0402 14.2107 839 109.054 359.042 487.843
1194 0 60.0371 14.008 841 109.939 359.585 486.617
1195 0 62.0475 12.8289 796 112.722 359.764 486.461
1196 0 63.1206 13.4821 851 112.038 361.465 484.15
1197 0 67.1952 14.257 958 109.568 361.374 481.922
1198 0 68.1691 14.3907 981 110.025 362.651 481.364
1199 0 73.3486 14.9015 1093 109.037 363.313 479.503
1200 0 75.1216 14.9225 1121 108.143 365.607 480.247
1201 0 78.2034 14.9482 1169 107.861 368.328 478.909
1202 0 79.1906 14.4209 1142 112.447 370.052 476.568
1203 0 85.1545 14.7262 1254 109.533 371.018 478.595
1204 0 87.3407 15.3537 1341 108.911 372.756 476.911
1205 1 47.1625 10.7713 508 110.569 373.626 498.311
1206 0 49.1195 12.3372 606 108.675 374.125 496.352
1207 0 51.1175 12.6962 649 107.256 373.587 498.373
1208 0 54.1651 12.7942 693 108.094 371.885 498.778
1209 0 57.2323 13.6811 783 106.354 371.284 497.737
1210 0 58.1341 12.0239 699 111.442 369.843 497.393
1211 0 62.1607 12.6286 785 107.8 368.549 497.16
1212 0 66.1148 12.8715 851 107.246 366.517 494.704
1213 0 69.1581 13.4908 933 107.006 365.029 490.638
1214 0 72.1957 13.2695 958 106.394 364.001 489.547
1215 1 39.039 10.3743 405 106.965 364.148 507.148
1216 0 41.0441 11.7191 481 104.091 362.925 504.628
1217 0 41.0444 13.2052 542 104.028 362.624 500.408
1218 0 44.0613 13.6628 602 102.336 361.867 498.121
1219 0 44.0869 11.9763 528 104.144 361.822 499.191
1220 0 47.0553 12.4959 588 103.738 361.779 495.662
1221 0 49.0564 13.0666 641 101.674 362.339 493.902
1222 0 49.0441 12.5601 616 105.534 361.987 492.641
1223 0 51.1382 13.3951 685 102.896 362.679 491.496
1224 0 54.0515 13.6351 737 102.613 363.016 489.862
1225 0 55.1679 13.1236 724 103.982 363.142 488.841
1226 0 58.2573 12.9426 754 103.934 365.828 489.281
1227 0 59.1589 13.1172 776 103.932 366.918 487.861
1228 0 63.2369 12.9038 816 103.18 369.238 488.577
1229 0 65.3684 12.8044 837 102.999 371.206 488.251
1230 0 69.3968 14.3523 996 99.8665 372.514 486.184
1231 0 73.3181 13.5028 990 101.128 373.959 486.215
1232 0 76.3252 14.923 1139 99.5549 373.955 485.858
1233 1 39.1041 10.0501 393 105.01 374.944 506.908
1234 0 40.2597 12.1958 491 103.483 374.253 505.454
1235 0 43.2744 13.0562 565 102.478 372.74 505.154
1236 0 45.0474 14.1851 639 101.496 372.615 505.952
1237 0 47.0148 12.9108 607 103.362 370.982 505.613
1238 0 51.0903 12.84 656 102.802 369.3 505.793
1239 0 51.0498 12.1646 621 106.974 366.952 503.216
1240 0 54.0777 12.9258 699 105.187 365.409 501.684
1241 0 54.0924 13.0702 707 106.58 364.158 499.447
1242 0 57.0649 13.4759 769 105.646 362.376 498.108
1243 0 59.0746 13.4237 793 106.526 361.381 494.822
1244 0 61.2497 12.4735 764 107.87 360.472 493.275
1245 0 63.2316 12.9682 820 107.387 360.311 490.134
1246 0 67.2298 13.2679 892 106.29 359.815 488.09
1247 0 71.21 13.9447 993 104.165 359.918 484.175
1248 0 74.3037 13.7544 1022 104.703 359.888 481.836
1249 1 36.1531 11.1194 402 106.816 361.629 500.112
1250 0 41.1708 12.3388 508 102.703 362.047 499.26
1251 0 40.1372 12.6815 509 105.081 362.796 497.874
1252 0 42.1237 13.7215 578 102.14 363.592 497.54
1253 0 44.3694 13.7933 612 102.253 363.812 497.729
1254 0 45.2064 13.7591 622 103.693 365.876 496.257
1255 0 48.3552 13.6697 661 102.074 367.787 497.791
1256 0 50.2689 13.9649 702 102.462 370.298 497.222
1257 0 51.1837 14.321 733 104.15 371.768 497.79
1258 0 52.1574 14.1495 738 107.283 372.782 497.598
1259 0 53.2083 13.4754 717 110.078 373.003 499.739
1260 0 56.1267 15.1978 853 105.668 372.921 499.086
1261 0 58.1264 14.6233 850 108.936 372.211 498.215
1262 0 62.1081 13.8307 859 110.473 371.162 498.19
1263 0 64.1113 14.4592 927 109.218 369.898 498.208
1264 0 68.1064 14.2718 972 110.516 368.597 497.568
1265 0 70.2387 13.7673 967 113.642 365.909 494.35
1266 0 76.1008 15.4269 1174 108.833 363.87 492.948
1267 1 38.1428 12.5318 478 111.521 363.146 509.023
1268 0 37.1135 11.7747 437 115.682 361.281 507.963
1269 0 41.2692 13.3998 553 111.197 360.602 506.134
1270 0 42.1315 14.6446 617 109.71 360.094 503.128
1271 0 42.3146 13.4233 568 112.861 360.005 501.077
1272 0 46.1649 13.9283 643 110.383 359.952 499.605
1273 0 46.1249 13.6802 631 111.803 360.04 497.96
1274 0 48.2252 12.7112 613 112.798 359.726 496.499
1275 0 49.2578 13.9673 688 110.686 359.474 493.93
1276 0 50.1197 13.4877 676 111.487 360.007 492.837
1277 0 52.1969 13.6215 711 109.541 360.935 491.965
1278 0 54.2445 13.5866 737 108.859 362.212 490.839
1279 0 58.1199 14.1604 823 106.243 363.73 489.891
1280 0 59.1951 14.3931 852 106.376 363.985 488.237
1281 0 60.186 14.5217 874 105.908 365.911 488.642
1282 0 62.0768 15.1586 941 104.319 368.116 486.606
1283 0 67.1538 14.7423 990 103.044 370.585 487.205
1284 0 69.1691 14.4718 1001 104.801 371.262 485.394
1285 0 70.1075 12.4523 873 108.817 372.888 486.444
1286 0 77.2855 14.1165 1091 103.222 372.863 485.059
1287 1 41.0713 11.6383 478 102.851 373.483 504.075
1288 0 42.165 11.7633 496 102.667 373.135 503.127
1289 0 45.3641 12.4548 565 101.097 371.848 503.538
1290 0 45.2458 13.504 611 101 369.56 500.956
1291 0 49.3479 13.111 647 102.352 367.655 502.116
1292 0 50.2325 14.1144 709 102.293 366.257 501.26
1293 0 53.1883 13.4992 718 105.496 364.919 498.176
1294 0 55.1809 12.5949 695 108.079 363.335 497.27
1295 0 58.2124 13.2102 769 107.599 362.592 494.475
1296 0 62.3431 14.5325 906 104.552 361.684 491.364
1297 0 65.46 14.2835 935 105.571 361.289 490.615
1298 0 66.4928 13.2345 880 109.266 361.034 487.109
1299 0 71.271 15.5463 1108 104.605 359.858 483.676
1300 1 37.1598 11.3295 421 107.508 359.641 500.489
1301 0 36.1217 10.3816 375 111.419 359.069 498.133
1302 0 38.1794 11.996 458 108.76 359.852 496.954
1303 0 39.1933 12.9614 508 107.106 360.055 496.311
1304 0 42.3311 14.3866 609 102.946 361.842 495.031
1305 0 41.1313 13.153 541 108.466 361.86 494.595
1306 0 46.043 14.291 658 101.666 363.889 495.941
1307 0 46.1194 13.1615 607 107.512 365.389 493.516
1308 0 45.0476 13.5634 611 108.113 367.511 492.391
1309 0 48.2369 13.952 673 105.04 368.906 494.467
1310 0 50.1742 14.2703 716 104.696 371.053 492.701
1311 0 52.1432 13.0985 683 108.287 372.198 494.473
1312 0 52.2054 14.5004 757 106.938 372.227 491.856
1313 0 57.2182 14.6457 838 104.957 373.105 493.557
1314 0 57.2264 13.4204 768 109.573 372.901 493.872
1315 0 59.2245 13.1027 776 109.875 373.845 493.936
1316 0 65.1512 13.8447 902 106.814 372.538 492.151
1317 0 67.1626 12.6707 851 109.263 371.327 491.954
1318 1 37.0811 11.5423 428 104.089 370.012 507.502
1319 0 37.0752 11.1395 413 104.38 368.559 506.751
1320 0 40.0371 11.9389 478 102.454 366.851 504.617
1321 0 41.0739 12.2949 505 102.834 366.01 504.077
1322 0 41.1092 13.1358 540 103.326 363.493 500.476
1323 0 44.1344 11.8275 522 105.692 362.531 499.527
1324 0 46.1614 14.0594 649 101.251 362.059 496.9
1325 0 46.2125 12.3992 573 105.534 362.086 495.347
1326 0 49.1652 11.5936 570 106.611 362.118 494.221
1327 0 51.148 12.5518 642 105.838 361.889 491.375
1328 0 50.1025 11.6361 583 108.623 362.051 490.196
1329 0 55.1182 13.7704 759 102.267 362.848 488.312
1330 0 56.1356 13.4852 757 101.79 364.021 487.017
1331 0 60.1888 13.0589 786 101.756 364.374 486.645
1332 0 62.1579 14.2218 884 98.483 365.752 485.44
1333 0 65.1292 13.6344 888 99.8086 366.367 485.959
1334 0 66.2368 13.6782 906 101.503 367.715 482.663
1335 0 70.1433 13.5437 950 100.234 369.68 483.588
1336 0 71.1912 12.7263 906 101.751 372.788 482.479
1337 0 76.2144 13.7901 1051 98.4776 374.423 481.153
1338 0 79.2296 13.5303 1072 98.0215 375.302 481.722
1339 1 45.1558 11.4714 518 96.7239 376.797 498.141
1340 0 47.1633 11.7464 554 95.9188 377.15 499.901
1341 0 49.0586 12.0468 591 96.1506 376.357 500.284
1342 0 50.2821 12.9072 649 95.4545 373.972 497.445
1343 0 52.1643 10.6778 557 100.034 372.752 497.329
1344 0 56.146 12.4853 701 94.6519 371.203 499.758
1345 0 58.2694 13.6435 795 93.8616 369.357 499.043
1346 0 59.2981 12.7829 758 95.9156 367.434 499.165
1347 0 62.125 13.0543 811 95.8853 366.395 494.286
1348 0 64.2123 12.8791 827 96.0798 364.557 493.395
1349 0 67.1793 13.9626 938 94.6738 362.934 489.708
1350 0 69.1578 13.2451 916 95.6605 362.243 488.602
1351 0 72.2063 12.672 915 97.1257 361.738 486.436
1352 0 74.108 12.0095 890 99.6438 360.775 482.96
1353 0 78.1645 13.8938 1086 94.7551 361.204 480.878
1354 0 82.1615 13.3152 1094 94.8501 361.176 477.939
1355 1 45.1688 9.03278 408 97.2917 362.551 496.556
1356 0 47.143 10.1818 480 95.9542 362.144 493.644
1357 0 48.0744 9.33968 449 99.0334 363.51 491.334
1358 0 51.1174 11.6986 598 93.0552 364.421 492.652
1359 0 52.2014 11.8771 620 94.1548 364.971 490.244
1360 0 56.0657 13.2166 741 90.448 365.945 488.706
1361 0 58.0886 13.445 781 89.5326 368.483 488.629
1362 0 61.1205 13.1707 805 89.5143 369.873 487.958
1363 0 64.0733 14.1401 906 87.3742 371.906 488.028
1364 0 64.3571 12.5239 806 90.9057 373.144 488.233
1365 0 68.259 12.0277 821 91.3764 374.184 487.833
1366 0 73.3809 13.1914 968 87.9266 374.858 488.677
1367 0 75.3002 12.7755 962 91.3077 374.863 484.099
1368 0 79.2878 13.5834 1077 89.8635 373.571 483.573
1369 0 83.445 12.9307 1079 91.1344 371.723 484.204
1370 0 86.4458 13.0255 1126 91.8508 370.552 482.619
1371 0 92.3683 14.1715 1309 89.576 368.722 480.576
1372 0 95.3903 11.7727 1123 93.9555 367.115 479.373
1373 1 50.1246 8.97763 450 93.54 365.829 504.78
1374 0 50.218 11.012 553 91.6745 364.488 501.127
1375 0 53.2328 11.0083 586 93.0307 363.799 497.799
1376 0 56.0966 14.1007 791 87.8584 362.559 495.225
1377 0 59.113 12.197 721 90.9237 361.469 495.078
1378 0 60.245 11.5528 696 91.6466 361.08 492.868
1379 0 64.1565 12.3136 790 89.9608 361.113 489.539
1380 0 63.1916 12.5175 791 92.1694 360.515 486.101
1381 0 66.2356 13.2104 875 90.4011 361.193 484.95
1382 0 68.1747 12.6587 863 91.54 361.294 484.665
1383 0 70.4352 10.5771 745 95.1208 361.686 482.313
1384 0 75.1747 12.7436 958 91.3079 361.721 481.293
1385 1 36.063 10.3153 372 92.3145 362.298 499.72
1386 0 40.0128 11.3963 456 90.9561 363.447 497.331
1387 0 43.0104 11.6716 502 88.5976 364.126 499.072
1388 0 42.0658 10.3409 435 91.108 366.701 498.913
1389 0 44.1268 12.3055 543 90.7072 369.902 497.762
1390 0 46.2325 11.5719 535 92.4355 370.546 497.278
1391 0 48.2259 13.81 666 88.2387 371.808 496.401
1392 0 52.2979 14.4365 755 86.5656 372.648 497.898
1393 0 52.3166 13.8579 725 88.869 373.782 498.378
1394 0 56.226 13.7125 771 88.6926 373.07 500.651
1395 0 57.233 12.9471 741 92.8516 371.862 497.642
1396 0 60.2586 13.8072 832 91.113 371.269 499.381
1397 0 62.2227 14.0624 875 90.7886 369.681 500.587
1398 0 61.2371 11.5943 710 97.907 367.47 496.858
1399 0 65.149 13.4001 873 94.6586 366.438 496.198
1400 0 68.1171 14.0053 954 93.5891 364.611 495.151
1401 0 71.1523 13.4219 955 95.0869 362.821 491.061
1402 0 74.1592 14.5228 1077 92.8746 361.253 490.277
1403 0 77.1732 15.1866 1172 92.4539 360.942 486.227
1404 0 77.1627 13.2447 1022 97.544 360.121 482.881
1405 0 82.117 13.2129 1085 96.5816 359.533 481.599
1406 1 42.2203 9.9715 421 99.1995 359.245 499.418
1407 0 43.1399 10.3616 447 99.7092 359.291 497.438
1408 0 44.0505 10.5107 463 99.3197 359.004 495.657
1409 0 48.0283 11.285 542 97.5424 359.554 495.78
1410 0 49.1282 12.5183 615 96.013 360.104 493.005
1411 0 50.0713 13.5607 679 94.7776 361.458 492.224
1412 0 53.1038 14.0103 744 93.4261 362.335 491.548
1413 0 55.0431 13.5894 748 93.7701 363.824 490.853
1414 0 54.0412 13.0271 704 96.1321 365.152 488.875
1415 0 56.2473 13.4584 757 94.9287 367.239 489.964
1416 0 59.1979 13.9701 827 93.89 369.177 490.028
1417 0 62.1638 14.0435 873 93.9908 370.765 489.99
1418 0 65.2317 15.008 979 91.5587 371.693 491.011
1419 0 69.2575 13.0239 902 95.2539 372.58 490.326
1420 0 71.3384 14.242 1016 93.6043 372.47 491.245
1421 0 73.0976 14.3096 1046 94.4493 372.262 490.872
1422 0 77.3052 13.479 1042 96.263 371.145 487.747
1423 1 42.0568 9.82005 413 96.5884 370.528 508.712
1424 0 45.0378 11.3904 513 95.4366 368.996 508.413
1425 0 45.0216 12.2608 552 96.8098 367.476 505.27
1426 0 49.1023 12.8304 630 94.2794 365.732 505.416
1427 0 49.083 12.9169 634 94.8265 364.379 504.631
1428 0 49.1226 12.194 599 100.02 362.646 500.765
1429 0 53.1358 13.5878 722 96.2756 361.445 499.589
1430 0 56.1466 14.1772 796 94.4535 361.054 498.563
1431 0 57.1514 13.543 774 96.2364 360.192 497.062
1432 0 56.2342 12.1279 682 102.01 359.381 493
1433 0 61.1319 13.5608 829 97.7961 359.51 492.543
1434 0 63.1059 14.6579 925 95.2346 360.438 489.299
1435 0 63.0905 13.5995 858 98.4825 360.34 487.366
1436 0 66.1367 14.6212 967 96.5253 359.6 484.596
1437 0 70.2589 15.5425 1092 93.7134 359.575 484.557
1438 0 71.1907 14.426 1027 96.2619 360.788 484.278
1439 0 74.2859 13.7442 1021 97.2615 362.104 482.382
1440 0 78.3072 14.4687 1133 95.9956 362.871 479.93
1441 0 79.1716 12.9971 1029 99.8785 364.247 480.139
1442 0 83.107 14.6077 1214 96.9053 365.554 477.239
1443 0 86.3876 13.4626 1163 100.081 367.62 477.118
1444 1 46.0538 12.8545 592 96.8007 369.838 499.838
1445 0 47.062 12.1329 571 98.8476 371.354 499.757
1446 0 50.185 13.8089 693 95.7302 372.482 501.016
1447 0 50.1561 11.9028 597 100.757 372.853 503.382
1448 0 53.1626 13.4305 714 99.6415 372.004 501.65
1449 0 55.1081 13.7366 757 99.6275 370.528 501.83
1450 0 58.2119 13.7257 799 99.8022 368.648 500.656
1451 0 60.1563 13.8805 835 99.5329 367.188 501.635
1452 0 61.0662 12.2162 746 104.713 366.013 499.087
1453 0 67.083 14.3404 962 99.1279 364.899 498.186
1454 0 66.1746 13.6306 902 102.67 362.858 495.557
1455 0 69.1701 12.7367 881 105.065 362.359 493.838
1456 0 73.2898 14.6542 1074 101.69 361.754 491.293
1457 1 36.0058 10.2761 370 105.305 361.165 508.762
1458 0 38.0168 11.8106 449 105.2 360.59 504.352
1459 0 41.0206 11.4577 470 105.111 360.172 504.24
1460 0 42.0792 12.2388 515 103.52 360.021 502.689
1461 0 44.0606 13.4814 594 101.694 359.81 500.618
1462 0 43.0328 12.5253 539 104.822 360.681 498.889
1463 0 43.0146 12.6236 543 106.884 360.86 497.3
1464 0 47.025 13.6948 644 102.339 361.669 496.065
1465 0 48.0236 12.3481 593 106.535 362.336 495.258
1466 0 49.0345 12.8481 630 105.067 362.878 493.811
1467 0 55.0672 14.0919 776 99.9884 363.372 494.948
1468 0 56.0161 13.1569 737 101.72 365.457 494.52
1469 0 55.0573 14.0762 775 101.275 367.479 494.674
1470 0 58.0571 13.28 771 103.315 368.92 494.083
1471 0 60.2153 12.8207 772 105.126 370.298 493.236
1472 0 64.1064 13.7272 880 103.016 370.661 493.415
1473 0 68.1511 13.4554 917 102.944 371.092 492.901
1474 0 70.1795 14.3489 1007 102.428 371.98 492.538
1475 1 38.0794 11.7912 449 104.875 371.889 508.543
1476 0 40.0713 10.9056 437 106.977 371.876 509.048
1477 0 42.0864 11.4764 483 107.052 370.319 508.896
1478 0 45.1424 12.2501 553 101.966 369.248 508.673
1479 0 48.0939 12.7043 611 101.733 366.957 508.398
1480 0 51.1009 12.9352 661 100.012 364.953 505.74
1481 0 52.1603 13.842 722 99.385 363.396 503.17
1482 0 53.147 13.6979 728 99.6401 361.984 503.522
1483 0 55.0799 13.544 746 101.133 360.147 498.528
1484 0 56.276 12.723 716 103.099 360.613 495.602
1485 0 60.2792 14.1508 853 97.5862 359.788 494.771
1486 0 60.1101 13.8246 831 100 359.246 489.568
1487 0 64.1174 13.0542 837 100.462 358.642 489.011
1488 0 67.1815 13.9919 940 97.216 359.054 487.454
1489 0 69.2548 13.703 949 97.117 359.542 484.959
1490 0 71.3554 13.2576 946 98.0951 359.571 482.921
1491 1 37.079 11.9205 442 97.5158 360.934 498.989
1492 0 38.0963 11.8384 451 95.9069 362.222 499.685
1493 0 40.0833 12.474 500 95.87 363.128 497.09
1494 0 44.0368 13.5114 595 91.9277 364.195 497.896
1495 0 42.0315 12.2527 515 95.8252 365.771 497.938
1496 0 45.0987 12.9715 585 93.6667 368.889 499.484
1497 0 47.139 12.2404 577 95.0884 370.38 498.614
1498 0 46.034 12.5125 576 95.2309 371.469 500.241
1499 0 47.0863 13.7195 646 93.6037 371.885 498.873
1500 0 49.0571 13.2091 648 93.6543 372.295 500.539
1501 0 46.1615 13.1278 606 96.8036 371.805 500.183
1502 0 51.2047 14.5104 743 90.7887 371.427 503.872
1503 0 48.1815 13.5114 651 94.9739 370.667 504.488
1504 0 48.3581 13.7723 666 94.5285 369.742 504.694
1505 0 48.0776 13.9774 672 94.6027 367.183 505.085
1506 0 50.1434 13.1822 661 96.3071 365.227 503.71
1507 0 51.2444 14.304 733 93.6344 364.285 503.668
1508 0 50.0944 13.4346 673 96.1649 362.572 503.413
1509 0 52.1253 14.3692 749 93.2817 361.24 502.211
1510 0 50.1842 13.9287 699 95.3677 360.126 500.657
1511 0 50.2021 13.4855 677 95.6706 360.123 499.194
1512 0 52.1445 13.5393 706 94.7578 358.7 496.888
1513 0 52.1197 14.2556 743 92.5343 359.603 497.528
1514 0 52.1341 13.6954 714 94.0658 359.395 495.017
1515 0 53.0752 15.1106 802 90.495 359.479 493.969
1516 0 52.1094 13.5484 706 94.1813 359.844 492.622
1517 0 53.1251 14.6259 777 90.8803 360.623 492.183
1518 0 52.1331 13.7724 718 93.0501 360.44 491.064
1519 0 52.1073 14.2974 745 90.643 361.417 490.44
1520 0 52.1336 14.0025 730 90.0233 361.948 492.792
1521 0 51.1116 13.1477 672 92.4821 363.147 491.467
1522 0 54.0827 14.108 763 88.6514 364.317 492.081
