time division length width area intensity CMx CMy
0 0 40.2197 12.6803 510 128.729 289.976 497.339
1 0 43.1743 14.1751 612 120.57 289.601 497.931
2 0 44.1121 14.5312 641 119.828 290.094 497.424
3 0 44.0371 14.5332 640 119.866 290.745 497.68
4 0 44.1652 14.2646 630 122.603 289.995 495.751
5 0 44.2792 13.3697 592 125.992 289.747 495.03
6 0 47.2797 14.2133 672 121.71 289.204 495.479
7 0 47.2432 14.817 700 120.973 288.016 495.119
8 0 47.2849 15.4806 732 120.011 288.992 493.361
9 0 48.2817 14.0426 678 124.928 288.05 492.751
10 0 48.2473 14.0319 677 123.251 288.638 494.363
11 0 52.2507 16.3251 853 117.519 289.072 492.281
12 0 51.2155 15.2493 781 120.982 290.064 493.311
13 0 53.1921 15.6414 832 119.357 289.815 491.266
14 0 55.2463 16.7613 926 115.554 289.921 491.483
15 0 55.192 15.4008 850 120.228 289.7 491.361
16 0 55.2507 14.95 826 121.513 289.504 490.695
17 0 57.2466 14.3939 824 122.68 290.028 490.735
18 0 57.2718 16.5003 945 118.681 289.444 490.42
19 0 61.185 16.1478 988 117.501 290.349 490.491
20 0 60.2666 14.5188 875 124.158 289.051 487.507
21 0 63.154 15.5176 980 120.056 289.199 487.081
22 0 64.1066 15.9578 1023 119.109 288.77 487.446
23 0 66.1668 16.0201 1060 117.755 289.302 486.341
24 1 34.0538 11.0413 376 122.21 290.718 501.62
25 0 34.0652 12.1238 413 118.022 291.286 502.453
26 0 35.0272 12.5331 439 119.123 292.852 501.738
27 0 38.0881 12.4711 475 117.897 293.878 501.606
28 0 37.0297 12.4224 460 120.583 293.698 499.772
29 0 40.0601 11.9321 478 118.805 292.63 499.613
30 0 40.014 12.6456 506 117.615 291.733 498.607
31 0 41.0322 12.9654 532 118.887 291.203 496.831
32 0 41.0764 10.444 429 124.079 291.557 496.501
33 0 44.201 12.7147 562 119.48 292.201 495.233
34 0 45.0715 13.7559 620 115.413 292.558 495.287
35 0 48.0645 14.0436 675 114.098 291.604 495.68
36 0 46.1245 13.5503 625 121.008 291.634 493.795
37 0 48.1347 14.3555 691 117.051 292.12 494.384
38 0 50.1922 15.2414 765 116.705 291.91 490.847
39 0 52.1013 15.1628 790 114.942 293.376 492.809
40 0 50.0499 13.3467 668 121.746 293.431 490.976
41 0 56.0726 13.4647 755 118.066 293 491.234
42 0 58.0431 15.6091 906 114.051 292.959 489.632
43 0 61.2031 14.2803 874 115.755 292.932 489.686
44 0 60.2333 15.3736 926 115.683 292.498 488.491
45 0 63.052 14.2739 900 116.829 293.893 488.342
46 0 66.1034 14.674 970 115.809 293.897 487.54
47 0 68.3558 15.0097 1026 114.614 293.904 486.954
48 0 71.1132 15.2714 1086 115.328 293.918 485.309
49 0 73.1512 15.1057 1105 115.725 293.823 484.219
50 0 76.2636 15.6038 1190 113.873 294.282 482.874
51 0 76.1693 13.0761 996 119.576 293.762 481.321
52 0 82.1864 15.5257 1276 112.314 293.825 481.847
53 1 41.2053 13.2022 544 110.191 293.904 501.68
54 0 42.1146 12.9884 547 113.457 293.349 499.23
55 0 44.0462 13.3042 586 111.584 294.703 499.179
56 0 45.1296 13.8933 627 111.866 294.029 498.206
57 0 46.099 13.4493 620 114.626 294.626 496.96
58 0 49.2081 14.6114 719 112.235 293.44 495.737
59 0 49.0798 14.1199 693 112.76 294.328 495.936
60 0 51.0963 15.1479 774 111.562 294.641 493.54
61 0 50.0357 13.7502 688 115.609 294.778 492.237
62 0 54.0958 13.6794 740 113.362 295.105 493.049
63 0 57.3711 15.4956 889 109.745 295.119 491.199
64 0 58.0808 16.5115 959 109.459 295.311 489.802
65 0 60.2126 15.329 923 112.061 295.518 490.221
66 0 62.1646 15.3785 956 109.742 296.221 488.354
67 0 64.1522 16.2738 1044 109.011 296.086 486.07
68 0 67.1746 16.2561 1092 108.92 296.112 484.77
69 0 67.0942 14.7554 990 113.367 296.345 484.971
70 0 69.1379 14.6808 1015 114.987 295.243 483.516
71 0 73.0486 15.784 1153 111.147 296.148 484.9
72 0 74.1976 16.9008 1254 112.099 295.901 480.75
73 0 78.1211 15.3608 1200 114.478 295.238 479.062
74 0 81.1014 15.7704 1279 113.973 295.996 478.26
75 0 81.1724 14.8573 1206 115.734 295.771 478.537
76 0 86.2517 15.5359 1340 114.098 294.598 478.304
77 0 89.0903 15.5236 1383 112.689 294.712 476.517
78 1 46.1733 12.9079 596 114.317 296.081 495.874
79 0 47.0547 11.9011 560 115.657 297.123 497.616
80 0 50.0519 13.0265 652 112.722 297.041 496.664
81 0 52.0609 13.8684 722 112.381 297.499 495.044
82 0 53.0902 14.0516 746 112.276 296.413 495.346
83 0 56.041 15.1675 850 108.635 296.265 494.105
84 0 57.2655 14.4066 825 110.347 296.246 493.429
85 0 59.1356 14.2554 843 111.16 296.079 490.754
86 0 62.2218 15.5251 966 108.454 296.609 489.81
87 0 65.1335 15.1074 984 108.962 295.578 489.487
88 0 65.1704 14.1322 921 111.87 295.853 487.736
89 0 68.1709 14.8157 1010 109.786 295.401 486.137
90 0 69.2309 13.8233 957 112.625 295.112 486.017
91 0 72.2206 15.5357 1122 110.128 295.527 483.882
92 0 75.1637 15.2733 1148 111.994 295.47 481.746
93 0 75.1966 14.2959 1075 115.209 295.317 480.61
94 0 79.1963 14.9123 1181 113.704 295.138 481.866
95 1 43.3017 12.4014 537 112.81 295.598 498.469
96 0 42.1541 12.3831 522 114.527 296.488 497.699
97 0 43.0764 11.9787 516 113.734 296.843 497.76
98 0 43.3357 12.0916 524 113.767 296.88 498.061
99 0 48.1315 14.4604 696 108.287 297.159 497.105
100 0 49.1164 13.4578 661 110.703 296.522 498.064
101 0 51.1096 13.9504 713 111.662 296.31 495.464
102 0 53.2138 13.7934 734 110.496 297.913 495.772
103 0 53.0974 13.786 732 113.336 298.495 493.626
104 0 54.2512 13.714 744 112.157 298.39 495.484
105 0 58.0768 13.6888 795 112.033 298.387 493.833
106 0 59.095 14.1129 834 113.116 297.103 492.283
107 0 61.1162 13.548 828 114.922 298.013 491.476
108 0 64.2337 14.6808 943 112.28 297.277 490.11
109 0 67.1058 15.3489 1030 109.779 297.426 489.318
110 0 69.1852 14.5551 1007 112.573 297.717 488.583
111 0 70.0956 14.3518 1006 113.598 297.741 488.644
112 0 74.1668 14.5753 1081 113.04 297.096 487.154
113 1 38.0118 12.4698 474 111.089 297.283 503.26
114 0 38.0481 9.12003 347 115.634 297.885 504.17
115 0 40.0454 11.9115 477 112.13 297.862 502.407
116 0 43.0862 11.8367 510 112.978 297.726 501.631
117 0 45.0269 13.1033 590 109.547 297.627 501.12
118 0 47.0286 15.2886 719 104.737 297.677 500.444
119 0 47.0698 12.2159 575 110.847 296.737 499.355
120 0 48.0265 13.2635 637 107.735 297.166 499.226
121 0 49.0658 13.0029 638 109.524 298.227 497.326
122 0 52.0502 14.4092 750 105.685 296.263 495.548
123 0 54.1032 13.8809 751 104.619 295.304 496.831
124 0 56.0586 13.1291 736 107.094 296.198 495.579
125 0 57.0867 14.2765 815 106.747 295.449 492.56
126 0 60.0356 13.9917 840 105.912 295.598 492.299
127 0 63.1647 13.6469 862 106.551 295.445 491.051
128 0 61.0674 12.2651 749 111.829 295.304 489.977
129 0 66.1542 13.4837 892 109.55 295.138 488.243
130 0 67.1034 13.5164 907 110.577 296.385 486.648
131 1 34.0268 11.1677 380 108.489 297.455 503.742
132 0 37.0106 8.70022 322 111.398 297.63 504.528
133 0 36.0422 10.5987 382 112.068 296.956 503.157
134 0 38.0619 12.0593 459 108.551 297.871 500.993
135 0 39.0301 11.9395 466 109.414 298.528 501.152
136 0 43.0294 12.3636 532 108.352 297.346 500.878
137 0 45.0894 12.7303 574 107.742 297.749 499.704
138 0 45.0964 14.7018 663 105.656 297.006 498.403
139 0 45.2425 12.0241 544 111.695 297.129 500.062
140 0 48.2797 14.6231 706 106.149 297.181 498.258
141 0 48.1918 12.6577 610 111.644 296.861 498.326
142 0 50.1777 12.934 649 112.1 297.213 498.459
143 0 52.1402 13.3678 697 110.35 297.139 498.501
144 0 55.1338 13.9842 771 109.385 297.14 497.3
145 0 54.1613 13.6444 739 112.245 297.337 498.064
146 0 57.119 12.7453 728 113.615 297.356 495.754
147 0 57.2328 13.8207 791 112.795 296.269 492.857
148 0 61.1179 13.6948 837 111.523 296.151 494.449
149 0 61.1303 13.5121 826 114.212 295.5 492.297
150 0 65.1326 13.5877 885 112.122 294.893 492.156
151 0 66.1983 14.5321 962 110.966 294.923 491.079
152 0 68.1016 13.4505 916 114.348 295.39 488.49
153 0 70.1355 14.6859 1030 111.213 294.666 488.478
154 0 72.22 14.9128 1077 110.829 294.654 487.769
155 0 75.101 13.8746 1042 113.658 294.272 486.192
156 0 78.1313 14.1045 1102 113.169 293.864 485.234
157 0 80.0946 14.8699 1191 112.573 293.772 482.328
158 0 81.2037 14.6299 1188 115.194 293.597 480.471
159 0 85.1595 14.3965 1226 115.587 294.624 481.27
160 1 42.0234 11.7791 495 115.044 295.188 500.82
161 0 45.1415 13.4023 605 111.038 295.486 501.36
162 0 45.0991 12.7497 575 115.791 295.515 499.214
163 0 45.0897 12.1092 546 118.002 295.771 498.145
164 0 46.0472 11.9877 552 118.335 296.736 498.424
165 0 51.0592 14.1796 724 112.895 296.747 496.907
166 0 52.0903 13.8798 723 113.307 296.562 497.674
167 0 52.0625 13.4646 701 116.525 296.882 496.031
168 0 55.0241 14.1211 777 114.313 297.349 496.532
169 0 55.0394 13.7901 759 115.879 296.663 496.121
170 0 59.0188 14.47 854 113.549 296.631 494.63
171 0 61.0208 15.2243 929 111.846 297.171 495.265
172 0 63.0997 15.3567 969 112.718 297.066 491.965
173 0 65.0648 14.3242 932 114.468 297.268 491.907
174 0 68.0192 13.3786 910 115.621 296.98 492.153
175 0 69.043 13.6582 943 116.113 297.004 490.569
176 0 70.2025 12.9767 911 118.854 296.265 489.807
177 1 36.0832 10.9192 394 115.332 295.472 506.855
178 0 36.0455 11.5687 417 115.113 295.098 505.854
179 0 40.0724 11.4293 458 112.432 295.146 507.561
180 0 39.1055 12.4024 485 114.645 294.897 504.534
181 0 43.1568 13.5552 585 110.521 294.15 504.732
182 0 43.2365 13.5071 584 112.217 293.197 503.589
183 0 45.0832 13.464 607 112.896 293.193 501.789
184 0 45.185 13.4558 608 112.459 292.969 501.543
185 0 48.0881 13.8912 668 110.287 293.045 499.554
186 0 48.1157 13.0934 630 113.473 293.368 499.827
187 0 52.1108 15.6781 817 105.595 292.933 500.236
188 0 52.3679 14.3981 754 110.737 292.928 497.561
189 0 52.0547 14.0813 733 113.48 293.791 497.075
190 0 56.2183 14.3192 805 111.783 294.38 495.709
191 0 57.1196 12.9728 741 116.648 294.386 493.846
192 0 60.341 14.9815 904 112.228 294.327 492.534
193 0 61.2192 13.9662 855 114.46 294.303 493.336
194 0 63.1609 13.4894 852 117.083 294.084 491.62
195 0 65.1145 13.8679 903 117.505 294.368 489.767
196 0 69.1645 14.3571 993 115.832 294.269 489.529
197 0 71.1776 13.7122 976 118.614 295.426 487.778
198 1 35.0119 12.1958 427 115.862 295.438 505.731
199 0 37.0199 11.6964 433 116.804 296.395 505.263
200 0 40.0402 12.3875 496 116.488 294.982 503.29
201 0 39.0154 11.6364 454 117.991 295.26 505.264
202 0 40.0824 12.8485 515 118.761 294.289 502.148
203 0 42.0506 13.0081 547 115.512 295.771 503.464
204 0 44.1208 13.1684 581 116.716 294.404 501.806
205 0 44.1103 13.4662 594 117.364 295.852 502.357
206 0 46.0875 13.8866 640 116.312 295.967 501.825
207 0 48.1071 13.1997 635 118.036 295.296 502.364
208 0 48.2292 13.892 670 116.466 294.542 501.936
209 0 50.1408 13.8011 692 117.084 293.79 501.104
210 0 51.2493 13.7368 704 119.175 293.391 499.935
211 0 55.1864 13.8621 765 118.732 293.254 497.882
212 0 56.0896 14.459 811 119.076 293.195 497.998
213 0 56.0826 13.9972 785 122.718 292.755 496.08
214 0 60.2524 14.3065 862 119.86 293.459 495.771
215 0 61.0892 14.8472 907 119.605 292.544 495.094
216 0 64.1488 16.5241 1060 116.362 291.632 493.839
217 0 67.1544 15.6952 1054 118.493 292.241 491.587
218 0 69.1982 14.957 1035 121.531 292.059 491.31
219 0 70.1304 15.8847 1114 121.397 292.564 488.344
220 0 72.0716 15.443 1113 123.141 292.406 489.122
221 1 40.0231 11.1935 448 125.527 292.935 504.993
222 0 40.0832 12.1248 486 126.226 292.805 503.877
223 0 42.051 12.2232 514 126.202 292.469 503.302
224 0 44.1346 12.3713 546 126.952 291.962 501.436
225 0 45.1671 13.0626 590 125.361 291.817 501.471
226 0 46.0528 13.1154 604 125.897 292.429 499.934
227 0 47.1592 13.6347 643 124.882 292.991 500.073
228 0 50.1254 14.4438 724 122.12 293.586 498.645
229 0 50.0999 14.032 703 125.528 293.272 497.707
230 0 52.2021 14.3672 750 123.936 293.849 496.335
231 0 54.1024 13.8072 747 124.786 294.517 496.09
232 0 56.0804 14.7645 828 120.92 295.211 496.895
233 0 57.2062 14.8935 852 122.491 295.317 494.79
234 0 56.2789 13.9484 785 126.991 295.211 493.448
235 0 59.3197 14.7 872 124.349 295.74 494.026
236 0 62.4292 14.6086 912 124.012 295.633 493.054
237 0 66.3853 14.3405 952 124.138 295.599 492.453
238 0 67.4784 14.1823 957 126.581 295.516 489.443
239 0 69.3214 14.1947 984 126.383 295.182 490.55
240 0 71.4256 13.9586 997 128.348 295.686 489.241
241 1 36.3159 12.3637 449 125.269 295.964 506.232
242 0 38.3064 10.3899 398 126.425 295.422 507.638
243 0 39.3972 12.0059 473 125.249 294.655 505.455
244 0 39.2746 12.3235 484 127.969 294.901 504.738
245 0 40.2847 12.0393 485 126.235 294.876 504.614
246 0 40.2847 12.1138 488 163.195 295.838 504.602
247 0 44.1531 12.3887 547 125.978 294.457 502.793
248 0 45.0947 13.0836 590 123.132 293.647 502.336
249 0 48.1328 13.1511 633 121.968 292.749 501.141
250 0 50.0894 13.8353 693 119.355 292.668 499.941
251 0 51.2607 13.9483 715 118.036 292.338 499.151
252 0 52.0731 14.7869 770 117.426 292.469 498.268
253 0 52.1017 13.2817 692 121.936 292.906 496.558
254 0 55.0865 13.0159 717 120.374 292.876 497.042
255 0 56.0997 13.3512 749 120.009 292.724 495.908
256 0 61.2353 15.6282 957 112.655 292.802 493.508
257 0 62.1762 15.9707 993 111.624 292.687 492.24
258 0 62.1273 14.3093 889 116.463 292.658 491.466
259 0 65.1275 13.9419 908 115.246 293.629 490.608
260 0 66.0999 13.9788 924 115.08 293.843 488.694
261 0 71.1027 15.0627 1071 110.96 293.756 487.723
262 0 72.1657 13.3304 962 114.512 294.594 486.431
263 0 74.3257 14.6248 1087 111.587 294.315 484.969
264 1 38.032 11.5166 438 110.861 295.016 502.272
265 0 41.0917 11.1701 459 109.643 295.037 502.085
266 0 42.0966 11.1411 469 108.746 295.177 501.322
267 0 44.046 11.7604 518 107.668 296.037 500.925
268 0 45.064 11.8498 534 108.835 296.491 498.942
269 0 48.0509 12.6949 610 106.738 296.143 499.369
270 0 48.1344 12.7144 612 107.242 296.324 499.394
271 0 51.1944 12.3451 632 106.359 295.54 500.176
272 0 53.1811 13.125 698 105.415 295.328 499.506
273 0 52.1372 11.8917 620 109.958 295.198 498.145
274 0 56.1932 13.4536 756 105.713 295.075 497.796
275 0 56.3243 12.1617 685 109.061 295.311 498.168
276 0 57.1885 12.1353 694 109.805 294.569 497.971
277 0 60.1981 12.5751 757 109.016 294.345 496.376
278 0 62.3196 13.2543 826 106.351 294.586 495.646
279 0 64.2683 12.1522 781 107.425 294.131 496.659
280 0 66.2454 12.982 860 107.955 293.974 491.994
281 0 69.2934 13.9552 967 105.795 293.821 491.616
282 0 71.2187 14.0272 999 105.341 293.834 490.414
283 0 73.2658 15.0002 1099 105.174 293.269 488.055
284 0 75.2856 13.3359 1004 109.548 292.43 487.289
285 1 39.0545 11.8808 464 105.972 292.724 502.888
286 0 40.0912 10.6258 426 107.286 292.484 504.096
287 0 42.0215 11.8511 498 105.239 293.112 502.631
288 0 42.0802 11.8583 499 105.293 293.068 501.509
289 0 44.0839 12.4309 548 105.456 293.338 499.436
290 0 47.0217 12.9302 608 102.908 294.354 499.229
291 0 47.1881 12.9906 613 104.759 294.277 498.162
292 0 46.0649 11.5272 531 107.844 294.731 499.145
293 0 51.2127 13.6685 700 103.016 295.39 497.557
294 0 51.0854 13.174 673 105.423 295.728 495.477
295 0 52.2278 12.0242 628 108.134 296.287 495.326
296 0 56.1766 13.1905 741 104.533 296.713 495.869
297 0 56.2095 12.916 726 106.784 296.379 493.879
298 0 58.1373 13.7089 797 104.731 296.384 493.547
299 0 60.1788 12.5792 757 107.23 296.369 493.018
300 0 61.1804 13.2232 809 106.187 297.199 492.963
301 0 62.1284 13.1663 818 107.989 297.031 492.499
302 0 66.1731 13.1473 870 105.875 297.863 493.151
303 0 68.1642 13.9223 949 105.678 295.817 491.88
304 0 73.1759 15.9479 1167 100.123 296.058 491.051
305 1 38.0376 11.1994 426 102.779 296.533 508.812
306 0 40.0659 11.3813 456 104.794 296.035 507.846
307 0 38.0566 7.96183 303 107.439 295.762 510.736
308 0 41.0319 10.7965 443 106.497 295.984 507.79
309 0 43.0337 11.3632 489 105.299 295.274 507.323
310 0 43.025 12.3184 530 105.038 295.643 505.798
311 0 44.1222 13.3493 589 104.603 294.846 503.562
312 0 46.0308 13.252 610 104.784 293.933 503.777
313 0 47.0746 11.8323 557 106.503 293.7 503.327
314 0 50.0316 12.8918 645 105.118 293.95 499.577
315 0 50.0853 13.1575 659 105.08 293.683 500.014
316 0 51.088 11.6857 597 107.333 293.561 501.268
317 0 53.0444 12.5744 667 106.21 293.625 499.88
318 0 55.021 14.3036 787 103.168 292.85 498.302
319 0 56.1237 13.6662 767 105.395 292.721 495.142
320 0 58.1046 12.7012 738 107.841 292.107 492.671
321 0 59.1653 11.4763 679 110.551 293.093 492.745
322 0 62.1761 12.9471 805 106.395 292.826 492.011
323 0 63.1283 12.6251 797 107.852 293.955 490.07
324 0 65.0949 12.8582 837 108.158 293.552 488.642
325 0 69.1722 14.6012 1010 104.151 294.293 487.252
326 0 71.2518 13.1505 937 107.078 294.883 488.194
327 0 74.0898 13.5646 1005 106.245 295.113 486.638
328 0 76.1783 13.4684 1026 107.74 295.134 483.274
329 1 37.0125 8.7538 324 108.37 296.389 504.54
330 0 41.0714 10.6644 438 104.826 296.744 503.084
331 0 40.123 11.1407 447 105.101 297.132 502.653
332 0 43.0304 10.5739 455 104.209 296.866 504.453
333 0 45.079 12.3117 555 103.312 296.602 501.863
334 0 46.0284 12.9051 594 102.983 296.791 500.512
335 0 47.0816 12.2766 578 103.403 297.382 500.654
336 0 52.0785 12.1547 633 102.043 297.385 502.332
337 0 50.0753 11.8621 594 105.955 297.682 500.801
338 0 51.053 12.2422 625 105.294 297.286 501.315
339 0 53.1138 11.1835 594 108.276 296.588 499.2
340 0 56.0579 12.1303 680 105.86 296.7 498.718
341 0 58.1225 12.6629 736 104.852 296.166 497.64
342 0 58.1185 12.0788 702 107.943 294.651 495.667
343 0 62.1108 12.5743 781 107.09 293.424 494.104
344 0 67.0709 14.8649 997 102.065 293.408 492.093
345 0 69.1058 14.5719 1007 103.077 293.489 491.897
346 1 37.0571 9.30996 345 105.73 294.046 507.557
347 0 39.0433 10.3219 403 106.062 293.546 506.273
348 0 38.0395 11.1463 424 104.349 293.453 506.844
349 0 41.0608 10.3505 425 107.649 292.671 503.049
350 0 41.0965 11.8502 487 105.466 293.394 501.144
351 0 44.0471 12.1234 534 103.803 293.991 500.773
352 0 46.0246 11.3418 522 104.874 294.163 499.521
353 0 45.048 13.9407 628 101.884 294.522 498.078
354 0 46.2198 12.8733 595 103.904 293.842 497.655
355 0 46.2098 13.2656 613 104.207 294.377 497.496
356 0 51.0712 14.3133 731 100.482 295.264 497.398
357 0 53.1131 15.081 801 98.0886 296.198 496.719
358 0 55.253 13.5739 750 99.2893 296.279 497.648
359 0 55.1262 14.2582 786 98.6667 297.05 496.975
360 0 55.104 13.7558 758 101.036 296.813 493.939
361 0 58.1343 13.0044 756 101.183 297.205 495.2
362 0 60.054 14.6368 879 99.4915 297.427 493.201
363 0 64.1151 13.9749 896 98.4386 297.706 494.913
364 0 66.1302 15.9836 1057 96.193 298.283 492.693
365 0 68.0662 13.9276 948 99.174 297.843 494.481
366 0 70.0853 14.1684 993 100.416 297.312 492.993
367 0 72.3213 14.726 1065 100.785 297.593 490.566
368 1 37.0354 11.0705 410 102.5 297.251 509.676
369 0 42.0271 12.8965 542 97.9096 296.203 509.251
370 0 40.0358 12.8635 515 100.538 296.351 508.899
371 0 41.0864 13.9706 574 98.8571 296.334 505.923
372 0 42.0506 13.1271 552 101.192 295.679 505.844
373 0 45.1001 13.9911 631 98.6054 295.502 505.266
374 0 46.2588 13.8784 642 98.3146 294.66 504.777
375 0 46.14 12.9172 596 101.723 294.017 503.475
376 0 49.1683 12.6911 624 101.151 293.478 502.005
377 0 50.155 14.0165 703 99.3613 293.454 501.184
378 0 52.1029 14.9512 779 98.6637 292.354 499.96
379 0 51.1572 13.3314 682 103.858 291.059 498.235
380 0 55.2293 14.9739 827 101.151 290.715 496.99
381 0 58.2595 13.7832 803 103.036 291.05 496.318
382 0 59.173 13.2831 786 104.469 291.501 495.005
383 0 60.3387 14.3689 867 103.692 293.481 492.558
384 0 63.1924 14.0523 888 103.2 293.44 493.907
385 0 66.4251 16.0783 1068 99.3773 293.932 492.467
386 1 34.229 11.3354 388 103.585 294.765 507.07
387 0 38.1511 11.7166 447 101.758 295.007 506.928
388 0 39.1632 12.6905 497 101.221 296.054 504.533
389 0 37.0936 11.9428 443 106.26 296.029 505.273
390 0 41.1176 14.3734 591 102.02 296.602 503.655
391 0 42.0291 13.3955 563 104.25 296.124 503.432
392 0 44.125 13.2125 583 105.736 297.172 503.542
393 0 45.1974 13.6291 616 103.823 297.174 505.435
394 0 46.0351 13.7938 635 105.976 297.069 504.883
395 0 49.0863 15.3607 754 102.825 297.366 504.763
396 0 49.1078 14.3969 707 108.11 298.164 503.912
397 0 49.1727 13.4424 661 111.57 297.861 504.821
398 0 51.2246 14.1924 727 110.707 297.389 505.241
399 0 54.1937 14.2267 771 111.035 296.542 502.935
400 0 56.2404 13.549 762 113.194 296.236 502.672
401 0 59.0834 14.2003 839 111.025 295.274 502.324
402 0 60.3488 13.7037 827 114.79 294.331 498.747
403 0 62.1714 13.881 863 113.919 293.99 498.711
404 1 29.1436 11.5977 338 110.618 293.269 514.071
405 0 32.0444 11.8274 379 109.443 293.538 512.934
406 0 34.105 12.7254 434 107.569 292.862 512.652
407 0 36.1741 11.3617 411 110.095 293.197 511.204
408 0 33.1738 12.3591 410 112.107 293.061 510.302
409 0 35.0555 11.6957 410 113.963 293.895 510.337
410 0 38.1261 12.1964 465 113.757 292.899 507.338
411 0 39.0361 12.8086 500 114.004 292.264 506.68
412 0 40.1008 14.3389 575 110.72 292.146 504.003
413 0 40.1603 13.3963 538 113.838 292.457 503.251
414 0 42.0704 13.62 573 113.489 292.318 501.211
415 0 44.0507 12.9169 569 114.48 293.545 501.807
416 0 45.2254 12.3161 557 115.56 294.284 502.763
417 0 47.1613 14.1005 665 112.844 294.653 499.462
418 0 48.1919 13.5085 651 114.49 295.662 500.08
419 0 48.1174 12.3864 596 119.153 296.549 500.138
420 0 50.1593 12.7195 638 117.08 297.614 499.693
421 0 52.3164 13.2463 693 117.27 298.114 498.72
422 0 54.1972 12.8235 695 119.075 298.442 498.685
423 0 56.2465 12.7119 715 119.175 298.945 499.75
424 0 58.331 13.5606 791 118.109 298.432 498.177
425 1 28.2991 11.4138 323 116.734 299.173 514.096
426 0 29.2163 11.9454 349 115.43 298.453 514.407
427 0 32.102 12.7407 409 114.078 297.117 514.65
428 0 33.1139 12.0191 398 117.709 296.9 513.038
429 0 34.1828 11.731 401 118.486 296.763 513.17
430 0 36.0478 12.8995 465 117.385 296.277 511.832
431 0 37.1139 13.1757 489 117.708 295.534 511.346
432 0 39.1529 13.8432 542 117.304 295.028 510.07
433 0 39.1813 12.3528 484 119.963 294.186 511.054
434 0 41.0561 12.6412 519 120.9 293.678 509.008
435 0 41.2324 13.4118 553 120.087 293.55 507.702
436 0 44.4466 13.0719 581 119.661 293.286 505.855
437 0 46.2954 13.1546 609 117.859 292.652 505.663
438 0 47.2327 13.4229 634 119.091 292.019 502.994
439 0 48.2137 13.4194 647 120.19 291.348 501.505
440 0 48.1804 13.6155 656 119.654 290.817 500.544
441 0 52.2666 13.8903 726 116.579 291.039 498.731
442 0 55.378 13.2002 731 117.54 291.153 497.298
443 0 57.333 13.814 792 116.207 291.717 496.206
444 1 27.1801 10.4856 285 118.228 292.793 507.898
445 0 31.0975 11.6408 362 113.945 293.354 507.367
446 0 31.1677 11.6467 363 116.694 294.934 506.27
447 0 32.2199 11.1111 358 118.117 295.5 506.475
448 0 35.1082 12.2763 431 116.088 296.172 505.146
449 0 37.0407 13.0667 484 114.273 296.767 504.833
450 0 38.0489 12.6153 480 114.998 298.173 504.748
451 0 38.0959 12.4423 474 113.926 298.439 505.57
452 0 39.086 12.5109 489 114.376 299.123 505.403
453 0 40.1248 11.8131 474 114.914 299.101 504.996
454 0 42.1571 12.7855 539 112.861 298.937 503.733
455 0 45.1377 12.0742 545 113.644 298.616 505.202
456 0 46.1574 12.7174 587 112.784 297.741 503.843
457 0 46.1147 13.1845 608 113.352 297.523 504.711
458 0 47.1316 13.1759 621 113.588 297.312 504.833
459 0 48.1274 12.8409 618 114.453 296.825 505.095
460 0 51.0746 13.5097 690 113.204 296.281 504.078
461 0 52.0715 13.4623 701 113.897 295.743 502.78
462 0 55.0489 13.2609 730 114.453 295.196 502.118
463 0 58.1075 14.8174 861 111.105 294.796 499.793
464 0 59.1213 13.8698 820 114.024 294.023 496.511
465 0 61.0654 14.7055 898 112.609 292.311 495.2
466 0 64.0832 14.5748 934 113.441 293.103 493.865
467 1 33.0182 11.2362 371 115.491 293.418 508.903
468 0 33.0384 10.8359 358 116.885 293.701 508.028
469 0 35.0685 10.8645 381 116.396 292.761 506.677
470 0 38.1044 12.9119 492 114.114 292.307 504.081
471 0 37.0144 11.8873 440 117.111 291.552 504.568
472 0 38.0652 12.032 458 119.242 291.552 501.437
473 0 39.2054 13.2635 520 117.421 291.408 501.7
474 0 40.2674 11.8706 478 120.653 292.322 501.023
475 0 43.1301 13.4477 580 116.007 292.834 500.238
476 0 42.0673 13.6923 576 117.179 293.707 501.319
477 0 44.14 14.0236 619 116.071 295.357 499.756
478 0 45.1702 12.6189 570 118.353 296.721 498.853
479 0 48.1202 12.8221 617 116.295 299.575 500.417
480 0 50.2875 13.6813 688 117.722 299.632 499.778
481 0 50.1687 13.1357 659 121.243 301.241 499.385
482 0 52.2297 14.0533 734 120.466 301.056 499.895
483 0 55.1166 13.6619 753 120.584 300.356 498.876
484 0 57.1465 14.2441 814 119.085 300.012 499.961
485 0 60.0884 14.0127 842 121.557 299.66 497.835
486 0 60.2103 13.1373 791 124.534 298.93 498.274
487 0 63.1155 14.212 897 122.854 298.155 497.982
488 1 37.0381 12.0146 445 119.888 297.778 513.11
489 0 38.0575 12.4548 474 120.951 297.411 512.774
490 0 39.0222 11.5575 451 123.098 296.718 512.262
491 0 42.0342 12.6564 532 120.276 296.009 511.137
492 0 42.0275 13.3008 559 121.385 294.898 509.106
493 0 42.2801 11.8496 501 125.906 293.056 507.389
494 0 44.2429 13.0642 578 121.784 293.514 505.763
495 0 46.2331 13.6915 633 118.572 292.626 505.065
496 0 47.0861 12.9337 609 123.402 291.524 502.885
497 0 48.2803 13.4009 647 121.011 291.046 500.779
498 0 49.234 14.035 691 120.673 289.996 498.175
499 0 52.191 13.9296 727 118.289 290.435 498.411
500 0 54.1508 13.6286 738 119.03 290.486 497.244
501 0 55.1828 14.3523 792 119.085 290.202 494.803
502 0 57.1931 14.0926 806 119.305 291.381 493.881
503 0 60.0989 14.5593 875 116.611 291.815 493.345
504 0 60.1094 14.0244 843 118.453 292.338 492.714
505 0 65.1437 14.3989 938 115.074 294.484 491.41
506 0 65.1491 13.7838 898 119.226 296.912 491.187
507 0 68.3868 14.1402 967 119.166 298.166 488.948
508 0 70.1551 13.9976 982 119.143 299.192 489.92
509 0 70.1574 14.3819 1009 168.183 300.207 490.313
510 1 37.1639 10.3057 383 120.117 300.987 506.48
511 0 39.2241 11.498 451 118.51 300.457 506.12
512 0 41.1544 11.8092 486 118.167 301.514 506.385
513 0 45.2662 12.791 579 116.2 302.009 507.686
514 0 47.3676 12.5613 595 116.904 301.445 507.113
515 0 48.1035 13.5749 653 117.538 300.219 505.213
516 0 50.0851 13.5969 681 117.59 299.448 506.595
517 0 50.0732 13.9596 699 118.77 298.425 507.365
518 0 54.1038 13.3817 724 116.099 296.57 507.446
519 0 53.1817 12.6547 673 117.217 295.073 507.238
520 0 57.1169 13.5161 772 114.604 293.962 504.709
521 0 59.2585 14.6308 867 110.399 292.486 504.416
522 0 61.2452 13.1276 804 113.419 291.114 501.662
523 0 63.2686 13.4664 852 111.971 290.087 500.822
524 0 65.3313 12.3983 810 113.901 288.828 499.317
525 0 69.2536 13.4289 930 112.491 288.635 495.459
526 0 72.1962 13.311 961 111.536 288.182 494.884
527 0 75.2398 13.344 1004 111.652 287.291 491.931
528 0 74.1444 13.123 973 113.118 286.704 489.96
529 1 37.0301 10.91 404 107.235 287.302 508.79
530 0 40.0507 12.0597 483 105.132 287.959 506.669
531 0 41.0307 11.3817 467 105.696 288.349 506.056
532 0 42.0973 11.9248 502 106.663 288.456 505.126
533 0 45.0471 13.1196 591 103.723 289.041 504.509
534 0 47.0349 13.2242 622 104.81 291.564 504.362
535 0 47.0712 12.0456 567 108.39 293.056 503.751
536 0 49.0422 13.8452 679 105.186 294.851 503
537 0 53.0373 14.2164 754 102.67 295.968 504.115
538 0 53.1386 11.9123 633 109.845 297.011 503.523
539 0 57.1137 13.4118 766 107.08 297.868 504.625
540 0 57.2206 13.0198 745 110.366 298.052 504.404
541 0 58.243 12.156 708 113.952 298.504 503.49
542 0 62.3461 12.9439 807 111.254 296.314 504.631
543 0 63.2548 13.3903 847 111.447 295.463 502.769
544 0 66.4133 13.3708 888 111.467 294.867 502.941
545 1 37.1809 9.25206 344 112.166 293.201 520.07
546 0 39.3023 11.5261 453 111.565 291.479 516.139
547 0 41.3209 9.41412 389 112.044 290.488 517.663
548 0 42.2115 11.7503 496 110.887 289.111 514.829
549 0 43.1677 12.4399 537 109.747 287.618 512.929
550 0 47.0931 12.04 567 108.325 286.676 511.889
551 0 46.0939 12.8433 592 108.863 286.745 510.894
552 0 48.0264 13.0345 626 109.618 284.481 507.085
553 0 49.0336 14.1943 696 105.886 284.611 506.481
554 0 52.1267 13.237 690 108.199 284.452 503.359
555 0 53.1101 12.5212 665 109.403 284.275 501.669
556 0 56.1055 13.7063 769 106.144 284.096 499.423
557 0 57.0663 13.1601 751 107.993 284.746 496.173
558 0 56.1731 12.4259 698 110.027 284.953 494.248
559 0 59.1533 14.0821 833 105.515 285.375 493.49
560 0 63.0544 13.5756 856 105.085 285.693 493.592
561 0 64.0954 13.8387 887 105.635 286.83 490.433
562 0 69.0782 14.4619 999 102.408 288.042 491.962
563 0 68.2109 14.6897 1002 105.002 288.636 486.008
564 0 71.179 13.5995 968 106.555 291.003 488.377
565 1 38.1249 9.62627 367 105.21 293.471 507.123
566 0 38.061 10.2467 390 106.026 296.569 506.569
567 0 40.117 10.7685 432 105.794 297.65 506.826
568 0 40.1076 9.89837 397 107.932 298.322 507.166
569 0 44.0775 12.4553 549 104.255 298.275 505.537
570 0 46.0684 13.7187 632 101.973 298.351 506.924
571 0 47.26 13.2036 624 105.955 297.75 506.62
572 0 50.2696 12.4728 627 107.788 296.7 507.927
573 0 50.1543 12.2223 613 111.051 296.31 507.049
574 0 52.2686 13.5263 707 109.569 296.136 506.803
575 0 53.2786 12.8382 684 111.692 295.143 507.655
576 0 57.2216 12.3904 709 113.536 293.329 506.9
577 0 58.2524 12.3257 718 113.095 290.575 507.312
578 0 62.316 15.3893 959 106.408 289.666 504.386
579 0 63.1885 14.4014 910 109.702 288.521 502.743
580 0 65.1852 14.4051 939 111.555 287.39 500.036
581 0 67.0998 14.0984 946 112.551 286.574 497.652
582 0 68.2366 15.1825 1036 111.667 286.094 494.685
583 0 71.1605 14.3057 1018 111.474 285.693 495.809
584 0 73.2398 14.3774 1053 112.683 285.054 492.82
585 0 76.1975 14.6462 1116 112.76 285.116 490.131
586 0 78.1482 14.8308 1159 112.748 285.29 488.3
587 0 81.1652 14.1317 1147 113.741 285.477 485.423
588 1 43.0207 11.7153 504 113.103 286.696 503.492
589 0 44.1151 10.5859 467 114.109 287.567 505.045
590 0 49.045 11.3365 556 113.101 288.072 501.723
591 0 47.1196 11.2904 532 115.023 288.741 501.124
592 0 51.1228 13.2426 677 112.083 289.972 498.384
593 0 53.0993 13.7478 730 112.597 292.57 499.095
594 0 54.0466 12.6372 683 115.89 295.288 499.167
595 0 58.2369 14.6986 856 110.461 297.213 499.815
596 0 59.1743 14.1954 840 111.676 298.21 499.993
597 0 61.1807 12.9616 793 114.317 299.183 499.377
598 0 62.2039 13.086 814 115.802 299.982 499.514
599 0 63.0927 12.6005 795 118.156 299.727 498.382
600 0 69.1454 14.5201 1004 110.659 298.391 498.866
601 0 71.2245 14.8685 1059 111.369 295.845 499.959
602 0 74.2176 14.4979 1076 110.928 295.862 503.546
603 0 80.1961 14.4022 1155 111.468 293.968 500.588
604 1 40.0895 9.07969 364 110.536 293.214 524.044
605 0 41.1328 11.5723 476 109.878 290.004 521.16
606 0 42.0718 11.4328 481 111.832 289.43 521.22
607 0 45.0971 14.4355 651 106.479 288.644 520.911
608 0 46.0898 12.7143 586 111.249 287.611 521.258
609 0 49.1275 15.2868 751 103.65 286.129 521.798
610 0 51.1967 13.6923 701 107.832 285.315 519.82
611 0 52.0223 14.5515 757 107.246 284.427 517.958
612 0 55.1163 13.8979 766 109.377 283.037 514.772
613 0 56.0555 15.1279 848 107.642 282.007 513.683
614 0 57.0783 13.753 785 110.517 281.548 513.596
615 0 60.0686 14.883 894 108.375 282.564 511.045
616 0 61.116 14.9061 911 107.929 281.566 508.262
617 0 63.1748 14.3095 904 109.415 282.564 506.81
618 0 66.1026 15.1734 1003 108.319 283.045 503.976
619 0 69.0622 15.4354 1066 108.333 283.1 502.045
620 0 70.1862 14.0768 988 110.837 283.975 501.752
621 0 74.2264 14.119 1048 111.053 284.677 500.101
622 0 77.2096 14.4801 1118 111.267 287.113 497.294
623 0 80.1456 15.3346 1229 111.046 286.33 495.124
624 1 43.0569 11.3106 487 113.784 288.776 514.602
625 0 43.0229 12.4585 536 112.791 290.47 514.487
626 0 46.0088 13.693 630 110.695 289.911 514.69
627 0 49.0482 14.1086 692 110.225 289.441 513.121
628 0 50.221 12.6242 634 114.369 289.366 512.954
629 0 52.1074 14.0479 732 112.023 289.097 513.18
630 0 54.0545 13.9859 756 112.352 287.508 515.624
631 0 57.191 13.7085 784 112.8 287.744 516.634
632 0 60.1387 14.5164 873 109.778 286.175 516.769
633 0 63.1038 13.6917 864 112.389 285.339 516.09
634 0 65.1448 14.2298 927 112.69 285.521 514.55
635 0 68.1534 14.5407 991 112.671 285.33 512.06
636 0 71.1001 15.007 1067 110.713 283.898 511.791
637 0 74.1552 15.6968 1164 108.672 281.243 510.105
638 0 77.2061 15.1283 1168 109.954 279.998 506.579
639 0 78.2161 14.5878 1141 112.092 278.258 505.068
640 0 81.199 14.4583 1174 111.402 278.083 501.396
641 1 43.0638 12.9575 558 106.419 278.133 520.962
642 0 44.0609 12.0515 531 110.279 277.275 518.443
643 0 46.119 12.7496 588 106.121 277.054 516.75
644 0 47.0405 12.6061 593 108.54 277.592 515.209
645 0 50.1357 13.7627 690 105.386 278.535 514.138
646 0 51.0865 13.3695 683 107.498 278.612 513.151
647 0 51.1513 14.1932 726 105.862 280.544 514.077
648 0 54.0782 13.6654 739 107.18 281.962 511.287
649 0 57.1568 14.329 819 104.222 283.052 510.527
650 0 59.129 13.1069 775 106.053 284.321 510.823
651 0 61.1332 13.4624 823 106.396 285.932 508.711
652 0 63.136 13.0987 827 108.996 287.348 507.311
653 0 67.1399 14.79 993 104.857 288.454 504.864
654 0 69.1846 14.2228 984 106.866 289.477 505.184
655 0 72.132 13.1842 951 108.926 290.367 504.074
656 1 37.0575 10.3623 384 109.471 291.245 521.721
657 0 40.0325 11.3658 455 107.352 291.692 520.844
658 0 44.0206 11.7899 519 105.626 291.609 521.617
659 0 44.0569 11.6213 512 107.939 291.656 521.582
660 0 45.1096 11.8822 536 108.132 290.244 519.877
661 0 48.152 13.8312 666 105.075 288.998 519.841
662 0 49.2391 12.8963 635 108.071 287.773 518.806
663 0 51.1232 14.0445 718 105.497 286.018 517.951
664 0 51.2118 12.6729 649 108.82 285.998 516.3
665 0 54.1736 12.9768 703 105.824 284.74 515.036
666 0 57.1998 12.9021 738 104.533 283.079 513.705
667 0 57.1314 13.1801 753 103.076 282.977 511.821
668 0 61.18 13.256 811 102.397 282.187 509.469
669 0 63.2545 12.9319 818 103.251 281.978 507.275
670 0 65.2311 14.1344 922 99.9176 281.7 505.834
671 0 67.202 13.3925 900 102.266 281.174 502.672
672 0 68.1533 14.0125 955 103.509 281.624 497.946
673 1 37.0161 11.4815 425 102.958 283.951 514.141
674 0 39.0948 12.9429 506 101.66 284.504 513.02
675 0 38.1169 11.8583 452 105.496 285.086 512.46
676 0 41.1097 12.7464 524 103.481 285.66 511.531
677 0 42.071 12.8592 541 104.874 286.214 509.688
678 0 43.0801 12.7437 549 106.463 287.53 508.419
679 0 46.1647 12.3904 572 105.83 289.276 509.267
680 0 48.1858 13.2612 639 103.577 291.487 510.304
681 0 48.2211 13.4588 649 105.496 292.684 508.364
682 0 52.2345 14.7795 772 102.972 294.645 507.917
683 0 51.1858 12.3472 632 108.612 295.277 508.293
684 0 53.152 12.9628 689 107.312 295.925 507.66
685 0 59.2358 15.548 921 100.071 296.748 508.883
686 0 58.1672 13.1345 764 108.805 296.416 508.448
687 0 61.2099 13.6089 833 107.498 295.933 506.196
688 0 66.2467 13.8573 918 105.054 295.353 506.204
689 0 68.2273 13.455 918 106.679 294.757 504.954
690 1 36.057 10.9826 396 103.828 294.604 522.071
691 0 37.0517 11.9023 441 104.683 292.932 518.116
692 0 37.0872 12.6189 468 104.049 292.517 518.479
693 0 41.0894 12.2173 502 102.639 291.456 516.145
694 0 40.061 11.0082 441 105.286 289.964 516.664
695 0 43.1249 12.0812 521 104.184 287.691 512.288
696 0 44.2391 13.201 584 102.3 286.771 511.262
697 0 43.0135 13.6236 586 104.584 285.792 507.776
698 0 47.062 12.5579 591 103.926 285.827 507.144
699 0 48.1263 14.1295 680 102.421 286.538 504.572
700 0 52.0647 14.1939 739 100.31 286.963 504.064
701 0 52.0645 13.368 696 103.351 287.684 502.697
702 0 53.0849 13.3936 711 102.584 288.491 502.066
703 0 53.0911 12.2996 653 105.678 288.861 500.459
704 0 56.0643 13.3062 746 102.674 289.867 500.516
705 0 58.0712 13.6212 791 103.489 290.477 497.158
706 0 61.129 14.7884 904 101.261 291.228 495.614
707 0 64.1486 13.5311 868 102.994 291.53 494.526
708 1 31.0498 9.37204 291 108.22 293.818 510.124
709 0 34.0335 10.5191 358 105.899 296.159 510.338
710 0 37.0624 10.6307 394 105.782 298.041 510.673
711 0 36.0319 11.129 401 105.077 299.723 511.601
712 0 40.1211 12.1383 487 104.115 301.101 510.684
713 0 41.1407 12.8826 530 103.577 302.032 511.438
714 0 42.0693 14.1671 596 101.307 301.74 511.476
715 0 42.1456 12.1009 510 105.873 301.298 512.498
716 0 46.1115 13.2939 613 103.292 299.316 511.452
717 0 48.2388 14.7184 710 100.561 299.116 511.628
718 0 48.1566 13.4976 650 105.689 297.869 511.728
719 0 50.152 13.3793 671 105.553 295.769 512.139
720 0 54.1563 13.5718 735 104.48 294.981 510.907
721 0 53.1916 13.6676 727 106.78 293.741 509.459
722 0 56.4632 13.0528 737 107.953 291.802 507.197
723 0 60.1373 15.4147 927 101.889 289.368 503.304
724 0 64.2253 15.648 1005 100.029 288.702 503.046
725 0 65.1492 14.2135 926 104.359 288.203 501.977
726 1 34.1064 10.4966 358 107.006 288.5 515.743
727 0 34.0157 10.9361 372 108.731 288.317 512.734
728 0 36.0317 12.267 442 105.385 288.005 511.335
729 0 38.0441 12.0124 457 105.442 286.359 510.737
730 0 39.0449 11.7813 460 106.928 285.978 507.833
731 0 42.0484 14.1742 596 101.488 286.163 506.73
732 0 41.053 13.2512 544 104.763 287.283 506.588
733 0 44.149 14.7682 652 102.178 287.569 503.736
734 0 46.0288 12.5791 579 105.639 289.452 504.19
735 0 46.1016 14.0342 647 103.368 290.244 505.034
736 0 48.1415 14.3327 690 104.568 292.317 503.557
737 0 50.0851 13.6767 685 104.454 293.328 503.946
738 0 53.0859 14.128 750 104.215 295.3 504.481
739 0 56.2494 14.969 842 102.126 296.992 504.824
740 0 56.1702 14.3314 805 105.072 297.84 505.63
741 0 60.1248 14.7194 885 105.362 297.985 505.653
742 0 63.1128 14.4978 915 107.813 298.555 504.536
743 0 67.1758 13.2637 891 109.208 297.915 507.162
744 0 70.2493 14.3062 1005 109.902 296.579 504.974
745 1 41.0218 11.116 456 109.105 295.513 522.726
746 0 40.0907 11.898 477 110.314 293.43 523.008
747 0 43.0558 12.4257 535 110.607 291.578 521.443
748 0 45.068 13.1801 594 109.894 288.754 519.904
749 0 48.2438 14.7169 710 106.946 288.408 518.706
750 0 50.1506 14.4565 725 107.007 287.266 518.326
751 0 51.2061 14.0022 717 109.69 285.816 514.923
752 0 53.1994 14.3611 764 108.999 283.856 513.364
753 0 55.1712 15.5335 857 106.341 281.974 510.683
754 0 56.0922 14.6901 824 109.968 281.413 509.058
755 0 58.181 15.2799 889 107.105 282.044 508.604
756 0 61.1449 15.5859 953 106.294 282.315 505.89
757 0 62.2342 14.3812 895 110.563 281.546 503.326
758 0 65.0959 15.4541 1006 106.192 282.497 501.361
759 0 67.1633 14.8146 995 108.257 282.613 500.053
760 1 34.0662 12.5638 428 111.091 284.21 513.082
761 0 37.0632 12.3303 457 110.786 285.114 512.538
762 0 40.0391 11.8384 474 109.04 285.985 513.5
763 0 39.0979 11.484 449 114.437 288.082 511.853
764 0 41.0646 12.4925 513 112.725 289.737 511.721
765 0 43.1216 13.9605 602 112.193 290.362 509.321
766 0 43.1648 14.8501 641 111.927 292.217 510.273
767 0 47.0758 14.2536 671 113.885 293.66 509.434
768 0 46.1413 14.3472 662 115.601 294.743 509.742
769 0 50.1257 14.703 737 115.628 294.433 508.68
770 0 51.1375 14.4317 738 117.364 294.883 509.262
771 0 56.1281 15.1974 853 114.531 294.155 509.8
772 0 57.0493 15.5129 885 114.633 294.098 508.912
773 0 60.0793 14.9802 900 118.502 293.346 508.657
774 0 62.0722 14.8537 922 114.802 291.807 509.74
775 0 64.1737 14.8192 951 115.563 291.004 508.124
776 0 67.1894 14.1391 950 108.035 289.572 507.002
777 0 70.1194 14.7748 1036 106.092 288.497 503.061
778 0 75.1828 15.9877 1202 101.99 287.32 502.553
779 1 40.1754 12.1716 489 104.495 285.164 518.086
780 0 41.1245 12.2311 503 105.37 284.378 515.33
781 0 44.0743 12.252 540 104.039 283.481 513.4
782 0 45.0592 13.0939 590 102.529 282.686 511.961
783 0 48.0562 13.8796 667 101.334 283.711 509.304
784 0 49.0536 13.2712 651 103.235 284.618 508.207
785 0 52.0384 14.6046 760 99.0684 284.229 507.453
786 0 52.0367 13.7979 718 102.082 284.096 504.196
787 0 53.0369 14.5182 770 100.286 284.453 504.462
788 0 55.1408 14.2 783 100.3 285.543 503.278
789 0 59.1213 14.2588 843 99.3357 286.495 502.847
790 0 61.1847 13.827 846 100.193 286.369 501.286
791 0 63.1728 14.2466 900 99.4456 288.226 500.89
792 0 66.1018 14.9769 990 98.0636 290.108 501.417
793 0 71.1772 16.8874 1202 93.8536 292.725 501.472
794 1 37.0521 10.6337 394 99.2741 294.14 518.5
795 0 38.1504 11.8741 453 99.223 296.201 518.327
796 0 40.0398 10.8142 433 100.979 296.543 519.522
797 0 40.0504 12.6091 505 100.741 296.04 519.657
798 0 41.0097 13.1188 538 99.8978 294.513 519.888
799 0 43.0636 12.4235 535 102.009 293.664 522.536
800 0 45.082 12.8211 578 102.841 292.573 521.457
801 0 47.1446 12.3238 581 105.583 288.979 519.664
802 0 50.1076 12.6927 636 102.189 287.827 519.954
803 0 50.1621 11.6622 585 104.579 285.692 519.725
804 0 54.156 14.1628 767 100.055 283.627 516.48
805 0 53.1108 12.521 665 104.277 282.029 515.355
806 0 57.2032 12.4643 713 102.944 281.129 513.778
807 0 58.2649 13.061 761 102.836 280.037 510.675
808 0 60.1981 13.2562 798 105.321 279.589 508.787
809 0 65.1248 13.4818 878 103.101 279.263 506.563
810 0 65.1048 13.8546 902 101.224 279.99 506.248
811 1 36.0209 10.8548 391 97.7263 280.343 517.829
812 0 38.0169 10.0219 381 98.9213 281.131 516.724
813 0 34.0568 10.9523 373 102.279 281.871 514.244
814 0 38.0194 11.2048 426 99.5352 282.941 512.89
815 0 40.0364 12.039 482 96.3734 284.203 512.803
816 0 41.0236 12.115 497 97.9517 285.02 511.664
817 0 41.0743 12.6113 518 99.222 286.649 509.556
818 0 42.0219 12.2555 515 98.6544 288.621 510.88
819 0 45.0219 11.7276 528 100.483 290.509 509.854
820 0 44.0767 11.7069 516 102.391 292.38 509.655
821 0 47.0594 12.6011 593 100.732 292.713 509.128
822 0 51.0567 12.4763 637 98.8273 292.995 510.78
823 0 52.2159 12.6398 660 98.7439 294.311 511.792
824 0 53.2163 12.1579 647 100.111 294.578 510.688
825 0 56.1246 11.8664 666 101.345 294.329 509.078
826 0 60.1014 12.9614 779 98.5443 293.754 509.827
827 1 32.1976 9.597 309 97.8123 293.262 523.524
828 0 34.0602 12.0375 410 93.3561 292.434 522.968
829 0 36.0908 11.1108 401 93.9327 290.486 522.636
830 0 36.1221 12.2086 441 93.2041 288.653 521.372
831 0 38.189 11.6264 444 93.1554 287.144 518.869
832 0 38.2071 11.6732 446 95.5045 285.8 517.818
833 0 41.2847 12.1837 503 92.1014 285.551 516.447
834 0 42.2792 11.7788 498 94.4137 284.133 513.839
835 0 44.1353 12.0765 533 93.2045 283.856 512.901
836 0 46.2846 12.5744 582 92.8763 283.572 510.344
837 0 49.2732 13.3541 658 90.4392 283.041 508.924
838 0 49.3219 12.3272 608 92.2928 282.6 506.36
839 0 52.225 12.2738 641 90.6303 283.803 507.878
840 0 54.0767 11.835 640 93.8297 284.666 504.714
841 0 53.1928 12.2949 654 94.8242 284.829 504.505
842 0 57.1246 12.3589 706 94.7394 285.853 502.331
843 0 57.1441 11.7772 673 98.9168 286.37 502.111
844 0 62.1907 12.8637 800 96.6938 289.03 500.511
845 0 65.0773 11.8628 772 98.8161 289.925 501.361
846 1 36.0997 10.8311 391 95.5729 291.744 515.895
847 0 33.0615 8.59004 284 100.292 293.81 517.549
848 0 36.1356 10.2945 372 100.003 294.253 516.962
849 0 39.2594 11.3858 447 97.9843 294.828 516.217
850 0 41.3863 13.072 541 94.9168 296.009 518.054
851 0 40.2437 10.8589 437 101.709 296.542 518.114
852 0 45.2627 12.085 547 98.4132 296.428 518.642
853 0 48.1779 12.184 587 98.7615 294.654 519.14
854 0 49.2043 12.3567 608 99.4276 292.362 518.411
855 0 51.3759 13.1969 678 95.9779 290.267 517.062
856 0 55.174 13.5571 748 94.1257 288.818 516.332
857 0 56.1471 12.3248 692 96.5043 286.626 514.386
858 0 58.178 13.5275 787 95.0966 285.173 512.16
859 0 61.1533 12.4768 763 94.7405 282.658 509.767
860 0 63.2394 13.8047 873 92.5716 281.714 508.154
861 0 66.2702 13.4299 890 92.7742 280.187 506.606
862 0 67.1912 12.6951 853 94.0633 280.653 503.792
863 0 70.127 13.6324 956 92.592 279.633 500.537
864 0 72.3505 14.3054 1035 91.5246 279.32 497.394
865 1 40.0578 10.1853 408 94.3113 279.958 514.123
866 0 40.1 9.55112 383 96.1488 280.927 513.783
867 0 42.167 9.34379 394 96.3883 281.863 512.944
868 0 45.2133 11.7001 529 89.0208 282.529 511.467
869 0 46.1624 11.5895 535 90.2449 283.822 508.359
870 0 48.1988 12.2617 591 88.3824 285.349 509.002
871 0 50.1471 12.4633 625 88.8624 285.122 508.968
872 0 51.2532 13.1504 674 88.684 286.748 506.098
873 0 51.2335 13.1164 672 90.1741 288.896 505.929
874 0 54.1771 13.1975 715 91.0014 289.85 506.459
875 0 57.2276 13.0007 744 89.1142 290.043 505.523
876 0 60.2186 12.8034 771 89.4202 291.222 503.953
877 0 60.2258 13.6818 824 89.7136 291.737 501.765
878 0 64.1538 13.8885 891 89.2379 292.442 505.077
879 0 68.226 14.1442 965 90.5513 292.181 501.994
880 0 71.3553 13.9583 996 89.7018 292.449 503.212
881 0 73.257 13.9372 1021 90.8178 290.47 500.43
882 1 39.1975 10.5874 415 90.4578 289.104 518.937
883 0 41.1226 9.14338 376 90.9176 287.37 518.854
884 0 42.0759 11.4079 480 87.8833 285.65 515.662
885 0 44.0648 11.3242 499 86.523 284.263 514.934
886 0 46.0304 12.4918 575 83.1339 283.061 510.39
887 0 48.0234 14.1598 680 78.9691 281.769 509.971
888 0 47.0541 12.73 599 83.379 281.583 507.943
889 0 51.0356 11.9133 608 82.8799 280.949 507.306
890 0 54.0286 12.7525 689 82.1248 281.469 505.104
891 0 54.0887 13.6443 738 81.9431 280.967 503.53
892 0 56.1204 13.0968 735 83.102 281.797 500.878
893 0 59.0397 15.1423 894 78.4888 281.595 498.814
894 0 60.1192 12.7081 764 83.1976 282.141 496.686
895 0 61.148 15.0291 919 79.9967 281.996 495.424
896 0 64.1581 13.5135 867 83.4671 284.329 493.512
897 0 66.1991 14.4866 959 82.3378 285.848 493.197
898 0 68.1482 11.9739 816 87.9939 287.876 492.913
899 1 39.0726 10.0326 392 86.5408 288.781 507.48
900 0 38.119 10.782 411 87.0949 290.647 509.62
901 0 41.0216 9.58032 393 88.8244 292.822 511.407
902 0 41.0833 11.4402 470 89.2936 294.796 510.206
903 0 44.0468 12.2597 540 88.8833 296.531 509.998
904 0 45.0396 12.0338 542 93.1236 297.184 509.871
905 0 47.0718 12.9589 610 91.7688 297.846 512.438
906 0 49.0294 13.4613 660 93.2591 297.412 512.192
907 0 51.0173 12.584 642 96.3754 295.984 511.176
908 0 50.0654 12.3439 618 99.8657 295.147 512.217
909 0 55.0935 13.1594 725 96.3338 292.563 514.352
910 0 56.0727 13.1436 737 96.1642 289.742 513.571
911 0 60.1119 14.0072 842 92.1829 287.903 512.664
912 0 61.0232 14.2405 869 92.4442 286.16 509.38
913 0 63.0918 13.7577 868 95.6359 285.069 508.077
914 0 66.0507 13.6865 904 96.3496 284.528 506.642
915 0 68.086 15.1573 1032 93.6163 283.389 503.382
916 0 70.0937 13.6959 960 96.399 282.52 501.328
917 0 74.1524 13.5532 1005 95.0826 281.776 501.39
918 0 75.2191 14.358 1080 95.9139 282.421 498.593
919 0 78.1786 14.889 1164 94.549 282.906 497.303
920 1 43.0701 10.8892 469 99.6354 282.369 511.983
921 0 44.1306 13.3694 590 93.4475 282.285 512.48
922 0 45.1557 11.1835 505 100.111 282.962 509.38
923 0 48.1351 11.8001 568 96.6602 283.264 510.644
924 0 48.076 11.0658 532 100.218 284.248 509.466
925 0 52.1193 14.1598 738 93.8103 284.954 509.061
926 0 52.1301 13.2361 690 97.6797 286.639 507.277
927 0 55.0672 12.2396 674 100.347 289.168 507.734
928 0 58.0677 14.5864 847 95.5691 290.914 507.558
929 0 60.0695 12.5022 751 102.683 292.975 506.466
930 0 64.0969 13.698 878 100.276 295.019 507.981
931 0 64.2128 12.3651 794 105.584 294.617 506.967
932 0 68.1731 13.0697 891 103.877 294.341 505.396
933 0 73.1631 13.6818 1001 101.3 293.804 505.78
934 0 76.0521 13.8195 1051 101.94 292.858 502.576
935 0 80.3026 13.9472 1120 100.942 290.602 502.648
936 0 83.1304 13.3164 1107 103.984 288.257 500.971
937 1 45.1034 10.0658 454 101.359 286.936 520.515
938 0 47.0519 11.2429 529 101.737 285.363 517.306
939 0 48.0378 11.1787 537 101.676 284.175 516.568
940 0 50.0955 10.1606 509 104.664 282.644 513.112
941 0 54.119 12.2508 663 100.267 281.713 510.433
942 0 54.0829 12.2405 662 101.307 281.228 507.44
943 0 58.0705 12.4159 721 100.083 280.022 506.186
944 0 60.1404 13.0195 783 99.9476 280.315 503.913
945 0 59.0974 12.251 724 102.163 280.323 501.477
946 0 64.2044 13.6128 874 98.5469 280.22 498.739
947 0 65.1088 12.241 797 101.743 280.287 497.918
948 0 67.2869 13.3904 901 99.7436 280.4 495.577
949 0 68.1271 13.8418 943 101.375 281.509 493.04
950 0 74.3358 13.3449 992 101.359 282.535 490.912
951 0 73.255 12.7909 937 104.727 283.829 490.356
952 0 79.3139 13.9068 1103 101.788 284.357 490.272
953 0 80.3208 13.1722 1058 106.817 287.433 488.696
954 0 84.2895 13.9994 1180 105.836 288.575 488.289
955 1 45.0746 11.2924 509 104.424 291.788 508.976
956 0 46.0443 10.9025 502 105.434 293.94 509.934
957 0 47.1252 12.6472 596 102.888 296.574 507.861
958 0 49.0157 12.2614 601 104.121 297.789 509.233
959 0 51.0394 13.8325 706 100.259 297.591 509.018
960 0 54.0792 13.5912 735 99.951 297.161 510.007
961 0 56.0626 14.4481 810 98.1679 296.668 510.065
962 0 58.1094 13.0444 758 101.208 294.986 509.642
963 0 60.0774 13.133 789 101.313 294.383 510.864
964 0 63.067 13.1765 831 101.291 292.22 510.064
965 0 65.178 14.0231 914 99.6948 289.93 507.606
966 0 66.2195 12.7153 842 102.888 287.802 506.066
967 0 69.3486 12.6895 880 102.412 286.162 505.193
968 0 73.2936 13.7256 1006 100.643 285.549 500.793
969 0 74.2137 12.6661 940 105.073 284.046 498.532
970 0 78.3607 15.033 1178 100.386 282.713 495.168
971 1 40.0997 9.37663 376 106.612 282.84 515.165
972 0 42.0479 9.56053 402 109.192 283.734 513.59
973 0 43.1342 10.9194 471 108.611 283.51 510.554
974 0 45.0494 12.0534 543 105.517 283.505 509.611
975 0 43.0294 11.7129 504 108.361 284.01 507.149
976 0 45.0165 12.4399 560 107.416 284.768 505.752
977 0 48.0603 12.9005 620 105.337 284.885 506.477
978 0 49.0201 13.1171 643 105.691 285.47 505.263
979 0 50.164 12.3595 620 106.487 285.947 506.476
980 0 53.1448 13.6608 726 102.366 288.368 505.383
981 0 53.2061 12.5738 669 107.069 290.091 504.401
982 0 54.0884 13.7183 742 104.993 291.958 503.869
983 0 57.0763 12.7198 726 107.182 293.262 502.825
984 0 61.1276 13.2673 811 104.64 295.383 504.132
985 0 64.1803 13.54 869 104.482 296.733 503.022
986 0 66.1816 13.4781 892 105.815 297.064 502.689
987 0 69.232 13.7509 952 105.814 297.626 502
988 0 74.142 14.1755 1051 104.718 297.47 501.946
989 1 41.0172 10.3615 425 106.252 297.153 519.734
990 0 42.0292 11.1113 467 104.957 294.835 520.953
991 0 43.0225 10.4132 448 107.44 293.114 520.15
992 0 45.024 11.6382 524 105.16 291.3 518.737
993 0 47.0222 12.3559 581 105.96 289.626 516.318
994 0 50.0962 12.995 651 104.144 287.837 513.842
995 0 54.2386 14.0675 763 101.111 285.62 512.744
996 0 54.1431 13.8891 752 103.956 284.14 510.461
997 0 56.144 13.5901 763 105.173 284.659 509.442
998 0 58.0638 13.933 809 104.682 284.817 506.409
999 0 60.1343 13.3701 804 106.325 283.899 503.714
1000 0 63.0762 14.0941 889 104.442 284.063 501.481
1001 0 65.1043 13.7164 893 106.233 284.403 499.185
1002 0 68.3094 14.0976 963 104.07 284.6 498.888
1003 1 35.015 10.5383 369 108.832 285 512.268
1004 0 36.0219 11.0488 398 110.982 286.339 510.251
1005 0 38.0506 11.5898 441 109.501 287.152 510.608
1006 0 40.0486 11.3862 456 109.899 288.934 510.239
1007 0 41.0524 13.0078 534 107.36 289.419 509.697
1008 0 43.0317 13.432 578 106.388 290.737 509.879
1009 0 44.0249 13.0835 576 110.556 292.542 509.906
1010 0 47.0512 13.1771 620 110.718 294.455 509.532
1011 0 46.0389 14.1402 651 110.759 297.009 509.891
1012 0 49.0762 13.8153 678 112.009 296.904 509.109
1013 0 52.1398 14.8831 776 109.013 296.974 509.692
1014 0 55.0715 14.69 809 109.225 298.258 510.209
1015 0 55.1774 13.6106 751 115.148 297.893 510.467
1016 0 58.1036 13.6997 796 113.236 296.78 510.901
1017 0 59.1482 13.052 772 115.806 294.811 511.652
1018 0 63.2369 14.5485 920 112.52 293.974 508.228
1019 0 65.2951 14.243 930 112.892 291.943 506.899
1020 0 70.2812 14.3851 1011 111.548 290.737 506.364
1021 0 73.3272 14.5512 1067 112.158 288.682 502.712
1022 1 41.2695 10.3709 428 116.364 288.096 519.1
1023 0 42.2817 12.4167 525 111.131 287.741 518.768
1024 0 42.1232 11.9412 503 114.451 286.773 516.571
1025 0 47.2019 12.9444 611 112.789 284.522 511.717
1026 0 47.1114 14.2216 670 111.779 284.179 509.551
1027 0 50.0876 13.8557 694 110.258 283.72 507.686
1028 0 51.083 13.0572 667 113.105 284.193 507.412
1029 0 53.018 14.2216 754 112.052 284.013 503.485
1030 0 54.1202 13.2483 717 113.962 285.052 503.964
1031 0 57.035 14.6752 837 109.111 286.491 503.091
1032 0 57.0636 14.9482 853 110.795 286.559 499.62
1033 0 61.0365 14.5814 890 109.92 287.751 500.107
1034 0 59.084 13.557 801 113.109 289.343 499.493
1035 0 62.1069 13.1708 818 112.304 291.306 499.652
1036 0 67.0612 14.5241 974 107.667 293.346 498.599
1037 0 71.108 15.1882 1080 104.276 294.408 498.816
1038 1 36.0435 10.1266 365 110.638 296.893 514.553
1039 0 36.0433 11.4029 411 108.523 297.706 515.915
1040 0 39.0874 11.2568 440 109.293 297.952 516.036
1041 0 43.0881 11.9755 516 106.178 298.45 515.932
1042 0 45.0735 14.3765 648 102 298.836 515.471
1043 0 45.1062 13.834 624 105.061 297.308 515.42
1044 0 49.107 13.5215 664 105.035 297.489 516.631
1045 0 51.1189 13.4197 686 105.834 295.586 516.375
1046 0 51.1148 12.5013 639 109.366 292.97 514.618
1047 0 54.1068 13.5842 735 107.37 290.686 513.585
1048 0 57.1435 14.2624 815 105.121 289.822 511.821
1049 0 59.1183 14.2426 842 105.914 288.052 509.485
1050 0 62.1762 14.5554 905 104.248 287.012 507.998
1051 0 62.0856 13.3364 828 108.6 284.865 506.378
1052 0 66.0915 13.7839 911 106.636 283.285 502.149
1053 0 68.0748 13.353 909 107.352 283.792 499.476
1054 1 38.041 11.0407 420 105.426 284.255 513.348
1055 0 37.0659 10.8456 402 105.371 284.405 513.234
1056 0 39.0333 12.6303 493 100.986 284.657 509.643
1057 0 39.0576 11.5471 451 103.86 284.907 509.186
1058 0 40.0753 12.5015 501 102.248 285.184 507.756
1059 0 44.0402 14.0099 617 96.9141 286.319 506.724
1060 0 43.071 13.0018 560 98.8214 287.489 506.786
1061 0 47.1004 14.2249 670 96.0672 288.987 504.278
1062 0 45.104 12.4379 561 101.433 290.704 502.513
1063 0 47.0091 12.1891 573 101.562 291.721 503.665
1064 0 50.0192 12.2553 613 100.509 293.437 503.853
1065 0 51.0694 12.4341 635 100.416 294.504 503.054
1066 0 52.0667 11.0627 576 104.064 296.681 502.724
1067 0 55.0493 13.3698 736 99.7989 298.783 502.134
1068 0 58.0463 13.1447 763 99.3591 298.868 502.594
1069 0 64.0692 13.2045 846 97.591 298.942 503.699
1070 0 65.0395 13.7609 895 97.3095 296.888 502.955
1071 0 69.1416 13.8267 956 97.5387 295.884 502.908
1072 0 72.0965 13.3016 959 99.4755 295.419 502.716
1073 0 74.1568 14.2536 1057 97.9943 294.386 501.091
1074 0 74.2001 15.4717 1148 82.027 291.995 506.397
1075 1 40.0474 10.0131 401 101.394 291.718 517.496
1076 0 43.0201 11.39 490 99.4041 290.329 515.363
1077 0 45.0157 10.7518 484 101.833 288.434 513.998
1078 0 48.0356 12.4283 597 99.1524 286.943 511.941
1079 0 49.0767 13.3465 655 98.7374 286.806 509.049
1080 0 50.1273 13.1066 657 98.9543 285.624 505.414
1081 0 52.1245 13.5061 704 97.9673 285.828 505.104
1082 0 54.2753 12.9893 705 99.3957 286.271 502.782
1083 0 55.1082 13.9181 767 99.1343 286.205 499.755
1084 0 58.2353 13.3252 776 101.276 286.197 498.034
1085 0 61.2222 13.2305 810 99.6296 286.306 497.899
1086 0 63.1367 14.3657 907 98.3286 287.238 494.563
1087 0 66.1941 13.4 887 99.5254 289.017 493.979
1088 0 68.2001 14.3108 976 97.7346 289.717 493.693
1089 0 68.2206 12.9286 882 101.485 291.511 493.737
1090 0 73.2167 13.3166 975 98.2533 293.609 493.743
1091 1 38.0121 11.47 436 95.5642 296.493 512.014
1092 0 42.0625 11.4116 480 96.5979 298.067 510.115
1093 0 42.0249 12.3974 521 94.1113 299.645 511.284
1094 0 43.1183 11.9207 514 96.6595 300.335 511.564
1095 0 44.0245 12.1069 533 96.9587 300.852 512.443
1096 0 47.0409 13.4139 631 93.607 300.994 512.249
1097 0 49.0473 14.0273 688 93.4331 300.853 511.471
1098 0 51.0236 12.4844 637 97.1209 299.392 513.107
1099 0 54.1358 11.8221 640 97.4562 297.409 513.072
1100 0 56.0642 12.1468 681 97.6681 295.865 513.137
1101 0 59.0948 13.5376 800 94.2038 293.654 512.638
1102 0 61.049 13.1861 805 95.5764 291.412 508.266
1103 0 63.0348 13.0404 822 95.8808 289.484 506.017
1104 1 32.0292 10.6465 341 92.8651 288.76 522.563
1105 0 36.0517 11.0674 399 92.4987 287.383 518.599
1106 0 38.0918 13.0474 497 88.825 287.922 516.135
1107 0 38.0451 12.6429 481 90.368 287.27 513.678
1108 0 40.1328 12.5085 502 90.5837 286.309 510.992
1109 0 40.0381 12.2883 492 89.5508 285.921 511.197
1110 0 45.1056 13.6347 615 87.278 285.605 507.889
1111 0 44.1948 13.0106 575 89.6574 286.021 507.358
1112 0 45.1438 12.3827 559 90.4758 287.125 506.605
1113 0 45.1195 12.6775 572 91.0804 288.666 505.799
1114 0 47.1495 12.5558 592 91.4949 289.917 505.081
1115 0 50.213 13.1241 659 90.3445 290.451 505.023
1116 0 52.1515 12.9622 676 91.4201 292.072 503.504
1117 0 52.1959 13.2386 691 90.2663 293.305 503.082
1118 0 54.1611 12.1305 657 92.8448 294.315 504.82
1119 0 57.147 13.3165 761 92.23 296.834 503.619
1120 0 59.17 13.3006 787 93.4727 298.089 502.61
1121 1 29.0196 11.2682 327 95.2202 300.884 517.177
1122 0 33.0508 11.1646 369 93.5637 300.363 520.225
1123 0 34.0204 11.3461 386 97.1684 300.883 518.964
1124 0 36.0072 11.8587 427 97.3607 299.616 520.213
1125 0 39.038 12.2701 479 97.2651 298.524 520.585
1126 0 40.0423 12.262 491 99.2587 296.116 520.216
1127 0 40.2763 12.5136 504 101.135 294.415 522.103
1128 0 42.183 13.1332 554 101.587 293.072 520.722
1129 0 43.2436 13.158 569 103.183 291.805 518.691
1130 0 46.1699 13.9918 646 101.158 289.697 517.277
1131 0 48.3336 13.5516 655 102.389 287.884 515.545
1132 0 50.2784 14.0418 706 101.531 287.18 513.891
1133 0 52.1611 14.6853 766 100.067 286.937 511.161
1134 0 53.1664 13.9562 742 102.79 285.798 509.442
1135 0 53.3644 13.1548 702 105.879 285.55 508.138
1136 0 57.2552 15.0729 863 101.616 286.506 505.534
1137 0 57.3423 14.0211 804 104.856 286.918 504.133
1138 0 60.162 14.7602 888 104.235 286.2 500.872
1139 0 62.2574 12.9462 806 107.964 286.321 499.206
1140 0 65.1882 15.7851 1029 101.833 287.069 498.921
1141 1 34.1458 10.6016 362 110.006 287.704 513.448
1142 0 36.0466 11.3187 408 108.652 289.255 512.596
1143 0 37.0357 12.1234 449 107.646 290.376 512.325
1144 0 39.0575 11.2911 441 106.497 292.082 514.293
1145 0 42.0612 12.3629 520 106.519 294.71 512.469
1146 0 44.0081 13.8156 608 104.107 296.806 511.942
1147 0 46.0509 13.7457 633 105.682 299.209 511.243
1148 0 46.0118 13.9095 640 106.019 299.527 513.33
1149 0 50.0559 13.8046 691 107.075 299.793 513.395
1150 0 51.1173 12.9115 660 109.515 300.438 512.771
1151 0 53.0437 13.8753 736 107.912 297.667 512.872
1152 0 56.1151 13.3297 748 108.447 296.483 512.904
1153 0 58.0615 14.0885 818 107.048 295.806 513.413
1154 0 63.0358 15.0867 951 104.358 294.003 511.07
1155 0 66.0506 13.3231 880 108.052 292.326 509.49
1156 0 69.0405 14.6001 1008 104.413 290.959 508.733
1157 1 34.0154 11.3184 385 107.61 289.665 522.79
1158 0 39.0108 12.3043 480 106.8 288.158 519.323
1159 0 40.0071 10.8481 434 107.194 287.562 520.548
1160 0 41.0116 10.3873 426 108.772 287.364 518.418
1161 0 44.0364 11.4224 503 107.559 286.093 514.437
1162 0 46.1118 12.5564 579 106.788 285.434 511.769
1163 0 48.072 13.3966 644 104.97 285.008 509.424
1164 0 49.084 12.774 627 107.006 285.493 507.746
1165 0 51.0397 13.3034 679 105.175 285.778 505.971
1166 0 53.0742 13.8485 735 104.059 285.275 503.215
1167 0 53.0496 12.6674 672 108.695 286.082 501.68
1168 0 56.2427 13.2106 743 106.311 286.179 501.334
1169 0 59.2096 13.2918 787 104.728 286.949 499.366
1170 0 61.1904 13.5479 829 104.51 287.353 498.133
1171 0 61.2803 12.6468 775 106.323 288.945 498.165
1172 0 64.2265 11.9266 766 108.393 291.095 496.108
1173 0 68.1458 13.5885 926 103.35 292.788 495.562
1174 0 69.2227 12.2792 850 107.727 294.578 495.611
1175 1 36.0668 9.89829 357 106.16 297.154 512.566
1176 0 39.0232 11.5316 450 101.427 298.74 512.42
1177 0 41.1282 10.3579 426 102.338 299.352 513.883
1178 0 43.1958 12.2234 528 101.438 300.074 512.415
1179 0 45.0123 13.1964 594 98.6532 299.768 511.919
1180 0 48.104 13.2837 639 99.3099 299.086 511.493
1181 0 48.0311 11.9714 575 102.64 297.282 513.073
1182 0 49.025 11.5043 564 104.828 296.578 511.023
1183 0 53.0177 12.0337 638 102.418 294.287 510.799
1184 0 57.0268 12.8185 731 100.291 293.264 509.707
1185 0 58.0615 13.1068 761 99.8318 292.102 507.689
1186 0 62.0828 13.1921 819 98.9988 290.888 505.996
1187 0 63.1523 12.8736 813 100.69 289.636 502.897
1188 0 67.0713 14.492 972 95.3807 288.879 501.756
1189 0 68.1204 12.9477 882 99.3469 287.103 498.212
1190 0 72.095 13.0245 939 98.2875 286.512 495.391
1191 1 40.0877 10.053 403 99.6452 286.127 509.231
1192 0 42.0423 9.37151 394 99.5939 286.089 508.784
1193 0 42.0459 10.3934 437 100.854 286.618 504.462
1194 0 44.1708 11.8404 523 97.7323 287.31 501.956
1195 0 45.0902 11.6655 526 97.7243 288.251 502.593
1196 0 47.0697 11.9185 561 96.7273 288.221 502.838
1197 0 50.0944 11.4184 572 98.2115 288.633 499.837
1198 0 53.2391 13.3361 710 94.3761 289.763 498.173
1199 0 53.4702 12.6987 679 96.2194 291.485 498.635
1200 0 55.1972 11.3049 624 98.3878 293.314 497.872
1201 0 59.262 12.0482 714 95.6036 294.983 496.81
1202 0 61.3967 12.9811 797 95.1706 296.467 496.166
1203 1 36.1971 7.03606 121 97.876 298.438 515.207
1204 0 37.1347 8.21278 190 94.5 299.074 516.763
1205 0 38.0824 6.16629 130 100.792 300.692 515.562
1206 0 39.3255 9.95045 252 92.3413 300.361 517.869
1207 0 40.201 10.9156 286 93.4895 300.07 518.08
1208 0 41.2879 9.73832 256 97.9062 298.492 517.98
1209 1 42.3434 11.4776 486 96.5247 297.621 512.842
1210 0 46.2961 12.4201 575 94.4835 295.536 512.565
1211 0 47.0787 12.9358 609 94.1806 294.392 514.266
1212 0 47.1925 12.6503 597 98.6868 293.134 512.203
1213 0 51.181 12.7 650 97.9323 291.38 510.794
1214 0 53.1336 13.0614 694 98.6398 290.062 508.682
1215 0 55.2118 14.055 776 97.4201 288.628 506.464
1216 0 56.3788 13.1432 741 99.5857 287.927 503.377
1217 0 60.338 13.8719 837 97.9235 286.636 500.827
1218 0 61.5886 14.3695 885 97.209 286.608 498.453
1219 0 61.4884 13.7262 844 99.9396 286.738 495.635
1220 0 66.6246 14.1689 944 98.0032 286.861 494.39
1221 0 67.4422 14.4272 973 98.0504 287.372 493.812
1222 0 69.5508 14.5074 1009 100.153 287.386 489.958
1223 0 73.3793 14.8816 1092 98.8187 287.443 489.185
1224 1 35.5626 11.3602 404 105.374 288.522 506.473
1225 0 38.2539 10.9531 419 105.675 289.391 505.723
1226 0 41.3116 12.3694 511 102.857 292.147 506.34
1227 0 43.2287 12.8156 554 101.395 293.531 506.812
1228 0 44.2001 14.1176 624 100.095 295.721 507.244
1229 0 45.1026 13.2365 597 104.302 297.29 506.157
1230 0 49.1855 15.0858 742 99.0121 298.059 506.718
1231 0 47.2395 13.802 652 105.454 299.393 507.373
1232 0 51.2116 13.6297 698 104.784 299.351 507.864
1233 0 54.3287 15.2958 831 101.456 300.084 507.539
1234 0 54.3154 14.158 769 105.629 300.146 508.624
1235 0 57.2188 15.6242 894 102.85 299.024 507.705
1236 0 60.2235 14.0145 844 105.759 298.659 508.566
1237 0 63.1765 15.0531 951 103.387 296.893 507.292
1238 0 67.2792 14.9675 1007 102.628 295.346 506.704
1239 1 35.179 10.2334 360 106.856 293.322 522.261
1240 0 39.2464 11.2877 443 105.472 292.065 519.093
1241 0 40.1671 10.6306 427 104.557 289.963 518.988
1242 0 40.0381 12.4631 499 105.271 289.615 515.603
1243 0 43.095 13.2498 571 103.292 288.184 514.921
1244 0 45.1318 14.3801 649 100.658 287.888 512.18
1245 0 46.0351 15.4447 711 99.3066 287.273 508.764
1246 0 48.1954 14.4827 698 100.106 287.683 509.298
1247 0 46.0429 13.8784 639 105.239 286.263 506.85
1248 0 51.0603 14.571 744 103.31 287.71 504.079
1249 0 53.0511 15.6453 830 100.424 288.776 504.107
1250 0 54.1431 14.591 790 103.797 288.518 503.814
1251 0 53.0855 14.8251 787 106.482 289.493 502.489
1252 0 57.0465 14.7073 839 104.987 289.75 502.453
1253 0 60.1414 15.7961 950 103.254 290.928 502.164
1254 0 62.0776 14.7879 918 107.198 292.356 501.089
1255 0 64.0997 15.6943 1006 105.603 294.117 499.72
1256 0 66.0982 16.6117 1098 105.842 296.094 499.561
1257 0 70.0697 15.8556 1111 108.724 298.693 499.579
1258 0 72.0262 15.9248 1147 111.681 298.83 499.769
1259 1 40.0706 13.0519 523 111.543 299.524 518.078
1260 0 41.0518 12.5208 514 112.85 299.574 519.189
1261 0 41.0573 12.5922 517 115.534 299.538 519.271
1262 0 45.0739 13.9549 629 111.841 298.933 518.817
1263 0 47.0552 13.5373 637 112.761 297.786 519.083
1264 0 49.137 13.961 686 113.685 296.025 517.554
1265 0 51.2082 13.5916 696 114.994 293.27 515.944
1266 0 54.1222 14.1532 766 112.539 291.768 515.155
1267 0 56.1032 15.6675 879 108.407 290.156 512.834
1268 0 58.0897 14.4948 842 112.808 287.726 509.854
1269 0 61.0423 15.1043 922 111.266 287.112 508.761
1270 0 63.0609 14.2719 900 113.947 285.9 505.474
1271 0 64.1437 14.4675 928 113.402 285.9 504.074
1272 0 66.1167 14.0812 931 113.421 285.66 502.208
1273 0 70.119 15.9586 1119 109.428 286.005 497.161
1274 0 73.1812 14.7306 1078 111.477 285.088 496.327
1275 1 36.0553 10.8999 393 114.01 285.567 512.501
1276 0 39.0541 13.1356 513 109.846 286.187 510.283
1277 0 40.0629 11.9812 480 108.792 287.206 511.525
1278 0 41.0654 12.9793 533 110.482 288.568 508.107
1279 0 42.1445 12.1724 513 111.004 290.542 507.69
1280 0 45.0858 13.6629 616 108.576 291.084 507.183
1281 0 47.1684 12.7628 602 110.817 292.42 506.686
1282 0 49.2576 13.8659 683 108.858 294.706 506.023
1283 0 50.3034 13.3589 672 110.787 296.131 505.781
1284 0 53.2891 12.7606 680 111.963 297.844 506.45
1285 0 56.2244 14.0864 792 109.045 299.032 505.12
1286 0 59.128 13.5976 804 110.238 299.541 505.974
1287 0 61.2408 13.2918 814 112.369 300.182 505.904
1288 0 66.2155 14.5434 963 108.073 299.88 504.896
1289 0 68.2785 13.196 901 111.301 298.347 504.229
1290 0 74.2434 14.4525 1073 109 297.17 501.842
1291 1 38.1698 11.0821 423 111.764 295.678 521.598
1292 0 41.2142 10.2877 424 111.656 294.316 520.766
1293 0 43.1341 12.9364 558 108.878 293.016 518.48
1294 0 42.1357 12.0088 506 112.52 291.937 517.534
1295 0 46.218 13.4796 623 108.14 290.83 514.828
1296 0 47.3 13.2347 626 109.965 289.72 512.661
1297 0 49.1056 12.748 626 112.081 289.233 509.035
1298 0 52.0364 12.8564 669 110.525 288.066 508.284
1299 0 53.2214 12.6829 675 112.064 287.135 505.436
1300 0 56.1026 13.2971 746 111.012 286.611 501.914
1301 0 57.0477 13.3748 763 110.596 286.464 500.128
1302 0 60.2363 13.7293 827 108.832 287.467 499.389
1303 0 61.1178 13.1222 802 111.753 288.248 497.57
1304 0 66.2296 13.6344 903 109.313 290.068 496.803
1305 0 67.48 13.3669 902 110.705 290.646 494.905
1306 0 69.349 13.6844 949 109.981 291.857 493.917
1307 1 35.1678 9.35516 329 110.596 293.985 512.693
1308 0 39.1015 11.2783 441 109.166 296.685 509.816
1309 0 39.3498 12.427 489 108.845 297.045 510.28
1310 0 42.1294 12.9601 546 108.233 297.647 508.295
1311 0 44.1858 12.9227 571 108.842 299.417 509.13
1312 0 44.2079 13.0293 576 110.587 299.602 509.038
1313 0 46.2923 12.2483 567 112.24 301.45 510.667
1314 0 48.3215 13.3274 644 110.208 301.863 509.116
1315 0 53.1472 12.8135 681 109.736 301.292 508.764
1316 0 55.1003 13.5571 747 106.307 299.644 509.324
1317 0 58.1106 13.5604 788 107.803 298.728 508.638
1318 0 60.2071 14.3671 865 105.871 297.784 506.076
1319 0 63.2946 13.1765 834 106.592 295.171 506.454
1320 0 66.3139 14.0694 933 104.791 293.639 503.779
1321 0 67.3943 12.642 852 110.457 292.548 501.388
1322 0 72.2826 15.5086 1121 102.538 290.902 499.631
1323 0 73.387 13.3811 982 109.647 289.893 495.708
1324 0 77.3018 13.8419 1070 108.046 288.112 493.492
1325 0 80.3427 14.0647 1130 106.875 288.063 490.698
1326 0 81.2674 13.4371 1092 110.577 287.502 488.639
1327 0 86.3838 13.8915 1200 108.695 287.148 485.644
1328 0 89.3416 14.2375 1272 108.256 287.292 482.883
1329 0 92.4286 14.3246 1324 107.704 288.867 480.088
1330 0 96.3357 14.5429 1401 105.849 290.73 480.98
1331 0 100.306 14.3162 1436 106.191 291.253 476.975
1332 0 102.474 13.6913 1403 107.523 291.639 476.56
1333 0 107.271 14.6359 1570 106.111 292.979 475.996
1334 1 55.2157 11.6452 643 110.274 294.435 499.468
1335 0 59.2702 12.8901 764 106.809 296.452 500.682
1336 0 60.2344 13.5471 816 107.25 298.803 498.714
1337 0 64.3462 13.6294 877 107.155 300.349 499.715
1338 0 66.2215 14.0891 933 106.938 300.594 497.95
1339 0 70.4072 14.3593 1011 105.811 301.552 496.333
1340 0 74.4099 14.3664 1069 106.334 302.719 496.977
1341 1 34.1421 9.98767 341 113.434 302.232 517.176
1342 0 39.2635 11.894 467 108.396 301.092 516.85
1343 0 41.2389 11.882 490 107.963 299.994 516.959
1344 0 43.0794 13.6724 589 105.521 298.333 517.75
1345 0 43.0473 14.8209 638 104.984 296.636 517.682
1346 0 46.1478 14.3669 663 105.649 294.848 516.689
1347 0 48.2203 15.0766 727 104.402 294.098 514.829
1348 0 50.1367 14.0416 704 106.584 292.051 511.841
1349 0 52.3857 14.2214 745 105.541 291.095 511.223
1350 0 55.565 14.5775 810 105.347 289.651 507.436
1351 0 57.5063 14.6419 842 105.525 288.562 505.197
1352 0 58.2353 13.7889 803 109.863 288.583 500.724
1353 0 63.421 14.4905 919 105.726 288.123 500.366
1354 0 64.2979 13.8263 889 109.18 288.199 498.177
1355 0 66.396 14.8503 986 108.145 289.071 493.615
1356 0 70.4043 15.4252 1086 106.622 290.219 494.193
1357 0 73.3144 15.3449 1125 108.643 290.664 491.924
1358 1 37.372 12.4692 466 112.114 291.127 510.045
1359 0 37.3412 11.8636 443 115.126 292.027 510.684
1360 0 39.1377 12.9543 507 114.477 292.203 508.13
1361 0 41.1215 12.2807 505 118.261 294.386 508.232
1362 0 44.0927 13.7665 607 115.679 295.72 509.255
1363 0 46.1156 14.3769 663 114.182 298.25 509.814
1364 0 48.1001 15.343 738 113.736 301.379 509.324
1365 0 50.1813 14.348 720 115.738 301.961 511.069
1366 0 52.2842 14.8611 777 116.138 301.879 508.947
1367 0 55.3268 14.9837 829 117.074 302.286 509.221
1368 0 58.2398 15.2645 889 115.19 301.718 510.548
1369 0 62.3628 16.6125 1036 111.805 299.991 510.386
1370 0 62.374 14.862 927 118.562 298.388 508.698
1371 0 68.2401 15.7678 1076 115.4 296.197 505.687
1372 0 70.2152 14.7974 1039 117.634 295.101 507.723
1373 1 36.2307 12.4204 450 123.187 293.867 521.127
1374 0 39.1911 12.5284 491 121.242 292.874 519.576
1375 0 40.3393 12.0726 487 122.411 290.959 518.696
1376 0 42.1174 12.9638 546 121.65 289.143 515.777
1377 0 43.1938 13.7288 593 121.61 287.583 513.231
1378 0 45.501 13.9557 635 117.953 287.502 511.704
1379 0 48.2389 15.6098 753 113.904 286.485 507.509
1380 0 49.5965 13.7711 683 117.594 285.965 506.332
1381 0 50.3125 15.1255 761 113.528 287.327 505.585
1382 0 53.8187 14.809 797 113.2 287.503 503.309
1383 0 56.4214 15.7919 891 109.244 288.874 501.664
1384 0 57.5108 15.7188 904 111.602 288.625 499.074
1385 0 60.5153 14.8227 897 111.273 290.197 498.336
1386 0 61.586 14.7761 910 112.011 291.836 497.635
1387 0 63.2724 14.888 942 111.377 293.701 497.559
1388 0 67.2575 14.6006 982 111.236 295.701 495.771
1389 1 32.3543 11.6831 378 113.415 298.743 514.288
1390 0 37.404 12.111 453 112.267 299.912 513.96
1391 0 36.3294 11.9738 435 114.329 300.825 514.177
1392 0 41.1766 13.0171 536 110.498 301.884 514.688
1393 0 42.1456 13.8567 584 110.027 301.432 515.038
1394 0 44.3041 14.4908 642 109.925 301.526 514.826
1395 0 46.3875 12.2878 570 114.696 299.86 515.07
1396 0 49.3421 14.2272 702 109.473 299.13 515.595
1397 0 54.3369 15.4591 840 104.923 297.515 514.742
1398 0 54.4218 16.1516 879 103.539 295.968 515.36
1399 0 57.4083 16.3391 938 103.37 294.602 513.249
1400 0 57.375 14.9717 859 107.591 292.575 511.818
1401 0 61.2302 14.3557 879 108.03 291 509.722
1402 0 64.3379 15.5429 1000 104.144 290.463 507.526
1403 0 64.3694 14.3702 925 108.147 288.045 505.132
1404 0 65.3778 14.8368 970 107.904 287.474 503.231
1405 0 69.4422 15.1205 1050 106.449 286.409 499.742
1406 0 73.3306 15.1778 1113 105.432 286.589 497.906
1407 0 74.2012 16.1049 1195 104.143 285.881 494.926
1408 0 79.1634 14.868 1177 105.426 286.323 492.415
1409 1 39.2366 11.8767 466 109.644 287.79 509.899
1410 0 43.2221 14.1594 612 103.722 288.484 509.521
1411 0 43.129 12.4742 538 107.952 289.154 508.595
1412 0 46.0972 13.8403 638 104.71 289.909 508.931
1413 0 49.07 14.7952 726 102.857 291.614 506.895
1414 0 49.1007 15.845 778 101.679 292.977 505.509
1415 0 53.0894 14.711 781 102.408 295.156 506.274
1416 0 55.0735 15.7789 869 101.079 297.345 505.671
1417 0 57.1513 14.2954 817 104.049 298.319 506.383
1418 0 59.1956 14.4099 853 105.375 299.447 504.856
1419 0 63.1274 15.6826 990 103.31 300.232 505.617
1420 0 65.1473 14.8586 968 106.342 299.815 504.793
1421 1 32.0668 13.7837 442 106.982 299.993 521.842
1422 0 36.1844 12.4363 450 108.871 298.629 522.238
1423 0 37.0777 12.4064 460 109.896 297.217 523.193
1424 0 39.1122 14.9059 583 107.961 295.648 521.851
1425 0 41.0675 14.464 594 108.424 294.45 522.21
1426 0 41.0675 15.1945 624 110.321 292.947 519.731
1427 0 43.2069 14.8819 643 110.799 291.81 518.25
1428 0 46.2186 16.0325 741 108.314 289.945 516.722
1429 0 48.1639 16.4438 792 108.189 289.13 514.431
1430 0 51.2538 15.7257 806 108.463 289.341 514.797
1431 0 54.1569 15.9721 865 108.735 288.117 511.766
1432 0 54.0824 17.0296 921 110.169 288.509 508.142
1433 0 55.3855 15.9067 881 115.236 287.524 506.536
1434 0 59.3806 16.3521 971 113.305 287.984 503.953
1435 0 62.4099 16.4718 1028 114.177 288.106 502.94
1436 0 62.7438 15.635 981 118.537 287.08 499.918
1437 0 64.6997 16.167 1046 118.359 287.599 499.159
1438 0 68.5366 16.8523 1155 117.17 289.134 497.982
1439 0 69.3586 16.2777 1129 118.025 290.206 499.413
1440 0 73.351 16.1416 1184 119.376 291.657 496.187
1441 1 37.1054 12.5319 465 128.333 293.297 513.142
1442 0 38.4856 13.4076 516 125.297 295.097 513.752
1443 0 40.5494 14.9941 608 122.814 296.727 513.467
1444 0 41.3378 15.4822 640 124.488 298.439 512.544
1445 0 43.2888 14.8768 644 125.839 299.345 513.578
1446 0 46.1735 16.5246 763 121.857 300.835 513.077
1447 0 48.344 14.8932 720 125.369 300.361 513.699
1448 0 49.2705 14.9583 737 124.908 299.119 513.59
1449 0 52.3757 14.9688 784 124.156 297.786 513.801
1450 0 54.4172 15.5833 848 122.673 296.463 513.197
1451 0 58.2955 15.044 877 122.778 295.174 511.676
1452 0 62.2775 16.0893 1002 118.142 294.053 510.539
1453 0 65.2406 16.7534 1093 116.822 292.41 508.984
1454 0 70.3143 16.8813 1187 114.621 290.206 507.599
1455 0 71.161 16.3432 1163 118.344 289.65 504.083
1456 0 73.1848 17.0527 1248 117.627 289.022 502.29
1457 0 77.2564 16.3223 1261 120.218 287.723 497.001
1458 1 39.0855 12.0761 472 122.242 287.119 515.1
1459 0 44.0558 12.0075 529 120.735 286.132 512.851
1460 0 46.0767 13.8899 640 116.441 285.677 511.034
1461 0 45.0489 13.0969 590 121.202 286.715 508.354
1462 0 47.161 13.4857 636 119.5 286.882 507.366
1463 0 51.0608 13.8266 706 117.118 286.932 507.18
1464 0 50.1439 13.8402 694 118.805 287.493 506.674
1465 0 53.127 15.3971 818 114.617 288.633 504.479
1466 0 54.1377 13.7243 743 118.028 289.381 504.931
1467 0 56.0429 13.3469 748 119.369 290.452 502.848
1468 0 60.1332 13.8858 835 116.431 292.867 503.096
1469 0 63.1047 13.9292 879 116.197 294.966 503.022
1470 0 65.0907 14.1034 918 118.066 296.058 502.487
1471 0 68.1515 13.3673 911 119.48 297.584 502.693
1472 0 70.2579 13.2796 933 121.19 297.757 501.749
1473 0 73.0869 12.6562 925 121.924 298.71 502.45
1474 0 77.1484 13.0528 1007 122.118 299.734 500.502
1475 1 39.0885 10.1308 396 118.139 299.366 521.222
1476 0 43.0597 10.9151 470 117.4 299.372 520.768
1477 0 46.082 11.9569 551 115.417 298.428 521.093
1478 0 47.0367 11.8418 557 114.928 297.018 521.452
1479 0 49.2327 12.7964 630 113.659 295.264 518.486
1480 0 52.1335 12.7749 666 111.38 293.143 516.97
1481 0 51.1109 11.3674 581 115.403 290.935 515.859
1482 0 55.1593 11.8566 654 112.648 289.786 513.83
1483 0 58.1484 12.7261 740 111.761 288.907 509.55
1484 0 61.2769 11.7173 718 113.32 287.802 506.309
1485 0 64.0804 12.4063 795 110.442 287.038 504.882
1486 0 65.1526 13.1998 860 110.345 286.695 502.19
1487 0 68.2372 12.9255 882 111.022 286.844 499.079
1488 1 32.028 10.241 328 108.378 288.387 516.753
1489 0 35.0348 11.246 394 106.629 289.256 513.566
1490 0 38.0134 10.3385 393 107.893 288.29 512.707
1491 0 38.0306 10.8071 411 107.611 289.054 511.577
1492 0 38.0534 11.7467 447 104.83 290.837 511.159
1493 0 40.284 12.4863 503 104.495 291.169 509.489
1494 0 42.2898 11.9887 507 105.112 293.349 510.083
1495 0 43.3206 12.6961 550 103.969 294.607 510.024
1496 0 43.1991 10.1622 439 108.547 296.451 511.087
1497 0 46.2908 11.0605 512 107.484 298.715 510.027
1498 0 49.2075 13.5752 668 100.644 299.939 509.016
1499 0 50.1775 11.9177 598 104.055 299.348 510.635
1500 0 54.3125 13.3855 727 100.215 299.316 509.717
1501 0 57.431 13.7905 792 99.3232 298.715 509.126
1502 0 58.2031 12.4048 722 103.197 298.19 507.904
1503 1 30.0373 10.0209 301 103.601 297.99 524.791
1504 0 31.0136 10.1246 314 102.92 296.86 525.79
1505 0 32.1406 10.5163 338 101.34 295.08 527.148
1506 0 36.1178 11.1302 402 103.072 293.381 522.458
1507 0 37.0736 12.6775 470 100.664 292.304 520.27
1508 0 38.1484 12.7922 488 102.541 290.465 519.766
1509 0 40.0717 13.1265 526 102.124 289.856 517.99
1510 0 41.1847 13.1845 543 101.586 288.116 517.109
1511 0 42.1758 13.1829 556 102.84 286.376 513.755
1512 0 42.1145 12.8697 542 104.684 286.504 513.515
1513 0 45.0483 13.0304 587 104.543 286.092 509.808
1514 0 45.1078 12.2817 554 107.478 285.946 507.339
1515 0 48.1379 12.6304 608 106.086 285.854 506.789
1516 0 49.0756 12.3075 604 108.487 285.238 504.687
1517 0 50.1569 13.8964 697 105.888 286.321 503.148
1518 0 52.0751 12.3092 641 109.103 286.934 502.402
1519 0 54.1209 12.9155 699 107.741 287.599 500.153
1520 0 58.1509 13.7057 797 104.236 288.078 499.659
1521 0 59.1696 12.8613 761 108.007 289.582 500.049
1522 0 63.208 14.1596 895 105.493 290.593 497.958
1523 0 64.2609 12.8694 827 110.262 292.952 496.837
1524 1 35.069 11.9764 420 111.774 295.219 511.84
1525 0 34.1132 10.0254 342 116.187 296.453 513.526
1526 0 35.1899 9.8892 348 120.187 297.615 513.376
1527 0 39.124 10.7862 422 115.936 298.405 515.78
1528 0 38.1129 11.5447 440 119.945 299.248 515.918
1529 0 40.2213 13.2766 534 117.418 299.062 516.077
1530 0 43.1804 13.5478 585 117.029 298.012 515.357
1531 0 45.2433 13.0185 589 119.239 297.197 517.085
1532 0 46.2073 13.0066 601 119.033 295.105 517.631
1533 0 50.1714 13.6333 684 116.866 292.792 515.246
1534 0 52.387 14.6029 765 113.669 290.966 515.199
1535 0 52.3191 13.6279 713 117.927 289.735 512.879
1536 0 56.3267 14.5402 819 113.443 288.788 509.451
1537 0 58.1342 14.3289 833 113.732 287.924 507.585
1538 0 61.1576 15.6644 958 110.715 286.539 505.034
1539 0 64.228 14.5108 932 110.59 285.734 504.721
1540 0 65.3245 14.5887 953 110.769 285.477 501.6
1541 0 67.3147 14.2168 957 111.573 284.794 497.793
1542 1 38.0512 11.5371 439 111.592 284.551 511.697
1543 0 39.0303 10.4278 407 111.764 285.192 510.948
1544 0 39.0819 10.7211 419 112.413 286.153 508.897
1545 0 42.0371 11.5136 484 109.019 287.211 509.078
1546 0 43.0497 11.4519 493 107.919 287.452 508.69
1547 0 47.0764 11.6831 550 106.736 289.22 506.856
1548 0 47.0651 12.7483 600 104.387 291.515 507.072
1549 0 50.0333 13.6109 681 102.182 293.126 505.871
1550 0 52.0228 14.2822 743 99.6003 294.41 505.75
1551 0 56.0426 12.3121 690 102.206 296.645 506.61
1552 0 57.0406 13.8498 790 100.657 298.034 505.896
1553 0 58.0381 12.9398 751 103.716 299.017 505.613
1554 0 62.1327 13.6965 851 100.724 299.333 505.558
1555 0 63.106 13.9765 882 102.396 299.276 503.526
1556 0 67.055 12.6165 846 103.94 298.696 504.777
1557 0 69.1082 13.3559 923 103.915 297.962 503.116
1558 0 74.108 12.6842 940 105.147 297.36 504.216
1559 1 37.0924 9.70549 360 107.786 295.483 520.942
1560 0 40.074 11.4788 460 104.233 294.385 521.574
1561 0 43.0279 12.9916 559 101.538 292.835 519.814
1562 0 45.1301 12.2756 554 100.922 291.067 519.801
1563 0 43.1747 12.9706 560 103.177 290.571 517.211
1564 0 48.089 12.9344 622 101.923 289.852 515.109
1565 0 48.1613 12.7904 616 103.568 288.494 513.136
1566 0 50.2125 14.2594 716 101.133 287.707 509.728
1567 0 53.1559 14.4857 770 100.252 287.727 508.575
1568 0 53.1019 12.9751 689 104.055 287.965 507.091
1569 0 55.1259 13.6959 755 103.162 286.592 504.081
1570 0 58.0971 13.0643 759 103.551 286.733 502.411
1571 0 60.1701 13.5948 818 101.23 287.518 500.808
1572 0 63.124 13.5765 857 101.166 287.513 496.838
1573 0 64.2449 14.04 902 100.02 288.963 496.959
1574 0 66.2579 13.7795 913 101.221 289.727 496.148
1575 0 70.2137 13.3022 934 102.19 291.263 493.912
1576 0 74.2261 14.5097 1077 99.7094 291.962 492.731
1577 0 75.2058 14.0282 1055 101.036 293.675 492.535
1578 0 78.3595 14.1527 1109 101.129 295.656 493.098
1579 0 82.4245 14.9228 1230 100.285 296.788 491.405
1580 0 84.3238 13.7921 1163 103.837 300.042 489.945
1581 0 90.3579 14.6307 1322 102.351 300.758 490.489
1582 1 48.3257 10.6362 514 107.955 301.654 512.681
1583 0 50.2808 11.038 555 108.286 300.375 511.704
1584 0 53.2901 11.8784 633 105.907 299.196 511.987
1585 0 55.1246 13.025 718 105.315 298.377 512.174
1586 0 56.1322 12.4171 697 106.65 297.227 511.963
1587 0 60.3254 14.7036 887 101.256 296.283 511.298
1588 0 61.357 13.5437 831 105.267 293.993 510.026
1589 0 65.2904 14.2747 932 102.443 292.032 506.438
1590 0 68.3756 14.1717 969 102.667 291.042 504.495
1591 0 71.2659 13.7653 981 103.618 289.348 502.504
1592 0 74.3748 14.6555 1090 102.707 288.296 499.724
1593 0 79.3327 15.2774 1212 98.6205 287.434 498.384
1594 0 80.3239 14.0556 1129 103.655 287.078 493.748
1595 0 83.3041 14.141 1178 103.896 286.936 492.133
1596 0 88.373 15.4346 1364 100.163 286.952 489.249
1597 0 91.3018 15.4104 1407 100.137 286.768 488.066
1598 0 92.5148 14.3112 1324 103.756 287.833 483.635
1599 0 97.469 14.856 1448 101.549 288.494 482.68
1600 1 50.1336 10.8111 542 104.755 290.426 505.472
1601 0 53.1778 11.6966 622 104.362 289.984 503.005
1602 0 53.1642 11.8125 628 106.358 290.449 500.631
1603 0 58.2694 13.0944 763 102.377 291.174 502.544
1604 0 60.2879 12.855 775 104.347 292.912 498.986
1605 0 64.1869 13.523 868 101.995 294.685 500.066
1606 0 65.353 14.766 965 100.192 296.406 496.712
1607 0 69.2254 13.8244 957 101.254 298.186 499.059
1608 0 72.3288 13.7704 996 101.215 298.7 497.039
1609 0 76.4165 13.8844 1061 101.723 300.099 496.811
1610 0 79.1951 13.7635 1090 102.276 300.786 497.915
1611 0 83.373 14.5491 1213 102.156 299.796 494.919
1612 0 87.3161 15.0717 1316 101.256 298.556 491.945
1613 0 93.4975 15.1983 1421 99.4898 298.092 493.38
1614 0 97.15 16.4385 1597 98.0977 296.446 489.994
1615 1 52.2285 8.7883 459 107.736 296.294 516.726
1616 0 53.2115 11.4449 609 104.65 294.358 512.458
1617 0 56.1465 11.1494 626 104.126 292.345 511.85
1618 0 57.265 12.7478 730 101.97 291.014 509.453
1619 0 61.2636 12.6176 773 102.387 289.419 505.762
1620 0 65.1525 14.3663 936 98.4733 288.846 502.764
1621 0 65.3482 13.604 889 101.359 288.28 501.175
1622 0 69.3324 15.0435 1043 97.4765 287.877 498.324
1623 0 74.2884 14.1072 1048 96.8349 288.357 496.656
1624 0 73.1142 12.6378 924 102.374 287.808 493.943
1625 0 78.3332 14.3107 1121 98.5219 288.037 489.631
1626 0 82.2479 14.8332 1220 96.3057 288.629 488.396
1627 0 83.1889 13.4994 1123 100.046 289.256 486.424
1628 0 86.168 12.8586 1108 101.242 289.464 483.896
1629 0 90.2018 13.9243 1256 99.3328 290.625 480.693
1630 0 95.2157 13.8423 1318 98.3179 291.081 480.914
1631 1 51.0302 11.4834 586 95.9181 292.71 504.046
1632 0 53.1213 12.6503 672 93.2857 294.382 503.454
1633 0 54.0435 12.2494 662 93.1057 296.014 503.856
1634 0 58.1195 12.9733 754 90.5358 297.088 504.092
1635 0 60.0851 14.2132 854 88.6429 298.372 502.889
1636 0 61.0854 12.9 788 91.9645 299.308 503.679
1637 0 64.0825 13.3266 854 90.3782 299.548 503.924
1638 0 63.1087 12.1219 765 94.9608 299.295 502.041
1639 0 68.1156 12.4054 845 93.7929 298.572 501.149
1640 0 71.0892 11.5348 820 93.8354 298.841 503.42
1641 0 74.1515 13.0678 969 91.7575 297.792 502.112
1642 0 78.1511 13.7938 1078 90.2764 295.985 500.481
1643 1 39.029 8.94207 349 92.894 295.567 522.372
1644 0 45.0169 9.97403 449 89.6058 293.998 520.886
1645 0 45.0336 10.0592 453 92.4172 292.287 517.024
1646 0 47.0517 12.2631 577 88.8388 291.799 513.962
1647 0 47.2049 10.232 483 91.9689 289.072 514.565
1648 0 50.3091 12.2642 617 87.9173 287.4 511.569
1649 0 49.2904 12.5177 617 89.3776 287.222 508.138
1650 0 52.1537 11.3127 590 91.3254 285.741 507.502
1651 0 54.2302 12.5022 678 88.7537 285.923 504.538
1652 0 57.1577 12.4043 709 87.7884 286.948 503.291
1653 0 58.2303 12.2788 715 88.1594 286.523 500.231
1654 0 61.2618 13.7769 844 85.1623 287.421 498.392
1655 0 60.3502 11.9635 722 89.3033 288.745 496.519
1656 0 65.2323 12.923 843 88.255 289.477 496.362
1657 0 66.3547 12.7798 848 87.8054 290.475 495.857
1658 0 70.3235 13.7792 969 84.6182 291.3 493.369
1659 0 72.3041 12.5719 909 86.6711 292.867 494.855
1660 0 77.4233 14.2722 1105 83.6462 293.719 493.983
1661 1 41.0195 9.92211 407 89.0147 296.926 512.233
1662 0 42.0586 10.4378 439 88.5854 298.298 512.248
1663 0 44.0218 11.676 514 87.5642 298.582 511.453
1664 0 43.0249 11.1796 481 89.7048 299.285 513.012
1665 0 47.0316 12.1833 573 88.4538 298.853 512.517
1666 0 48.0978 13.1191 631 86.607 298.822 512.946
1667 0 50.0713 13.1612 659 87.9909 297.102 512.639
1668 0 52.0853 13.3243 694 87.8919 297.239 513.393
1669 0 56.1742 13.6184 765 86.4745 295.718 514.443
1670 0 58.146 14.2572 829 85.3848 294.542 510.975
1671 0 60.1469 13.6499 821 86.4823 292.437 508.627
1672 0 62.2245 13.837 861 85.8525 290.65 508.367
1673 0 66.1276 14.2301 941 85.3443 289.182 505.674
1674 0 66.1048 13.9929 925 86.4573 287.809 504.181
1675 1 35.0518 9.41463 330 90.4515 286.67 518.388
1676 0 36.0305 11.2682 406 89.436 285.564 515.692
1677 0 36.0916 9.78067 353 89.4419 285.076 516.864
1678 0 38.0644 9.95682 379 91.0211 284.823 511.918
1679 0 41.1037 11.8967 489 88.0286 286.701 510.988
1680 0 42.0563 12.5308 527 87.0417 285.461 507.397
1681 0 43.0459 12.7074 547 87.5393 285.651 506.201
1682 0 45.1642 12.6427 571 86.9177 285.138 505.445
1683 0 44.1253 12.7591 563 87.8455 286.128 504.247
1684 0 47.1996 13.1357 620 87.0806 286.587 502.86
1685 0 50.1954 14.0252 704 84.7159 287.571 502.98
1686 0 50.203 12.9474 650 87.4369 289.808 502.14
1687 0 53.3707 12.6661 676 88.0311 291.006 501.438
1688 0 54.1958 14.0601 762 86.1562 292.655 500.74
1689 0 57.2953 13.7533 788 86.9112 294.374 500.145
1690 0 59.1529 13.8117 817 86.989 295.886 500.732
1691 0 61.1029 13.6164 832 87.899 297.611 501.198
1692 0 64.1853 14.0687 903 87.4585 298.009 501.873
1693 0 66.1285 12.8084 847 89.2692 298.656 500.92
1694 1 35.044 10.2728 360 88.8306 298.411 517.517
1695 0 38.0159 10.7324 408 87.6789 297.583 518.412
1696 0 40.1736 12.4211 499 86.1323 296.625 518.124
1697 0 40.0658 11.9553 479 87.5282 294.758 518.154
1698 0 42.1119 12.8705 542 87.4982 293.889 517.515
1699 0 43.0974 11.7408 506 91.5356 293.065 516.476
1700 0 46.0372 13.8149 636 88.3695 292.497 515.303
1701 0 46.0466 13.2475 610 91.6623 291.826 512.948
1702 0 48.077 13.6448 656 91.1433 290.069 510.572
1703 0 49.1744 13.0759 643 92.3701 288.121 510.81
1704 0 50.1638 12.9775 651 93.4255 288.092 507.834
1705 0 54.0673 13.8531 749 91.3698 287.603 505.107
1706 0 54.1124 13.1578 712 94.5295 286.298 501.605
1707 0 56.1517 12.6977 713 96.2468 285.867 499.687
1708 0 59.1215 14.4787 856 92.0222 287.178 499.29
1709 0 60.1772 13.7095 825 94.8218 287.806 496.056
1710 0 63.0638 13.1613 830 96.2614 288.677 495.223
1711 0 67.1279 13.6307 915 93.8721 289.196 494.507
1712 1 34.0927 9.38618 320 98.325 290.906 510.666
1713 0 37.0529 11.2002 415 94.5349 292.159 510.913
1714 0 38.1397 11.0908 423 99.3972 293.047 508.572
1715 0 40.064 12.3303 494 97.6518 295.063 509.174
1716 0 40.1942 12.0415 484 101.101 296.469 508.035
1717 0 43.3574 12.2701 532 100.536 298.534 509.838
1718 0 45.177 13.5246 611 98.91 299.759 508.141
1719 0 48.2507 14.4868 699 95.9084 300.421 509.299
1720 0 48.0682 13.4184 645 102.522 300.912 509.851
1721 0 51.1306 14.1598 724 99.6588 300.761 508.616
1722 0 51.1097 13.4808 689 103.778 300.451 510.028
1723 0 55.0628 12.2769 676 105.655 299.21 510.271
1724 0 58.1102 13.6293 792 102.97 298.295 510.208
1725 0 57.1323 12.6898 725 107.474 297.593 508.76
1726 0 63.2438 15.2426 964 99.5208 295.882 507.539
1727 0 66.2178 14.0446 930 101.646 294.408 506.837
1728 0 68.1664 14.5526 992 100.578 293.238 504.885
1729 0 69.2261 14.951 1035 101.163 292.473 500.886
1730 0 72.2905 14.2066 1027 102.794 290.622 499.43
1731 1 38.3481 12.1518 466 104.178 289.702 514.367
1732 0 38.1229 9.54808 364 107.288 289.665 515.269
1733 0 40.2832 12.0646 486 105.214 287.996 511.119
1734 0 43.2773 13.7254 594 101.438 287.732 508.448
1735 0 45.1963 13.3861 605 101.23 287.772 506.635
1736 0 47.3204 14.4124 682 98.7551 288.757 505.271
1737 0 46.2731 12.7288 589 103.973 288.883 504.183
1738 0 47.1329 14.3636 677 101.143 289.4 503.254
1739 0 50.0433 13.3884 670 103.082 291.151 501.669
1740 0 51.0733 14.9393 763 100.803 291.4 500.497
1741 0 53.0417 13.0841 694 104.164 292.331 501.11
1742 0 56.0672 13.894 779 100.507 294.463 502.997
1743 0 57.162 13.7504 786 101.471 295.966 501.005
1744 0 61.1345 14.28 873 99.3322 297.329 499.45
1745 0 62.1977 14.6308 910 99.6516 298.926 499.422
1746 0 66.1022 13.9178 920 100.576 300.207 499.733
1747 0 69.0618 14.6825 1014 99.0247 300.709 499.789
1748 1 36.0952 12.4116 448 101.004 301.444 517.19
1749 0 35.0362 10.6176 372 105.043 300.858 517.836
1750 0 39.0312 11.3243 442 102.819 300.968 519.251
1751 0 42.0212 13.755 578 99.3062 300.701 518.213
1752 0 44.0435 14.0089 617 100.352 299.128 518.329
1753 0 46.1443 14.0862 650 101.183 297.382 517.803
1754 0 46.1784 13.123 606 103.884 296.226 516.015
1755 0 48.1222 14.8372 714 100.566 293.562 513.734
1756 0 50.3265 14.1278 711 101.707 291.858 512.956
1757 0 51.1393 15.1938 777 101.431 290.523 510.109
1758 0 54.156 14.1259 765 103.403 289.592 509.425
1759 0 57.1918 14.1454 809 103.645 289.222 506.271
1760 0 61.196 14.1349 865 102.05 288.362 505.295
1761 0 61.1769 14.4172 882 102.788 288.593 502.668
1762 0 64.2477 14.304 919 103.096 287.557 498.838
1763 1 31.0338 11.1491 346 106.725 288.798 514.642
1764 0 34.072 12.3562 421 103.596 289.074 513.869
1765 0 34.1986 12.135 415 103.87 290.282 513.757
1766 0 35.0355 11.8451 415 106.031 290.101 511.73
1767 0 38.0338 12.5941 479 104.39 291.202 511.503
1768 0 40.0054 11.9484 478 105.77 291.536 510.559
1769 0 41.1073 13.039 536 104.235 292.082 510.151
1770 0 45.125 14.4488 652 99.8006 293.371 510.845
1771 0 46.2051 14.414 666 99.521 295.428 512.348
1772 0 46.1031 14.1639 653 102.916 296.856 511.692
1773 0 48.2148 13.4813 650 103.917 298.788 512.845
1774 0 52.1515 14.2853 745 101.984 299.621 511.646
1775 0 54.3418 13.0471 709 105.657 300.474 513.276
1776 0 56.2345 14.2084 799 106.374 300.203 511.138
1777 0 59.1587 13.6413 807 105.831 299.885 513.073
1778 0 63.0763 15.5367 980 103.406 298.345 510.458
1779 1 36.0143 10.9123 393 107.298 297.506 525.997
1780 0 38.1455 13.5796 518 102.108 295.967 524.834
1781 0 39.1918 12.5281 491 107.593 293.804 521.356
1782 0 41.0609 12.4206 510 108.182 291.926 519.818
1783 0 43.1774 13.5488 585 106.656 290.371 517.961
1784 0 45.1711 13.9027 628 106.091 288.842 515.599
1785 0 46.2614 13.6399 631 106.91 287.693 515.078
1786 0 47.1971 12.7974 604 110.118 286.49 512.624
1787 0 50.2394 12.5201 629 110.288 286.24 510.693
1788 0 52.1899 14.179 740 106.27 286.034 509.158
1789 0 53.2313 14.0894 750 106.645 286.213 508.172
1790 0 57.1506 14.3306 819 106.335 286.256 504.696
1791 0 57.2555 14.4266 826 107.137 286.4 502.355
1792 0 59.2519 13.4848 799 109.249 287.532 500.701
1793 0 62.1402 14.1132 877 107.276 287.156 500.101
1794 0 64.1733 12.9493 831 110.253 288.427 497.255
1795 0 68.0707 14.7347 1003 105.081 289.542 496.122
1796 0 70.2118 13.8723 974 107.946 290.025 495.854
1797 0 73.1784 14.5945 1068 106.089 291.523 495.999
1798 0 76.1194 13.978 1064 108.326 292.39 493.086
1799 0 79.0947 14.6407 1158 107.427 294.718 492.785
1800 0 81.1911 13.3882 1087 110.512 295.722 493.934
1801 0 85.1657 14.6538 1248 109.062 296.845 490.763
1802 0 89.1614 13.8737 1237 111.097 297.479 489.926
1803 0 93.1511 14.5677 1357 109.472 298.097 489.855
1804 0 98.1463 14.3052 1404 110.525 298.18 488.112
1805 0 104.262 15.3267 1598 107.357 297.178 487.96
1806 1 55.038 11.81 650 109.071 296.471 511.672
1807 0 57.0487 11.7794 672 107.699 294.997 513.089
1808 0 60.0711 12.0857 726 108.934 293.041 509.935
1809 0 63.1059 12.9782 819 106.878 291.719 506.354
1810 0 67.116 13.2308 888 105.467 289.878 503.928
1811 0 72.1687 13.8426 999 102.495 288.842 501.241
1812 0 74.1833 14.1946 1053 102.14 288.266 499.858
1813 0 77.1808 13.734 1060 103.731 286.538 495.278
1814 0 81.1649 14.4767 1175 101.237 286.054 492.679
1815 1 39.012 8.56146 334 105.56 287.335 510.802
1816 0 43.0319 9.57429 412 105.083 287.044 508.01
1817 0 45.0432 10.6342 479 102.455 287.159 505.597
1818 0 46.0692 11.461 528 101.184 288.985 504.646
1819 0 49.0173 12.8322 629 96.5978 289.541 503.277
1820 0 50.0784 11.7016 586 98.4693 290.311 503.724
1821 0 51.0538 12.6729 647 98.8995 291.926 499.292
1822 0 53.0598 13.8334 734 96.8297 292.323 499.286
1823 0 55.0118 12.5064 688 100.219 292.894 499.698
1824 0 56.0503 12.0606 676 101.127 294.126 499.537
1825 0 59.1118 13.0938 774 99.8346 294.726 498.804
1826 0 61.1061 12.1265 741 103.144 297.772 498.708
1827 0 64.161 13.3103 854 100.445 299.008 499.015
1828 0 66.1437 13.4102 887 100.044 300.14 498.408
1829 0 68.0933 13.3493 909 100.833 301.648 498.147
1830 0 73.257 14.5242 1064 98.1212 301.647 497.66
1831 0 77.2026 13.5099 1043 101.286 301.664 498.848
1832 1 43.2797 10.2589 444 101.304 301.705 516.11
1833 0 44.2158 10.9237 483 99.7516 299.884 515.718
1834 0 44.353 11.3183 502 98.7649 298.791 516.749
1835 0 46.1063 10.7794 497 102.066 296.704 513.664
1836 0 46.0955 10.6952 493 103.227 295.093 512.377
1837 0 48.1226 11.637 560 101.189 293.905 510.959
1838 0 53.0725 12.4547 661 99.0484 292.961 510.436
1839 0 53.1003 12.693 674 99.5371 291.384 508.221
1840 0 56.1803 13.0295 732 99.1025 290.406 506.105
1841 0 53.1576 12.5288 666 102.574 289.625 502.53
1842 0 57.4564 13.1926 758 99.5752 289.753 501.154
1843 0 61.4183 15.2886 939 94.6305 289.455 498.407
1844 0 61.3368 13.7112 841 99.3983 289.6 494.633
1845 0 61.4103 13.19 810 101.746 289.44 492.838
1846 0 66.35 14.0467 932 98.4109 289.933 493.269
1847 0 68.5154 13.8509 949 98.901 289.525 491.687
1848 0 69.2703 14.4073 998 99.0892 291.009 488.626
1849 0 72.3281 14.5172 1050 98.2981 290.572 488.27
1850 0 73.541 13.3939 985 101.334 292.484 487.784
1851 1 39.2543 9.9607 391 97.688 294.647 507.087
1852 0 41.1648 10.0329 413 98.9806 295.039 505.939
1853 0 42.1385 10.5367 444 97.9752 297.212 506.254
1854 0 43.0291 11.5271 496 97.3125 298.353 506.202
1855 0 44.0915 11.4081 503 99.4215 299.95 506.592
1856 0 48.1267 12.6125 607 96.3542 301.097 507.451
1857 0 49.0273 11.8709 582 98.012 302.031 507.622
1858 0 49.2052 13.0474 642 97.3567 301.43 508.089
1859 0 52.1922 12.933 675 97.923 301.339 508.507
1860 0 54.2145 13.2437 718 98.5195 300.309 508.561
1861 0 55.2043 13.1149 724 99.2528 300.145 508.92
1862 0 56.2899 12.4001 698 101.168 297.927 509.024
1863 0 58.1899 12.0124 699 101.866 296.403 507.056
1864 0 63.2044 12.7206 804 98.8209 294.832 505.546
1865 0 65.2078 12.6365 824 100.626 293.335 503.234
1866 0 65.311 12.3869 809 102.574 291.984 499.466
1867 0 69.1666 13.4747 932 99.0633 291.069 501
1868 0 72.1551 12.7087 917 100.145 290.085 498.775
1869 0 75.2163 13.8401 1041 98.195 289.079 494.122
1870 1 38.0235 9.62562 366 100.432 289.396 511.251
1871 0 41.0758 10.4441 429 99.6737 288.576 506.217
1872 0 43.0479 12.0331 518 96.7587 288.133 504.527
1873 0 45.0858 10.8238 488 97.5943 288.971 504.477
1874 0 47.0331 12.5656 591 94.6548 289.843 500.839
1875 0 48.023 12.1817 585 95.4 290.106 500.48
1876 0 48.0886 12.0819 581 95.3614 289.683 500.324
1877 0 50.1399 11.5876 581 95.5077 290.58 500.962
1878 0 51.1416 12.7294 651 95.1966 291.412 497.438
1879 0 52.0919 12.4779 650 96.8969 292.34 497.069
1880 0 56.0929 13.6381 765 91.9804 293.908 496.297
1881 0 56.1928 12.6173 709 95.6276 295.63 497.818
1882 0 61.1645 13.1612 805 94.6286 297.18 497.421
1883 0 62.1049 12.7365 791 97.0442 298.719 496.654
1884 0 64.1151 14.1464 907 95.8953 299.592 496.423
1885 0 67.1064 12.5472 842 99.7755 299.872 498.145
1886 1 38.0596 10.4573 398 98.005 301.578 514.796
1887 0 37.0566 9.87677 366 101.262 300.489 515.598
1888 0 39.1276 10.3507 405 100.921 299.548 514.815
1889 0 42.0272 12.8488 540 95.7018 298.613 516.309
1890 0 43.0609 12.7262 548 97.2482 297.839 514.881
1891 0 45.0103 11.2863 508 100.994 296.36 514.201
1892 0 46.2173 12.8523 594 98.8518 293.801 512.397
1893 0 48.2272 13.3742 645 98.1814 292.104 511.853
1894 0 51.2992 12.7292 653 98.8239 290.587 507.994
1895 0 52.2092 13.3502 697 98.6557 289.059 507.128
1896 0 54.1965 13.3219 722 100.048 287.641 504.09
1897 0 56.2144 13.8221 777 100.039 288.318 502.059
1898 0 57.1595 14.7307 842 99.3254 287.666 501.106
1899 0 59.1518 13.5752 803 101.672 287.123 496.207
1900 0 64.2957 12.9713 834 102.331 287.598 495.397
1901 0 64.1972 12.0254 772 105.066 287.926 494.359
1902 0 68.1572 13.1754 898 102.772 288.415 490.6
1903 0 72.1876 15.7922 1140 97.0061 289.105 488.018
1904 0 73.1626 13.5999 995 101.534 290.371 487.765
1905 1 39.14 9.55545 374 106.324 291.521 504.406
1906 0 41.0828 9.88249 406 104.771 292.081 504.086
1907 0 43.1634 12.0009 518 99.6023 293.1 505.66
1908 0 45.089 11.6215 524 103.254 296.141 503.8
1909 0 49.0734 12.7156 624 101.296 298.244 503.162
1910 0 49.0331 12.2366 600 104.438 298.598 503.588
1911 0 51.1276 12.4199 635 103.321 300.151 504.227
1912 0 54.0518 12.229 661 104.725 301.893 503.319
1913 0 53.0398 11.9344 633 106.335 302.166 505.643
1914 0 57.1022 12.9942 742 103.92 302.199 503.945
1915 0 59.0983 13.2322 782 104.529 301.375 504.377
1916 0 59.2026 12.2292 724 106.865 300.45 504.941
1917 0 62.1492 12.8883 801 106 298.407 504.247
1918 0 66.0812 13.0748 864 105.281 298.078 503.412
1919 0 69.0614 13.307 919 105.449 296.683 503.067
1920 0 71.0489 13.174 936 105.09 294.515 499.95
1921 0 74.1825 13.8308 1026 103.795 293.713 500.019
1922 0 77.3664 13.882 1074 103.469 292.58 497.247
1923 0 83.2333 14.7177 1225 101.173 290.672 493.941
1924 1 44.0298 9.28917 409 107.675 290.325 513.357
1925 0 46.0438 9.38237 432 106.743 289.368 511.493
1926 0 47.0997 11.2739 531 104.16 289.026 509.139
1927 0 51.1344 12.0467 616 102.305 288.513 505.687
1928 0 50.0458 11.3096 566 104.82 289.168 504.106
1929 0 52.0682 11.6002 604 105.581 289.386 500.772
1930 0 55.042 11.6457 641 104.683 289.298 497.598
1931 0 58.0387 13.5771 788 100.626 289.162 498.275
1932 0 58.0444 12.0253 698 104.732 289.426 499.381
1933 0 62.0758 13.7896 856 100.407 289.81 496.973
1934 0 63.0445 13.2287 834 100.526 290.51 496.948
1935 0 66.0207 13.3443 881 100.88 291.733 494.998
1936 0 68.1101 13.0524 889 100.775 293.781 495.95
1937 0 71.088 12.4212 883 100.25 295.265 496.211
1938 0 76.2645 13.427 1024 98.3799 297.207 494.122
1939 0 78.1145 12.7505 996 99.4076 297.947 494.06
1940 0 84.0964 14.7807 1243 94.4344 298.009 490.957
1941 1 45.0465 10.2117 460 95.8478 299.12 515.676
1942 0 50.1068 10.0186 502 97.3944 298.653 514.392
1943 0 50.1655 10.6647 535 97.0112 297.908 513.256
1944 0 53.2373 12.5476 668 92.1123 297.338 514.305
1945 0 57.0802 12.5613 717 91.2594 296.191 514.003
1946 0 58.0893 14.7015 854 90.1194 295.066 513.104
1947 0 61.0872 13.4398 821 91.6443 293.385 511.657
1948 0 62.1339 14.2273 884 91.1029 291.498 508.843
1949 0 64.0376 12.7269 815 93.6785 289.663 507.383
1950 0 68.054 13.3276 907 92.6571 288.797 505.493
1951 0 70.0601 13.3029 932 92.2725 287.802 505.66
1952 0 74.1632 14.6973 1090 91.3394 286.184 501.251
1953 0 77.1761 14.9528 1154 90.7643 284.446 499.337
1954 0 79.1961 14.6219 1158 90.9767 284.051 494.519
1955 0 83.2613 15.3493 1278 89.5649 284.099 492.265
1956 1 43.0225 9.71586 418 97.1244 283.359 510.072
1957 0 46.064 10.7676 496 94.3871 283.984 507.956
1958 0 47.0886 10.8094 509 94.5717 284.701 506.684
1959 0 48.0984 10.6656 513 95.1092 285.415 504.111
1960 0 52.271 13.1622 688 90.452 287.033 502.238
1961 0 55.5389 12.6398 702 90.4957 288.121 502.208
1962 0 56.0901 13.4962 757 90.469 289.534 499.886
1963 0 58.1402 13.4158 780 90.3987 290.492 501.045
1964 0 60.0668 14.8501 892 88.8599 292.303 499.075
1965 0 61.1347 13.5602 829 92.2895 293.048 499.379
1966 0 64.1621 11.5177 739 96.9066 294.88 499.088
1967 0 66.2023 13.2473 877 94.1893 295.96 500.865
1968 0 73.1896 13.2942 973 93.1244 296.579 500.424
1969 0 73.1933 13.0203 953 95.787 296.88 499.964
1970 0 76.1164 13.4399 1023 96.2502 297.532 499.24
1971 0 80.262 13.6179 1093 96.516 296.354 498.21
1972 0 86.3672 13.9289 1203 95.5653 295.302 497.651
1973 1 47.2454 10.5619 499 95.1042 295.463 519.122
1974 0 47.4411 10.1178 480 96.5729 294.504 517.208
1975 0 51.3607 9.73507 500 97.976 292.744 515.872
1976 0 54.3446 11.2247 610 97.2672 290.761 512.626
1977 0 55.3453 11.1663 618 97.7638 289.086 509.43
1978 0 58.2818 11.7018 682 95.7991 287.786 507.757
1979 0 60.2633 11.7318 707 98.0934 286.844 505.484
1980 0 61.282 12.108 742 97.9515 285.073 502.853
1981 0 64.2403 13.1693 846 96.3097 284.693 501.111
1982 0 66.2991 12.0364 798 97.3571 284.617 497.794
1983 0 69.26 12.9368 896 96.2534 284.461 494.59
1984 0 72.2896 12.9479 936 96.2959 284.542 493.63
1985 0 74.3413 12.2946 914 97.7899 285.163 490.547
1986 0 78.3899 13.0757 1025 95.4605 286.501 490.738
1987 0 81.2585 12.7864 1039 96.7286 287.072 487.238
1988 0 85.316 13.7958 1177 94.6287 288.424 486.731
1989 0 88.5421 13.5868 1203 95.0939 289.048 486.078
1990 1 46.1693 9.44351 436 98.2729 291.009 505.739
1991 0 47.3625 11.1903 530 95.2472 291.989 505.838
1992 0 50.3734 10.1641 512 97.5098 293.699 505.777
1993 0 53.1335 10.6901 568 92.3486 295.732 506.658
1994 0 54.2369 13.3488 724 88.5884 296.425 505.138
1995 0 57.1038 11.9432 682 91.7551 297.639 505.99
1996 0 57.0967 13.591 776 90.143 298.68 505.018
1997 0 59.2089 12.7515 755 92.5166 298.527 505.665
1998 0 62.1264 13.6657 849 89.6985 297.841 503.723
1999 0 65.5419 12.9078 846 91.7494 296.037 505.113
2000 0 68.2825 12.8876 880 91.7284 295.224 502.39
2001 0 72.2975 11.4942 831 92.7208 294.217 505.501
2002 0 73.413 12.9269 949 92.6849 293.262 501.105
2003 0 79.2568 15.128 1199 87.5271 291.595 498.847
2004 0 81.4341 13.7903 1123 90.2012 290.077 495.362
2005 0 85.4362 14.584 1246 89.0185 288.004 492.273
2006 1 46.2674 9.85576 456 89.0811 287.496 515.489
2007 0 45.1564 10.6519 481 91.9189 286.632 510.728
2008 0 47.114 10.8036 509 91.2141 286.786 509.354
2009 0 51.3643 11.6423 598 89.5418 286.656 506.065
2010 0 52.203 14.3287 748 85.7072 286.517 502.213
2011 0 55.1697 12.525 691 87.1548 287.799 503.236
2012 0 56.1873 12.9389 727 87.3796 288.32 500.173
2013 0 57.2995 11.7802 675 89.0059 288.437 500.17
2014 0 60.1996 12.5416 755 88.7881 288.36 497.615
2015 0 62.2291 13.611 847 86.686 288.221 496.06
2016 0 64.2282 13.5922 873 86.6999 289.599 495.889
2017 0 66.3338 14.5627 966 84.9048 290.846 495.16
2018 0 66.3055 13.5132 896 88.2835 291.392 493.137
2019 0 69.1813 13.761 952 86.624 292.329 494.582
2020 0 71.3289 13.5429 966 88.3054 293.81 492.883
2021 0 74.3123 13.6317 1013 86.996 295.699 494.245
2022 0 79.2864 14.3152 1135 84.6943 297.015 492.711
2023 1 38.0775 9.13925 348 87.1264 299.049 514.865
2024 0 44.0383 10.3773 457 87.4442 299.302 511.967
2025 0 45.0995 10.6431 480 85.875 298.946 513.612
2026 0 48.0174 11.2459 540 83.5926 298.002 513.776
2027 0 49.0959 12.2413 601 84.4542 297.012 512.151
2028 0 50.2251 12.8422 645 84.831 295.147 511.13
2029 0 54.2714 13.5062 733 82.5703 294.506 512.415
2030 0 55.1807 13.8998 767 82.1278 292.593 511.349
2031 0 56.2854 13.8579 780 83.9141 291.153 507.98
2032 0 59.1347 13.9005 822 84.2056 289.337 506.942
2033 0 61.2128 14.6048 894 83.7461 288.449 504.049
2034 0 62.3033 14.301 891 85.862 287.136 501.6
2035 0 64.1595 13.5911 872 86.6479 287.422 499.771
2036 0 66.0762 13.4088 886 87.9424 286.962 498.382
2037 0 66.1485 12.9708 858 90.528 285.992 493.4
2038 0 70.1767 13.2523 930 90.7989 285.356 492.666
2039 1 38.0398 11.7246 446 87.6996 286.648 508.502
2040 0 36.0054 8.97088 323 92.7152 287.638 509.486
2041 0 40.0223 9.69459 388 91.0026 287.858 508.626
2042 0 42.078 10.7182 451 90.4257 288.749 506.603
2043 0 43.1278 12.1963 526 89.5989 290.004 505.715
2044 0 45.0752 11.5584 521 92.0288 290.9 505.737
2045 0 45.0867 11.9326 538 91.8606 293.117 505.864
2046 0 47.0752 12.5331 590 91.239 294.905 505.47
2047 0 49.0253 12.055 591 92.4755 296.8 505.958
2048 0 52.0972 14.0314 731 88.3516 297.841 506.045
2049 0 52.0519 14.3126 745 88.6537 298.315 505.732
2050 0 54.0411 14.563 787 87.9123 299.737 506.832
2051 0 57.1151 13.2014 754 90.5292 300.005 507.16
2052 0 60.0891 13.7296 825 89.137 299.836 508.056
2053 0 63.1906 13.483 852 89.0563 299.322 508.367
2054 0 64.0795 11.4545 734 92.9632 297.03 511.042
2055 0 66.0801 13.075 864 92.2975 296.492 507.829
2056 0 71.1141 13.3307 948 90.6297 295.447 507.171
2057 0 72.1921 12.9931 938 92.5405 293.37 505.098
2058 0 76.2495 13.7706 1050 91.4419 291.866 503.592
2059 0 81.4238 14.0131 1141 90.3164 290.288 501.345
2060 0 85.3491 14.4348 1232 89.3531 289.189 499.007
2061 1 43.4747 7.88964 343 93.5685 289.265 520.02
2062 0 45.2751 10.0276 454 93.8877 287.857 514.377
2063 0 46.247 7.45995 345 96.6464 286.893 515.171
2064 0 50.3998 12.4207 626 90 286.083 509.663
2065 0 51.2522 12.6043 646 89.7786 286.365 507.816
2066 0 54.1546 13.4615 729 88.9822 286.789 506.321
2067 0 56.0873 11.8387 664 91.8253 286.242 504.902
2068 0 57.1965 12.7805 731 91.052 286.555 501.834
2069 0 59.2618 12.4532 738 90.4431 286.985 501.874
2070 0 63.2803 12.7686 808 89.1559 286.718 501.004
2071 0 63.1265 12.5146 790 90.8494 287.567 498.967
2072 0 66.2764 11.8443 785 91.2344 288.803 497.732
2073 0 70.2014 12.2647 861 90.2996 290.621 498.485
2074 0 71.2833 13.0325 929 89.6405 292.069 496.056
2075 0 75.3363 12.8491 968 89.3502 293.847 497.961
2076 1 40.3768 10.2286 413 86.6247 295.678 518.068
2077 0 41.3139 10.0934 417 86.4892 295.705 518.712
2078 0 40.2643 8.81674 355 91.4901 296.496 515.549
2079 0 44.1871 10.6592 471 86.7155 296.741 517.868
2080 0 46.1024 11.3877 525 85.1162 294.973 518.806
2081 0 51.217 11.7344 601 83.594 294.511 516.937
2082 0 53.2438 12.3958 660 82.1 294.136 518.241
2083 0 55.1288 12.8789 710 82.6803 292.789 515.108
2084 0 56.139 12.0059 674 84.9748 291.399 515.157
2085 0 59.1916 13.431 795 82.9321 289.803 511.429
2086 0 63.3824 13.7736 873 81.1856 288.54 510.199
2087 0 65.2442 12.4915 815 82.4859 286.934 508.425
2088 1 31.069 7.59598 236 85.983 285.852 522.017
2089 0 34.0297 7.1702 244 85.3812 285.709 519.689
2090 0 36.1522 9.81961 355 82.2535 284.977 516.997
2091 0 37.1282 8.61878 320 83.0469 283.941 515.738
2092 0 40.0509 12.4841 500 78.824 283.87 512.36
2093 0 38.0732 8.74631 333 83.988 284.093 511.462
2094 0 41.0194 10.1415 416 83.3918 284.661 509.394
2095 0 43.0288 11.5039 495 80.8586 285.774 508.818
2096 0 46.027 11.754 541 81.0573 286.51 507.216
2097 0 44.0891 12.4974 551 81.8476 286.437 503.408
2098 0 48.0557 12.319 592 80.8564 287.715 506.488
2099 0 49.2209 12.7588 628 81.4602 287.793 502.839
2100 0 50.2035 13.2461 665 80.6376 288.803 504.334
2101 0 52.1384 13.023 679 81.81 290.806 503.022
2102 0 53.1918 12.2387 651 84.2765 293.091 502.273
2103 0 56.1041 14.3305 804 79.8694 295.556 502.765
2104 0 57.1836 13.308 761 83.2155 297.122 503.162
2105 0 60.123 13.7718 828 83.099 298.367 502.036
2106 0 61.1262 12.6787 775 86.0297 298.897 503.59
2107 0 66.1201 14.0804 931 83.5639 299.948 503.563
2108 0 70.1524 14.9104 1046 82.0105 298.841 502.798
2109 0 71.2476 12.3513 880 88.1455 299.558 503.436
2110 0 75.184 14.2716 1073 85.0587 297.715 500.281
2111 1 38.0111 9.52352 362 84.8149 298.356 523.577
2112 0 39.1461 9.22187 361 88.5319 297.219 522.51
2113 0 42.0467 9.75105 410 88.0024 295.385 521.08
2114 0 44.1147 11.1981 494 88.6336 294.099 518.451
2115 0 45.0388 11.6344 524 88.2977 293.864 517.069
2116 0 47.0699 13.0657 615 86.5675 292.25 514.218
2117 0 48.019 11.8078 567 88.1676 290.815 512.571
2118 0 49.02 13.1987 647 88.8764 289.794 510.278
2119 0 51.0192 14.1907 724 87.3992 288.523 509.152
2120 0 53.052 13.7978 732 87.5451 287.803 507.973
2121 0 54.0408 14.119 763 89.1311 287.134 504.09
2122 0 57.0547 14.2845 815 88.2417 287.293 503.266
2123 0 58.0601 14.2094 825 89.2836 287.615 501.15
2124 0 59.0689 13.0187 769 92.2783 287.739 497.49
2125 0 61.1257 13.6767 836 90.4617 289.737 498.59
2126 0 63.0837 13.2205 834 91.229 290.073 496.888
2127 0 68.1003 14.0675 958 87.7839 290.462 495.673
2128 0 70.1125 15.2469 1069 86.9934 291.084 493.559
2129 0 70.1158 14.4047 1010 89.5554 291.579 493.941
2130 0 73.067 13.864 1013 91.7177 293.395 492.909
2131 0 76.0807 14.3006 1088 90.7215 295.411 492.096
2132 1 38.085 11.3956 434 91.9654 297.182 512.869
2133 0 43.0409 10.734 462 92.1926 298.039 513.63
2134 0 42.0952 10.3812 437 96.135 298.794 512.336
2135 0 47.169 12.169 574 91.9251 300.068 513.017
2136 0 49.1052 13.746 675 89.8178 299.913 512.279
2137 0 51.1475 12.6888 649 92.4284 298.479 511.992
2138 0 51.1865 13.8318 708 91.5367 297.843 512.014
2139 0 56.1695 13.2812 746 90.6716 296.661 513.35
2140 0 56.2051 13.5753 763 91.4286 295.955 511.889
2141 0 61.1997 13.2844 813 89.7774 294.204 512.419
2142 0 65.1476 14.3827 937 82.8954 292.861 511.669
2143 0 65.1715 13.4261 875 87.2251 291.456 506.867
2144 0 70.1514 13.2285 928 86.4203 290.279 505.954
2145 0 71.0644 13.4244 954 86.8595 289.567 503.631
2146 0 75.2208 13.8127 1039 86.36 288.71 501.834
2147 0 77.3467 14.9715 1158 84.8351 288.087 498.036
2148 0 82.1997 15.0487 1237 83.1714 287.271 495.685
2149 1 42.0686 9.46073 398 90.8116 287.201 512.344
2150 0 44.042 11.8523 522 88.7739 287.454 509.793
2151 0 44.0599 10.7581 474 91.3586 287.139 508.774
2152 0 44.1985 9.90983 438 91.9703 286.712 507.005
2153 0 49.0776 12.4904 613 87.4176 287.334 504.308
2154 0 49.1057 12.6665 622 88.8071 286.236 501.243
2155 0 51.112 13.9106 711 85.4416 286.833 501.435
2156 0 52.137 14.1358 737 84.8657 287.518 501.37
2157 0 55.114 13.8985 766 87.3851 289.531 500.992
2158 0 58.1472 14.4633 841 85.4043 291.584 503.018
2159 0 58.1155 14.1615 823 87.8724 293.315 499.504
2160 0 61.1187 15.0036 917 85.9935 295.527 499.656
2161 0 64.2894 13.9836 899 87.8432 297.141 500.289
2162 0 65.1023 14.0855 917 85.9248 297.679 500.804
2163 0 68.2993 15.7542 1076 84.2686 299.099 499.786
2164 0 70.2841 13.9861 983 88.9888 298.596 498.616
2165 0 71.2572 14.7775 1053 89.6657 299.018 499.165
2166 0 74.1944 13.8016 1024 91.8096 297.837 499.818
2167 0 81.4153 15.4885 1261 89.092 297.811 497.548
2168 0 82.207 14.208 1168 94.5051 296.539 495.755
2169 0 84.1864 14.7055 1238 94.1591 294.801 494.447
2170 1 43.0545 11.4274 492 96.0244 293.417 515.97
2171 0 47.0458 11.6482 548 94.9653 291.487 515.206
2172 0 47.0369 12.0544 567 94.6772 289.732 513.607
2173 0 49.1139 12.2979 604 96.1176 289.025 512.048
2174 0 52.0835 13.8431 721 94.6754 288.893 510.288
2175 0 54.1722 15.4507 837 92.3238 287.293 507.139
2176 0 54.1176 13.6 736 96.8913 287.043 505.173
2177 0 59.1635 14.181 839 94.7855 287.934 502.844
2178 0 58.0839 13.756 799 97.3141 287.166 500.97
2179 0 61.0908 13.0953 800 97.9388 288.576 499.075
2180 0 67.1666 15.4243 1036 92.0203 288.264 495.033
2181 0 66.1891 14.9269 988 95.754 288.243 493.572
2182 0 69.1035 14.5724 1007 95.5313 288.946 492.022
2183 0 72.1758 13.7442 992 96.5454 289.679 491.236
2184 1 39.0184 10.1234 395 97.4684 291.554 509.36
2185 0 38.1456 10.1978 389 96.7455 292.617 509.848
2186 0 42.048 12.1052 509 94.9037 294.874 508.534
2187 0 43.0837 12.1856 525 94.5848 296.354 509.312
2188 0 44.0738 12.2068 538 95.9071 297.831 508.773
2189 0 47.0688 13.151 619 94.1632 299.187 508.927
2190 0 46.2111 12.7026 587 97.9915 299.765 508.053
2191 0 51.1323 13.1815 674 94.1157 300.546 510.26
2192 0 53.1082 12.371 657 97.239 300.79 510.358
2193 0 55.1827 14.4611 798 93.6203 300.786 509.712
2194 0 56.1481 13.2507 744 97.1841 300.007 511.415
2195 0 61.0924 14.2407 870 94.0621 298.822 510.302
2196 0 63.1852 14.8611 939 93.1203 297.589 508.26
2197 0 67.2075 13.8377 930 94.1419 296.246 507.772
2198 0 69.1196 13.2235 914 95.361 294.468 506.559
2199 1 35.0366 11.3025 396 96.3283 293.391 519.384
2200 0 38.0436 11.9337 454 94.9163 293.328 518.322
2201 0 36.0128 9.691 349 97.8138 291.39 519.338
2202 0 42.1161 11.7057 493 88.4645 290.124 516.241
2203 0 41.0323 12.1611 499 92.493 290.852 513.583
2204 0 44.0178 11.8816 523 94.1893 290.47 510.983
2205 0 47.0453 13.2213 622 91.9984 289.76 509.707
2206 0 47.047 11.9242 561 94.7237 289.084 507.438
2207 0 49.0622 13.1058 643 94.154 288.656 503.331
2208 0 51.0636 12.4942 638 96.1254 289.527 502.513
2209 0 53.0199 14.6926 779 91.7124 289.326 501.506
2210 0 54.0266 14.9371 807 91.347 290.363 501.468
2211 0 55.2472 13.4305 742 94.5485 291.044 501.069
2212 0 58.0358 14.9391 867 92.7347 291.961 499.152
2213 0 59.0624 13.6974 809 95.1384 293.525 500.342
2214 0 62.0944 14.0109 870 94.5632 295.448 497.27
2215 0 65.2403 13.9791 912 94.2193 296.811 498.154
2216 0 68.107 14.6828 1000 93.095 298.541 498.313
2217 0 71.1494 13.7598 979 94.1961 300.423 498.836
2218 0 72.0969 11.9561 862 96.8747 300.857 498.084
2219 0 76.1387 15.2748 1163 91.1092 301.483 497.545
2220 1 40.107 9.39986 377 95.0557 301.475 518.865
2221 0 41.2757 10.9507 452 93.1527 301.363 518.96
2222 0 43.1652 10.4019 449 94.7773 299.886 517.352
2223 0 43.1525 12.0039 518 92.971 298.66 516.865
2224 0 42.1179 10.7793 454 94.707 297.87 518.132
2225 0 47.0726 11.7266 552 92.4982 296.264 516.779
2226 0 50.0913 12.4572 624 90.3462 294.237 514.08
2227 0 52.2172 13.2332 691 88.7829 293.106 512.573
2228 0 54.097 13.254 717 88.1576 291.763 509.866
2229 0 56.1128 14.1857 796 87.2739 290.623 506.205
2230 0 58.1626 12.4651 725 89.9117 290.106 505.705
2231 0 59.0873 13.2177 781 89.4328 288.853 502.749
2232 0 61.0473 13.465 822 87.972 287.776 499.656
2233 0 64.1307 13.0671 838 87.673 288.107 500.074
2234 0 67.1447 13.106 880 88.4295 289.174 496.206
2235 0 69.1719 13.5315 936 87.8526 288.437 492.911
2236 0 70.329 13.252 932 88.1953 288.987 491.016
2237 0 75.1383 13.9742 1050 85.7162 289.581 492.169
2238 0 76.298 14.0502 1072 85.9739 290.253 491.029
2239 0 78.3182 13.9559 1093 87.1821 291.291 488.737
2240 0 82.2263 14.3993 1184 86.3725 291.002 488.423
2241 0 87.254 15.495 1352 84.5089 291.682 487.145
2242 0 89.1916 14.7323 1314 86.8234 293.174 485.412
2243 0 90.2605 13.2949 1200 91.34 295.461 484.622
2244 0 96.1858 14.5864 1403 88.1069 297.04 485.87
2245 0 99.2522 13.4405 1334 91.1559 297.963 484.689
2246 0 104.225 15.2555 1590 87.0226 298.874 487.011
2247 0 107.194 14.6557 1571 88.9885 298.972 482.926
2248 0 111.202 14.3612 1597 90.2217 298.484 479.4
2249 0 118.266 14.9155 1764 89.2982 298.467 481.12
2250 1 61.1263 11.0264 674 91.7982 297.958 511.349
2251 0 64.0842 12.1559 779 91.6778 297.077 508.926
2252 0 71.0817 13.6744 972 88.7891 296.8 506.808
2253 0 72.0697 13.6534 984 90.3526 295.076 505.104
2254 0 77.08 14.6082 1126 89.0071 292.788 503.128
2255 0 78.1497 14.1779 1108 90.8583 291.355 500.971
2256 0 83.0699 14.1447 1175 90.9506 288.879 497.352
2257 0 86.0651 14.5471 1252 90.4441 287.595 494.594
2258 0 89.0993 15.6679 1396 89.3202 286.734 492.306
2259 0 93.1086 14.3596 1337 91.4061 286.09 489.175
2260 0 97.1402 14.7622 1434 90.6639 286.311 485.98
2261 1 50.0879 10.7411 538 93.5335 287.147 507.796
2262 0 51.0617 9.83125 502 93.0777 288.285 507.359
2263 0 53.1453 11.1957 595 92.6084 287.734 503.213
2264 0 55.0658 11.8404 652 91.1304 288.532 502.364
2265 0 57.1164 12.886 736 89.5231 289.304 499.72
2266 0 61.1388 13.3957 819 88.1245 290.277 498.697
2267 0 62.0975 13.4466 835 88.1916 291.909 499.51
2268 0 64.1223 13.4431 862 88.3828 291.527 496.455
2269 0 70.0989 13.0672 916 87.4858 293.198 497.781
2270 0 69.2897 12.7436 883 89.7135 295.241 496.316
2271 0 74.204 14.2984 1061 86.5363 297.161 496.588
2272 0 75.0784 12.7467 957 90.8725 299.391 493.289
2273 0 78.0618 13.9377 1088 87.6544 300.571 495.156
2274 0 84.1854 15.5965 1313 85.2216 300.696 493.05
2275 0 87.1142 14.8311 1292 86.4102 300.69 495.039
2276 0 90.123 13.881 1251 89.8569 300.488 491.173
2277 0 94.1525 16.144 1520 86.1974 300.244 490.32
2278 0 97.2165 14.1848 1379 89.9521 299.457 491.089
2279 1 54.1066 11.3665 615 91.3659 299.621 513.387
2280 0 58.1988 13.9178 810 87.1309 298.136 512.222
2281 0 58.049 11.2836 655 92.2504 297.65 512.493
2282 0 62.106 13.3804 831 90.0854 295.635 508.324
2283 0 65.0718 13.4467 875 88.704 294.017 508.294
2284 0 66.1328 13.6241 901 89.99 292.441 504.15
2285 0 72.1403 14.8877 1074 86.2598 291.21 502.726
2286 0 73.1846 13.0082 952 91.271 290.997 499.56
2287 0 77.1017 14.0204 1081 88.8908 290.026 495.568
2288 0 81.1332 14.8151 1202 87.8844 289.317 493.221
2289 1 43.0825 12.2091 526 90.0951 289.93 510.034
2290 0 44.0494 11.9411 526 90.943 289.529 507.749
2291 0 46.0582 11.8763 547 91.958 289.81 504.667
2292 0 49.1 12.5866 618 89.6327 289.759 504.104
2293 0 48.057 13.047 627 91.2153 290.941 503.097
2294 0 51.079 12.745 651 91.6298 291.69 501.424
2295 0 52.2174 12.8693 672 94.1949 291.932 499.451
2296 0 55.0369 13.8089 760 92.2895 293.52 499.247
2297 0 57.0927 13.9072 794 92.7607 294.132 497.984
2298 0 58.1993 14.0036 815 93.3141 295.617 497.804
2299 0 60.1921 14.5368 875 93.4903 298.192 497.849
2300 0 62.2732 13.8262 861 95.101 300.229 498.013
2301 0 67.3098 12.7322 857 96.5823 302.236 499.469
2302 0 69.3694 14.5597 1010 93.9287 303.248 498.932
2303 0 72.249 14.2839 1032 95.0291 302.265 497.77
2304 0 74.2444 15.1123 1122 94.5882 301.818 496.094
2305 0 77.2319 15.3563 1186 94.726 301.343 495.878
2306 1 42.108 9.07191 382 101.806 300.479 516.759
2307 0 43.0947 10.3493 446 101.509 299.8 516.179
2308 0 44.0252 11.7433 517 100.574 299.294 515.812
2309 0 48.0346 11.1586 536 101.519 298.034 514.929
2310 0 48.0173 12.5996 605 100.22 297.218 513.878
2311 0 49.0601 12.8618 631 100.884 295.609 510.905
2312 0 53.113 12.9724 689 99.6154 294.01 509.334
2313 0 57.0623 13.9497 796 97.0088 292.43 506.677
2314 0 58.0942 13.0306 757 99.9458 291.094 503.834
2315 0 61.0554 14.9864 915 96.0514 289.161 501.126
2316 0 62.1 13.124 815 100.438 289.454 498.821
2317 0 65.201 14.1102 920 97.3217 290.797 497.375
2318 0 68.1002 14.787 1007 95.6375 290.314 495.613
2319 0 70.2002 14.7008 1032 97.406 289.575 491.211
2320 0 71.1425 13.6487 971 100.059 290.169 490.285
2321 0 75.1369 15.0925 1134 97.9242 290.489 486.459
2322 0 78.2709 14.2837 1118 99.8032 291.302 486.397
2323 0 82.1105 16.5265 1357 95.0044 291.844 485.388
2324 0 85.1378 16.1855 1378 96.603 292.544 483.96
2325 0 87.174 14.9356 1302 99.9624 295.787 482.062
2326 1 47.1108 12.4387 586 102.304 298.068 505.676
2327 0 48.1028 12.5149 602 103.693 299.076 504.723
2328 0 50.0692 12.0633 604 103.965 300.727 506.467
2329 0 53.2028 14.1722 754 101.899 301.573 503.565
2330 0 55.1045 14.9352 823 100.248 302.034 505.077
2331 0 57.1883 14.7233 842 100.678 301.987 504.656
2332 0 58.2355 14.905 868 101.203 302.264 503.018
2333 0 61.1294 14.0194 857 102.329 301.8 505.342
2334 0 66.1614 16.0063 1059 97.2842 300.338 503.777
2335 0 67.144 15.4146 1035 98.3739 299.481 504.014
2336 0 70.0767 15.1691 1063 98.9304 298.468 503.573
2337 0 72.1072 13.7712 993 102.918 297.129 501.09
2338 0 77.1265 14.2882 1102 101.768 295.113 498.828
2339 0 78.1419 14.3969 1125 102.299 293.406 496.02
2340 0 84.178 15.3366 1291 99.6251 291.749 492.432
2341 0 86.1182 15.4091 1327 100.753 290.088 490.292
2342 1 42.0243 8.39991 353 108.912 290.45 512.127
2343 0 46.0318 11.8179 544 104.583 289.075 508.147
2344 0 48.0847 10.1072 486 105.844 288.551 506.331
2345 0 51.0185 12.4073 633 103.201 289.477 502.739
2346 0 51.0377 11.9519 610 102.89 289.405 502.687
2347 0 53.0505 13.0253 691 102.812 289.838 500.891
2348 0 56.0601 13.3963 751 102.743 290.634 497.445
2349 0 62.0917 13.2385 822 101.028 290.837 495.241
2350 0 63.083 13.1097 827 102.568 291.741 494.709
2351 0 64.074 13.4844 864 103.601 293.141 492.602
2352 0 68.1332 13.8992 947 102.511 293.905 491.912
2353 0 71.0851 13.2658 943 103.158 295.86 491.902
2354 0 73.0748 14.1499 1034 103.18 297.511 489.422
2355 0 78.128 14.5402 1136 101.316 299.275 489.89
2356 0 80.2185 14.1364 1134 103.376 300.847 487.948
2357 0 84.1932 14.8112 1247 102.186 301.06 488.746
2358 0 88.1405 13.1495 1159 105.648 301.576 487.884
2359 1 46.0729 9.09429 419 105.384 302.785 511.967
2360 0 50.0981 10.4794 525 104.251 300.724 510.309
2361 0 51.1252 10.6992 547 103.272 299.881 510.94
2362 0 53.1618 11.7189 623 102.281 299.181 511.223
2363 0 56.0873 12.5875 706 100.506 297.786 509.431
2364 0 61.1769 13.4528 823 97.7266 296.906 509.462
2365 0 62.3162 13.8006 860 98.3093 296.121 504.843
2366 0 63.1437 11.846 748 102.357 294.763 503.753
2367 0 69.1643 14.1836 981 97.054 292.571 500.569
2368 0 70.2353 13.5117 949 99.1802 291.786 495.815
2369 0 73.3273 13.1602 965 100.69 290.793 494.313
2370 0 77.3447 12.7611 987 101.467 289.882 492.973
2371 0 80.1957 14.4771 1161 97.0103 289.782 489.74
2372 0 83.2953 12.2096 1017 102.378 289.097 485.941
2373 0 86.1084 13.9011 1197 99.68 288.812 485.391
2374 1 47.1033 8.85289 417 97.9424 289.396 506.283
2375 0 49.1783 8.84536 435 98.6575 290.524 504.382
2376 0 51.1692 9.98648 511 97.2485 290.847 502.726
2377 0 53.2616 10.4578 557 97.8761 290.54 500.388
2378 0 54.103 11.4781 621 95.5604 291.39 501.159
2379 0 55.3062 12.0601 667 95.2204 292.18 498.553
2380 0 58.1775 12.3415 718 94.305 294.27 499.123
2381 0 62.2119 12.4092 772 92.4573 296.662 498.987
2382 0 63.232 12.8258 811 92.7756 298.138 495.695
2383 0 67.1707 12.8776 865 91.9029 299.818 496.944
2384 0 68.2991 12.0207 821 93.6139 299.792 498.671
2385 0 72.2356 13.6221 984 90.6748 300.493 496.63
2386 0 74.2688 10.9063 810 95.1037 299.743 495.444
2387 0 75.311 10.2375 771 95.4578 299.534 492.376
2388 0 78.1624 8.62307 674 97.8724 299.359 491.509
2389 1 40.083 6.41169 257 97.8794 300.101 514.7
2390 0 45.0322 9.5043 428 93.9229 298.521 513.762
2391 0 45.046 6.94845 313 96.8243 298.259 513.348
2392 0 46.0422 8.90488 410 95.4098 295.807 511.668
2393 1 33.0918 4.86526 161 83.7329 292.963 501.627
2394 1 54.1663 11.0585 599 89.4324 291.412 508.194
2395 0 54.1581 10.1924 552 91.971 290.181 506.264
2396 0 57.1908 12.6419 723 87.1134 288.911 502.454
2397 0 60.2613 12.1139 730 88.9164 287.638 502.308
2398 0 61.2283 12.9189 791 88.6308 287.03 496.588
2399 0 66.255 11.3048 749 90.8318 287.311 496.694
2400 0 69.1694 11.5803 801 90.9101 287.845 494.549
2401 0 71.2176 11.9774 853 90.0785 288.622 493.217
2402 0 73.1912 13.4306 983 88.6287 288.558 488.309
2403 0 77.361 12.7713 988 89.7723 289.248 488.378
2404 1 40.0234 8.02032 321 93.3832 291.181 506.125
2405 0 42.0589 8.0839 340 93.7382 291.535 504.676
2406 0 45.0732 8.87445 400 92.3125 291.652 504.652
2407 0 43.0309 9.59775 413 94.5375 292.843 502.869
2408 0 48.0185 9.89203 475 93.1874 294.68 502.909
2409 0 52.0785 11.6363 606 90.4835 295.833 501.954
2410 0 52.0377 11.3764 592 90.0068 297.856 503.432
2411 0 54.0865 11.8699 642 90.5202 299.526 502.316
2412 0 55.4791 11.3376 629 91.6804 299.684 502.742
2413 0 60.2105 12.2404 737 89.9986 299.384 504.186
2414 0 61.2746 11.6851 716 91.3492 299.179 502.817
2415 0 63.2258 11.7041 740 91.3811 298.474 501.319
2416 0 67.3052 10.653 717 93.2022 298.762 502.324
2417 0 71.2117 11.3605 809 92.9592 297.613 497.323
2418 0 74.2829 13.0178 967 89.9224 297.361 499.199
2419 1 39.0119 7.408 289 96.4706 296.862 513.606
2420 0 37.0179 6.26724 232 96.0259 295.185 512.81
2421 0 42.0287 8.66075 364 95.4533 293.126 510.187
2422 0 39.013 5.76731 225 97.8667 291.982 509.618
2423 0 44.0668 7.76094 342 93.5088 290.222 508.105
2424 0 48.1641 11.4193 550 89.5018 289.711 503.347
2425 0 49.0623 9.72233 477 92.5639 289.679 499.757
2426 0 48.0475 10.7186 515 91.5437 289.85 497.101
2427 0 51.3149 9.97761 512 91.8262 288.432 499.441
2428 0 54.1641 11.6682 632 89.3228 288.737 494.017
2429 0 55.1989 12.6452 698 87.861 288.619 492.461
2430 0 57.2051 10.6984 612 91.4886 289.418 490.654
2431 0 57.1169 11.4852 656 90.5915 290.264 489.66
2432 0 61.2013 12.0586 738 88.9201 291.167 488.958
2433 0 61.1982 10.2944 630 93.0254 292.03 488.217
2434 0 65.1461 12.5411 817 88.7001 293.636 488.26
2435 0 68.1755 11.6024 791 91.2731 295.144 486.88
2436 0 71.1539 13.0843 931 90.2707 296.672 485.894
2437 0 72.2239 11.7136 846 92.7872 299.437 485.02
2438 0 80.3042 13.673 1098 90.0938 300.332 487.904
2439 0 81.4944 16.3447 1332 87.8393 301.336 485.411
2440 0 83.3215 15.0381 1253 91.0686 300.14 483.579
2441 0 87.3884 14.693 1284 92.9322 300.413 483.924
2442 1 44.2249 8.86378 392 100.031 300.153 506.334
2443 0 50.2051 9.56079 480 96.6375 299.485 508.075
2444 0 53.2408 11.232 598 97.3562 299.013 506.052
2445 0 55.2323 13.1083 724 94.7997 297.704 506.78
2446 0 59.1512 12.2398 724 97.7417 297.091 506.17
2447 0 60.276 12.6087 760 98.0763 295.472 504.221
2448 0 62.1829 13.6854 851 97.3055 293.39 502.843
2449 0 65.1402 14.1541 922 97.0629 292.089 498.577
2450 0 67.2187 12.3924 833 101.08 290.767 497.128
2451 0 69.3418 13.6714 948 98.9357 290.004 494.014
2452 0 73.2462 13.557 993 99.0423 290.103 488.741
2453 0 77.2168 13.8959 1073 97.5536 290.835 488.446
2454 0 78.1831 13.6986 1071 99.254 290.289 486.363
2455 0 80.2477 12.6857 1018 102.34 289.908 481.239
2456 0 83.2587 13.5601 1129 99.3764 290.101 480.713
2457 0 85.3091 13.3866 1142 100.773 291.266 477.549
2458 0 88.3005 13.6579 1206 100.447 291.129 477.771
2459 0 93.3323 13.9073 1298 99.708 291.428 474.17
2460 1 48.1952 10.499 506 103.709 292.937 495.864
2461 0 51.2156 9.46976 485 105.503 294.41 496.614
2462 0 52.0537 11.4689 597 102.067 297.662 498.139
2463 0 56.1938 12.4391 699 100.88 298.903 499.273
2464 0 58.3183 13.3406 778 100.509 300.095 496.409
2465 0 60.3652 12.822 774 102.589 302.804 497.183
2466 0 63.1091 13.0568 824 102.159 303.012 498.016
2467 0 66.2259 13.8012 914 99.7549 302.105 497.461
2468 0 69.1497 12.5525 868 102.339 302.895 499.501
2469 0 74.4085 13.1302 977 102.042 301.745 497.365
2470 0 77.3228 13.7864 1066 101.387 300.218 496.865
2471 0 80.2868 13.539 1087 102.034 298.113 496.412
2472 1 41.0517 10.9131 448 104.143 297.074 514.344
2473 0 44.16 11.8206 522 101.833 295.033 512.626
2474 0 42.0993 10.9028 459 105.623 293.351 510.159
2475 0 46.1942 11.5599 534 104.062 292.2 507.139
2476 0 48.1838 13.241 638 101.16 290.807 504.975
2477 0 50.1944 11.3758 571 104.914 289.827 502.219
2478 0 50.1844 12.0755 606 103.34 288.861 499.356
2479 0 54.1157 13.6005 736 99.3818 288.993 497.829
2480 0 57.0853 12.7879 730 100.04 288.774 497.112
2481 0 56.1099 12.1725 683 102.72 288.729 492.338
2482 0 60.1378 11.9226 717 103.142 288.905 489.057
2483 0 62.1995 12.6368 786 102.673 289.327 486.17
2484 0 63.2402 11.2745 713 104.355 289.156 485.756
2485 0 67.3443 12.1317 817 101.894 289.829 483.964
2486 0 72.2114 12.3111 889 100.27 290.726 482.67
2487 0 76.1295 13.9368 1061 97.0245 292.139 482.216
2488 0 77.0672 11.8079 910 101.497 293.546 480.165
2489 0 81.1253 11.7719 955 101.29 295.614 481.324
2490 1 39.0216 8.35435 326 100.672 297.939 505.074
2491 0 41.052 9.5245 391 99.2455 299.238 504.893
2492 0 45.0342 10.1923 459 96.6166 301.137 503.928
2493 0 47.1272 12.1162 571 94.2277 299.884 505.384
2494 0 49.197 10.5088 517 96.9652 300.752 504.609
2495 0 51.149 11.7109 599 97.1803 301.003 506.09
2496 0 54.2387 12.3344 669 96.1031 299.673 506.583
2497 0 58.2153 13.1065 763 95.8689 298.789 507.271
2498 0 62.3121 13.2077 823 92.6999 298.309 506.024
2499 0 64.5049 12.8207 827 94.5357 296.441 505.491
2500 0 66.4342 12.4635 828 97.0229 294.81 503.182
2501 0 70.3531 14.214 1000 94.778 293.04 499.28
2502 0 74.3456 13.5986 1011 95.4975 291.401 496.9
2503 0 74.3634 13.2592 986 98.2302 290.58 494.999
2504 0 75.2779 10.9461 824 103.175 289.75 491.237
2505 0 82.5788 13.1753 1088 98.6664 289.436 489.674
2506 0 85.313 14.2299 1214 97.1565 289.201 486.653
2507 1 50.2258 9.81568 493 100.933 289.966 504.688
2508 0 50.3048 11.1123 559 99.8837 288.812 501.013
2509 0 51.3464 10.2441 526 100.614 289.46 500.027
2510 0 53.1762 11.7722 626 100.668 289.751 497.249
2511 0 56.1099 12.4933 701 98.214 290.947 496.8
2512 0 58.2038 13.0404 759 97.4809 291.126 495.489
2513 0 59.111 13.4662 796 94.5892 292.065 494.161
2514 0 64.1559 14.7297 945 91.5947 293.454 493.319
2515 0 65.2308 12.7854 834 96.2134 295.203 493.618
2516 0 68.1837 13.361 911 95.1888 297.543 493.827
2517 1 35.1498 11.4937 404 95.0767 299.468 511.441
2518 0 35.1429 10.0163 352 97.8608 300.474 512.131
