time division length width area intensity CMx CMy
0 0 33.1276 12.2556 406 122.081 593.458 500.628
1 0 38.3131 15.6865 601 107.9 591.456 498.77
2 0 38.1695 14.3832 549 111.35 592.435 498.435
3 0 38.2466 13.6221 521 114.497 593.357 497.894
4 0 40.3123 15.0078 605 107.23 591.562 497.299
5 0 38.1408 14.3416 547 111.287 591.598 497.122
6 0 40.0552 13.8059 553 113.4 591.579 496.738
7 0 41.1182 14.2516 586 113.224 589.843 496.096
8 0 41.201 13.1308 541 114.135 590.285 496.512
9 0 42.0812 12.7373 536 115.437 589.489 495.442
10 0 44.0911 15.3092 675 106.385 590.225 494.91
11 0 44.1623 13.7901 609 111.627 591.167 495.512
12 0 45.1622 13.7283 620 112.247 592.295 495.498
13 0 45.2348 14.9663 677 108.3 592.179 495.409
14 0 47.1914 14.7484 696 108.927 592.162 492.983
15 0 48.2057 14.7493 711 108.243 591.91 492.989
16 0 51.1673 14.7751 756 106.351 591.671 493.041
17 0 52.1513 14.8414 774 104.872 592.222 493.522
18 0 50.3012 14.5722 733 108.805 591.573 491.065
19 0 53.2338 15.2347 811 106.578 592.274 490.074
20 0 54.2872 14.018 761 108.142 591.139 490.788
21 0 56.1809 15.4323 867 105.036 591.236 488.585
22 0 57.1842 14.1298 808 107.708 590.967 489.444
23 0 59.1941 14.6805 869 105.678 591.442 488.283
24 0 61.1073 15.3009 935 104.528 591.771 488.14
25 0 63.2466 14.9573 946 104.747 592.483 487.478
26 0 63.1215 13.2918 839 109.188 593.957 486.799
27 0 66.3511 15.5084 1029 104.463 595.073 487.211
28 0 68.246 13.6272 930 108.992 594.834 483.874
29 0 69.4979 14.5616 1012 107.43 593.7 484.022
30 1 39.162 10.9545 429 107.469 593.34 499.515
31 0 38.1182 11.202 427 111.466 593.012 497.56
32 0 38.2877 11.6225 445 110.243 593.44 498.047
33 0 40.0806 11.8262 474 111.468 594.141 497.435
34 0 41.0443 11.1343 457 112.709 594.691 496.361
35 0 44.1154 13.578 599 107.885 593.751 495.755
36 0 44.1544 13.4981 596 112.302 593.758 494.807
37 0 46.1532 14.1052 651 111.075 594.439 494.27
38 0 47.2493 13.4605 636 111.719 594.253 494.764
39 0 48.3082 13.5174 653 111.342 595.798 494.865
40 0 51.2323 14.2879 732 111.06 595.796 493.051
41 0 53.2191 13.8672 738 112.205 595.225 492.226
42 0 54.2427 14.4167 782 112.146 595.075 491.515
43 0 55.2001 14.0036 773 113.638 595.091 491.16
44 0 57.2992 14.5552 834 113.402 594.558 490.173
45 0 59.1565 15.2139 900 111.378 595.939 490.852
46 0 59.1615 15.4999 917 112.385 595.893 489.644
47 0 63.127 14.6688 926 112.537 595.931 490.92
48 0 63.128 14.4944 915 115.148 595.894 489.98
49 0 67.1403 14.1793 952 115.811 596.029 488.442
50 0 68.1285 15.3974 1049 112.151 596.336 488.672
51 0 71.2241 14.4614 1030 114.099 595.74 486.338
52 0 75.2737 15.7691 1187 109.958 595.928 487.472
53 1 38.0565 11.8245 450 113.353 595.909 501.982
54 0 39.0668 10.1109 395 115.225 595.354 501.785
55 0 42.1898 13.0126 549 111.505 596.842 500.61
56 0 42.11 11.1612 470 113.97 596.098 501.174
57 0 42.0401 11.5842 487 116.023 596.645 498.938
58 0 46.0825 12.521 577 113.841 595.425 498.503
59 0 47.1019 13.1417 619 114.52 596.404 496.16
60 0 46.0479 13.5294 623 114.358 596.7 496.189
61 0 50.132 14.382 721 110.585 596.798 496.282
62 0 51.1149 13.8511 708 112.729 597.236 494.23
63 0 51.1434 13.6284 697 114.544 597.171 491.857
64 0 53.0976 12.8443 682 116.207 597.5 493.007
65 0 56.2147 14.1422 795 113.45 597.693 492.186
66 0 57.0971 13.9762 798 112.268 598.36 490.014
67 0 60.1469 14.3149 861 111.022 598.405 490.466
68 0 62.0515 15.2293 945 110.206 598.364 488.312
69 0 66.1011 15.5368 1027 108.703 598.587 488.899
70 0 65.145 14.0763 917 116.389 597.478 485.646
71 0 69.1828 14.5123 1004 114.362 598.176 484.63
72 0 74.1187 15.2458 1130 113.455 597.982 484.088
73 1 36.0116 11.1908 403 116.841 598.149 500.695
74 0 38.0202 12.0988 460 116.32 599.007 500.38
75 0 40.025 12.0175 481 116.466 598.68 499.701
76 0 42.0431 12.0829 508 117.74 597.539 498.596
77 0 44.0434 11.466 505 115.984 597.671 498.883
78 0 45.0516 11.9197 537 117.263 598.514 497.633
79 0 45.0929 13.9933 631 116.363 599.357 497.412
80 0 46.0322 13.4471 619 117.136 599.328 496.982
81 0 49.1254 14.005 688 115.692 599.624 494.884
82 0 51.2297 14.1324 724 114.492 598.8 496.376
83 0 53.1501 13.396 712 116.567 598.522 494.139
84 0 53.1804 13.332 709 118.635 598.54 492.048
85 0 55.1804 13.8274 763 115.235 598.519 493.577
86 0 58.1739 13.9925 814 114.871 599.098 491.656
87 0 59.249 13.9074 824 115.868 598.05 491.591
88 0 62.1096 14.5227 902 114.655 598.249 488.433
89 0 61.1146 12.5338 766 118.939 597.877 486.338
90 0 64.1863 14.5514 934 114.695 597.738 486.803
91 0 67.1922 15.225 1023 113.252 598.209 485.225
92 0 70.169 14.4651 1015 114.471 598.061 484.617
93 0 72.1838 13.521 976 116.312 598.025 483.585
94 0 77.1765 14.9398 1153 113.544 597.709 480.975
95 0 79.177 14.3097 1133 114.658 597.49 478.342
96 0 82.3963 15.2434 1256 111.828 598.424 478.747
97 0 83.2072 13.5445 1127 114.437 598.762 476.815
98 1 46.0514 11.0312 508 112.411 599.795 495.156
99 0 46.0714 10.9395 504 108.942 599.899 498.942
100 0 47.0382 13.606 640 109.166 599.414 494.73
101 0 50.1088 12.0538 604 109.3 599.268 496.157
102 0 53.0949 13.3346 708 105.908 600.74 495.047
103 0 52.0365 12.9332 673 107.614 601.158 493.571
104 0 53.0538 12.4213 659 107.578 601.185 494.706
105 0 56.1296 12.8453 721 107.261 601.143 490.634
106 0 58.1651 13.582 790 105.23 599.344 492.647
107 0 59.1043 12.4356 735 108.824 600.133 490.356
108 0 63.2085 14.0962 891 104.604 599.614 489.962
109 0 64.1664 12.0312 772 108.508 599.563 486.956
110 0 66.0999 13.7065 906 106.238 599.734 487.942
111 0 69.1545 13.8097 955 106.244 599.468 486.631
112 0 72.1058 13.4802 972 108.328 598.556 484.558
113 0 73.192 13.7583 1007 108.333 598.013 485.804
114 1 39.1983 10.6637 418 107.706 598.99 502.191
115 0 41.1399 10.7438 442 105.038 599.204 504.624
116 0 42.1431 12.5762 530 107.292 598.823 501.013
117 0 43.2816 10.8591 470 108.298 598.872 502.532
118 0 46.1449 13.2409 611 108.241 598.969 498.848
119 0 47.1871 13.4571 635 107.628 597.876 498.573
120 0 47.208 13.1757 622 108.961 598.532 497.981
121 0 51.233 14.0534 720 107.504 599.442 496.94
122 0 51.2243 13.9192 713 110.238 597.882 493.884
123 0 51.2124 13.5905 696 111.371 597.138 495.139
124 0 54.228 13.6276 739 112.457 597.974 494.235
125 0 55.2477 14.1182 780 111.646 597.301 493.919
126 0 57.1929 14.1451 809 112.733 597.402 492.316
127 0 57.0863 13.9788 798 115.404 597.436 491.663
128 0 60.2829 14.6144 881 114.998 597.368 490.187
129 0 61.2246 14.6836 899 115.596 597.226 489.723
130 0 63.5159 13.7761 875 117.496 598.518 488.394
131 0 66.1667 14.7355 975 114.791 598.845 488.226
132 0 67.1647 14.7845 993 115.64 599.235 487.358
133 0 70.3532 14.3135 1007 117.33 598.461 486.267
134 0 71.3256 14.1604 1010 114.567 599.558 487.265
135 0 74.2849 15.2925 1136 112.753 600.145 485.62
136 0 76.4808 14.788 1131 114.084 599.129 485.2
137 0 79.1832 14.7001 1164 114.746 599.587 484.406
138 0 81.3292 14.9639 1217 115.378 599.284 482.637
139 0 84.1206 14.61 1229 116.187 599.332 481.257
140 0 87.1903 14.7149 1283 116.837 599.343 477.605
141 0 89.3433 15.5692 1391 115.506 598.95 476.843
142 0 93.2352 15.2732 1424 115.803 599.317 477.421
143 0 96.1339 16.3314 1570 113.29 599.236 476.252
144 0 100.239 15.1538 1519 115.636 599.398 475.801
145 0 102.242 15.3264 1567 116.974 599.595 474.059
146 0 107.281 16.4335 1763 113.511 599.622 472.179
147 0 108.348 15.4595 1675 117.608 598.503 469.661
148 0 115.249 17.1454 1976 112.332 598.326 469.781
149 0 116.144 15.4206 1791 117.789 597.663 467.799
150 0 122.28 15.767 1928 116.702 597.143 465.27
151 1 68.131 14.3987 981 113.063 597.222 492.275
152 0 69.1065 15.2084 1051 113.01 597.717 490.775
153 0 70.171 14.9492 1049 114.647 596.742 488.674
154 0 73.1759 15.0323 1100 114.335 596.796 486.588
155 0 74.1012 15.9512 1182 112.376 596.315 485.286
156 0 79.3576 14.7434 1170 113.366 595.932 485.469
157 0 79.1278 13.8131 1093 116.714 595.742 482.511
158 0 84.2287 16.0753 1354 112.425 595.592 478.977
159 0 88.1735 15.5375 1370 113.311 596.507 477.905
160 0 90.1124 14.8592 1339 114.512 596.577 477.247
161 1 47.2018 11.2496 531 114.234 597.139 498.309
162 0 50.127 12.5681 630 110.059 597.054 498.241
163 0 51.1885 13.5382 693 110.501 597.238 495.131
164 0 52.1943 13.354 697 110.291 598.277 495.684
165 0 52.0832 13.1136 683 112.192 598.362 494.379
166 0 56.1039 14.0454 788 108.836 598.095 493.807
167 0 57.1312 13.4952 771 109.117 598.654 493.467
168 0 59.1781 12.5722 744 111.31 599.075 493.477
169 0 61.2139 13.5427 829 110.363 598.344 490.831
170 0 62.042 11.8629 736 113.387 598.279 489.67
171 0 68.1935 13.3884 913 108.48 599.094 489.491
172 0 69.1169 13.6725 945 109.003 599.047 488.294
173 0 71.188 12.6145 898 109.548 599.267 488.08
174 1 37.0908 10.0025 371 107.097 599.21 504.261
175 0 39.1544 10.9566 429 105.536 599.112 503.41
176 0 41.1591 12.3423 508 103.091 598.844 503.526
177 0 40.1118 12.0912 485 104.26 597.981 502.26
178 0 42.1454 11.1756 471 104.123 597.898 502.433
179 0 45.1175 12.8996 582 101.155 597.256 500.959
180 0 44.1555 12.7504 563 102.004 597.171 501.107
181 0 48.232 12.8545 620 101.292 596.116 499.635
182 0 49.2108 11.9892 590 103.056 595.192 498.012
183 0 51.1185 13.5959 695 99.3741 595.125 497.486
184 0 52.1458 13.0979 683 99.6003 594.974 496.498
185 0 53.2889 12.1977 650 100.335 595.202 497.068
186 0 56.2635 13.1168 738 98.9241 595.401 495.763
187 0 57.12 14.0231 801 98.1386 594.77 494.423
188 0 59.1593 13.7256 812 100.113 595.606 492.995
189 0 59.2896 12.6498 750 102.38 595.917 493.092
190 0 62.1124 12.6384 785 102.707 596.364 490.966
191 0 66.1947 13.7624 911 100.74 596.457 489.342
192 0 67.0994 14.322 961 100.177 596.495 488.011
193 0 68.2976 13.0312 890 102.845 596.207 486.426
194 0 71.7493 12.1674 873 104.263 596.064 486.016
195 1 35.2609 9.44388 333 103.042 596.637 503.724
196 0 39.2303 10.3491 406 102.759 596.525 501.985
197 0 42.354 13.2927 563 97.4121 597.906 501.947
198 0 42.226 12.0068 507 101.546 597.197 501.499
199 0 43.4909 12.0945 526 101.894 598.224 500.797
200 0 45.3685 14.6137 663 98.3122 596.6 499.787
201 0 45.1803 11.9521 540 104.961 597.656 499.074
202 0 47.0462 13.3273 627 102.774 596.821 497.7
203 0 49.0242 13.3811 656 102.395 598.218 498.912
204 0 51.0829 13.4487 687 103.667 596.801 496.386
205 0 52.1454 12.772 666 104.64 598.21 498.413
206 0 53.2018 14.4168 767 103.082 598.236 498.145
207 0 55.1981 13.7686 760 105.628 597.354 496.474
208 0 56.3236 14.0616 792 104.784 596.374 495.176
209 0 60.3448 14.0526 848 103.513 595.784 495.521
210 0 60.2136 13.8839 836 106.65 595.651 494.045
211 0 63.2562 14.5282 919 106.046 595.442 492.904
212 0 65.2364 14.4704 944 106.954 595.354 492.536
213 0 66.287 14.754 978 106.748 594.788 493.07
214 0 70.3262 15.1722 1067 105.839 595.624 491.573
215 0 70.3134 15.1323 1064 108.355 594.684 487.828
216 0 76.393 15.7606 1204 105.346 593.713 487.115
217 0 79.3802 16.1123 1279 104.213 594.429 485.838
218 0 81.2716 16.9186 1375 104.38 594.168 483.829
219 0 82.432 13.9388 1149 111.539 594.776 482.792
220 1 44.2821 10.7041 474 111.7 594.759 503.051
221 0 45.1629 12.2446 553 110.09 594.769 501.132
222 0 47.1599 12.5106 590 110.061 594.629 499.254
223 0 48.19 12.0772 582 111.198 594.351 499.21
224 0 52.2608 14.8677 777 104.634 593.996 497.84
225 0 52.2605 13.2988 695 108.4 593.832 498.386
226 0 52.0928 13.2072 688 110.11 594.844 496.214
227 0 53.0998 13.4464 714 110.14 595.062 495.494
228 0 56.3875 15.0565 849 106.577 595.724 494.461
229 0 58.2013 14.1234 822 108.724 595.354 494.271
230 0 58.1716 12.9616 754 110.15 595.987 494.489
231 0 61.2134 13.5428 829 109.236 596.501 491.017
232 0 63.2027 13.7969 872 108.596 597.037 491.22
233 0 66.3406 14.9983 995 105.762 597.343 490.206
234 0 68.2243 14.2764 974 108.054 597.256 488.771
235 0 69.2882 13.7686 954 110.662 597.687 487.952
236 0 74.4274 15.2901 1138 106.482 597.556 486.64
237 0 76.0891 13.5893 1034 110.71 597.381 486.83
238 1 41.2207 11.6931 482 108.757 597.429 503.956
239 0 43.2647 12.4351 538 108.359 597.076 503.935
240 0 41.155 10.7156 441 114.662 597.551 504.19
241 0 43.1335 11.3601 490 113.433 597.178 503.957
242 0 47.1924 13.3708 631 109.919 596.372 502.555
243 0 49.1922 13.0712 643 111.034 595.743 501.014
244 0 49.1922 13.1525 647 160.699 594.74 500.981
245 0 50.051 13.2465 663 113.25 596.575 499.931
246 0 52.1448 13.1557 686 114.166 596.915 498.173
247 0 54.1972 13.3217 722 112.715 596.274 498.247
248 0 55.1226 13.0255 718 114.553 595.698 496.884
249 0 59.2989 13.5753 805 109.866 594.711 498.314
250 0 60.2293 13.8969 837 109.97 594.608 495.554
251 0 65.3079 13.9034 908 107.748 594.272 494.914
252 0 66.3291 12.8752 854 111.584 594.108 492.766
253 0 68.2631 14.1072 963 109.059 594.74 491.286
254 0 70.3393 14.6575 1031 109.162 594.427 487.474
255 1 39.2671 9.65184 379 111.404 594.391 505.253
256 0 39.303 10.4827 412 110.566 594.403 503.068
257 0 43.1729 12.6468 546 104.28 594.52 502.652
258 0 45.1937 11.506 520 105.077 594.542 504.038
259 0 45.175 11.9978 542 106.116 595.539 500.555
260 0 47.2087 12.7519 602 104.317 595.769 498.254
261 0 48.2337 12.5224 604 105.308 595.488 497.172
262 0 49.0474 13.3544 655 104.043 597.09 496.814
263 0 49.0443 12.4785 612 106.549 596.68 496.237
264 0 51.1602 11.9429 611 106.573 596.481 496.578
265 0 55.1709 13.4129 740 102.668 596.574 495.797
266 0 57.2059 13.3902 766 103.29 596.373 493.786
267 0 58.2025 14.3465 835 101.747 597.466 493.404
268 0 60.3471 14.516 876 101.04 597.95 493.509
269 0 60.2827 11.9271 719 106.331 597.755 493.622
270 0 63.3459 13.2289 838 104.169 597.89 491.474
271 0 63.4941 12.7256 808 105.538 597.38 492.342
272 0 66.2144 12.7465 844 105.725 597.021 490.359
273 0 70.373 14.0395 988 103.15 596.961 490.826
274 1 37.0908 10.1373 376 105.811 597.412 507.585
275 0 35.1241 11.4736 403 105.29 597.945 508.191
276 0 39.1873 11.2792 442 105.731 597.152 506.731
277 0 42.2029 11.8238 499 102.659 597.19 507.246
278 0 40.1566 12.526 503 103.831 597.258 505.034
279 0 42.3635 13.5022 572 102.213 596.458 503.729
280 0 43.3475 13.0111 564 103.817 596.324 502.202
281 0 43.187 12.8511 555 105.753 596.616 503.283
282 0 45.333 12.7721 579 104.969 596.762 502.528
283 0 45.325 12.5759 570 107.777 595.991 500.137
284 0 48.2301 13.6844 660 105.527 595.074 500.12
285 0 51.3127 13.33 684 106.18 594.58 497.959
286 0 53.4968 13.9261 745 103.774 594.321 497.611
287 0 54.2076 13.2823 720 105.565 594.988 496.826
288 0 54.3879 13.4773 733 106.035 594.839 494.753
289 0 59.2622 14.5118 860 102.24 595.164 493.506
290 0 61.3107 13.766 844 103.553 596.146 492.239
291 0 61.3466 12.8613 789 106.01 596.452 490.523
292 0 63.4191 14.2228 902 103.329 596.987 490.333
293 0 67.2152 13.9403 937 103.957 597.529 488.527
294 0 67.1957 14.5694 979 102.922 598.056 486.924
295 0 70.1647 14.3519 1007 104.085 598.314 486.051
296 0 74.5282 15.417 1149 100.721 598.993 484.418
297 0 76.3348 15.17 1158 101.821 598.872 484.555
298 0 77.4756 14.753 1143 103.353 598.657 482.666
299 1 42.3415 11.4073 483 104.424 599.257 500.923
300 0 44.1873 11.2702 498 102.92 600.024 501.958
301 0 46.2132 12.4856 577 102.203 599.955 501.231
302 0 48.2704 13.3001 642 98.4907 600.72 502.391
303 0 49.2965 13.6115 671 98.5723 598.805 502.077
304 0 51.2889 13.8236 709 98.8843 599.035 500.489
305 0 52.2441 14.6428 765 97.4993 598.749 500.493
306 0 54.1965 13.0267 706 100.482 598.238 500.785
307 0 56.1863 14.3451 806 98.3065 598.279 499.989
308 0 56.2312 14.4937 815 100.264 597.99 498.017
309 0 59.2687 14.3752 852 100.335 597.502 496.878
310 0 60.2151 13.6178 820 102.432 597.649 495.807
311 0 62.1144 13.9742 868 102.173 596.84 494.29
312 0 66.1435 14.4081 953 101.277 595.907 493.683
313 0 69.106 14.3982 995 99.9397 595.653 490.856
314 0 71.2301 13.8425 986 100.872 596.208 491.251
315 0 74.1891 14.4496 1072 100.371 595.944 488.632
316 0 73.2969 12.9064 946 104.063 596.014 488.293
317 1 40.0909 9.70296 389 99.9409 596.663 506.589
318 0 42.0246 9.51823 400 102.322 595.965 503.52
319 0 43.0219 10.0879 434 102.286 595.995 501.737
320 0 46.0209 11.234 517 99.942 595.416 500.385
321 0 46.0813 10.6985 493 101.174 596.422 499.639
322 0 48.0783 12.2924 591 96.8579 596.418 499.8
323 0 47.1534 10.837 511 99.8943 597.483 498.431
324 0 52.0455 12.4506 648 95.8673 596.756 497.716
325 0 50.0657 12.1241 607 99.2521 597.451 494.857
326 0 53.0431 11.7452 623 98.886 597.897 496.461
327 0 54.133 12.0629 653 99.0184 596.855 494.634
328 0 54.1295 11.1769 605 100.833 597.061 494.099
329 0 58.3492 12.0139 701 98.6405 597.484 493.525
330 0 58.133 12.1618 707 98.3564 597.884 492.707
331 0 61.0957 13.5689 829 95.8878 598.31 493.195
332 0 63.3362 12.9784 822 97.0888 597.944 493.063
333 0 64.3603 13.1137 844 98.0841 597.559 491.076
334 0 66.3082 11.6124 770 100.639 597.712 490.965
335 0 68.1211 10.6428 725 101.887 598.341 491.636
336 1 39.1694 10.4418 409 95.0807 598.699 508.02
337 0 36.1401 7.71996 279 100.287 599.029 509.573
338 0 36.1441 6.99976 253 100.822 598.518 509.53
339 0 40.2895 10.772 434 97.0968 597.876 506.696
340 1 18.0689 6.64126 120 94.6833 598.967 518.075
341 0 17.0783 6.96791 119 96.6134 598.437 516.95
342 0 18.0645 7.58396 137 95.5693 597.401 516.467
343 0 18.1207 4.58041 83 98.8675 596.048 516.325
344 0 17.1094 7.18905 123 95.1707 596.48 515.837
345 0 19.0959 6.75538 129 96.4729 596.132 515.364
346 0 21.012 4.75918 100 101.29 596.48 512.47
347 0 27.0449 8.46739 229 97.7598 595.616 510.118
348 1 38.0927 5.90665 225 102.764 595.218 506.276
349 0 28.1409 7.56906 213 101.347 594.385 506.779
350 0 24.1232 6.38389 154 100.273 594.623 508.773
351 0 30.2808 5.91134 179 99.3911 595.173 508.989
352 0 29.0713 8.49635 247 98.4453 595.344 506.984
353 0 34.0679 10.2443 349 97.8825 595.905 504.115
354 0 36.2808 10.9149 396 97.8056 595.778 502.308
355 0 37.2176 10.2908 383 100.133 595.919 502.125
356 0 37.2494 8.56389 319 104.075 596.856 501.439
357 0 37.0939 11.1069 412 100.903 597.937 501.927
358 0 42.4938 11.5782 492 98.5386 597.935 501.209
359 0 43.1663 12.7877 552 97.3678 598.902 500.978
360 0 45.4944 12.0674 549 98.3497 598.734 501.051
361 0 46.1227 13.334 615 97.8423 599.156 499.702
362 0 48.1666 12.2284 589 100.61 599.89 498.694
363 0 50.3604 13.9991 705 97.4028 599.926 498.844
364 0 51.318 12.861 660 99.3485 600.398 500.053
365 0 52.3148 12.96 678 101.426 599.975 498.785
366 0 54.3308 13.5651 737 100.771 599.56 497.672
367 0 55.3265 11.6219 643 103.451 599.876 500.082
368 0 60.1393 14.1339 850 99.9965 598.887 497.562
369 0 60.4833 13.3425 807 102.161 597.911 498.705
370 0 61.1969 12.2719 751 105.225 598.049 495.84
371 0 65.5488 15.1338 992 99.7359 598.155 493.255
372 0 69.4565 14.5271 1009 99.5332 597.683 494.62
373 0 70.2178 13.7002 962 102.619 597.543 491.544
374 0 73.424 14.4775 1063 100.636 596.802 490.368
375 0 77.4884 15.099 1170 100.727 596.22 489.293
376 0 79.4895 13.5615 1078 103.854 595.697 486.716
377 1 40.1681 9.11171 366 104.792 596.194 507.036
378 0 45.2569 11.9982 543 101.429 594.799 505.085
379 0 45.2102 12.453 563 104.139 593.341 502.448
380 0 45.2599 12.0195 544 107.101 592.888 500.715
381 0 49.1323 14.1251 694 102.494 593.229 499.503
382 0 51.1029 14.5589 744 102.378 593.79 497.694
383 0 50.1525 13.0402 654 106.075 595.59 497.3
384 0 52.1571 13.8428 722 104.708 595.474 496.988
385 0 53.1966 13.2527 705 107.221 595.963 495.426
386 0 55.2199 12.6585 699 108.876 596.316 495.933
387 0 58.1644 14.4074 838 105.118 596.57 494.035
388 0 61.2139 14.6045 894 104.132 597.952 494.076
389 0 63.1794 13.2638 838 107.967 598.086 494.749
390 0 64.1906 14.4414 927 107.131 598.526 492.668
391 0 66.2147 13.713 908 109.86 597.989 491.149
392 0 67.1203 13.1853 885 111.35 599.175 490.492
393 0 70.2023 14.9995 1053 109.15 599.236 489.554
394 0 71.2159 14.0558 1001 111.566 599.205 491.794
395 0 75.2278 14.7685 1111 111.262 599.59 490.708
396 0 77.1958 14.1977 1096 113.974 600.291 489.502
397 0 82.188 16.5961 1364 109.166 600.205 489.4
398 0 85.1977 14.6483 1248 114.538 599.628 488.61
399 0 87.2721 13.7501 1200 118.124 598.789 487.598
400 1 46.1261 11.4035 526 119.044 599.618 507.279
401 0 47.0583 11.6026 546 119.24 598.573 505.967
402 0 50.0388 13.2097 661 115.794 597.638 504.788
403 0 53.0313 13.5769 720 115.333 597.1 501.864
404 0 55.0564 14.1855 781 112.163 596.33 503.461
405 0 56.0772 15.0507 844 112.143 596.206 501.084
406 0 58.1159 14.9013 866 112.782 595.232 500.177
407 0 60.1918 14.7695 889 111.345 595.866 498.568
408 0 61.211 14.6869 899 112.823 595.795 496.795
409 0 64.1491 14.7625 947 112.191 596.296 495.843
410 0 66.1951 14.7594 977 111.872 595.467 493.405
411 0 66.1219 14.5942 965 114.268 594.841 491.26
412 0 71.1659 15.3304 1091 109.975 594.813 488.836
413 0 73.2101 14.6701 1074 111.103 594.999 486.838
414 0 76.1226 14.8182 1128 109.75 594.858 485.528
415 1 41.1038 11.1182 457 109.074 596.46 503.451
416 0 44.2455 12.0238 532 106.767 596.961 503.432
417 0 42.1756 11.6181 490 109.957 597.22 501.561
418 0 44.1445 11.6662 515 111.095 598.017 500.47
419 0 46.0446 12.5748 579 110.983 599.637 499.371
420 0 48.144 12.2549 590 111.4 600.292 498.676
421 0 51.1438 13.4327 687 109.015 600.702 498.047
422 0 52.2033 13.4091 700 108.903 600.963 498.777
423 0 54.2296 13.9407 756 108.93 601.345 498.077
424 0 57.2029 14.3175 819 108.077 600.716 497.542
425 0 56.1352 11.9355 670 114.873 600.89 498.69
426 0 61.2521 14.4975 888 106.726 600.268 498.678
427 0 62.2802 13.4072 835 109.992 599.425 497.196
428 0 64.5488 13.1528 849 110.766 599.249 495.836
429 0 66.1566 14.1785 938 108.231 598.943 496.074
430 0 70.4237 14.1572 997 107.632 598.465 494.211
431 0 71.2223 14.3915 1025 109.47 597.696 490.428
432 1 37.2339 11.0115 410 111.517 598.441 509.073
433 0 40.2681 12.8886 519 108.765 597.145 507.158
434 0 41.1394 12.324 507 108.996 596.698 506.988
435 0 45.1168 12.7225 574 108.531 596.434 505.038
436 0 45.1288 13.1402 593 108.551 596.312 504.622
437 0 47.1481 14.0621 663 106.389 595.306 501.63
438 0 48.2119 13.4614 649 108.099 594.516 500.382
439 0 51.1565 15.1691 776 103.716 593.856 499.015
440 0 51.3281 14.1443 726 106.774 593.226 495.609
441 0 52.2353 11.9842 626 109.954 593.55 497.296
442 0 54.2402 13.8458 751 106.999 593.567 495.618
443 0 56.2294 14.1029 793 106.438 594.025 494.198
444 0 58.3492 14.379 839 105.026 594.626 493.256
445 0 61.1485 15.029 919 103.55 595.296 492.554
446 0 61.1508 14.0472 859 107.981 596.456 490.729
447 0 63.1793 14.3876 909 107.614 597.095 490.708
448 0 66.1778 14.2797 945 108.029 597.961 489.455
449 0 70.2855 14.7968 1040 106.082 598.665 489.144
450 0 71.2543 13.4448 958 110.239 600.044 486.091
451 1 35.3494 10.4669 370 107.562 600.541 506.249
452 0 39.1619 11.7972 462 107.478 601.221 503.933
453 0 39.1217 9.99446 391 109.133 601.258 505.66
454 0 42.2221 11.7 494 108.079 601.164 503.99
455 0 42.1558 11.7422 495 109.442 600.808 502.978
456 0 45.2141 12.4076 561 108.414 600.062 502.437
457 0 48.3013 14.7408 712 104.015 599.749 503.934
458 0 48.1353 12.548 604 109.561 599.545 504.492
459 0 50.1537 12.5016 627 108.797 599.07 503.762
460 0 52.1224 13.2189 689 107.852 598.459 502.546
461 0 52.1644 13.8025 720 109.49 597.762 499.547
462 0 54.3727 13.15 715 110.434 597.193 499.971
463 0 57.3039 14.4493 828 107.514 597.089 498.374
464 0 59.2388 13.6228 807 109.016 596.249 496.688
465 0 60.2259 13.9641 841 109.37 594.386 495.559
466 0 63.4287 14.5518 923 107.909 595.324 493.631
467 0 66.2089 14.7865 979 108.289 594.951 491.404
468 0 68.4437 13.88 950 111.26 595.403 488.773
469 0 68.4183 13.3298 912 113.708 594.253 486.867
470 0 74.4189 15.3456 1142 108.209 593.999 485.594
471 0 76.3113 14.0739 1074 112.1 593.296 483.722
472 0 79.2856 14.6054 1158 111.227 593.283 482.196
473 0 81.4322 14.9941 1221 112.133 593.668 478.411
474 1 45.1363 11.144 503 111.095 594.763 499.674
475 0 45.2059 11.1269 503 114.412 595.38 495.95
476 0 49.175 13.2181 650 109.955 596.037 495.466
477 0 52.1918 14.0252 732 107.63 597.79 493.769
478 0 54.3059 13.1662 715 107.912 598.888 493.559
479 0 56.2097 15.2998 860 103.645 601.508 495.216
480 0 57.1644 13.8898 794 109.768 601.746 493.476
481 0 59.4379 13.88 825 111.007 603.291 492.593
482 0 62.3582 12.8772 803 112.443 603.087 494.462
483 0 66.4143 12.0757 802 112.454 602.514 492.747
484 0 68.3706 13.8802 949 109.641 602.126 492.476
485 0 69.2769 13.9729 968 110.778 601.831 492.791
486 0 73.3388 13.6217 999 110.679 600.948 491.949
487 0 77.4315 13.6249 1055 110.064 600.318 491.604
488 0 81.3417 14.0764 1145 109.716 599.059 488.904
489 1 44.2015 12.2847 543 106.074 599.238 508.954
490 0 42.2721 11.0475 467 110.268 598.276 507.627
491 0 47.2294 12.7463 602 104.869 597.877 506.174
492 0 46.1952 13.378 618 106.479 596.887 504.966
493 0 49.1002 13.0142 639 106.056 595.585 503.875
494 0 50.5211 12.8461 649 106.576 595.806 501.908
495 0 52.1716 13.5323 706 105.035 594.608 500.501
496 0 54.2855 13.1343 713 106.623 593.638 498.565
497 0 55.1286 14.4753 798 104.764 593.056 495.009
498 0 55.185 13.5544 748 107.854 592.203 492.836
499 0 58.5724 13.7266 804 106.469 592.516 491.996
500 0 61.4027 13.7453 844 106.049 592.479 492.255
501 0 62.4157 13.2819 829 107.421 592.238 490.263
502 0 65.5652 13.8488 908 106.899 593.434 488.331
503 0 67.3981 13.5315 912 107.104 593.627 487.879
504 0 71.4882 15.3872 1100 103.093 594.134 486.194
505 0 72.4328 13.5022 978 108.061 596.23 482.189
506 0 74.3742 12.5985 937 109.065 598.772 485.97
507 0 77.7239 12.2742 954 111.473 600.198 480.618
508 0 82.4498 13.5598 1118 108.802 601.345 480.977
509 1 43.3059 10.9223 473 139.784 602.658 500.609
510 0 47.4295 13.2407 628 105.535 603.228 499.975
511 0 50.2408 12.8979 648 105.418 602.787 501.699
512 0 53.387 12.4375 664 106.562 603.5 500.807
513 0 54.1632 13.5147 732 106.612 604.056 501.687
514 0 56.2011 13.9321 783 106.512 603.227 499.814
515 0 58.2754 13.5048 787 107.367 602.263 501.724
516 0 61.2264 14.0789 862 108.358 601.723 500.164
517 0 62.4662 13.6394 852 110.702 600.566 500.906
518 0 64.3261 13.7425 884 109.448 598.719 499.589
519 0 68.4499 15.0329 1029 104.576 597.347 498.672
520 0 70.3227 13.1963 928 108.237 596.353 497.192
521 0 72.204 13.5034 975 107.37 594.656 495.062
522 0 74.3554 12.252 911 109.745 593.341 493.868
523 0 80.4074 14.5012 1166 104.672 592.136 491.864
524 1 43.1637 11.5375 498 103.219 591.177 510.803
525 0 42.1411 10.2987 434 107.634 590.767 509.263
526 0 45.1337 12.8507 580 104.857 590.386 506.612
527 0 46.1928 13.6601 631 104.712 589.282 504.545
528 0 47.1052 12.419 585 107.282 588.513 503.412
529 0 50.3643 14.3951 725 102.684 588.433 502.19
530 0 50.2743 13.6451 686 105.074 589.092 502.257
531 0 51.3061 13.5851 697 105.666 589.623 501.868
532 0 52.2284 12.8091 669 108.48 589.717 500.722
533 0 54.2953 13.7028 744 107.21 590.519 500.14
534 0 57.2727 14.6318 838 106.407 592.891 499.109
535 0 59.4546 14.4816 861 106.462 594.506 498.793
536 0 62.3008 14.7671 920 105.807 596.504 499.118
537 0 63.2751 14.0339 888 109.706 597.709 495.678
538 0 66.2741 14.6211 969 109.18 598.971 496.282
539 0 68.317 14.7108 1005 110.441 600.497 497.192
540 0 73.2472 14.3896 1054 111.545 600.54 498.627
541 0 74.3824 14.6809 1092 115.406 600.802 495.74
542 1 41.0366 11.4288 469 115.267 598.949 515.701
543 0 43.1741 11.72 506 115.773 598.204 515.941
544 0 44.1303 12.2138 539 117.395 597.659 514.083
545 0 49.1094 13.5819 667 113.517 595.528 514.159
546 0 50.1699 13.5141 678 115.206 594.019 513.733
547 0 52.2339 14.033 733 115.101 592.591 510.88
548 0 53.2363 14.2384 758 115.219 591.5 511.08
549 0 54.232 12.9628 703 118.688 589.967 509.027
550 0 56.2822 15.1025 850 112.771 589.067 507.585
551 0 60.2749 13.6541 823 115.205 588.219 505.791
552 0 61.5169 14.6951 904 113.772 586.365 502.862
553 0 64.363 14.6979 946 113.152 586.573 501.074
554 0 64.3638 12.7711 822 117.83 586.663 498.193
555 0 68.4549 13.644 934 116.238 586.411 496.087
556 0 72.2701 15.1653 1096 112.583 586.163 492.505
557 0 75.3294 14.3769 1083 114.582 586.825 489.339
558 1 40.1378 10.5387 423 116.556 587.636 505.165
559 0 41.1274 10.893 448 114.277 588.002 505.009
560 0 43.0557 11.6826 503 114.714 588.37 502.527
561 0 45.3674 11.6383 528 115.648 589.521 502.244
562 0 47.2011 13.2624 626 115.478 590.658 499.058
563 0 49.0857 12.6921 623 117.058 591.316 498.132
564 0 51.1371 12.574 643 116.832 593.731 498.54
565 0 52.2406 13.0933 684 116.614 595.743 498.393
566 0 53.1915 12.596 670 117.549 598.5 497.76
567 0 56.2001 12.3309 693 117.266 599.641 498.71
568 0 58.1506 12.7772 743 116.089 600.518 497.755
569 0 60.2149 13.4518 810 114.715 600.435 497.353
570 0 63.3466 12.2027 773 115.931 600.591 500.569
571 0 65.0748 13.0465 849 115.501 600.389 498.618
572 0 68.3129 13.6138 930 113.958 599.37 497.851
573 0 71.206 13.2433 943 113.805 598.944 498.985
574 0 76.2983 14.7579 1126 109.931 598.845 497.012
575 0 78.1748 14.0071 1095 111.569 597.876 495.773
576 1 41.1295 11.5489 475 108.787 596.099 515.04
577 0 41.1219 10.5297 433 110.73 593.002 513.247
578 0 45.342 12.5932 571 106.357 592.098 510.536
579 0 45.3306 12.2654 556 107.471 590.894 510.36
580 0 48.0809 12.375 595 108.734 589.79 508.455
581 0 49.392 12.8158 633 107.706 589.025 507.731
582 0 51.4493 13.1003 674 108.455 588.596 505.089
583 0 51.3999 12.8405 660 108.432 587.956 503.285
584 0 53.3183 11.9096 635 111.378 587.518 502.027
585 0 55.5281 14.227 790 107.029 587.571 499.785
586 0 57.4265 12.294 706 110.939 587.612 499.83
587 0 59.4379 13.1566 782 109.725 587.83 496.054
588 0 60.4197 14.1179 853 108.162 588.177 494.067
589 0 62.5215 13.4354 840 109.282 589.065 494.998
590 0 66.4665 13.4504 894 108.547 589.614 492.113
591 0 67.4238 12.3398 832 110.72 590.171 493.501
592 0 72.7544 13.2088 961 110.436 591.599 490.306
593 1 38.3856 11.4887 441 109.977 594.508 506.172
594 0 40.1904 10.6244 427 109.813 597.075 507.963
595 0 41.1845 9.63954 397 113.252 599.212 508.529
596 0 41.1845 9.5667 394 158.708 601.211 508.693
597 0 43.1869 11.4155 493 115.665 601.387 507.394
598 0 49.137 13.676 672 112.192 602.286 506.293
599 0 51.1307 13.3384 682 113.504 601.609 506.762
600 0 52.2326 13.2676 693 113.742 600.519 507.009
601 0 57.089 14.1008 805 110.796 597.917 510.066
602 0 57.168 14.3437 820 111.644 597.76 510.127
603 0 60.39 13.8765 838 112.23 596.286 510.802
604 0 62.4423 13.7727 860 112.307 594.523 509.03
605 0 64.3421 14.4384 929 109.112 591.531 508.994
606 0 69.3606 14.922 1035 106.44 591.184 509.312
607 0 68.408 12.9517 886 111.889 590.586 508.998
608 1 39.1284 11.3217 443 110.363 589.445 522.797
609 0 40.1947 11.3199 455 110.09 588.198 522.673
610 0 42.2413 11.9315 504 108.073 587.472 521.766
611 0 43.1292 13.0306 562 104.461 586.714 520.92
612 0 45.0959 12.795 577 106.546 585.362 518.147
613 0 46.0791 13.5636 625 104.79 584.259 516.41
614 0 46.1403 12.9171 596 106.773 583.653 515.488
615 0 50.2408 13.0571 656 104.503 584.742 515.189
616 0 49.244 13.687 674 104.598 583.663 510.645
617 0 53.1568 13.8082 734 102.313 584.88 511.29
618 0 53.1819 12.429 661 105.723 585.375 509.635
619 0 54.1839 13.1035 710 105.406 585.5 508.079
620 0 56.2488 13.2803 747 104.849 586.498 505.839
621 0 58.1566 13.1198 763 105.545 587.144 504.944
622 0 61.173 14.1239 864 102.911 589.41 502.972
623 0 63.2183 14.7109 930 101.662 588.762 503.591
624 0 67.369 14.3389 966 101.976 590.703 501.786
625 0 68.1574 14.4372 984 102.326 592.458 500.846
626 0 69.3973 12.5077 868 105.541 592.164 499.876
627 0 73.2753 12.7874 937 103.969 591.635 499.933
628 1 40.2853 11.8157 476 98.5315 591.968 516.721
629 0 41.2155 11.2822 465 99.6946 591.751 517.557
630 0 43.1641 12.5104 540 97.3407 590.069 519.322
631 0 42.1686 10.79 455 102.262 590.589 518.382
632 0 44.0852 11.387 502 100.084 588.616 520.285
633 0 46.1319 13.1579 607 96.6738 587.682 520.88
634 0 49.1959 12.8669 633 97.8578 587.953 520.126
635 0 52.0889 12.8818 671 97.7973 587.784 519.699
636 0 55.0992 14.3015 788 93.9162 586.28 519.355
637 0 56.126 13.0065 730 95.9658 583.648 518.136
638 0 58.2156 12.2819 715 96.4979 582.501 516.109
639 0 60.3698 11.9265 720 98.0056 580.814 512.342
640 0 61.1496 12.6738 775 96.1729 580.626 511.449
641 0 64.2432 13.3711 859 95.3341 580.321 507.64
642 0 67.1979 11.9051 800 98.75 579.441 504.95
643 0 68.2653 12.4661 851 96.9976 579.173 501.865
644 0 73.0836 12.6841 927 96.5912 579.741 500.503
645 0 75.1798 12.929 972 96.4907 580.495 498.665
646 1 41.2352 11.8346 488 92.2746 581.186 517.43
647 0 40.1547 9.63772 387 97.4134 583.15 516.408
648 0 40.2484 11.5284 464 94.2198 584.534 516.343
649 0 44.2105 11.4905 508 94.3701 585.388 515.961
650 0 45.2012 11.6811 528 93.6061 586.742 515.994
651 0 47.3324 13.8172 654 91.2829 588.59 511.986
652 0 48.3209 13.3069 643 93.1477 590.068 511.453
653 0 51.1268 12.3223 630 92.4667 590.905 513.405
654 0 52.4208 12.2661 643 94.1462 591.963 512.565
655 0 51.1109 12.2283 625 95.8112 593.083 510.208
656 0 54.2021 12.3242 668 95.7395 593.278 510.241
657 0 55.376 11.6476 645 96.1442 593.757 510.302
658 0 61.2721 13.8399 848 91.0436 593.421 510.639
659 0 63.4265 12.2977 780 94.1526 593.387 511.553
660 0 65.2693 12.9004 842 93.0641 592.219 509.309
661 1 38.1272 12.0649 460 91.5587 590.611 524.261
662 0 40.1957 12.2152 491 90.8167 589.798 524
663 0 42.2719 12.5852 532 89.5526 588.021 522.476
664 0 44.1649 12.7477 563 90.849 588.055 520.343
665 0 44.0939 12.0652 532 91.5 587.361 518.214
666 0 46.1818 13.2087 610 89.7311 585.839 517.052
667 0 46.2185 10.8615 502 92.6454 585.51 514.96
668 0 49.2455 12.9149 636 88.5503 584.789 512.981
669 0 51.2434 14.4019 738 86.1477 584.499 510.873
670 0 52.1939 12.7026 663 88.0136 584.386 510.299
671 0 54.2567 12.4224 674 88.5727 583.684 505.994
672 0 55.2736 11.5064 636 90.9654 584.464 506.219
673 0 56.2765 11.5679 651 92.6836 586.157 503.409
674 0 60.1651 13.2801 799 90.4906 586.622 501.315
675 0 60.2463 12.0671 727 93.3549 587.087 501.227
676 0 63.1121 12.866 812 92.6823 587.741 499.015
677 0 63.2813 12.8158 811 94.1245 588.393 498.657
678 0 66.2533 12.3918 821 95.9269 589.611 495.737
679 1 36.0143 9.74613 351 95.9373 591.085 511.202
680 0 39.1013 10.3577 405 95.437 593.373 512.057
681 0 38.0432 8.93721 340 101.812 594.594 511.297
682 0 40.0299 10.6171 425 100.546 596.741 511.049
683 0 44.1134 12.7399 562 96.8488 597.536 511.815
684 0 44.2037 12.6912 561 99.5276 598.335 510.909
685 0 45.1512 12.8236 579 100.553 599.378 513.748
686 0 47.2731 13.4749 637 101.868 599.003 513.223
687 0 49.287 13.3909 660 103.774 598.55 511.376
688 0 51.2934 12.9646 665 104.265 597.973 512.343
689 0 55.3545 14.38 796 100.971 597.545 511.71
690 0 56.2303 14.5829 820 102.278 596.571 510.277
691 0 59.2288 14.9927 888 100.944 594.866 507.994
692 0 61.1362 13.151 804 105.15 594.568 509.164
693 0 62.2342 13.9152 866 104.336 593.14 504.967
694 0 64.1327 13.1446 843 105.181 591.937 505.94
695 1 36.1205 12.569 454 99.5727 590.645 516.176
696 0 36.096 10.1396 366 101.178 590.027 517.702
697 0 37.1632 10.7095 398 104.151 588.698 512.779
698 0 38.0282 12.7011 483 101.246 588.867 510.992
699 0 42.0587 12.8392 540 100.881 589.207 508.857
700 0 43.0512 13.6349 587 100.719 589.368 506.891
701 0 43.222 13.3265 576 102.26 589.736 506.311
702 0 44.3934 12.0288 534 104.618 590.369 505.358
703 0 46.2094 13.309 615 103.25 590.854 502.998
704 0 48.4379 13.4399 651 103.269 591.951 501.61
705 0 52.1674 14.3576 749 99.8491 592.401 501.443
706 0 53.2632 13.7806 734 102.208 593.396 500.244
707 0 53.3537 12.9701 692 105.645 593.818 497.994
708 0 54.2609 12.3293 669 107.843 595.81 499.474
709 0 56.4537 13.1967 745 106.856 598.26 499.091
710 0 61.244 14.4831 887 103.405 600.219 499.69
711 0 61.2473 12.9149 791 108.166 601.893 500.469
712 0 61.3533 13.1207 805 109.683 603.157 497.827
713 0 67.2612 14.5552 979 105.307 604.165 499.05
714 1 37.2669 11.1091 414 106.188 605.58 514.386
715 0 39.0722 11.2356 439 107.027 604.656 513.387
716 0 39.1143 11.2746 441 107.383 602.497 514.177
717 0 40.088 11.0008 441 108.898 601.73 514.726
718 0 44.1082 13.2628 585 104.504 600.614 514.007
719 0 46.177 12.9502 598 106.373 598.555 510.985
720 0 47.1006 13.1209 618 103.947 597.735 512.956
721 0 50.2764 14.5595 732 101.243 596.641 511.004
722 0 52.3459 14.4615 757 100.474 594.712 508.812
723 0 53.0583 13.4757 715 102.34 592.371 506.387
724 0 54.162 14.1612 767 101.703 591.316 504.259
725 0 56.2108 13.3248 749 102.075 590.951 504.764
726 0 57.1349 13.6694 781 101.881 590.51 500.396
727 0 60.1257 13.505 812 101.038 590.197 501.358
728 0 59.121 12.9565 766 102.948 590.033 498.96
729 0 62.1691 12.5947 783 103.604 588.212 495.197
730 0 67.2687 13.2603 892 100.549 587.928 494.086
731 0 67.281 13.4065 902 101.765 588.185 492.029
732 0 69.2908 13.9268 965 100.263 589.234 491.993
733 0 73.3383 13.4309 985 100.984 589.41 489.798
734 0 75.4106 13.274 1001 101.12 591.302 487.959
735 1 41.096 12.5073 514 99.2899 592.951 504.712
736 0 40.1391 11.8338 475 99.5074 594.893 507.491
737 0 42.0853 11.6905 492 100.827 595.927 505.799
738 0 48.2268 12.6071 608 98.2155 597.63 506.47
739 0 48.2434 12.1882 588 100.304 599.376 506.726
740 0 51.1569 14.0353 718 98.1184 600.375 506.492
741 0 54.2494 13.8619 752 98.7434 600.569 507.858
742 0 55.1258 13.3876 738 102.084 601.179 507.509
743 0 58.0761 13.8783 806 101.38 600.476 507.794
744 0 60.1329 13.6863 823 103.122 599.417 509.186
745 0 64.0932 14.5569 933 100.056 597.673 509.451
746 0 68.0895 14.6866 1000 101.785 595.726 508.219
747 0 70.0824 13.5412 949 103.799 593.928 508.806
748 0 73.0522 13.8668 1013 103.857 591.203 506.291
749 0 76.1169 12.98 988 106.985 591.163 502.947
750 1 37.0371 10.314 382 103.696 589.743 523.136
751 0 41.0588 11.6175 477 102.495 588.335 520.545
752 0 42.0479 13.7224 577 98.6205 586.263 518.66
753 0 43.1133 12.2004 526 102.559 584.996 515.12
754 0 45.0927 12.4854 563 100.439 584.423 514.661
755 0 48.0945 12.7457 613 100.574 585.103 511.519
756 0 49.0665 13.5938 667 98.8381 585.435 510.244
757 0 48.1384 12.3186 593 102.209 584.376 508.981
758 0 51.1404 13.5509 693 99.4228 585.452 505.478
759 0 52.1442 13.9996 730 100.286 585.474 503.879
760 0 54.1448 13.0022 704 100.665 586.557 504.175
761 0 54.1024 12.9754 702 103.375 587.58 500.711
762 0 57.133 13.5473 774 101.194 588.537 501.973
763 0 58.1052 13.51 785 103.792 590.822 500.157
764 0 60.1542 14.1802 853 103.243 592.252 497.281
765 0 64.0897 12.857 824 105.165 593.138 497.246
766 0 67.0969 13.1303 881 104.442 594.931 497.956
767 0 68.0721 12.0901 823 106.306 596.61 498.501
768 1 38.05 9.32983 355 101.189 597.944 516.141
769 0 38.0597 10.9565 417 102.65 597.897 513.93
770 0 41.1027 12.4079 510 98.4137 598.147 515.643
771 0 41.0322 11.8444 486 102.294 597.451 514.698
772 0 43.0322 12.479 537 100.518 597.559 515.493
773 0 43.1092 13.0367 562 101.977 596.731 515.548
774 0 41.1009 9.46451 389 105.661 595.093 514.913
775 0 48.0768 12.7296 612 97.3905 594.232 514.9
776 0 50.0574 12.3858 620 89.9742 592.769 514.29
777 0 52.0954 13.053 680 88.25 591.804 511.9
778 0 51.06 12.5539 641 89.5289 590.694 511.019
779 0 54.0737 12.9268 699 88.7511 588.227 508.236
780 0 56.1322 12.239 687 89.5604 587.355 507.648
781 0 58.0537 11.0932 644 90.3168 586.332 506.303
782 0 62.07 13.4364 834 86.6211 585.676 504.129
783 0 65.173 12.2904 801 88.3084 586.494 502.727
784 1 35.1588 9.1869 323 89.5913 587.467 514.226
785 0 38.0154 9.7855 372 87.4704 586.938 514.035
786 0 39.0211 10.584 413 87.5956 585.724 510.826
787 0 41.2187 11.9848 494 84.083 587.277 510.897
788 0 43.2998 13.5567 587 82.0511 588.409 510.239
789 0 43.1731 12.0445 520 85.1846 589.36 510.052
790 0 43.2899 13.0515 565 84.6726 589.428 511.469
791 0 45.1195 11.9239 538 87.5242 591.335 509.701
792 0 48.1865 13.9873 674 84.4228 593.18 509.043
793 0 49.2113 13.2896 654 86.6881 595.786 510.384
794 0 50.3885 12.3044 620 88.9097 597.068 511.89
795 0 54.2302 13.3689 725 87.3793 598.807 511.161
796 0 56.2126 13.9648 785 87.2433 598.88 510.423
797 0 55.2074 11.8462 654 92.4832 598.45 511.843
798 0 58.2859 13.1764 768 89.6641 596.923 511.678
799 1 32.1116 11.1486 358 91.0587 596.321 526.014
800 0 33.1496 11.0408 366 91.571 594.915 526.705
801 0 36.0727 11.6986 422 90.4171 591.382 526.813
802 0 37.1273 11.9858 445 89.3393 589.971 526.126
803 0 37.1372 12.2788 456 91.4649 587.849 524.785
804 0 39.2463 13.1477 516 90.4322 585.992 521.897
805 0 41.3148 14.4742 598 89.1572 584.594 520.836
806 0 41.0952 14.4056 592 90.8547 583.566 518.725
807 0 42.282 14.3087 605 92.5008 582.554 518.344
808 0 45.1157 14.0971 636 95.5016 581.816 515.178
809 0 45.1463 13.5781 613 97.4829 581.628 514.134
810 0 47.0981 14.6503 690 94.942 582.043 513.312
811 0 48.1088 13.9476 671 98.9151 581.751 510.42
812 0 49.1963 14.6353 720 98.4125 582.382 509.956
813 0 51.1716 14.2462 729 100.252 583.058 507.176
814 0 53.1401 14.2642 758 99.372 584.199 506.497
815 0 54.1175 13.9881 757 99.7437 585.384 506.297
816 0 55.2716 14.5825 806 101.586 586.46 504.841
817 0 58.0384 14.9384 867 101.437 587.999 502.564
818 0 61.0812 14.9473 913 101.509 590.003 501.99
819 0 62.1506 15.2211 946 102.871 592.232 500.897
820 0 66.1184 14.1716 937 105.79 594.229 501.093
821 0 68.1412 15.8348 1079 104.165 594.913 499.956
822 1 32.0508 11.2946 362 111.204 595.707 517.981
823 0 37.0418 14.0652 521 105.866 597.065 517.608
824 0 38.0438 12.1965 464 110.808 597.168 518.713
825 0 40.0417 13.5609 543 108.762 596.797 518.365
826 0 41.0967 13.8454 569 112.299 596.118 516.784
827 0 44.0165 15.1307 666 110.204 595.646 516.521
828 0 45.0816 14.5736 657 111.493 594.688 518.245
829 0 49.2092 15.1598 746 108.895 592.63 516.315
830 0 50.0655 15.0004 751 110.013 590.699 514.919
831 0 54.0511 15.5964 843 106.865 589.113 513.179
832 0 54.1315 14.7234 797 110.916 588.079 511.711
833 0 54.1192 15.9093 861 109.192 587.698 509.965
834 0 57.0759 15.5232 886 111.203 586.492 507.041
835 0 60.0631 14.9509 898 110.744 586.264 505.879
836 0 62.0739 15.2721 948 110.804 586.199 503.167
837 0 65.1376 15.8127 1030 108.949 585.523 499.93
838 0 67.1391 15.5796 1046 106.81 585.239 500.261
839 1 37.0406 13.1747 488 105.303 586.035 514.768
840 0 35.0457 14.153 496 107.218 587.058 514.06
841 0 37.023 13.9643 517 106.031 587.311 514.847
842 0 38.0757 14.8389 565 106.793 588.202 513.241
843 0 37.0112 14.1308 523 112.925 588.815 512.723
844 0 41.0413 15.3504 630 110.165 591.49 512.127
845 0 42.0438 15.4839 651 109.286 592.487 512.857
846 0 43.0914 14.9218 643 112.557 594.387 512.56
847 0 43.0914 14.9682 645 160.881 596.395 512.502
848 0 47.046 15.3254 721 111.993 596.832 513.612
849 0 50.073 16.0566 804 111.303 597.337 512.405
850 0 49.1048 15.0087 737 116.433 598.229 513.343
851 0 53.1313 14.7747 785 116.349 598.893 513.517
852 0 56.0549 15.467 867 114.694 599.137 515.172
853 0 58.0352 14.6807 852 116.284 597.303 515.784
854 0 61.1823 15.5764 953 115.497 595.049 513.081
855 0 65.0704 15.1375 985 113.96 592.785 512.426
856 0 66.1366 14.8934 985 114.355 591.352 510.639
857 1 35.0441 11.0432 387 113.641 589.543 525.873
858 0 37.0278 13.6654 506 111.217 587.688 522.536
859 0 40.0752 14.6724 588 103.932 585.497 523.223
860 0 42.0894 14.3266 603 106.038 584.453 521.159
861 0 41.0659 15.8039 649 105.43 583.179 518.581
862 0 43.177 14.7069 635 106.109 583.581 517.156
863 0 44.1188 15.3449 677 105.997 582.459 514.43
864 0 46.1299 14.5676 672 107.537 582.195 512.908
865 0 47.09 15.035 708 107.965 582.414 511.014
866 0 49.0595 15.4914 760 106.333 583.195 510.747
867 0 52.0726 14.0765 733 107.745 584.071 509.749
868 0 50.0627 12.9837 650 108.42 584.68 508.346
869 0 55.2695 15.5782 861 101.458 586.016 506.598
870 0 56.0298 14.171 794 106.544 587.657 504.46
871 0 57.1425 14.2276 813 107.522 587.786 503.351
872 0 62.1502 14.3845 894 106.565 588.981 502.732
873 0 66.1492 15.9941 1058 102.819 591.212 502.742
874 0 68.0763 14.3369 976 109.043 592.139 501.606
875 0 70.1883 14.1762 995 106.705 592.362 501.479
876 1 34.0891 10.6779 364 108.728 593.769 519.027
877 0 39.0728 12.2336 478 105.276 594.301 518.22
878 0 40.0639 11.8561 475 106.981 594.829 519.352
879 0 41.214 13.5148 557 107.56 594.697 518.659
880 0 44.1844 13.9868 618 105.54 594.854 517.157
881 0 45.1246 12.2549 553 108.857 593.016 518.354
882 0 48.1795 13.2421 638 106.282 590.715 516.904
883 0 50.1731 13.2143 663 105.92 588.854 516.308
884 0 53.0989 14.9909 796 100.735 587.44 513.334
885 0 53.107 13.2186 702 104.278 585.681 511.987
886 0 56.1408 13.4127 753 100.127 584.766 509.663
887 0 59.0616 13.5452 800 97.82 583.584 508.872
888 0 61.2962 14.4707 887 96.0879 583.33 505.784
889 1 29.0684 10.3893 302 98.1093 582.778 519.891
890 0 33.2812 10.9371 364 98.978 583.272 516.912
891 0 34.1737 11.0026 376 98.5027 582.894 516.117
892 0 34.0703 12.8264 437 96.341 583.73 514.073
893 0 36.1418 12.7276 460 95.2804 583.37 511.846
894 0 37.229 12.4634 464 96.3879 584.284 510.526
895 0 39.2617 14.3651 564 91.9273 584.273 508.793
896 0 40.174 13.4913 542 94.9926 586.334 507.683
897 0 41.1378 14.0746 579 93.8895 588.01 508.085
898 0 43.071 15.7647 679 92.6436 590.835 506.169
899 0 43.1134 14.8446 640 94.6953 591.095 505.761
900 0 45.0883 13.5068 609 97.3103 592.947 508.603
901 0 48.04 14.5712 700 96.1471 595.303 508.017
902 0 49.1667 14.2373 700 97.0214 597.176 508.734
903 0 49.2177 15.2181 749 96.964 598.953 509.2
904 0 53.0861 15.861 842 96.3527 599.639 509.717
905 0 57.207 15.9246 911 95.3106 599.947 509.503
906 0 59.3417 16.8179 998 96.4329 599.642 509.044
907 0 61.1604 14.2412 871 102.646 598.286 509.305
908 0 65.2769 16.8207 1098 98.8907 597.29 509.592
909 0 69.4845 16.4497 1143 100.313 595.071 508.554
910 0 72.487 15.6856 1137 100.264 592.215 509.656
911 0 75.2138 15.9944 1203 98.8171 590.424 505.493
912 1 36.2991 13.3612 485 103.452 588.769 522.687
913 0 38.3713 12.5354 481 104.971 587.956 523.958
914 0 40.4275 14.4456 584 105.772 587.259 520.226
915 0 42.3956 14.5534 617 105.198 586.284 518.165
916 0 43.5381 14.9295 650 103.84 585.738 518.072
917 0 46.1308 16.4966 761 101.007 585.058 515.302
918 0 48.3117 16.1866 782 103.931 585.785 512.524
919 0 50.4143 16.1264 813 103.214 586.341 511.756
920 0 53.2079 15.8059 841 105.052 585.848 511.317
921 0 54.4953 16.9372 923 104.262 585.61 509.636
922 0 55.3772 16.1619 895 108.163 586.028 507.878
923 0 57.4116 16.4427 944 108.22 586.502 508.127
924 0 59.2544 15.1381 897 112.623 587.304 507.039
925 0 62.622 16.9589 1062 109.125 588.123 507.059
926 0 62.4726 15.4308 964 116.17 589.553 505.295
927 1 33.4651 12.401 415 119.229 592.159 521.043
928 0 34.4783 14.1538 488 116.373 594.127 522.006
929 0 33.1934 13.6473 453 125.395 595.916 521.587
930 0 35.394 15.2568 540 125.202 597.902 521.769
931 0 37.4334 15.9216 596 125.876 597.611 522.696
932 0 37.2701 14.8913 555 133.867 597.186 522.524
933 0 38.1746 14.067 537 136.782 596.696 523.3
934 0 40.208 15.1711 610 133.354 595.693 523.077
935 0 42.1354 15.8299 667 132.228 593.588 522.702
936 0 46.1472 15.5589 718 132.6 591.503 522.656
937 0 49.2695 16.1154 794 126.738 589.388 520.069
938 0 52.2414 16.4238 858 127.357 587.748 517.226
939 0 53.1333 16.5621 880 128.96 586.476 515.92
940 0 56.1545 16.1697 908 129.68 584.895 513.699
941 0 59.1174 15.9344 942 129.896 583.993 511.029
942 0 60.5222 15.4654 936 131.449 583.317 507.74
943 0 65.4231 15.5603 1018 130.517 582.325 505.45
944 0 66.181 16.2131 1073 131.115 582.275 501.988
945 0 69.3982 15.937 1106 131.541 582.295 498.374
946 0 73.2951 17.4091 1276 125.801 582.122 496.289
947 0 75.2418 17.3441 1305 126.162 582.16 495.294
948 1 40.0775 12.0018 481 129.944 583.584 511.524
949 0 39.0565 12.7251 497 132.61 584.32 509.157
950 0 42.1261 14.0768 593 128.754 584.56 508.238
951 0 42.0502 14.2449 599 130.918 585.858 507.441
952 0 45.2096 14.3996 651 129.948 586.157 505.877
953 0 46.0777 14.2368 656 130.924 589.229 506.761
954 0 47.1607 13.4222 633 135.134 590.363 505.303
955 0 51.1613 13.9168 712 132.449 592.914 505.125
956 0 53.1258 12.7622 678 135.028 595.224 505.664
957 0 57.1997 14.5455 832 130.438 597.685 504.941
958 0 58.0949 13.5468 787 133.645 598.942 506.119
959 1 34.0316 10.8723 370 126.457 598.716 521.376
960 0 34.0775 12.0314 410 127.605 598.478 520.11
961 0 37.0912 12.4019 460 127.657 598.302 519.3
962 0 39.1147 12.7318 498 124.95 596.663 520.863
963 0 40.0916 13.2447 531 124.241 596.307 520.879
964 0 41.0969 12.9693 533 125.236 594.122 521.756
965 0 43.037 13.5233 582 123.29 592.265 520.407
966 0 44.2252 14.4035 637 120.907 590.322 519.002
967 0 46.3239 14.1827 657 120.721 588.516 517.349
968 0 45.2601 12.7706 578 125.007 587.979 515.839
969 0 48.1501 14.1225 680 122.591 586.684 513.482
970 0 49.1317 12.7413 626 124.181 585.423 512.565
971 0 50.4286 12.6119 636 129.649 585.206 509.525
972 0 53.1972 13.5909 723 128.05 586.129 506.589
973 0 55.3829 13.2532 734 127.553 585.854 505.951
974 0 58.2343 12.5012 728 129.834 585.724 503.066
975 1 29.2319 10.1944 298 128.128 586.027 516.205
976 0 31.3467 11.4207 358 124.497 586.561 515.628
977 0 32.2102 11.6423 375 126.936 586.747 514.293
978 0 33.2025 11.2642 374 127.086 587.278 514.078
979 0 33.3497 12.234 408 128.99 588.532 513.667
980 0 35.0456 11.9559 419 127.344 590.807 513.107
981 0 36.5143 12.1049 442 128.769 592.787 513.507
982 0 39.0284 12.5293 489 128.493 594.693 513.442
983 0 38.1066 11.2054 427 133.244 595.602 513.691
984 0 41.0867 13.9461 573 127.222 597.712 514.136
985 0 44.3842 15.2532 677 123.408 599.154 514.706
986 0 43.2429 13.9907 605 132.063 599.54 514.664
987 0 44.1243 13.19 582 133.644 600.222 515.938
988 0 45.2429 13.3281 603 136.24 600.131 515.444
989 0 48.3809 12.6083 610 137.63 598.695 515.5
990 0 52.4972 13.9817 734 133.079 596.609 515.447
991 0 54.2659 14.3921 781 132.607 594.812 514.444
992 0 59.5602 15.0604 897 127.358 593.832 514.27
993 0 59.8371 12.9351 774 136.623 592.539 512.244
994 0 60.3889 14.0092 846 133.707 590.956 509.144
995 0 64.3974 13.4788 868 135.614 588.589 506.827
996 0 64.5696 13.6442 881 136.385 587.079 506.152
997 0 67.5392 14.8358 1002 134.235 587.643 504.258
998 0 68.4146 14.836 1015 133.143 587.783 503.966
999 0 71.3158 14.8635 1060 135.733 586.765 499.156
1000 0 73.3817 13.1232 963 140.482 586.892 498.038
1001 0 74.3458 13.7197 1020 142.048 586.855 495.347
1002 0 77.6376 14.426 1120 137.799 586.788 493.72
1003 0 78.5061 13.948 1095 140.902 586.538 492.037
1004 0 80.4704 14.1916 1142 140.032 587.998 491.958
1005 0 80.5155 14.4568 1164 142.109 588.903 490.075
1006 0 82.4067 14.8289 1222 140.47 590.657 490.039
1007 0 85.6091 14.5662 1247 140.677 591.395 489.017
1008 0 87.3596 15.1901 1327 139.413 592.736 486.647
1009 1 47.1629 11.1528 526 144.24 595.47 509.888
1010 0 46.1898 11.9074 550 144.871 597.642 509.684
1011 0 48.1261 12.1971 587 144.24 600.06 509.264
1012 0 49.1528 13.3461 656 141.59 600.134 509.576
1013 0 51.2272 12.8252 657 143.721 599.758 510.933
1014 0 48.0825 12.9153 621 146.559 601.424 511.794
1015 0 50.0487 13.5268 677 144.535 601.04 513.576
1016 0 51.0525 14.2794 729 141.251 599.889 513.391
1017 0 52.1051 13.6839 713 142.02 597.867 514.801
1018 0 52.018 14.3604 747 140.319 597.016 514.728
1019 0 53.0092 14.1674 751 139.373 594.932 515.868
1020 0 52.0705 13.885 723 141.728 593.714 515.499
1021 0 54.0203 14.0873 761 138.855 591.84 515.055
1022 0 54.1479 14.7189 797 136.419 590.478 513.797
1023 0 53.1061 13.4825 716 141.205 589.999 513.575
1024 0 53.1484 13.7727 732 140.493 589.27 511.575
1025 0 54.1645 13.9944 758 139.273 587.187 509.153
1026 0 54.0769 14.5349 786 137.364 586.786 507.646
1027 0 54.0872 14.5136 785 136.233 586.178 505.721
1028 0 54.1358 14.4821 784 137.136 586.67 505.448
1029 0 55.303 14.0318 776 137.085 586.594 504.747
1030 0 54.1365 13.8169 748 139.08 587.642 503.401
1031 0 54.176 14.3606 778 136.415 589.026 503.816
1032 0 55.266 13.7155 758 137.096 589.269 503.314
1033 0 55.1611 14.2492 786 134.66 590.358 504.174
1034 0 56.0893 14.0847 790 134.157 592.013 503.428
