time division length width area intensity CMx CMy
0 0 39.2368 13.2784 521 125.656 290.334 499.77
1 0 38.5588 12.9931 501 130.607 288.9 499.132
2 0 41.2954 13.4155 554 127.213 289.588 498.69
3 0 41.3768 14.7184 609 124.527 289.803 498.117
4 0 40.3917 13.7652 556 129.405 290.013 497.754
5 0 42.2014 14.6678 619 126.212 291.31 497.174
6 0 42.1999 14.455 610 126.857 291.718 496.854
7 0 45.2274 14.2392 644 126.464 290.638 496.199
8 0 45.2505 13.7457 622 127.664 290.764 494.497
9 0 47.3431 15.4827 733 122.707 290.428 495.345
10 0 44.2989 14.4925 642 128.045 289.938 494.645
11 0 46.2032 14.9557 691 126.848 289.245 494.062
12 0 48.2029 15.5385 749 123.327 289.825 494.263
13 0 50.1975 15.2199 764 121.978 290.466 494.39
14 0 49.227 14.6058 719 126.242 290.542 493.332
15 0 52.2683 14.9039 779 124.239 290.913 493.537
16 0 53.485 16.2288 868 120.4 289.173 490.793
17 0 55.3766 15.512 859 121.685 288.939 491.426
18 0 55.3735 15.0252 832 124.567 289.127 490.947
19 0 57.2009 15.4893 886 123.518 289 489.517
20 0 58.2332 15.4208 898 123.467 288.437 489.937
21 0 61.2161 15.8782 972 120.654 288.614 489.164
22 0 61.1768 16.0682 983 120.63 290.107 488.172
23 0 65.2343 16.5864 1082 117.496 290.822 488.294
24 1 31.2512 12.4475 389 124.758 289.828 500.928
25 0 33.0584 13.098 433 120.046 291.115 501.12
26 0 34.1971 12.5449 429 121.466 291.408 501.212
27 0 33.2757 13.3431 444 121.68 290.827 500.162
28 0 36.0146 13.8555 499 120.772 290.561 499.094
29 0 37.098 14.7447 547 118.857 291.351 498.358
30 0 39.142 13.2594 519 117.79 291.412 498.74
31 0 39.057 13.5699 530 120.406 290.581 497.519
32 0 42.0639 13.9074 585 118.785 291.214 496.467
33 0 43.1953 15.7193 679 113.199 291.289 496.19
34 0 43.0667 15.4179 664 115.096 291.919 495.363
35 0 43.0257 14.4565 622 117.781 291.855 495.85
36 0 47.0405 16.9428 797 111.972 291.725 493.911
37 0 46.0648 15.4565 712 116.319 292.392 492.722
38 0 49.061 15.5317 762 114.807 293.148 493.312
39 0 49.3365 15.1206 746 115.335 292.908 492.97
40 0 50.1672 15.3487 770 115.466 292.779 492.703
41 0 53.1133 14.9868 796 115.214 292.937 491.343
42 0 55.1427 16.6477 918 110.815 292.698 491.894
43 0 56.084 15.2806 857 114.279 293.163 490.929
44 0 57.1572 15.7286 899 114.417 292.923 490.02
45 0 62.0979 16.1519 1003 110.808 293.915 491.677
46 0 60.2019 15.9629 961 114.352 293.58 489.156
47 0 62.1054 14.5559 904 116.309 293.667 489.347
48 0 66.1851 16.6956 1105 112.438 293.481 488.509
49 0 69.3193 15.0752 1045 114.064 293.956 488.84
50 0 70.2347 15.6191 1097 112.809 293.837 487.556
51 0 73.1027 17.7011 1294 108.352 293.094 486.87
52 0 76.1358 16.5625 1261 110.979 293.185 484.281
53 0 77.043 16.3156 1257 111.592 292.881 483.736
54 0 80.1111 15.7032 1258 113.204 293.029 481.714
55 0 83.3322 15.7082 1309 112.525 292.989 481.824
56 0 87.1782 16.8161 1466 110.474 292.425 481.626
57 0 87.1694 15.0282 1310 115.511 293.311 478.394
58 1 44.0186 13.3353 587 113.009 292.678 499.482
59 0 45.0965 13.1717 594 115.024 292.692 498.019
60 0 47.0676 13.7674 648 113.353 292.948 498.17
61 0 49.0504 13.5371 664 113.352 293.238 496.408
62 0 51.0412 15.3209 782 110.867 293.221 495.529
63 0 52.0544 15.2148 792 111.217 293.472 493.936
64 0 55.1166 15.059 830 111.901 293.716 493.522
65 0 55.1598 13.7419 758 114.917 293.315 491.392
66 0 59.108 16.1907 957 108.199 294.317 489.97
67 0 61.2616 14.381 881 110.946 294.381 488.498
68 0 63.212 15.0604 952 109.243 293.876 487.332
69 0 65.1595 14.3954 938 111.435 294.488 486.243
70 0 69.1111 15.6559 1082 108.914 292.572 486.171
71 0 70.0901 13.8679 972 112.799 293.84 484.758
72 0 73.059 15.6175 1141 110.711 293.447 484.256
73 0 74.272 14.4873 1076 114.073 293 481.321
74 1 39.1289 11.8071 462 112.879 293.426 498.781
75 0 42.1742 11.5474 487 111.76 293.205 499.754
76 0 44.3118 11.9833 531 111.919 294.859 499.064
77 0 46.0357 12.8596 592 109.162 294.97 498.086
78 0 46.1071 13.7723 635 109.694 295.49 497.91
79 0 45.1226 13.3636 603 113.471 295.738 497.71
80 0 48.1673 12.8718 620 114.224 296.166 498
81 0 48.1119 12.5333 603 116.74 296.245 494.934
82 0 50.1499 11.8644 595 118.271 296.118 494.439
83 0 53.2497 11.7559 626 117.843 295.628 493.684
84 0 54.1187 12.2324 662 117.98 295.166 492.346
85 0 58.0839 13.9281 809 112.143 294.993 492.407
86 0 62.0972 13.8976 863 111.548 294.852 491.897
87 0 63.2131 14.1585 895 113.084 294.85 489.332
88 0 66.0543 12.3383 815 116.666 295.13 488.366
89 1 34.0586 12.0968 412 106.383 295.786 504.614
90 0 33.0582 11.2831 373 111.223 295.249 502.161
91 0 35.0544 12.5234 439 108.592 295.727 502.253
92 0 37.0647 12.5456 465 106.972 295.346 502.17
93 0 38.0605 12.9531 493 107.479 295.365 500.98
94 0 39.0291 13.3746 522 106.96 295.605 501.207
95 0 40.2332 12.4275 500 108.344 295.526 500.114
96 0 40.2743 12.6383 509 108.147 295.723 499.837
97 0 44.1435 12.7312 562 105.69 295.89 499.32
98 0 43.1582 12.0024 518 108.681 295.473 498.909
99 0 44.2031 11.334 501 111.267 296.106 497.956
100 0 46.2971 12.6358 585 109.991 297.696 496.595
101 0 49.1345 12.2114 600 108.892 296.827 497.778
102 0 50.2943 11.4923 578 111.029 297.18 497.26
103 0 51.2544 13.1306 673 109.438 296.835 495.591
104 0 53.2536 12.4311 662 111.429 297.311 493.279
105 0 55.2032 13.1877 728 110.251 297.323 493.148
106 0 58.1714 12.7382 741 112.166 297.073 491.548
107 1 32.0532 9.48424 304 111.819 297.895 505.786
108 0 34.0314 11.9008 405 108.548 298.319 504.215
109 0 35.0505 9.64323 338 111.429 298.405 504.678
110 0 36.0776 11.6416 420 108.338 297.993 504.752
111 0 37.0356 11.6374 431 109.097 297.61 503.852
112 0 37.0449 11.3376 420 110.217 297.483 504.976
113 0 40.0531 12.7581 511 109.182 296.153 502.511
114 0 41.0507 12.6916 521 108.873 296.152 501.988
115 0 42.218 13.0276 550 108.311 294.978 501.564
116 0 43.2153 12.3336 533 109.775 295.002 502.325
117 0 44.1428 12.9353 571 109.741 295.032 500.59
118 0 46.2651 12.2122 565 109.867 294.871 500.035
119 0 48.3002 11.9254 576 110.976 294.715 498.651
120 0 49.2669 12.483 615 110.75 293.891 498.444
121 0 49.1937 11.4649 564 113.397 294.177 498.899
122 0 51.147 11.9655 612 112.415 295.371 496.987
123 0 55.2542 13.7908 762 108.866 294.884 495.358
124 0 55.2097 13.0412 720 111.656 294.172 496.397
125 0 57.1041 12.3984 708 113.836 294.941 493.191
126 0 60.3967 12.3517 746 113.39 294.665 492.555
127 0 62.1776 14.6998 914 108.798 295.546 491.172
128 0 62.2923 13.1316 818 113.714 295.434 490.515
129 0 64.1637 12.2187 784 116.19 294.843 489.129
130 0 67.1425 13.4341 902 112.851 295.102 489.248
131 0 70.1647 13.5253 949 113.415 295.29 486.82
132 0 73.1866 13.773 1008 111.268 295.809 486.698
133 0 76.1991 13.386 1020 111.76 295.872 487.004
134 0 77.2482 12.777 987 112.127 296.402 484.87
135 1 43.0711 10.8657 468 110.844 298.12 500.613
136 0 46.1387 11.292 521 108.63 298.015 500.553
137 0 47.0581 12.2189 575 108.605 297.647 498.289
138 0 49.158 13.0803 643 106.818 298.383 498.627
139 0 49.084 12.5703 617 108.981 298.724 497.295
140 0 52.393 13.666 716 104.665 296.823 498.758
141 0 53.3498 13.2522 707 105.658 296.206 498.474
142 0 55.2528 14.1712 783 101.341 296.088 497.208
143 0 56.302 12.8237 722 103.143 295.749 497.22
144 0 59.2014 13.8341 819 101.012 296.274 495.838
145 0 57.2971 12.3741 709 105.925 295.547 495.444
146 0 59.267 11.1698 662 107.131 296.033 496.331
147 0 61.3727 11.8945 730 106.925 294.297 494.373
148 0 64.2793 12.2435 787 106.037 295.332 495.13
149 0 66.3135 13.2703 880 105.683 294.166 492.476
150 0 69.3042 13.7365 952 104.287 294.368 490.652
151 0 72.2713 14.1688 1024 105.315 293.991 488.174
152 0 75.2548 13.7931 1038 108.145 294.363 486.084
153 1 40.1948 10.5486 424 110.349 294.913 504.387
154 0 43.1446 12.3074 531 107.842 295.06 502.497
155 0 44.159 11.7077 517 108.298 294.855 503.557
156 0 45.3902 11.9629 543 110.761 293.552 500.853
157 0 47.2967 12.6224 597 109.558 293.901 500.42
158 0 48.3271 12.105 585 110.817 293.508 499.144
159 0 50.061 12.5047 626 107.248 294.639 499.011
160 0 51.3859 12.9802 667 110.486 294.114 497.156
161 0 54.4322 14.293 778 107.162 294.404 496.31
162 0 56.4548 13.7986 779 107.702 294.823 495.666
163 0 57.294 14.6089 837 108.031 294.895 493.283
164 0 58.2512 14.1971 827 109.661 295.576 492.513
165 0 62.1846 14.0067 871 108.729 295.656 492.328
166 0 63.3721 13.476 854 110.249 295.667 490.173
167 0 66.236 13.1348 870 110.946 296.4 490.213
168 0 67.2488 14.1564 952 109.599 295.987 488.981
169 0 67.2986 13.8933 935 110.613 296.144 489.167
170 0 72.2288 16.6693 1204 103.29 295.98 487.112
171 0 73.1123 15.7292 1150 105.908 296.068 485.118
172 0 77.1494 16.7597 1293 103.457 296.202 484.987
173 0 80.213 16.3938 1315 102.871 296.069 486.586
174 1 39.1018 11.6363 455 108.11 296.334 503.222
175 0 45.2121 10.307 466 107.436 294.927 503.629
176 0 46.0871 10.1113 466 108.496 294.534 503.097
177 0 48.1405 10.8433 522 109.174 294.148 500.808
178 0 49.2382 12.206 601 105.679 295.331 501.358
179 0 49.1478 13.4085 659 105.231 295.232 500.792
180 0 52.2556 13.3191 696 104.422 295.453 498.861
181 0 55.2539 13.8995 768 103.039 294.566 498.893
182 0 56.1064 13.1714 739 106.755 293.767 497.157
183 0 58.0677 14.0353 815 105.605 293.944 495.627
184 0 60.1518 14.2473 857 104.217 293.726 494.125
185 0 61.2434 13.079 801 107.109 293.492 492.653
186 0 62.1937 12.3324 767 108.227 292.653 494.185
187 0 65.315 14.2387 930 104.93 292.404 491.824
188 0 69.1847 14.642 1013 103.773 292.545 491.832
189 0 68.3047 13.513 923 106.04 292.226 491.622
190 0 71.4885 14.6037 1044 104.185 292.606 488.759
191 0 73.2114 14.3284 1049 107.113 291.718 484.724
192 1 39.3832 11.8071 465 104.606 292.826 501.475
193 0 39.2473 10.3956 408 106.51 293.466 502.5
194 0 40.2292 10.3905 418 108.773 292.928 500.596
195 0 42.2498 12.5918 532 104.861 293.818 500.59
196 0 43.2263 12.9088 558 105.337 293.6 499.783
197 0 46.2611 13.0563 604 105.174 294.098 497.697
198 0 48.3465 13.8583 670 102.7 294.064 498.536
199 0 49.3858 14.0931 696 104.532 295.141 497.935
200 0 49.2766 12.0341 593 108.167 295.079 499.975
201 0 49.2159 12.3537 608 110.429 294.372 497.386
202 0 52.0342 13.7218 714 106.888 294.262 498.052
203 0 52.2982 14.9718 783 104.627 294.61 497.627
204 0 54.2086 14.3889 780 106.181 294.538 497.381
205 0 55.1855 14.116 779 108.402 294.946 495.522
206 0 57.2989 14.8519 851 106.456 294.736 495.092
207 0 57.4204 13.4273 771 109.699 294.603 496.141
208 0 60.2492 14.3736 866 106.322 294.353 495.723
209 0 60.2623 13.3749 806 110.357 293.835 493.885
210 0 64.2301 15.3355 985 105.001 294.19 494.419
211 0 65.3382 13.7592 899 109.137 294.754 493.176
212 0 66.2403 14.4323 956 109.768 293.946 491.372
213 0 70.2322 14.4805 1017 108.946 293.41 490.969
214 0 70.3173 13.2258 930 111.903 293.568 489.976
215 1 39.1896 10.2323 401 108.628 292.598 505.606
216 0 39.0651 12.1848 476 106.706 291.964 506.176
217 0 39.0973 10.8703 425 108.096 292.247 506.005
218 0 40.0928 11.648 467 108.122 292.084 504.724
219 0 40.0713 11.5794 464 111.375 292.459 502.401
220 0 43.0226 12.6445 544 105.945 291.884 503.204
221 0 47.1119 13.6696 644 103.61 292.461 501.371
222 0 48.0181 13.245 636 104.965 292.234 499.648
223 0 47.1544 13.2543 625 106.765 293.138 498.386
224 0 49.1599 12.3475 607 107.081 292.527 498.707
225 0 50.2394 14.1323 710 104.487 292.701 497.382
226 0 50.1444 13.1221 658 107.433 293.397 496.556
227 0 54.1404 13.3172 721 105.509 293.331 496.307
228 0 56.2167 13.7504 773 105.537 293.424 494.501
229 0 59.1443 15.2508 902 103.029 292.363 493.324
230 0 61.1366 13.249 810 106.716 293.657 492.44
231 0 62.0857 12.7244 790 109.92 293.615 489.854
232 0 65.2063 13.9557 910 108.276 294.742 489.899
233 0 68.3242 14.2117 971 107.184 295.04 490.067
234 0 69.1514 15.213 1052 106.529 294.457 488.093
235 0 74.173 13.2528 983 110.397 294.603 488.995
236 1 38.0765 12.291 468 105.829 294.543 503.885
237 0 38.0658 11.4013 434 106.871 294.182 505.387
238 0 41.0465 12.3762 508 107.793 294.372 503.878
239 0 41.0654 11.9078 489 109.98 294.583 504.992
240 0 45.0712 12.447 561 108.373 294.991 505.112
241 0 45.1071 12.7253 574 110.643 295.19 504.394
242 0 47.2618 12.526 592 110.184 294.324 504.311
243 0 48.1734 13.0362 628 111.725 293.685 502.639
244 0 49.1762 14.2345 700 110.711 293.486 502.337
245 0 52.1318 14.003 730 108.562 293.679 502.736
246 0 52.265 13.9864 731 110.315 294.219 501.684
247 0 52.313 12.7119 665 116.405 293.943 500.259
248 0 57.1945 14.5119 830 110.629 293.418 499.405
249 0 59.1948 14.6803 869 110.833 292.42 498.289
250 0 59.1975 14.2405 843 112.994 292.644 496.351
251 0 61.1868 14.6927 899 111.808 292.998 495.528
252 0 63.1806 13.6593 863 113.758 292.738 495.177
253 0 65.1885 13.5453 883 115.177 292.856 494.348
254 0 66.1813 13.8408 916 116.289 291.944 491.505
255 0 70.2026 13.2046 927 117.62 291.387 490.882
256 1 35.1085 10.9945 386 113.381 291.912 506.422
257 0 36.1294 10.7669 389 113.668 291.627 505.375
258 0 38.3372 12.2075 468 109.139 292.167 506.293
259 0 40.333 13.3389 538 107.918 292.388 503.84
260 0 40.2304 12.6024 507 110.464 293.266 503.233
261 0 42.2699 11.7578 497 112.718 293.189 501.841
262 0 43.1192 13.2192 570 108.481 294.033 503.061
263 0 43.1934 13.4974 583 110.283 294.101 499.672
264 0 44.192 13.3735 591 109.898 293.773 501.865
265 0 46.2904 12.0975 560 111.354 294.457 501.623
266 0 49.3099 13.5267 667 108.504 293.97 499.045
267 0 50.1932 14.2649 716 106.758 294.968 500.166
268 0 51.1346 15.5472 795 105.68 295.546 499.312
269 0 53.0547 11.7614 624 113.904 295.978 498.543
270 0 54.0892 12.6273 683 111.559 295.801 499.937
271 0 55.1114 11.9758 660 113.883 295.244 497.741
272 0 58.1539 13.3095 774 110.916 295.469 497.076
273 0 61.138 13.903 850 109.236 295.131 496.512
274 0 62.2991 11.4448 713 114.112 294.069 496.527
275 1 34.0993 10.7334 366 106.721 295.213 511.795
276 0 34.1213 11.4591 391 106.552 293.76 511.545
277 0 37.3239 11.6547 435 103.614 294.437 510.943
278 0 38.1856 12.675 484 101.903 293.514 509.32
279 0 37.1877 11.2403 418 107.443 293.524 508.866
280 0 39.133 11.9592 468 106.624 292.705 506.596
281 0 41.295 12.3744 511 105.507 292.566 506.99
282 0 42.1447 11.9351 503 107.867 291.793 504.759
283 0 43.1729 12.531 541 106.887 291.723 503.725
284 0 43.1603 13.2066 570 106.982 291.342 504.1
285 0 46.1148 13.1845 608 106.857 291.602 503.097
286 0 45.3292 11.9129 540 110.3 292.039 501.387
287 0 46.1718 12.4102 573 108.942 292.489 499.901
288 0 49.2613 12.728 627 107.509 292.813 499.844
289 0 50.3888 11.9868 604 107.487 292.478 499.785
290 0 53.2154 13.7178 730 103.837 293.73 497.793
291 0 53.1944 13.2345 704 105.879 293.246 495.334
292 0 55.1736 12.9953 717 105.215 293.706 496.379
293 0 56.2427 12.4994 703 107.74 293.454 493.457
294 0 57.238 12.2122 699 107.279 293.874 493.561
295 0 59.169 13.0136 770 105.669 294.745 493.544
296 0 62.1975 12.187 758 106.937 295.372 491.15
297 1 28.0353 8.95301 251 107.49 296.279 507.972
298 0 36.0792 11.4748 414 106.379 296.672 503.836
299 0 35.0826 11.1451 391 106.105 297.783 504.12
300 0 38.017 9.23271 351 107.171 298.219 506.023
301 0 39.0454 9.98838 390 106.679 297.718 505.664
302 0 43.0818 12.9289 557 102.176 296.747 504.907
303 0 43.3173 12.1891 528 105.184 295.799 504.799
304 0 43.0649 11.7729 507 108.675 295.941 504.008
305 0 43.0545 13.03 561 106.727 294.504 502.84
306 0 47.3276 13.1424 622 104.268 294.513 504.822
307 0 46.3637 12.0568 559 107.129 294.143 504.376
308 0 49.3637 11.9926 592 107.495 293.851 503.417
309 0 50.2247 13.141 660 106.133 293.906 501.621
310 0 51.213 13.1803 675 105.286 293.41 501.778
311 0 56.3512 14.871 838 101.044 293.376 500.137
312 0 55.2579 13.5727 750 104.465 292.848 500.912
313 0 57.2543 13.6584 782 103.701 292.808 497.982
314 0 59.1996 11.7737 697 104.666 292.439 499.05
315 0 62.2044 12.8126 797 103.745 291.516 495.611
316 0 64.2232 14.0292 901 102.125 291.718 492.649
317 0 64.2836 13.0982 842 105.156 292.162 490.753
318 0 67.3547 13.0058 876 104.338 291.703 490.589
319 0 70.2481 13.4523 945 103.895 291.579 487.085
320 1 38.0909 10.4749 399 105.308 292.308 503.466
321 0 37.2675 11.3772 424 105.057 292.969 502.012
322 0 38.3171 11.3526 435 102.869 294.234 503.607
323 0 40.1194 11.6403 467 103.36 295.257 501.961
324 0 43.1365 12.1475 524 102.616 294.179 500.118
325 0 44.1667 11.7509 519 102.474 295.119 502.328
326 0 43.196 12.6401 546 103.465 294.515 500.744
327 0 48.3036 11.9246 576 103.271 294.823 500.378
328 0 49.1908 14.0473 691 101.093 295.366 497.745
329 0 51.1966 13.204 676 102.246 296.99 498.283
330 0 52.211 13.8285 722 102.208 296.263 496.154
331 0 54.1819 14.3221 776 102.128 297.642 495.807
332 0 56.2063 14.9271 839 101.021 296.826 497.052
333 0 58.109 14.2663 829 104.812 297.329 496.946
334 0 61.2583 15.149 928 102.259 297.032 496.601
335 0 61.2421 13.3405 817 108.283 297.58 496.41
336 0 64.1589 16.0851 1032 102.771 297.611 495.823
337 0 66.2231 16.6105 1100 103.43 296.72 494.529
338 0 68.1337 14.633 997 108.104 295.627 493.526
339 0 69.1388 14.2178 983 109.976 294.85 493.299
340 0 72.1709 13.9391 1006 110.47 295.027 491.704
341 0 75.1681 15.3257 1152 107.06 293.324 490.615
342 1 40.0428 11.5626 463 108.616 294.201 506.419
343 0 42.1182 11.1591 470 108.987 293.657 505.747
344 0 44.0823 10.8434 478 110.956 293.638 503.657
345 0 47.1485 14.2953 674 103 292.773 503.04
346 0 46.275 13.355 618 108.481 292.416 500.759
347 0 49.1214 14.2911 702 106.655 292.195 499.483
348 0 50.0365 14.4095 721 105.015 292.877 499.28
349 0 51.2066 13.26 679 108.655 291.529 497.337
350 0 53.3037 13.864 739 107.641 291.107 495.624
351 0 55.1457 12.8568 709 109.364 291.695 494.887
352 0 55.2198 13.9081 768 107.435 292.352 494.898
353 0 55.1853 12.5758 694 112.72 292.366 491.731
354 0 60.2276 14.412 868 107.147 292.659 492.813
355 0 60.2067 13.4038 807 111.922 293.343 491.537
356 0 63.2096 13.6688 864 110.369 294.451 490.927
357 1 35.1071 10.4537 367 107.815 296.199 505.452
358 0 34.1057 9.14803 312 110.327 296.484 505.43
359 0 37.2038 10.5903 394 107.053 297.249 505.546
360 0 37.0566 12.1166 449 106.167 297.664 504.18
361 0 38.1447 11.4564 437 107.483 298.021 504.272
362 0 39.175 10.9253 428 108.762 297.909 504.173
363 0 41.1662 11.8787 489 107.137 298.098 504.061
364 0 41.1629 10.8593 447 108.345 297.77 505.152
365 0 44.1897 12.5369 554 105.451 297.738 504.948
366 0 44.1041 13.196 582 104.545 297.991 504.667
367 0 45.1141 12.3908 559 108.283 296.875 503.508
368 0 46.1972 13.5506 626 105.238 297.003 505.518
369 0 49.2407 12.9365 637 107.334 296.424 504.162
370 0 51.1024 12.289 628 107.476 296.274 504.389
371 0 51.2496 12.4098 636 108.564 295.425 503.066
372 0 54.2086 12.1752 660 109.312 294.812 501.152
373 0 54.2909 12.5067 679 109.934 293.719 499.885
374 0 57.1488 13.5086 772 108.249 293.115 496.858
375 0 59.2984 13.2213 784 109.973 292.583 495.829
376 0 59.1736 13.0802 774 109.713 292.207 494.933
377 0 63.1835 13.9752 883 108.217 291.74 492.544
378 0 64.1762 13.7278 881 110.375 290.949 491.226
379 0 66.1251 13.5803 898 111.843 292.549 490.379
380 0 67.2995 14.012 943 112.723 292.674 489.727
381 0 71.1379 14.999 1067 110.698 292.766 488.636
382 0 71.2626 12.7416 908 118.258 292.203 484.055
383 0 76.2216 14.6546 1117 112.701 291.865 485.557
384 0 78.2097 15.4968 1212 112.605 292.479 483.064
385 0 80.0898 14.9957 1201 114.246 293.451 482.46
386 0 81.1012 13.7852 1118 119.352 294.254 480.512
387 0 83.2201 13.987 1164 118.256 294.813 481.096
388 0 87.2309 14.5132 1266 116.848 295.609 478.615
389 0 91.2169 14.471 1320 116.674 295.656 477.814
390 1 50.0373 11.3515 568 117.563 296.306 497.653
391 0 50.113 11.953 599 118.06 297.102 497.816
392 0 53.0665 12.7199 675 113.483 297.276 499.735
393 0 53.0626 12.1931 647 116.631 297.767 498.791
394 0 55.0304 13.6106 749 114.869 297.866 498.227
395 0 56.0397 13.1335 736 116.471 296.644 498.985
396 0 58.197 14.1932 826 114.809 297.236 499.482
397 0 60.0886 14.462 869 114.8 296.741 497.99
398 0 61.1137 13.1722 805 118.231 295.884 497.865
399 0 65.1211 14.3118 932 114.012 294.936 497.65
400 0 67.1523 13.7151 921 115.227 294.598 496.843
401 0 69.1272 14.1912 981 113.128 295.27 497.062
402 0 70.2542 13.138 923 118.139 294.341 493.143
403 0 74.3212 15.6887 1166 113.008 295.259 489.795
404 0 76.1832 12.7718 973 119.254 294.689 490.018
405 0 80.3146 13.609 1093 117.582 293.595 487.441
406 0 84.3501 13.6692 1153 117.186 292.4 486.844
407 0 86.3761 14.4484 1248 114.722 292.375 484.954
408 1 45.2594 11.6661 528 113.697 292.028 504.097
409 0 48.1569 11.7532 566 113.88 291.652 502.557
410 0 48.177 13.1183 632 113.29 291.554 499.354
411 0 49.1403 13.899 683 111.826 291.527 499.662
412 0 50.1845 12.8924 647 113.682 291.692 499.113
413 0 53.3611 12.6497 675 113.458 291.757 496.96
414 0 54.1917 13.8951 753 112.068 291.932 495.368
415 0 55.3201 13.1778 729 115.016 292.807 495.196
416 0 58.2734 13.368 779 114.372 294.086 495.186
417 0 59.3347 12.775 758 115.723 294.222 495.248
418 0 62.2322 13.53 842 113.095 295.147 494.359
419 0 63.2106 13.7161 867 115.74 295.558 491.304
420 0 66.2634 14.5178 962 113.042 296.068 490.502
421 0 65.2568 13.0101 849 119.722 297.134 490.774
422 0 70.2839 13.5735 954 117.244 297.348 490.739
423 0 73.1713 13.8989 1017 117.46 297.851 489.912
424 0 76.2242 12.4632 950 121.962 297.554 489.706
425 0 79.1549 12.9493 1025 121.97 297.665 488.293
426 1 43.0176 12.1811 524 115.977 298.454 506.443
427 0 45.0579 10.9637 494 117.437 297.542 506.866
428 0 45.0366 11.524 519 119.085 297.501 505.536
429 0 49.0635 12.8405 630 115.657 296.359 504.949
430 0 48.0448 13.5498 651 116.748 295.353 504.862
431 0 52.2125 15.1496 791 113.273 294.369 502.843
432 0 54.3764 13.6089 740 116.657 293.562 502.628
433 0 55.2275 13.218 730 118.177 293.033 501.093
434 0 55.175 12.6144 696 121.698 292.356 499.292
435 0 59.1808 14.0586 832 117.97 292.679 498.202
436 0 62.241 13.8012 859 117.965 292.101 496.148
437 0 63.2461 13.6451 863 118.615 291.983 495.402
438 0 67.2934 12.8839 867 120.475 291.045 492.724
439 0 69.1456 12.9292 894 121.785 291.235 489.695
440 1 35.0368 11.1311 390 116.605 291.856 506.572
441 0 38.0265 11.9916 456 115.511 291.588 504.643
442 0 40.0428 11.8873 476 116.059 291.401 503.718
443 0 40.0427 11.4378 458 117.91 292.358 502.736
444 0 43.0192 12.4596 536 115.401 292.418 501.17
445 0 42.0716 12.4312 523 116.719 293.163 500.419
446 0 44.0644 13.3214 587 113.838 293.9 500.492
447 0 46.1 12.7115 586 111.715 294.633 500.534
448 0 45.0284 13.1028 590 113.731 296.349 500.192
449 0 48.0196 12.8906 619 113.128 296.821 498.956
450 0 50.0241 13.8333 692 110.555 297.991 498.854
451 0 50.1202 11.8316 593 115.015 298.379 500.366
452 0 51.0606 14.1205 721 112.63 299.308 497.562
453 0 53.0484 12.5734 667 113.889 299.525 499.91
454 0 56.0351 13.1882 739 113.367 298.877 499.524
455 0 57.039 13.5171 771 113.768 298.671 498.192
456 0 59.0914 12.9291 764 114.784 298.442 496.114
457 0 63.1852 14.4496 913 109.12 297.342 496.537
458 0 64.1645 12.8732 826 113.683 296.778 495.673
459 0 68.0988 13.0252 887 111.64 295.965 495.718
460 1 36.0463 10.5142 379 109.153 295.9 510.987
461 0 38.0283 11.4125 434 108.131 295.378 511.002
462 0 38.1182 10.2051 389 109.892 294.512 510.835
463 0 38.0517 10.3281 393 114.003 293.852 508.181
464 0 41.0629 10.8614 446 112.419 292.744 506.666
465 0 41.0612 11.9821 492 111.217 292.819 506.512
466 0 42.1578 13.0225 549 110.689 293.175 504.333
467 0 44.2784 14.3637 636 103.904 292.662 503.741
468 0 46.2343 12.1771 563 108.574 291.742 503
469 0 45.182 12.0402 544 110.906 290.757 500.559
470 0 47.4263 11.7867 559 109.959 291.086 500.751
471 0 50.1449 12.6633 635 109.137 291.521 498.131
472 0 49.345 12.1593 600 111.102 291.83 496.685
473 0 53.3438 12.0914 645 110.651 292.516 496.981
474 0 54.3529 12.1061 658 109.353 293.123 497.144
475 0 56.2903 12.5954 709 109.409 293.57 495.546
476 0 56.3881 12.9105 728 109.474 293.805 494.604
477 0 59.3001 12.5969 747 107.827 295.052 493.688
478 0 63.3828 13.9154 882 101.473 295.498 493.498
479 0 63.3872 12.2738 778 106.702 297.057 491.059
480 0 67.3935 13.3692 901 103.745 297.533 491.867
481 1 36.1772 9.45348 342 104.634 299.108 508.243
482 0 35.1503 10.0995 355 105.082 298.913 507.848
483 0 40.3432 11.8979 480 102.194 299.806 505.944
484 0 39.2512 10.9296 429 105.895 299.331 506.811
485 0 43.3372 11.9297 517 102.317 299.253 507.81
486 0 43.2168 12.0786 522 104.126 299.412 506.502
487 0 47.3247 12.0444 570 104.4 298.302 505.705
488 0 46.2843 11.4078 528 107.566 297.79 506.78
489 0 48.359 13.0483 631 104.778 296.894 506.369
490 0 50.419 12.5945 635 104.699 295.332 505.474
491 0 54.2519 14.4511 784 100.041 294.281 503.366
492 0 53.2476 11.531 614 107.704 292.938 502.492
493 0 52.2639 11.0784 579 109.036 292.264 501.784
494 0 56.3427 12.4417 701 106.235 291.488 498.712
495 0 58.2199 13.5692 790 102.052 290.578 498.54
496 0 60.1378 13.07 786 103.826 290.097 494.982
497 0 62.2443 12.9168 804 103.995 289.525 492.475
498 0 62.2252 12.4548 775 104.303 289.506 492.658
499 0 65.4033 13.1492 860 103.999 289.596 487.396
500 0 67.208 11.9926 806 105.55 289.668 487.143
501 1 35.1249 9.70822 341 102.223 288.953 503.302
502 0 36.1593 10.0113 362 103.196 290.105 500.724
503 0 39.0972 11.4586 448 99.9129 290.368 499.491
504 0 39.0647 10.5466 412 99.7282 290.968 500.243
505 0 41.1893 10.8766 448 100.812 292.938 498.181
506 0 44.3021 10.609 470 100.455 294.498 499.181
507 0 45.192 11.2188 507 98.7475 296.325 498.57
508 0 47.1941 11.9295 563 97.9787 297.56 496.726
509 0 48.1867 13.4269 647 96.49 299.19 496.677
510 0 51.1037 13.228 676 95.6923 300.478 496.417
511 0 52.2003 11.6666 609 98.6273 300.445 497.864
512 0 52.0758 10.3887 541 102.089 300.612 496.922
513 0 57.2616 12.1373 695 97.6158 300.555 498.266
514 0 57.1259 12.2711 701 98.0756 299.72 499.482
515 0 59.2236 12.0898 716 98.5475 298.859 496.802
516 0 62.3602 11.5138 718 99.0418 298.49 498.245
517 0 65.193 11.7344 765 97.2928 297.354 498.437
518 1 33.0771 8.91857 295 96.1153 294.986 513.302
519 0 33.0557 8.5613 283 97.2898 293.371 511.12
520 0 36.0674 11.4508 413 92.8935 292.789 509.7
521 0 37.0609 10.2804 381 93.2074 290.953 508.913
522 0 40.0758 12.0771 484 90.626 290.911 508.037
523 0 42.1316 12.0337 507 89.8422 290.594 506.86
524 0 43.2185 14.5771 630 86.5952 289.767 507.324
525 0 44.337 12.5629 557 90.1759 289.052 507.715
526 0 46.244 12.4773 577 91.0936 288.308 505.806
527 0 47.4487 13.0035 617 91.4668 286.773 502.867
528 0 47.2107 11.9253 563 95.5932 285.581 502.199
529 0 49.2275 12.9805 639 94.7903 285.407 499.991
530 0 51.3215 12.4704 640 96.6141 285.908 499.016
531 0 55.3389 14.7817 818 91.3643 286.845 498.906
532 0 55.2705 12.6831 701 97.8787 287.167 497.267
533 0 55.4585 13.2892 737 97.6133 288.266 497.293
534 0 58.3263 11.7614 686 97.8032 290.452 499.382
535 0 59.3314 12.4386 738 98.4756 292.352 497.142
536 0 62.2933 14.1267 880 95.0886 293.894 495.67
537 0 66.185 14.1271 935 94.323 294.596 496.301
538 0 66.3888 15.0327 998 94.3206 295.334 493.396
539 0 68.1752 13.6413 930 97.6538 296.943 495.658
540 1 37.0751 10.5192 390 95.9103 298.872 515.477
541 0 37.0913 10.0023 371 99.7709 298.725 514.447
542 0 39.099 11.1768 437 97.6934 298.378 514.721
543 0 40.085 10.6274 426 98.453 297.007 515.782
544 0 40.0595 12.082 484 96.8368 295.721 514.99
545 0 43.1291 12.8684 555 94.3604 293.559 513.953
546 0 45.2899 13.0051 589 93.7555 290.682 513.835
547 0 44.1755 11.5222 509 98.279 290.621 511.821
548 0 47.215 13.555 640 94.3172 289.655 512.105
549 0 49.1803 13.4404 661 95.0136 288.271 509.98
550 0 50.3574 12.312 620 96.4468 287.077 507.724
551 0 54.2232 13.26 719 93.6871 286.369 505.915
552 0 55.198 13.2251 730 93.9425 285.684 504.744
553 0 57.227 12.2495 701 95.1712 284.947 501.28
554 0 57.2776 11.9593 685 96.7664 284.778 498.422
555 0 60.214 12.1733 733 95.9809 284.471 497.709
556 0 62.2582 12.7052 791 94.1416 283.956 494.48
557 0 64.2224 12.2699 788 99.8744 282.977 491.633
558 1 32.2514 10.0461 324 93.8982 284.096 505.941
559 0 35.1751 10.4335 367 92.4714 285.06 505.965
560 0 35.2896 11.7315 414 91.4396 285.495 504.828
561 0 36.3628 11.3303 412 91.2864 286.092 504.192
562 0 38.2982 12.3243 472 90.8877 287.494 501.75
563 0 38.3641 10.9217 419 93.4511 289.48 502.234
564 0 40.1091 12.2665 492 91.7378 293.24 500.835
565 0 41.2979 10.727 443 93.5914 293.851 502.725
566 0 43.2307 12.9306 559 90.6476 295.869 501.14
567 0 45.392 14.0994 640 88.9172 297.62 502.356
568 0 47.2345 12.0251 568 92.2148 297.375 502.993
569 0 49.3255 14.3536 708 89.3065 298.129 503.032
570 0 52.4291 13.5612 711 91.4022 297.792 503.17
571 0 51.2652 13.7325 704 93.0355 296.78 504.02
572 0 54.4377 13.7956 751 93.3768 296.666 502.764
573 0 54.2829 14.4613 785 94.0076 295.96 504.13
574 0 59.2392 14.0616 833 92.7959 295.191 504.272
575 0 61.1907 13.368 818 94.9156 293.773 504.949
576 0 61.2472 13.1924 808 97.4988 292.449 502.728
577 0 64.375 14.1515 911 96.1054 291.675 501.303
578 0 66.3534 14.89 988 96.0395 290.81 498.201
579 0 70.3704 13.6705 962 98.0062 288.954 497.879
580 0 70.3124 13.5111 950 100.233 287.568 496.435
581 0 74.4023 14.2872 1063 98.8749 286.808 493.698
582 0 77.5889 15.0537 1168 97.964 286.344 491.943
583 0 80.2089 14.3251 1149 98.6092 286.056 489.779
584 0 82.4476 13.5723 1119 100.15 285.063 489.117
585 0 83.1878 14.8099 1232 101.183 284.794 483.862
586 0 88.3092 15.876 1402 98.9979 285.28 482.603
587 0 91.2929 14.7657 1348 100.645 285.665 480.667
588 0 94.3287 14.6721 1384 100.605 285.587 478.619
589 0 95.2141 14.8192 1411 101.94 286.356 475.527
590 0 99.291 16.3258 1621 98.657 286.619 473.363
591 0 103.214 14.8526 1533 101.583 287.723 472.32
592 0 108.373 16.1111 1746 98.7812 289.578 471.466
593 1 57.0671 13.1775 752 100.461 292.725 497.367
594 0 59.0792 12.5594 742 102.585 294.925 495.681
595 0 58.1162 11.6319 676 105.223 296.03 496.402
596 0 65.1021 13.6555 889 99.1384 296.877 497.045
597 0 65.0806 12.5998 820 102.005 298.202 498.174
598 0 68.1598 12.7054 866 103.939 298.397 495.952
599 0 73.1205 14.4556 1057 100.223 298.974 496.518
600 0 75.148 14.8773 1118 99.0546 298.888 495.991
601 0 79.1356 13.1799 1043 104.209 295.723 497.764
602 1 42.2251 10.5624 446 103.327 295.41 517.561
603 0 46.1777 9.78828 452 103.312 294.252 518.595
604 0 46.2327 12.1775 563 99.6678 293.234 518.616
605 0 48.0758 12.2931 591 99.4366 290.32 516.959
606 0 50.2189 11.7087 588 100.77 289.148 517.204
607 0 53.1696 12.7893 680 98.5074 288.141 517.944
608 0 53.2395 13.1294 699 100.474 286.86 514.263
609 0 56.1097 13.6518 766 98.658 285.704 514.907
610 0 60.1801 13.6424 821 98.3021 284.009 513.778
611 0 62.1162 13.3299 828 100.459 283.664 510.894
612 0 63.1798 12.4249 785 103.274 283.085 509.541
613 0 68.1508 13.4555 917 101.196 282.943 509.296
614 0 70.1798 15.4603 1085 97.729 281.994 507.147
615 0 70.3086 12.4451 875 105.105 281.809 502.264
616 0 73.3418 13.6075 998 102.227 280.982 498.964
617 0 76.312 12.9206 986 103.923 281.759 497.05
618 0 78.2659 13.6969 1072 102.98 281.238 495.044
619 1 43.138 10.9416 472 99.3559 281.322 512.992
620 0 43.1501 10.4751 452 99.8805 282.96 512.387
621 0 45.1257 10.4375 471 100.658 283.887 511.316
622 0 47.0714 11.8968 560 98.4357 286.152 511.52
623 0 48.1186 11.6587 561 100.08 286.74 510.588
624 0 51.311 12.5119 642 98.609 288.659 510.484
625 0 55.1674 13.1418 725 96.9352 290.821 508.639
626 0 54.2837 12.0662 655 100.806 290.611 509.664
627 0 57.266 12.503 716 99.5182 290.986 508.612
628 0 57.1349 10.729 613 104.473 291.341 506.737
629 0 61.2178 13.2478 811 99.6979 290.983 506.649
630 0 64.2169 12.5201 804 100.868 288.817 509.412
631 0 67.2884 13.2564 892 99.9675 288.426 509.84
632 1 36.1435 10.735 388 99.2191 286.709 525.245
633 0 39.1982 10.6383 417 97.5707 285.477 526.237
634 0 40.1623 11.8519 476 98.7668 285.355 524.189
635 0 42.1343 11.1785 471 99.7049 284.091 524.599
636 0 44.0658 12.731 561 97.0036 283.709 524.057
637 0 46.0638 11.8531 546 100.802 281.753 521.835
638 0 48.258 11.6872 564 99.6135 280.436 521.777
639 0 47.3051 12.1974 577 99.7366 279.614 519.548
640 0 50.1206 13.6271 683 96.3792 278.883 516.135
641 0 51.2422 13.1337 673 96.9495 278.899 515.783
642 0 52.1768 12.9559 676 98.963 278.436 512.115
643 0 54.2469 12.2772 666 98.4459 278.293 511.614
644 0 56.1979 12.7229 715 98.2685 278.218 509.806
645 0 58.2049 13.7274 799 96.8135 278.945 508.481
646 0 60.0368 12.8588 772 100.006 279.797 508.183
647 0 61.1268 13.382 818 99.2152 281.653 505.685
648 0 63.1113 13.1672 831 98.6859 282.754 504.735
649 0 65.3199 12.8904 842 99.0582 283.596 504.371
650 1 36.2337 9.99071 362 97.3923 284.854 519.489
651 0 38.1366 12.8485 490 93.4367 286.188 516.663
652 0 40.2064 9.67507 389 95.5373 287.596 520.033
653 0 40.269 11.7708 474 94.1878 288.568 518.011
654 0 43.2298 11.5661 500 94.348 289.83 516.972
655 0 45.4626 12.8897 586 91.1928 290.913 518.379
656 0 45.146 12.3378 557 94.2873 290.438 517.639
657 0 48.3188 12.2726 593 93.3137 290.047 517.973
658 0 51.0995 11.9571 611 95.0016 290.519 517.854
659 0 51.0661 13.4727 688 94.9593 290.352 516.686
660 0 53.1649 11.944 635 98.0646 288.728 517.096
661 0 55.236 13.4152 741 97.1849 288.586 515.687
662 0 56.2628 13.668 769 97.2848 287.531 514.466
663 0 60.3579 13.9667 843 96.6845 285.861 512.891
664 0 63.2585 13.6108 861 97.6109 284.834 511.66
665 0 63.2664 13.2614 839 99.4005 283.886 509.851
666 0 67.3195 13.6662 920 96.6956 282.985 508.1
667 0 68.411 12.8634 880 99.2307 282.314 505.048
668 0 69.4101 12.9232 897 101.118 282.702 502.931
669 1 40.1146 8.57542 344 101.616 283.485 517.564
670 0 40.0919 10.875 436 96.5665 282.929 517.429
671 0 43.2806 10.7438 465 96.4989 282.2 514.981
672 0 44.1037 11.6997 516 99.0659 281.913 511.234
673 0 48.163 12.2708 591 97.0626 282.511 510.279
674 0 47.2624 12.4835 590 100.868 282.13 506.72
675 0 49.3359 12.0805 596 101.057 283.117 506.424
676 0 47.0424 11.1814 526 102.774 285.302 506.563
677 0 51.0323 12.4823 637 100.436 286.766 505.549
678 0 52.0759 13.0195 678 100.447 288.155 503.13
679 0 53.0445 12.5178 664 100.625 289.384 505.157
680 0 56.1333 12.4347 698 101.934 291.776 503.983
681 0 57.1188 13.3406 762 101.413 292.563 502.577
682 0 61.1967 14.2001 869 99.1185 295.207 501.446
683 0 61.1749 12.1455 743 103.034 295.553 503.925
684 0 64.2994 14.3392 922 100.448 296.624 500.838
685 0 69.1785 14.0506 972 99.9959 297.169 501.768
686 0 72.2446 14.1602 1023 101.323 297.548 501.411
687 1 38.275 9.35335 358 104.453 297.793 517.609
688 0 42.2934 11.4675 485 101 296.575 516.625
689 0 43.236 9.78351 423 102.598 295.782 517.856
690 0 43.1257 11.0375 476 102.609 294.811 516.229
691 0 44.3311 11.7299 520 101.729 293.35 513.944
692 0 46.1806 12.1046 559 101.394 292.805 512.073
693 0 47.211 10.9508 517 103.027 290.472 512.495
694 0 48.2962 14.4318 697 97.3572 289.686 511.343
695 0 51.2095 14.3137 733 98.5061 288.046 507.611
696 0 52.1461 13.5964 709 101.488 287.227 505.433
697 0 54.1677 13.9936 758 100.858 285.906 503.939
698 0 55.247 14.1003 779 100.659 285.974 502.159
699 0 56.2523 14.2928 804 101.48 285.56 500.752
700 0 57.2659 13.8477 793 103.028 286.318 498.137
701 0 60.1348 14.7502 887 101.179 286.692 495.735
702 0 60.2247 14.2965 861 102.643 287.678 495.231
703 0 62.1144 14.3445 891 102.485 288.723 494.361
704 0 64.3494 13.4889 868 104.347 289.128 492.997
705 0 66.2009 12.7793 846 105.836 289.673 492.189
706 0 69.21 13.6108 942 104.412 291 490.123
707 0 72.3119 13.9949 1012 103.671 292.355 490.51
708 0 74.3355 14.6094 1086 103.409 294.542 489.092
709 1 41.1366 10.2585 422 108.557 298.054 505.68
710 0 42.0714 12.6452 532 105.086 300.06 506.15
711 0 44.129 10.6506 470 109.372 301.979 506.672
712 0 45.1845 11.7518 531 108.729 302.702 507.354
713 0 47.0542 12.815 603 108.823 302.796 506.267
714 0 48.2316 12.8546 620 109.121 301.761 506.144
715 0 49.3761 12.6782 626 110.377 301.465 506.436
716 0 50.4416 11.2605 568 114.662 300.787 507.479
717 0 53.353 13.5512 723 108.845 299.806 507.285
718 0 56.4091 13.3489 753 108.818 298.935 508.052
719 0 57.2536 13.2743 760 111.129 297.311 506.711
720 0 61.3702 14.1763 870 106.629 296.006 505.164
721 0 64.3834 14.4913 933 106.429 294.564 502.846
722 0 65.2045 15.2443 994 106.59 292.586 501.947
723 0 65.2199 14.0141 914 110.438 290.079 500.16
724 0 70.1478 15.4531 1084 106.601 289.811 500.043
725 0 70.5576 14.1019 995 111.958 288.617 495.762
726 0 72.409 15.081 1092 109.409 288.283 492.972
727 0 76.5422 14.2013 1087 110.331 288.132 492.699
728 1 42.228 10.5143 444 111.705 287.277 508.167
729 0 44.1702 11.4783 507 109.325 287.746 506.917
730 0 45.2992 11.9428 541 108.366 288.229 505.787
731 0 44.2119 11.0604 489 111.892 288.182 504.198
732 0 48.3099 12.544 606 107.985 287.475 503.097
733 0 51.277 14.1389 725 105.481 287.411 501.319
734 0 52.2964 13.3087 696 107.204 288.974 501.908
735 0 52.2979 12.2376 640 109.619 290.928 501.286
736 0 56.3116 13.7982 777 105.036 292.587 501.095
737 0 56.1108 12.4397 698 107.434 294.523 502.691
738 0 60.1094 14.4237 867 103.735 295.845 501.98
739 0 59.1259 13.0062 769 108.094 297.378 500.735
740 0 64.2222 13.7491 883 105.652 298.737 501.069
741 0 68.3794 15.2093 1040 102.984 299.754 501.086
742 0 70.3863 15.1734 1068 105.171 299.019 501.486
743 0 74.3056 16.0957 1196 103.65 297.876 500.78
744 1 40.0519 11.0856 444 105.518 297.324 520.736
745 0 43.1078 11.8772 512 107.211 295.389 518.916
746 0 45.0538 12.3186 555 109.802 293.29 518.405
747 0 48.2036 14.3558 692 105.789 291.483 517.76
748 0 49.3273 13.5219 667 108.843 289.742 517.051
749 0 49.2685 13.8019 680 110.976 288.484 514.34
750 0 53.1848 12.9172 687 111.889 286.279 513.802
751 0 54.0805 14.2011 768 109.741 284.625 511.517
752 0 53.1589 13.375 711 114.508 283.842 510.533
753 0 55.3904 13.5764 752 113.509 283.848 509.031
754 0 60.1729 14.0429 845 111.276 282.905 506.254
755 0 61.149 14.7999 905 110.516 283.201 503.932
756 0 65.2686 15.1834 991 108.624 282.944 501.993
757 0 66.2098 14.8165 981 110.169 282.626 499.152
758 0 67.2844 14.5204 977 110.801 282.952 497.601
759 0 69.2876 13.6388 945 113.756 283.059 496.26
760 0 73.4152 15.2829 1122 109.569 284.242 492.546
761 0 76.2872 14.2357 1086 111.449 284.967 491.084
762 0 80.1466 14.3861 1153 110.351 287.31 489.73
763 1 46.1561 10.2912 475 110.76 288.836 506.436
764 0 46.0658 9.9206 457 110.558 291.039 507.639
765 0 50.0405 12.1302 607 108.501 292.138 505.499
766 0 50.0582 13.2446 663 106.818 294.641 506.437
767 0 52.1068 12.7814 666 106.389 294.932 506.722
768 0 55.1403 13.112 723 105.719 296.582 505.47
769 0 57.3333 13.0989 751 105.614 295.83 504.987
770 0 59.2703 13.3963 794 105.157 295.503 504.071
771 0 61.3851 13.7493 844 104 294.97 504.787
772 0 65.4599 13.6114 891 101.799 294.569 505.226
773 0 67.2201 13.2401 890 104.46 293.551 502.945
774 0 72.3768 13.7889 998 99.2124 292.614 501.476
775 0 74.2804 14.2702 1060 92.1698 291.617 499.412
776 0 77.5489 13.6559 1059 92.7101 289.825 496.827
777 1 40.1806 11.4981 462 87.5152 288.926 516.602
778 0 43.1406 10.0138 432 89.1644 286.866 514.9
779 0 44.1621 10.3256 456 89.2675 285.204 514.961
780 0 46.2606 11.6946 541 87.6895 284.27 511.784
781 0 47.1513 12.5765 593 87.2327 283.437 508.496
782 0 47.1948 11.5691 546 89.8681 283.216 507.941
783 0 49.4724 11.5418 571 91.1944 282.958 506.557
784 0 52.2562 12.4961 653 90.0368 283.236 505.47
785 0 54.2222 12.8361 696 89.8003 282.852 503.181
786 0 56.2356 14.1903 798 88.6729 283.655 500.617
787 0 59.3323 14.1238 838 86.8353 283.706 500.333
788 0 61.306 12.5599 770 89.987 285.626 499.145
789 0 62.4181 14.3228 894 88.7427 286.691 498.559
790 0 64.4328 14.0767 907 89.1577 287.933 498.055
791 0 68.4443 13.8068 945 88.5005 290.205 496.57
792 0 70.2482 14.1641 995 89.3196 291.113 494.993
793 0 74.4256 14.3499 1068 88.2846 293.399 497.87
794 0 78.5919 12.8257 1008 90.9544 294.252 497.575
795 1 42.3053 9.05323 383 90.5196 294.93 515.11
796 0 42.164 11.3604 479 89.4948 295.662 515.491
797 0 46.1112 13.0337 601 87.3028 294.819 515.787
798 0 46.2258 11.141 515 91.6582 294 516.126
799 0 50.0625 11.9251 597 91.0938 292.491 515.224
800 0 51.1846 12.3865 634 91.3849 291.38 517.53
801 0 54.1161 11.7525 636 93.6682 289.805 516.498
802 0 58.1943 13.558 789 89.8631 288.214 512.895
803 0 60.2411 13.1472 792 92.6604 286.384 512.937
804 0 62.2227 13.7731 857 92.3384 284.174 508.741
805 0 65.3547 12.5163 818 94.824 281.872 507.571
806 0 66.1634 12.5447 830 96.8096 281.235 505.451
807 0 71.2622 13.303 948 96.7774 280.256 504.062
808 0 72.3892 13.2755 961 101.39 280.165 499.91
809 0 76.5749 13.6859 1048 100.114 280.261 497.778
810 0 80.4109 13.7419 1105 99.2 280.361 495.163
811 0 81.4649 14.7794 1204 97.7807 280.625 495.193
812 0 85.4491 14.1956 1213 99.1674 281.433 492.955
813 0 85.3703 13.3067 1136 102.852 281.596 488.601
814 1 43.2858 9.98019 432 100.546 283.801 510.025
815 0 48.1355 10.7405 517 99.3984 284.847 506.774
816 0 48.2714 12.6783 612 95.036 285.828 507.974
817 0 49.0582 13.1884 647 94.8794 286.807 506.796
818 0 51.0542 12.8883 658 96.7933 288.236 503.573
819 0 53.1468 13.9237 740 95.6257 289.955 503.077
820 0 56.1488 14.6931 825 92.7952 291.21 505.038
821 0 58.0961 14.7514 857 93.3046 292.319 504.463
822 0 60.1679 13.8446 833 95.1164 293.652 504.974
823 0 63.319 14.7823 936 93.266 294.493 502.096
824 0 64.3549 12.9749 835 96.7126 295.072 503.004
825 0 68.4113 13.185 902 95.5055 293.987 504.041
826 1 39.1082 11.0974 434 94.9447 293.703 516.742
827 0 39.105 11.7632 460 91.5565 293.713 519.341
828 0 40.0729 11.8784 476 93.0399 292.33 517.819
829 0 42.1087 12.6577 533 91.1857 291.469 518.375
830 0 42.0516 12.5085 526 92.2586 291.527 517.272
831 0 45.039 12.5003 563 92.1048 289.155 513.952
832 0 47.0363 12.8837 606 92.3135 287.035 513.498
833 0 49.0635 11.9641 587 93.7836 286.036 510.284
834 0 50.0891 13.5359 678 92.0192 285.102 509.801
835 0 52.0687 14.212 740 90.6851 284.534 506.374
836 0 53.0751 13.7164 728 91.4904 284.478 505.584
837 0 55.0371 14.3176 788 90.8591 283.853 503.684
838 0 57.0743 14.1219 806 88.139 284.474 503.347
839 0 58.2096 12.8673 749 89.6502 284.741 501.335
840 0 62.0697 13.5332 840 88.3452 285.499 501.1
841 0 62.0851 13.2399 822 90.618 286.384 499.005
842 0 63.1745 12.7583 806 92.3524 286.048 498.433
843 0 65.1418 14.0923 918 92.2702 287.143 497.087
844 0 69.2903 13.2919 921 93.2302 289.911 495.567
845 0 72.1552 14.3579 1036 91.806 291.037 495.945
846 1 37.072 12.2465 454 91.6982 293.249 513.425
847 0 37.0451 10.6087 393 92.6896 295.514 516.224
848 0 40.0723 11.5292 462 92.9156 296.292 514.675
849 0 39.0213 11.8141 461 95.2755 297.777 515.115
850 0 44.1006 12.7663 563 93.4014 296.774 516.819
851 0 46.0675 12.5468 578 94.718 296.604 516.597
852 0 46.0161 14.2776 657 93.9833 295.519 517.552
853 0 48.0391 13.8221 664 94.753 294.044 518.444
854 0 47.0421 13.2222 622 98.455 292.159 518.445
855 0 48.0436 13.3004 639 98.0642 290.07 518.532
856 0 48.0436 13.2796 638 153.514 288.061 518.561
857 0 49.2651 14.3712 708 94.9633 286.26 517.208
858 0 51.23 14.7179 754 93.7971 285.593 517.562
859 0 51.1026 14.5002 741 94.4372 284.632 516.553
860 0 50.0776 13.9983 701 97.6962 282.967 514.835
861 0 51.1322 15.3524 785 94.6089 282.866 513.623
862 0 51.1493 14.663 750 95.0187 282.116 511.744
863 0 51.128 15.0016 767 94.3964 281.832 511.287
864 0 51.2101 15.1337 775 94.6774 281.654 509.839
865 0 52.166 14.2238 742 96.7399 281.376 509.828
866 0 51.039 14.1069 720 98.7306 281.36 507.643
867 0 52.095 14.6079 761 95.8265 282.234 507.783
868 0 51.1254 14.1026 721 94.5617 282.001 507.495
869 0 51.0951 14.2088 726 93.6061 283.169 507.309
870 0 51.0517 14.2209 726 93.5096 284.649 506.107
871 0 52.1363 14.2703 744 92.4153 286.406 506.895
872 0 52.1572 14.6864 766 91.795 286.997 506.017
873 0 51.2246 14.6024 748 92.5428 288.797 507.324
874 0 51.1577 14.9733 766 94.4321 290.208 508.739
875 0 50.0901 16.4104 822 90.3297 290.558 507.977
876 0 51.1797 14.4002 737 93.1438 291.957 509.564
877 0 53.2183 13.7734 733 92.1228 292.828 512.34
878 0 51.116 14.4769 740 93.7351 293.043 511.209
879 0 52.2401 15.6585 818 90.2249 293.126 514.336
880 0 52.1031 14.0299 731 93.0137 292.425 513.746
881 0 50.1776 14.7078 738 93.8496 290.694 513.813
882 0 51.0422 14.3411 732 92.8989 289.686 513.413
883 0 49.089 13.5672 666 96.2057 288.359 512.087
884 0 52.0725 14.0381 731 92.2312 287.357 511.914
885 0 50.0403 13.669 684 94.8012 285.611 511.167
886 0 51.0883 15.0328 768 90.7526 284.177 509.241
887 0 50.1195 15.3633 770 89.8195 283.17 509.5
888 0 50.0425 14.3878 720 91.6681 281.597 507.107
889 0 51.0804 16.1118 823 88.808 280.759 505.976
890 0 51.0448 14.4775 739 91.6915 280.652 505.476
891 0 51.0532 12.8102 654 94.607 280.691 505.543
892 0 49.141 13.0034 639 94.4272 281.41 504.609
893 0 51.1055 14.2059 726 91.0207 282.136 500.781
894 0 50.0883 14.7939 741 89.8502 282.972 501.502
895 0 52.15 16.4909 860 85.736 283.835 500.914
896 0 52.1633 15.9882 834 86.8405 285.089 501.168
897 0 52.1305 14.3486 748 88.8316 286.432 501.003
898 0 50.0324 14.7504 738 89.122 287.798 501.255
899 0 52.2245 14.3419 749 88.8491 288.873 500.27
900 0 53.0685 15.2633 810 86.4543 292.011 503.481
901 0 51.1054 15.2235 778 87.1761 293.961 504.828
902 0 49.3779 13.5891 671 90.3651 294.976 505.468
903 0 51.1209 14.4364 738 88.7371 296.108 505.222
904 0 52.0781 14.3246 746 88.8914 297.698 507.643
905 0 51.0414 12.7348 650 91.14 297.131 509.608
906 0 53.1484 16.3128 867 85.4198 296.562 509.788
907 0 51.0735 14.9393 763 88.1193 295.334 511.668
908 0 51.1018 15.6942 802 89.3354 294.1 513.946
909 0 50.183 12.9725 651 94.8464 292.118 514.562
910 0 51.046 14.1049 720 91.2333 290.653 515.825
911 0 50.0901 14.6536 734 89.8052 288.42 515.45
