time division length width area intensity CMx CMy
0 0 29.1521 10.8054 315 135.26 663.356 437.264
1 0 30.2636 9.74768 295 135.461 663.719 438.556
2 0 30.1522 11.3424 342 136.02 663.45 435.822
3 0 32.1228 10.6467 342 136.743 663.617 434.778
4 0 32.1562 11.5685 372 133.946 664.116 435.64
5 0 35.1646 11.9438 420 131.574 664.407 434.612
6 0 35.2072 12.1282 427 131.288 664.974 433.874
7 0 37.1426 12.7885 475 127.874 664.432 432.861
8 0 36.2232 13.196 478 127.318 664.954 431.839
9 0 39.2238 14.4045 565 122.68 664.198 430.713
10 0 39.2105 13.1342 515 125.26 663.647 429.497
11 0 38.0409 14.3267 545 124.899 664.897 430.82
12 0 41.0523 13.4706 553 124.467 664.378 430.497
13 0 43.0513 15.168 653 118.776 665.479 429.214
14 0 43.025 13.2016 568 123.891 664.69 430.238
15 0 44.2446 14.3068 633 121.583 662.904 428.513
16 0 44.0914 14.4019 635 121.609 663.468 428.411
17 0 45.095 15.5006 699 119.029 663.506 427.921
18 0 48.1375 14.1262 680 120.771 662.984 428.346
19 0 49.0768 13.5706 666 122.206 662.955 428.087
20 0 52.2068 16.7028 872 114.883 662.846 425.467
21 0 51.2415 14.8903 763 121.419 663.473 424.987
22 0 53.2703 14.2669 760 121.138 664.86 425.908
23 0 54.1484 14.5157 786 120.762 665.417 425.981
24 0 56.2257 15.4733 870 120.671 665.007 424.439
25 0 57.2276 15.3597 879 122.396 664.531 423.25
26 0 57.1148 15.7227 898 122.209 663.735 423.46
27 0 61.1223 15.8207 967 119.862 665.301 423.705
28 0 63.183 17.6946 1118 115.165 666.377 422.069
29 0 65.1724 17.0624 1112 115.952 665.464 422.385
30 0 66.2405 16.2891 1079 118.511 666.638 420.922
31 0 69.1415 16.6615 1152 117.213 667.097 420.506
32 0 70.2022 16.2103 1138 118.038 666.798 419.576
33 0 74.1495 16.9927 1260 113.728 667.689 419.196
34 1 36.0742 11.6149 419 123.663 666.974 435.89
35 0 38.0871 11.5 438 123.863 667.064 436.247
36 0 40.0531 12.5334 502 121.311 667.367 434.303
37 0 44.2049 13.5958 601 115.875 667.687 433.681
38 0 43.066 12.864 554 119.103 667.48 432.644
39 0 43.066 12.6782 546 160.185 667.447 432.797
40 0 47.1003 14.7133 693 116.02 667.216 429.521
41 0 49.1758 14.2753 702 114.742 667.063 431.291
42 0 50.0647 14.4014 721 113.172 667.811 432.115
43 0 52.1479 13.9603 728 114.07 668.526 430.243
44 0 56.1399 14.8557 834 110.215 668.434 431.249
45 0 55.1343 15.036 829 142.387 667.406 431.221
46 0 59.2001 14.4425 855 111.542 669.729 430.585
47 0 61.1201 16.6066 1015 106.622 669.46 429.204
48 0 62.1568 16.9893 1056 106.321 669.3 425.727
49 0 65.1894 16.6285 1084 106.495 668.533 424.575
50 0 67.1738 15.3334 1030 106.302 668.426 424.897
51 0 69.1995 15.9683 1105 105.099 667.46 425.979
52 0 70.1563 16.3207 1145 103.755 668.323 422.885
53 0 74.3207 15.8502 1178 102.569 668.284 422.789
54 0 76.2722 15.4316 1177 103.962 668.813 418.86
55 0 78.3891 16.8391 1320 100.682 667.699 419.295
56 0 80.3011 17.6087 1414 100.532 667.741 416.494
57 0 84.1706 18.1061 1524 99.1778 668.873 416.213
58 0 85.1257 15.624 1330 104.45 667.998 415.616
59 0 89.3241 16.804 1501 101.871 668.029 415.309
60 0 94.4006 17.1821 1622 99.574 668.015 414.668
61 0 96.1882 17.8816 1720 98.2901 667.95 412.11
62 0 99.283 16.599 1648 100.197 668.371 410.703
63 1 53.2925 9.90758 528 104.634 667.5 436.625
64 0 56.2467 12.8896 725 101.611 667.967 434.582
65 0 55.2616 12.0518 666 103.803 667.514 434.321
66 0 59.1742 13.7898 816 102.02 667.929 430.379
67 0 61.1524 14.1123 863 100.472 668.377 432.028
68 0 63.1414 14.3487 906 99.1954 668.348 430.722
69 0 66.1046 15.294 1011 97.5796 668.457 429.689
70 0 69.2154 15.2567 1056 98.6913 666.919 428.938
71 0 70.0646 15.7426 1103 98.9465 667.995 428.279
72 0 72.141 15.6915 1132 98.9859 666.897 429.426
73 0 76.1282 14.5938 1111 100.419 666.274 429.093
74 0 77.1721 14.5648 1124 102.222 666.81 427.283
75 0 79.1914 15.4815 1226 100.414 667.404 429.383
76 0 81.1802 14.166 1150 103.598 669.296 428.168
77 0 87.1508 15.9608 1391 99.3063 668.522 429.596
78 1 43.0385 10.7113 461 102.236 668.102 449.484
79 0 43.017 10.554 454 101.37 667.72 454.106
80 0 45.0895 12.1314 547 99.9616 668.708 455.09
81 0 47.0911 13.5695 639 99.2833 669.074 456.138
82 0 51.0679 13.4527 687 97.6026 668.648 462.019
83 0 50.3196 12.9969 654 95.1544 670.428 472.332
84 0 52.3081 12.7896 669 95.6876 670.477 474.806
85 0 53.0735 13.1893 700 94.0414 668.619 476.084
86 0 53.1129 13.6313 724 98.2735 669.628 477.53
87 0 57.1064 15.4273 881 93.9478 670.077 478.203
88 0 59.2029 14.5601 862 95.058 670.396 478.162
89 0 62.2528 13.9753 870 95.6598 669.486 477.391
90 0 60.2528 13.2442 798 140.226 668.417 476.289
91 0 64.0916 15.4622 991 96.2805 669.898 470.666
92 0 68.1365 15.2048 1036 95.2288 670.353 472.75
93 0 70.2969 14.4957 1019 96.8469 670.25 471.564
94 0 73.1831 15.6867 1148 96.5723 670.027 469.335
95 0 76.1969 16.7855 1279 94.9875 670.3 466.996
96 0 78.2746 16.3271 1278 95.7903 670.505 467.439
97 0 78.3501 14.5884 1143 99.1645 670.6 465.402
98 0 81.3138 13.7123 1115 100.955 670.279 463.618
99 0 86.4819 15.8877 1374 96.2416 671.172 464.746
100 0 86.4819 15.9918 1383 141.68 671.179 464.799
101 1 48.0856 10.9804 528 97.3958 672.335 481.411
102 0 50.0868 10.3421 518 98.0541 672.05 479.734
103 0 52.1075 12.7621 665 95.409 671.904 478.495
104 0 54.0999 12.1997 660 94.4697 672.289 478.62
105 0 56.0569 14.289 801 95.1486 672.451 478.833
106 0 58.1304 14.261 829 96.6152 671.49 479.357
107 0 59.1864 13.6687 809 98.4932 671.389 479.083
108 0 59.1323 13.326 788 101.047 671.807 476.085
109 0 62.2272 15.4595 962 95.9439 671.494 476.191
110 0 65.1355 16.0281 1044 95.7347 671.718 474.8
111 0 68.1353 14.163 965 98.8767 671.386 474.544
112 0 66.1509 12.8948 853 103.415 671.443 473.215
113 0 71.1428 14.8855 1059 99.8782 671.002 471.889
114 1 35.0249 11.449 401 99.0299 673.022 491.384
115 0 37.1172 12.3932 460 99.4217 670.802 489.413
116 0 37.0422 9.01674 334 103.934 671.455 490.686
117 0 39.0787 9.97987 390 103.879 671.12 489.244
118 0 42.1652 11.621 490 101.5 671.188 487.759
119 0 42.0932 12.4961 526 100.2 670.715 487.401
120 0 44.1504 12.5027 552 99.3859 670.623 487
121 0 45.0976 13.238 597 98.9866 670.499 485.653
122 0 45.1505 12.6466 571 100.587 668.27 484.648
123 0 47.1088 13.2035 622 100.227 668.339 483.593
124 0 49.0914 13.1184 644 99.9456 668.759 484.335
125 0 49.0914 13.2202 649 141.19 667.732 484.265
126 0 49.0914 13.3628 656 140.311 666.727 484.184
127 0 52.0897 13.5727 707 103.045 669.117 481.931
128 0 52.1536 13.1151 684 106.646 669.07 479.924
129 0 56.1738 14.8824 836 101.904 669.27 479.85
130 0 57.1585 14.8709 850 103.092 669.955 478.158
131 0 59.1548 14.5212 859 103.736 669.464 477.931
132 0 61.0677 13.657 834 104.566 669.501 476.411
133 0 64.0451 14.6772 940 101.664 669.505 475.236
134 0 68.1259 14.9282 1017 98.8673 669.906 473.68
135 0 67.0954 14.0993 946 101.351 669.364 472.71
136 0 69.0881 13.8664 958 102.968 669.693 471.122
137 0 75.1277 14.8414 1115 99.6565 669.936 470.886
138 1 37.009 10.8352 401 100.252 671.299 490.317
139 0 37.0306 11.1529 413 102.748 671.167 488.797
140 0 41.0789 11.5388 474 101.099 671.5 488.414
141 0 41.0757 11.4423 470 101.783 671.192 487.917
142 0 44.0944 13.5391 597 97.5209 671.551 487.745
143 0 45.1176 12.8553 580 100.017 670.153 486.005
144 0 46.0949 13.1468 606 99.5314 669.941 486.955
145 0 48.0696 13.1684 633 99.8104 670.122 485.139
146 0 48.0179 13.2659 637 99.1821 670.283 486.168
147 0 51.0355 14.3626 733 96.8158 670.767 484.136
148 0 54.0517 14.6526 792 95.4912 670.771 483.821
149 0 55.1603 16.4792 909 92.1969 670.185 483.681
150 0 56.1519 14.8526 834 94.952 669.928 484.339
151 0 56.1153 13.5792 762 99.5564 669.36 480.371
152 0 59.0621 12.8509 759 100.556 669.788 481.527
153 0 62.2389 16.0832 1001 95.3516 669.52 479.599
154 0 63.0764 15.4257 973 99.0267 670.1 477.26
155 0 66.0651 14.8793 983 101.187 669.532 474.858
156 0 68.1244 14.18 966 103.41 669.788 473.789
157 0 71.0589 16.7889 1193 99.1928 669.56 472.94
158 0 73.1567 15.6513 1145 102.183 669.656 472.92
159 0 77.043 16.9905 1309 100.115 669.647 472.256
160 1 36.065 10.0374 362 106.42 668.934 491.53
161 0 41.0554 13.0068 534 103.506 669.182 488.846
162 0 38.0467 11.3019 430 110.3 669.609 488.246
163 0 41.0536 12.6177 518 106.9 670.324 489.218
164 0 44.0577 13.0738 576 105.944 670.858 487.714
165 0 42.0258 13.0872 550 109.504 670.34 486.451
166 0 45.2483 14.1 638 104.687 670.744 485.702
167 0 47.1145 15.2395 718 102.669 669.962 485.067
168 0 47.1236 14.2179 670 105.875 671.058 483.924
169 0 49.1182 13.3963 658 106.653 671.532 485.532
170 0 51.1229 15.14 774 102.726 671.224 484.437
171 0 52.1195 14.39 750 104.685 670.232 484.359
172 0 53.0509 14.307 759 104.184 670.165 484.033
173 0 55.0521 14.4409 795 105.049 669.76 482.257
174 0 57.2251 16.5487 947 100.746 669.733 481.862
175 0 59.0562 14.5963 862 104.261 669.862 480.121
176 0 61.0219 14.3555 876 104.983 669.973 480.76
177 0 64.1321 14.9535 959 102.96 670.293 480.394
178 0 66.0815 14.7999 978 104.169 670.322 478.319
179 0 68.0814 16.1424 1099 101.002 669.43 478.445
180 0 70.1359 14.6287 1026 103.931 669.507 477.738
181 0 73.0757 15.3266 1120 103.201 669.364 476.036
182 0 75.0637 15.7466 1182 102.466 669.111 475.118
183 1 40.0277 12.6412 506 104.538 669.223 490.13
184 0 41.0919 10.221 420 104.721 669.088 492.498
185 0 45.1545 11.6932 528 102.33 668.42 491.335
186 0 44.1541 13.5661 599 103.608 668.384 488.013
187 0 44.1221 13.0774 577 104.518 668.142 488.133
188 0 46.1418 15.3223 707 102.919 668.173 485.375
189 0 48.1886 15.1488 730 103.318 667.312 485.604
190 0 47.0905 13.4634 634 107.724 666.956 486.155
191 0 51.1147 15.338 784 103.57 667.107 483.133
192 0 52.1127 15.1978 792 104.885 667.258 482.564
193 0 53.1193 14.9098 792 105.264 668.769 481.504
194 0 53.0838 15.2589 810 106.256 669.096 480.479
195 0 55.0676 15.1087 832 107.008 669.286 480.284
196 0 55.1598 15.4823 854 107.624 669.405 479.317
197 0 58.1065 14.6455 851 108.645 669.844 479.377
198 0 61.0609 14.1826 866 108.948 669.338 478.643
199 0 63.1783 16.2872 1029 104.4 669.507 478.517
200 0 63.1783 16.2872 1029 147.467 669.507 478.517
201 0 64.16 14.5729 935 111.429 670.179 475.424
202 0 70.1559 16.8339 1181 104.685 669.657 474.594
203 0 72.1797 15.2952 1104 107.824 669.807 474.029
204 0 74.1404 15.8618 1176 108.517 670.279 472.696
205 1 40.1559 9.83666 395 112.99 670.311 490.281
206 0 40.1715 11.8243 475 111.213 670.025 489.937
207 0 42.3558 13.3394 565 107.897 670.101 489.032
208 0 45.1649 12.5761 568 108.317 669.28 488.382
209 0 48.1779 13.6577 658 105.43 669.573 488.758
210 0 48.2013 13.2984 641 106.456 669.658 488.722
211 0 49.2062 14.9778 737 104.734 668.984 486.649
212 0 51.2647 15.3517 787 103.82 668.722 485.374
213 0 54.1367 15.5717 843 102.158 668.042 485.042
214 0 55.5228 14.5346 807 104.633 667.551 482.374
215 0 54.1594 14.1065 764 106.186 668.052 481.421
216 0 59.3949 14.1931 843 104.936 668.174 480.99
217 0 59.2944 14.7569 875 105.181 667.806 479.123
218 0 62.2798 14.9166 929 103.707 667.605 479.422
219 0 64.2805 14.499 932 105.744 667.468 478.028
220 0 66.4398 14.4492 960 105.738 668.527 476.834
221 0 68.3505 14.3086 978 105.743 668.419 475.862
222 0 69.4451 14.9471 1038 105.366 668.315 474.151
223 0 71.3992 14.4119 1029 105.35 668.528 474.051
224 0 74.4562 14.2097 1058 107.069 667.716 470.053
225 0 76.1913 15.4217 1175 104.702 668.18 469.365
226 0 81.2386 15.079 1225 104.742 668.796 468.546
227 1 43.3205 10.5724 458 105.646 670.212 487.509
228 0 44.2707 10.481 464 106.953 669.963 486.224
229 0 44.2707 10.4358 462 147.727 670.996 486.359
230 0 46.2485 10.4868 485 107.148 670.652 485.802
231 0 46.1197 12.164 561 105.963 670.668 483.74
232 0 49.0571 13.4537 660 104.079 671.768 482.188
233 0 52.1176 13.9876 729 102.04 671.746 481.867
234 0 54.053 12.1917 659 104.731 671.689 480.941
235 0 55.058 14.6391 806 101.764 672.207 479.252
236 0 55.058 14.6573 807 130.667 671.196 479.256
237 0 60.1005 14.6754 882 101.556 671.844 479.363
238 0 61.249 13.7145 840 103.658 671.898 478.338
239 0 64.1135 14.5367 932 103.808 671.959 477.877
240 0 66.1984 12.7495 844 107.037 672.182 478.746
241 0 68.2276 14.906 1017 103.968 671.172 477.269
242 0 70.1194 15.9585 1119 101.786 670.308 475.37
243 0 74.128 15.163 1124 102.108 669.914 477.089
244 1 36.0395 11.8759 428 102.367 670.878 493.192
245 0 39.0268 12.0174 469 99.3539 670.793 493.484
246 0 42.0158 12.1621 511 98.9374 670.699 491.9
247 0 41.1109 12.9649 533 98.9381 670.488 491.623
248 0 42.0913 12.164 512 101.523 670.137 490.23
249 0 43.1435 12.4237 536 101.478 669.078 489.487
250 0 46.0764 14.324 660 97.1848 669.809 489.561
251 0 46.1559 13.8011 637 99.606 668.983 487.725
252 0 49.2786 12.5409 618 100.848 668.424 488.482
253 0 48.0856 13.2888 639 103.72 668.577 484.548
254 0 50.2605 12.1567 611 105.604 668.35 485.678
255 0 50.2503 13.3731 672 104.815 668.196 484.981
256 0 55.1088 12.6114 695 104.981 669.06 483.108
257 0 54.0555 13.6341 737 102.666 669.016 483.298
258 0 56.1314 12.9339 726 104.251 669.163 481.238
259 0 59.0428 14.6334 864 101.296 669.095 479.657
260 0 59.1691 13.6051 805 102.713 669.446 478.625
261 0 61.1968 13.5301 828 103.493 669.551 478.342
262 0 64.1789 14.444 927 102.238 669.471 476.16
263 0 65.2193 13.0483 851 105.006 669.93 475.179
264 0 68.3624 14.1013 964 102.47 670.308 473.982
265 0 71.3765 14.0803 1005 102.118 670.536 473.837
266 0 73.3244 15.3837 1128 98.9353 670.597 475.86
267 0 76.3428 15.1029 1153 101.318 671.078 470.289
268 1 41.0683 10.8843 447 101.559 672.034 489.163
269 0 43.2158 11.6855 505 101.257 672.313 488.097
270 0 45.0377 10.3469 466 101.781 672.004 488.485
271 0 46.1402 13.3073 614 97.5847 671.692 487.357
272 0 49.034 13.1949 647 97.578 671.746 487.083
273 0 50.3037 13.8161 695 97.1396 671.508 487.127
274 0 50.4522 14.8457 749 95.8224 670.8 487.525
275 0 52.2206 14.1515 739 96.9973 671.177 486.398
276 0 53.242 13.2602 706 99.9717 669.958 485.62
277 0 55.2077 13.8749 766 99.0705 669.963 483.932
278 0 56.1324 14.3233 804 97.3022 669.643 483.372
279 0 58.2565 12.5823 733 100.356 669.312 482.517
280 0 59.5266 13.2378 788 99.5076 668.864 480.876
281 0 59.3303 13.1299 779 100.13 668.79 480.126
282 0 63.3517 13.2751 841 99.7717 668.344 478.321
283 0 66.4444 13.6656 908 99.5738 667.851 475.772
284 0 68.3415 12.7302 870 102.715 667.169 476.494
285 0 69.2977 14.3872 997 100.818 667.668 472.965
286 0 72.3545 12.5631 909 105.062 667.158 471.27
287 0 78.5902 14.9255 1173 99.6471 667.762 470.896
288 0 79.3023 13.6314 1081 103.554 666.982 466.557
289 1 43.1684 11.1424 481 99.1642 667.769 489.096
290 0 46.1605 11.2651 520 99.3038 668.5 487.031
291 0 47.1332 14.109 665 94.5504 668.256 485.8
292 0 48.1198 13.2794 639 98.1033 668.357 483.593
293 0 50.084 13.1978 661 98.0802 668.625 484.274
294 0 51.1284 12.1068 619 100.027 668.906 483.473
295 0 54.312 13.1095 712 98.3989 669.673 482.823
296 0 55.2805 13.7662 761 98.2641 668.733 482.966
297 0 60.5917 15.8273 959 93.8029 669.309 483.438
298 0 61.388 14.4002 884 97.6029 670.283 481.954
299 0 60.3968 13.1464 794 102.606 670.224 480.612
300 0 64.4554 13.8856 895 100.827 670.42 480.858
301 0 68.5077 14.2174 974 101.203 671.074 478.886
302 0 70.3217 14.4763 1018 102.231 670.842 477.527
303 0 72.4655 15.221 1103 101.261 670.924 477.665
304 0 75.2805 15.595 1174 101.274 670.689 476.773
305 1 37.2756 11.9918 447 100.888 670.91 495.128
306 0 39.2087 11.7321 460 103.002 670.25 495.437
307 0 40.2861 11.7907 475 103.122 670.419 495.364
308 0 40.2469 12.2991 495 104.448 669.77 493.808
309 0 42.2666 12.5158 529 104.974 669.348 492.287
310 0 45.0149 12.5292 564 104.991 669.525 491.613
311 0 46.4866 14.1761 659 102.062 668.917 490.744
312 0 47.646 14.104 672 103.804 668.967 490.592
313 0 50.4527 13.5771 685 105.055 668.892 488.517
314 0 51.4621 14.3601 739 103.854 668.338 487.483
315 0 52.2628 14.7906 773 103.995 667.49 486.391
316 0 52.2975 12.9069 675 108.427 667.428 486.32
317 0 55.3861 13.433 744 107.817 666.961 483.949
318 0 57.278 14.0892 807 105.937 666.553 483.352
319 0 58.1238 13.4024 779 107.122 667.062 481.66
320 0 61.2332 14.2406 872 104.95 667.161 479.56
321 0 63.2899 14.7733 935 103.738 667.464 478.784
322 0 63.1851 14.2755 902 104.254 667.211 478.474
323 0 65.3478 15.0732 985 103.089 668.241 475.097
324 0 66.3013 12.9711 860 106.972 667.281 475.793
325 0 69.3447 13.7718 955 105.693 668.427 473.495
326 0 73.3375 14.4674 1061 102.359 669.374 473.897
327 0 74.6622 14.9607 1117 103.206 670.273 469.789
328 0 78.4569 14.1606 1111 103.876 670.872 471.741
329 1 37.3246 10.1274 378 101.41 672.971 491.606
330 0 40.3268 10.1917 411 103.248 672.757 489.56
331 0 42.2755 10.266 434 104.265 673.184 488.995
332 0 44.1097 12.6956 560 101.193 672.541 488.43
333 0 46.1614 11.9147 550 100.758 671.813 488.678
334 0 49.0229 13.6467 669 98.9686 670.978 488.212
335 0 48.076 14.1443 680 98.6412 671.293 486.435
336 0 47.0759 11.8532 558 104.238 671.426 488.179
337 0 53.1777 13.3138 708 100.288 671.058 487.427
338 0 55.0773 13.7262 756 98.664 671.153 487.226
339 0 54.1803 14.3595 778 100.413 669.906 483.228
340 0 54.2023 12.029 652 104.083 668.684 484.248
341 0 59.1268 14.2575 843 98.4199 669.46 482.671
342 0 61.2617 15.0828 924 97.7879 669.344 481.003
343 0 62.1297 14.0995 876 99.9692 668.56 480.889
344 0 63.1628 13.5681 857 101.86 667.897 476.943
345 0 66.2406 14.5983 967 100.145 667.633 477.089
346 0 68.2309 14.7294 1005 99.8935 667.728 477.218
347 0 72.2143 13.6954 989 100.887 667.421 473.523
348 0 73.4292 14.2042 1043 101.009 666.669 472.655
349 0 75.2842 13.4291 1011 102.689 666.913 470.411
350 1 40.0758 11.1289 446 97.4238 666.59 490.265
351 0 41.0682 10.7626 442 100.554 667.407 487.821
352 0 43.0838 11.9302 514 100.704 667.982 485.597
353 0 44.176 11.341 501 101.421 668.886 485.577
354 0 47.1076 12.0787 569 99.4517 669.148 485.1
355 0 46.2036 12.1419 561 101.971 670.62 483.317
356 0 49.1526 12.4103 610 101.852 671.159 483.83
357 0 49.1235 13.9037 683 99.1801 672.214 483.012
358 0 51.1409 12.5731 643 99.3795 671.935 483.991
359 0 53.0361 14.2167 754 98.0981 670.932 483.138
360 0 54.1111 14.9138 807 97.6716 671.748 482.434
361 0 57.0696 14.2107 811 98.672 671.567 483.15
362 0 58.064 14.8801 864 99.2002 672.19 479.955
363 0 61.1812 14.645 896 97.0625 671.652 482.828
364 0 61.1658 13.9294 852 101.136 672.444 479.824
365 0 65.255 14.1752 925 100.043 672.571 480.968
366 0 66.244 15.1561 1004 100.051 672.8 477.753
367 0 71.2029 14.6342 1042 99.9261 672.098 477.817
368 0 74.2874 14.4843 1076 100.484 672.263 477.991
369 0 75.1809 14.6314 1100 101.868 672.195 475.638
370 0 77.2048 13.8852 1072 102.986 670.711 476.326
371 0 82.1737 16.3191 1341 98.1879 671.06 474.921
372 0 84.3346 13.2923 1121 104.045 669.994 473.225
373 1 46.0808 11.6968 539 98.974 670.571 492.38
374 0 46.0744 12.1759 561 98.6988 670.098 490.144
375 0 49.1513 12.2682 603 98.6766 668.607 489.015
376 0 50.0329 13.0914 655 95.9939 668.049 488.171
377 0 54.2588 13.5093 733 94.2647 667.971 486.637
378 0 54.4423 12.9862 707 97.5658 666.545 485.055
379 0 56.2257 13.179 741 97.3765 667.731 482.316
380 0 57.2313 13.9958 801 96.6767 667.114 481.135
381 0 57.2508 14.847 850 95.8918 667.634 477.319
382 0 62.3214 14.3931 897 94.6087 666.456 478.423
383 0 64.3535 13.2549 853 98.5404 666.928 475.251
384 0 65.4138 13.0401 853 100.434 668.299 476.06
385 0 67.5763 14.1026 953 98.8867 668.859 474.587
386 0 69.4002 13.3717 928 100.387 668.961 475.45
387 0 72.3692 15.1446 1096 98.7619 669.922 473.912
388 0 74.3119 14.5333 1080 100.978 671.189 470.558
389 0 79.5269 14.6114 1162 100.272 671.678 471.092
390 1 41.3064 11.7899 487 103.439 673.096 488.203
391 0 42.2351 10.9624 463 103.823 673.248 489.631
392 0 44.4015 12.4545 553 103.208 673.846 489.096
393 0 46.1612 13.2579 612 103.304 673.69 487.41
394 0 48.3365 12.0406 582 104.974 673.576 489.12
395 0 49.2237 13.1034 645 101.228 673.358 488.691
396 0 51.217 12.6325 647 102.747 673.522 490.057
397 0 51.2692 12.3856 635 106.721 672.849 487.616
398 0 55.1733 16.3304 901 98.4151 672.103 488.203
399 0 56.2905 14.4785 815 102.042 672.415 486.528
400 0 58.2493 14.2663 831 101.832 671.815 485.475
401 0 60.1304 13.2712 798 102.589 672.412 485.501
402 0 64.2128 15.8068 1015 99.5862 671.871 482.912
403 0 65.2678 14.6627 957 103.129 670.645 481.644
404 0 64.2712 12.7273 818 108.549 669.646 480.423
405 0 69.3697 14.156 982 105.206 669.399 479.118
406 0 70.4406 14.1964 1000 106.556 668.815 475.903
407 0 73.5465 14.9973 1103 104.754 668.3 474.845
408 0 75.3507 14.3462 1081 107.751 667.728 471.02
409 0 81.6517 14.6476 1196 106.377 666.959 470.712
410 0 80.3665 14.6952 1181 109.371 666.209 468.714
411 0 83.6065 15.0347 1257 109.628 667.167 468.186
412 1 45.1717 11.8658 536 108.09 667.153 485.491
413 0 46.2425 11.8289 547 108.951 667.923 484.069
414 0 48.2702 11.0006 531 110.467 668.203 483.797
415 0 50.087 12.4783 625 109.312 669.381 482.598
416 0 52.0899 13.4575 701 105.953 670.562 481.853
417 0 53.0521 11.7243 622 108.794 672.093 482.482
418 0 55.2246 13.2369 731 106.926 671.607 481.245
419 0 57.2203 13.8063 790 107.049 672.832 479.053
420 0 57.0474 13.4274 766 108.488 673.593 480.476
421 0 62.2219 13.6608 850 108.054 674.12 479.621
422 0 63.2041 13.7491 869 108.497 674.486 478.178
423 0 66.1366 14.4096 953 107.792 674.747 477.7
424 0 69.1646 15.1089 1045 106.335 674.294 476.26
425 0 71.2031 14.3393 1021 106.765 674.973 476.792
426 0 75.1512 16.1807 1216 103.303 674.921 476.497
427 0 77.2344 15.2264 1176 105.668 674.85 476.134
428 0 80.2147 15.0471 1207 107.259 673.544 475.307
429 0 82.2129 14.2314 1170 109.325 673.492 473.009
430 0 84.2205 13.8802 1169 110.7 672.673 469.6
431 1 43.092 10.0019 431 104.281 672.9 494.211
432 0 45.0241 10.661 480 105.335 671.956 491.921
433 0 46.045 9.53416 439 107.683 671.442 489.576
434 0 47.1218 11.3323 534 105.29 670.577 487.728
435 0 48.1774 11.1878 539 105.167 668.52 488.423
436 0 51.1805 12.2117 625 102.755 668.338 485.794
437 0 55.1608 13.0709 721 100.024 667.838 485.699
438 0 56.1454 13.002 730 101.159 668.062 483.399
439 0 58.1439 13.1398 764 100.445 667.313 483.031
440 0 57.2355 11.8633 679 106.1 667.08 476.264
441 0 60.1186 12.7415 766 102.45 667.82 477.3
442 0 62.1256 14.5351 903 101.288 666.862 475.573
443 0 66.1242 13.8376 915 101.186 668.821 476.531
444 0 66.088 14.1478 935 102.988 668.959 473.984
445 0 70.2185 15.0245 1055 100.309 669.465 473.928
446 0 69.2163 12.9883 899 106.736 670.008 471.671
447 0 74.218 13.7433 1020 106.119 671.364 469.508
448 1 41.1546 9.59796 395 105.035 671.977 487.119
449 0 42.0792 9.31577 392 104.635 673.207 489.186
450 0 44.1701 11.3425 501 102.922 673.85 486.617
451 0 44.2523 10.8921 482 103.689 674.807 488.32
452 0 46.2892 12.2707 568 101.252 675.062 487.903
453 0 48.2346 12.5014 603 101.668 675.499 486.604
454 0 50.2496 11.622 584 99.7243 674.649 490.192
455 0 53.0621 12.9471 687 98.5007 676.354 487.924
456 0 54.0517 12.8026 692 98.2558 675.481 488.019
457 0 54.011 12.7382 688 99.9695 674.619 487.647
458 0 58.0588 13.6414 792 97.5366 673.994 487.034
459 0 56.0422 13.0081 729 98.9451 673.512 486.062
460 0 61.0612 13.7403 839 97.2336 673.114 484.465
461 0 61.0381 13.254 809 100.143 673.324 482.346
462 0 65.1178 14.3893 937 99.3063 671.706 482.772
463 0 66.151 14.4518 956 99.6778 669.981 481.017
464 0 69.1099 14.8749 1028 98.3093 669.382 479.122
465 0 71.0892 13.8418 984 100.895 669.191 475.682
466 0 73.1513 14.2581 1043 101.393 667.836 475.353
467 0 74.0694 13.3253 987 103.737 667.752 473.923
468 0 79.1477 14.6309 1158 101.379 667.005 472.351
469 0 81.2447 14.6225 1188 103.166 667.349 469.843
470 1 38.0378 8.96476 341 107.971 668.396 489.408
471 0 40.11 10.7953 433 106.014 668 486.42
472 0 45.1117 10.2856 464 104.168 668.45 486.412
473 0 44.0458 10.3302 455 105.938 668.446 485.374
474 0 47.3753 11.5883 549 102.477 669.341 486.115
475 0 46.0642 12.7431 587 103.918 670.189 483.583
476 0 46.1248 11.8158 545 106.204 669.394 484.38
477 0 51.2002 13.8476 709 99.1368 670.726 484.721
478 0 50.3104 12.721 640 101.97 672.134 482.186
479 0 53.3316 12.7692 681 101.781 673.17 483.079
480 0 53.4804 11.3125 605 107.575 673.896 482.625
481 0 57.3547 14.6283 839 100.905 674.807 483.521
482 0 58.2755 13.9338 812 103.733 675.005 482.868
483 0 59.2503 13.6371 808 104.918 675.202 482.046
484 0 61.1609 13.1129 802 106.308 675.677 480.81
485 0 63.2182 14.4737 915 105.161 675.034 481.728
486 0 65.3521 13.7256 897 105.909 673.946 481.052
487 0 66.2926 12.9125 856 109.725 673.313 479.298
488 0 69.4553 14.0234 974 108.472 672.836 476.884
489 0 73.329 15.4373 1132 105.618 672.607 478.139
490 0 77.1935 16.0506 1239 103.948 672.291 476.115
491 0 78.3139 13.6502 1069 110.553 670.978 473.958
492 0 79.4888 15.0336 1195 108.565 669.52 470.073
493 0 82.248 14.5779 1199 110.106 668.725 470.16
494 0 86.6873 16.8652 1462 104.87 667.226 464.701
495 0 90.4683 16.2488 1470 106.302 667.114 462.01
496 0 94.3548 15.9928 1509 106.394 666.307 461.046
497 0 95.298 16.3382 1557 106.191 666.44 459.076
498 0 100.344 16.3537 1641 104.809 664.94 459.437
499 0 101.551 14.1899 1441 109.486 665.134 456.633
500 0 104.274 15.0374 1568 108.575 665.401 453.862
501 1 59.0951 10.9315 646 106.545 663.915 476.41
502 0 61.0601 10.0557 614 109.07 664.837 474.834
503 0 63.0359 12.0249 758 107.434 665.722 471.157
504 0 67.0629 12.779 857 103.404 666.91 471.337
505 0 67.1086 13.4111 900 103.539 668.967 470.903
506 0 72.3097 14.1475 1023 101.668 670.403 469.559
507 0 72.129 12.5331 904 104.114 671.14 468.959
508 0 77.1593 14.7746 1140 101.236 671.907 469.747
509 0 78.1602 13.7538 1075 103.817 674.488 467.55
510 0 83.1756 14.4874 1205 101.612 676.158 467.819
511 0 84.2315 13.3679 1126 103.058 676.357 467.506
512 0 85.2875 12.5575 1071 106.11 675.959 466.064
513 0 91.091 15.9182 1450 97.9703 676.033 467.061
514 0 93.1929 13.9818 1303 102.998 675.064 464.196
515 1 50.0474 9.5909 480 104.252 674.442 486.896
516 0 53.0512 9.95264 528 99.6837 671.644 490.356
517 0 53.1628 9.8377 523 101.497 670.954 486.816
518 0 53.2312 9.95657 530 99.2811 670.532 486.372
519 0 59.1734 13.2661 785 95.2675 669.35 485.718
520 0 61.1842 12.1273 742 97.2668 668.608 486.481
521 0 62.2289 12.8558 800 95.4162 667.661 485.885
522 0 66.1561 13.2112 874 94.5744 666.733 482.833
523 0 68.1961 14.8982 1016 92.5158 665.656 483.268
524 0 70.1147 13.1641 923 96.4908 664.6 479.732
525 0 71.1339 13.5097 961 96.8148 663.651 475.928
526 0 76.0997 15.322 1166 92.717 663.732 475.266
527 0 76.0997 15.4403 1175 126.11 662.714 475.245
528 0 80.2112 13.5891 1090 97.3404 662.114 470.355
529 0 82.1011 13.934 1144 97.4318 661.94 470.462
530 0 87.0861 15.2837 1331 94.9286 662.932 468.325
531 0 87.1427 13.5984 1185 98.8937 662.665 463.559
532 0 93.1793 14.1448 1318 97.9575 662.692 465.361
533 1 50.0398 10.1519 508 96.8307 663.191 486.659
534 0 52.0993 10.8447 565 95.9115 663.896 487.494
535 0 53.0258 10.4289 553 96.302 665.501 487.047
536 0 52.0965 11.5555 602 96.1279 667.505 486.565
537 0 56.1044 12.5659 705 96.8213 668.343 486.245
538 0 59.1071 13.7885 815 95.6626 671.157 483.891
539 0 62.059 14.8891 924 94.5152 671.937 487.056
540 0 64.065 13.7673 882 97.6723 671.495 487.714
541 0 64.2182 13.0181 836 99.2835 671.177 486.803
542 0 69.169 13.7634 952 97.9538 671.04 486.185
543 0 72.0503 14.7397 1062 96.4539 669.238 487.395
544 0 74.1834 13.6554 1013 100.464 668.412 482.952
545 0 78.4815 14.0543 1103 99.6047 667.25 483.771
546 1 43.0845 10.7927 465 97.5247 665.729 501.54
547 0 43.0743 10.4006 448 98.1942 665.786 498.196
548 0 46.0846 11.761 542 94.0627 663.249 498.14
549 0 45.0365 12.6786 571 93.394 661.848 497.483
550 0 49.1213 13.1104 644 92.2407 660.337 494.436
551 0 50.0739 12.182 610 94.1262 659.29 494.615
552 0 51.2409 12.3534 633 94.7504 658.689 491.94
553 0 52.0842 12.3454 643 94.3157 658.042 490.594
554 0 53.1582 14.1841 754 91.9934 656.911 487.759
555 0 56.0681 13.1982 740 95.8284 657.008 485.647
556 0 58.1694 14.3203 833 92.3986 656.735 484.824
557 0 59.1485 14.3706 850 92.7729 657.229 481.816
558 0 61.0884 12.7193 777 95.2806 657.937 479.054
559 0 65.156 14.1046 919 92.0642 658.496 479.158
560 0 66.099 14.6447 968 92.1994 659.343 475.412
561 1 35.005 9.79859 343 94.0204 661.469 492.927
562 0 36.0081 10.2755 370 95.2027 662.884 490.711
563 0 36.0282 9.88115 356 96.1124 664.907 490.865
564 0 37.0357 10.3414 383 95.8094 667.428 491.76
565 0 40.0893 13.42 538 91.0595 669.149 490.825
566 0 42.1697 11.5486 487 92.4846 670.53 491.665
567 0 43.1666 11.7915 509 92.9804 672.222 493.161
568 0 42.0826 12.1428 511 95.2016 671.824 491.108
569 0 45.1105 12.0814 545 96.8807 671.903 491.306
570 0 46.1791 12.2783 567 96.7143 671.892 493.603
571 0 47.1341 11.7113 552 97.9946 671.076 493.322
572 0 50.0722 13.0811 655 95.2595 670.782 493.51
573 0 52.0714 12.406 646 97.5805 667.994 491.998
574 0 54.245 12.4251 674 97.9496 667.221 492.239
575 0 58.2218 14.1013 821 95.3264 667.099 491.565
576 0 59.079 12.4748 737 99.0095 667.536 490.438
577 0 63.0619 13.9545 880 96.125 666.344 489.481
578 0 63.2098 11.359 718 102.755 665.288 488.057
579 0 68.165 14.0541 958 98.2265 663.437 485.802
580 0 68.1443 12.7083 866 102.447 662.422 482.943
581 0 73.1514 13.5336 990 101.453 662.072 481.352
582 0 76.0483 13.6755 1040 102.543 661.708 479.488
583 0 79.1218 14.3323 1134 100.389 660.618 477.717
584 0 80.3534 13.2166 1062 104.317 660.024 476.863
585 0 83.2414 14.2958 1190 104.128 659.605 472.871
586 1 46.1124 13.5321 624 97.649 658.947 492.851
587 0 47.1427 12.2819 579 100.484 659.154 490.468
588 0 47.073 11.6203 547 102.828 660.346 489.773
589 0 52.0834 13.824 720 97.0597 660.472 489.033
590 0 51.1078 12.366 632 100.619 661.59 488.269
591 0 54.2021 14.2061 770 97.8688 662.948 485.303
592 0 53.2492 12.6199 672 101.299 664.65 484.146
593 0 58.1244 14.2969 831 98.8748 666.716 485.798
594 0 59.1561 15.738 931 97.9785 666.248 484.708
595 0 61.1912 12.6816 776 102.438 669.15 484.372
596 0 63.1378 14.2862 902 98.6519 671.418 485.064
597 0 67.2927 13.9094 936 98.4231 673.224 484.723
598 0 68.3014 13.6747 934 100.777 673.316 485.418
599 0 70.4872 12.8392 905 104.206 673.296 483.435
600 1 37.103 11.8858 441 98.8662 673.721 503.626
601 0 42.1809 10.3839 438 104.703 670.484 504.073
602 0 45.0891 11.688 527 103.789 670.51 503.38
603 0 41.0756 10.8093 444 106.119 669.146 506.223
604 0 45.11 12.1037 546 101.504 666.799 506.98
605 0 49.0227 14.6667 719 97.2434 665.618 504.958
606 0 50.075 14.2386 713 99.2637 663.547 503.488
607 0 51.0202 13.8377 706 100.062 662.037 501.501
608 0 51.0518 13.0064 664 101.074 660.622 504.726
609 0 55.0578 13.5494 746 100.176 658.596 502.961
610 0 55.1077 13.7367 757 101.787 657.531 502.548
611 0 58.0332 13.4061 778 102.429 657.857 501.92
612 0 57.0325 12.94 738 142.417 657.875 501.251
613 0 62.0538 14.9064 925 103.058 657.064 497.691
614 0 65.1559 15.225 992 102.399 657.042 494.606
615 0 68.2036 15.1605 1034 100.102 656.933 493.313
616 0 69.2288 14.8637 1029 102.007 656.765 489.419
617 0 72.2339 15.6159 1128 100.478 654.911 488.056
618 0 75.1396 14.1204 1061 103.135 656.648 486.735
619 1 39.2093 11.7319 460 101.928 655.326 504.389
620 0 40.124 11.5143 462 103.136 657.006 500.911
621 0 44.162 13.3373 589 99.1613 658.008 500.844
622 0 45.1296 15.2228 687 95.23 660.338 500.917
623 0 45.1474 13.0904 591 100.604 661.568 499.462
624 0 46.1409 12.7002 586 101.609 663.853 500.346
625 0 50.1293 13.8043 692 98.2934 664.581 499.272
626 0 52.1255 13.5442 706 99.2054 665.028 498.605
627 0 54.0642 13.3915 724 98.6726 664.887 496.965
628 0 56.0879 12.2486 687 100.821 664.234 495.852
629 0 57.074 12.475 712 101.309 663.225 498.638
630 0 61.189 14.3326 877 97.7959 661.758 499.161
631 0 66.1246 16.8016 1111 92.9901 662.223 497.581
632 0 70.2 15.5556 1092 95.131 661.641 497.504
633 1 35.101 11.5951 407 99.4472 660.408 515.705
634 0 33.1174 11.4743 380 100.879 658.813 515.263
635 0 37.2397 11.6005 432 100.789 658.417 514.88
636 0 40.1294 12.061 484 98.2831 658.345 514.977
637 0 41.1916 11.6771 481 101.096 656.062 513.514
638 0 42.2544 13.5607 573 99.1448 654.89 511.218
639 0 44.2972 14.0641 623 99.3194 652.485 508.734
640 0 45.11 13.323 601 100.744 652.007 508.661
641 0 44.1169 14.5749 643 101.064 652.159 505.285
642 0 46.1092 13.75 634 104.17 650.582 503.104
643 0 49.1833 14.5171 714 102.329 650.507 500.123
644 0 50.2047 14.7596 741 102.733 651.027 499.255
645 0 51.0951 13.5825 694 106.674 652.03 498.102
646 0 51.1487 14.3308 733 107.03 653.224 498.619
647 0 55.0455 14.5334 800 105.07 654.698 497.894
648 0 55.1334 14.601 805 107.796 655.842 495.903
649 0 59.1639 16.1416 955 103.838 656.889 495.059
650 0 62.1108 16.2452 1009 102.9 658.787 495.576
651 0 64.101 14.9452 958 107.63 659.871 493.334
652 0 69.1379 16.5322 1143 102.964 660.493 493.639
653 0 70.0643 16.128 1130 104.895 662.305 491.53
654 1 38.0701 12.3194 469 106.499 662.601 509.878
655 0 40.0501 11.7103 469 109.284 662.883 508.748
656 0 41.1067 12.2365 503 110.099 663.054 508.089
657 0 44.0459 12.5324 552 110.734 662.016 507.909
658 0 47.1412 13.3641 630 110.303 662.098 507.481
659 0 48.1453 15.2247 733 109.289 661.962 507.11
660 0 50.1661 14.153 710 110.214 662.548 507.642
661 0 51.1964 15.6652 802 110.323 661.569 504.037
662 0 52.1767 14.7384 769 112.372 659.602 504.882
663 0 54.1227 14.3193 775 114.663 659.92 502.428
664 0 56.2084 16.1008 905 109.57 659.694 500.856
665 0 59.1636 15.5839 922 109.881 658.672 499.467
666 0 61.0764 16.111 984 108.085 657.778 497.355
667 0 63.3951 15.3324 972 109.379 656.726 494.97
668 0 63.2584 15.5078 981 110.439 656.469 492.818
669 0 69.4368 15.6833 1089 109.03 656.384 491.992
670 0 69.1997 16.1995 1121 108.676 656.177 486.901
671 0 73.3663 14.9387 1096 111.049 655.275 486.546
672 0 75.3881 16.0901 1213 109.425 656.186 484.754
673 0 78.3407 16.5176 1294 109.575 655.437 480.821
674 0 77.3351 15.9307 1232 113.58 656.61 477.568
675 0 83.326 16.3094 1359 110.852 657.694 477.077
676 1 40.3219 11.6066 468 116.989 659.026 496.607
677 0 42.2156 13.2889 561 110.258 660.032 497.717
678 0 44.2337 12.66 560 112.229 662.23 495.712
679 0 46.1534 14.6035 674 109.516 663.973 493.174
680 0 48.1009 14.4072 693 108.961 665.83 493.841
681 0 49.1714 14.6427 720 109.692 668.236 492.869
682 0 51.119 15.1607 775 108.204 669.976 493.548
683 0 55.1632 16.1883 893 105.158 671.151 493.247
684 0 55.248 14.444 798 110.192 671.241 492.867
685 0 58.1021 14.6638 852 110.599 671.63 491.643
686 0 62.3261 15.8521 988 108.884 671.628 492.473
687 0 64.196 16.2627 1044 109.664 670.518 491.765
688 0 66.2122 15.0727 998 112.606 669.729 491.537
689 0 69.3425 15.5893 1081 112.253 668.684 489.431
690 0 72.3985 17.0445 1234 109.28 667.974 487.623
691 0 76.2203 15.7832 1203 111.905 667.12 487.351
692 0 78.2883 15.7367 1232 114.251 664.957 483.506
693 0 80.2768 16.0196 1286 113.575 664.39 481.81
694 0 84.3407 16.789 1416 111.593 663.275 480.511
695 0 84.1462 14.558 1225 119.452 661.742 473.94
696 1 46.0733 12.0026 553 116.024 660.859 494.805
697 0 48.1376 11.841 570 118.242 660.007 492.211
698 0 50.1811 13.2321 664 115.931 659.355 490.233
699 0 56.0706 13.5722 761 112.633 660.18 489.173
700 0 55.1335 13.5489 747 114.588 659.917 487.569
701 0 60.0667 13.6848 822 113.349 660.535 485.617
702 0 62.1216 14.7453 916 111.442 661.062 483.794
703 0 62.0863 13.6101 845 116.227 661.469 481.409
704 0 64.1179 13.8339 887 115.549 662.045 480.059
705 0 67.263 13.0086 875 116.968 663.053 479.017
706 0 69.2506 14.2381 986 115.155 664.978 476.614
707 0 72.1988 14.0723 1016 113.763 667.011 477.76
708 0 76.1904 14.0175 1068 114.133 668.807 474.244
709 0 80.1553 14.921 1196 111.4 671.161 474.649
710 1 40.1465 8.94224 359 111.571 673.501 494.384
711 0 46.2021 11.1683 516 108.213 674.795 493.508
712 0 48.1278 11.1994 539 107.171 674.97 494.568
713 0 48.1115 10.351 498 109.161 675.361 494.934
714 0 50.1177 12.9096 647 106.13 676.161 491.569
715 0 52.0946 11.863 618 107.244 675.99 494.337
716 0 56.1056 14.847 833 101.822 675.018 493.369
717 0 57.0733 11.6166 663 108.564 673.934 492.35
718 0 62.1586 12.8542 799 107.603 672.635 491.159
719 0 65.0857 13.9662 909 106.651 671.045 489.112
720 0 67.1404 12.8537 863 109.387 670.06 489.126
721 1 39.0619 10.0098 391 107.077 668.228 503.678
722 0 40.1699 9.9577 400 108.382 666.342 502.095
723 0 43.0506 11.7072 504 103.631 664.173 500.798
724 0 43.0672 12.0045 517 105.13 662.325 498.725
725 0 46.1381 11.9424 551 105.407 661.706 497.33
726 0 46.0584 12.9401 596 105.034 661.015 494.601
727 0 49.2976 13.1852 650 104.129 661.78 492.826
728 0 50.1732 13.9716 701 102.185 660.679 491.522
729 0 49.1252 12.2544 602 107.317 661.354 489.857
730 0 50.1124 11.1948 561 108.706 661.007 488.827
731 0 53.2076 12.8177 682 104.126 660.786 487.207
732 0 55.197 14.2037 784 100.666 660.44 486.898
733 0 55.1342 11.8257 652 104.558 662.38 486.09
734 0 56.119 12.8477 721 104.018 663.631 483.981
735 0 57.181 11.9445 683 106.149 665.75 483.518
736 0 61.2292 14.1109 864 100.178 668.38 483.593
737 0 63.3613 11.6948 741 103.804 670.528 484.408
738 0 66.4939 12.6027 838 102.481 671.975 483.635
739 0 68.3241 11.5479 789 102.968 673.157 484.596
740 1 39.0453 10.9872 429 96.9394 675.245 500.671
741 0 39.0991 11.2023 438 99.8036 675.687 500.721
742 0 43.0076 11.6956 503 97.6759 675.555 503.101
743 0 44.0266 11.97 527 96.9924 673.894 504.116
744 0 45.0973 12.0406 543 99.8821 670.724 502.433
745 0 46.136 11.8996 549 99.1202 668.031 504.359
746 0 46.439 12.0588 560 101.812 666.948 505.384
747 0 48.1464 12.7112 612 102.212 664.938 504.913
748 0 51.1547 12.5502 642 102.217 663.701 501.824
749 0 55.0848 15.0314 828 97.7041 659.196 500.862
750 0 55.1644 14.6471 808 99.0866 659.089 500.021
751 0 56.1278 12.8457 721 104.54 658.03 495.95
752 0 58.0987 14.4754 841 101.407 657.693 496.176
753 0 60.1841 13.6083 819 104.324 656.462 493.416
754 0 62.1353 14.3075 889 103.52 656.935 491.857
755 0 64.1813 14.0695 903 104.477 656.208 489.94
756 0 66.1735 13.8122 914 105.696 656.951 487.253
757 0 70.1784 14.3491 1007 103.439 656.961 483.498
758 0 72.2265 14.7453 1065 101.202 656.957 483.435
759 0 75.1056 14.3931 1081 102.652 657.185 479.97
760 0 77.1309 13.6132 1050 104.05 658.351 480.046
761 1 40.1453 12.1808 489 100.503 660.417 497.153
762 0 40.0674 11.1562 447 103.911 661.689 495.356
763 0 43.1101 12.9436 558 99.138 663.043 495.014
764 0 45.1038 11.9724 540 99.3018 664.82 494.915
765 0 47.1034 12.6955 598 100.386 665.666 494.418
766 0 50.1035 12.7137 637 100.009 668.672 494.808
767 0 51.1059 14.2841 730 98.3301 669.092 493.767
768 0 52.1969 14.5028 757 99.9392 669.902 492.387
769 0 55.1786 15.5133 856 100.486 670.189 492.446
770 0 57.1368 14.8241 847 102.982 669.626 494.364
771 0 59.1046 14.6689 867 104.794 669.36 494.407
772 0 62.3213 15.5324 968 103.884 668.404 492.81
773 0 64.1911 15.2513 979 107.523 668.043 493.608
774 0 66.3513 14.3931 955 107.086 666.504 493.464
775 0 69.3795 14.4711 1004 99.8825 666.372 490.351
776 0 73.3572 16.8218 1234 94.5762 665.418 489.413
777 0 76.2451 15.2928 1166 98.2753 661.256 487.86
778 1 41.1925 13.4491 554 98.2563 660.567 504.774
779 0 43.243 12.5801 544 101.116 660.522 502.73
780 0 43.1703 14.6397 632 97.6187 659.212 501.476
781 0 45.1834 13.5891 614 99.3762 658.479 499.479
782 0 49.4867 16.3478 809 92.3844 658.555 498.785
783 0 48.2072 14.168 683 99.0468 658.243 496.278
784 0 48.1801 14.4458 696 100.105 658.382 494.165
785 0 52.1044 15.3538 800 96.9175 657.188 492.284
786 0 55.097 14.3565 791 97.5171 657.425 492.378
787 0 56.0684 16.355 917 93.398 658.904 489.701
788 0 57.1018 14.7456 842 96.8385 659.936 488.942
789 0 57.3085 13.9246 798 100.031 661.123 488.004
790 0 62.2453 16.3386 1017 94.0983 662.214 487.687
791 0 64.3681 15.4114 992 95.0776 663.716 487.818
792 0 69.17 15.9173 1101 93.5023 665.587 487.985
793 0 69.5005 15.8848 1104 94.7437 667.576 487.215
794 0 73.2379 16.6034 1216 93.9038 668.844 486.319
795 0 76.5297 15.9023 1217 96.2605 668.803 485.717
796 0 81.4942 15.5717 1269 98.2506 669.132 485.09
797 0 86.4744 16.2707 1407 95.6894 668.33 485.277
798 1 43.2449 10.9146 472 99.8347 667.947 506.32
799 0 48.21 13.1508 634 98.8549 666.729 504.634
800 0 49.222 13.815 680 98.1809 664.397 504.971
801 0 53.1904 13.6303 725 97.9545 662.782 504.534
802 0 54.1327 13.5038 731 98.9166 661.193 502.904
803 0 60.1109 14.6562 881 97.7208 659.465 500.266
804 0 60.2161 16.2581 979 95.4985 658.398 499.011
805 0 64.3741 14.9594 963 97.8816 657.344 496.973
806 0 66.3355 15.4367 1024 98.5107 656.077 493.875
807 0 69.3081 14.8035 1026 99.1871 655.684 493.326
808 0 72.2877 14.8296 1072 103.547 655.436 488.963
809 0 75.2955 14.9411 1125 102.219 655.72 486.583
810 0 76.3303 13.9263 1063 104.783 654.822 484.318
811 0 79.346 14.1532 1123 104.868 655.535 480.021
812 1 41.1041 9.12317 375 103.365 656.083 501.387
813 0 41.0594 10.497 431 104.16 656.773 499.332
814 0 45.1457 11.8727 536 98.2295 657.675 497.149
815 0 45.0446 10.6117 478 100.709 658.184 494.979
816 0 47.0334 13.4585 633 95.4534 659.942 495.561
817 0 51.0302 13.2863 678 93.0988 660.761 494.926
818 0 50.0389 13.3496 668 94.8668 662.527 492.275
819 0 52.06 13.1771 686 93.5918 665.755 492.704
820 0 53.0668 12.3052 653 94.0919 666.795 492.475
821 0 56.1166 11.9573 671 94.0238 667.794 492.045
822 0 57.108 12.1874 696 93.4626 669.806 492.503
823 0 62.0792 13.9338 865 90.0231 668.792 489.644
824 0 62.0878 11.8542 736 94.3614 667.951 489.851
825 0 67.0661 12.853 862 91.9629 667.79 488.985
826 0 72.0987 13.8699 1000 91.007 666.856 487.985
827 0 75.1392 13.3752 1005 92.5304 666.19 487.561
828 0 78.2063 13.2214 1034 92.7137 664.267 485.775
829 0 81.1159 13.4376 1090 92.6422 663.189 484.832
830 0 83.2766 12.5726 1047 95.6084 662.314 481.79
831 1 47.2103 11.1205 525 89.4152 660.6 501.15
832 0 45.2898 7.72801 350 92.8429 660.131 502.651
833 0 51.2187 11.1288 570 90.2526 658.91 496.793
834 0 50.3818 11.3335 571 90.8249 658.319 493.658
835 0 53.3029 12.2507 653 87.5789 657.897 493.276
836 0 57.3926 13.3641 767 85.1082 657.675 491.522
837 0 56.1672 12.5874 707 87.8727 658.224 489.143
838 0 58.1858 13.7491 800 83.9438 658.576 487.636
839 0 61.1714 11.8683 726 86.3306 658.372 486.401
840 0 64.2252 12.4095 797 85.0527 658.851 485.965
841 0 65.3417 13.3146 870 85.6333 659.047 482.33
842 0 69.2918 14.0276 972 85.3323 660.542 479.72
843 0 70.585 13.1898 931 87.2309 661.981 480.57
844 0 73.4848 13.3633 982 87.1976 663.392 479.388
845 0 78.4872 15.3019 1201 84.0566 665.754 476.901
846 0 81.6041 14.0557 1147 86.7881 667.46 477.392
847 0 85.7939 14.7913 1269 86.134 669.236 476.187
848 0 87.9459 13.7698 1211 88.3691 670.069 476.112
849 1 50.552 10.6029 536 89.5112 670.623 495.353
850 0 51.442 9.89465 509 89.3183 671.063 499.802
851 0 54.506 11.8519 646 89.8468 669.079 497.594
852 0 58.3874 12.6569 739 88.9756 667.115 498.455
853 0 61.2848 14.3592 880 86.9614 666.391 497.91
854 0 62.1709 13.9294 866 89.8603 664.984 497.477
855 0 64.1556 13.5608 870 90.7287 663.669 497.149
856 0 68.2419 13.8038 942 88.6083 662.056 495.207
857 0 70.2408 13.71 963 90.9855 660.909 492.071
858 0 73.2402 15.1556 1110 90.536 660.009 490.849
859 0 76.2574 15.8935 1212 89.8383 659.445 486.697
860 0 80.3361 15.4103 1238 91.79 657.138 486.914
861 0 81.2268 14.5765 1184 95.0211 656.453 484.302
862 0 86.2421 16.4885 1422 91.3523 656.457 480.911
863 0 88.1969 15.5107 1368 94.3911 655.755 480.14
864 0 91.3472 16.3661 1495 93.2575 655.954 473.636
865 0 94.3547 17.0845 1612 92.8437 655.965 474.558
866 0 97.2509 15.3726 1495 97.7425 656.392 473.142
867 0 98.2365 13.4675 1323 102.656 656.467 468.471
868 0 101.259 14.6653 1485 98.2633 656.647 466.591
869 1 53.1408 10.5192 559 99.4079 657.68 491.986
870 0 57.1559 12.5271 716 97.5098 658.515 489.613
871 0 60.2192 12.7866 770 96.7506 660.184 489.656
872 0 61.179 12.0466 737 98.384 661.627 487.657
873 0 65.2309 14.7476 962 95.0759 663.207 487.368
874 0 64.3104 13.3882 861 99.7317 664.189 486.96
875 0 69.3941 12.9982 902 97.6541 665.339 489.001
876 0 73.1869 14.3058 1047 96.4871 666.176 486.365
877 0 78.1138 14.4533 1129 97.0655 666.466 485.04
878 0 79.0483 14.0927 1114 100.701 666.148 484.889
879 0 84.1503 15.2703 1285 97.5876 666.771 484.144
880 0 89.1204 14.7553 1315 99.4449 664.226 480.224
881 1 48.0168 12.0791 580 97.7034 663.693 503.576
882 0 49.0277 11.2589 552 97.7627 662.712 503.714
883 0 51.0808 12.49 638 99.1442 662.218 499.21
884 0 54.1611 11.9089 645 98.8434 659.754 497.121
885 0 54.1611 11.872 643 145.603 658.756 497.162
886 0 59.1965 15.2036 900 88.1022 658.898 493.419
887 0 61.0471 13.3667 816 89.7402 657.277 490.8
888 0 64.1615 14.0271 900 88.4622 656.694 488.483
889 0 66.2089 13.246 877 91.7845 655.959 485.575
890 0 68.1241 12.624 860 93.2384 656.386 483.157
891 0 72.0835 13.7757 993 91.1772 656.542 480.996
892 0 73.1257 13.7982 1009 91.6838 656.955 477.42
893 0 76.1442 13.2774 1011 91.1147 657.397 476.264
894 0 82.1245 15.0868 1239 86.0097 658.253 476.111
895 0 83.1247 14.364 1194 87.4489 658.802 473.574
896 1 43.1343 9.69066 418 88.9952 658.83 493.419
897 0 45.0248 10.0167 451 90.0066 660.656 490.623
898 0 46.1125 10.9298 504 86.9028 661.44 492.558
899 0 49.1162 11.9716 588 84.6276 664.842 491.252
900 0 51.0888 11.6073 593 84.973 666.958 490.174
901 0 53.0961 12.3549 656 86.2119 669.591 490.495
902 0 55.1035 13.7015 755 83.392 670.144 492.938
903 0 55.2034 13.2963 734 84.8188 670.338 491.853
904 0 58.1608 13.3939 779 84.3954 671.425 493.001
905 0 60.278 13.2552 799 85.3004 671.533 490.914
906 0 63.1458 13.0967 827 86.1681 670.331 492.787
907 0 68.2446 14.5506 993 83.6485 669.696 490.981
908 0 69.1509 12.4655 862 89.7506 668.564 492.374
909 0 75.1729 14.5797 1096 85.9982 666.009 491.979
910 0 77.1253 12.8103 988 87.833 664.519 488.087
911 1 43.0219 9.6695 416 87.0481 663.341 508.44
912 0 45.0419 10.8565 489 88.7178 662.018 504.663
913 0 46.0398 11.0774 510 89.3569 660.402 504.922
914 0 49.1641 12.2447 602 89.8339 659.228 501.585
915 0 51.1455 12.1027 619 90.4927 658.163 499.708
916 0 53.105 14.2359 756 87.2725 658.225 497.226
917 0 53.0865 13.7135 728 85.9121 658.805 497.242
918 0 55.1814 13.3922 739 88.2706 657.963 493.398
919 0 58.1112 13.629 792 87.197 657.121 492.924
920 0 57.1862 12.1358 694 90.9251 658.173 490.859
921 0 63.2572 15.3975 974 84.269 658.829 490.51
922 0 62.2855 13.1812 821 89.3386 659.116 488.313
923 0 64.2291 12.6267 811 89.8163 659.536 488.263
924 0 69.2888 12.3974 859 91.17 660.006 485.848
925 0 70.2285 14.1253 992 88.5363 661.23 483.637
926 0 73.3251 15.0972 1107 86.5303 662.882 482.007
927 0 75.2006 13.0318 980 90.2031 664.974 481.099
928 0 80.3423 14.8116 1190 86.2311 666.988 480.96
929 0 83.8163 14.496 1215 87.9646 667.896 484.062
930 0 86.3039 14.4837 1250 89.9392 667.814 480.961
931 0 91.5441 15.3587 1406 89.2148 668.656 480.54
932 0 96.4672 14.8962 1437 89.4182 668.115 476.437
933 0 99.365 12.3082 1223 94.1169 667.593 477.814
934 1 54.6315 11.2755 616 89.8214 666.7 502.784
935 0 56.3105 12.7863 720 89.7667 664.907 499.451
936 0 58.4778 12.3466 722 89.8837 662.891 500.238
937 0 62.3184 13.6717 852 85.9859 661.237 497.888
938 0 61.5372 12.1553 748 93.2901 659.945 494.949
939 0 65.4476 12.9417 847 92.3613 658.824 492.264
940 0 69.346 12.8198 889 93.3476 657.03 490.871
941 0 71.4816 12.6746 906 94.2715 655.904 487.38
942 0 73.5858 13.1004 964 94.1981 655.128 485.186
943 0 76.445 12.6758 969 95.8772 654.157 482.202
944 0 80.4452 14.0095 1127 94.0053 654.369 476.982
945 0 85.4952 14.1178 1207 93.478 654.336 476.813
946 1 46.0473 11.5533 532 91.797 654.04 496.367
947 0 47.1456 11.4751 541 92.5767 654.203 493.018
948 0 48.308 11.7372 567 92.6914 655.45 490.663
949 0 51.0966 13.7778 704 89.419 656.031 489.891
950 0 52.0338 13.4528 700 90.5643 658.291 489.106
951 0 53.1585 13.8642 737 89.2931 659.952 488.153
952 0 54.1761 14.3237 776 89.3209 661.401 488.229
953 0 56.3465 13.8962 783 89.7918 663.139 486.636
954 0 57.3416 13.7771 790 90.0924 666.285 487.978
955 0 60.4343 13.5188 817 89.9633 667.739 489.371
956 0 64.2674 13.755 884 89.6425 670.11 488.286
957 0 66.5267 15.1368 1007 89.5968 671.634 486.619
958 0 69.4558 14.5992 1014 90.9694 671.77 486.678
959 0 71.4729 14.6769 1049 91.9199 671.929 485.695
960 0 74.7107 14.6833 1097 92.4157 671.319 485.118
961 0 78.7511 14.9966 1181 92.9001 670.509 483.931
962 0 83.6918 15.7602 1319 92.0334 669.556 481.459
963 0 87.604 16.2207 1421 92.8677 668.241 479.196
964 0 91.8345 15.7457 1446 93.9744 666.348 482.138
965 0 93.5808 15.5267 1453 96.8582 664.897 477.036
966 0 98.545 15.4143 1519 96.9796 663.635 475.446
967 1 49.5301 10.216 506 98.5356 661.65 500.818
968 0 51.5312 12.1868 628 95.2914 659.963 498.581
969 0 52.3699 12.9464 678 96.2434 659.211 495.935
970 0 53.4957 12.4309 665 99.9444 658.804 492.054
971 0 57.4926 13.7757 792 97.625 658.572 491.532
972 0 58.2967 13.4313 783 99.8404 659.234 492.729
973 0 59.2698 13.7001 812 100.249 659.044 488.732
974 0 61.5004 14.3088 880 99.0989 658.936 486.039
975 0 62.5565 14.339 897 100.174 659.323 484.755
976 0 65.6138 14.4177 946 98.6649 659.793 483.317
977 0 69.3636 15.5125 1076 95.316 660.443 482.102
978 0 71.3704 14.1655 1011 97.0692 660.809 483.255
979 0 71.3212 13.7827 983 98.2655 661.95 480.878
980 0 75.55 13.6731 1033 97.7251 663.724 478.56
981 0 78.5731 15.616 1227 94.6398 664.882 476.653
982 0 81.5007 14.7238 1200 95.3817 666.876 478.552
983 0 84.6047 13.5808 1149 97.8085 668.858 476.659
984 0 86.5415 14.2128 1230 96.761 670.974 474.394
985 0 95.5244 15.8075 1510 92.0285 671.909 476.643
986 0 96.6703 15.1546 1465 94.357 671.671 472.661
987 1 52.4752 11.4911 603 93.9171 671.36 497.697
988 0 53.4328 11.3413 606 93.8152 670.714 498.759
989 0 56.269 13.08 736 92.2323 670.167 497.86
990 0 60.5534 13.3931 811 91.1837 668.432 496.792
991 0 61.1691 12.6371 773 92.7749 666.58 494.622
992 0 65.2574 13.1479 858 92.5699 664.394 493.199
993 0 68.3006 14.6997 1004 89.8426 662.386 490.802
994 0 70.277 13.7029 963 91.6272 661.066 487.63
995 0 74.3366 12.6586 941 92.9086 660.141 486.486
996 0 76.4124 13.7412 1050 92.2305 659.883 483.939
997 0 79.5185 14.7136 1170 92.159 658.263 478.298
998 0 82.7194 14.8695 1230 91.4203 657.187 476.194
999 0 86.463 14.6074 1263 91.5424 656.728 475.694
1000 0 90.5581 15.6032 1413 90.351 657.991 470.858
1001 1 45.194 11.6387 526 93.1882 659.298 491.829
1002 0 49.2587 10.6986 527 93.4839 659.233 490.175
1003 0 50.2356 12.6803 637 92.3674 659.425 488.046
1004 0 53.4058 10.3547 553 93.7143 660.412 488.895
1005 0 57.1961 12.8505 735 90.5619 660.672 486.395
1006 0 59.1732 13.2661 785 88.9452 662.017 485.986
1007 0 60.2195 13.4508 810 89.5704 662.93 484.746
1008 0 61.1548 13.2778 812 89.9286 664.884 482.249
1009 0 64.293 11.3543 730 92.6027 666.622 482.847
1010 0 67.3986 12.656 853 90.3576 668.916 482.831
1011 0 70.3868 14.5056 1021 87.9569 670.153 483.094
1012 0 75.5114 13.0047 982 89.9206 671.571 481.874
1013 0 77.3116 12.1327 938 91.7207 672.231 478.806
1014 0 80.2942 12.4293 998 91.9449 671.391 478.294
1015 0 83.3605 12.0681 1006 92.8847 670.929 476.741
1016 0 87.2402 14.4773 1263 89.6643 669.149 474.45
1017 1 47.0137 6.91288 325 88.7877 667.511 501.76
1018 0 50.0424 8.63267 432 89.1458 665.917 498.273
1019 0 50.0424 8.43284 422 135.839 663.934 498.216
1020 0 56.0784 13.1958 740 82.7635 662.142 496.935
1021 0 58.1313 11.4568 666 86.8829 660.36 493.571
1022 0 59.0746 12.5942 744 86.5874 659.559 493.464
1023 0 61.1309 11.32 692 89.1691 659.321 491.01
1024 0 65.2279 12.9699 846 88.1076 658.183 486.418
1025 0 68.1326 13.0921 892 87.8913 657.213 485.957
1026 0 70.0627 11.5754 811 89.3292 657.921 486.005
1027 0 74.1674 12.7684 947 88.0296 657.642 480.874
1028 0 76.0875 12.5251 953 89.999 657.968 478.222
1029 0 80.1705 13.0222 1044 89.1944 658.352 477.176
1030 0 80.1915 11.2855 905 93.6652 658.358 471.832
1031 0 84.1414 13.4654 1133 90.4934 659.215 471.438
1032 1 45.0894 8.05068 363 87.8375 659.95 491.322
1033 0 47.1401 11.0309 520 83.8077 661.146 491.677
1034 0 48.1379 11.7579 566 88.6996 660.701 491.021
1035 0 51.0207 11.0151 562 90.0872 664.066 492.504
1036 0 53.0972 13.1457 698 87.4427 665.344 492.365
1037 0 54.1163 14.0438 760 87.3671 667.326 491.613
1038 0 56.0923 12.4973 701 91.291 669.827 491.802
1039 0 59.1775 13.5187 800 89.305 670.46 491.952
1040 0 62.1385 14.7252 915 88.4536 671.31 492.602
1041 0 64.1533 13.3898 859 92.6205 672.325 491.938
1042 0 65.0874 13.0133 847 95.3636 671.64 491.209
1043 0 70.0476 13.291 931 97.1149 671.112 490.101
1044 0 72.0504 12.9909 936 98.8686 668.408 490.49
1045 1 42.0133 11.6868 491 96.1731 666.953 506.868
1046 0 40.0498 10.5619 423 98.8251 665.456 508.322
1047 0 42.0551 11.1758 470 98.6894 664.37 506.206
1048 0 43.0222 10.7619 463 99.6933 661.905 505.423
1049 0 46.1461 12.6771 585 97.7419 660.409 503.21
1050 0 44.0637 11.4834 506 101.502 659.211 502.034
1051 0 49.1211 14.0266 689 95.4615 658.206 499.03
1052 0 50.0874 13.3966 671 97.307 658.624 496.776
1053 0 49.036 12.0728 592 101.083 657.689 496.301
1054 0 52.152 13.6524 712 97.3511 658.205 492.85
1055 0 53.0743 11.2672 598 102.289 657.237 492.329
1056 0 55.0492 13.7332 756 98.5608 658.111 487.839
1057 0 58.1836 13.3887 779 98.0103 658.805 487.893
1058 0 60.1715 13.9767 841 97.088 659.479 486.344
1059 0 60.0776 13.366 803 99.2665 660.372 485.137
1060 0 60.0723 13.4505 808 99.6213 661.577 482.053
1061 0 64.1121 13.8663 889 98.3937 662.43 481.904
1062 0 66.0908 12.7098 840 101.376 664.598 480.477
1063 0 70.1321 14.6153 1025 97.0976 667.095 480.74
1064 0 73.0859 14.1751 1036 98.8977 668.543 478.822
1065 0 76.0383 15.5974 1186 96.4806 670.291 478.019
1066 0 78.0636 13.8989 1085 101.461 671.147 477.626
1067 0 82.0992 14.0684 1155 100.66 671.857 478.574
1068 0 86.0743 15.0451 1295 99.1166 672.161 478.587
1069 0 91.4992 14.5356 1330 100.229 671.81 477.096
1070 1 48.1841 10.8542 523 101.839 671.47 499.019
1071 0 49.1621 10.5366 518 104.041 670.444 498.002
1072 0 54.1453 12.2079 661 100.293 668.752 498.823
1073 0 54.0857 12.4432 673 101.052 667.74 497.461
1074 0 57.1196 14.1458 808 95.7327 666.266 494.911
1075 0 58.2448 13.5463 789 97.1724 664.996 493.204
1076 0 60.2024 13.0726 787 99.1309 663.377 492.022
1077 0 64.192 12.5717 807 102.206 662.318 488.891
1078 0 67.1001 12.4739 837 102.719 660.535 486.348
1079 0 68.1051 12.8918 878 103.662 659.793 483.426
1080 0 74.1982 14.3669 1066 100.05 658.425 480.743
1081 0 74.1369 14.8914 1104 101.159 658.287 476.339
1082 0 78.3265 13.5969 1065 103.353 659.008 475.442
1083 0 80.1424 13.763 1103 103.432 658.549 473.482
1084 0 83.1158 14.6302 1216 102.94 658.834 472.804
1085 1 42.1083 10.758 453 107.181 659.936 490.457
1086 0 46.1717 11.284 521 106.687 660.023 490.631
1087 0 48.2468 11.2339 542 105.138 661.53 490.887
1088 0 49.1576 13.0804 643 102.902 662.075 487.773
1089 0 50.0538 12.4067 621 103.301 664.158 488.758
1090 0 52.1297 13.1595 686 102.114 667.023 487.691
1091 0 56.1994 15.2849 859 96.844 669.101 488.549
1092 0 56.1501 14.2119 798 102.198 671.015 488.018
1093 0 62.1161 15.793 981 96.6728 673.538 489.916
1094 0 63.1009 14.3104 903 99.8117 673.347 489.594
1095 0 66.1817 14.4602 957 99.6834 673.817 489.75
1096 0 70.2662 15.0143 1055 98.3185 674.59 488.624
1097 0 75.2021 14.4544 1087 99.6789 673.321 489.587
1098 0 76.2156 14.9313 1138 101.934 671.249 487.859
1099 0 81.3109 15.8527 1289 99.9356 669.668 486.032
1100 1 44.0407 11.1942 493 105.54 669.509 506.882
1101 0 45.053 13.4508 606 102.025 668.368 504.502
1102 0 48.1494 15.8258 762 97.0551 667.562 502.797
1103 0 48.0461 13.6328 655 101.194 665.624 500.892
1104 0 50.0192 14.2545 713 100.924 663.442 499.864
1105 0 52.0508 15.2543 794 99.2166 662.038 496.615
1106 0 53.0219 13.7113 727 102.517 659.784 496.651
1107 0 55.0584 14.3666 791 101.656 659.944 492.321
1108 0 56.1268 14.2 797 101.7 660.742 490.459
1109 0 58.0832 13.8078 802 101.022 661.065 489.529
1110 0 63.0941 14.4546 912 99.17 660.738 485.83
1111 0 65.099 15.3459 999 96.6326 660.743 485.861
1112 0 65.07 13.693 891 101.465 661.057 484.494
1113 0 67.144 14.1487 950 100.762 661.23 481.973
1114 1 36.0132 9.08 327 101.361 661.713 499.621
1115 0 36.0265 8.71581 314 102.271 663.296 498.242
1116 0 39.0293 10.9405 427 100.614 664.061 494.904
1117 0 39.0431 11.244 439 99.6059 666.282 496.326
1118 0 43.0775 12.8838 555 97.0342 668.227 494.903
1119 0 46.0421 12.4886 575 96.2365 670.172 496.784
1120 0 48.0546 13.4638 647 94.6151 672.167 496.263
1121 0 49.1228 12.8861 633 94.4534 673.524 497.697
1122 0 52.0474 14.6213 761 92.2628 673.422 496.172
1123 0 53.0997 13.8984 738 94.2927 673.382 495.844
1124 0 56.0981 13.9934 785 93.1146 671.818 497.952
1125 0 59.0543 13.4453 794 94.6839 671.403 496.393
1126 0 61.1583 13.5386 828 94.9783 670.099 495.449
1127 0 64.0868 14.1059 904 93.646 667.947 495.935
1128 0 68.2339 15.1245 1032 91.876 666.99 493.475
1129 0 69.1827 15.0905 1044 93.0144 664.937 489.944
1130 0 73.1438 14.2596 1043 95.4334 663.571 486.944
1131 0 75.2029 13.7628 1035 95.8203 662.156 485.363
1132 0 80.1647 14.1334 1133 93.1818 661.776 482.921
1133 0 80.0722 13.5628 1086 95.9622 661.347 480.041
1134 0 85.0416 14.6281 1244 93.2452 661.024 478.053
1135 0 89.2145 14.3811 1283 94.8316 660.263 472.708
1136 0 92.4907 14.5528 1346 94.9428 659.763 471.071
1137 1 44.0866 10.8196 477 96.7505 660.252 492.954
1138 0 50.0842 13.5372 678 90.1814 660.453 492.233
1139 0 49.1072 12.0553 592 92.9527 661.291 489.172
1140 0 53.0733 13.2835 705 90.9957 661.739 490.404
1141 0 55.116 13.2992 733 91.4188 661.056 488.915
1142 0 57.1149 14.0944 805 89.3019 662.39 490.914
1143 0 59.2028 15.2358 902 88.2062 664.045 488.335
1144 0 61.2367 15.1217 926 88.0778 664.349 489.054
1145 0 62.1136 13.9583 867 91.346 666.46 486.28
1146 0 64.1073 15.4273 989 90.0708 667.597 485.421
1147 0 68.1824 15.5759 1062 88.8267 669.681 486.36
1148 0 69.2751 14.0888 976 93.5072 670.862 484.598
1149 0 74.2038 14.3793 1067 92.1265 670.477 485.177
1150 0 78.2055 15.2675 1194 90.6985 671.195 486.509
1151 0 79.2797 14.5434 1153 94.1847 670.741 486.702
1152 0 84.1464 15.1046 1271 94.2274 669.898 485.279
1153 0 87.1595 14.548 1268 96.3265 668.442 482.398
1154 1 49.1262 11.1753 549 94.1257 667.967 504.796
1155 0 48.204 10.1236 488 97.084 666.959 503.404
1156 0 49.3165 13.2005 651 94.3349 665.72 502.986
1157 0 53.4178 13.4412 718 95.3482 664.462 499.788
1158 0 54.1055 13.9357 754 93.6883 662.191 498.497
1159 0 55.1413 13.3294 735 95.3701 661.778 496.649
1160 0 57.2009 13.234 757 95.6737 661.136 494.478
1161 0 61.2208 14.8152 907 93.0287 660.331 490.525
1162 0 62.2056 14.3235 891 96.083 659.706 488.844
1163 0 64.1597 14.838 952 95.7405 659.687 486.253
1164 0 68.1701 14.9479 1019 95.1874 659.67 484.446
1165 0 69.1503 14.4902 1002 96.5389 660.213 483.161
1166 0 72.1054 13.7299 990 99.3475 659.801 479.696
1167 0 73.1718 13.8305 1012 100.748 659.91 478.678
1168 0 79.1483 13.8727 1098 98.5046 660.912 478.839
1169 0 80.4331 15.2674 1228 97.5016 661.729 475.972
1170 0 82.1171 14.6863 1206 99.3375 661.984 475.303
1171 0 86.1576 14.7985 1275 98.349 663.251 473.164
1172 1 45.1915 11.3296 512 98.2012 665.916 493.471
1173 0 46.2402 11.0726 512 99.2793 667.545 492.666
1174 0 49.0995 12.5052 614 94.7964 669.345 493.772
1175 0 49.2897 15.1756 748 90.9786 670.305 491.329
1176 0 53.2202 12.2134 650 95.6985 670.962 492.549
1177 0 54.2226 11.9323 647 97.3632 671.774 493.601
1178 0 59.2257 14.4532 856 92.2687 672.306 494.6
1179 0 61.167 14.0599 860 95.6965 671.849 490.292
1180 0 67.268 13.8104 929 96.4144 670.402 491.536
1181 0 67.1528 12.8811 865 99.9399 670.067 491.81
1182 1 37.0664 9.63138 357 97.8375 669.347 507.818
1183 0 38.0442 10.0147 381 100.409 668.625 505.714
1184 0 41.0312 12.4296 510 95.2922 667.929 504.063
1185 0 42.1969 11.5648 488 95.0594 668.031 503.332
1186 0 43.0662 11.6797 503 96.2644 665.648 500.875
1187 0 46.1776 13.6213 629 91.8712 663.798 498.254
1188 0 47.1414 12.664 597 94.4774 663.111 496.313
1189 0 49.2236 12.6768 624 94.6747 662.115 494.16
1190 0 51.2025 12.7142 651 94.7527 660.862 491.951
1191 0 50.0859 13.1175 657 95.1644 661.607 489.651
1192 0 54.174 13.3828 725 93.9448 660.913 487.422
1193 0 56.1251 14.3251 804 93.5535 661.312 484.953
1194 0 58.1644 13.9604 812 94.8842 661.25 483.324
1195 0 60.0545 13.6376 819 95.2772 662.201 482.672
1196 0 60.1399 14.167 852 96.1678 662.439 481.721
1197 0 63.1174 13.1976 833 97.467 663.782 479.741
1198 0 66.0987 14.8112 979 94.0552 663.447 479.459
1199 0 65.1202 13.6363 888 97.7782 664.115 478.482
1200 0 70.2096 15.1119 1061 93.8483 665.95 477.49
1201 0 71.3124 13.9667 996 97.3554 669.32 476.351
1202 1 37.254 10.3345 385 98.9584 670.938 494.756
1203 0 38.2416 10.7213 410 99.3756 672.483 494.602
1204 0 41.1872 11.7755 485 95.8227 672.614 496.229
1205 0 40.1345 10.0911 405 97.5753 673.682 496.128
1206 0 43.1113 11.3427 489 94.3415 673.284 495.157
1207 0 44.2197 13.2972 588 90.1786 674.221 494.172
1208 0 46.033 12.9255 595 93.1143 673.708 495.704
1209 0 47.0789 11.4489 539 94.0427 672.006 497.065
1210 0 50.0853 12.0993 606 93.4208 670.261 496.789
1211 0 52.0608 13.3306 694 91.3818 668.916 495.5
1212 0 54.1267 12.674 686 93.5773 667.726 493.484
1213 0 56.1415 13.0919 735 93.1619 666.097 490.792
1214 0 61.1501 13.9656 854 91.2213 664.621 490.679
1215 0 60.1838 12.7443 767 95.0926 663.201 488.125
1216 0 65.4239 14.2455 932 92.4828 661.492 485.81
1217 0 69.1681 14.7322 1019 93.5525 661.615 485.134
1218 0 70.422 13.9871 985 95.9756 660.979 482.81
1219 0 73.3277 14.1829 1040 96.0087 660.622 480.104
1220 0 77.3449 14.0539 1087 96.011 660.362 478.989
1221 1 42.1922 10.2863 434 98.7512 660.27 494.161
1222 0 43.2527 11.0976 480 98.8771 661.11 491.392
1223 0 43.2857 10.9967 476 101.153 662.357 489.931
1224 0 45.3541 12.3252 559 97.3542 662.755 490.481
1225 0 46.2286 12.33 570 95.6667 663.9 489.958
1226 0 49.1259 13.3941 658 91.9787 664.768 489.888
1227 0 47.1658 11.2158 529 97.1682 667.374 488.828
1228 0 53.192 12.5207 666 92.4024 670.161 491.102
1229 0 53.2248 12.5881 670 92.6239 672.607 491.219
1230 0 56.1671 13.7269 771 90.6031 672.607 489.874
1231 0 58.1542 13.4126 780 90.9167 673.985 492.17
1232 0 61.2407 13.0959 802 91.6683 673.296 491.045
1233 0 65.1157 13.3301 868 91.7523 673.157 489.651
1234 0 68.4064 14.1069 965 91.4228 672.573 488.217
1235 1 39.074 10.3905 406 94.4286 673.495 505.084
1236 0 41.0172 11.4098 468 92.6026 671.113 505.323
1237 0 42.135 11.653 491 93.0468 670.086 505.676
1238 0 43.1309 11.3608 490 94.3674 668.161 505.616
1239 0 47.2001 13.8983 656 90.2012 666.892 503.235
1240 0 47.1808 12.1024 571 95.1891 665.314 501.01
1241 0 51.0972 13.8951 710 92.3873 664.549 499.244
1242 0 54.0612 13.6697 739 92.5751 663.037 497.514
1243 0 55.2408 13.3597 738 94.7818 662.701 495.08
1244 0 57.2485 13.8344 792 94.4558 661.742 493.461
1245 0 58.1276 13.9521 811 95.1504 660.916 489.337
1246 0 60.2443 14.2088 856 95.5117 660.829 489.34
1247 0 63.3848 14.1359 896 96.8147 661.146 486.486
1248 0 64.3223 14.2719 918 97.8181 659.459 483.756
1249 0 65.195 13.0378 850 101.041 660.758 483.074
1250 0 68.2491 14.2273 971 99.3018 661.415 481.986
1251 1 38.0095 9.89228 376 99.641 663.827 500.343
1252 0 37.011 11.7533 435 99.6069 664.474 497.97
1253 0 39.0629 11.0079 430 100.63 664.8 497.084
1254 0 41.0499 12.3752 508 97.7461 667.398 496.439
1255 0 44.2176 13.3883 592 95.7652 668.828 497.167
1256 0 44.0877 13.269 585 96.306 670.191 496.219
1257 0 45.0622 12.6048 568 97.8908 671.715 497.875
1258 0 48.0376 12.6776 609 97.8916 672.337 497.46
1259 0 51.1093 13.9701 714 94.1639 672.724 498.382
1260 0 53.0257 13.6537 724 94.6188 672.529 499.047
1261 0 56.185 14.1675 796 93.8568 671.015 498.525
1262 0 56.167 13.6379 766 96.235 670.176 497.326
1263 0 58.0893 14.5982 848 94.9576 669.392 497.882
1264 0 61.2536 13.3217 816 96.3848 667.462 499.316
1265 0 63.0918 14.6612 925 94.6746 666.551 496.272
1266 0 65.3252 13.7772 900 97.9067 664.058 493.521
1267 0 66.1641 13.7234 908 98.0418 662.475 491.301
1268 0 70.4661 14.7731 1041 95.9731 661.101 488.694
1269 1 37.2 9.03227 336 98.3184 659.729 505.03
1270 0 39.2749 11.4068 448 95.8705 658.181 503.395
1271 0 39.408 11.0637 436 99.6606 657.3 499.906
1272 0 42.4032 13.0886 555 95.7351 658.694 497.577
1273 0 44.3101 12.9542 574 96.1185 658.249 494.76
1274 0 46.0195 12.3643 569 95.8137 658.967 494.011
1275 0 46.1363 12.7015 586 96.6348 658.502 491.642
1276 0 50.1258 12.2891 616 95.888 659.955 490.979
1277 0 50.0779 13.1994 661 96.1634 660.926 490.599
1278 0 54.2158 15.1985 824 90.8641 662.024 490.268
1279 0 53.1286 13.4579 715 96.1357 661.663 488.117
1280 0 55.1934 12.5015 690 97.6232 663.942 488.678
1281 0 59.0938 12.7086 751 96.7616 666.332 487.818
1282 0 61.1678 13.4875 825 95.2364 669.218 487.326
1283 0 65.1832 13.0862 853 96.0574 670.236 486.777
1284 0 67.3365 13.5142 910 95.2516 671.821 485.644
1285 0 70.2495 13.694 962 96.1092 672.467 482.423
1286 0 74.5501 14.2857 1065 95.292 673.032 483.1
1287 0 78.503 13.9995 1099 95.7543 672.708 482.382
1288 1 40.1033 10.9717 440 94.5386 673.091 502.875
1289 0 42.1618 11.5507 487 92.8378 671.895 503.168
1290 0 46.2559 12.0201 556 92.554 670.419 502.493
1291 0 46.1183 13.1618 607 92.86 669.348 500.941
1292 0 49.0832 12.7742 627 93.807 667.319 500.156
1293 0 51.2275 13.7231 703 92.7283 666.087 498.932
1294 0 52.2262 12.9437 676 93.9038 665.324 497.286
1295 0 54.1433 11.9682 648 95.8333 663.938 494.998
1296 0 56.2099 13.1294 738 95.1355 660.783 492.152
1297 0 59.2955 12.8003 759 93.9565 662.121 492.436
1298 0 62.3074 14.7013 916 91.2424 660.418 488.866
1299 0 65.305 13.3221 870 93.8414 660.218 486.772
1300 0 65.3267 13.8228 903 94.9169 660.347 482.684
1301 0 66.3396 12.7073 843 96.2467 660.609 480.511
1302 0 70.2522 15.2024 1068 92.1582 660.519 478.381
1303 0 73.2069 15.0942 1105 92.5475 660.992 476.664
1304 0 75.4233 13.5767 1024 95.7861 661.512 477.189
1305 0 79.2159 15.5398 1231 92.5768 662.049 474.058
1306 0 80.2586 14.3785 1154 95.5832 664.148 472.894
1307 1 42.0476 9.60817 404 97.5446 666.928 494.225
1308 0 47.043 11.7339 552 94.4982 669.433 492.413
1309 0 49.11 12.4211 610 92.7459 671.693 492.328
1310 0 50.1502 12.642 634 93.6798 673.274 491.735
1311 0 52.0811 13.3446 695 91.9165 674.416 489.686
1312 0 53.1533 14.4111 766 88.0209 674.242 492.35
1313 0 56.2346 13.0702 735 92.5048 672.21 490.799
1314 0 58.1561 13.2746 772 93.5959 672.052 491.492
1315 0 63.1949 13.403 847 92.5738 671.863 490.329
1316 0 66.2729 13.2332 877 93.0524 671.203 489.38
1317 0 66.2921 12.5505 832 95.893 670.868 490.004
1318 0 70.2444 12.9548 910 95.0198 669.409 489.165
1319 1 38.0607 11.1401 424 94.5354 668.988 504.427
1320 0 39.1758 9.59776 376 98.2633 668.141 501.968
1321 0 46.22 12.3756 572 91.3776 666.028 501.535
1322 0 44.2278 11.9834 530 95.5415 664.983 499.072
1323 0 46.233 14.3837 665 94.4075 663.862 495.147
1324 0 47.0617 13.3017 626 94.5911 664.46 494.823
1325 0 50.0968 13.8532 694 92.4971 662.356 493.104
1326 0 51.0604 12.8671 657 96.207 662.781 491.475
1327 0 52.0524 13.7554 716 96.5908 662.471 488.29
1328 0 56.2248 13.1437 739 96.6536 663.199 486.884
1329 0 58.101 13.8724 806 97.1079 662.277 484.881
1330 0 58.1747 13.3735 778 98.5964 663.274 482.97
1331 0 62.2266 14.0294 873 95.3001 664.524 483.356
1332 0 63.1455 13.3818 845 97.4201 665.871 480.199
1333 0 63.1775 11.8397 748 101.326 667.308 478.985
1334 0 68.2732 14.9546 1021 95.5504 669.364 478.55
1335 1 35.0505 11.783 413 96.661 672.354 497.535
1336 0 38.257 9.90667 379 98.6913 672.005 497.858
1337 0 41.1871 10.8286 446 97.0022 673.262 496.859
1338 0 41.2841 11.215 463 98.0583 673.795 495.419
1339 0 44.19 13.0572 577 94.8527 673.203 495.678
1340 0 45.0268 13.6807 616 90.776 675.64 496.742
1341 0 47.1496 12.1316 572 94.5122 673.388 497.295
1342 0 49.1494 14.4458 710 90.5549 672.762 496.031
1343 0 51.1303 12.5562 642 95.0202 671.243 497.266
1344 0 53.123 13.9299 740 92.9149 670.395 495.33
1345 0 53.1117 11.9183 633 97.019 669.678 495.221
1346 0 58.1594 13.2051 768 93.5221 667.835 494.145
1347 0 60.1639 13.6793 823 92.4241 665.433 491.024
1348 0 63.1775 13.6441 862 92.8654 665.058 490.362
1349 0 65.1518 13.7525 896 92.2132 662.916 486.923
1350 0 69.261 14.7846 1024 91.1211 662.108 484.198
1351 1 38.0628 10.1674 387 95.6098 663.289 501.106
1352 0 38.093 11.6294 443 97.1648 662.761 497.19
1353 0 39.014 11.3549 443 97.5327 662.77 495.242
1354 0 43.0837 11.8374 510 96.5529 663.11 494.118
1355 0 42.0837 11.5484 486 99.1214 663.856 492.193
1356 0 46.0854 12.9325 596 97.6997 664.535 490.367
1357 0 48.0335 14.7397 708 94.8559 664.691 490.558
1358 0 48.0532 13.2561 637 99.4396 664.973 490.512
1359 0 49.145 13.5517 666 100.941 666.218 490.266
1360 0 51.1336 14.687 751 99.0666 667.501 488.945
1361 0 54.0773 13.9245 753 100.505 669.282 488.352
1362 0 56.1431 12.9312 726 102.931 670.91 490.058
1363 0 59.1728 13.638 807 101.805 673.419 488.744
1364 0 60.1046 13.36 803 104.228 673.944 488.76
1365 0 61.2176 14.9303 914 101.228 673.555 488.292
1366 0 66.3936 14.3839 955 102.381 673.201 488.083
1367 0 69.2351 13.5769 940 105.19 674.111 488.881
1368 0 72.1692 14.3413 1035 104.339 673.277 488.049
1369 0 76.3055 15.2545 1164 102.244 672.669 486.825
1370 0 80.3312 15.9714 1283 100.868 671.882 486.169
1371 1 44.2589 11.9298 528 101.131 670.475 506.981
1372 0 43.1724 11.3499 490 105.12 668.712 503.998
1373 0 45.4506 10.7809 490 107.527 667.353 500.594
1374 0 48.2899 13.0462 630 102.352 664.787 500.144
1375 0 48.3264 11.4223 552 104.658 663.19 499.27
1376 0 52.1519 13.4032 699 98.123 662.568 497.217
1377 0 55.0407 13.3356 734 99.7629 660.642 494.429
1378 0 57.1252 14.512 829 95.199 660.949 492.375
1379 0 58.1768 12.8746 749 97.3818 661.044 491.147
1380 0 62.2024 14.8547 924 93.7976 660.94 487.005
1381 0 64.1677 14.4621 928 95.2284 660.858 484.655
1382 0 65.1996 13.4203 875 96.584 661.234 483.37
1383 0 69.1286 13.6412 943 96.6076 662.247 481.475
1384 0 71.1719 14.191 1010 95.9089 662.406 478.993
1385 0 75.1226 14.2434 1070 95.1579 662.928 478.99
1386 0 77.163 14.5406 1122 94.9875 664.321 477.727
1387 1 39.0302 7.91694 309 100.417 666.408 496.706
1388 0 43.0244 11.2727 485 95.4144 669.231 495.652
1389 0 44.0937 10.7045 472 96.0042 671.265 496.036
1390 0 46.1966 11.8624 548 94.927 672.265 495.301
1391 0 48.1285 12.0511 580 94.8155 672.767 496.384
1392 0 50.1758 12.3366 619 91.9903 672.061 495.552
1393 0 53.0994 13.5783 721 89.699 672.243 498.258
1394 0 54.1407 12.763 691 91.7931 671.153 496.54
1395 0 59.1196 13.312 787 91.1525 670.653 497.14
1396 0 61.172 12.7346 779 94.6906 669.193 495.44
1397 0 65.0847 12.9677 844 94.1481 667.293 495.104
1398 0 66.1403 11.7931 780 97.141 666.383 493.312
1399 0 71.1125 13.8654 986 94.4503 664.988 490.561
1400 1 38.0233 10.4673 398 94.5754 663.965 508.741
1401 0 40.0376 9.36619 375 96.3227 662.195 507.12
1402 0 41.1912 11.1674 460 95.2717 662.035 504.483
1403 0 42.0523 11.1528 469 95.936 661.017 503.211
1404 0 43.0318 11.4799 494 95.2874 660.996 502.86
1405 0 45.0524 13.8949 626 89.3722 660.911 499.642
1406 0 47.0755 14.2962 673 89.2199 660.536 497.214
1407 0 48.121 12.7803 615 92.5008 661.013 495.92
1408 0 49.1457 12.7783 628 92.1258 661.307 493.22
1409 0 51.1312 12.5559 642 93.0265 662.201 491.643
1410 0 55.0673 13.8921 765 91.6915 662.915 491.506
1411 0 55.0864 14.0688 775 91.9471 663.363 490.884
1412 0 55.0659 13.4021 738 95.0948 663.595 488.946
1413 0 58.1095 12.7346 740 96.1703 665.054 489.235
1414 0 61.1062 13.1738 805 93.4484 667.071 488.539
1415 0 63.2834 13.1314 831 93.5536 669.649 486.646
1416 0 66.1091 14.2643 943 90.9873 670.451 487.577
1417 0 67.0431 13.9313 934 93.0653 672.028 485.684
1418 0 73.1211 14.8384 1085 89.7106 673.335 487.72
1419 1 38.0251 10.3879 395 93.2152 673.015 505.438
1420 0 40.0499 11.5356 462 92.5779 673.056 506.048
1421 0 41.0169 11.0442 453 94.766 672.693 507.245
1422 0 43.095 10.6509 459 97.207 671.307 507.434
1423 0 45.017 10.3072 464 100.713 670.205 507.226
1424 0 47.0433 14.1359 665 96.3098 668.423 504.248
1425 0 48.2824 12.6133 609 101.499 666.102 503.148
1426 0 52.0923 13.5529 706 101.152 664.807 501.95
1427 0 55.1028 14.6453 807 99.2788 662.789 500.097
1428 0 56.1454 14.5693 818 101.46 662.803 497.402
1429 0 58.1521 13.757 800 103.222 661.278 496.645
1430 0 60.1359 14.3841 865 103.824 660.207 492.667
1431 0 61.0376 13.5982 830 107.157 660.064 489.324
1432 0 65.1185 13.606 886 106.894 659.477 487.735
1433 0 68.0935 14.2304 969 106.221 660.014 485.645
1434 0 68.1808 14.0509 958 107.125 659.786 483.551
1435 0 72.1436 13.7642 993 106.792 660.3 481.726
1436 0 74.0773 14.9033 1104 104.376 660.408 480.258
1437 1 41.0436 12.3527 507 104.651 661.158 498.535
1438 0 41.0257 11.4562 470 105.696 662.4 498.911
1439 0 42.0631 12.9567 545 104.67 663.925 495.677
1440 0 44.0209 12.0397 530 107.938 664.698 494.511
1441 0 46.0581 13.8086 636 103.508 666.989 495
1442 0 47.0611 13.1531 619 103.063 668.428 496.876
1443 0 50.1586 13.1782 661 103.826 670.469 496.511
1444 0 51.1471 13.686 700 103.031 671.514 496.681
1445 0 51.0678 13.0023 664 106.187 673.101 496.264
1446 0 55.1467 13.455 742 105.555 671.957 497.803
1447 0 55.0641 13.5842 748 107.452 671.336 496.111
1448 0 59.0912 12.9969 768 107.616 671.8 497.152
1449 0 63.1288 14.4783 914 105.505 671.397 495.688
1450 0 66.1064 13.917 920 105.852 669.62 497.348
1451 0 67.1425 13.732 922 108.251 667.727 495.295
1452 0 71.0582 15.3818 1093 104.728 667.043 493.457
1453 0 74.0936 15.1295 1121 106.268 665.976 490.398
1454 0 76.0662 14.1061 1073 109.21 664.567 487.139
1455 0 79.0588 14.2805 1129 108.964 660.561 488.673
1456 1 43.0592 11.3564 489 112.955 659.781 504.532
1457 0 42.013 11.2584 473 115.34 660.943 502.116
1458 0 47.0444 13.6254 641 108.253 660.986 500.471
1459 0 48.1715 13.5142 651 108.492 660.32 499.006
1460 0 50.0666 12.9627 649 108.898 660.367 497.367
1461 0 48.1347 13.0052 626 110.157 659.452 495.195
1462 0 52.0763 14.3827 749 105.828 660.343 495.13
1463 0 53.2034 14.454 769 106.844 661.182 492.362
1464 0 56.2511 14.5953 821 105.749 661.627 490.636
1465 0 57.3042 15.1123 866 104.712 662.695 492.187
1466 0 57.1992 14.3708 822 108.085 663.241 490.978
1467 0 62.1559 13.981 869 106.497 664.659 491.2
1468 0 62.1482 13.0655 812 109.197 666.902 489.408
1469 0 68.2122 14.7188 1004 103.167 668.37 488.673
1470 0 70.4525 14.7049 1036 102.528 669.63 489.506
1471 0 73.2651 14.6454 1073 103.703 670.809 487.162
1472 1 37.1644 10.8706 404 107.666 672.002 507.797
1473 0 37.1138 11.3704 422 107.102 672.071 506.166
1474 0 41.2537 13.114 541 104.083 671.25 507.006
1475 0 43.4118 14.3049 621 103.947 670.168 505.7
1476 0 44.1234 12.4877 551 109.287 669.399 505.617
1477 0 47.0903 14.0793 663 104.176 668.668 507.431
1478 0 47.2379 14.1624 669 104.012 667.852 507.312
1479 0 50.2585 14.8035 744 102.957 667.095 503.782
1480 0 54.2376 15.6533 849 99.1237 665.71 501.827
1481 0 55.1168 14.2606 786 104.234 663.223 500.77
1482 0 56.1826 13.9189 782 105.55 662.322 499.371
1483 0 61.4639 14.6916 903 103.516 661.1 496.842
1484 0 61.4712 14.1042 867 106.122 660.151 492.215
1485 0 65.5484 14.3253 939 104.905 660.414 489.475
1486 0 68.6774 14.5899 1002 104.189 659.424 487.172
1487 0 71.7496 15.2614 1095 104.067 659.589 482.711
1488 0 74.9393 14.4384 1082 105.066 658.415 482.196
1489 0 78.9674 15.1582 1197 104.273 658.793 476.726
1490 0 80.4893 14.8591 1196 106.839 660.216 474.778
1491 1 45.5999 11.7325 535 107.723 661.421 493.802
1492 0 46.2786 11.9926 555 106.996 661.476 493.823
1493 0 45.2676 12.1058 548 108.646 662.19 493.327
1494 0 48.1287 12.7782 615 106.262 665.267 494.291
1495 0 53.1298 13.1565 699 104.35 666.903 494.084
1496 0 53.0495 13.4026 711 104.287 668.923 494.941
1497 0 55.2796 13.495 746 103.987 670.315 494.408
1498 0 58.2021 13.7452 800 103.464 671.902 493.59
1499 0 60.4482 13.7142 829 104.958 672.661 492.002
1500 0 63.4515 12.939 821 106.034 673.01 492.995
1501 0 67.3302 13.9016 936 103.313 672.594 492.004
1502 1 36.1954 13.3166 482 102.353 671.832 507.492
1503 0 37.2472 10.927 407 104.467 669.688 509.774
1504 0 40.1629 12.9473 520 101.269 669.298 508.238
1505 0 41.3509 12.2367 506 105.31 667.988 507.164
1506 0 45.104 14.0564 634 100.254 666.916 506.156
1507 0 47.2068 13.8751 655 102.151 665.85 503.478
1508 0 47.2477 14.4769 684 103.048 664.164 502.852
1509 0 49.1887 12.8281 631 105.144 662.906 502.723
1510 0 51.109 13.3245 681 104.383 661.916 498.778
1511 0 53.1901 13.6868 728 103.935 661.158 496.87
1512 0 56.1948 14.859 835 102.446 660.172 494.484
1513 0 56.2731 14.4652 814 104.958 660.037 490.027
1514 0 59.2796 14.6256 867 104.286 659.354 489.505
1515 0 61.5405 14.9657 921 103.559 659.311 487.522
1516 0 63.7701 14.0191 894 106.164 660.055 484.748
1517 0 67.795 14.2193 964 105.981 660.524 483.478
1518 0 70.796 16.2015 1147 101.786 661.121 480.731
1519 0 72.9426 15.6973 1145 102.659 661.439 480.011
1520 0 73.9924 15.6502 1158 103.545 662.673 479.07
1521 1 37.601 11.7018 440 109.559 663.834 496.357
1522 0 37.6136 12.2828 462 111.203 666.236 495.364
1523 0 42.5317 11.4738 488 110.594 668.059 496.949
1524 0 40.5306 11.2014 454 111.987 669.35 498.582
1525 0 44.6584 12.6964 567 109.954 670.443 496.82
1526 0 45.6065 12.3667 564 113.511 671.743 497.17
1527 0 49.2789 13.2714 654 110.497 672.713 498.307
1528 0 51.2464 13.9327 714 109.646 672.321 499.788
1529 0 53.1643 14.1824 754 109.202 672.05 500.207
1530 0 58.2023 15.0681 877 107.204 670.791 498.328
1531 0 58.1871 13.6456 794 112.506 669.416 498.013
1532 0 61.2842 14.392 882 110.235 668.622 497.481
1533 0 65.387 14.4524 945 109.235 667.039 496.366
1534 0 68.3509 14.8937 1018 110.093 665.25 493.618
1535 0 68.4129 14.7487 1009 110.814 664.031 491.971
1536 0 74.5087 15.6089 1163 106.707 662.445 488.116
1537 0 76.8382 15.5782 1197 106.864 660.969 487.19
1538 0 78.7068 14.5858 1148 110.266 660.132 484.438
1539 1 40.3094 9.22861 372 109.28 659.543 503.505
1540 0 43.2344 10.4546 452 106.235 659.1 501.312
1541 0 44.2164 11.8734 525 105.943 659.352 497.324
1542 0 46.2681 11.1308 515 105.239 659.515 496.443
1543 0 49.2537 12.7706 629 102.895 659.704 494.038
1544 0 50.1295 13.8242 693 99.9437 660.499 490.043
1545 0 52.0905 14.398 750 100.928 661.651 490.625
1546 0 56.052 14.1654 794 99.8073 662.397 490.874
1547 0 56.1298 13.8607 778 101.19 663.593 489.519
1548 0 60.1068 13.6091 818 99.3435 664.73 488.724
1549 0 63.1776 14.2614 901 97.1221 666.188 486.796
1550 0 64.0922 13.0437 836 99.0921 668.482 486.537
1551 0 67.0666 14.6273 981 96.314 669.79 486.517
1552 0 71.0669 13.3114 946 99.1702 671.479 485.539
1553 0 73.0848 13.6964 1001 99.2258 671.847 484.333
1554 1 38.025 8.65219 329 101.894 672.723 506.246
1555 0 42.0244 10.7795 453 99.1898 672.804 504.865
1556 0 44.0594 10.4404 460 100.815 671.874 503.767
1557 0 48.0217 12.9108 620 94.629 671.497 503.897
1558 0 48.0896 13.6412 656 95.2896 670.261 502.918
1559 0 51.0466 13.6542 697 94.6542 669.699 503.353
1560 0 51.1052 13.0515 667 97.1349 668.699 501.642
1561 0 53.1335 11.4241 607 100.565 667.01 501.435
1562 0 56.0692 13.7865 773 96.0078 663.743 498.789
1563 0 59.1718 14.4663 856 95.1834 661.888 498.728
1564 0 60.1956 14.2535 858 97.0606 660.894 495.07
1565 0 64.1865 14.4423 927 96.3668 660.286 493.397
1566 0 66.1214 13.6265 901 99.9811 659.141 489.686
1567 0 68.1623 13.7906 940 100.904 658.818 486.995
1568 0 70.2108 13.8867 975 100.614 658.662 485.318
1569 0 74.3383 14.6493 1089 100.704 659.421 482.507
1570 1 36.0726 12.9738 468 103.162 660.974 499.94
1571 0 40.3148 11.0877 447 104.971 661.476 498.298
1572 0 41.1185 13.1084 539 101.755 661.558 498.011
1573 0 44.2758 12.1737 539 103.848 661.558 497.226
1574 0 42.1658 11.858 500 111.216 660.778 495.934
1575 0 46.2528 12.9722 600 107.412 662.453 494.417
1576 0 48.2738 14.5213 701 104.407 664.485 495.311
1577 0 51.2079 15.1539 776 105.461 666.466 494.133
1578 0 53.1314 15.2452 810 105.933 668.257 494.411
1579 0 54.2265 13.9784 758 109.164 670.127 494.207
1580 0 57.2357 14.7635 845 108.742 669.002 494.334
1581 0 61.1146 17.1481 1048 103.697 670.747 495.626
1582 0 62.0648 15.9511 990 108.659 671.067 495.78
1583 0 67.1386 15.4903 1040 109.749 671.589 495.688
1584 0 67.0627 15.15 1016 112.633 670.842 495.878
1585 0 69.0767 16.0836 1111 111.505 670.677 495.197
1586 0 74.0725 16.5918 1229 110.945 670.116 494.53
1587 0 79.0732 18.0339 1426 107.248 668.288 492.705
1588 0 80.0704 15.961 1278 113.405 666.574 491.265
1589 0 83.1406 16.9231 1407 111.783 664.821 487.878
1590 0 87.1451 16.3061 1421 113.685 663.633 484.513
1591 1 42.0103 13.211 555 117.249 661.335 508.15
1592 0 46.0162 14.321 659 116.522 660.558 504.375
1593 0 48.0902 14.4312 694 114.444 661.208 502.562
1594 0 49.0674 15.9373 782 114.109 661.096 497.968
1595 0 51.0552 17.1775 877 112.578 660.747 496.832
1596 0 53.0787 16.3154 866 114.903 660.934 494.067
1597 0 54.1182 16.815 910 113.302 661.42 491.251
1598 0 57.1446 15.697 897 115.237 660.798 490.504
1599 0 60.1823 16.4168 988 113.821 660.057 488.086
1600 0 60.1902 15.883 956 116.417 661.366 486.058
1601 0 65.1461 17.3303 1129 111.586 662.512 485.425
1602 0 67.1314 16.6688 1119 115.512 663.156 484.442
1603 0 69.2296 16.5681 1147 114.908 664.667 482.69
1604 0 71.228 16.6367 1185 114.284 666.174 483.583
1605 0 74.274 16.668 1238 113.759 667.505 481.542
1606 0 77.3108 17.061 1319 113.34 669.091 479.734
1607 0 80.1713 16.9138 1356 112.844 670.994 479.946
1608 0 84.286 16.3372 1377 113.391 671.344 481.094
1609 1 40.1751 15.0342 604 112.967 673.53 504.212
1610 0 39.175 14.6011 572 119.878 673.224 503.254
1611 0 42.3552 13.7645 583 121.113 672.031 503.839
1612 0 46.1912 13.8555 640 122.673 671.212 503.027
1613 0 48.2415 15.609 753 120.556 670.653 502.094
1614 0 51.3739 16.6622 856 117.382 669.126 502.312
1615 0 56.1592 17.8777 1004 114.405 667.053 500.248
1616 0 58.3184 17.5759 1025 115.033 665.616 499.226
1617 0 59.3773 17.0267 1011 117.98 664.336 496.853
1618 0 61.2216 16.7098 1023 119.05 663.616 493.517
1619 0 65.268 17.2826 1128 117.155 662.356 490.528
1620 0 66.2647 16.8717 1118 118.991 661.266 489.024
1621 0 69.6609 17.9297 1249 115.298 660.267 486.33
1622 0 74.3766 16.5375 1230 117.696 660.195 484.654
1623 0 76.42 17.1159 1308 116.2 659.494 481.044
1624 0 78.5891 18.6158 1463 113.779 660.02 478.161
1625 0 81.7424 18.7173 1530 112.893 660.389 476.073
1626 0 83.408 18.4035 1535 114.272 660.6 474.05
1627 0 86.6445 18.3508 1590 113.516 660.936 473.067
1628 0 89.6099 17.8552 1600 113.894 662.624 470.802
1629 0 93.48 18.7206 1750 110.86 663.533 470.465
1630 1 44.6213 14.9704 668 122.124 664.04 491.942
1631 0 45.4068 16.5394 751 115.798 665.679 494.402
1632 0 49.6159 16.7688 832 117.619 667.019 491.001
1633 0 51.6088 17.7295 915 113.285 668.795 490.589
1634 0 54.6548 17.5282 958 112.721 671.294 492.147
1635 0 58.4601 18.1491 1061 111.49 672.557 490.56
1636 0 60.6632 17.3416 1052 113.576 673.269 490.622
1637 0 63.701 18.0531 1150 113.028 672.69 491.527
1638 0 69.3472 19.4817 1351 109.01 672.497 491.634
1639 0 71.8423 17.2461 1239 114.58 671.136 490.316
1640 0 74.4393 18.0147 1341 113.954 670.337 489.679
1641 0 76.5583 17.7904 1362 115.037 669.754 487.731
1642 0 81.486 17.8313 1453 114.491 668.286 486.98
1643 0 86.4774 17.7387 1534 113.901 665.677 483.889
1644 1 41.3186 12.2947 508 123.616 664.717 504.02
1645 0 42.3889 13.9423 591 122.558 663.052 501.372
1646 0 45.3483 14.0689 638 123.14 662.063 498.524
1647 0 48.4069 15.535 752 118.706 660.984 496.848
1648 0 50.532 16.3065 824 117.339 660.663 493.978
1649 0 55.1726 16.965 936 114.591 660.228 491.605
1650 0 57.6416 15.6484 902 117.92 660.228 489.125
1651 0 58.3545 16.7596 978 116.29 660.446 486.78
1652 0 61.1331 17.2738 1056 115.276 660.047 484.97
1653 0 62.3443 15.4465 963 120.218 660.421 483.8
1654 0 65.524 15.9636 1046 118.451 660.987 481.077
1655 0 67.2585 17.1131 1151 117.446 661.408 481.438
1656 0 71.1782 16.831 1198 118.662 662.111 480.871
1657 0 71.2926 16.9443 1208 119.584 663.08 480.588
1658 0 75.2259 17.268 1299 117.082 663.914 479.523
1659 0 79.1248 17.4787 1383 115.563 666.205 479.446
1660 0 82.2094 17.2608 1419 116.261 667.959 478.918
1661 0 86.113 16.5829 1428 117.401 670.178 477.084
1662 0 88.6082 17.899 1586 114.986 671.549 478.583
1663 0 92.104 17.9797 1656 116.624 671.803 475.266
1664 0 94.331 16.0605 1515 122.557 672.172 477.45
1665 0 98.203 17.4638 1715 120.964 671.926 476.93
1666 0 104.361 17.2957 1805 120.784 672.555 473.95
1667 0 110.325 17.2671 1905 121.782 670.353 472.405
1668 0 115.328 16.7956 1937 122.235 668.401 470.669
1669 0 123.298 16.6669 2055 121.026 667.642 465.67
1670 1 63.1901 10.8087 683 123.286 667.707 494.611
1671 0 68.1813 13.1121 894 118.985 666.453 493.695
1672 0 70.2119 14.7838 1038 117.332 664.914 489.189
1673 0 75.1128 14.0189 1053 117.543 664.209 488.355
1674 0 76.1665 12.9978 990 122.958 662.554 484.212
1675 0 81.0837 14.0595 1140 118.258 661.458 482.547
1676 0 84.1481 14.8072 1246 116.392 660.655 479.558
1677 0 86.1433 12.9552 1116 120.933 659.582 475.307
1678 0 92.1272 14.5777 1343 116.901 659.284 470.856
1679 1 53.038 10.5396 559 108.771 659.683 490.528
1680 0 57.1056 9.54372 545 107.013 660.303 490.07
1681 0 59.1194 11.8066 698 103.683 661.202 487.181
1682 0 60.1154 12.2597 737 103.311 661.765 484.826
1683 0 62.164 11.2445 699 104.914 662.505 484.165
1684 0 64.0796 10.6118 680 105.64 663.032 483.541
1685 0 67.3108 13.5937 915 101.089 662.682 480.141
1686 0 69.3516 12.0401 835 102.388 663.781 480.075
1687 0 72.4673 12.7092 921 99.9783 666.238 480.634
1688 0 73.513 10.6104 780 103.551 667.719 476.837
1689 1 42.1704 8.84506 373 96.0617 670.381 497.276
1690 0 46.237 10.2083 472 92.5233 671.92 497.367
1691 0 45.2792 8.52488 386 95.6632 672.972 497.725
1692 0 49.1506 10.3763 510 92.2196 672.557 498.602
1693 0 52.0945 11.8247 616 89.1412 671.641 496.472
1694 0 52.0867 12.1528 633 91.2954 671.476 496.073
1695 0 54.1235 11.5107 623 92.183 670.74 497.345
1696 0 55.1053 11.4871 633 94.6003 670.423 496.575
1697 0 57.1412 12.2153 698 93.5186 669.434 496.289
1698 0 58.2968 10.5838 617 97.2366 668.12 494.629
1699 0 61.3322 10.6469 653 98.4594 667.083 492.412
1700 0 65.066 10.789 702 97.4174 664.939 493.322
1701 1 36.0951 9.75202 352 95.3949 663.338 504.545
1702 0 38.2547 8.46954 324 95.2716 661.321 505.287
1703 0 38.1729 9.61416 367 95.1417 661.995 503.172
1704 0 41.2668 10.4927 433 95.5381 659.464 498.441
1705 0 42.502 11.3406 482 95.7884 658.886 495.579
1706 0 45.4588 11.7249 533 93.9456 659.199 494.231
1707 0 45.425 12.6803 576 93.6823 659.361 492.148
1708 0 44.4533 11.4277 508 97.8209 658.9 488.904
1709 0 45.4252 10.3467 470 100.313 659.613 488.972
1710 0 51.4183 12.8359 660 92.3485 660.077 488.744
1711 0 50.3898 11.9469 602 96.2359 661.307 487.786
1712 0 50.2539 11.7603 591 97.3012 663.049 487.816
1713 0 53.2234 11.3108 602 96.6661 664.136 485.01
1714 0 55.4567 12.0635 669 95.6158 666.549 486.173
1715 0 57.4481 12.359 710 94.0592 669.29 487.648
1716 0 59.4451 13.5419 805 92.1031 671.024 486.642
1717 0 61.312 12.9665 795 93.3321 672.893 487.297
1718 1 32.0566 9.42084 302 95.4801 676.215 502.46
1719 0 33.0479 9.50135 314 95.2357 676.185 502.828
1720 0 35.1165 7.83107 275 94.08 675.502 505.331
1721 0 37.0255 11.1005 411 89.5669 675.039 504.713
1722 0 39.0267 10.3775 405 91.7259 673.793 505.119
1723 0 41.0426 11.2566 462 96.0606 671.429 504.292
1724 0 42.4199 10.7025 454 92.2203 672.744 501.641
1725 0 44.3367 12.4276 551 90.3485 671.064 502.497
1726 0 46.2409 11.7428 543 93.2891 669.783 500.068
1727 0 47.1525 13.3821 631 90.6086 668.187 498.239
1728 0 50.2209 13.4008 673 90.0045 666.21 497.042
1729 0 51.2022 12.6557 648 91.0571 664.128 495.685
1730 0 53.1607 14.2775 759 87.6904 662.787 492.657
1731 0 56.1874 14.3093 804 88.199 662.562 491.21
1732 0 56.2233 12.5037 703 93.1565 661.431 489.643
1733 0 56.1806 13.1184 737 96.483 662.022 487.984
1734 0 59.1172 13.6508 807 95.4288 660.461 484.451
1735 0 62.2069 13.6319 848 93.4882 660.746 482.998
1736 0 64.1755 13.7903 885 93.6113 661.356 480.524
1737 1 35.0144 11.5952 406 91.3448 661.493 496.025
1738 0 31.0374 9.89129 307 94.0163 662.153 498.593
1739 0 36.0773 11.0042 397 92.4433 663.066 495.161
1740 0 37.0191 10.346 383 92.5561 663.342 496.107
1741 0 40.0096 11.3723 455 89.2132 665.064 494.176
1742 0 43.0471 13.9847 602 83.402 666.206 495.585
1743 0 42.096 12.1627 512 88.1328 667.965 495.066
1744 0 45.2113 14.2221 643 84.2271 669.726 494.939
1745 0 47.2145 15.652 739 84.2652 672.626 495.805
1746 0 48.2059 14.7907 713 87.1487 673.672 495.853
1747 0 50.3449 14.9966 755 86.902 674.324 497.722
1748 0 51.1788 14.7913 757 89.3421 673.786 496.452
1749 0 53.1483 13.3024 707 89.5078 671.989 497.871
1750 0 56.2046 14.6785 825 88.7527 673.48 499.033
1751 0 57.0705 14.3857 821 90.4361 672.304 496.883
1752 0 58.1086 13.6297 792 94.2576 671.162 498.153
1753 0 58.1086 13.6641 794 147.68 670.17 498.071
1754 0 66.2389 14.191 940 93.083 668.318 494.574
1755 1 33.0358 11.0789 366 96.0355 663.822 509.902
1756 0 35.023 11.2212 393 98.7328 662.977 508.323
1757 0 38.0413 11.1984 426 96.5962 662.279 507.089
1758 0 39.0685 11.1599 436 98.9862 661.257 505.333
1759 0 39.2466 13.6572 536 96.4328 661.006 502.868
1760 0 41.5956 13.511 562 96.7064 662.633 496.804
1761 0 43.6629 13.3752 584 98.6592 661.714 495.111
1762 0 44.124 14.5726 643 94.647 660.468 498.398
1763 0 42.2038 12.6292 533 101.574 660.002 496.137
1764 0 48.0691 14.6872 706 96.7026 663.678 493.557
1765 0 50.0465 14.6464 733 96.9113 662.918 492.236
1766 0 51.1372 14.8229 758 95.7665 663.02 490.578
1767 0 51.1126 12.6192 645 98.7039 663.698 492.836
1768 0 54.1327 14.1135 764 96.0183 664.83 491.855
1769 0 56.0751 14.1952 796 94.5427 666.51 491.413
1770 0 57.1356 15.1919 868 93.1394 668.71 490.264
1771 0 59.0768 14.6758 867 94.0484 670.421 489.098
1772 0 63.0564 15.1135 953 92.1406 672.152 490.136
1773 0 65.1889 14.4963 945 93.836 672.59 488.83
1774 0 70.0956 16.3063 1143 89.2686 672.857 488.071
1775 0 71.159 14.2919 1017 94.061 673.772 488.558
1776 0 77.1714 14.2151 1097 93.9863 672.713 488.98
1777 1 37.0582 11.9542 443 95.3905 671.463 509.201
1778 0 39.0742 12.2075 477 97.9665 670.627 508.342
1779 0 42.1203 11.8945 501 98.3134 669.283 508.439
1780 0 43.0799 12.7206 548 98.9197 668.084 506.131
1781 0 47.1324 13.7273 647 96.0742 666.09 505.325
1782 0 49.1609 14.5644 716 93.993 664.658 504.039
1783 0 50.1166 14.0073 702 94.9701 664.396 502.849
1784 0 52.0865 13.6888 713 95.8485 662.804 500.572
1785 0 55.0782 14.5611 802 94.2469 661.762 498.488
1786 0 57.0972 13.0654 746 97.3365 661.078 495.889
1787 0 58.0793 13.6537 793 96.4855 660.648 491.733
1788 0 63.2015 15.2053 961 90.5307 659.776 491.402
1789 0 67.2146 14.4016 968 92.8822 659.568 488.234
1790 0 68.2371 14.1419 965 94.0974 660.231 483.933
1791 1 35.0292 10.5912 371 95.558 659.38 499.377
1792 0 38.1489 10.9571 418 95.1412 660.182 497.45
1793 0 40.1386 10.4637 420 92.7095 661.436 498.457
1794 0 42.1892 11.2351 474 90.7785 660.681 498.903
1795 0 42.2109 12.2954 519 90.4798 662.075 496.127
1796 0 45.166 11.7788 532 91.2613 663.586 496.821
1797 0 46.1161 12.5769 580 90.4862 664.262 496.084
1798 0 49.0922 14.3607 705 88.7787 667.448 494.755
1799 0 49.0426 12.7032 623 91.7014 668.411 496.626
1800 0 53.1393 13.9633 742 88.8208 669.259 495.861
1801 0 55.2273 12.4576 688 90.9956 670.433 495.827
1802 0 57.1838 13.99 800 90.2288 671.299 493.61
1803 0 59.1521 13.6766 809 91.0791 671.252 493.879
1804 0 62.2232 14.223 885 89.8 670.823 493.082
1805 0 66.0877 13.5426 895 91.5207 670.075 492.498
1806 0 69.0961 15.4567 1068 88.7697 668.749 492.004
1807 0 73.1687 14.4871 1060 92.1802 667.838 491.181
1808 0 74.1314 15.2702 1132 92.5618 665.943 491.465
1809 0 77.1954 15.0398 1161 95.2653 664.578 487.262
1810 0 81.372 16.2709 1324 93.0748 663.325 484.884
1811 0 83.2977 14.7183 1226 97.6843 662.053 482.954
1812 0 86.3137 15.9998 1381 95.5836 661.163 480.32
1813 0 89.3238 15.1136 1350 97.783 660.287 476.05
1814 0 92.2523 15.2733 1409 98.0326 659.666 474.361
1815 1 50.2913 11.4334 575 100.616 660.301 494.47
1816 0 48.39 11.6346 563 102.44 660.702 491.67
1817 0 52.2692 11.479 600 101.415 661.465 490.645
1818 0 54.1616 11.5396 625 103.461 660.539 487.624
1819 0 57.0413 14.5684 831 98.4958 660.89 486.314
1820 0 58.1614 13.5141 786 101.747 661.814 483.481
1821 0 59.146 13.8471 819 100.789 663.686 483.215
1822 0 59.1402 12.8001 757 104.93 664.843 482.569
1823 0 62.138 14.5322 903 101.621 666.424 483.202
1824 0 65.1474 14.7512 961 102.556 668.553 480.87
1825 0 70.091 15.9364 1117 99.2838 669.863 480.97
1826 0 72.2103 15.1917 1097 101.721 671.472 479.769
1827 0 74.1965 13.8686 1029 104.751 673.467 481.54
1828 0 80.1093 15.3291 1228 100.798 673.425 479.442
1829 0 82.142 14.9741 1230 102.113 674.506 479.632
1830 0 87.1508 15.5478 1355 100.738 674.457 479.568
1831 1 47.0662 10.9208 514 103.416 674.29 500.815
1832 0 50.0587 10.3479 518 104.882 671.465 498.508
1833 0 52.1042 10.6517 555 104.135 671.211 498.431
1834 0 54.0667 13.4278 726 102.715 669.784 496.685
1835 0 58.1356 14.2254 827 100.665 669.526 496.164
1836 0 60.073 13.9497 838 100.514 667.952 495.69
1837 0 61.0445 13.3673 816 104.536 667.348 493.643
1838 0 68.0682 15.411 1049 100.826 665.927 490.82
1839 0 68.1374 15.0431 1025 103.37 665.271 488.079
1840 0 72.0767 14.1793 1022 106.504 663.709 484.971
1841 0 75.1417 14.6257 1099 105.146 663.302 481.904
1842 0 79.0911 15.6528 1238 101.741 662.572 479.883
1843 0 80.1577 13.461 1079 107.883 662.387 476.55
1844 0 84.0885 14.6156 1229 105.652 662.426 471.895
1845 0 88.1407 14.6357 1290 104.307 662.672 469.47
1846 1 44.0712 11.6856 515 104.934 663.614 490.384
1847 0 46.0524 11.0309 508 104.274 664.528 492.01
1848 0 48.0767 10.6289 511 104.19 664.665 490.971
1849 0 50.0214 13.0744 654 101.229 665.419 488.705
1850 0 52.0325 13.4724 701 98.7461 667.257 487.665
1851 0 53.0373 13.8016 732 97.1298 668.202 487.643
1852 0 56.048 12.3822 694 97.7478 669.308 487.631
1853 0 58.0723 13.8792 806 94.7481 671.027 485.818
1854 0 61.2407 14.1083 864 92.8646 672.566 489.272
1855 0 64.0766 14.4046 923 92.2048 674.193 486.286
1856 0 67.0841 13.3862 898 93.7216 674.805 485.909
1857 0 66.1658 13.0279 862 95.1694 675.465 486.77
1858 0 70.1863 12.6093 885 95.922 675.307 487.296
1859 0 75.0907 15.115 1135 91.8546 674.925 485.341
1860 0 76.0959 13.8247 1052 95.6664 673.667 482.076
1861 0 81.1222 14.5213 1178 93.8132 671.975 483.328
1862 0 83.2424 13.5388 1127 96.6415 670.901 481.499
1863 0 87.2497 14.4184 1258 94.8895 669.143 480.641
1864 1 47.1007 9.25677 436 94.3945 667.353 505.945
1865 0 48.1001 10.4989 505 94.2396 666.739 501.388
1866 0 48.1401 10.8434 522 95.4464 665.828 498.32
1867 0 52.1795 10.6172 554 95.5975 664.935 496.56
1868 0 56.1996 13.2741 746 90.508 663.853 494.117
1869 0 58.0704 12.9842 754 92.248 663.13 491.37
1870 0 59.1513 13.9473 825 92.6376 661.872 488.708
1871 0 62.1338 14.7746 918 91.902 661.361 486.053
1872 0 64.0901 14.7605 946 92.0846 661.378 484.162
1873 0 66.0557 14.1396 934 93.9925 661.733 480.766
1874 0 69.184 13.9339 964 93.6276 662.112 479.682
1875 0 70.0896 13.3115 933 95.089 662.839 479.448
1876 0 74.0802 14.3628 1064 94.3506 663.076 476.569
1877 0 78.2146 15.0356 1176 92.9532 663.426 476.414
1878 0 81.1186 15.6807 1272 91.7547 665.436 475.237
1879 0 82.0769 15.522 1274 94.3046 666.578 474.042
1880 0 84.2314 14.8282 1249 94.2474 668.188 473.634
1881 0 87.1397 13.7366 1197 97.3768 669.765 471.903
1882 1 46.1072 10.1936 470 99.734 671.447 492.202
1883 0 50.2337 10.69 537 96.7207 673.199 495.356
1884 0 49.0851 10.8383 532 96.8496 673.891 492.071
1885 0 55.1287 14.0036 772 90.6477 674.955 494.014
1886 0 56.0966 13.0133 730 94.1849 675.259 493.468
1887 0 58.1357 13.3825 778 93.9627 674.757 494.272
1888 0 61.2254 13.7198 840 94.0143 674.252 491.832
1889 0 64.234 13.2017 848 96.8078 672.746 490.561
1890 0 68.3908 13.6568 934 96.7452 671.209 491.119
1891 0 69.213 12.9311 895 99.9788 669.744 489.511
1892 0 73.3012 12.7692 936 99.906 668.895 488.952
1893 0 77.3578 14.1679 1096 98.3312 666.999 485.132
1894 1 40.0983 10.2997 413 99.2179 666.724 502.993
1895 0 40.3005 11.8609 478 99.0669 664.588 501.146
1896 0 42.2794 11.7788 498 101.739 663.769 499.028
1897 0 46.3031 12.051 558 102.387 662.385 496.163
1898 0 47.4456 11.7819 559 103.302 662.422 493.954
1899 0 49.1782 13.3392 656 101.869 662.302 490.194
1900 0 52.1409 13.4252 700 98.8 662.676 489.92
1901 0 53.1621 12.9227 687 100.076 662.153 488.178
1902 0 55.2081 13.2951 734 98.4264 662.601 488.121
1903 0 56.1299 13.3619 750 99.26 663.02 483.517
1904 0 59.2952 14.1495 839 97.118 663.561 482.675
1905 0 60.1499 14.4472 869 96.3487 664.12 482.343
1906 0 61.28 13.8871 851 98.168 664.989 482.338
1907 0 63.178 12.5518 793 100.619 667.286 481.499
1908 0 68.3036 13.9817 955 97.0492 669.034 482.148
1909 0 69.3424 12.9791 900 101.361 669.444 479.844
1910 0 72.2078 13.8074 997 99.6429 670.429 480.319
1911 0 76.19 13.7157 1045 99.0373 672.936 481.602
1912 0 78.3868 13.9564 1094 99.2678 674.256 479.31
1913 0 82.2644 14.7938 1217 97.2251 674.433 478.889
1914 1 45.3857 11.4574 520 102.948 674.412 498.652
1915 0 48.236 10.7181 517 101.805 674.296 500.017
1916 0 49.0988 11.3852 559 101.347 673.784 499.866
1917 0 50.2171 11.4702 576 103.177 672.311 498.196
1918 0 53.2851 11.598 618 101.725 670.979 499.168
1919 0 56.1613 13.6927 769 98.7438 670.121 499.156
1920 0 59.286 14.3373 850 98.3094 667.646 498.094
1921 0 61.1846 14.1212 864 100.117 665.688 495.249
1922 0 62.2535 13.8787 864 102.52 663.547 494.237
1923 0 66.2123 13.9249 922 102.137 663.389 492.704
1924 0 69.3358 14.3216 993 101.635 662.93 488.427
1925 0 71.4067 14.4384 1031 102.318 662.37 485.409
1926 0 72.3931 14.4351 1045 104.238 661.285 481.571
1927 0 75.4645 13.7018 1034 104.897 661.609 482.111
1928 0 78.3938 14.4527 1133 103.362 661.684 478.932
1929 0 82.4774 15.0466 1241 102.023 662.072 475.478
1930 0 85.3715 13.6111 1162 104.184 662.19 473.567
1931 0 87.376 14.0771 1230 104.05 662.311 470.175
1932 1 44.3052 8.28345 367 106.466 665.109 495.112
1933 0 44.3367 10.7135 475 106.194 664.977 492.366
1934 0 47.1862 10.8294 511 103.963 665.041 493.11
1935 0 49.0825 11.6538 572 100.573 666.537 492.357
1936 0 50.0685 12.7425 638 99.2743 668.263 493.596
1937 0 52.1087 11.2073 584 98.9332 670.659 494.68
1938 0 53.1499 12.1919 648 97.5108 671.633 494.366
1939 0 56.1008 13.3153 747 95.5877 672.971 493.664
1940 0 57.1093 11.2941 645 100.022 673.755 495.33
1941 0 61.0833 13.6371 833 96.3794 674.104 496.809
1942 0 63.2376 12.9037 816 98.6409 673.632 496.821
1943 0 67.115 13.7376 922 98.4013 672.415 494.479
1944 0 68.0715 14.0587 957 100.092 670.537 495.56
1945 0 73.1937 14.3318 1049 98.8017 668.027 496.114
1946 0 75.1984 13.6838 1029 100.936 667.648 495.344
1947 0 79.1284 14.3311 1134 101.139 666.21 494.252
1948 1 42.026 11.6832 491 101.485 665.951 510.898
1949 0 43.0679 10.913 470 104.568 663.611 508.087
1950 0 46.057 10.8561 500 104.182 662.45 506.64
1951 0 46.0271 11.667 537 102.626 661.361 505.034
1952 0 49.0378 11.2362 551 104.04 660.423 503.702
1953 0 47.0491 10.0746 474 106.589 660.04 502.308
1954 0 51.1252 11.5794 592 102.556 659.574 498.458
1955 0 53.0298 13.351 708 99.291 659.322 497.045
1956 0 55.1203 13.534 746 100.176 657.69 492.898
1957 0 55.1902 13.4444 742 100.507 657.543 491.195
1958 0 56.1418 13.359 750 101.484 657.845 490.252
1959 0 59.1024 14.1788 838 97.9451 659.448 490.033
1960 0 58.0609 12.728 739 101.992 659.426 488.924
1961 0 63.1284 13.9557 881 99.6958 659.527 486.41
1962 0 65.1032 14.285 930 101.254 660.29 484.995
1963 0 66.1644 13.7083 907 102.787 661.615 485.32
1964 0 71.167 14.3044 1018 100.892 663.248 484.198
1965 0 74.1361 14.6622 1087 99.3431 665.988 484.362
1966 0 76.1466 14.2226 1083 101.836 666.566 483.923
1967 0 78.0816 14.5361 1135 101.915 667.078 482.144
1968 0 81.1257 14.7179 1194 101.378 667.75 482.913
1969 0 83.2119 13.8922 1156 103.688 668.111 481.581
1970 0 89.1026 13.9278 1241 103.45 668.731 480.536
1971 0 92.3611 13.7612 1271 103.668 667.302 481.428
1972 1 49.1153 10.0783 495 106.172 667.606 502.42
1973 0 55.2715 11.1993 619 103.09 665.607 501.889
1974 0 56.2251 13.2681 746 100.814 664.98 498.705
1975 0 59.1488 14.0831 833 99.6062 664.868 496.858
1976 0 60.1081 13.5589 815 101.261 662.849 496.281
1977 0 65.2197 14.1982 926 100.098 661.26 493.083
1978 0 68.1846 13.0528 890 102.362 659.771 490.583
1979 0 70.1574 14.5815 1023 100.972 658.056 487.273
1980 0 74.2967 14.1056 1048 102.804 658.46 484.84
1981 0 76.4174 14.3816 1099 102.827 657.549 481.55
1982 0 80.257 15.6497 1256 99.9658 657.427 479.389
1983 0 82.2602 14.5878 1200 103.155 657.003 477.159
1984 0 85.3417 14.8814 1270 102.468 657.255 474.445
1985 0 86.3673 13.8478 1196 105.951 658.671 471.348
1986 0 91.3621 14.7216 1345 103.661 658.003 469.324
1987 1 49.1758 9.0695 446 105.852 660.078 493.762
1988 0 51.2589 11.4907 589 104.246 660.598 489.334
1989 0 53.1782 10.305 548 102.391 662.429 489.929
1990 0 55.3887 11.32 627 99.6906 663.67 489.71
1991 0 59.5681 13.43 800 96.8562 665.582 488.749
1992 0 61.1163 13.4007 819 97.0232 666.426 487.364
1993 0 64.2948 13.7181 882 95.9921 668.703 488.49
1994 0 67.1037 13.1587 883 96.8007 669.583 487.4
1995 0 70.1175 13.948 978 95.5634 670.308 487.881
1996 0 72.1698 12.3182 889 99.4803 670.633 487.44
1997 0 76.1585 13.2356 1008 98.1468 670.89 487.51
1998 0 79.2974 13.7205 1088 97.682 670.337 485.226
1999 0 84.3582 13.8813 1171 98.2229 669.542 484.056
2000 0 85.5664 13.9073 1190 100.167 669.471 482.915
2001 0 91.8062 14.8465 1363 98.0836 668.024 480.076
2002 1 49.4999 11.7374 581 99.6936 668.22 500.898
2003 0 49.4828 11.5596 572 102.082 666.706 499.313
2004 0 52.3384 12.1326 635 100.454 664.244 498.528
2005 0 56.384 13.7096 773 96.2251 662.957 497.109
2006 0 58.3855 14.507 847 95.7651 661.542 494.469
2007 0 60.0904 14.1454 850 98.4847 659.926 491.487
2008 0 62.0925 13.802 857 99.7013 658.818 490.634
2009 0 63.2032 13.9075 879 99.7918 658.835 486.449
2010 0 65.0747 13.108 853 101.902 658.083 483.773
2011 0 68.0709 15.3076 1042 98.0969 659.977 482.631
2012 0 70.1708 15.8755 1114 95.4847 661.632 479.667
2013 0 71.1738 13.7129 976 101.957 662.221 478.784
2014 0 76.0772 15.1556 1153 98.4111 661.263 477.962
2015 0 76.0587 15.0016 1141 100.188 662.417 476.846
2016 0 80.0893 13.9095 1114 101.914 662.97 476.013
2017 0 82.1659 14.3612 1180 100.959 663.848 475.958
2018 0 85.1687 15.4517 1316 99.5129 665.929 473.166
2019 0 88.117 14.912 1314 100.132 667.945 472.538
2020 0 91.2028 14.7693 1347 100.852 669.575 472.804
2021 0 97.1878 14.5183 1411 98.1743 670.89 474.018
2022 1 46.0311 11.666 537 100.942 672.551 497.631
2023 0 47.0388 11.0335 519 104.563 673.006 496.967
2024 0 51.0168 11.8588 605 101.942 672.238 498.645
2025 0 53.0864 14.467 768 96.4401 671.892 496.576
2026 0 55.1175 13.7887 760 100.005 672.626 496.525
2027 0 58.0554 14.3828 835 98.7365 671.605 496.798
2028 0 61.1425 15.2431 932 97.6867 671.275 496.842
2029 0 64.1421 13.891 891 99.3603 669.782 494.889
2030 0 66.1151 14.505 959 99.0417 668.799 493.186
2031 0 69.1877 15.3496 1062 97.3324 666.755 491.951
2032 0 70.1139 13.7205 962 103.183 665.408 488.105
2033 0 73.2249 14.353 1051 103.037 663.783 488.512
2034 0 75.104 14.2735 1072 104.178 662.09 484.53
2035 0 80.1293 16.2987 1306 98.1531 660.466 481.692
2036 0 81.2871 14.6026 1187 104.126 660.269 479.216
2037 1 41.0647 10.8122 444 106.601 661.054 498.453
2038 0 45.09 10.8671 490 105.286 661.774 497.043
2039 0 45.1401 12.4501 562 102.566 661.016 494.176
2040 0 48.0939 12.33 593 102.273 661.833 493.476
2041 0 49.1624 12.9367 636 99.6918 661.726 492.481
2042 0 49.3254 12.2249 603 102.096 661.647 491.284
2043 0 52.1529 14.2657 744 98.6734 663.43 488.156
2044 0 55.0982 13.0131 717 100.538 664.59 489.554
2045 0 58.0934 14.821 861 96.3159 666.022 490.314
2046 0 59.0992 14.8564 878 96.0159 667.293 489.661
2047 0 62.0564 14.938 927 95.9568 669.877 488.641
2048 0 63.047 14.402 908 97.5562 671.338 488.035
2049 0 68.0611 15.9563 1086 92.7652 672.726 489.301
2050 0 67.1256 13.9291 935 97.8599 673.56 488.645
2051 0 73.2095 14.438 1057 96.4806 673.324 490.797
2052 0 76.1683 15.9909 1218 94.8498 674.032 489.25
2053 0 78.2668 14.3867 1126 98.9361 672.361 487.763
2054 1 43.0643 11.657 502 103.329 671.41 506.763
2055 0 46.0834 11.2188 517 100.292 669.996 506.238
2056 0 47.401 10.5905 502 103.161 667.484 504.51
2057 0 51.2176 12.5933 645 100.329 666.338 502.152
2058 0 51.1149 13.949 713 100.362 665.45 500.283
2059 0 53.1369 13.2676 705 104.654 662.434 501.513
2060 0 57.0692 15.6477 893 99.3942 661.863 497.964
2061 0 60.0902 15.327 921 99.7904 659.836 496.445
2062 0 60.159 13.4477 809 105.303 658.941 494.41
2063 0 65.277 14.0938 920 102.351 659.573 491.683
2064 0 67.2269 13.7743 926 101.955 658.451 489.506
2065 0 69.1768 14.1232 977 102.376 658.132 487.51
2066 0 73.1542 15.2691 1117 98.9427 658.355 485.617
2067 0 77.2302 14.7611 1140 98.536 659.373 483.769
2068 0 79.409 15.0109 1192 98.6737 660.435 480.838
2069 1 41.1895 10.9737 452 100.491 661.4 501.181
2070 0 46.1136 10.9946 507 101.799 660.558 497.195
2071 0 47.2126 11.3741 537 99.9423 660.441 498.916
2072 0 49.094 13.5658 666 97.47 661.805 497.171
2073 0 49.2439 12.6716 624 98.2997 663.064 492.106
2074 0 53.3848 12.925 690 98.0319 666.575 490.555
2075 0 55.0965 13.431 740 95.5703 667.58 497.876
2076 0 57.1125 14.06 803 93.2628 667.872 498.508
2077 0 59.1704 13.7062 811 94.0247 668.911 499.554
2078 0 60.1014 13.627 819 95.6129 670.109 497.658
2079 0 65.2135 13.8008 900 93.9922 669.254 498.8
2080 0 66.103 13.7361 908 95.304 668.638 497.997
2081 0 69.1598 14.3002 989 94.6198 667.129 495.818
2082 1 38.1102 10.2072 389 97.2802 665.154 514.234
2083 0 40.0263 9.71861 389 100.573 663.44 512.825
2084 0 42.0307 11.563 486 97.7449 663.237 511.761
2085 0 43.175 12.0672 521 97.5969 663.211 509.424
2086 0 43.4327 12.387 538 99.9981 661.502 506.056
2087 0 46.35 14.0022 649 95.1541 660.541 504.006
2088 0 50.0733 13.5402 678 95.1593 658.509 502.676
2089 0 51.1089 13.5788 694 95.9784 657.719 500.317
2090 0 52.1647 13.2082 689 96.9086 657.196 497.409
2091 0 54.1251 12.8591 696 96.4813 657.589 495.96
2092 0 57.1722 13.1183 750 96.3747 657.244 492.939
2093 0 57.0821 12.8061 731 97.2982 657.479 489.995
2094 0 62.1316 13.5358 841 95.8716 658.39 486.954
2095 0 64.2306 14.3701 923 94.3012 659.214 487.353
2096 0 66.1231 14.2008 939 94.7721 659.58 485.011
2097 0 66.1368 13.215 874 98.294 659.89 482.201
2098 0 70.2399 14.3224 1006 95.7127 660.644 481.618
2099 0 72.1577 15.8126 1141 94.3795 661.753 479.449
2100 0 75.133 15.1598 1139 96.2678 661.737 480.686
2101 0 79.194 14.1299 1119 97.6381 664.228 480.554
2102 0 82.2864 14.9721 1232 96.6226 666.358 478.938
2103 1 45.1119 10.1304 457 99.5492 667.497 498.722
2104 0 46.1056 11.8857 548 96.7135 670.027 499.157
2105 0 48.3263 12.7674 617 94.4878 671.483 500.856
2106 0 48.25 11.627 561 99.3333 671.462 498.925
2107 0 51.279 12.2857 630 97.4825 672.451 498.252
2108 0 54.3353 13.5823 738 95.7412 672.21 497.863
2109 0 55.1369 12.877 710 98.6746 672.272 498.097
2110 0 58.1226 13.4543 782 97.1547 670.513 498.531
2111 0 61.2603 14.6588 898 95.4265 670.034 497.908
2112 0 64.1007 14.9608 959 94.1199 668.502 499.021
2113 0 66.0901 15.5697 1029 94.3732 667.802 495.398
2114 0 67.1193 13.6324 915 99.8765 666.167 492.705
2115 0 71.1333 14.8454 1056 97.1695 664.902 489.852
2116 0 75.2388 14.8461 1117 97.1352 663.048 486.307
2117 0 78.2534 15.2453 1193 96.3571 662.78 483.479
2118 0 83.2641 14.7362 1227 96.075 662.257 482.371
2119 1 42.1632 11.1471 470 98.6489 663.543 500.504
2120 0 43.1916 12.433 537 96.6816 663.27 497.896
2121 0 46.1084 12.3188 568 95.713 662.877 497.007
2122 0 47.0692 11.8336 557 97.921 663.041 494.199
2123 0 49.0608 15.1241 742 93.1631 662.214 492.468
2124 0 52.0367 13.6634 711 95.2883 662.785 490.8
2125 0 53.0386 13.7258 728 95.4231 662.276 490.431
2126 0 53.1062 13.7649 731 94.0944 662.372 491.202
2127 0 57.0982 14.3962 822 93.073 663.253 489.033
2128 0 59.0678 14.441 853 92.9203 665.136 487.336
2129 0 61.1732 14.8431 908 92.5551 666.672 486.613
2130 0 63.0493 13.8146 871 92.9323 668.69 488.428
2131 0 64.0879 13.6843 877 93.7993 670.114 487.001
2132 0 66.0344 13.9321 920 95.7956 671.863 486.783
2133 0 68.0554 14.0474 956 95.2427 672.871 488.725
2134 0 70.0539 13.404 939 97.3024 673.202 486.945
2135 1 38.0265 9.3356 355 96.5268 673.792 506.358
2136 0 38.0803 10.6617 406 96.0271 673.438 506.557
2137 0 42.0464 10.7025 450 95.4689 673.144 507.618
2138 0 45.0857 12.4208 560 93.6446 671.83 506.404
2139 0 45.0348 12.5903 567 95.2857 670.543 505.381
2140 0 49.0945 11.8547 582 95.1684 668.318 506.536
2141 0 51.1849 13.5001 691 93.5195 667.084 504.551
2142 0 53.1212 14.5328 772 88.57 666.28 503.188
2143 0 55.2281 12.548 693 92.9293 665.48 501.786
2144 0 56.141 14.6773 824 91.3811 662.888 499.261
2145 0 59.2497 15.3418 909 90.4059 662.134 497.118
2146 0 59.1803 14.177 839 94.851 661.08 494.644
2147 0 62.1423 15.7863 981 91.9552 661.109 493.687
2148 0 63.4208 15.0739 956 94.7803 661.082 490.094
2149 0 65.2125 13.663 891 100.052 660.827 489.557
2150 0 66.2051 13.6545 904 101.216 660.079 487.221
2151 0 72.1728 14.8671 1073 98.0578 660.073 486.026
2152 0 73.2064 14.8484 1087 99.2815 660.248 481.483
2153 0 75.2685 15.3052 1152 99.5417 660.115 480.059
2154 0 78.1512 16.852 1317 96.7456 660.225 479.133
2155 0 79.3245 15.0647 1195 101.626 660.792 477.09
2156 0 83.3645 14.8984 1242 99.7214 661.559 476.481
2157 0 86.3384 15.1497 1308 101.071 662.158 474.459
2158 0 88.218 15.099 1332 102.372 664.068 472.023
2159 0 93.2373 15.9378 1486 99.9098 665.759 471.603
2160 1 49.2433 9.9709 491 104.929 667.697 494.99
2161 0 54.1523 12.4464 674 98.908 667.669 494.642
2162 0 54.1005 12.2735 664 97.5753 671.444 494.672
2163 0 55.0688 12.5843 693 99.9639 671.398 495.442
2164 0 60.142 13.8007 830 95.9819 671.549 494.9
2165 0 63.0955 14.3275 904 93.6858 672.299 492.964
2166 0 65.1327 12.6818 826 96.9504 671.76 493.212
2167 0 66.0717 12.441 822 98.6265 670.165 491.63
2168 0 70.2013 13.6322 957 97.2351 668.738 491.235
2169 0 73.2986 12.3877 908 99.4515 667.683 491.387
2170 0 76.308 13.6945 1045 97.401 666.552 488.927
2171 1 45.1047 10.3537 467 95.8694 665.833 504.687
2172 0 44.2202 10.018 443 98.4176 665.323 502.242
2173 0 48.1895 11.8698 572 94.3566 664.337 500.563
2174 0 49.188 11.019 542 97.0111 662.779 498.105
2175 0 52.177 10.9818 573 96.8168 662.202 495.991
2176 0 52.2376 12.692 663 95.5008 661.846 493.148
2177 0 56.0663 12.9489 726 94.8678 660.842 490.402
2178 0 58.1397 13.9664 812 91.947 662.302 489.251
2179 0 59.1883 13.7696 815 92.481 662.164 486.845
2180 0 61.0638 12.3641 755 96.6424 662.085 485.377
2181 0 63.1476 12.5737 794 96.7494 662.645 482.321
2182 0 66.2151 13.2598 878 93.8519 662.797 481.883
2183 0 70.1958 12.7785 897 93.8339 663.388 481.089
2184 0 72.2325 13.8442 1000 91.962 664.246 479.382
2185 0 74.3045 14.4675 1075 91.4688 665.205 479.554
2186 1 35.1368 8.99341 316 93.712 667.57 498.953
2187 0 39.2975 8.5756 337 94.2997 669.448 499.875
2188 0 41.1574 9.96175 410 94.2976 671.661 499.2
2189 0 43.4039 10.8746 472 91.875 673.943 499.553
2190 0 45.4107 12.0016 545 90.8275 674.618 499.503
2191 0 47.177 11.6794 551 89.8367 674.474 500.884
2192 0 48.1915 12.0976 583 91.2367 674.249 500.762
2193 0 48.13 11.5728 557 94.4865 674.481 501.598
2194 0 52.2119 13.8857 725 90.771 673.003 500.392
2195 0 53.0811 13.5265 718 92.663 671.886 500.98
2196 0 56.1345 14.9106 837 91.4313 670.416 500.464
2197 0 58.1728 13.0301 758 95.4789 669.276 499.265
2198 0 62.2617 14.1018 878 93.2175 668.219 497.985
2199 0 62.1806 13.509 840 98.4345 667.176 496.106
2200 0 66.2436 13.9032 921 97.1835 665.819 492.934
2201 0 67.3162 13.1469 885 99.3153 664.339 490.672
2202 1 38.0368 10.0692 383 93.3264 664.444 506.428
2203 0 37.0098 10.2946 381 97.9869 663.483 503.882
2204 0 40.0475 11.4614 459 96.4444 663.658 501.17
2205 0 42.099 11.6867 492 95.815 663.27 499.77
2206 0 43.0568 13.1686 567 94.6332 662.735 496.66
2207 0 43.0564 12.472 537 97.432 662.912 495.276
2208 0 45.122 13.4081 605 96.2331 662.77 494.223
2209 0 45.1034 12.5711 567 97.8148 663.33 492.016
2210 0 50.1159 13.6085 682 93.1833 663.409 493.371
2211 0 48.264 13.8406 668 96.774 663.262 492.802
2212 0 51.1318 12.7123 650 99.2123 663.502 492.3
2213 0 54.2194 13.5376 734 95.8174 665.824 491.828
2214 0 55.1929 13.4981 745 96.3047 667.109 491.153
2215 0 56.0939 13.5309 759 97.4058 668.502 491.59
2216 0 59.0986 14.8734 879 93.7224 669.994 491.512
2217 1 29.0389 8.85021 257 97.5448 672.455 508.907
2218 0 32.0333 11.1135 356 96.7022 672.829 506.062
2219 0 35.1947 10.7971 380 97.5158 675.642 506.947
2220 0 38.0673 10.7179 408 96.0613 675.549 508.877
2221 0 38.0388 11.9615 455 95.9033 675.58 507.251
2222 0 40.1668 13.5186 543 94.3223 674.07 506.733
2223 0 40.3922 12.7252 514 95.0331 671.331 507.924
2224 0 43.2343 14.1786 613 92.2382 669.79 508.48
2225 0 44.2142 13.7739 609 93.9606 668.466 506.117
2226 0 45.1772 13.2368 598 94.9967 667.02 505.798
2227 0 49.1839 15.1676 746 90.5375 665.718 505.188
2228 0 51.0448 13.9094 710 93.5958 663.97 502.949
2229 0 52.1717 14.8548 775 93.4761 662.752 500.034
2230 0 54.151 14.6627 794 93.8464 661.968 498.312
2231 0 55.0845 14.2327 784 94.8189 660.911 496.974
2232 0 56.1623 12.998 730 97.4767 661.006 491.089
2233 0 57.1266 12.4986 714 98.451 660.732 491.805
2234 0 61.1294 13.3978 819 97.2503 659.796 488.121
2235 0 64.1594 13.9496 895 95.6536 660.342 485.448
2236 1 31.0242 11.7005 363 98.4132 661.975 499.51
2237 0 34.0185 8.99509 306 99.7745 662.252 500.605
2238 0 37.0523 10.4717 388 97.7784 664.621 499.979
2239 0 37.0701 10.5206 390 97.8538 665.133 498.836
2240 0 38.0125 13.101 498 94.7771 665.787 499.034
2241 0 42.1123 13.464 567 91.4991 666.958 500.076
2242 0 40.1634 12.6732 509 95.5481 669.03 498.442
2243 0 42.1249 13.2938 560 94.0732 671.046 499.893
2244 0 45.1205 13.1426 593 94.1298 671.895 500.376
2245 0 42.1182 12.1325 511 99.3092 672.695 500.207
2246 0 48.199 14.0459 677 94.0354 673.635 500.703
2247 0 49.0851 13.935 684 94.576 674.058 501.484
2248 0 51.1609 13.2719 679 95.4168 673.742 502.063
2249 0 51.1844 12.0545 617 99.107 672.391 501.541
2250 0 55.117 12.918 712 97.6699 671.379 503.628
2251 0 57.1329 13.9674 798 96.7506 670.066 502.288
2252 0 58.1783 14.4384 840 97.5964 669.281 499.545
2253 0 62.0765 15.7064 975 96.081 667.293 498.148
2254 0 64.2834 13.5805 873 100.973 665.617 497.306
2255 0 68.1295 16.3512 1114 96.0601 664.11 494.281
2256 0 69.2016 13.8581 959 102.63 662.861 491.966
2257 1 37.0952 10.9987 408 105.836 660.662 506.777
2258 0 40.0328 11.4406 458 103.721 659.677 505.207
2259 0 41.0723 10.6641 438 105.646 658.616 502.326
2260 0 43.0814 12.0006 517 103.988 658.704 501.023
2261 0 45.0956 13.1055 591 100.826 659.313 498.472
2262 0 46.2229 12.007 555 102.013 659.966 496.296
2263 0 46.124 13.2035 609 100.744 661.496 494.401
2264 0 51.0574 14.944 763 96.0039 660.299 492.684
2265 0 51.0715 13.9217 711 99.0591 661.662 491.616
2266 0 51.0887 13.2123 675 101.704 662.267 488.293
2267 0 54.1997 12.8414 696 100.713 662.865 490.682
2268 0 57.1803 14.1132 807 98.995 664.718 488.036
2269 0 59.1736 14.9729 886 97.5045 666.081 487.082
2270 0 61.2016 15.114 925 96.0108 667.598 489.194
2271 0 63.1242 13.9091 878 99.1093 669.907 487.246
2272 0 67.1915 15.6865 1054 95.4535 671.058 487.652
2273 0 70.1991 14.7295 1034 96.8888 672.752 486.826
2274 0 73.2272 14.6667 1074 97.6043 673.466 486.05
2275 0 75.1507 14.4377 1085 99.1788 673.594 485.53
2276 0 76.1131 13.3091 1013 102.627 674.358 481.902
2277 0 80.1812 14.3799 1153 100.709 673.508 483.961
2278 0 85.3038 13.1178 1119 102.485 671.778 485.568
2279 0 90.4211 12.2206 1105 104.41 672.062 483.979
2280 1 52.1835 11.4787 599 99.8464 670.663 503.85
2281 0 53.2373 11.7023 623 102.477 669.833 500.9
2282 0 51.2015 8.1443 417 106.118 669.312 502.293
2283 0 57.2146 13.8426 792 97.9697 666.917 497.247
2284 0 59.3797 12.8158 761 99.5742 666.208 495.11
2285 0 61.2359 12.0028 735 101.318 664.865 493.691
2286 0 64.2987 12.5508 807 100.224 664.001 490.435
2287 0 67.3673 14.6362 986 97.575 663.201 487.44
2288 0 70.2615 12.5958 885 103.444 663.159 484.216
2289 0 72.3138 13.8563 1002 101.447 663.466 480.759
2290 0 74.4268 12.4686 928 103.064 663.612 480.024
2291 0 78.368 14.9678 1173 99.5661 663.99 475.114
2292 0 81.2813 14.4068 1171 100.606 663.468 472.853
2293 0 83.5021 14.1434 1181 102.507 664.477 470.532
2294 0 85.4836 12.2597 1048 106.122 664.351 468.82
2295 0 90.736 13.8644 1258 102.607 665.679 470.138
2296 0 92.5253 13.9638 1292 104.545 665.815 465.151
2297 0 97.794 16.228 1587 100.059 668.065 465.805
2298 0 99.5912 13.3345 1328 106.471 669.708 462.774
2299 0 104.546 14.5008 1516 103.639 672.419 464.103
2300 0 107.517 14.0164 1507 104.923 674.599 462.303
2301 0 112.667 15.2396 1717 103.879 673.822 461.025
2302 0 116.422 13.9407 1623 105.378 675.803 459.004
2303 0 121.631 13.3107 1619 106.859 676.888 459.25
2304 0 127.42 13.7341 1750 106.888 675.962 460.185
2305 1 67.2702 10.822 728 104.062 675.966 491.648
2306 0 72.2417 11.3646 821 103.118 675.267 489.95
2307 0 78.3467 11.8065 925 104.845 674.291 486.512
2308 0 82.2713 14.513 1194 102.435 672.416 485.562
2309 0 85.375 14.6647 1252 102.991 671.752 485.015
2310 0 87.5398 14.4049 1261 107.12 670.119 478.288
2311 0 91.6322 14.711 1348 108.062 668.236 474.378
2312 0 96.5453 15.1224 1460 108.079 666.34 472.536
2313 0 98.4956 13.8991 1369 112.066 664.955 471.224
2314 0 101.56 16.0792 1633 109.733 663.629 465.113
2315 0 104.442 13.079 1366 115.568 663.655 465.995
2316 0 108.333 15.7939 1711 111.324 663.908 461.12
2317 0 112.708 15.03 1694 113.467 662.537 456.377
2318 1 58.3293 10.355 604 115.369 661.899 483.44
2319 0 61.3663 10.9017 669 115.474 662.413 480.849
2320 0 63.1088 11.9635 755 114.841 664.005 480.899
2321 0 67.2003 14.5535 978 110.555 665.463 477.891
2322 0 71.0532 13.314 946 112.853 667.342 477.901
2323 0 73.0969 14.7886 1081 109.287 668.198 477.221
2324 0 74.038 12.372 916 112.906 668.972 477.009
2325 0 77.2193 13.2091 1020 115.03 669.422 474.989
2326 0 81.2337 13.5658 1102 114.165 671.801 472.55
2327 0 88.4001 15.5995 1379 108.784 674.191 472.771
2328 0 89.2607 13.455 1201 113.503 675.833 473.052
2329 0 95.3546 14.1996 1354 112.154 677.298 473.251
2330 0 98.1557 13.0507 1281 113.403 677.695 472.278
2331 0 100.364 11.2889 1133 116.279 677.576 471.96
2332 0 104.149 12.3958 1291 115.435 677.926 470.239
2333 0 110.419 12.679 1400 114.024 676.437 469.084
2334 0 116.464 13.6781 1593 113.471 675.662 467.006
2335 0 122.308 15.7635 1928 110.512 674.26 462.149
2336 1 66.2204 10.1026 669 111.387 673.008 494.495
2337 0 68.2705 10.4145 711 112.203 671.193 487.79
2338 0 72.1858 13.0774 944 110.875 669.907 486.787
2339 0 79.2783 14.241 1129 105.733 668.401 484.637
2340 0 80.4121 14.463 1163 107.902 667.166 482.224
2341 0 83.3573 14.7198 1227 107.338 666.734 481.261
2342 0 87.607 14.0286 1229 110.313 665.908 477.651
2343 0 89.702 11.8615 1064 115.056 664.698 474.026
2344 0 91.4088 11.5416 1055 118.415 663.966 469.008
2345 0 95.5576 12.4428 1189 118.484 662.958 466.793
2346 0 99.8182 13.1339 1311 116.38 663.983 461.388
2347 0 102.481 14.7443 1511 116.094 664.642 460.625
2348 0 104.837 13.0489 1368 119.219 664.26 457.787
2349 0 109.501 15.8263 1733 114.245 664.898 455.92
2350 0 113.612 14.4086 1637 119.39 665.407 454.607
2351 0 117.716 14.3651 1691 119.668 667.717 455.821
2352 0 121.575 13.7199 1668 121.898 667.293 451.936
2353 0 124.741 11.7203 1462 125.736 669.304 452.417
2354 1 65.2891 12.1613 794 115.297 671.894 483.53
2355 0 69.1746 13.4298 929 115.332 673.996 482.068
2356 0 71.3282 12.5617 896 116.062 674.655 486.058
2357 0 75.2624 13.1008 986 116.674 675.136 485.455
2358 0 79.3643 11.6803 927 120.649 675.094 482.133
2359 1 41.3109 10.9414 452 113.675 676.312 504.234
2360 0 42.2952 11.5379 488 114.307 676.291 503.936
2361 0 42.1428 8.73222 368 119.728 673.774 506.88
2362 0 45.2663 10.5155 476 119.351 673.063 504.613
2363 0 47.1948 11.0817 523 119.572 671.149 503.92
2364 0 48.1309 11.718 564 119.064 669.465 501.16
2365 0 50.0828 12.5193 627 118.167 666.778 500.976
2366 0 51.2466 13.9326 714 113.773 667.105 499.188
2367 0 52.1088 12.0901 630 120.725 665.498 495.875
2368 0 55.2393 13.0523 721 119.37 663.631 495.381
2369 0 57.2397 12.701 727 121.796 662.128 492.492
2370 0 58.2124 13.6054 792 121.804 661.066 491.926
2371 0 63.3799 14.1212 895 120.426 660.94 487.598
2372 0 62.1307 12.9727 806 124.53 661.404 485.761
2373 0 66.0976 14.3273 947 124.433 661.563 483.977
2374 0 68.167 13.819 942 125.817 661.774 482.512
2375 0 69.1431 12.5392 867 129.699 662.035 480.472
2376 0 71.2014 13.0896 932 129.796 662.638 478.77
2377 0 75.1274 14.349 1078 128.703 663.45 477.722
2378 0 79.0516 14.1806 1121 129.252 665.006 478.097
2379 0 81.1067 13.809 1120 129.759 666.777 475.042
2380 1 43.0245 8.87867 382 128.866 667.479 496.505
2381 0 44.0977 10.8396 478 128.699 668.052 494.209
2382 0 46.0753 11.3076 521 128.457 670.653 494.138
2383 0 48.4753 13.2851 644 123.613 672.526 494.23
2384 0 50.0235 12.4142 621 124.026 674.217 496.649
2385 0 52.1358 12.3715 645 124.764 675.095 496.89
2386 0 53.0537 12.6099 669 123.589 675.564 497.314
2387 0 57.0564 12.5139 714 124.071 674.396 496.501
2388 0 59.1189 12.6863 750 126.443 673.087 495.248
2389 0 64.0856 15.1204 969 120.357 672.546 495.794
2390 0 66.0671 12.7598 843 126.682 671.459 494.625
2391 0 68.0769 12.4712 849 126.185 670.263 494.337
2392 0 73.1217 13.8947 1016 124.006 668.645 490.245
2393 1 40.0462 7.89088 316 130.623 667.642 503.703
2394 0 44.0658 8.60077 379 127.158 666.525 504.768
2395 0 42.0466 9.48948 399 129.376 664.972 500.591
2396 0 44.0726 9.62048 424 129.519 663.611 497.526
2397 0 46.2208 11.3802 526 125.356 661.378 496.49
2398 0 49.0961 11.6506 572 122.75 660.187 495.442
2399 0 49.0538 11.9664 587 124.913 661.489 492.349
2400 0 49.045 12.6618 621 125.008 661.572 489.771
2401 0 55.0279 12.6663 697 121.204 662.591 491.468
2402 0 57.071 12.353 705 123.277 661.965 487.824
2403 0 58.0268 11.9945 696 124.855 662.398 487.488
2404 0 59.0266 10.707 632 128.465 663.057 482.589
2405 0 63.0262 12.5662 792 124.36 664.391 483.388
2406 0 64.0718 11.9241 764 126.342 664.969 481.462
2407 0 68.0655 12.1648 828 123.795 666.238 482.605
2408 0 70.1129 10.8682 762 128.055 667.816 481.591
2409 0 74.1071 13.5075 1001 122.417 669.839 480.265
2410 1 39.0259 9.19903 359 126.602 672.201 498.156
2411 0 42.0237 10.9224 459 121.885 673.392 500.577
2412 0 42.0313 9.23122 388 125.371 674.077 502.286
2413 0 45.063 10.5186 474 125.741 673.656 499.996
2414 0 47.243 12.1076 572 123.843 672.301 500.455
2415 0 48.2241 10.2646 495 123.117 670.974 501.222
2416 0 50.2986 12.7439 641 121.479 671.108 500.604
2417 0 51.2542 11.0625 567 127.002 670.427 499.621
2418 0 55.3447 13.6056 753 121.886 669.495 499.215
2419 0 56.2712 13.6837 770 123.484 668.423 496.677
2420 0 58.2385 13.8568 807 124.078 666.953 493.902
2421 0 63.2437 13.2661 839 126.95 664.663 491.986
2422 0 63.1934 12.5329 792 130.453 663.064 487.758
2423 0 66.3154 12.908 856 130.569 662.825 487.091
2424 0 69.2907 14.0712 975 128.563 662.204 484.384
2425 0 71.2722 15.083 1075 127.025 662.166 479.864
2426 0 74.2243 15.5609 1155 127.943 661.623 475.137
2427 0 75.4706 12.7864 965 134.382 662.906 474.571
2428 0 78.2845 13.4893 1056 133.237 662.817 472.34
2429 0 80.3611 12.2323 983 135.768 663.299 468.217
2430 1 44.0409 10.0588 443 132.492 665.506 489.395
2431 0 46.0583 8.66294 399 133.692 665.426 487.97
2432 0 47.0618 11.3043 532 122.733 666.701 488.991
2433 0 50.0534 13.7653 689 123.469 668.639 487.91
2434 0 49.1294 10.5843 520 124.819 669.937 489.496
2435 0 51.1031 9.68631 495 128.206 671.22 484.586
2436 0 53.1279 11.35 603 125.615 673.063 486.92
2437 0 54.0921 11.1107 601 125.153 675.328 486.905
2438 0 57.1939 10.9452 626 128.712 675.161 485.078
2439 0 58.0897 11.7577 683 126.347 676.649 486.174
2440 0 64.167 13.0908 840 121.249 677.361 485.961
2441 0 67.0898 11.9392 801 126.107 677.261 488.815
2442 0 70.0417 12.6211 884 126.77 676.775 486.405
2443 0 74.2058 12.4519 924 128.271 675.412 486.058
2444 1 38.0618 6.35809 242 130.099 674.45 505.231
2445 0 41.0917 10.9998 452 121.993 672.83 504.604
2446 0 42.0425 7.25457 305 126 671.348 506.502
2447 0 43.0763 10.7252 462 122.866 670.697 502.918
2448 0 45.1789 10.9343 494 124.326 668.399 497.292
2449 0 49.4012 12.105 598 122.032 665.558 495.015
2450 0 50.2999 12.0875 608 121.801 664.707 490.289
2451 0 50.1091 8.78085 440 126.386 664.536 494.134
2452 0 54.123 11.4184 618 123.494 666.812 488.639
2453 0 53.1225 11.4641 609 124.084 665.463 485.7
2454 0 58.0554 12.9704 753 121.179 665.097 483.837
2455 0 61.1209 11.6818 714 123.112 665.698 482.08
2456 0 63.1456 13.2234 835 118.713 665.37 479.802
2457 0 63.13 10.6922 675 125.473 668.002 480.59
2458 0 68.1802 11.3963 777 124.672 668.93 478.721
2459 0 73.1424 13.0977 958 123.33 669.718 475.05
2460 0 72.0656 11.0871 799 128.469 670.886 473.67
2461 0 75.0893 11.2399 844 128.944 672.554 473.756
2462 1 42.058 11.1037 467 119.227 674.21 496.304
2463 0 44.133 11.8279 522 120.96 676.059 493.816
2464 0 43.0586 10.3115 444 123.619 675.847 497.498
2465 0 44.3896 11.3991 506 122.708 674.308 497.059
2466 0 46.1781 12.4301 574 122.341 674.904 498.787
2467 0 47.256 11.9561 565 125.366 675.087 497.423
2468 0 48.2744 11.6832 564 124.656 675.199 497.915
2469 0 52.1392 12.0639 629 124.897 675.021 499.326
2470 0 53.1926 14.2313 757 121.721 674.287 499.736
2471 0 56.1852 13.7047 770 124.316 673.043 500.709
2472 0 55.1243 11.0115 607 131.331 670.746 500.02
2473 0 59.2762 12.9394 767 129.804 669.245 494.915
2474 0 61.1228 12.0904 739 131.909 668.168 493.836
2475 0 64.3051 13.9958 900 131.196 667.493 489.596
2476 0 66.3127 13.557 899 132.675 665.895 489.353
2477 0 66.2741 12.7953 848 133.967 664.787 486.499
2478 0 69.3785 13.4624 934 134.814 663.943 480.031
2479 0 72.4021 11.9472 865 137.614 664.669 480.539
2480 0 75.4481 12.2071 921 136.091 664.313 474.901
2481 0 78.2954 13.3341 1044 135.488 664.572 474.619
2482 0 83.2488 13.79 1148 135.62 665.121 471.685
2483 0 86.1559 13.3363 1149 137.482 665.024 470.257
2484 1 47.0345 11.1408 524 133.592 667.473 489.725
2485 0 48.1476 11.9217 574 131.78 667.284 487.887
2486 0 51.1936 12.1304 621 129.465 668.071 488.852
2487 0 52.369 13.1566 689 129.614 669.244 485.488
2488 0 53.0577 13.2686 704 130.645 670.92 486.955
2489 0 55.1153 13.6804 754 129.824 672.771 488.57
2490 0 57.0628 12.863 734 132.426 674.099 487.358
2491 0 62.174 16.0035 995 120.667 676.046 489.336
2492 0 62.244 16.0979 1002 123.654 676.4 487.999
2493 0 66.1854 14.2327 942 127.258 676.86 489.461
2494 0 66.094 13.4657 890 131.113 676.242 489.038
2495 0 71.1135 14.3995 1024 128.06 677.262 487.862
2496 0 76.0633 16.0919 1224 122.912 676.33 488.972
2497 0 79.0468 16.3068 1289 120.335 674.366 486.577
2498 0 82.3097 14.494 1193 122.99 672.529 487.16
2499 1 46.0237 11.8634 546 122.152 671.046 504.711
2500 0 48.0525 12.1534 584 121.788 669.464 503.646
2501 0 51.0634 12.8859 658 123.707 668.202 499.391
2502 0 52.0802 11.8279 616 124.055 666.458 498.334
2503 0 51.2352 11.4179 585 127.268 665.691 494.239
2504 0 56.0914 12.8184 719 121.268 664.594 496.04
2505 0 58.2341 13.2568 772 121.742 663.95 488.532
2506 0 61.096 13.8471 846 118.838 663.17 487.884
2507 0 62.1049 12.7204 790 121.832 662.22 489.022
2508 0 64.1565 12.4695 800 122.636 663.264 485.132
2509 0 66.1484 13.9232 921 120.192 663.254 480.651
2510 0 69.1364 13.0322 901 121.892 664.497 478.948
2511 0 71.1832 14.2309 1013 118.883 665.092 476.928
2512 1 37.0477 5.56039 206 129.058 667.311 490.024
2513 0 42.0457 5.73186 241 121.187 668.22 493.888
2514 0 53.1218 6.24978 332 127.184 670.572 487.117
2515 0 50.0953 2.43536 122 132.746 671.451 487.451
2516 0 61.1459 6.08381 372 130.769 672.487 481.304
2517 0 71.1315 8.44914 601 126.997 674.063 480.567
2518 0 65.2215 4.72237 308 130.227 673.847 485.617
