time division length width area intensity CMx CMy
0 0 26.025 9.56773 249 142.984 587.233 350.048
1 0 26.068 10.2041 266 144.429 585.064 350.222
2 0 27.0368 10.6152 287 139.143 587.45 350.307
3 0 30.0407 11.1515 335 135.69 587.624 349.239
4 0 28.0194 11.5991 325 134.298 587.689 349.932
5 0 31.0076 11.997 372 129.403 586.704 349.425
6 0 28.0087 10.6753 299 137.749 586.843 348.619
7 0 28.0211 11.8125 331 137.637 586.281 346.949
8 0 33.0178 12.9627 428 128.773 586.565 346.855
9 0 34.0289 12.2543 417 128.875 587.014 346.969
10 0 33.0239 12.0519 398 130.329 586.857 345.749
11 0 35.2186 15.0489 530 121.757 585.706 344.992
12 0 35.1183 13.9244 489 125.697 587.483 344.624
13 0 35.015 13.8226 484 125.262 587.769 344.498
14 0 37.0569 13.3039 493 128.495 586.769 342.414
15 0 39.0977 14.3742 562 123.461 586.452 342.824
16 0 39.2092 14.5629 571 121.897 587.102 343.779
17 0 39.0942 15.1941 594 123.091 586.163 342.476
18 0 40.0972 14.5147 582 124.746 585.998 343.541
19 0 41.1023 14.3301 589 126.514 586.194 341.803
20 0 42.048 14.7688 621 125.106 585.816 341.224
21 0 42.1128 14.2949 602 128.721 586.252 340.839
22 0 42.1584 15.7027 662 124.542 586.962 339.31
23 0 48.086 14.9108 717 120.738 587.625 341.162
24 0 46.0912 16.0334 739 123.17 587.306 339.463
25 0 49.07 15.9772 784 121.497 587.658 338.753
26 0 48.1147 14.2784 687 128.766 589.814 337.758
27 0 50.0956 15.5303 778 125.004 590.176 337.463
28 0 51.109 16.1811 827 123.219 589.722 337.12
29 0 50.0928 15.2317 763 126.439 588.972 337.017
30 0 54.0672 16.313 882 121.647 590.213 335.79
31 0 56.1035 18.3054 1027 115.491 589.986 336.54
32 0 58.1203 14.8829 865 124.71 590.301 334.21
33 0 59.2091 16.94 1003 119.008 590.582 332.526
34 0 61.0972 17.0057 1039 117.882 590.58 334.275
35 0 62.1353 15.6594 973 123.283 591.61 332.384
36 0 66.0664 15.9537 1054 121.497 590.086 331.607
37 0 66.0718 16.2702 1075 122.877 590.329 328.67
38 0 67.1634 16.11 1082 123.218 590.281 327.833
39 0 72.0859 17.7566 1280 118.236 590.096 328.212
40 0 75.1457 16.661 1252 120.644 591.537 327.669
41 0 77.1514 17.0314 1314 119.61 591.106 326.992
42 1 42.0183 12.1376 510 123.629 592.096 345.061
43 0 40.056 12.7072 509 126.88 592.204 342.884
44 0 42.0873 13.1156 552 125.125 592.413 341.88
45 0 44.0693 13.6149 600 123.067 591.53 342.457
46 0 46.1989 14.2428 658 120.044 591.872 342.869
47 0 47.0736 13.1709 620 124.524 592.087 341.537
48 0 50.1966 15.3397 770 119.834 592.099 338.875
49 0 51.0846 15.2492 779 120.626 590.733 337.334
50 0 52.1218 15.5022 808 117.84 591.876 336.215
51 0 53.1772 14.1602 753 121.212 592.086 336.712
52 0 56.2501 16.1422 908 115.584 591.694 335.215
53 0 57.1111 15.9514 911 115.613 591.527 335.735
54 0 62.1963 15.7405 979 114.003 591.145 334.43
55 0 65.2165 16.5296 1078 112.092 591.614 334.02
56 0 65.1555 15.1484 987 116.246 591.145 333.218
57 0 66.0596 14.6988 971 118.576 592.007 330.332
58 0 68.1206 16.5589 1128 116.238 591.586 327.347
59 0 72.0877 16.3412 1178 116.078 592.091 327.158
60 0 73.1748 15.8525 1160 117.001 592.29 325.543
61 0 73.1748 15.8798 1162 152.781 594.297 325.462
62 1 42.0342 12.6088 530 115.645 592.845 341.164
63 0 45.029 13.1693 593 113.356 593.502 342.368
64 0 42.0427 13.2246 556 116.354 592.552 341.714
65 0 46.0322 15.0547 693 112.325 592.727 338.984
66 0 48.0466 13.2996 639 115.078 593.54 340.008
67 0 49.1387 13.4721 662 115.866 594.971 340.112
68 0 50.147 14.8763 746 111.861 594.446 339.563
69 0 52.0983 15.0677 785 111.538 594.911 338.741
70 0 55.1422 14.1996 783 115.829 593.571 336.945
71 0 53.1549 14.185 754 165.127 592.519 337.305
72 0 54.1359 14.8515 804 118.626 592.657 334.267
73 0 59.1375 16.5716 980 112.699 593.357 334.317
74 0 61.2035 16.584 1015 112.945 593.76 334.576
75 0 63.2385 15.9555 1009 114.191 593.928 333.134
76 0 62.1903 14.7611 918 118.547 593.149 331.306
77 0 63.1802 15.2421 963 155.998 593.289 330.718
78 0 68.1399 15.3361 1045 115.591 593.657 330.546
79 0 69.158 14.4307 998 119.771 594.264 330.316
80 0 75.28 15.3427 1155 115.422 593.454 331.138
81 0 75.1127 15.8162 1188 115.825 592.91 329.74
82 1 39.0639 11.0332 431 121.183 591.71 346.176
83 0 41.0398 12.695 521 118.436 592.704 344.925
84 0 45.1036 12.4602 562 115.674 593.781 344.518
85 0 46.0819 13.042 601 115.331 593.719 343.346
86 0 48.0995 12.8692 619 114.848 593.069 343.194
87 0 47.0683 14.7658 695 112.665 593.692 341.332
88 0 51.1802 13.9507 714 110.001 593.65 343.095
89 0 51.1388 15.1548 775 107.812 593.427 342.83
90 0 53.2597 14.4575 770 110.245 593.14 340.339
91 0 55.1917 14.658 809 108.742 593.199 340.366
92 0 55.1253 14.8389 818 110.455 593.87 338.487
93 0 58.1563 14.1515 823 112.598 593.609 337.103
94 0 60.1412 14.1168 849 112.835 594.689 336.604
95 0 61.1687 14.1903 868 113.077 594.306 335.954
96 0 64.1753 16.0654 1031 109.091 593.5 334.455
97 0 66.3533 16.171 1073 108.052 593.555 332.978
98 0 66.2172 14.981 992 111.397 594.621 333.694
99 0 70.1359 14.9995 1052 111.459 593.955 332.392
100 0 71.1078 14.7101 1046 112.102 593.137 333.092
101 0 76.1579 15.5073 1181 110.754 594.688 330.97
102 0 77.1268 15.0402 1160 111.694 593.183 330.602
103 1 44.1254 12.0792 533 111.552 593.251 348.334
104 0 44.0228 12.2891 541 110.845 593.131 347.399
105 0 44.1379 12.0985 534 112.843 593.566 347.725
106 0 46.1317 13.6132 628 109.639 593.707 348.053
107 0 48.0866 13.4965 649 109.344 593.989 346.545
108 0 49.1285 12.2332 601 113.897 593.915 347.166
109 0 51.0552 15.3168 782 106.757 593.867 347.335
110 0 51.2602 13.0511 669 110.65 593.924 349.668
111 0 54.2756 15.2186 826 105.542 594.232 349.929
112 0 52.101 14.3183 746 111.468 594.379 346.496
113 0 53.1942 13.6857 728 113.53 594.323 345.944
114 0 57.1745 14.4995 829 110.747 594.519 347.433
115 0 58.2696 14.2613 831 112.13 594.503 346.958
116 0 59.1737 13.773 815 112.908 593.112 347.361
117 0 62.2996 15.5218 967 110.07 593.511 346.707
118 0 63.2334 15.6879 992 109.173 593.586 346.261
119 0 64.1981 14.9849 962 111.832 592.818 345.797
120 0 69.1914 14.337 992 112.102 592.86 343.971
121 0 69.1102 14.5999 1009 112.546 592.651 342.388
122 0 72.1734 15.0471 1086 111.578 592.811 339.513
123 0 75.1348 14.9465 1123 111.431 592.27 340.216
124 1 44.0686 11.0056 485 114.703 590.981 355.901
125 0 46.1922 10.7377 496 111.968 591.964 357.972
126 0 46.1007 11.2146 517 113.65 591.94 355.466
127 0 44.201 11.312 500 117.096 591.234 353.26
128 0 49.0905 12.5075 614 112.868 590.756 354.269
129 0 51.1255 13.1441 672 111.749 591.692 354.015
130 0 53.0906 13.4675 715 111.495 592.766 352.141
131 0 56.1148 15.4683 868 107.162 592.342 352.141
132 0 55.2779 14.1648 783 110.515 592.987 353.204
133 0 58.1187 14.4188 838 109.202 592.778 353.575
134 0 61.3088 14.7287 903 105.586 594.301 353.373
135 0 63.127 14.558 919 105.756 594.338 353.507
136 0 64.1023 15.9277 1021 104.134 594.55 354.598
137 0 64.1214 13.9267 893 108.096 594.648 356.648
138 0 68.1594 14.3927 981 106.034 594.639 358.725
139 0 72.132 15.7628 1137 102.433 594.23 360.581
140 0 72.2118 13.9728 1009 106.812 593.579 362.715
141 0 72.2118 13.9728 1009 166.576 593.579 362.674
142 0 78.0691 15.102 1179 104.189 593.061 364.269
143 1 42.0274 12.3491 519 103.925 592.295 380.185
144 0 41.0305 8.33526 342 110.251 592.137 381.801
145 0 44.0621 10.3717 457 101.908 592.86 386.707
146 0 43.073 8.98475 387 153.38 592.827 385.191
147 0 47.0155 11.1665 525 104.787 594.47 385.808
148 0 49.1036 12.1376 596 101.45 592.827 388.121
149 0 51.3329 19.749 1547 70.4971 593.551 425.221
150 0 53.3779 9.33486 853 85.7268 593.519 444.689
151 0 55.5104 10.4411 1039 82.9192 593.052 445.589
152 0 57.663 9.73053 1106 82.4033 593.288 447.495
153 0 59.4835 12.3822 1108 82.0713 592.682 443.804
154 0 61.977 14.343 1477 74.3832 594.177 432.362
155 0 62.376 13.5862 1486 76.2402 593.802 443.917
156 0 63.657 10.7566 1115 82.0771 593.433 436.295
157 0 65.8251 16.8551 1632 73.829 592.513 431.561
158 0 67.803 11.4779 1157 84.4244 592.927 446.187
159 0 69.174 18.829 1905 70.9884 592.405 425.607
160 0 71.5091 26.7155 2418 66.8292 592.66 426.914
161 0 73.243 6.27003 1011 99.1138 593.956 436.373
162 0 75.253 6.60967 1046 104.402 594.095 422.724
163 0 77.422 7.32864 1183 104.786 593.961 418.618
164 0 79.431 7.25224 1207 102.09 593.343 429.33
165 0 81.388 9.10398 1533 103.12 593.414 416.052
166 0 83.295 9.20975 1596 102.632 593.698 418.246
167 0 85.618 16.9032 1836 82.2337 594.978 438.1
168 0 87.618 16.8572 1831 106.284 596.99 438.12
169 0 89.249 15.6818 1823 86.2638 594.857 445.324
170 1 50.0263 10.8343 542 97.2066 594.603 472.223
171 0 53.0402 12.4811 662 94.4396 594.196 471.234
172 0 56.0224 13.4232 752 92.7168 594.705 471.947
173 0 58.2821 12.2508 714 94.4342 593.597 470.873
174 0 60.2136 12.7048 765 95.6039 594.473 473.68
175 0 60.2045 14.7165 886 92.7201 595.664 472.663
176 0 64.1636 13.3097 854 96.3712 594.944 473.256
177 0 67.1856 14.0655 945 95.4032 595.039 471.549
178 0 68.0992 13.451 916 97.7445 594.55 473.623
179 0 71.2458 14.0219 999 97.6326 594.091 471.588
180 0 72.1052 13.5774 979 99.8713 593.182 471.432
181 0 74.137 12.6927 941 102.951 592.615 469.104
182 0 77.102 14.2668 1100 101.025 592.883 467.238
183 1 41.0482 10.0614 413 102.019 594.179 485.649
184 0 42.1394 11.8654 500 99.54 593.54 484.91
185 0 41.086 10.6849 439 102.185 593.585 485.403
186 0 43.0465 12.7304 548 97.4489 593.4 485.332
187 0 44.0777 12.6368 557 98.6338 593.39 483.149
188 0 45.0409 11.1676 503 100.897 592.803 482.97
189 0 45.0175 11.5955 522 102.349 593.194 480.849
190 0 45.0192 12.3725 557 136.057 594.176 481.689
191 0 51.1352 12.1052 619 98.4588 592.583 480.835
192 0 52.0224 13.0328 678 98.1785 593.206 480.105
193 0 53.0653 13.0405 692 98.5824 592.948 479.276
194 0 52.1577 12.2321 638 101.118 592.503 478.328
195 0 55.1752 13.7924 761 98.7293 592.564 477.125
196 0 55.1055 13.9369 768 99.4661 593.026 474.062
197 0 55.1055 13.9006 766 144.661 594.01 473.888
198 0 59.119 14.3439 848 98.9092 592.493 473.396
199 0 61.2227 14.8311 908 97.7412 593.149 473.009
200 0 63.1234 14.9231 942 98.604 593.015 470.969
201 0 65.0622 14.1557 921 100.26 592.799 471.185
202 0 68.0579 14.1497 963 99.5805 592.861 470.526
203 0 71.1036 15.5548 1106 96.4873 592.231 470.929
204 0 71.1546 13.0701 930 104.088 592.872 470.52
205 0 74.1731 14.0482 1042 103.206 592.875 468.21
206 0 76.1685 15.2557 1162 101.507 593.334 468.686
207 1 42.1088 11.5653 487 102.897 593.277 484.916
208 0 44.0537 11.4406 504 101.823 593.688 485.546
209 0 45.1609 10.7172 484 101.554 594.618 483.907
210 0 47.2453 12.742 602 100.819 595.023 481.643
211 0 48.302 13.25 640 100.419 593.806 483.081
212 0 47.1009 13.418 632 99.3813 593.807 483.998
213 0 49.092 13.5053 663 100.018 592.149 482.587
214 0 50.0239 12.534 627 103.096 592.311 481.421
215 0 52.0717 12.0219 626 102.832 592.797 481.415
216 0 54.052 14.2085 768 98.8164 592.815 480.469
217 0 54.1207 13.0264 705 100.908 592.61 479.204
218 0 55.0318 13.4104 738 100.869 591.48 479.421
219 0 59.0335 15.7876 932 95.8358 591.635 476.376
220 0 61.0696 13.6729 835 100.392 592.753 475.838
221 0 63.1547 13.6965 865 100.918 592.614 474.191
222 0 66.0347 13.8109 912 99.4353 592.534 474.583
223 0 67.0748 14.1037 946 100.704 592.156 470.393
224 0 69.1583 15.7465 1089 96.877 592.531 471.348
225 1 39.023 10.9166 426 99.4577 592.617 485.336
226 0 39.0614 10.7523 420 100.243 592.462 485.529
227 0 39.0771 10.185 398 102.09 594.183 484.538
228 0 43.1561 12.1651 525 97.8971 593.836 483.324
229 0 44.0642 12.7314 561 97.1497 594.137 482.524
230 0 44.0464 14.235 627 95.823 594.719 481.77
231 0 45.0916 13.3284 601 97.7022 594.223 481.885
232 0 47.0254 13.0142 612 95.0768 595.234 481.492
233 0 49.0667 13.6141 668 95.1736 595.338 481.165
234 0 48.3278 12.5187 605 99.5901 595.033 476.387
235 0 50.1604 14.1546 710 97.8634 594.806 477.496
236 0 51.2516 13.9508 715 99.4923 594.608 477.66
237 0 54.269 13.4699 731 98.7209 594.616 479.413
238 0 53.2645 13.5738 723 100.846 594.383 477.835
239 0 55.3108 13.5597 750 100.7 594.968 478.816
240 0 56.1998 13.7011 770 101.812 595.04 478.591
241 0 57.1845 13.6051 778 103.108 594.374 476.089
242 0 60.1336 13.603 818 102.546 594.153 475.823
243 0 61.2204 13.0839 801 104.478 594.416 475.64
244 0 63.1839 13.8168 873 102.882 594.301 475.981
245 0 66.2198 14.8143 981 101.255 594.543 473.015
246 0 68.1275 15.9114 1084 100.48 593.317 472.069
247 0 71.2169 14.2944 1018 103.512 593.495 471.534
248 0 72.07 14.2362 1026 104.944 592.828 470.806
249 1 40.0307 10.5669 423 105.054 592.246 487.314
250 0 38.0403 10.3574 394 106.236 593.211 487.19
251 0 41.1089 10.7276 441 105.76 593.048 487.066
252 0 44.0504 11.5095 507 105.46 593.566 485.168
253 0 43.0173 11.8325 509 107.018 593.191 483.629
254 0 46.0497 12.7905 589 105.253 592.073 482.995
255 0 46.0199 13.1899 607 105.731 593.835 481.002
256 0 47.0723 13.1712 620 106.461 593.605 480.263
257 0 50.0249 13.2534 663 106.02 593.014 479.674
258 0 52.033 13.895 723 105.039 592.568 478.687
259 0 53.0193 14.4476 766 103.164 594.132 479.51
260 0 54.1046 12.6237 683 107.432 594.464 478.088
261 0 57.065 13.3882 764 106.49 593.39 476.64
262 0 59.0756 15.4886 915 101.852 594.352 475.729
263 0 59.0695 15.5072 916 146.616 595.369 475.799
264 0 62.0788 14.6427 909 103.955 595.493 474.041
265 0 64.1053 12.9942 833 108.462 595.72 473.36
266 0 66.1399 13.5319 895 107.827 595.779 472.261
267 0 69.1819 14.0499 972 106.665 596.467 471.293
268 0 72.146 14.235 1027 106.07 596.174 469.682
269 1 38.0663 12.4782 475 103.154 596.446 487.535
270 0 39.0472 10.8843 425 105.028 595.998 489.468
271 0 37.1987 11.2101 417 106.89 595.818 487.326
272 0 41.1025 12.262 504 102.516 595.31 487.976
273 0 40.1854 10.576 425 105.887 595.016 488.725
274 0 43.2002 14.0972 609 99.8686 594.993 487.043
275 0 45.1466 14.1096 637 99.1601 595.41 486.496
276 0 46.2122 12.3777 572 103.524 593.544 486.066
277 0 47.166 13.6539 644 102.584 594.435 484.281
278 0 48.2598 12.4534 601 104.642 594.441 484.664
279 0 49.1603 12.6118 620 105.815 593.845 484.452
280 0 50.1974 12.1919 612 106.074 593.335 484.443
281 0 51.296 13.6853 702 103.105 594.18 481.811
282 0 56.1689 14.7591 829 100.25 593.791 480.083
283 0 55.111 13.2641 731 104.966 593.767 479.466
284 0 57.2382 13.6273 780 104.244 592.637 479.522
285 0 59.1634 14.4684 856 102.808 592.349 477.122
286 0 62.0909 13.8346 859 104.546 591.392 474.282
287 0 65.1597 14.7177 959 102.101 590.479 473.43
288 0 66.2891 13.5618 899 104.863 590.744 474.118
289 0 69.2379 14.9629 1036 102.764 591.091 471.069
290 0 71.3012 13.5762 968 106.027 591.432 469.396
291 1 37.1271 9.64255 358 106.966 592.656 487.344
292 0 40.2812 12.09 487 103.721 593.121 484.914
293 0 40.2812 12.1148 488 148.197 594.111 484.941
294 0 44.1746 12.4732 551 104.26 594.715 483.946
295 0 45.0601 12.8051 577 104.397 596.147 483.133
296 0 46.1373 13.1781 608 104.59 595.873 482.972
297 0 48.2349 13.766 664 104.008 596.803 481.233
298 0 48.2349 13.5794 655 140.403 597.802 481.4
299 0 51.2195 13.7643 705 105.139 594.946 481.887
300 0 51.2457 13.9134 713 105.171 596.137 482.546
301 0 53.319 13.935 743 105.341 595.576 482.717
302 0 55.1378 14.0194 773 105.771 595.838 480.109
303 0 57.2462 14.2018 813 105.378 595.972 480.72
304 0 59.118 14.5979 863 105.173 595.483 479.001
305 0 60.2062 13.0551 786 108.852 595.365 478.445
306 0 64.1335 14.0332 900 107.811 595.551 478.137
307 0 67.0488 14.5715 977 107.434 594.434 475.199
308 0 68.0782 15.4675 1053 105.498 593.973 475.942
309 0 70.2339 15.306 1075 107.117 594.126 473.701
310 0 73.342 14.8619 1090 107.894 593.754 471.742
311 0 75.274 14.2944 1076 109.553 593.17 471.227
312 1 40.1125 11.8915 477 109.224 593.543 488.532
313 0 41.2848 11.3359 468 109.321 593.013 487.229
314 0 44.1576 12.6818 560 106.884 593.525 486.3
315 0 45.1063 13.4349 606 105.705 591.871 484.789
316 0 46.0617 12.201 562 107.929 592.431 485.121
317 0 48.0531 13.2978 639 106.307 592.62 482.964
318 0 49.0549 13.4543 660 101.944 593.009 483.659
319 0 50.0968 12.416 622 104.759 592.878 481.167
320 0 53.0648 14.1902 753 100.608 592.523 478.502
321 0 54.0728 14.0551 760 100.725 592.626 478.986
322 0 55.1581 12.6364 697 102.773 593.007 477.792
323 0 55.1392 13.203 728 102.626 593.793 476.073
324 0 58.1637 14.356 835 98.5317 595.562 477.285
325 0 60.1863 15.02 904 98.3053 596.261 474.216
326 0 62.0899 13.6415 847 99.4947 597.122 474.959
327 0 65.059 14.4638 941 98.5526 597.425 471.621
328 0 67.2294 13.4762 906 99.7318 596.951 470.714
329 1 35.0288 11.5334 404 97.1658 596.265 487.502
330 0 37.1199 12.1229 450 96.1822 597.147 486.902
331 0 39.0214 10.7377 419 97.2673 596.325 487.136
332 0 43.0736 11.6777 503 94.9702 596.809 487.537
333 0 42.1413 13.0276 549 91.9435 596.785 488.661
334 0 44.1665 11.9548 528 94.2822 597.674 488.034
335 0 45.2616 13.2342 599 93.7512 595.668 485.502
336 0 46.1773 13.4482 621 94.5346 595.641 484.583
337 0 49.2188 14.527 715 93.2266 595.464 485.717
338 0 50.1713 13.0353 654 95.4236 595.194 484.789
339 0 50.2712 13.1686 662 96.4909 595.175 482.23
340 0 52.2337 13.2481 692 96.3801 594.825 484.056
341 0 54.2386 14.0122 760 94.3566 594.321 481.287
342 0 58.1397 15.0328 874 92.2471 593.42 480.806
343 0 55.1375 13.82 762 141.324 592.433 479.025
344 0 59.1506 13.4741 797 95.6926 591.886 480.088
345 0 62.3016 13.3704 833 96.539 591.583 476.447
346 0 65.2605 13.9441 910 96.0451 590.468 474.502
347 0 66.246 16.0161 1061 92.2611 590.258 473.676
348 0 69.2574 14.6121 1012 94.8953 590.549 471.318
349 0 71.0774 14.7304 1047 95.2178 590.966 469.712
350 0 72.5545 14.6511 1063 95.6952 591.14 467.652
351 1 36.2123 11.4878 416 92.3269 590.517 487.25
352 0 39.0268 10.685 417 94.5492 590.988 485.789
353 0 37.0325 10.9634 406 95.6478 592.7 485.626
354 0 41.0799 12.3174 506 93.498 592.735 483.437
355 0 43.0799 14.3919 620 90.3339 593.866 483.952
356 0 41.1834 12.4079 511 96.3992 595.452 483.055
357 0 45.2511 14.3643 650 90.6692 596.009 481.94
358 0 46.1859 13.7704 636 92.0283 596.296 482.607
359 0 47.3565 13.24 627 95.0303 596.289 481.853
360 0 48.333 13.5518 655 93.6519 596.895 482.617
361 0 52.15 13.7488 717 93.1437 597.762 482.363
362 0 53.2976 14.3909 767 92.8905 597.443 482.087
363 0 54.2127 13.3917 726 95.8609 596.693 481.587
364 0 56.113 14.453 811 93.8015 596.89 481.435
365 0 60.2655 15.3985 928 91.1034 596.977 481.25
366 0 60.0774 14.0652 845 93.9811 596.953 480.825
367 0 64.1552 16.086 1032 91.1328 596.383 478.851
368 0 66.0588 14.4568 955 93.5508 596.12 480.153
369 0 69.1639 14.6175 1011 93.9753 594.922 476.787
370 1 39.0308 11.6575 455 94.3824 594.141 491.119
371 0 41.0877 12.0231 494 93.1619 594.087 492.433
372 0 42.0592 12.6726 533 95.3227 594.223 489.422
373 0 44.0458 13.0319 574 93.5366 593.608 491.096
374 0 43.0384 13.1046 564 95.6968 592.248 488.746
375 0 44.204 12.2613 542 97.9889 591.677 488.006
376 0 47.3246 12.9742 614 95.0554 592.673 485.264
377 0 50.175 13.8914 697 92.7073 592.307 484.317
378 0 47.4019 12.7421 604 99.4586 591.851 482.518
379 0 50.1999 12.8486 645 98.4775 591.319 482.777
380 0 52.1323 14.6742 765 96.0157 592.61 479.217
381 0 54.1841 13.9893 758 96.814 591.223 480.003
382 0 52.3682 13.2905 696 99.2256 591.287 478.918
383 0 54.2678 12.7147 690 101.687 591.5 478.141
384 0 57.1577 14.7137 841 97.3722 591.66 478.078
385 0 59.21 14.7103 871 98.5649 592.106 473.844
386 0 59.2597 14.3099 848 101.305 592.392 472.783
387 0 60.2781 13.9686 842 102.667 593.836 474.078
388 0 63.4325 13.9203 883 101.895 595.211 476.152
389 0 66.7812 14.3453 958 102.449 595.763 474.458
390 0 68.3127 12.9698 886 105.168 596.662 470.679
391 0 72.436 13.9433 1010 102.541 596.763 471.763
392 1 39.1133 11.7863 461 99.5857 596.954 488.772
393 0 40.1388 9.99034 401 102.259 596.733 490.254
394 0 42.2139 11.5128 486 102.016 597.156 488.16
395 0 41.2797 10.9981 454 103.108 597.456 489.119
396 0 45.3211 11.584 525 101.21 597.577 488.623
397 0 46.1474 12.265 566 101.258 597.721 486.143
398 0 49.178 12.4649 613 102.026 596.866 487.664
399 0 49.0651 14.5113 712 99.368 596.965 486.205
400 0 51.0882 13.6039 695 101.125 597.436 484.245
401 0 53.0522 13.6846 726 101.26 596.085 483.997
402 0 56.12 13.8988 780 99.7974 595.454 484.67
403 0 58.1548 14.2722 830 98.5723 594.386 483.817
404 0 58.0487 12.4895 725 103.703 592.954 481.014
405 0 58.0758 13.8268 803 102.958 593.519 479.396
406 0 62.1142 15.9062 988 99.2338 592.586 476.46
407 0 63.2836 13.8424 876 103.153 591.806 476.258
408 0 66.1429 13.7127 907 103.063 591.99 476.104
409 0 67.0914 15.0839 1012 102.552 591.77 472.368
410 0 70.1495 13.6993 961 104.848 591.035 473.009
411 0 69.158 14.4452 999 142.751 589.957 472.402
412 0 73.165 14.0368 1027 104.946 592.125 468.578
413 0 74.172 13.617 1010 106.983 592.38 465.69
414 0 76.1049 13.3368 1015 107.198 592.303 464.688
415 1 40.0365 9.64119 386 102.08 594.132 487.681
416 0 41.0043 11.1208 456 102.092 594.382 485.086
417 0 43.067 10.9829 473 103.82 595.34 483.085
418 0 44.0712 11.1411 491 103.719 595.945 483.124
419 0 45.0334 11.6358 524 103.588 597.75 481.91
420 0 46.0653 11.9396 550 103.487 597.851 483.047
421 0 50.0605 14.7621 739 99.207 598.257 482.93
422 0 51.0658 14.1778 724 101.148 599.272 482.217
423 0 53.0432 13.7812 731 103.015 599.476 483.023
424 0 54.1569 14.1441 766 102.781 598.875 482.678
425 0 55.0406 14.5347 800 102.405 599.335 481.369
426 0 58.0356 14.6117 848 102.221 598.895 483.169
427 0 58.0356 14.6634 851 135.689 598.915 483.162
428 0 59.1413 13.7806 815 105.442 597.564 483.144
429 0 62.0955 15.1219 939 103.996 596.747 480.157
430 0 63.1158 13.2297 835 108.489 596.452 479.926
431 0 68.1204 15.546 1059 103.137 595.555 478.125
432 0 68.157 15.435 1052 105.242 595.307 475.311
433 0 71.2512 15.0173 1070 104.589 594.464 475.481
434 0 74.1203 15.1511 1123 104.757 592.884 473.804
435 0 75.1709 14.6067 1098 105.888 593.627 473.209
436 1 41.0295 11.1871 459 105.891 593.558 489.706
437 0 40.0471 10.8872 436 106.989 592.078 488.216
438 0 42.1669 12.2608 517 106.623 592.455 485.453
439 0 44.0525 11.1231 490 106.241 592.122 485.676
440 0 44.0886 12.2254 539 105.506 592.067 484.288
441 0 46.2832 13.331 617 99.7601 591.399 485.126
442 0 47.3171 12.3845 586 104.384 592.456 482.715
443 0 47.1844 12.9704 612 103.428 591.582 482.054
444 0 47.1696 13.1865 622 104.182 592.305 481.215
445 0 52.1527 13.844 722 100.834 593.579 479.436
446 0 53.229 12.7562 679 102.809 594.52 476.925
447 0 54.241 12.8685 698 102.486 595.533 476.724
448 0 55.1509 12.9282 713 102.48 597.353 477.356
449 0 57.193 13.3233 762 102.101 597.72 477.865
450 0 59.1957 13.6496 808 100.251 599.03 478.298
451 0 60.1638 12.8483 773 103.211 598.761 477.278
452 0 63.0517 13.9092 877 100.999 599.756 475.178
453 0 67.0782 13.0296 874 102.089 600.063 474.884
454 0 68.1493 13.3971 913 101.901 599.244 474.885
455 0 71.1967 13.9332 992 100.62 598.107 475.135
456 0 73.0788 13.5881 993 102.112 598.375 471.984
457 0 76.1898 14.6083 1113 100.264 598.246 472.726
458 0 78.1068 14.8002 1156 101.395 597.706 472.753
459 1 40.0803 10.5538 423 102.981 597.74 490.939
460 0 43.1147 12.4784 538 98.9033 597.13 490.506
461 0 43.1347 10.757 464 102.782 597.183 489.55
462 0 44.0619 11.8016 520 102.235 596.083 488.092
463 0 48.0339 12.8867 619 98.9919 594.582 486.751
464 0 50.0794 13.6184 682 98.4971 595.042 485.968
465 0 51.0666 15.2546 779 96.0231 592.048 484.765
466 0 53.0655 13.6812 726 99.0537 592.062 483.256
467 0 53.1081 13.4255 713 101.82 592.376 481.579
468 0 54.1226 13.765 745 101.395 592.426 478.368
469 0 58.0918 13.909 808 100.386 592.239 477.016
470 0 57.2609 13.2202 757 103.674 591.987 475.415
471 0 62.1338 13.2456 823 101.028 590.394 474.445
472 0 62.11 13.7498 854 101.587 590.636 472.475
473 0 64.118 13.5064 866 101.788 590.366 472.14
474 0 64.118 13.5064 866 134.147 590.387 472.271
475 0 71.203 14.2691 1016 100.706 592.17 467.642
476 0 74.1247 14.0979 1045 99.9388 593.993 466.434
477 0 76.1642 14.1011 1074 100.387 594.886 464.819
478 0 78.2192 14.5744 1140 98.3386 597.168 464.419
479 0 80.3326 13.4192 1078 101.21 598.856 465.534
480 0 83.1713 13.2257 1100 102.835 598.725 463.548
481 0 87.4054 13.4774 1178 102.281 599.949 464.233
482 1 46.1133 10.2357 472 100.472 600.797 485.314
483 0 51.0918 11.45 585 99.4342 599.475 483.591
484 0 53.1492 13.6785 727 97.4374 599.026 483.59
485 0 54.1913 13.0464 707 98.1598 598.696 483.721
486 0 55.1424 13.5286 746 99.6877 597.863 483.201
487 0 57.3314 13.3086 763 100.127 597.544 483.769
488 0 60.1148 14.2727 858 97.5664 596.969 483.826
489 0 62.1386 13.1319 816 100.904 596.938 481.022
490 0 65.2123 13.0957 854 101.533 596.547 478.781
491 0 67.1399 14.0304 942 100.768 595.53 478.016
492 0 68.2344 12.9846 886 104.027 594.524 476.463
493 0 73.2542 15.767 1155 99.4658 592.706 474.904
494 0 76.1878 15.068 1148 101.904 593.563 472.186
495 0 77.1941 13.6539 1054 105.976 592.776 470.464
496 0 79.1565 14.225 1126 106.753 592.31 468.183
497 0 83.1481 14.3599 1194 105.471 592.394 467.828
498 1 41.2319 8.70686 359 109.426 592.011 487.234
499 0 45.181 11.3765 514 106.681 592.008 484.002
500 0 47.2045 11.9057 562 105.406 591.817 483.105
501 0 49.0895 12.2226 600 105.803 592.64 479.57
502 0 51.2083 13.8259 708 104.37 593.758 478.021
503 0 53.0318 13.5202 717 104.215 593.999 479.717
504 0 51.0775 12.53 640 108.747 595.416 477.862
505 0 55.1601 14.8658 820 103.966 595.661 477.73
506 0 55.2402 13.74 759 106.607 595.661 476.991
507 0 57.0903 13.4524 768 106.161 597.449 479.035
508 0 59.1916 14.6136 865 104.894 600.18 477.903
509 0 61.2015 14.4604 885 104.748 601.002 477.149
510 0 63.2212 14.2041 898 106.233 600.664 475.757
511 0 67.2554 14.2145 956 104.387 601.318 476.203
512 0 70.3481 16.3757 1152 101.25 601.609 474.899
513 0 70.2604 14.3751 1010 106.206 601.06 475.252
514 0 74.3137 15.3673 1142 103.991 599.038 473.773
515 0 77.2094 14.9464 1154 106.143 598.282 474.489
516 0 80.32 15.762 1266 107.015 597.389 474.356
517 0 85.1525 15.2902 1302 102.829 596.22 475.336
518 0 86.2515 14.0403 1211 106.163 594.841 471.76
519 0 92.1701 17.1531 1581 98.1879 594.244 466.879
520 1 48.11 10.5384 507 104.791 592.337 490.454
521 0 51.0551 12.2808 627 100.477 592.241 490.486
522 0 52.0878 12.6133 657 101.648 591.038 488.493
523 0 52.1555 14.1308 737 100.67 590.057 485.137
524 0 55.0725 13.7818 759 99.8867 587.887 485.422
525 0 57.099 13.5729 775 100.143 587.797 484.005
526 0 59.1184 14.6148 864 99.1042 587.212 481.282
527 0 60.064 14.5845 876 99.081 587.014 480.562
528 0 60.2287 13.6978 825 102.251 585.895 478.571
529 0 64.1913 13.8336 888 101.175 585.655 477.136
530 0 68.1816 15.1654 1034 99.0919 586.938 473.476
531 0 69.1852 14.4251 998 100.611 587.79 472.888
532 0 70.2268 14.5386 1021 101.885 587.258 472.899
533 0 74.2414 14.0622 1044 102.314 587.673 472.992
534 0 78.2412 15.7717 1234 100.079 588.744 470.695
535 0 81.4267 15.7319 1281 100.734 589.903 469.973
536 1 41.4213 10.7916 447 102.57 592.716 490.327
537 0 43.2823 11.4828 497 101.718 594.73 491.986
538 0 45.2356 12.3354 558 101.955 595.701 489.697
539 0 48.0937 13.5361 651 99.639 596.502 490.696
540 0 49.275 14.2872 704 99.0597 596.551 491.131
541 0 53.1457 16.4077 872 94.9186 596.538 492.174
542 0 54.13 13.4122 726 102.763 595.161 490.628
543 0 55.1472 14.5792 804 100.925 593.221 489.432
544 0 58.1529 13.8772 807 101.54 592.974 488.062
545 0 63.1589 14.4239 911 99.0801 590.692 489.482
546 0 64.157 15.5244 996 98.0351 589.154 487.937
547 0 68.1812 15.8842 1083 97.7572 588.296 484.88
548 0 70.2673 14.886 1046 100.469 587.134 483.716
549 0 73.1602 15.3089 1120 100.572 585.826 480.585
550 0 77.2254 15.5001 1197 99.7978 584.502 478.427
551 1 38.1128 11.466 437 102.993 584.721 496.192
552 0 39.1084 12.9384 506 102.998 584.071 492.536
553 0 43.1986 11.8291 511 103.207 583.532 491.579
554 0 43.1161 11.3647 490 104.798 582.947 488.284
555 0 43.1269 11.4082 492 146.333 581.927 488.226
556 0 47.066 11.9407 562 103.135 582.151 483.731
557 0 47.0538 12.3688 582 104.409 582.278 481.155
558 0 50.0727 14.2992 716 99.4358 583.306 481.365
559 0 50.1281 12.3883 621 104.615 583.923 479.802
560 0 55.1136 14.9147 822 97.691 585.096 480.073
561 0 53.0202 12.1086 642 105.04 586.422 477.716
562 0 57.1892 13.8837 794 102.237 588.244 474.452
563 0 60.062 14.9013 895 99.324 589.861 476
564 0 62.0395 14.4908 899 100.813 591.211 474.833
565 0 65.1016 14.0242 913 100.503 593.521 474.701
566 0 68.082 14.2622 971 99.8867 595.765 473.953
567 0 71.067 14.5497 1034 99.1673 597.159 473.452
568 0 70.206 12.4776 876 103.078 598.122 470.977
569 0 75.5767 13.3771 1011 101.982 597.377 470.743
570 1 41.0802 10.0292 412 100.488 596.684 492.136
571 0 41.1288 12.0597 496 98.5464 595.885 492.121
572 0 45.1138 12.5682 567 96.7143 593.989 491.427
573 0 48.1659 11.9379 575 96.8556 593.605 490.699
574 0 47.0699 11.9397 562 98.3826 593.833 490.964
575 0 49.1964 13.0904 644 97.7547 592.151 491.96
576 0 51.142 12.0253 615 100.104 590.868 492.091
577 0 55.2341 12.963 716 98.405 589.189 487.87
578 0 57.215 12.8463 735 99.4367 587.879 486.011
579 0 57.1911 12.9216 739 101.61 586.997 483.096
580 0 60.2507 14.2073 856 100.799 585.746 483.423
581 0 65.2276 14.6564 956 99.0513 585.652 480.754
582 0 67.1917 14.0345 943 100.836 584.966 479.018
583 0 68.4601 15.2059 1041 99.0403 584.371 477.618
584 0 69.1281 13.8439 957 105.243 584.046 474.542
585 0 74.2289 15.2636 1133 102.083 584.008 473.717
586 0 78.5422 15.4567 1214 102.475 584.375 470.952
587 0 78.2516 13.4566 1053 107.132 584.843 469.473
588 0 82.3231 14.4552 1190 106.158 585.006 467.71
589 1 44.2983 11.0614 490 107.182 586.945 485.908
590 0 48.1887 13.3434 643 101.885 587.782 484.407
591 0 48.3379 11.8954 575 104.33 588.504 484.529
592 0 50.0854 12.4188 622 104.135 588.518 484.172
593 0 51.1716 12.4678 638 106.527 590.716 483.962
594 0 53.24 13.8805 739 104.391 593.456 483.694
595 0 55.1963 14.077 777 104.188 595.93 483.248
596 0 58.3866 13.9758 816 103.358 597.575 481.974
597 0 59.2178 14.472 857 104.858 597.114 483.421
598 0 61.1568 13.7352 840 106.149 597.37 484.93
599 0 62.1148 12.4769 775 109.566 597.307 483.479
600 0 66.1529 14.3607 950 104.348 596.657 484.768
601 0 69.0973 14.675 1014 105.701 594.387 484.856
602 0 74.1321 14.6091 1083 104.408 594.702 484.936
603 0 77.1363 13.353 1030 106.787 592.745 485.816
604 1 42.0424 9.89477 416 102.173 592.625 504.507
605 0 43.0441 12.1503 523 99.4761 590.132 503.62
606 0 42.0211 11.637 489 102.303 588.239 502.885
607 0 42.0211 11.4704 482 142.786 586.284 503.01
608 0 49.1297 14.3294 704 96.9474 584.375 501.611
609 0 47.1089 13.6068 641 100.401 583.9 501.037
610 0 49.2058 12.3156 606 103.837 583.937 499.112
611 0 52.3047 14.9317 781 98.5416 583.014 499.183
612 0 55.188 14.2966 789 99.7364 582.303 496.948
613 0 57.0864 15.1349 864 99.7014 580.777 495.625
614 0 60.1635 15.4911 932 99.0258 580.863 491.98
615 0 60.1529 13.9145 837 101.024 580.317 491.135
616 0 65.1906 14.7414 961 98.6296 580.359 488.732
617 0 65.1808 14.7283 960 101.23 580.93 484.336
618 1 34.1112 11.228 383 101.253 581.543 500.54
619 0 34.0237 10.3751 353 103.49 581.816 500.79
620 0 39.0293 10.9917 429 99.2657 582.545 500.268
621 0 39.1277 11.2708 441 102.673 583.692 498.825
622 0 41.1423 13.6356 561 97.7701 584.635 498.458
623 0 42.1695 14.2283 600 98.4217 585.397 497.26
624 0 44.1118 13.8058 609 99.3678 587.58 497.696
625 0 45.1661 13.3286 602 101.676 587.895 496.11
626 0 47.1452 13.3418 629 102.884 588.118 495.531
627 0 50.1649 13.8344 694 101.359 588.582 496.664
628 0 51.1948 13.2631 679 104.244 587.99 496.038
629 0 53.0691 13.9252 739 103.928 588.314 495.723
630 0 55.174 13.6658 754 104.004 586.598 497.821
631 0 58.0916 13.9091 808 104.017 586.478 497.63
632 0 60.057 13.8202 830 103.425 586.223 498.526
633 0 62.1106 13.9429 866 102.577 584.646 498.813
634 0 68.2144 14.8502 1013 100.857 584.178 496.01
635 0 71.1051 14.0637 1000 101.86 583.397 495.002
636 1 37.0577 11.1448 413 101.349 583.283 511.085
637 0 38.0297 9.96589 379 102.348 581.778 510.908
638 0 41.0053 11.779 483 100.199 579.822 508.681
639 0 43.0542 11.1952 482 101.56 577.89 505.84
640 0 43.1086 12.5729 542 98.7103 578.188 503.869
641 0 46.081 12.7167 586 98.3003 577.174 500.534
642 0 48.0351 13.5734 652 95.4463 576.61 498.936
643 0 48.0263 13.1595 632 96.6123 576.343 495.818
644 0 49.0923 11.6515 572 98.4773 577.378 497.638
645 0 52.0493 14.3134 745 94.4819 577.781 495.031
646 0 53.0601 12.3633 656 98.221 578.669 494.248
647 0 56.0526 13.4873 756 95.4061 578.963 494.3
648 0 58.0478 14.0574 816 95.4387 580.488 491.776
649 0 59.0636 13.4262 793 96.7604 581.731 491.508
650 0 61.0241 13.8306 844 97.0201 583.058 491.397
651 0 63.0335 12.0571 760 101.426 585.046 489.812
652 0 64.1004 13.5725 870 100.783 586.205 486.964
653 0 64.1004 13.5725 870 123.5 587.208 486.84
654 0 71.1331 13.1865 938 102.08 588.971 486.849
655 0 75.1224 15.2152 1143 99.4619 589.89 485.444
656 0 77.0952 13.6714 1054 102.936 589.79 487.125
657 1 44.0633 10.848 478 102.172 589.266 505.209
658 0 44.0255 10.4031 458 104.627 588.389 505.389
659 0 45.0501 12.8968 581 103.394 588.153 503.957
660 0 47.2833 11.6532 551 105.267 587.682 502.711
661 0 49.0833 13.0187 639 104.632 585.989 503.341
662 0 50.093 12.896 646 106.695 585.825 502.384
663 0 52.148 12.6371 659 107.135 584.37 501.337
664 0 54.1682 14.6396 793 102.391 583.373 498.639
665 0 56.1273 13.9682 784 104.395 582.182 496.103
666 0 58.1715 14.4229 839 101.358 580.979 493.634
667 0 60.24 13.9442 840 103.994 579.763 490.183
668 0 64.1274 14.7675 947 101.688 580.014 489.071
669 0 66.24 13.3001 881 105.016 579.933 486.725
670 0 69.118 14.9744 1035 99.3952 579.918 485.611
671 0 71.1199 15.4809 1101 100.569 579.995 482.066
672 0 73.1311 15.8209 1157 101.535 580.742 478.892
673 1 40.0236 12.8174 513 101.534 581.478 496.497
674 0 39.0504 9.60298 375 111.008 582.656 494.419
675 0 42.0537 11.4378 481 107.314 584.241 493.38
676 0 43.1009 12.7608 550 105.573 585.035 493.813
677 0 45.0685 12.9137 582 104.926 586.498 493.306
678 0 45.0194 13.5275 609 106.698 586.491 490.235
679 0 47.0703 15.0201 707 104.107 588.144 490.426
680 0 48.1148 14.2368 685 106.526 591.104 490.063
681 0 51.1026 14.011 716 106.126 592.415 490.986
682 0 52.0694 14.0774 733 107.05 593.945 490.831
683 0 52.0839 14.3039 745 107.099 594.222 491.258
684 0 56.1345 14.8215 832 105.162 594.115 490.038
685 0 59.1013 14.9066 881 104.481 595.988 488.558
686 0 61.0848 15.0119 917 104.996 594.359 489.617
687 0 64.1511 15.4479 991 103.748 594.926 488.701
688 0 67.1671 14.8138 995 105.984 593.929 485.964
689 0 71.1656 16.6794 1187 101.097 592.035 487.35
690 1 36.2256 12.0633 437 105.357 591.751 502.027
691 0 39.245 11.6193 456 107.368 589.8 501.101
692 0 37.0854 11.2174 416 107.945 589.894 501.089
693 0 39.0811 11.1563 436 105.422 588.424 500.959
694 0 43.1372 14.0714 607 102.226 586.791 495.481
695 0 42.0456 12.1059 509 108.411 584.525 493.436
696 0 47.0801 13.4664 634 102.886 583.363 493.866
697 0 48.0582 13.2548 637 105.187 582.612 490.3
698 0 49.1239 14.3108 703 104.242 582.862 489.088
699 0 50.1535 14.9341 749 102.587 583.806 487.053
700 0 52.2301 14.2447 744 103.536 583.851 486.34
701 0 54.2037 14.8145 803 102.187 584.238 481.986
702 0 56.1035 14.7228 826 102.225 584.944 481.122
703 0 57.128 14.0386 802 103.258 585.681 481.157
704 0 60.1356 14.2844 859 103.218 587.683 478.824
705 0 62.0616 14.2439 884 104.359 589.627 476.734
706 0 65.1387 14.354 935 102.494 590.421 476.633
707 0 65.0585 14.6022 950 104.374 592.174 475.899
708 0 71.2353 14.417 1027 104.174 593.727 475.115
709 0 73.3457 14.1249 1036 105.276 596.629 474.681
710 0 75.1612 14.6352 1100 106.455 597.495 472.994
711 0 80.3789 14.9168 1199 105.474 599.18 473.404
712 1 42.2472 11.338 479 107.418 600.785 492.969
713 0 45.1198 13.1206 592 104.28 601.101 492.794
714 0 47.1654 12.6152 595 105.627 600.966 491.382
715 0 47.1102 14.2856 673 104.577 600.152 491.71
716 0 51.204 14.0614 720 104.072 599.138 493.326
717 0 52.1166 14.41 751 106.043 597.623 491.983
718 0 53.1784 13.3513 710 109.582 596.683 490.525
719 0 58.1156 15.6584 910 104.816 596.536 489.499
720 0 61.2113 16.0101 980 104.778 593.829 488.359
721 0 63.2269 14.5666 921 108.616 593.716 486.887
722 0 66.2516 14.9581 991 108.093 591.411 484.024
723 0 69.2792 16.2964 1129 106.843 590.692 480.004
724 0 70.4524 14.2791 1006 112.132 589.092 477.289
725 1 38.442 12.9806 499 108.313 588.846 493.625
726 0 39.4184 10.7818 425 110.301 588.195 493.972
727 0 40.2276 10.7389 432 114.843 587.153 491.09
728 0 43.2843 12.4063 537 109.184 587.037 490.302
729 0 45.0912 13.3729 603 109.262 586.494 488.993
730 0 48.1682 13.8681 668 107.781 586.048 485.545
731 0 50.1706 15.6068 783 103.238 586.306 484.926
732 0 49.2182 15.6649 771 106.301 586.628 484.003
733 0 52.1189 14.6588 764 108.005 586.648 484.206
734 0 51.0619 14.1789 724 110.62 587.696 483.376
735 0 56.0551 13.9149 780 108.829 590.026 483.305
736 0 58.1382 14.8267 862 105.952 592.408 483.817
737 0 62.103 14.4115 895 105.766 594.196 483.187
738 0 62.2124 14.0808 876 109.389 595.503 482.922
739 0 65.1123 13.9605 909 108.425 596.738 484.492
740 0 71.1517 15.2351 1084 104.882 597.981 483.094
741 0 73.1159 16.2208 1186 104.146 597.8 482.048
742 1 39.0184 12.0456 470 107.777 598.277 501.634
743 0 39.0891 11.2819 441 111.249 597.517 500.955
744 0 42.0599 11.864 499 108.319 595.754 503.463
745 0 44.0458 14.5303 640 103.689 594.577 500.983
746 0 47.0732 12.5549 591 107.203 592.222 501.816
747 0 47.1223 13.6029 641 105.364 591.041 499.613
748 0 48.0547 13.3598 642 106.745 588.34 498.491
749 0 54.2364 14.0312 761 102.717 587.569 497.566
750 0 55.0964 15.5727 858 99.3566 585.564 496.47
751 0 57.1589 15.7106 898 99.6526 584.983 492.821
752 0 59.1367 13.528 800 103.969 582.439 491.945
753 0 64.0877 15.7909 1012 97.3874 581.41 487.772
754 0 65.1762 15.8954 1036 97.9961 581.974 485.652
755 0 67.1082 15.095 1013 99.9684 581.439 482.65
756 0 70.1578 15.1801 1065 100.137 581.703 479.765
757 0 70.1578 15.2656 1071 150.079 581.721 479.822
758 1 39.0346 12.5017 488 95.4529 582.764 497.137
759 0 38.0382 12.0931 460 102.38 583.602 494.47
760 0 39.025 12.4792 487 101.813 584.107 494.813
761 0 40.0604 13.4797 540 101.356 585.452 492.704
762 0 41.0477 12.4246 510 103.367 586.096 493.314
763 0 43.103 14.5001 625 99.5712 587.69 492.294
764 0 44.0418 14.8495 654 101.609 589.489 489.791
765 0 48.0231 14.7637 709 101.403 591.409 489.639
766 0 48.0231 14.7429 708 139.371 593.42 489.658
767 0 52.0186 15.3022 796 102.302 594.603 490.693
768 0 51.0643 14.1978 725 107.439 595.761 490.228
769 0 54.0748 14.4245 780 107.515 595.105 489.658
770 0 57.0512 14.8814 849 106.654 596.185 489.723
771 0 60.1032 15.49 931 104.769 595.4 491.34
772 0 62.0882 15.6874 974 106.036 594.139 489.655
773 1 34.0651 12.7697 435 106.455 594.131 503.782
774 0 33.0766 9.52334 315 104.273 592.622 506.667
775 0 37.0726 9.98042 370 99.6811 592.308 503.086
776 0 37.0822 11.488 426 96.9812 590.263 503.035
777 0 40.1819 13.2398 532 91.8515 589.194 501.434
778 0 41.0687 12.54 515 93.4311 587.738 500.186
779 0 43.0268 12.5271 539 92.0612 586.44 499.887
780 0 43.0793 12.3493 532 94.2594 584.417 496.306
781 0 44.1132 14.3268 632 89.951 584.527 495.299
782 0 44.2204 15.1061 668 90.1183 584.01 493.56
783 0 45.2007 13.2299 598 93.3545 584.462 492.308
784 0 48.1385 14.0844 678 91.6962 584.814 490.823
785 0 50.1622 14.0544 705 91.5007 583.926 489.73
786 0 52.2101 13.6947 715 91.4545 585.203 489.243
787 0 53.151 15.6723 833 87.6483 585.241 487.345
788 0 54.1818 14.5621 789 90.0608 586.124 486.041
789 0 55.0955 12.2696 676 94.1065 587.481 487.145
790 0 58.1738 14.5598 847 90.5124 587.612 485.764
791 0 59.1448 13.7628 814 92.6953 589.345 485.056
792 0 61.1468 14.3098 875 92.3497 591.25 483.211
793 0 66.1012 15.8999 1051 88.295 593.091 485.384
794 1 31.0053 8.83719 274 95.0766 594.905 501.686
795 0 37.0146 11.6981 433 88.1871 595.617 503.328
796 0 37.0465 12.8487 476 91.3866 596.099 501.926
797 0 38.0738 11.1888 426 92.9413 595.092 504.697
798 0 41.0917 12.3626 508 91.1634 592.941 503.553
799 0 43.1117 12.3168 531 92.4802 591.431 505.478
800 0 43.2269 14.8056 640 91.8328 589.517 503.617
801 0 45.1692 13.1505 594 95.2694 587.705 503.924
802 0 47.1459 14.8475 700 92.1571 585.859 501.84
803 0 47.1853 12.737 601 97.8037 584.228 503.358
804 0 51.0984 13.0728 668 96.7231 583.831 501.558
805 0 51.129 14.1212 722 97.1524 581.575 497.874
806 0 54.0607 13.9658 755 97.8331 581.502 496.995
807 0 56.0962 14.1721 795 97.834 580.948 496.67
808 0 57.1065 15.4098 880 100.958 580.88 492.691
809 0 58.0719 13.5522 787 105.487 581.183 488.958
810 0 62.172 14.9102 927 102.337 580.78 485.763
811 0 63.2998 14.5498 921 103.479 580.528 483.327
812 0 65.2546 15.7384 1027 103.091 581.075 481.942
813 0 69.17 14.4282 998 105.8 581.7 480.34
814 0 72.1867 15.3629 1109 102.528 582.81 477.978
815 1 35.014 10.3673 363 101.402 584.209 498.725
816 0 37.0914 11.6739 433 103.721 585.681 494.804
817 0 40.024 10.4187 417 106.448 587.775 494.801
818 0 41.0274 11.5533 474 105.091 589.603 492.907
819 0 41.0305 12.1129 497 104.692 591.708 492.992
820 0 46.0813 13.6281 628 99.9873 592.573 492.455
821 0 48.0209 14.3063 687 99.2285 593.884 493.354
822 0 49.1347 15.0403 739 98.6495 595.191 493.507
823 0 48.0858 13.6423 656 101.944 594.488 494.303
824 0 53.1892 15.5859 829 98.1496 593.934 491.086
825 0 57.1608 14.8004 846 98.0508 594.009 493.226
826 0 59.0834 14.1833 838 101.252 592.408 491.245
827 0 62.1682 15.1846 944 99.9163 591.58 491.422
828 0 65.0881 14.9951 976 100.694 589.961 489.751
829 0 67.1409 15.043 1010 102.227 589.011 487.268
830 0 71.1115 16.1577 1149 101.641 586.977 484.986
831 0 73.1398 15.5866 1140 102.041 586.662 482.841
832 1 42.124 11.5374 486 104.488 586.268 499.605
833 0 43.275 11.7389 508 104.974 584.677 497.327
834 0 43.08 12.4884 538 104.742 584.584 496.346
835 0 47.0558 13.0271 613 102.641 584.228 494.22
836 0 49.0692 13.5319 664 102.687 584.512 490.956
837 0 50.0816 12.6593 634 102.412 583.044 489.85
838 0 52.1382 13.1573 686 100.851 583.179 488.972
839 0 54.1593 14.4574 783 99.576 583.35 487.957
840 0 55.1255 11.8457 653 104.178 583.308 488.499
841 0 57.0848 13.3836 764 103.157 583.952 487.517
842 0 60.0393 13.4412 807 104.694 584.928 484.751
843 0 62.085 15.3016 950 100.963 586.447 484.482
844 0 62.0652 13.0186 808 106.62 588.016 483.505
845 0 66.1712 13.6011 900 105.022 590.237 482.434
846 0 69.1099 13.2832 918 105.093 591.679 483.774
847 0 70.1567 12.6716 889 106.847 593.695 483.618
848 0 75.0904 13.4505 1010 104.858 594.1 482.479
849 1 39.02 10.4562 408 101.907 595.757 502.652
850 0 44.0196 11.8129 520 99.4769 595.767 501.679
851 0 44.0278 12.2423 539 100.115 594.974 502.369
852 0 46.1104 12.3833 571 101.289 593.841 502.1
853 0 49.132 13.1686 647 98.544 592.917 501.527
854 0 51.1996 13.4767 690 99.5203 591.072 501.19
855 0 54.2414 13.5874 737 101.545 589.057 499.376
856 0 55.1811 12.2506 676 100.115 587.247 499.849
857 0 58.2579 13.8865 809 98.0025 586.07 495.99
858 0 60.1948 12.742 767 98.7666 584.186 495.958
859 0 61.4744 12.9973 799 99.766 581.254 491.686
860 0 65.2254 14.0436 916 95.4607 580.416 489.164
861 0 68.2078 14.5438 992 94.0635 580.726 486.462
862 0 71.2058 13.805 983 94.0397 579.889 485.752
863 0 72.322 14.2557 1031 95.5209 579.468 480.693
864 0 75.335 12.6634 954 97.9465 579.517 480.021
865 1 40.0576 9.58619 384 98.9844 580.615 496.625
866 0 41.0261 9.62803 395 100.122 581.182 496.699
867 0 44.0477 11.76 518 94.4537 581.006 496.135
868 0 43.036 11.897 512 141.406 581.045 495.773
869 0 48.212 13.6066 656 92.0915 582.692 491.409
870 0 48.2357 14.1182 681 92.8781 583.96 488.568
871 0 51.141 13.0815 669 95.5142 584.576 490.399
872 0 53.2255 13.8655 738 95.2263 585.522 490.52
873 0 53.0853 14.0529 746 98.5027 587.755 488.962
874 0 57.0495 14.3735 820 96.8659 589.418 490.191
875 0 58.1606 13.7206 798 98.3484 589.586 488.494
876 0 60.2077 15.1642 913 96.6188 591.304 489.011
877 0 63.0438 14.7516 930 97.0226 591.189 489.206
878 1 30.1163 10.1274 305 102.787 591.177 504.751
879 0 35.0494 10.3283 362 97.7818 589.762 506.022
880 0 33.0814 10.3684 343 100.207 589.898 505.114
881 0 36.0417 12.3746 446 94.6009 589.226 506.554
882 0 38.1188 14.2187 542 91.8266 587.018 504.363
883 0 40.2168 12.3083 495 95.3414 585.45 502.824
884 0 44.053 14.7096 648 89.5232 583.855 501.074
885 0 43.095 14.0619 606 90.3993 582.833 500.375
886 0 46.0596 15.4148 710 87.2493 581.528 496.004
887 0 48.0598 13.9826 672 87.8051 580.874 493.961
888 0 49.0608 14.4107 707 87.0481 580.803 495.31
889 0 52.0559 15.8868 827 85.3845 579.551 491.652
890 0 52.0976 14.0122 730 90.3822 580.411 488.862
891 0 52.1266 13.3713 697 93.0717 580.254 485.726
892 0 56.0527 13.2019 740 91.2554 581.278 485.576
893 0 59.2112 14.3385 849 89.4346 581.529 482.621
894 0 59.1768 14.9721 886 89.2224 581.615 480.55
895 0 63.2607 16.2344 1027 86.3681 582.472 479.672
896 1 33.2284 11.5865 385 91.0468 583.465 493.213
897 0 35.2135 12.2112 430 90.6256 585.046 492.246
898 0 35.1176 9.90955 348 94.1868 587.534 493.988
899 0 39.3971 12.6913 500 92.478 588.622 490.732
900 0 41.2425 13.7237 566 92.2262 589.523 492.622
901 0 43.2075 14.6965 635 89.8693 592.562 493.52
902 0 42.2336 12.9991 549 96.2204 594.056 493.432
903 0 47.2634 14.3875 680 92.8059 595.524 494.131
904 0 48.1521 14.1634 682 94.8123 596.764 494.981
905 0 50.1085 14.5684 730 95.3644 596.797 495.459
906 0 53.081 15.1467 804 94.8669 595.29 495.646
907 0 55.019 14.9039 820 96.2488 593.868 496.156
908 0 55.1525 14.6503 808 100.744 592.27 496.929
909 0 60.185 13.824 832 100.554 589.942 497.829
910 0 62.1788 15.1338 941 96.3518 588.434 493.021
911 0 64.1311 15.0473 965 97.7814 586.8 491.917
912 1 34.2512 10.9193 374 100.706 586.233 505.866
913 0 36.1227 10.7689 389 101.817 585.254 505.918
914 0 36.0942 11.1098 401 102.888 583.875 505.2
915 0 38.1286 12.012 458 102.509 582.819 500.856
916 0 41.0163 13.5556 556 99.1475 581.032 500.462
917 0 41.091 13.823 568 99.4401 580.688 498.225
918 0 44.1005 13.3332 588 100.793 581.469 497.17
919 0 45.0894 15.813 713 95.864 582.053 495.453
920 0 45.046 13.5417 610 101.846 582.033 494.711
921 0 47.0723 14.2972 673 100.831 581.85 494.202
922 0 50.0454 14.9264 747 99.2557 581.991 493.297
923 0 52.0565 14.369 748 99.6404 581.678 493.274
924 0 53.089 15.7848 838 98.253 583.235 491.944
925 0 53.1762 14.5742 775 101.297 584.752 492.185
926 0 58.0689 15.9294 925 98.1535 586.88 490.436
927 0 59.1071 14.9052 881 101.404 588.419 490.589
928 0 60.1374 15.6142 939 99.8956 589.691 489.378
929 0 63.1506 14.5208 917 104.224 591.096 490.863
930 0 65.1865 13.2389 863 109.666 592.087 489.297
931 0 70.2524 15.1169 1062 105.332 592.686 489.644
932 0 73.1391 15.6278 1143 104.909 592.306 488.64
933 0 77.2423 15.2119 1175 105.708 591.408 485.561
934 1 40.1768 10.9018 438 108.317 591.292 505.97
935 0 43.2577 12.807 554 104.356 589.132 504.668
936 0 42.1083 11.1379 469 108.036 586.878 504.473
937 0 47.2386 13.9928 661 100.517 584.118 501.542
938 0 51.2584 15.3536 787 97.4714 583.075 501.463
939 0 53.2554 14.4586 770 100.025 581.995 498.866
940 0 52.1905 14.2363 743 103.538 581.073 495.919
941 0 56.2341 15.4355 868 99.6647 580.484 492.69
942 0 58.2175 14.6348 852 101.322 579.867 490.834
943 0 61.1179 14.8893 910 101.776 578.92 488.313
944 0 61.2109 14.1151 864 104.461 578.589 485.398
945 0 65.1715 14.6536 955 102.835 579.348 482.489
946 0 68.2468 15.3853 1050 100.237 579.31 481.061
947 0 70.1913 16.1274 1132 99.4929 579.477 477.57
948 0 71.1789 14.8359 1056 103.13 580.919 475.53
949 0 75.2028 17.26 1298 97.9669 581.727 475.065
950 0 75.3963 14.7222 1110 103.977 582.802 473.603
951 0 78.1978 15.9979 1251 101.812 582.99 471.726
952 0 80.1514 15.5581 1247 103.624 585.922 472.982
953 0 83.1758 15.3891 1280 104.16 587.852 470.937
954 0 86.2831 14.8349 1280 106.089 590.152 472.186
955 1 46.1872 14.6145 675 99.4118 593.105 493.489
956 0 47.0602 11.3259 533 105.176 595.469 494.231
957 0 51.2358 14.8919 763 100.375 596.321 492.778
958 0 53.0827 14.3738 763 100.708 595.992 494.219
959 0 53.3037 13.5075 720 105.54 595.771 493.694
960 0 58.3219 14.9858 874 101.027 595.042 494.651
961 0 61.289 15.5003 950 100.366 595.037 492.132
962 0 62.4644 13.8159 863 104.936 593.988 491.903
963 0 65.3947 14.4048 942 105.569 591.736 489.489
964 0 71.3376 14.6907 1048 104.213 590.767 489.574
965 0 73.3115 15.7138 1152 103.034 588.707 487.688
966 0 76.4687 14.5288 1111 106.365 587.292 484.395
967 0 78.4398 14.9924 1176 105.642 585.267 480.896
968 1 45.2291 13.0226 589 102.874 585.148 500.355
969 0 44.2204 11.3975 504 106.651 583.942 499.688
970 0 49.2448 12.8135 631 103.471 583.978 496.116
971 0 50.1988 13.3469 670 104.157 583.33 493.657
972 0 52.3524 12.9698 679 104.508 583.579 492.052
973 0 53.0696 12.3046 653 107.492 583.211 488.821
974 0 55.11 13.8088 761 104.838 584.42 487.143
975 0 55.2294 13.5616 749 105.887 584.465 486.908
976 0 58.1843 13.6463 794 105.317 584.468 485.442
977 0 60.2412 14.1432 852 104.112 585.308 484.694
978 0 63.2466 13.8822 878 104.954 585.436 483.264
979 0 66.2894 13.4109 889 106.555 586.602 481.389
980 0 69.2385 14.5584 1008 104.967 587.298 479.317
981 0 72.3879 14.9611 1083 105.028 589.835 478.167
982 0 73.2352 14.7607 1081 107.322 592.152 477.807
983 0 78.3245 16.0231 1255 104.363 594.714 476.608
984 0 81.4178 13.6825 1114 109.082 596.281 477.417
985 1 39.1014 10.46 409 106.804 596.386 499.501
986 0 44.1408 10.6931 472 108.826 596.051 499.089
987 0 46.185 11.8004 545 107.127 596.492 498.664
988 0 49.1828 13.0533 642 105.358 595.319 497.816
989 0 50.2963 11.9691 602 109.01 594.118 498.9
990 0 54.4626 13.1833 718 106.671 592.546 497.824
991 0 56.1859 12.8502 722 105.96 589.674 496.831
992 0 59.2685 15.7419 933 100.756 588.746 493.755
993 0 61.5041 14.2104 874 101.595 587.675 493.537
994 0 65.2776 14.6145 954 100.564 585.876 489.937
995 0 66.5004 13.8947 924 102.854 583.802 484.728
996 0 69.292 12.8875 893 105.24 582.756 484.805
997 0 74.5903 13.2189 986 102.98 581.829 482.215
998 0 75.5554 13.1956 997 103.764 582.372 477.237
999 0 81.3414 14.8879 1211 99.5227 582.955 476.615
1000 0 84.2761 13.8236 1165 102.542 581.959 472.662
1001 0 87.5954 14.0761 1233 101.737 581.267 470.298
1002 1 44.2468 11.7749 521 99.8426 581.495 490.392
1003 0 45.2563 10.7388 486 103.444 582.074 488.111
1004 0 48.1743 9.96383 480 105.102 583.398 487.59
1005 0 50.1957 13.6067 683 99.9004 583.835 486.403
1006 0 51.1351 12.6723 648 102.546 585.738 485.179
1007 0 53.2241 14.5235 773 99.1242 587.031 485.141
1008 0 55.1955 13.5337 747 100.651 588.677 486.281
1009 0 57.3097 13.6103 780 101.428 590.854 486.633
1010 0 59.511 14.6695 873 100.726 592.745 484.543
1011 0 61.4885 14.6531 901 101.89 594.818 481.994
1012 0 65.6206 15.2239 999 99.2422 595.711 482.702
1013 0 69.5555 14.377 1000 100.364 595.253 481.876
1014 0 71.3291 14.6224 1043 101.517 595.019 482.33
1015 0 75.4268 15.2996 1154 100.925 594.889 481.26
1016 0 77.5426 14.1729 1099 104.499 593.817 482.136
1017 0 82.5102 14.8588 1226 103.486 592.804 481.257
1018 1 41.247 10.2795 424 103.88 591.377 502.672
1019 0 43.2701 8.96694 388 108.054 589.631 500.211
1020 0 46.2305 12.3079 569 102.527 588.562 498.257
1021 0 48.3167 12.8941 623 99.5233 586.668 498.666
1022 0 50.247 13.5332 680 99.7956 585.052 496.247
1023 0 54.1919 13.7105 743 96.9542 585.478 494.855
1024 0 53.1304 13.2504 704 101.082 584.261 492.32
1025 0 56.2145 13.324 749 100.665 583.753 490.804
1026 0 59.2352 13.4548 797 100.743 583.887 488.678
1027 0 59.3904 13.487 801 102.086 583.186 483.592
1028 0 63.491 13.4035 851 101.866 582.758 482.757
1029 0 62.4116 12.3054 768 106.602 582.914 479.107
1030 0 67.3416 15.2803 1029 100.124 581.797 477.945
1031 0 70.3611 15.7473 1108 99.9368 582.638 475.169
1032 0 72.3599 14.9807 1084 101.792 583.983 475.832
1033 0 75.2478 14.0735 1059 104.331 583.882 474.407
1034 0 77.3392 13.5119 1045 106.101 586.386 473.533
1035 0 81.1859 14.7686 1199 104.383 588.741 473.368
1036 1 45.2082 10.1973 461 104.024 590.601 495.462
1037 0 46.2997 12.3543 572 102.946 590.577 488.752
1038 0 49.1994 11.9717 589 104.136 592.618 493
1039 0 50.0432 13.4084 671 102.286 594.766 493.06
1040 0 51.0618 12.7688 652 103.048 594.416 493.94
1041 0 54.0592 13.6147 736 101.655 595.702 494.144
1042 0 55.0804 12.6361 696 104.951 594.855 492.276
1043 0 60.0223 13.8449 831 100.428 593.542 494.939
1044 0 62.059 13.9061 863 101.273 592.756 493.005
1045 0 63.0555 12.1797 768 104.27 591.358 494.051
1046 0 69.0581 13.9303 962 100.042 589.978 490.038
1047 0 70.0772 13.057 915 102.228 588.957 486.654
1048 0 74.1174 13.0873 970 101.632 587.304 486.908
1049 0 75.1183 13.4854 1013 101.699 585.528 484.27
1050 0 79.1521 13.4677 1066 102.512 584.442 482.645
1051 1 44.1604 11.4129 504 100.069 583.03 496.927
1052 0 44.0489 11.5099 507 101.866 582.434 494.903
1053 0 47.0924 10.5537 497 101.988 583.046 493.537
1054 0 48.1277 11.8019 568 99.9384 582.204 490.81
1055 0 51.0423 12.4798 637 98.9655 581.965 489.378
1056 0 53.0653 13.832 734 98.5845 582.584 486.379
1057 0 53.0222 11.9761 635 103.043 582.945 486.37
1058 0 54.1878 13.3425 723 100.914 584.12 483.683
1059 0 57.0622 13.3363 761 101.489 584.74 483.838
1060 0 56.1419 12.7534 716 103.846 585.795 482.004
1061 0 62.1452 14.1282 878 99.3872 586.366 480.131
1062 0 63.1977 13.972 883 100.157 588.229 480.612
1063 0 66.3115 14.2811 947 99.7265 590.566 479.659
1064 0 69.4252 14.6344 1016 100.339 592.37 478.505
1065 0 71.3367 12.434 887 105.61 594.542 477.775
1066 0 76.6017 13.6942 1049 103.622 595.426 476.745
1067 0 78.5044 14.5979 1146 103.084 595.435 476.894
1068 1 42.3363 11.1488 472 104.706 596.856 495.883
1069 0 44.3161 11.1472 494 106.198 597.053 495.356
1070 0 47.2489 13.1643 622 104.299 595.034 494.455
1071 0 46.1372 11.8776 548 106.847 594.6 494.053
1072 0 50.0797 13.199 661 105.805 591.887 495.884
1073 0 53.0584 12.948 687 106.197 591.552 495.865
1074 0 55.0941 13.3408 735 106.49 589.782 493.229
1075 0 57.0621 13.2312 755 106.256 588.848 492.196
1076 0 57.0626 13.9145 794 107.78 587.146 490.815
1077 0 61.1382 14.5572 890 106.135 586.085 488.515
1078 0 63.1187 15.8749 1002 104.62 584.696 483.314
1079 0 66.0462 15.0955 997 106.156 583.74 483.395
1080 0 67.0752 15.4752 1038 106.16 582.436 478.717
1081 0 70.0481 15.0611 1055 106.242 583.281 477.34
1082 0 71.152 13.7733 980 109.811 583.181 476.58
1083 0 74.1161 14.4773 1073 108.251 583.472 474.514
1084 0 76.1902 12.9938 990 112.284 583.244 471.654
1085 0 78.2774 14.3081 1120 109.816 583.56 468.285
1086 0 82.144 15.6067 1282 105.956 584.738 468.559
1087 0 85.0948 14.4075 1226 109.906 586.772 463.999
1088 0 89.0959 14.0411 1251 108.991 587.016 464.751
1089 0 92.3038 14.9181 1377 106.816 589.603 463.075
1090 1 52.1455 11.6597 608 105.535 592.78 486.508
1091 0 54.109 13.1956 714 103.245 594.676 485.08
1092 0 58.1156 11.9073 692 102.949 596.347 486.731
1093 0 59.1163 14.5138 858 98.6981 597.488 486.721
1094 0 60.1872 12.6605 762 103.547 598.032 484.996
1095 0 64.1209 13.6773 877 100.511 598.21 486.009
1096 0 67.195 13.7808 926 101.151 597.421 484.161
1097 0 72.1749 13.689 988 101.011 596.356 483.84
1098 0 75.2138 14.1065 1061 102.586 594.736 482.656
1099 0 79.2577 13.74 1089 102.835 593.448 481.574
1100 1 41.0137 10.021 411 103.798 593.808 504.015
1101 0 44.0452 10.7163 472 105.206 591.917 500.047
1102 0 47.082 12.8287 604 101.76 591.58 498.127
1103 0 48.0851 13.4553 647 102.257 589.233 495.937
1104 0 52.1652 14.2432 743 97.2759 587.078 495.502
1105 0 53.0986 14.3883 764 99.4699 585.397 490.884
1106 0 52.1794 12.7445 665 103.752 585.05 490.06
1107 0 56.1216 13.0075 730 102.966 585.021 487.762
1108 0 59.1285 14.3755 850 100.102 584.799 486.784
1109 0 58.2144 12.8662 749 104.897 584.597 485.028
1110 0 62.1276 14.6956 913 101.522 584.404 481.199
1111 0 63.1656 13.2825 839 105.113 585.128 479.049
1112 0 64.2002 14.1121 906 103.466 585.351 478.953
1113 0 68.249 14.1248 964 102.391 585.89 477.369
1114 0 69.1503 14.3745 994 102.846 587.649 474.409
1115 0 74.1744 13.7244 1018 102.537 589.018 475.909
1116 0 76.2861 14.2228 1085 101.966 590.142 472.277
1117 1 41.0599 10.0585 413 102.828 593.034 492.477
1118 0 42.0688 11.3624 478 102.138 593.828 492.444
1119 0 45.0378 12.8781 580 100.36 595.445 491.743
1120 0 45.0411 12.0334 542 101.47 596.598 491.347
1121 0 46.0255 13.2535 610 99.9525 596.961 492.059
1122 0 48.1384 13.482 649 97.6965 597.242 493.938
1123 0 52.2103 13.6946 715 96.8322 596.484 493.387
1124 0 52.1454 12.772 666 99.4655 595.022 495.551
1125 0 57.1375 13.0212 744 96.9301 593.655 493.863
1126 0 58.0571 12.0571 700 101.146 592.706 493.517
1127 0 62.0529 13.6658 848 96.7441 590.548 494.177
1128 0 66.0885 15.0102 992 95.1099 589.867 490.323
1129 0 66.0332 13.5235 893 99.0605 588.078 488.184
1130 0 69.1982 13.353 924 99.7013 586.737 486.551
1131 0 72.1605 13.4977 974 98.8203 585.259 482.821
1132 0 77.2507 14.4853 1119 94.3986 584.939 479.568
1133 0 80.1966 14.9134 1196 94.5861 584.125 478.716
1134 1 41.1172 9.65533 397 99.738 583.773 497.03
1135 0 42.0272 9.80318 412 97.3592 583.551 496.634
1136 0 45.0622 11.473 517 95.8994 584.758 494.044
1137 0 45.1311 11.6549 526 96.0608 584.65 490.658
1138 0 47.1286 11.9885 565 94.915 584.412 490.375
1139 0 50.1043 13.3322 668 92.4461 583.305 488.359
1140 0 51.1006 12.6809 648 94.1111 584.69 488.036
1141 0 53.0619 14.8694 789 90.7072 586.354 486.47
1142 0 54.1352 13.1707 713 93.9313 587.858 486.59
1143 0 58.0988 14.7507 857 90.2952 587.788 486.523
1144 0 58.12 13.0936 761 94.7635 589.982 486.874
1145 0 60.0764 13.6493 820 94.2598 591.55 484.949
1146 0 62.1079 13.3477 829 95.6647 593.98 484.244
1147 0 66.0492 13.9593 922 92.9436 595.191 485.717
1148 0 69.0422 14.7591 1019 93.4642 595.894 485.702
1149 0 71.1219 15.3117 1089 93.3508 596.283 481.892
1150 0 75.0958 12.4508 935 98.3615 596.052 482.419
1151 0 79.0728 14.5942 1154 95.0997 595.219 483.674
1152 1 40.0427 8.74067 350 98.5029 593.143 502.963
1153 0 43.0529 9.66252 416 97.3341 592.834 501.87
1154 0 47.1413 10.5216 496 96.3629 589.929 501.216
1155 0 50.1228 10.7336 538 95.0353 588.396 500.327
1156 0 49.0783 10.7583 528 96.947 587.091 497.487
1157 0 53.1019 13.0127 691 93.0043 585.951 496.37
1158 0 54.2035 11.7889 639 94.7903 584.405 494.764
1159 0 57.1346 13.3019 760 92.1316 583.536 493.051
1160 0 60.1886 14.1057 849 91.523 582.694 488.199
1161 0 61.1399 14.3278 876 90.8733 581.712 486.848
1162 0 65.1053 14.5457 947 91.6748 581.796 484.57
1163 0 65.252 13.5781 886 93.6038 581.555 482.979
1164 0 67.1829 15.1378 1017 90.8033 582.33 480.355
1165 0 69.1496 14.2879 988 91.5213 581.858 477.186
1166 0 72.1274 13.6148 982 92.1589 582.394 476.366
1167 0 74.2185 12.8809 956 93.8985 582.624 475.502
1168 0 77.2536 14.0317 1084 91.8044 583.659 473.432
1169 0 80.2358 15.1304 1214 89.575 584.99 471.573
1170 0 83.2512 13.8016 1149 92.1584 585.701 471.572
1171 0 86.3134 14.2852 1233 90.1946 587.257 469.94
1172 0 88.3938 14.0847 1245 92.1839 590.077 468.207
1173 0 92.6614 14.9685 1387 90.1694 592.266 463.749
1174 0 95.4166 14.6515 1398 90.2933 593.631 467.152
1175 0 97.2872 12.386 1205 93.2656 594.438 467.7
1176 0 102.53 14.7177 1509 90.0908 595.37 466.303
1177 0 106.34 14.9051 1585 90.571 596.187 461.859
1178 0 110.394 14.6023 1612 90.8133 596.257 460.618
1179 0 117.312 15.1903 1782 89.3749 594.988 458.968
1180 0 121.296 14.6831 1781 90.3841 593.992 456.322
1181 1 65.2984 11.5929 757 88.2127 594.122 488.79
1182 0 69.3682 11.7489 815 90.4748 591.61 483.744
1183 0 73.3056 14.269 1046 86.6195 590.591 481.918
1184 0 78.1573 13.8567 1083 87.1893 589.727 481.633
1185 0 80.2097 12.9037 1035 88.2773 588.245 479.892
1186 0 84.1719 12.8428 1081 88.9676 587.387 473.236
1187 0 89.2745 13.4753 1203 86.4663 585.832 472.597
1188 1 49.3102 11.1336 549 86.4699 585.59 490.903
1189 0 51.3356 10.6164 545 86.211 584.204 491.275
1190 0 52.1577 11.1393 581 84.6145 582.711 489.064
1191 0 54.0378 13.0279 704 83.0384 583.145 485.307
1192 0 55.2169 13.2568 732 82.9986 582.654 482.279
1193 0 56.2279 13.1074 737 83.9199 582.969 482.75
1194 0 55.2153 12.3154 680 86.3485 583.094 480.349
1195 0 60.1388 13.0864 787 84.7484 585.354 476.301
1196 0 63.2697 13.0236 824 83.5898 585.76 478.691
1197 0 65.2561 13.3781 873 83.7606 586.142 477.149
1198 0 69.1746 14.167 980 83.0776 586.184 471.577
1199 0 71.1278 13.0329 927 85.0065 588.23 473.674
1200 0 73.2832 13.0726 958 85.6806 590.912 471.589
1201 1 39.1107 11.3524 444 83.6464 594.022 490.928
1202 0 39.0687 10.9551 428 86.9813 596.257 489.895
1203 0 41.1155 10.7259 441 86.8413 594.583 487.24
1204 0 42.1883 11.6383 491 84.0611 596.022 488.507
1205 0 46.0977 12.582 580 81.769 599.169 488.572
1206 0 47.1382 14.8075 698 80.4771 597.511 492.491
1207 0 49.0972 12.6484 621 84.467 596.606 494.509
1208 0 51.2029 12.5383 642 85.9097 594.919 493.16
1209 0 52.23 13.0768 683 85.4114 594.072 494.675
1210 0 54.0658 12.1149 655 88.6153 593.211 493.125
1211 0 58.1379 14.6376 851 83.644 592.562 492.395
1212 0 61.0896 14.3232 875 85.3554 591.403 490.855
1213 0 60.0732 13.0341 783 88.9962 590.46 488.235
1214 0 65.2698 13.7123 895 87.476 587.531 486.251
1215 0 69.1243 14.2786 987 86.926 585.951 484.945
1216 0 68.0898 12.6451 861 90.3682 585.856 482.007
1217 0 73.0969 14.4192 1054 88.6385 584.937 478.89
1218 1 37.0702 9.6034 356 89.6966 585.441 497.657
1219 0 41.0466 10.1835 418 91.1077 584.639 492.998
1220 0 41.1679 10.6394 438 90.9087 586.011 492.171
1221 0 43.1434 12.1455 524 89.7252 586.626 486.889
1222 0 45.1935 12.9001 583 88.8748 586.285 485.657
1223 0 48.2331 13.1652 635 86.6063 587.107 484.913
1224 0 50.0678 13.6815 685 85.8613 586.834 485.518
1225 0 48.1159 12.8856 620 87.4677 587.229 486.11
1226 0 52.1193 15.4837 807 82.3866 589.58 486.784
1227 0 55.1698 14.4644 798 83.7218 591.987 487.351
1228 0 54.1224 13.3216 721 88.4743 593.467 485.817
1229 0 58.1446 13.5352 787 87.9708 594.76 486.051
1230 0 61.1874 13.9408 853 88.3247 595.444 485.378
1231 0 64.1502 14.4505 927 88.8091 595.648 485.015
1232 0 64.4068 15.2468 982 89.6884 597.354 481.865
1233 0 67.1406 15.058 1011 90.3116 596.435 485.527
1234 0 71.1472 13.6759 973 92.3422 596.058 487.281
1235 0 77.2392 15.8598 1225 89.1298 595.12 486.168
1236 1 39.0649 10.009 391 96.5192 594.064 503.455
1237 0 41.072 10.4694 430 96.0116 592.895 504.112
1238 0 45.3338 12.5513 569 92.754 593.524 500.527
1239 0 47.1868 12.6518 597 92.794 590.484 500.045
1240 0 48.1566 11.7118 564 95.3032 588.177 497.365
1241 0 52.0692 14.6344 762 89.0761 585.951 496.752
1242 0 53.0902 12.9591 688 92.3721 585.253 494.879
1243 0 55.0811 14.4696 797 90.8256 584.519 490.93
1244 0 58.1457 12.8814 749 93.1656 583.728 488.622
1245 0 58.1179 14.2125 826 91.6295 583.398 487.43
1246 0 60.1705 14.2429 857 91.4154 583.886 484.324
1247 0 64.195 15.0012 963 90.2181 583.618 481.779
1248 0 65.193 13.9586 910 92.9176 584.394 480.1
1249 0 68.1345 15.0438 1025 91.4341 585.215 477.103
1250 0 72.2119 14.679 1060 91.1424 585.753 477.157
1251 0 73.1046 14.3219 1047 92.4384 586.368 475.156
1252 0 79.1664 15.3095 1212 89.3325 586.56 474.158
1253 1 40.0553 9.8364 394 91.6675 587.99 494.68
1254 0 41.0484 11.2063 460 90.4391 588.635 494.126
1255 0 46.0836 12.1084 558 88.4964 590.982 494.011
1256 0 45.03 11.6145 523 91.6883 591.7 490.899
1257 0 48.2711 11.4354 552 90.558 594.303 492.632
1258 0 51.2857 12.6546 649 91.718 595.727 493.28
1259 0 52.1189 13.1622 686 92.1764 595.955 493.332
1260 0 52.166 12.9778 677 93.6219 594.535 493.523
1261 0 57.126 12.1836 696 93.2026 594.093 492.976
1262 0 60.1158 14.1893 853 90.3236 593.637 492.841
1263 0 62.0933 12.2236 759 95.7497 592.165 490.393
1264 0 65.1237 13.436 875 94.4183 590.519 489.222
1265 0 68.1661 13.5405 923 94.6414 588.952 489.177
1266 0 72.1606 13.4838 973 95.1141 586.419 487.747
1267 0 76.1082 12.3246 938 98.1077 584.934 484.709
1268 1 44.0662 10.9835 484 96.3037 584.122 499.506
1269 0 44.047 12.0099 529 96.9149 582.55 497.055
1270 0 43.0373 12.1755 524 158.319 580.55 496.914
1271 0 45.1838 10.07 455 100.226 582.769 492.862
1272 0 51.3146 12.7059 652 96.6595 582.394 488.776
1273 0 51.1304 13.5145 691 95.4616 581.909 488.204
1274 0 52.2259 13.6905 715 95.5734 580.923 487.12
1275 0 55.0393 14.0082 771 94.6329 582.156 483.737
1276 0 58.1907 14.6243 851 92.624 582.904 483.296
1277 0 58.0628 13.1926 766 97.0809 583.381 482.881
1278 0 61.13 13.6921 837 97.5962 584.253 481.809
1279 0 64.1593 13.6223 874 97.3902 586.448 481.497
1280 0 63.1818 13.6432 862 98.6543 588.014 478.346
1281 0 67.4146 13.7359 926 97.1166 591.309 476.551
1282 0 70.1926 14.3035 1004 98.1225 593.256 477.28
1283 0 72.3519 14.5124 1050 99.9514 593.495 476.766
1284 0 75.2444 14.7785 1112 99.7203 594.663 477.379
1285 1 43.1934 9.70055 419 102.916 597.15 495.611
1286 0 43.1095 10.7401 463 104.663 596.637 493.873
1287 0 46.211 11.1229 514 100.874 596.451 496.446
1288 0 46.3494 11.2407 521 103.29 596.196 493.8
1289 0 50.1179 12.0516 604 102.197 594.644 494.353
1290 0 52.054 13.3131 693 101.293 592.229 494.293
1291 0 55.0887 13.3784 737 104.388 590.778 491.346
1292 0 58.2057 12.5933 733 106.216 590.499 493.057
1293 0 61.0819 14.0631 859 102.956 589.865 489.998
1294 0 64.0809 16.0734 1030 99.0408 587.451 486.884
1295 0 64.0749 16.0125 1026 137.953 584.437 486.8
1296 0 68.1733 14.1844 967 102.367 585.053 483.99
1297 0 71.0745 15.5893 1108 100.453 584.187 479.63
1298 0 72.1634 13.9267 1005 103.707 583.033 477.084
1299 0 77.1689 14.1637 1093 103.205 582.661 475.128
1300 0 78.1871 14.4781 1132 102.262 582.866 471.29
1301 0 82.1317 15.5117 1274 99.4129 582.151 467.569
1302 0 84.1255 14.4189 1213 102.449 582.212 466.385
1303 0 89.1981 15.9308 1421 98.9346 583.678 464.76
1304 0 90.1676 14.2956 1289 102.936 585.478 463.676
1305 1 47.0146 11.5283 542 97.4631 586.424 488.135
1306 0 49.0622 11.9033 584 100.705 588.524 484.372
1307 0 51.0513 13.2416 676 98.0325 590.692 485.457
1308 0 53.0735 13.5661 720 96.5597 593.518 485.933
1309 0 56.0477 12.8997 723 97.4412 595.015 485.705
1310 0 58.0427 14.1448 821 96.7272 597.442 485.093
1311 0 60.1118 13.5747 816 99.0331 597.585 483.961
1312 0 62.0852 13.5459 841 99.2033 597.465 483.446
1313 0 65.065 13.7862 897 99.359 597.206 483.446
1314 0 67.1003 14.8584 997 97.6861 597.714 484.012
1315 0 71.1833 13.7673 980 99.5653 597.065 484.057
1316 0 73.1194 14.4968 1060 99.3972 595.784 482.475
1317 0 77.1321 14.8187 1143 98.287 594.165 483.247
1318 0 80.2189 15.5325 1246 97.0722 593.308 481.799
1319 0 83.2137 14.2885 1189 99.7948 592.185 478.647
1320 0 86.2136 15.798 1362 97.8884 590.128 477.405
1321 0 90.3024 14.4404 1304 101.319 588.77 473.508
1322 0 90.2364 14.6393 1321 102.926 587.039 467.902
1323 0 95.3001 15.404 1468 100.577 586.428 468.91
1324 1 51.1178 11.8159 604 102.457 586.705 487.613
1325 0 55.1099 11.8309 652 101.018 587.91 486.557
1326 0 56.1013 13.4221 753 99.0956 587.774 484.692
1327 0 58.0883 11.603 674 102.177 586.549 482.97
1328 0 59.0432 13.0582 771 101.249 587.403 480.407
1329 0 62.0317 13.6221 845 99.8095 586.894 477.323
1330 0 62.2641 13.8764 864 101.149 587.248 476.765
1331 0 67.114 15.496 1040 95.9808 587.391 476.268
1332 0 69.1109 14.3248 990 98.6273 589.313 474.958
1333 0 71.0844 13.7864 980 101.409 589.872 472.519
1334 0 74.102 14.2236 1054 100.806 592.277 470.624
1335 0 78.1362 14.4747 1131 100.995 594.652 472.625
1336 0 81.131 15.0497 1221 100.809 596.173 470.652
1337 0 84.1791 14.5167 1222 101.574 597.674 470.781
1338 0 88.1808 12.962 1143 105.613 598.467 470.094
1339 0 92.3754 15.1772 1402 101.459 598.616 468.923
1340 0 97.1876 13.9833 1359 104.117 598.846 467.082
1341 1 52.1867 10.1367 529 105.921 597.968 493.259
1342 0 55.0909 11.2904 622 104.643 596.924 491.315
1343 0 57.1554 12.7197 727 104.007 596.823 490.293
1344 0 62.0636 13.1639 817 101.13 594.426 489.394
1345 0 65.1168 15.1113 984 97.19 592.617 484.88
1346 0 69.103 14.5869 1008 97.7282 591.353 486.952
1347 0 71.0436 13.3017 945 100.674 589.913 482.989
1348 0 73.1451 13.3023 973 100.148 588.613 480.696
1349 0 77.0686 14.4417 1113 97.8598 587.065 477.275
1350 0 79.154 13.758 1089 99.0588 585.548 477.511
1351 0 82.146 12.6969 1043 102.525 585.387 471.918
1352 0 89.3279 15.7062 1403 95.0934 585.88 467.066
1353 0 90.2607 14.3584 1296 98.5432 585.972 465.807
1354 0 92.1155 14.5035 1336 99.8069 585.682 461.564
1355 0 95.0914 13.303 1265 101.226 586.017 461.724
1356 0 99.173 13.4412 1333 100.938 585.64 457.86
1357 0 104.066 14.2987 1488 98.252 586.57 457.206
1358 1 55.0776 11.4747 632 98.1392 587.758 481.252
1359 0 59.1415 11.65 689 98.8244 588.418 477.026
1360 0 59.0809 12.6945 750 96.068 590.928 475.041
1361 0 65.2208 13.6 887 92.4949 592.95 479.112
1362 0 67.1 12.4143 833 95.0948 595.266 478.515
1363 0 70.1293 13.361 937 93.8314 597.255 475.1
1364 0 74.0936 14.6031 1082 92.4649 598.117 475.394
1365 0 76.0981 12.9044 982 95.7607 598.697 477.484
1366 0 78.1363 12.6062 985 98.4629 598.8 475.7
1367 0 83.2493 13.3214 1109 98.6519 598.526 473.699
1368 1 44.0939 8.14172 359 94.5515 597.429 501.443
1369 0 48.012 10.9764 527 93.4554 597.77 495.916
1370 0 51.0829 9.70972 496 97.506 595.851 496.702
1371 0 51.1205 8.54844 437 100.124 594.629 495.025
1372 0 52.0456 9.08818 473 99.4947 592.725 495.279
1373 0 56.1434 13.323 748 91.3944 590.238 493.035
1374 0 57.0883 12.2267 698 93.159 588.797 491.86
1375 0 61.2707 13.3832 820 90.6866 588.444 490.126
1376 0 62.1155 13.2656 824 92.2573 585.653 484.898
1377 0 64.1558 12.3294 791 92.9823 584.332 483.872
1378 0 66.1683 12.7251 842 92.2518 583.825 479.802
1379 0 69.0829 12.941 894 92.2148 583.652 477.653
1380 0 73.0892 13.8598 1013 90.4373 583.774 475.127
1381 0 75.0427 13.5923 1020 91.8137 584.299 476
1382 0 76.2266 13.1057 999 93.3754 584.394 473.194
1383 0 79.173 13.1737 1043 94.6472 585.323 474.33
1384 0 82.232 13.1701 1083 96.0517 586.05 471.054
1385 0 87.3368 13.6369 1191 94.1419 587.314 469.63
1386 0 89.3573 14.3581 1283 94.0249 588.441 465.913
1387 0 91.3911 14.6951 1343 95.2591 589.887 466.644
1388 0 96.3321 14.3566 1383 96.462 591.594 466.641
1389 1 53.1434 10.2553 545 97.8826 594.099 491.782
1390 0 56.05 11.4184 640 96.0547 595.245 492.031
1391 0 55.0546 11.7701 648 98.0448 595.039 490.824
1392 0 57.0656 13.7561 785 95.1605 595.634 489.417
1393 0 60.21 13.2536 798 97.6341 596.812 489.484
1394 0 65.2115 14.0773 918 93.28 595.805 489.923
1395 0 65.1463 12.2187 796 99.1357 594.451 490.783
1396 0 68.1724 13.2605 904 98.5022 593.389 488.638
1397 0 71.263 13.4011 955 98.4848 592 488.401
1398 0 75.1882 13.965 1050 97.001 589.501 484.654
1399 0 80.3656 14.9193 1199 94.7256 589.007 484.173
1400 0 83.275 14.0378 1169 96.9932 587.532 480.787
1401 0 87.2678 14.381 1255 95.8645 586.391 479.467
1402 0 89.2454 14.7122 1313 95.3755 585.251 474.055
1403 0 92.2398 14.9502 1379 95.9347 584.976 472.391
1404 0 96.1988 15.1145 1454 95.4697 584.47 471.226
1405 1 52.0661 11.1589 581 98.3546 583.995 490.275
1406 0 54.0652 11.0422 597 98.5209 584.926 488.682
1407 0 56.1497 11.4159 641 98.0172 585.407 485.317
1408 0 57.1212 11.6594 666 96.6997 584.622 485.508
1409 0 63.3117 12.3674 783 96.3512 583.742 481.84
1410 0 63.1226 14.7174 929 93.1055 584.642 479.347
1411 0 66.098 15.1291 1000 91.399 584.771 477.232
1412 0 68.0356 14.4042 980 93.2429 586.926 478.57
1413 0 71.0643 15.296 1087 91.8261 587.954 476.759
1414 0 73.1504 15.0238 1099 93.1711 588.273 479.717
1415 0 78.2076 14.3081 1119 93.9267 591.209 478.273
1416 0 81.0878 15.0454 1220 93.7623 592.633 475.817
1417 1 42.0891 9.8838 416 93.9976 595.106 498.238
1418 0 45.0548 10.5871 477 94.086 596.482 498.985
1419 0 46.163 10.6796 493 96.2982 596.98 497.822
1420 0 49.1481 12.5742 618 92.9288 595.646 498.395
1421 0 51.1352 12.6527 647 94.3787 595.343 497.654
1422 0 52.0859 12.4026 646 97.774 593.878 494.924
1423 0 55.0423 13.6804 753 95.6839 591.969 497.507
1424 0 56.0669 12.8953 723 98.4675 591.383 495.835
1425 0 59.1361 12.8686 761 98.1866 588.971 496.353
1426 0 62.1058 14.6685 911 94.7344 587.078 493.575
1427 0 66.0524 14.9124 985 96.1706 587.053 491.057
1428 0 67.2139 13.8067 928 99.2306 584.009 488.531
1429 0 71.1312 15.0707 1072 95.4739 583.186 487.808
1430 1 33.0874 9.67134 320 96.7125 583.947 503.75
1431 0 37.1673 11.9191 443 94.0677 583.634 500.585
1432 0 38.1277 10.596 404 96.5025 583.059 499.116
1433 0 41.1764 11.9 490 94.9061 582.708 495.602
1434 0 40.166 12.3985 498 96.0964 582.112 492.946
1435 0 43.0704 13.536 583 94.1201 583.285 493.254
1436 0 44.1003 12.721 561 95.795 581.952 491.066
1437 0 46.321 13.7087 635 94.9795 583.674 490.757
1438 0 48.3155 13.743 664 95.253 584.843 490.014
1439 0 46.3038 12.2668 568 100.614 586.222 489.877
1440 0 50.2936 14.0376 706 96.381 587.554 489.272
1441 0 52.2326 13.2101 690 98.7493 589.02 489.468
1442 0 53.3008 14.1649 755 97.045 591.543 490.192
1443 0 54.2318 13.7004 743 98.8385 592.886 489.262
1444 0 57.2347 14.4493 827 97.0133 593.91 490.115
1445 0 59.1318 14.7467 872 96.6319 595.318 491.423
1446 0 63.1536 14.061 888 97.9437 594.458 491.146
1447 0 65.0857 14.2888 930 98.4538 593.897 489.916
1448 0 67.1349 14.1357 949 98.1138 594.5 490.726
1449 1 36.0756 11.5868 418 98.8421 592.706 505.237
1450 0 37.193 9.06085 337 102.644 592.323 506.706
1451 0 39.1057 10.0241 392 99.9031 590.758 506.235
1452 0 42.1021 11.7809 496 96.6613 589.802 505.167
1453 0 42.0471 11.2731 474 100.086 588.464 502.008
1454 0 44.2072 12.0116 531 99.0264 585.855 500.774
1455 0 45.2539 12.9713 587 96.4753 584.78 500.359
1456 0 48.2647 12.9287 624 95.2292 585.207 498.479
1457 0 48.3237 11.961 578 98.8633 583.481 495.54
1458 0 52.2034 13.5623 708 96.0763 581.9 493.507
1459 0 52.2002 12.4712 651 97.1936 583.45 493.338
1460 0 55.2677 12.6837 701 96.6405 581.846 489.636
1461 0 56.224 12.5391 705 96.3291 582.292 489.586
1462 0 58.2258 12.5718 732 96.3238 582.477 487.307
1463 0 60.1932 13.6892 824 95.6772 582.735 483.265
1464 0 60.3445 12.7435 769 97.8648 583.55 483.032
1465 0 64.4098 13.8023 889 94.6727 584.741 482.19
1466 0 67.5248 13.4025 905 95.3823 585.79 480.848
1467 0 70.5085 12.8637 907 96.2216 587.947 479.066
1468 1 38.0659 12.058 459 90.8954 589.547 497.434
1469 0 39.1592 11.1596 437 94.8421 592.158 495.899
1470 0 41.0802 11.4654 471 94.7155 594.399 495.928
1471 0 42.1361 12.602 531 93.1186 595.537 496.686
1472 0 43.0716 12.4444 536 94.5653 595.569 496.138
1473 0 45.04 11.8117 532 95.5883 595.32 499.261
1474 0 47.1061 14.2232 670 91.1298 593.87 498.442
1475 0 50.1283 13.2261 663 94.1855 592.626 498.023
1476 0 52.102 12.7826 666 95.1802 592.833 499.64
1477 0 53.1499 13.3961 712 94.8455 591.701 499.053
1478 0 56.223 14.0512 790 93.3481 591.201 496.834
1479 0 58.1402 13.6738 795 94.2289 589.774 496.923
1480 0 60.1355 14.617 879 92.521 587.969 493.263
1481 0 62.2807 13.407 835 94.9365 585.501 492.519
1482 0 64.1934 14.0201 900 95.1733 584.623 488.646
1483 0 68.2914 14.9799 1023 93.2278 583.736 486.66
1484 0 70.1624 14.6517 1028 93.5905 583.357 484.336
1485 0 73.1802 13.9109 1018 96.2495 582.897 480.85
1486 0 76.1934 14.437 1100 95.5527 582.001 477.788
1487 0 78.2813 14.3585 1124 96.2838 581.899 474.892
1488 0 81.2166 14.1474 1149 97 581.958 474.672
1489 0 83.2115 14.6254 1217 97.4034 583.121 470.92
1490 0 87.3389 14.8044 1293 97.9714 582.996 466.544
1491 0 89.1646 14.1199 1259 100.213 584.303 467.25
1492 0 93.4446 14.1153 1319 101.816 584.635 464.323
1493 0 96.4076 14.9262 1439 100.808 585.35 465.273
1494 0 101.212 16.3419 1654 98.4395 587.693 462.464
1495 1 43.2642 10.7479 465 99.9548 589.544 493.256
1496 0 46.4257 12.1054 562 99.8897 591.484 489.902
1497 0 50.3844 9.90387 499 102.279 593.405 491.22
1498 0 52.2155 11.7398 613 100.806 593.752 490.145
1499 0 56.3114 12.786 720 97.625 593.815 489.815
1500 0 57.4022 12.2295 702 100.808 593.859 489.466
1501 0 57.1664 11.2304 642 102.902 593.838 489.878
1502 0 61.2967 11.3383 695 101.245 592.342 491.64
1503 0 64.2367 12.921 830 99.1602 592.192 490.381
1504 0 66.2302 11.762 779 101.846 591.135 489.279
1505 0 71.1707 12.5473 893 99.1691 588.932 488.821
1506 0 73.1706 12.7373 932 98.2275 587.852 488.097
1507 0 74.1294 11.7093 868 100.438 586.522 484.183
1508 0 77.1259 11.6563 899 99.9522 585.942 485.884
1509 0 85.1064 9.18849 782 101.705 584.281 484.89
1510 0 85.0945 12.2217 1040 96.1558 583.994 479.554
1511 1 45.0888 10.7122 483 94.9938 583.219 495.344
1512 0 48.1332 12.2577 590 92.817 582.434 492.851
1513 0 49.097 13.0762 642 89.919 581.132 493.57
1514 0 49.1057 12.7073 624 92.5144 581.242 490.25
1515 0 51.1451 11.7704 602 94.4651 581.458 488.309
1516 0 54.1885 13.1024 710 90.9493 582.245 487.459
1517 0 54.0991 13.1241 710 93.0099 582.507 484.616
1518 0 57.0576 13.6529 779 91.439 583.209 484.236
1519 0 59.0486 13.6667 807 90.6753 583.239 484.739
1520 0 61.0282 14.4032 879 90.2969 583.752 481.562
1521 0 63.1342 13.7802 870 91.0046 585.96 483.422
1522 0 66.145 13.7879 912 90.0164 587.637 480.752
1523 0 67.0692 13.2401 888 92.0619 590.218 480.053
1524 0 71.0444 14.2165 1010 88.9129 591.585 481.496
1525 1 41.0312 9.60245 394 91.2589 593.063 498.401
1526 0 38.0387 10.463 398 90.6884 594.322 497.58
1527 0 42.0366 11.4424 481 87.1019 596.104 499.538
1528 0 44.2447 12.0014 531 86.8719 595.284 499.024
1529 0 45.1627 12.4439 562 87.2153 595.55 499.504
1530 0 49.2339 12.207 601 86.6839 593.409 499.012
1531 0 48.1707 12.082 582 87.9656 591.9 498.125
1532 0 49.208 12.5589 618 86.5 591.22 499.393
1533 0 50.2885 12.1499 611 86.5597 589.75 496.229
1534 0 57.2461 14.8307 849 80.0895 588.945 493.044
1535 0 68.438 19.7405 1351 65.2339 586.876 481.725
1536 0 69.305 19.4214 1346 67.9502 585.364 485.996
1537 0 70.2462 20.8267 1463 67.499 583.854 483.308
1538 0 71.3584 19.7734 1411 69.9695 584.004 485.334
1539 0 70.1349 16.8532 1182 74.9873 583.176 481.628
1540 0 71.203 16.2774 1159 77.5444 583.314 483.142
1541 0 72.1868 16.0556 1159 78.9336 583.077 481.54
1542 0 71.1945 14.1022 1004 83.3247 583.521 480.694
1543 1 39.0285 10.4795 409 83.9633 585 495.421
1544 0 41.3429 9.62681 398 86.6583 584.673 493.465
1545 0 44.0909 11.4082 503 83.6879 585.125 494.6
1546 0 42.0698 9.79325 412 88.5655 585.362 493.388
1547 0 43.0853 10.3284 445 88.2831 586.24 493.344
1548 0 47.0334 13.5011 635 82.6016 587.526 493.457
1549 0 46.1546 12.3931 572 86.4545 589.084 492.545
1550 0 48.1072 13.2828 639 85.421 591.454 493.725
1551 0 52.1443 13.5585 707 86.884 591.967 493.17
1552 0 53.2084 15.2983 814 84.3833 593.833 492.888
1553 0 56.1087 13.2065 741 88.5857 594.468 492.745
1554 0 58.2859 15.3553 895 84.9553 595.354 492.318
1555 0 61.1601 13.9143 851 88.376 594.781 491.323
1556 0 65.0893 14.7951 963 85.4237 593.868 491.606
1557 0 66.1357 15.7857 1044 85.6025 593.211 489.511
1558 0 69.2774 14.2615 988 88.7429 592.332 489.462
1559 0 72.2474 15.5023 1120 87.3705 590.975 488.671
1560 0 75.4365 13.9853 1055 89.8446 589.745 487.188
1561 1 42.2262 12.1725 514 87.7412 588.757 503.161
1562 0 42.1071 10.592 446 89.7915 586.803 501.946
1563 0 46.1077 12.3841 571 85.4939 585.55 501.961
1564 0 46.1036 11.5392 532 87.7237 585.462 499.118
1565 0 47.3372 13.3299 631 86.8209 583.865 493.052
1566 0 47.1006 11.5073 542 88.8303 583.662 492.518
1567 0 52.1193 12.8551 670 85.9224 583.367 490.5
1568 0 53.1125 12.916 686 85.9927 582.955 486.961
1569 0 56.1245 13.5413 760 84.5316 582.403 486.282
1570 0 57.1833 12.6086 721 86.1415 581.931 484.388
1571 0 62.2412 14.7651 919 81.6039 582.006 481.124
1572 0 62.3169 13.8004 860 84.3221 583.087 479.083
1573 0 65.503 15.755 1032 80.8566 583.947 478.869
1574 0 66.4616 14.0382 933 84.478 585.034 474.333
1575 0 67.2852 13.2124 889 87.0855 586.303 473.719
1576 0 70.3663 13.046 918 86.9368 587.49 472.979
1577 0 73.3421 15.3936 1129 84.0974 589.951 471.237
1578 0 78.3696 13.9722 1095 85.8146 591.529 473.656
1579 0 80.465 13.0243 1048 87.146 592.85 473.459
1580 0 86.3733 14.7731 1276 84.2915 594.214 472.508
1581 0 87.401 13.0204 1138 88.449 595.236 470.95
1582 1 45.2653 8.06358 365 91.9288 595.962 492.395
1583 0 50.1641 11.4624 575 87.6783 594.981 490.231
1584 0 52.0736 11.1765 582 88.3522 595.218 492.515
1585 0 59.2677 13.7005 812 82.25 594.993 494.831
1586 0 59.2825 13.2417 785 84.8229 593.698 493.689
1587 0 62.3026 14.3814 896 81.7857 590.964 484.333
1588 0 66.1931 13.6268 902 83.7539 590.315 487.067
1589 0 70.1915 15.1015 1060 80.9943 588.842 484.939
1590 0 72.292 14.3723 1039 82.4081 585.949 480.608
1591 0 73.4072 13.5545 995 84.402 584.359 478.183
1592 0 76.3488 12.7179 971 86.1668 583.997 476.305
1593 0 80.3824 13.7343 1104 83.6005 582.189 471.705
1594 0 82.4749 15.1319 1248 82.7845 581.89 468.602
1595 0 86.4982 13.7228 1187 84.524 581.514 463.773
1596 1 45.1617 10.6285 480 85.1812 580.84 483.652
1597 0 48.1018 10.6857 514 85.0525 580.302 481.59
1598 0 49.0829 11.6334 571 83.7636 580.672 480.96
1599 0 52.1579 10.4874 547 85.1353 583.424 481.101
1600 0 53.2867 11.0346 588 84.852 584.777 479.762
1601 0 57.2019 13.4086 767 80.8175 585.776 483.369
1602 0 56.2263 11.5249 648 85.2006 586.941 479.554
1603 0 61.2047 13.0219 797 82.7164 587.176 480.158
1604 0 62.1939 12.3646 769 84.5228 588.395 479.456
1605 0 68.218 13.7794 940 81.0213 590.561 480.987
1606 0 70.2948 14.24 1001 82.3267 592.781 478.304
1607 0 73.279 15.4205 1130 80.5487 593.53 479.896
1608 0 74.1335 12.9226 958 86.4509 594.315 477.023
1609 0 78.2939 14.1901 1111 85.0909 594.908 478.216
1610 0 83.2972 14.2262 1185 85.9367 594.651 477.532
1611 0 86.2252 14.1258 1218 87.0796 594.201 476.683
1612 1 46.0836 11.2187 517 88.8259 594.692 497.47
1613 0 49.0945 11.9158 585 88.5299 593.055 498.128
1614 0 52.1385 14.0971 735 85.898 592.241 497.229
1615 0 55.1168 12.791 705 87.705 591.077 497.061
1616 0 57.0828 11.9476 682 89.0029 589.774 495.748
1617 0 59.0768 13.1524 777 87.4582 587.616 491.755
1618 0 60.1082 11.629 699 90.0987 586.383 490.109
1619 0 64.0756 12.0951 775 89.6658 584.879 485.556
1620 0 67.2948 15.0086 1010 84.996 583.814 484.484
1621 0 67.1733 14.4998 974 86.346 584.002 480.67
1622 0 71.3371 15.0693 1075 85.6754 583.763 478.709
1623 0 74.1958 13.7474 1020 87.9255 582.903 476.226
1624 0 75.2716 13.3118 1002 89.6297 583.266 473.18
1625 0 81.4259 15.4865 1261 84.8699 583.398 471.6
1626 0 83.1756 14.1748 1179 88.0297 583.692 470.264
1627 0 85.3657 15.0412 1284 87.6667 584.741 467.224
1628 1 43.251 9.68763 419 90.0788 585.539 488.446
1629 0 47.2974 11.5017 544 87.2335 587.498 488.178
1630 0 48.1815 11.1039 535 90.1869 587.163 486.557
1631 0 50.3528 11.5982 584 89.6216 589.281 486.622
1632 0 52.1905 11.8029 616 90.1331 591.211 486.563
1633 0 52.2104 13.503 705 87.4837 592.563 486.711
1634 0 58.2116 13.9663 813 86.0775 594.736 486.926
1635 0 58.2292 13.1034 763 90.2412 595.826 484.866
1636 0 60.1697 14.2264 856 89.1717 595.575 486.165
1637 0 62.0457 12.5069 776 93.9961 595.178 483.302
1638 0 67.1913 13.856 931 90.9098 596.693 484.452
1639 0 69.3893 12.7541 885 93.4023 594.86 485.155
1640 0 73.4893 13.8388 1017 92.6018 594.373 484.473
1641 0 76.5192 14.7545 1129 92.6944 593.744 482.492
1642 0 81.4906 15.0938 1230 92.5317 592.539 482.211
1643 0 82.418 14.2081 1171 95.5833 592.04 479.929
1644 1 45.307 8.21066 372 97.336 591.403 498.226
1645 0 47.2966 10.4659 495 93.2788 589.865 497.15
1646 0 49.181 9.21088 453 95.7506 587.936 494.669
1647 0 51.0813 11.4132 583 90.3002 586.178 495.201
1648 0 53.0924 12.224 649 89.9646 584.59 491.562
1649 0 55.2471 12.4712 689 88.582 582.724 490.721
1650 0 55.1377 13.2033 728 88.9478 583.195 487.652
1651 0 57.1185 12.4828 713 89.3689 583.676 487.259
1652 0 59.1922 12.924 765 90.0118 583.493 482.512
1653 0 61.0563 13.9052 849 87.6808 583.688 482.967
1654 0 63.1129 14.0383 886 87.9278 583.449 479.569
1655 0 64.0532 13.4107 859 90.6857 584.077 478.603
1656 0 65.1587 13.3674 871 91.3536 584.824 478.529
1657 0 69.0599 13.1335 907 92.1555 585.982 477.14
1658 0 72.1083 15.0191 1083 88.7839 587.488 476.351
1659 0 74.1027 14.9927 1111 90.8227 589.978 476.243
1660 0 76.1101 13.2834 1011 95.1563 590.828 476.564
1661 0 81.091 14.6625 1189 92.656 592.801 475.621
1662 0 83.1095 13.1152 1090 95.9303 594.831 475.204
1663 1 47.1478 10.2444 483 95.1615 595.075 493.244
1664 0 49.0346 10.0133 491 95.1405 595.253 496.36
1665 0 47.0751 10.0903 475 99.0253 593.914 493.305
1666 0 53.047 10.6509 565 94.5133 593.598 496.832
1667 0 54.0517 11.489 621 93.7101 592.824 496.167
1668 0 54.0517 11.4705 620 142.86 591.802 496.087
1669 0 59.027 12.4689 736 93.0353 591.08 494.47
1670 0 63.0604 12.9875 819 89.9756 588.69 493.39
1671 0 62.1492 11.4563 712 95.191 588.374 490.212
1672 0 64.1206 12.8664 825 92.24 587.051 487.006
1673 0 70.2074 13.5883 954 89.7432 585.346 485.363
1674 0 73.1316 12.7852 935 91.5743 584.69 484.099
1675 1 40.1239 9.47066 380 91.7605 584.458 498.461
1676 0 45.1714 8.83302 399 88.3233 583.99 498.313
1677 0 44.1919 11.1559 493 86.8783 583.888 494.639
1678 0 45.0661 10.4513 471 88.8004 582.454 491.786
1679 0 47.1387 10.6919 504 86.3056 582.002 490.845
1680 0 47.1353 11.9868 565 85.6088 583.756 486.727
1681 0 50.2687 12.5326 630 83.9556 583.838 485.565
1682 0 52.1404 13.3294 695 83.4806 583.914 484.201
1683 0 51.1461 10.9295 559 86.7299 583.347 483.635
1684 0 55.278 14.5085 802 80.8392 584.152 483.651
1685 0 56.2077 13.0409 733 82.7012 586.497 480.975
1686 0 60.1294 13.5541 815 80.5902 587.023 483.045
1687 0 61.179 13.9263 852 80.9883 589.02 481.869
1688 0 67.3184 17.2464 1161 72.8527 592.089 479.599
1689 0 66.4143 13.1749 875 80.1463 593.618 476.32
1690 0 69.332 13.4137 930 79.9903 594.845 480.617
1691 0 72.3124 13.1789 953 79.7891 596.25 480.73
1692 0 73.2614 13.1038 960 80.7719 595.534 474.779
1693 0 75.2406 13.2641 998 79.7946 595.502 478.951
1694 0 80.2037 14.937 1198 77.8656 595.083 476.989
1695 1 45.1158 9.84133 444 81.3761 594.356 497.516
1696 0 46.0907 9.95862 459 81.5599 594.449 497.094
1697 0 49.0761 11.7776 578 80.4879 592.093 496.014
1698 0 50.0302 13.1521 658 76.5304 589.663 495.078
1699 0 53.1231 12.0475 640 78.6312 590.697 493.345
1700 0 55.0387 13.0454 718 76.993 589.407 492.202
1701 0 57.0582 13.5125 771 77.0817 589.101 490.064
1702 0 59.1 12.7411 753 78.1899 587.644 487.927
1703 0 61.0992 13.9609 853 76.6131 585.898 485.222
1704 0 64.3633 14.0919 907 75.9846 585.068 483.408
1705 0 66.129 13.5341 895 77.5899 584.715 479.07
1706 0 67.0911 13.2506 889 78.82 584.18 478.699
1707 0 67.112 11.7416 788 82.4784 583.278 476.335
1708 0 72.166 14.3558 1036 79.277 582.559 471.983
1709 0 74.2616 13.8295 1027 80.8695 584.857 470.986
1710 1 40.0392 9.69049 388 84.0232 586.183 488.461
1711 0 43.1313 9.94637 429 84.5734 587.49 486.324
1712 0 43.0469 11.5456 497 82.3018 588.897 487.137
1713 0 46.0546 10.3138 475 84.56 590.43 487.175
1714 0 49.145 14.2843 702 80.0242 591.764 484.907
1715 0 51.0293 13.7176 700 80.5857 592.51 486.111
1716 0 52.185 12.9731 677 84.938 595.778 486.146
1717 0 55.2828 13.6751 756 83.6587 597.381 487.275
1718 0 56.1963 13.435 755 85.0556 597.942 486.062
1719 0 58.1389 14.5514 846 84.2849 597.684 486.104
1720 0 59.2201 12.9517 767 89.472 598.458 485.244
1721 0 64.1565 14.0282 900 85.7144 597.847 488.836
1722 0 67.3029 14.5759 981 85.0194 597.405 485.704
1723 0 71.2254 15.9353 1135 84.0026 595.709 488.789
1724 0 72.2105 15.0809 1089 87.0294 595.388 487.655
1725 0 75.1312 15.2932 1149 88.5822 593.335 485.209
1726 0 79.2148 16.4111 1300 86.2554 591.494 484.668
1727 1 41.0513 9.208 378 96.2381 591.183 499.032
1728 0 46.1261 13.0512 602 90.0764 589.975 497.233
1729 0 46.0352 13.0987 603 90.5307 588.783 497.221
1730 0 49.1137 13.1939 648 90.1559 587.702 494.96
1731 0 53.1067 13.3316 708 87.3192 586.701 494.071
1732 0 53.2003 13.9849 744 88.7191 584.887 489.095
1733 0 54.154 13.6093 737 90.1221 584.944 486.697
1734 0 56.1648 13.1043 736 91.4321 583.829 483.432
1735 0 58.1255 13.3676 777 91.1699 583.595 482.353
1736 0 62.2112 15.0294 935 87.6332 583.603 480.534
1737 0 67.2918 16.0495 1080 83.6676 584.881 476.657
1738 0 65.2292 14.794 965 89.1751 586.34 474.695
1739 0 66.1933 13.8987 920 91.5304 586.973 475.847
1740 0 68.1483 14.3657 979 91.3504 586.684 477.278
1741 0 72.1771 14.118 1019 91.6045 588.401 475.484
1742 0 72.2524 14.2694 1031 92.2949 590.439 475.248
1743 0 77.273 15.9693 1234 89.3574 592.491 472.586
1744 0 79.2259 16.1311 1278 89.2629 593.677 473.517
1745 0 83.2136 14.7812 1230 92.1049 595.494 474.959
1746 0 85.333 15.1641 1294 92.3941 596.913 473.539
1747 0 89.3609 15.0289 1343 92.758 597.734 471.73
1748 0 92.1987 15.1629 1398 93.3848 597.813 472.168
1749 1 49.0764 11.2274 551 94.931 596.69 494.087
1750 0 49.0585 10.9665 538 95.6877 596.351 496.883
1751 0 53.062 11.5902 615 96.4423 595.299 493.223
1752 0 57.0814 12.4734 712 92.9157 593.506 495.117
1753 0 58.0408 13.6283 791 91.1783 591.3 492.46
1754 0 60.201 12.8735 775 93.2245 590.021 491.154
1755 0 64.1769 13.8991 892 90.2825 588.377 489.13
1756 0 67.3278 14.5111 977 88.9468 587.794 486.11
1757 0 68.4862 14.2802 978 88.9806 586.359 485.496
1758 0 71.2526 14.8766 1060 88.8566 585.478 481.545
1759 0 75.2487 14.1132 1062 89.4162 584.804 480.908
1760 0 76.2156 14.6295 1115 89.3587 584.039 476.929
1761 0 78.3016 13.3331 1044 91.7203 583.924 471.272
1762 0 81.1498 14.8244 1203 88.2502 583.636 469.259
1763 0 84.3097 13.142 1108 91.1904 583.793 469.79
1764 0 90.2278 15.9153 1436 84.9311 584.663 465.682
1765 0 93.288 14.6321 1365 87.5407 585.642 467.263
1766 0 95.2315 16.5071 1572 85.1749 586.079 462.477
1767 0 95.4131 14.0966 1345 90.3584 587.082 460.194
1768 0 100.135 14.5204 1454 89.9209 588.082 460.844
1769 0 102.364 13.6181 1394 92.5545 590.017 459.025
1770 0 105.452 14.2529 1503 92.2049 591.046 457.27
1771 0 111.449 15.2895 1704 89.9736 593.593 456.724
1772 0 112.365 14.3817 1616 92.7339 593.975 454.652
1773 0 118.325 13.6573 1616 93.8781 595.416 452.23
1774 0 126.557 15.0208 1901 90.7549 596.282 451.586
1775 0 135.478 15.8403 2146 89.7069 596.262 451.904
1776 0 138.517 15.37 2129 92.4523 595.875 447.888
1777 0 146.474 15.088 2210 92.1692 595.137 449.287
1778 1 74.2816 10.4198 774 94.314 594.88 484.107
1779 0 80.3784 13.3245 1071 89.9711 593.012 480.895
1780 0 85.3096 13.5975 1160 88.9034 591.996 480.448
1781 0 87.3166 13.3995 1170 89.7872 590.768 477.424
1782 0 90.1895 14.6691 1323 87.4361 589.138 472.01
1783 0 94.2783 14.839 1399 86.8635 587.337 470.937
1784 0 97.4083 13.5717 1322 89.3495 585.638 469.061
1785 0 104.186 16.1058 1678 84.8748 585.538 466.731
1786 0 107.321 15.5887 1673 86.5362 584.513 459.959
1787 0 112.402 15.8538 1782 85.4759 583.423 460.696
1788 0 115.379 14.2227 1641 88.1798 583.087 457.714
1789 0 120.305 13.6736 1645 90.1799 583.345 453.102
1790 0 123.6 15.1861 1877 88.1945 583.366 449.734
1791 1 70.0953 12.5971 883 87.2514 583.04 475.382
1792 0 69.1872 10.8402 750 92.42 583.039 471.663
1793 0 74.1474 13.7834 1022 86.6859 583.776 472.309
1794 0 79.1125 15.6612 1239 83.4544 584.752 472.121
1795 0 80.1876 13.8301 1109 86.4527 585.578 471.898
1796 0 83.4691 13.8854 1159 88.1717 587.714 470.213
1797 0 86.2967 14.0214 1210 88.2851 588.173 469.973
1798 0 89.2782 14.9757 1337 87.3306 589.457 467.088
1799 0 93.1753 14.1883 1322 88.9735 592.035 467.43
1800 0 98.272 15.5385 1527 86.7996 592.604 467.519
1801 0 100.272 13.5831 1362 91.3106 594.49 465.842
1802 0 105.157 16.4897 1734 86.4244 594.027 463.827
1803 1 58.0651 9.98879 580 91.9845 593.355 489.364
1804 0 60.0753 12.1514 730 90.0822 593.819 488.259
1805 0 64.0906 12.7008 814 88.7543 592.362 489.553
1806 0 66.2123 15.1784 1005 86.2816 592.396 488.217
1807 0 68.1347 14.0457 957 87.5308 591.014 488.336
1808 0 73.1219 15.1528 1108 85.4504 590.118 485.966
1809 0 76.0762 14.7484 1122 88.0098 587.714 482.329
1810 0 79.0872 14.0857 1114 89.3214 585.817 479.672
1811 0 82.1679 15.1154 1242 87.8961 586.472 478.753
1812 0 86.2082 14.1286 1218 89.7438 584.976 476.934
1813 0 87.2683 14.7362 1286 90.4036 584.232 471.443
1814 0 94.1762 17.9557 1691 83.0769 583.698 468.593
1815 1 47.1058 11.9306 562 88.6121 583.744 490.37
1816 0 50.1432 11.5868 581 90.3632 583.324 487.349
1817 0 50.2013 12.41 623 90.2344 582.743 485.738
1818 0 52.2626 12.3415 645 91.3302 583.532 484.149
1819 0 54.4942 13.3225 726 90.2576 584.627 481.116
1820 0 59.1377 15.1849 898 85.8976 585.943 481.762
1821 0 59.1431 15.6231 924 85.3712 587.659 480.404
1822 0 62.1856 14.714 915 87.3858 588.385 478.569
1823 0 64.1043 14.882 954 87.1436 589.675 479.403
1824 0 66.2236 14.0433 930 89.7828 591.16 477.629
1825 0 69.209 13.9866 968 90.7169 592.47 478.58
1826 0 70.131 14.9435 1048 90.02 595.514 479.188
1827 0 72.194 14.1425 1021 92.8903 596.667 478.728
1828 0 75.1322 14.8405 1115 91.1462 597.616 477.81
1829 0 80.1097 15.3415 1229 90.236 597.561 476.861
1830 0 83.3311 13.8004 1150 94.5296 598.097 477.112
1831 1 44.259 9.62517 426 96.4976 597.143 497.045
1832 0 47.2768 10.5972 501 97.2475 597.152 495.054
1833 0 48.2767 14.0441 678 92.6534 595.993 495.139
1834 0 52.1272 12.2201 637 95.9686 594.253 495.542
1835 0 54.0719 14.1108 763 93.1678 593.069 493.093
1836 0 58.2438 14.5938 850 91.9 592.094 491.334
1837 0 57.1938 13.0609 747 96.9116 589.79 488.827
1838 0 62.0753 13.7897 856 94.1145 588.547 489.264
1839 0 63.232 15.1189 956 92.296 588.119 484.471
1840 0 66.3482 14.9816 994 93.1147 587.072 482.35
1841 0 68.4078 14.5013 992 94.37 586.047 479.035
1842 0 73.3758 14.3235 1051 93.4167 586.139 477.38
1843 0 76.5447 16.2911 1247 90.0626 586.578 476.636
1844 0 78.5115 14.8259 1164 94.4278 586.049 471.03
1845 0 79.4595 14.4602 1149 95.9948 586.062 468.637
1846 0 82.3782 14.397 1186 98.1416 585.99 465.293
1847 0 87.4353 14.6966 1285 96.7759 586.778 464.483
1848 0 88.5706 14.2937 1266 99.064 587.018 463.094
1849 1 50.3955 11.8066 595 97.6118 588.721 482.615
1850 0 54.2563 13.086 710 94.6563 589.359 482.613
1851 0 56.4045 11.4707 647 98.7233 589.957 482.983
1852 0 59.2523 12.5565 744 97.7016 591.559 481.727
1853 0 60.1382 15.2815 919 93.3264 593.276 483.33
1854 0 62.3398 13.7152 855 97.5708 595.501 481.649
1855 0 65.1936 14.0351 915 96.9279 596.607 481.353
1856 0 66.1295 13.3828 885 97.7842 597.244 479.872
1857 0 70.3299 12.5551 883 98.3647 598.46 481.43
1858 0 75.3684 13.9714 1053 94.8718 598.316 480.033
1859 0 79.347 14.3043 1135 93.8106 597.011 478.793
1860 0 82.2916 13.1605 1083 96.1699 596.147 477.01
1861 1 46.3173 10.2122 473 91.9873 596.594 496.634
1862 0 48.1681 9.3838 452 91.8628 595.308 496.706
1863 0 51.191 10.5292 539 89.9926 593.924 495.963
1864 0 53.2673 9.16135 488 89.584 592.613 495.846
1865 0 56.182 11.4449 643 87.86 590.454 491.49
1866 0 59.0517 12.5483 741 86.9852 589.698 489.634
1867 0 60.1189 13.0741 786 87.916 586.9 487.337
1868 0 62.2647 12.3826 771 89.2386 586.534 482.506
1869 0 65.2818 11.7491 767 89.3533 586.267 482.381
1870 0 65.3654 12.346 807 89.8563 586.402 480.473
1871 0 71.2401 12.7597 909 88.7976 585.32 475.38
1872 0 72.3526 13.1578 952 88.8046 585.53 472.151
1873 0 73.1633 11.5768 847 91.5159 586.46 473.862
1874 0 76.2265 12.9089 984 89.9817 585.631 471.666
1875 0 79.2635 13.9535 1106 90.4629 586.081 467.135
1876 0 80.2399 12.5 1003 93.7956 587.699 466.385
1877 0 83.2589 13.8003 1149 92.1758 588.628 467.604
1878 0 87.3081 13.6528 1192 94.3809 590.039 463.942
1879 0 91.2653 13.773 1257 94.6595 591.035 462.833
1880 0 91.1727 12.1747 1110 97.6234 591.628 462.576
1881 1 46.0164 10.2572 472 95.3814 594.636 485.544
1882 0 57.1347 8.69874 497 94.9678 597.418 489.185
1883 0 56.0492 10.0983 566 97.3357 599.36 486.682
1884 0 59.045 11.9739 707 95.1513 599.646 486.801
1885 0 59.0812 11.9158 704 97.5952 600.237 487.452
1886 0 63.1565 11.8436 748 98.5976 599.048 486.695
1887 0 65.0554 12.4048 807 99.4957 597.446 485.622
1888 0 69.2529 14.1799 982 97.6833 596.162 484.662
1889 0 72.3022 13.4989 976 99.9293 595.631 483.657
1890 0 74.3347 13.2509 985 101.452 594.449 483.18
1891 0 78.2177 12.7593 998 103.397 592.508 481.375
1892 0 81.1794 12.8604 1044 104.51 591.411 478.824
1893 0 86.097 13.5661 1168 102.018 590.598 476.975
1894 0 87.105 13.788 1201 103.132 589.316 473.667
1895 0 92.221 13.3267 1229 104.112 587.65 471.34
1896 0 96.1191 13.1503 1264 106.263 585.466 467.405
1897 0 98.1859 13.4337 1319 106.439 585.13 464.946
1898 0 104.207 13.406 1397 106.412 585.283 461.625
1899 1 55.0774 9.82254 541 105.048 585.586 485.658
1900 0 57.0948 10.8241 618 105.61 585.652 481.188
1901 0 60.0205 10.0799 605 108.417 586.04 478.083
1902 0 61.0582 12.2342 747 104.241 586.462 477.387
1903 0 64.0905 12.8412 823 103.923 586.785 474.966
1904 0 69.2067 14.7818 1023 98.5132 587.323 474.485
1905 0 69.2726 14.8111 1026 99.6384 586.241 472.717
1906 0 70.3009 14.6798 1032 101.012 587.841 470.973
1907 0 72.111 14.3667 1036 101.902 589.96 472.284
1908 0 76.1943 13.8856 1058 103.832 592.992 472.84
1909 0 80.4037 14.7008 1182 101.822 593.725 472.021
1910 0 84.2421 14.9213 1257 100.955 595.033 471.738
1911 0 86.5454 14.7322 1275 102.577 596.401 471.598
1912 0 90.6035 15.761 1428 100.174 597.286 469.683
1913 1 47.462 9.64983 458 103.983 596.614 492.777
1914 0 47.2646 11.8693 561 101.032 596.709 494.406
1915 0 52.3275 11.6764 611 101.029 596.376 492.617
1916 0 54.7131 11.1856 612 102.59 595.023 492.051
1917 0 57.6578 13.0078 750 100.125 593.62 491.18
1918 0 59.7104 13.0463 779 100.815 592.16 490.583
1919 0 61.1442 13.7707 842 99.9786 591.266 489.896
1920 0 66.5854 14.4626 963 97.2316 589.855 489.436
1921 0 67.614 14.0947 953 99.1375 589.573 485.19
1922 0 71.8243 15.2316 1094 95.8656 588.236 484.651
1923 0 71.6609 13.8848 995 101.232 587.029 481.233
1924 0 75.6409 15.0977 1142 98.0613 585.434 477.856
1925 0 77.9275 15.1808 1183 98.891 584.892 477.103
1926 0 81.6502 15.7746 1288 97.9456 584.53 473.766
1927 0 83.6152 13.9448 1166 102.003 583.717 471.714
1928 0 92.7452 21.1332 1960 84.9429 584.122 462.434
1929 0 93.6527 17.9707 1683 92.1153 584.474 461.995
1930 0 95.8147 15.5091 1486 97.9334 585.074 463.843
1931 0 95.604 14.3927 1376 101.98 585.044 462.833
1932 1 51.5616 9.1735 473 103.892 585.782 487.444
1933 0 52.6793 11.3897 600 101.375 586.212 486.93
1934 0 54.4148 11.7064 637 101.531 587.176 483.978
1935 0 57.377 11.4506 657 101.486 588.195 484.711
1936 0 59.1807 13.67 809 98.2695 590.918 485.784
1937 0 60.5262 13.647 826 95.4758 593.157 485.35
1938 0 61.6983 13.177 813 96.7417 594.517 484.781
1939 0 65.6629 14.2089 933 94.2058 595.384 484.741
1940 0 69.3652 14.157 982 94 595.42 484.925
1941 0 71.5762 14.7814 1058 93.7004 596.328 486.336
1942 0 76.5988 14.3344 1098 93.561 595.716 487.2
1943 0 77.5008 13.3547 1035 96.687 594.687 486.552
1944 1 44.3115 11.0806 491 94.5092 593.888 503.519
1945 0 45.1983 10.0004 452 93.6748 592.611 505.053
1946 0 49.1198 11.7468 577 90.8146 592.092 502.674
1947 0 49.1008 12.953 636 90.8176 588.722 500.855
1948 0 52.0897 12.3441 643 89.9114 588.347 501.075
1949 0 53.0405 12.6696 672 89.7143 585.847 498.689
1950 0 55.0383 12.4277 684 89.174 584.55 497.735
1951 0 56.0701 12.2704 688 88.6541 582.808 494.288
1952 0 60.051 13.3054 799 87.438 581.936 491.453
1953 0 62.1854 12.6557 787 87.4396 580.423 489.574
1954 0 63.2642 10.6379 673 90.627 580.22 483.19
1955 0 63.4269 11.5881 735 88.6993 579.83 483.367
1956 0 68.1075 12.8767 877 85.7355 580.079 481.948
1957 0 71.3563 12.9351 923 85.0618 580.81 476.89
1958 0 73.2488 12.4917 915 85.3322 581.349 475.608
1959 0 76.1791 14.3346 1092 82.3562 581.862 475.564
1960 0 77.5044 12.0638 935 86.1337 582.476 474.675
1961 1 38.228 10.4635 400 84.155 584.552 490.78
1962 0 43.3034 10.184 441 83.644 585.658 491.163
1963 0 44.2856 10.3194 457 84.0372 586.807 491.51
1964 0 48.1395 11.799 568 82.8504 586.632 490.15
1965 0 49.17 12.9754 638 82.7429 589.216 490.317
1966 0 50.2728 13.1284 660 83.5864 588.8 489.774
1967 0 52.156 13.0378 680 81.8618 590.462 492.047
1968 0 55.3105 13.9395 771 80.8573 591.607 491.258
1969 0 57.1194 13.8132 789 81.2687 591.622 493.307
1970 0 59.1911 12.6877 751 83.5899 591.121 493.992
1971 0 61.1552 13.3758 818 83.5929 591.276 490.793
1972 0 63.1858 13.9272 880 82.6625 590.373 490.907
1973 0 65.2206 13.2627 865 84.7364 589.459 490.54
1974 0 69.2411 13.6913 948 83.9768 588.231 489.333
1975 0 72.1618 13.8439 999 84.8599 586.584 487.028
1976 0 73.1903 13.704 1003 85.4816 585.47 488.445
1977 0 75.178 13.9536 1049 87.0686 583.826 484.514
1978 0 79.1778 12.7056 1006 89.5507 582.922 480.215
1979 0 82.1791 14.0547 1155 87.6502 582.484 476.476
1980 0 84.2892 13.7028 1155 88.8035 581.568 474.558
1981 1 42.1122 9.78339 412 91.9418 580.32 495.216
1982 0 46.0998 10.846 500 88.062 580.014 494.878
1983 0 48.0697 12.9395 622 87.3633 579.974 489.887
1984 0 48.1241 11.1794 538 88.5409 580.318 487.664
1985 0 53.0838 11.5855 615 87.3821 581.914 486.433
1986 0 52.1556 14.5526 759 84.4018 582.518 483.906
1987 0 56.0778 14.9614 839 81.3492 583.901 487.05
1988 0 58.11 15.5911 906 81.6976 584.731 485.928
1989 0 58.109 14.3523 834 85.1319 586.011 484.777
1990 0 60.0294 15.5257 932 83.4174 587.223 482.495
1991 0 62.1383 16.4633 1023 81.5699 589.188 481.449
1992 0 65.1221 16.2618 1059 82.2502 592.137 481.898
1993 0 66.1602 15.4171 1020 83.8794 593.009 481.885
1994 0 69.1263 14.6109 1010 85.904 592.673 482.036
1995 0 71.1081 15.5397 1105 85.1783 594.834 483.172
1996 0 74.2203 15.5348 1153 85.9324 594.03 482.145
1997 0 77.1617 14.9038 1150 87.5548 593.573 484.003
1998 0 79.1284 14.3185 1133 88.6884 593.2 482.795
1999 0 81.0915 14.9461 1212 89.6972 592.606 481.408
2000 0 88.0629 15.6366 1377 87.8896 591.792 479.9
2001 1 45.0874 10.2246 461 92.1909 590.707 499.126
2002 0 48.0674 11.7751 566 90 589.544 499.468
2003 0 50.1275 12.3286 618 89.6424 588.248 497.189
2004 0 51.1166 10.7793 551 92.6624 586.132 496.002
2005 0 53.0338 13.4443 713 89.7335 583.948 492.808
2006 0 56.066 14.1797 795 89.6654 584.738 490.356
2007 0 57.0399 14.0428 801 90.5655 582.9 488.815
2008 0 61.0706 15.5885 952 86.8214 582.263 486.116
2009 0 61.0843 14.2262 869 89.9022 582.334 484.634
2010 0 63.0628 13.7958 870 91.9046 582.429 482.075
2011 0 67.0693 14.0601 943 90.1538 582.539 480.978
2012 0 67.2856 14 942 90.5966 583.336 479.455
2013 0 71.1007 15.5835 1108 88.444 583.701 474.457
2014 0 73.1817 14.7305 1078 90.1716 584.131 473.866
2015 0 76.2532 12.3929 945 93.9873 584.545 472.887
2016 1 42.1889 8.29602 350 95.3971 586.414 490.383
2017 0 45.1275 10.0825 455 91.8725 586.714 489.787
2018 0 47.2046 10.571 499 90.4669 588.128 489.671
2019 0 46.0656 10.0726 464 92.3168 590.17 489.586
2020 0 50.1477 13.4802 676 88.0252 591.426 487.811
2021 0 52.0817 11.9428 622 89.4373 594.267 488.355
2022 0 54.1016 12.3841 670 89.4403 595.34 488.952
2023 0 57.1314 13.5477 774 87.4147 595.624 490.262
2024 0 59.0628 13.037 770 88.6987 595.939 489.304
2025 0 62.0716 12.985 806 89.0682 595.17 489.816
2026 0 64.1039 13.3065 853 88.9344 594.905 488.455
2027 0 69.0594 13.0902 904 89.8097 593.87 488.257
2028 0 70.1233 13.0627 916 91.8974 592.818 485.986
2029 0 75.1345 13.0033 977 91.52 591.084 487.356
2030 1 38.0139 10.9434 416 92.375 589.24 501.721
2031 0 42.0633 10.6744 449 91.3163 587.762 501.626
2032 0 44.0412 10.9443 482 94.168 585.67 498.023
2033 0 46.0437 11.9017 548 90.2628 584.438 497.307
2034 0 47.4 12.6793 601 93.8819 584.769 491.656
2035 0 51.3464 13.9445 716 87.1131 583.781 492.148
2036 0 50.0292 12.1929 610 94.7066 583.87 489.511
2037 0 53.0618 13.7198 728 92.2006 584.071 487.93
2038 0 55.098 12.868 709 94.4076 583.834 485.622
2039 0 57.0555 13.8812 792 92.1755 584.015 484.182
2040 0 59.1504 13.491 798 94.1692 584.787 481.085
2041 0 61.1538 14.9786 916 91.6059 585.479 480.425
2042 0 63.0272 13.1372 828 94.9094 586.188 479.112
2043 0 66.1655 14.0254 928 92.0733 586.969 479.569
2044 0 67.2987 14.027 944 92.8104 588.338 476.983
2045 0 68.3566 13.7514 940 94.8628 589.935 475.345
2046 0 74.2355 14.7773 1097 91.9644 591.948 476.974
2047 0 74.1447 13.8243 1025 94.6751 593.848 476.421
2048 1 40.0335 10.766 431 96.7146 595.529 494.643
2049 0 41.04 8.577 352 98.5511 597.298 497.983
2050 0 43.0277 8.7618 377 96.008 597.225 501.838
2051 0 44.1063 10.316 455 98.6308 597.534 499.644
2052 0 47.0546 10.2434 482 98.5539 596.942 501.606
2053 0 49.0438 11.9485 586 97.6655 595.657 499.637
2054 0 50.1005 11.4769 575 99.0452 592.67 499.936
2055 0 52.0576 12.8512 669 96.6667 591.824 499.867
2056 0 53.1174 13.0842 695 96.5813 591.237 499.55
2057 0 56.0799 13.0706 733 96.7831 589.576 497.568
2058 0 61.0804 13.5886 830 95.1072 587.441 495.536
2059 0 62.1334 14.2435 885 94.2633 586.417 494.128
2060 0 63.0892 13.5364 854 96.3735 583.878 489.419
2061 0 66.1107 13.0539 863 97.4415 583.601 489.283
2062 0 69.0987 15.3693 1062 92.8983 582.517 486.99
2063 0 72.2416 15.5451 1123 92.5129 582.141 484.48
2064 0 75.1417 13.4546 1011 96.18 580.431 482.05
2065 0 77.1058 14.2142 1096 95.6159 581.663 479.518
2066 0 80.1622 14.8948 1194 94.3936 581.631 478.116
2067 0 82.1648 13.6433 1121 97.1329 582.626 477.128
2068 0 87.3828 15.5179 1356 92.9314 584.046 475.317
2069 0 88.1468 14.0107 1235 97.9992 584.216 471.53
2070 0 91.1093 13.8954 1266 98.6706 583.808 471.401
2071 0 96.2202 14.8098 1425 96.48 584.674 469.034
2072 0 98.2441 13.7006 1346 100.416 585.192 468.811
2073 1 52.0991 11.6317 606 98.9884 587.997 493.888
2074 0 54.1244 13.82 748 96.0027 589.885 493.321
2075 0 55.1042 13.1206 723 99.5436 590.347 491.982
2076 0 60.0984 13.6609 821 97.1888 590.832 493.089
2077 0 63.1431 13.4615 850 98.7141 591.558 494.142
2078 0 63.1752 13.5021 853 100.155 592.358 493.546
2079 0 68.1344 14.853 1012 97.7283 592.527 493.87
2080 0 70.139 14.1434 992 100.012 591.502 492.592
2081 0 74.1789 15.5165 1151 97.7689 590.581 491.222
2082 0 77.1048 13.9939 1079 100.743 589.771 490.174
2083 0 80.1444 14.2493 1142 100.915 588.095 488.329
2084 0 85.2313 14.3727 1225 99.8057 587.067 487.171
2085 0 87.0847 13.9175 1212 101.72 586.377 483.584
2086 1 49.0995 10.7333 527 101.581 584.342 503.734
2087 0 49.0615 10.7416 527 100.753 583.207 502.385
2088 0 51.1131 12.5604 642 99.0171 582.095 497.942
2089 0 54.0444 11.5646 625 99.1856 581.075 496.038
2090 0 57.041 12.8329 732 96.6421 581 493.693
2091 0 58.1365 14.8444 863 93.2387 580.239 490.419
2092 0 58.1089 13.3026 773 95.9496 580.944 488.862
2093 0 63.1422 14.301 903 92.2691 580.978 485.587
2094 0 66.1104 13.9615 923 93.5027 580.949 483.403
2095 0 68.1271 12.8436 875 96.2286 581.845 480.435
2096 0 71.1391 16.2639 1157 89.1659 582.412 479.198
2097 0 71.382 13.5608 968 95.8275 582.734 477.673
2098 0 75.082 14.6107 1097 94.1349 584.375 473.005
2099 0 78.2281 14.0998 1103 94.5993 585.906 474.178
2100 0 82.2522 13.5802 1117 95.8138 585.879 472.762
2101 1 44.0586 10.6449 469 95.6269 588.403 493.222
2102 0 45.0644 10.6736 481 96.5177 588.807 492.626
2103 0 47.0272 10.5896 498 96.3715 591.187 493.797
2104 0 48.1345 11.2186 540 96.4389 593.633 492.963
2105 0 51.1481 12.7864 654 93.4266 594.758 493.109
2106 0 54.0411 12.546 678 93.236 595.65 492.742
2107 0 54.0811 12.5182 677 93.8508 594.984 492.817
2108 0 57.2644 13.621 780 91.341 594.255 494.767
2109 0 58.1387 13.3302 775 92.8813 593.88 494.035
2110 0 61.1636 14.3876 880 92.6318 592.977 490.606
2111 0 67.1403 16.4581 1105 86.4054 592.017 488.727
2112 0 67.0826 14.6089 980 92.1592 590.826 488.694
2113 0 68.1949 13.0508 890 95.8124 590.347 489.881
2114 0 71.1389 14.3381 1020 93.8696 589.069 486.87
2115 0 75.1315 13.9222 1046 94.1988 587.67 485.449
2116 0 79.1749 13.9564 1105 93.9991 586.364 483.573
2117 0 81.2654 14.348 1166 94.4966 585.378 480.596
2118 1 46.1039 11.5825 534 94.0506 585.582 497.863
2119 0 46.1079 10.4971 484 93.6405 586.099 499.052
2120 0 47.2031 13.3254 629 93.5437 585.847 492.763
2121 0 48.2338 12.5223 604 93.5844 585.523 492.406
2122 0 50.1767 13.1535 660 94.3455 585.28 488.67
2123 0 53.1047 13.6523 725 93.8345 584.953 485.749
2124 0 51.139 12.3389 631 98.187 584.002 484.165
2125 0 56.1331 14.1628 795 93.1409 584.574 484.453
2126 0 58.2094 12.7127 740 92.7446 586.23 484.703
2127 0 61.212 12.7916 783 92.4585 586.909 481.971
2128 0 63.2743 14.2238 900 89.7844 587.566 480.704
2129 0 65.0941 15.7311 1024 87.7549 588.364 479.909
2130 0 68.2227 14.7019 1003 88.1944 590.502 481.749
2131 0 70.0924 13.6249 955 90.0628 592.048 479.396
2132 0 75.1116 14.4185 1083 89.3158 594.009 479.053
2133 0 76.252 13.4685 1027 91.6495 595.091 479.808
2134 0 80.2779 15.4837 1243 88.4698 594.94 477.922
2135 0 84.1941 16.1888 1363 88.4123 595.943 478.436
2136 0 88.1941 15.7834 1392 89.4749 595.054 479.263
2137 0 92.3783 14.6246 1351 92.319 595.754 479.135
2138 1 52.1256 12.6233 658 93.8739 594.743 497.652
2139 0 53.2412 12.3401 657 93.7336 593.116 499.656
2140 0 53.2126 11.8205 629 96.2941 591.711 498.925
2141 0 57.2695 11.5768 663 97.0226 590.09 496.09
2142 0 60.3386 13.5402 817 89.7307 588.574 494.739
2143 0 64.2644 14.1447 909 87.5082 587.416 493.065
2144 0 66.2743 14.6814 973 87.8767 585.369 490.368
2145 0 69.3626 14.3017 992 89.244 584.3 486.899
2146 0 72.3814 15.446 1118 87.4186 584.012 485.216
2147 0 74.2305 13.97 1037 90.5574 584.166 482.915
2148 0 76.1954 14.6728 1118 90.7209 583.046 479.674
2149 0 80.1604 15.4316 1237 91.5238 582.208 476.897
2150 0 82.3042 14.6651 1207 93.3679 582.219 475.7
2151 0 87.2135 14.2065 1239 94.3285 581.822 472.155
2152 0 91.2715 15.8867 1450 91.2828 581.833 470.066
2153 0 94.5679 14.9839 1417 93.6584 581.57 467.245
2154 0 96.382 15.0962 1455 94.0584 582.624 465.908
2155 0 98.3867 15.1545 1491 95.0396 583.384 460.933
2156 0 101.548 14.5153 1474 96.8908 584.362 462.285
2157 0 104.354 15.9552 1665 95.2685 584.958 460.227
2158 0 108.397 15.8583 1719 96.381 586.858 459.483
2159 0 113.605 15.0786 1713 97.8371 588.872 458.203
2160 0 120.753 16.6704 2013 94.3532 590.875 457.25
2161 0 124.698 15.4693 1929 97.2748 593.064 453.566
2162 1 66.3812 11.901 790 95.5861 593.771 483.537
2163 0 69.4888 12.7647 887 96.9278 595.076 482.813
2164 0 72.5008 14.6481 1062 94.1912 595.701 482.414
2165 0 73.6432 14.0814 1037 96.4513 594.632 481.578
2166 0 78.6741 14.6554 1153 96.2394 593.857 481.324
2167 0 80.4772 13.8921 1118 99.0724 592.25 479.052
2168 0 84.5535 13.8019 1167 100.608 591.027 480.735
2169 0 89.6244 15.4757 1387 98.036 589.164 478.224
2170 0 93.5227 13.8362 1294 100.757 588.28 476.845
2171 0 95.4093 15.6274 1491 98.6532 587.115 474.592
2172 0 98.3795 14.0781 1385 101.696 585.677 469.442
2173 1 52.2334 9.22781 482 100.492 585.118 496.373
2174 0 54.3336 10.1779 553 101.995 584.13 492.77
2175 0 58.2419 11.5209 671 99.9195 582.627 489.173
2176 0 58.3776 12.4363 726 99.7383 582.565 485.82
2177 0 61.1763 12.1125 741 100.378 582.731 483.699
2178 0 64.1572 12.5473 805 99.205 582.897 481.754
2179 0 66.0846 13.8005 912 97.6798 583.806 478.777
2180 0 67.1862 13.0384 876 99.6826 583.774 478.132
2181 0 71.3815 14.0232 1001 98.032 584.355 475.616
2182 0 72.3405 15.0262 1087 96.7332 585.369 472.736
2183 0 77.3382 14.3784 1112 97.6394 585.921 472.576
2184 0 78.3376 14.3865 1127 98.724 587.263 470.869
2185 0 82.2203 15.2639 1255 97.0884 589.359 470.425
2186 0 84.2539 14.5157 1223 99.5119 591.074 470.042
2187 0 87.3092 14.4658 1263 100.615 592.203 470.004
2188 1 47.1903 11.6761 551 99.8058 595.091 491.474
2189 0 48.1147 12.6572 609 96.9984 596.392 492.737
2190 0 52.1183 11.8576 618 99.7508 596.765 491.762
2191 0 55.103 12.1772 671 97.1282 598.256 494.347
2192 0 56.0488 13.6667 766 96.7572 597.945 492.054
2193 0 56.1891 13.1876 741 99.3698 597.8 494.001
2194 0 60.1093 14.4736 870 96.7299 595.668 493.301
2195 0 61.1684 13.5364 828 100.785 594.814 491.996
2196 0 63.1489 13.3177 841 102.541 592.86 490.596
2197 0 66.2528 13.041 864 102.368 592.272 489.17
2198 0 70.1259 13.3474 936 101.779 590.678 488.103
2199 0 73.0691 13.3572 976 102.633 589.854 486.753
2200 0 76.1363 14.8549 1131 98.9664 587.874 485.955
2201 0 79.1467 14.0499 1112 98.2896 586.932 482.111
2202 0 79.1086 13.8544 1096 96.4644 585.741 478.794
2203 0 84.1902 14.3009 1204 97.0515 585.027 476.538
2204 0 87.1113 14.4872 1262 97.9976 584.625 470.979
2205 0 89.1366 13.5186 1205 100.065 584.295 469.125
2206 0 93.1631 14.6839 1368 96.973 583.797 467.443
2207 1 49.0331 10.1156 496 101.385 584.569 486.482
2208 0 51.0887 12.2923 628 98.2277 586.018 486.675
2209 0 51.1006 11.4676 586 100.346 585.642 483.608
2210 0 55.0524 12.5153 689 96.8099 586.975 482.649
2211 0 57.0938 12.1554 694 98.2853 586.728 482.712
2212 0 59.0677 12.3248 728 98.2088 587.996 481.485
2213 0 63.1555 13.0313 823 96.61 589.134 481.446
2214 0 63.1576 12.3659 781 99.6274 590.339 479.686
2215 0 67.2204 13.7161 922 98.359 592.077 480.254
2216 0 67.1926 12.4716 838 101.667 594.368 479.808
2217 0 74.1739 14.3716 1066 95.7158 596.547 480.471
2218 0 76.2491 13.1018 999 99.5876 597.06 479.541
2219 0 79.2697 14.7093 1166 98.2058 598.159 479.53
2220 0 82.2028 14.7805 1215 99.6568 596.69 478.424
2221 0 85.4515 14.5346 1242 100.964 595.862 479.285
2222 1 49.2277 9.97407 491 104.572 595.269 497.625
2223 0 49.2936 9.92014 489 105.495 593.419 497.409
2224 0 52.288 13.2153 691 100.653 592.632 495.554
2225 0 54.2814 12.6194 685 99.2409 591.039 494.939
2226 0 56.1683 13.3171 748 99.9679 590.122 496.174
2227 0 58.1009 14.2855 830 99.3614 588.699 493.696
2228 0 62.2065 14.6448 911 97.5225 587.072 489.496
2229 0 63.1649 14.5017 916 99.8788 585.933 488.379
2230 0 65.237 14.2557 930 100.544 585.36 484.403
2231 0 69.1475 14.4908 1002 99.5589 584.22 480.882
2232 0 70.4201 15.1093 1064 98.1673 582.561 478.786
2233 0 71.1899 14.3981 1025 101.243 582.905 476.343
2234 0 75.3542 13.6953 1032 102.393 582.926 473.741
2235 0 80.4997 15.7516 1268 96.832 583.973 472.014
2236 0 80.3678 14.6327 1176 98.9804 584.159 471.355
2237 1 41.2756 11.29 466 95.6309 583.618 491.427
2238 0 42.1408 11.3429 478 96.9812 584.293 489.23
2239 0 44.0868 11.3186 499 96.1503 585.226 488.607
2240 0 47.112 11.0375 520 96.4385 585.313 487.844
2241 0 48.0753 12.1684 585 93.6103 587 490.178
2242 0 49.2008 12.7437 627 98.4753 591.225 489.293
2243 0 51.1247 13.8876 710 96.3113 592.307 489.601
2244 0 54.1644 14.7145 797 93.2359 594.322 489.664
2245 0 54.1953 12.7502 691 96.1447 595.059 490.091
2246 0 58.2446 13.409 781 93.9949 595.818 490.749
2247 0 60.1123 13.6744 822 93.3808 596.206 490.827
2248 0 63.133 14.3823 908 91.6399 595.771 490.548
2249 0 65.2754 12.3477 806 96.2345 595.424 490.279
2250 0 68.304 12.4736 852 96.3157 594.58 489.624
2251 0 72.3848 15.4591 1119 91.5156 592.677 489.446
2252 0 77.1421 13.4816 1040 94.7769 591.916 488.925
2253 0 77.2844 12.784 988 96.7844 589.531 488.204
2254 1 42.0993 10.2615 432 96.0139 588.801 505.387
2255 0 43.0517 9.08209 391 98.4629 586.841 504.054
2256 0 45.1278 11.3234 511 97.5166 586.992 499.112
2257 0 46.139 10.5984 489 99.4233 586.057 497.699
2258 0 49.0448 12.091 593 96.8145 582.986 495.53
2259 0 49.0737 10.9427 537 99.298 581.808 495.371
2260 0 53.0796 14.9587 794 92.8602 582.659 492.494
2261 0 54.1548 12.7043 688 98.3721 582.583 488.86
2262 0 54.037 13.4537 727 97.5791 582.238 486.935
2263 0 59.2531 13.1639 780 97.1397 582.367 482.094
2264 0 61.04 13.8106 843 95.7236 582.762 482.718
2265 0 64.1649 13.7926 885 94.9864 584.04 482.133
2266 0 65.0895 13.2587 863 97.2016 585.669 479.294
2267 0 68.2273 14.9354 1019 94.1914 586.751 477.733
2268 1 37.1445 10.2842 382 97.2984 586.791 494.445
2269 0 36.0563 10.3172 372 98.0645 588.282 494.583
2270 0 39.336 9.66035 380 98.9158 590.792 495.284
2271 0 39.0791 10.9777 429 99.2727 592.967 495.578
2272 0 43.1131 12.6875 547 95.4223 594.369 495.101
2273 0 44.024 12.425 547 96.7221 595.772 496.252
2274 0 46.0529 13.2891 612 95.616 596.041 497.484
2275 0 48.0511 14.8592 714 94.395 596.212 496.062
2276 0 51.0446 13.2825 678 96.3289 597.764 497.373
2277 0 51.0497 14.0255 716 96.7402 596.897 497.142
2278 0 54.0936 13.8464 749 97.2924 595.554 496.164
2279 0 55.1603 12.1464 670 101.34 594.693 497.202
2280 0 56.1879 12.7607 717 102.417 593.505 495.704
2281 0 61.1153 16.0353 980 96.7735 592.337 493.665
2282 0 62.1188 14.8747 924 99.6396 592.087 493.689
2283 0 63.0465 12.5463 791 106.263 589.852 490.573
2284 0 65.2123 15.4265 1006 103.028 587.689 484.554
2285 0 69.1175 13.8026 954 107.384 586.92 482.68
2286 0 71.417 14.7444 1053 105.812 586.388 480.084
2287 0 74.3167 15.7838 1173 104.272 586.028 478.902
2288 0 76.2056 14.907 1136 108.16 585.109 475.272
2289 0 79.2716 14.5702 1155 108.992 585.347 474.583
2290 0 82.3062 16.5723 1364 105.894 586.161 470.838
2291 0 84.3388 15.1769 1280 109.76 586.302 463.08
2292 0 85.396 15.0358 1284 111.548 586.065 462.408
2293 1 45.4044 10.88 494 113.16 587.64 483.834
2294 0 48.4136 10.5342 510 112.763 587.241 483.886
2295 0 50.0849 12.8182 642 109.634 587.53 482.933
2296 0 50.1544 12.7606 640 114.111 588.223 480.505
2297 0 54.1691 15.0086 813 106.108 591.108 485.015
2298 0 55.1342 13.4037 739 112.115 593.146 483.915
2299 0 59.1694 15.0078 888 107.914 595.024 484.689
2300 0 62.14 15.3524 954 106.972 596.626 483.299
2301 0 64.051 13.8952 890 110.967 598.634 485.266
2302 0 67.0756 14.6253 981 109.494 599.2 483.498
2303 0 68.2055 14.3683 980 110.659 598.526 483.469
2304 0 72.1498 13.1809 951 112.896 597.595 483.112
2305 0 76.1512 16.3096 1242 106.556 596.948 482.85
2306 0 77.1967 14.4177 1113 111.482 597.034 480.635
2307 0 82.2185 16.6508 1369 105.933 596.486 481.236
2308 0 83.289 13.9394 1161 113.306 594.898 480.687
2309 0 88.2411 15.3103 1351 110.544 594.009 478.004
2310 1 46.0862 9.95959 459 114.255 592.76 498.878
2311 0 49.1339 12.1301 596 111.101 591.176 495.99
2312 0 51.1674 11.0617 566 111.756 589.792 494.977
2313 0 53.0764 13.4712 715 109.541 588.959 491.459
2314 0 54.1892 13.6005 737 110.417 587.726 487.779
2315 0 57.1713 13.7132 784 111.54 585.244 484.38
2316 0 59.061 13.6469 806 111.258 585.04 479.294
2317 0 64.1217 13.9734 896 108.165 585.315 481.308
2318 0 65.0892 14.3188 932 109.227 585.05 476.879
2319 0 69.2194 13.7967 955 110.158 585.046 473.971
2320 0 70.1706 14.593 1024 108.339 586.55 472.146
2321 0 73.1753 13.8708 1015 109.957 587.959 469.085
2322 0 74.2976 13.7151 1019 111.169 588.344 468.396
2323 0 78.3998 15.2169 1193 109.308 588.869 466.534
2324 0 81.3098 14.6969 1195 110.652 589.987 466.023
2325 0 84.2128 15.4965 1305 109.615 592.09 463.789
2326 0 87.4244 13.6575 1194 113.547 594.438 466.183
2327 1 49.4802 9.64021 477 112.568 598.314 486.992
2328 0 50.2455 10.1303 509 113.112 598.678 487.747
2329 0 50.3445 10.2692 517 113.72 599.793 488.607
2330 0 55.2834 11.6491 644 110.832 600.208 487.734
2331 0 56.2741 13.1144 738 107.927 600.48 488.661
2332 0 59.2144 11.9228 706 109.902 599.684 488.037
2333 0 62.1491 13.709 852 107.337 598.86 486.872
2334 0 65.1367 13.9092 906 105.919 597.603 487.407
2335 0 69.333 13.1539 912 107.433 596.047 486.586
2336 0 71.0886 14.3764 1022 106.148 595.084 485.345
2337 0 74.1972 13.3967 994 109.702 593.726 483.2
2338 0 76.1421 14.9457 1138 107.52 592.093 481.098
2339 0 78.1075 13.1998 1031 111.245 590.419 478.394
2340 0 85.1588 16.0054 1363 105.629 588.684 475.362
2341 0 87.2548 14.28 1246 110.714 587.783 472.888
2342 1 48.3712 11.7632 569 108.794 586.545 491.554
2343 0 48.2502 11.0673 534 108.476 585.785 490.393
2344 0 53.301 12.5701 670 105.94 585.903 487.079
2345 0 54.1874 13.4164 727 105.477 587.074 485.404
2346 0 54.0508 12.3217 666 108.622 587.521 483.629
2347 0 56.0744 14.3738 806 104.803 588.153 483.081
2348 0 59.2083 13.2583 785 107.946 586.811 478.787
2349 0 60.1437 13.0354 784 109.429 588.251 477.852
2350 0 63.1768 13.4068 847 109.717 588.743 477.784
2351 0 65.2152 12.0524 786 113.513 590.034 475.924
2352 0 69.1431 12.9442 895 111.022 591.103 476.458
2353 0 69.2646 12.7771 885 113.537 593.32 475.073
2354 0 74.1542 13.6203 1010 111.522 595.219 475.853
2355 0 77.2069 12.6673 978 114.332 596.92 474.653
2356 0 82.2454 13.1679 1083 112.543 597.431 476.28
2357 0 85.1649 13.9846 1191 111.255 598.469 477.368
2358 0 89.2382 13.6489 1218 113.723 597.969 474.696
2359 1 49.1038 9.99922 491 118.041 598.134 494.346
2360 0 53.324 10.2018 544 117.371 597.43 494.537
2361 0 53.1062 12.1455 645 113.189 596.019 494.988
2362 0 58.1822 12.7874 744 109.856 595.34 494.62
2363 0 57.1237 12.7618 729 112.616 593.296 493.904
2364 0 68.8203 19.3547 1332 93.792 593.478 487.49
2365 0 68.207 16.2154 1106 101.22 591.901 486.958
2366 0 68.2137 16.0085 1092 104.326 590.79 486.164
2367 0 68.104 14.2576 971 110.525 587.885 485.926
2368 0 72.1054 14.2014 1024 109.514 587.055 483.883
2369 0 74.1874 13.749 1020 111.575 586.041 481.074
2370 0 76.1462 14.3146 1090 112.908 584.887 477.085
2371 0 81.1191 15.8286 1284 107.861 584.776 476.65
2372 0 82.1995 14.8663 1222 111.331 584.8 471.615
2373 1 46.0709 10.7443 495 113.929 584.776 489.513
2374 0 46.0556 8.72858 402 113.147 585.435 492.095
2375 0 50.2189 12.0074 603 111.393 586.706 486.003
2376 0 53.2064 12.0474 641 110.587 587.513 483.917
2377 0 54.3372 11.263 612 113.761 589.038 484.199
2378 0 56.1691 11.768 661 111.065 589.545 483.383
2379 0 57.1013 12.4866 713 110.62 590.268 482.691
2380 0 60.0766 14.9642 899 105.548 590.892 482.608
2381 0 62.1105 15.3275 952 105.093 592.681 482.049
2382 0 63.0695 15.031 948 106.498 596.3 480.47
2383 0 68.1201 14.5478 991 106.232 597.599 482.394
2384 0 69.06 13.6258 941 108.982 597.679 481.799
2385 0 72.2596 14.5171 1049 107.924 597.809 482.72
2386 0 74.1366 15.1342 1122 107.707 597.266 481.107
2387 0 77.0705 13.9872 1078 110.043 596.352 481.328
2388 0 82.1406 14.2073 1167 109.917 597.019 481.516
2389 0 86.124 16.9755 1462 104.966 595.503 480.101
2390 0 87.1833 13.6379 1189 112.306 593.483 478.026
2391 0 94.2449 14.7594 1391 110.189 592.352 476.262
2392 0 94.212 13.6607 1287 113.065 590.313 469.901
2393 0 100.293 12.4036 1244 113.76 589.237 464.274
2394 0 104.344 14.7302 1537 109.55 587.615 468.452
2395 0 110.359 15.0237 1658 108.787 586.1 461.248
2396 1 61.0539 9.82739 600 107.087 586.357 489.25
2397 0 63.1472 10.5151 664 107.355 584.5 485.55
2398 0 66.1649 11.4109 755 105.372 584.441 482.913
2399 0 67.115 11.9645 803 106.745 584.345 477.111
2400 0 71.148 14.0974 1003 100.981 584.133 478.347
2401 0 73.1822 11.8062 864 104.657 584.377 476.389
2402 0 76.1786 11.0005 838 106.106 584.512 475.572
2403 0 78.2029 14.2194 1112 102.356 585.804 472.031
2404 0 81.1534 13.4314 1090 103.599 586.816 472.425
2405 0 82.1953 12.3 1011 106.771 586.9 466.614
2406 0 86.2488 12.4987 1078 106.954 587.732 470.186
2407 0 91.312 15.0473 1374 102.571 588.017 469.047
2408 0 93.2505 11.7426 1095 110.791 590.729 467.26
2409 0 96.2926 13.4174 1292 108.955 592.269 467.001
2410 0 100.336 13.3253 1337 110.675 593.02 463.501
2411 0 103.39 15.253 1577 108.088 594.245 462.145
2412 0 109.259 15.2573 1667 108.113 595.902 461.558
2413 0 111.292 14.2149 1582 111.951 595.301 460.921
2414 1 60.3877 10.9128 659 108.196 595.281 490.592
2415 0 62.2561 11.6615 726 109.114 594.185 489.306
2416 0 65.373 12.1457 794 108.152 594.557 490.29
2417 0 68.2641 12.4516 850 108.855 592.454 483.674
2418 0 70.3576 11.1999 788 111.047 591.617 485.359
2419 0 76.6442 14.3781 1102 104.277 590.326 481.946
2420 0 79.4944 13.0449 1037 106.917 588.987 480.892
2421 0 81.3253 14.3744 1169 106.536 586.707 477.741
2422 0 84.4486 12.0073 1014 111.106 585.906 474.776
2423 0 87.3877 13.3543 1167 109.925 585.455 471.631
2424 0 91.3782 14.0406 1283 109.501 584.49 464.399
2425 0 93.3659 13.8273 1291 110.737 584.376 461.329
2426 1 52.0634 11.1787 582 108 585.268 484.132
2427 0 54.2011 7.80428 423 110.624 584.541 484.407
2428 0 53.1798 8.1986 436 112.844 586.241 480.576
2429 0 58.1908 11.6513 678 105.398 587.616 480.938
2430 0 59.2474 10.2789 609 107.972 586.724 480.146
2431 0 61.3255 12.507 767 105.769 587.349 476.004
2432 0 65.2053 12.3916 808 105.142 588.321 476.968
2433 0 68.2022 14.1784 967 102.319 588.964 475.467
2434 0 69.3555 12.6162 875 105.813 590.957 475.261
2435 0 69.2822 12.7305 882 108.07 593.197 470.751
2436 0 73.4307 13.3459 980 107.679 595.622 474.761
2437 0 77.3431 12.3605 956 108.962 595.509 472.746
2438 0 78.178 12.9448 1012 110.634 597.54 470.535
2439 0 83.5315 14.0785 1176 108.507 598.844 474.151
2440 0 86.3902 13.7284 1186 108.631 597.876 471.525
2441 1 50.1379 11.1094 557 109.048 597.724 491.858
2442 0 51.118 12.1875 623 107.506 596.785 492.144
2443 0 54.199 12.7678 692 104.882 596.103 494.147
2444 0 52.2119 12.3535 645 106.064 595.16 492.643
2445 0 57.4066 11.7234 673 105.312 593.218 492.603
2446 0 60.3145 14.6731 885 100.538 593.045 489.339
2447 0 60.4168 13.1751 796 103.781 591.013 487.717
2448 0 64.3784 13.1877 849 102.931 589.529 484.061
2449 0 67.2772 14.1207 950 102.369 588.738 482.283
2450 0 69.6158 13.1723 917 104.17 587.423 476.785
2451 0 73.4302 13.1009 962 103.081 587.415 477.563
2452 0 76.6653 14.2568 1093 102.446 587.36 472.134
2453 0 79.4105 14.1291 1122 102.898 586.197 470.185
2454 0 82.6286 15.7089 1298 98.9361 586.044 470.353
2455 0 83.2713 13.426 1118 103.323 586.394 466.727
2456 1 44.2185 11.217 496 101.401 588.117 487.369
2457 0 46.3554 11.5844 537 102.06 589.309 486.827
2458 0 46.0737 10.5049 484 105.49 589.126 484.312
2459 0 46.1018 12.082 557 101.621 589.706 485.32
2460 0 52.2307 12.1384 634 100.845 591.186 484.05
2461 0 52.0899 13.9182 725 101.15 592.832 482.992
2462 0 55.1421 14.6712 809 98.042 594.782 483.889
2463 0 58.2043 13.3839 779 99.4416 597.155 484.126
2464 0 61.4638 13.6503 839 99.5662 597.872 483.837
2465 0 62.2742 12.9749 808 102.254 598.648 485.576
2466 0 63.3963 13.7705 873 101.567 599.375 484.967
2467 0 68.1797 15.1365 1032 100.317 599.775 484.63
2468 0 68.1704 13.5249 922 104.854 599.486 483.98
2469 0 72.1796 16.0156 1156 101.448 598.654 481.671
2470 0 77.5175 13.8936 1077 103.61 596.511 485.308
2471 1 42.1838 11.4736 484 106.996 594.707 500.636
2472 0 44.1211 13.4629 594 104.7 592.882 500.057
2473 0 44.2409 11.8442 524 107.71 591.49 499.052
2474 0 47.1006 13.0572 615 106.676 589.875 496.006
2475 0 52.0621 15.0013 781 102.866 588.318 492.73
2476 0 52.1159 14.084 734 105.783 587.886 491.91
2477 0 54.113 14.4882 784 104.157 586.856 488.663
2478 0 58.0953 18.4524 1072 97.6819 586.858 485.305
2479 0 58.1338 15.2407 886 104.289 586.304 484.196
2480 0 58.2298 14.6832 855 106.182 586.212 481.71
2481 0 63.2599 14.4325 913 107.203 586.415 478.487
2482 0 68.1349 16.981 1157 102.593 586.862 476.873
2483 0 71.1574 16.2597 1157 105.573 587.096 475.583
2484 0 72.2661 15.5536 1124 106.746 587.669 473.569
2485 0 75.1597 15.2608 1147 107.838 588.987 474.769
2486 0 79.1438 16.0088 1267 106.133 589.52 474.691
2487 1 43.2569 12.0212 520 108.588 591.071 491.615
2488 0 44.0894 13.4726 594 109.623 592.859 490.103
2489 0 46.4918 13.9164 647 108.909 594.243 490.55
2490 0 48.2664 13.4876 651 110.932 596.773 490.41
2491 0 51.2529 15.7454 807 103.444 597.196 490.808
2492 0 51.1951 14.4936 742 107.823 598.522 492.071
2493 0 55.2724 15.1432 837 107.836 598.838 490.63
2494 0 59.2532 17.3661 1029 101.985 599.061 492.98
2495 0 60.2108 15.3295 923 106.887 598.295 493.073
2496 0 64.2675 16.4625 1058 105.464 596.213 491.148
2497 0 67.1506 15.979 1073 106.203 595.32 491.603
2498 0 71.4006 15.322 1094 104.797 593.192 490.668
2499 0 74.3197 15.9715 1187 105.916 592.271 487.552
2500 0 78.2129 16.34 1278 105.034 590.365 485.556
2501 0 80.239 15.3167 1229 110.129 588.726 481.862
2502 1 43.0934 9.69987 418 114.359 588.16 500.844
2503 0 44.1755 12.0882 534 114.092 587.358 498.242
2504 0 50.1268 13.9247 698 110.284 586.162 494.288
2505 0 49.1803 12.9523 637 113.484 584.953 492.187
2506 0 54.1646 15.5821 844 106.489 585.071 490.43
2507 0 56.0591 15.555 872 107.786 585.805 488.381
2508 0 59.1145 16.578 980 104.955 585.012 484.95
2509 0 59.1136 14.9373 883 110.452 585.554 482.595
2510 0 63.1912 16.727 1057 106.52 586.163 481.114
2511 0 66.1532 16.7188 1106 106.113 586.616 480.263
2512 0 67.0857 17.0826 1146 105.749 587.494 476.75
2513 0 69.2477 14.8886 1031 108.519 587.888 478.729
2514 0 75.1964 17.2748 1299 107.068 590.45 475.402
2515 0 77.2052 17.3564 1340 105.96 592.135 477.809
2516 0 81.1308 16.307 1323 109.5 593.722 474.386
2517 0 83.1866 16.3127 1357 110.385 595.629 473.26
2518 0 89.2562 18.1052 1616 106.223 596.403 474.339
