time division length width area intensity CMx CMy
0 0 48.2481 15.4203 744 144.855 662.589 480.52
1 0 49.1679 14.5013 713 149.712 662.245 479.829
2 0 51.1792 16.8428 862 140.238 663.095 478.823
3 0 53.1405 15.7883 839 142.056 663.13 478.374
4 0 53.1544 16.2734 865 140.046 663.364 478.868
5 0 55.1382 16.9211 933 136.866 662.539 476.853
6 0 56.1152 15.3078 859 142.132 662.987 476.536
7 0 58.0537 16.657 967 136.794 662.363 475.09
8 0 58.0748 16.1344 937 140.036 662.408 475.34
9 0 60.2211 16.8379 1014 136.194 662.969 474.501
10 0 61.0853 16.2396 992 137.245 662.389 472.327
11 0 63.1087 15.9883 1009 139.776 661.934 472.474
12 0 63.1098 16.6694 1052 137.449 663.829 472.831
13 1 33.0974 12.4179 411 142.696 663.528 487.265
14 0 36.1508 12.7798 462 142.6 663.201 485.385
15 0 36.1399 11.7322 424 140.634 663 486.87
16 0 38.2093 12.1698 465 139.125 663.716 485.828
17 0 40.1339 12.6327 507 136.286 662.769 485.156
18 0 40.1378 13.8274 555 137.638 662.587 482.449
19 0 42.22 13.7612 581 135.799 662.745 482.293
20 0 41.1888 13.1346 541 138.774 662.551 481.989
21 0 44.1497 14.632 646 133.195 662.943 481.498
22 0 45.2419 14.8535 672 131.737 663.54 480.07
23 0 48.0979 14.4289 694 129.561 664.303 480.205
24 0 50.1736 16.0244 804 125.729 664.316 479.31
25 0 50.0802 15.3154 767 128.648 664.468 478.327
26 0 52.1189 16.3281 851 125.247 666.76 477.705
27 0 53.0822 15.5042 823 126.746 667.09 477.64
28 0 54.1587 15.7131 851 127.705 666.712 476.217
29 0 57.1702 16.827 962 123.373 665.944 474.821
30 0 59.1609 18.2215 1078 119.417 667.112 474.288
31 0 58.3919 15.7385 919 128.903 666.777 473.35
32 0 60.1134 16.3857 985 127.597 667.168 473.306
33 0 64.1242 17.3102 1110 122.831 667.657 470.948
34 0 64.3288 15.7628 1014 129.203 667.349 470.182
35 0 67.323 15.8787 1069 128.709 668.389 471.834
36 0 71.1573 17.0186 1211 125.784 666.924 469.893
37 0 73.3394 18.1621 1332 124.16 667.026 468.11
38 0 74.249 18.4918 1373 124.618 666.875 466.17
39 0 76.2443 16.9586 1293 128.62 666.669 468.637
40 0 78.2589 16.1643 1265 132.836 668.085 465.311
41 0 82.2811 17.4888 1439 129.07 667.609 464.748
42 0 82.1907 17.3256 1424 130.24 669.086 464.44
43 0 85.2071 17.2169 1467 130.09 669.091 462.997
44 0 89.2229 17.9662 1603 127.99 669.415 460.815
45 0 93.3743 19.1273 1786 124.447 668.588 460.245
46 0 96.3027 18.2965 1762 126.245 668.746 459.528
47 0 99.1644 18.6458 1849 125.354 668.899 457.413
48 0 102.188 17.3308 1771 128.947 668.82 455.323
49 0 105.26 17.9555 1890 127.287 667.25 455.769
50 1 55.151 15.1403 835 127.596 668.956 479.631
51 0 57.1716 15.4622 884 126.908 669.277 478.932
52 0 58.1842 15.3822 895 127.109 668.888 478.326
53 0 59.1197 15.6801 927 127.338 668.693 475.945
54 0 63.1652 15.4199 974 126.588 668.228 474.905
55 0 64.1016 14.5082 930 129.824 668.715 474.676
56 0 68.153 15.9201 1085 126.876 668.21 472.099
57 0 69.3157 15.3212 1062 127.476 669.202 471.791
58 0 73.0524 15.7832 1153 127.495 668.773 469.258
59 0 74.2931 15.035 1117 129.018 669.307 468.998
60 0 78.2079 15.9191 1245 125.628 669.5 466.422
61 0 78.2079 15.804 1236 167.102 668.503 466.553
62 0 85.2334 16.8596 1437 121.409 670.463 465.399
63 0 87.279 15.5593 1358 126.002 670.895 462.077
64 0 90.2251 16.0377 1447 124.869 670.003 460.726
65 0 93.2676 15.8147 1475 124.471 670.089 458.226
66 0 98.1496 15.7922 1550 121.146 670.649 457.2
67 0 102.454 18.1349 1858 115.413 671.835 454.788
68 1 55.1008 12.1777 671 117.72 671.787 478.358
69 0 57.1093 14.2534 814 115.188 672.086 476.1
70 0 60.1285 14.9846 901 116.303 670.648 473.263
71 0 62.1355 14.6132 908 150.025 669.653 473.276
72 0 63.2591 14.1956 898 119.865 669.682 469.668
73 0 66.2811 15.208 1008 117.224 670.315 470.645
74 0 69.2127 15.0117 1039 116.231 670.682 470.29
75 0 71.2513 15.2418 1086 115.784 670.665 467.93
76 0 74.3105 14.9104 1108 115.392 670.19 467.483
77 0 74.3105 14.8835 1106 151.008 669.188 467.445
78 0 80.2177 13.8872 1114 116.406 670.46 462.387
79 0 84.1354 15.5345 1307 113.759 671.085 461.151
80 0 86.1791 14.7832 1274 115.214 670.115 461.414
81 0 89.2251 14.4802 1292 115.632 669.715 460.652
82 1 49.0929 10.5107 516 114.535 669.81 481.202
83 0 50.1156 10.795 541 114.932 670.795 479.989
84 0 53.0934 11.4138 606 113.592 671.696 478.627
85 0 56.2874 13.7331 773 109.661 671.498 477.245
86 0 57.1143 12.7289 727 113.151 670.904 475.67
87 0 59.0567 13.4955 797 112.705 671.256 473.721
88 0 61.1097 13.9912 855 110.727 670.746 472.137
89 0 62.229 13.4503 837 111.63 670.246 471.542
90 0 65.2602 13.7603 898 112.308 670.032 469.533
91 0 68.1172 14.6365 997 110.441 670.296 468.973
92 0 70.1835 14.2056 997 111.1 670.893 468.669
93 0 72.2267 14.3022 1033 113.071 670.584 465.793
94 0 76.3404 14.1079 1077 113.275 671.843 465.619
95 0 77.2206 13.8953 1073 115.39 671.364 463.347
96 0 80.3012 13.8354 1111 116.398 670.645 462.348
97 0 83.2888 14.2396 1186 114.777 670.54 462.158
98 0 85.1888 15.0372 1281 114.134 671.632 460.062
99 0 88.2724 14.2287 1256 116.584 670.924 459.099
100 0 90.2072 13.4801 1216 118.315 670.231 458.067
101 1 51.1444 11.7119 599 112.459 672.189 478.364
102 0 51.1124 11.1323 569 115.114 670.684 476.684
103 0 55.2063 11.9189 658 114.033 671.143 476.278
104 0 55.2043 12.8975 712 113.671 670.963 472.91
105 0 58.468 12.2973 719 112.533 671.369 476.147
106 0 60.1258 12.3408 742 114.651 671.966 473.818
107 0 62.1448 12.9536 805 112.499 672.06 472.713
108 0 62.1448 12.9536 805 128.335 670.078 472.805
109 0 66.2024 12.5977 834 112.989 671.312 471.855
110 0 66.1585 12.7875 846 113.3 671.054 470.017
111 0 69.1652 12.1738 842 115.538 671.126 467.468
112 0 71.2463 12.7164 906 114.051 671.208 468.128
113 0 74.1773 13.3868 993 113.719 671.001 465.67
114 0 74.3056 11.843 880 117.576 671.293 465.501
115 0 79.2667 14.2935 1133 112.25 671.097 463.983
116 1 38.0846 10.0828 384 111.992 670.82 485.135
117 0 40.1042 9.35064 375 114.019 671.131 484.563
118 0 39.0537 12.4188 485 106.641 670.899 484.936
119 0 42.0688 8.58119 361 111.598 670.188 484.033
120 0 44.0979 9.18411 405 111.899 670.294 481.141
121 0 46.0516 9.38078 432 110.947 669.683 479.498
122 0 48.0763 10.1297 487 110.333 669.852 478.725
123 0 51.1458 10.6754 546 107.744 669.507 479.425
124 0 51.0853 12.9 659 105.137 669.015 478.097
125 0 50.2216 11.051 555 110.279 669.64 476.209
126 0 53.2147 11.82 629 107.943 669.614 474.091
127 0 56.1299 12.1504 682 106.765 668.79 474.116
128 0 56.1002 12.3529 693 108.723 668.273 473.775
129 0 58.1509 12.6223 734 107.375 669.207 470.689
130 0 61.2186 13.4926 826 105.142 669.933 470.206
131 0 64.164 11.2524 722 107.489 669.619 471.413
132 0 64.1829 11.4828 737 108.361 670.206 467.932
133 1 36.1463 8.32728 301 103.628 670.608 485.691
134 0 32.0729 8.51185 273 103.916 672.198 482.806
135 0 35.057 9.6985 340 102.021 671.991 484.153
136 0 38.1463 8.88683 339 103.386 672.118 482.743
137 0 42.1721 11.4056 481 97.5239 672.079 483.686
138 0 42.034 11.229 472 97.3263 671.843 484.239
139 0 42.1793 10.5265 444 98.9144 671.315 485.329
140 0 45.0443 12.5876 567 98.2116 671.055 483.393
141 0 45.0443 12.6764 571 141.131 670.049 483.352
142 0 47.1064 13.2678 625 99.1808 670.053 482.13
143 0 47.1294 13.2614 625 101.17 669.915 480.296
144 0 49.0541 11.8441 581 104.133 669.453 480.673
145 0 50.2951 12.705 639 102.687 670.383 479.548
146 0 50.2951 12.7846 643 145.215 670.364 479.495
147 0 54.2547 12.9574 703 103.057 670.651 477.873
148 0 57.3282 13.4314 770 101.713 669.861 478.017
149 0 56.3625 11.3906 642 106.005 669.868 479.019
150 0 60.256 12.8618 775 103.88 669.338 476.382
151 0 60.1899 14.0057 843 103.629 669.112 472.287
152 0 63.5256 13.9314 885 104.042 669.145 473.603
153 0 66.2585 14.7 974 100.636 668.329 473.575
154 0 68.3544 12.5815 860 105.277 670.015 472.635
155 0 72.3059 14.1897 1026 103.104 669.207 469.005
156 0 71.3461 14.3245 1022 104.142 669.332 468.049
157 0 74.3126 13.4028 996 107.095 668.324 464.685
158 0 77.4108 14.1712 1097 104.958 668.779 464.493
159 0 79.26 14.4461 1145 104.272 668.707 463.302
160 0 82.2716 14.1969 1168 104.615 669.39 460.776
161 0 85.2474 13.6544 1164 106.446 669.853 459.934
162 1 44.1689 10.8674 480 102.538 670.458 481.35
163 0 46.142 10.2726 474 103.177 670.517 482.675
164 0 48.2182 11.7383 566 101.86 669.647 480.703
165 0 50.1606 12.0613 605 102.155 669.86 478.521
166 0 50.1928 12.4121 623 102.173 669.555 477.82
167 0 52.2371 13.3813 699 101.841 670.99 475.17
168 0 54.2437 12.0936 656 102.924 670.277 478.27
169 0 58.2519 13.6648 796 99.7513 670.68 476.333
170 0 58.1568 12.1396 706 103.64 669.615 475.402
171 0 62.2347 12.8224 798 101.652 670.038 474.959
172 0 64.2992 13.375 860 101.383 669.849 473.058
173 0 67.2773 15.9638 1074 96.041 668.882 472.845
174 0 68.2461 12.7919 873 103.149 669.191 471.086
175 0 70.2317 13.4982 948 100.999 670.244 468.549
176 0 73.3499 13.5515 994 101.144 670.042 469.862
177 0 76.3624 13.724 1048 100.553 670.281 468.898
178 0 79.2575 14.4214 1143 100.027 669.913 466.948
179 0 79.4781 12.2801 976 104.339 669.541 467.03
180 0 85.2547 13.6063 1160 101.476 668.799 464.546
181 0 86.3292 12.7535 1101 101.767 668.318 466.761
182 1 45.1572 11.6039 524 97.7844 668.803 483.258
183 0 47.1438 12.5361 591 95.9239 668.942 483.286
184 0 47.1063 11.9517 563 96.2966 668.654 484.346
185 0 50.2285 11.8857 597 95.4355 668.623 483.817
186 0 52.1419 12.4852 651 96.7711 667.628 479.217
187 0 54.2071 13.596 737 94.4193 667.879 479.015
188 0 53.248 12.3761 659 98.4446 667.475 477.052
189 0 56.2301 13.0891 736 97.1141 668.135 478.069
190 0 56.2301 12.5733 707 139.655 669.153 477.516
191 0 61.1001 13.1424 803 97.878 667.644 475.824
192 0 61.2087 13.0864 801 100.469 668.442 474.546
193 0 65.1381 14.2006 925 98.7892 668.143 472.174
194 0 66.2142 13.5469 897 102.412 667.99 469.701
195 0 68.2286 13.2642 905 104.014 668.376 470.326
196 0 69.2162 14.6642 1015 103.547 668.694 468.679
197 0 69.2162 14.6498 1014 146.305 669.683 468.617
198 0 75.3342 15.0397 1133 104.247 668.28 466.695
199 0 76.4748 14.5015 1109 107.281 668.949 465.63
200 0 79.29 14.8821 1180 108.046 668.364 464.408
201 0 81.4443 14.4884 1180 109.47 668.442 464.175
202 1 43.2556 9.10864 394 111.294 668.619 485.173
203 0 45.1404 11.3202 511 112.387 668.427 481.967
204 0 48.1968 12.1792 587 109.593 668.775 483.131
205 0 47.0654 12.4083 584 111.272 669.079 483.055
206 0 48.0509 10.6554 512 115.645 669.818 483.168
207 0 51.13 12.8692 658 111.91 669.912 481.269
208 0 55.1213 13.6064 750 109.943 670.179 480.309
209 0 54.2463 13.365 725 112.446 668.833 479.648
210 0 57.2143 13.7553 787 110.442 669.109 481.212
211 0 57.2687 14.0391 804 111.837 669.05 479.907
212 0 59.1878 12.2829 727 117.051 668.622 478.208
213 0 63.2464 14.3882 910 109.269 667.526 476.329
214 0 65.3449 13.1303 858 112.66 667.734 474.635
215 0 67.2333 15.8999 1069 106.673 668.21 472.742
216 0 70.2147 13.886 975 110.469 668.315 473.927
217 0 69.2514 14.6423 1014 109.079 667.999 471.354
218 0 72.4231 13.2554 960 112.632 667.083 469.639
219 0 75.3704 13.7985 1040 110.596 667.125 469.09
220 0 76.4443 13.3954 1024 112.583 668.05 466.621
221 0 80.4918 14.5356 1170 108.397 667.989 466.63
222 0 83.5 13.5808 1134 109.382 667.72 465.716
223 0 85.3164 14.1122 1204 109.101 667.489 460.856
224 1 47.2428 11.3033 534 107.272 668.024 481.506
225 0 49.1826 10.1662 500 108.6 667.746 479.314
226 0 48.2042 10.8704 524 108.198 667.876 479.103
227 0 49.1506 9.96937 490 110.363 669.655 476.469
228 0 51.0899 9.76709 499 108.373 669.158 477.916
229 0 53.0359 12.1239 643 103.706 669.036 472.874
230 0 52.0556 12.3522 643 102.747 669.115 473.984
231 0 56.1586 12.625 709 101.082 669.078 472.976
232 0 59.225 12.3428 731 97.8317 669.581 475.016
233 0 60.0276 12.4276 746 99.9115 669.893 474.389
234 0 62.0319 12.9772 805 97.9851 668.964 471.855
235 0 65.1191 15.0647 981 94.3201 669.43 469.437
236 0 68.1319 13.2097 900 98.0467 669.139 470.291
237 0 69.1529 13.8389 957 97.7962 669.881 470.526
238 0 73.1791 15.8515 1160 92.5302 669.815 470.442
239 0 75.155 13.8647 1042 97.6046 670.378 468.707
240 0 77.314 13.1283 1015 98.9074 670.369 467.98
241 0 80.2584 13.7929 1107 98.2538 669.416 466.819
242 0 81.0965 12.294 997 102.824 669.101 465.643
243 0 85.1429 13.307 1133 101.453 669.259 464.01
244 0 85.1429 13.3188 1134 142.193 670.259 463.913
245 0 92.1113 13.2014 1216 101.74 669.408 460.246
246 1 48.0363 10.5753 508 99.248 667.35 483.941
247 0 50.0247 9.81516 491 100.134 667.495 482.931
248 0 52.0305 10.3785 540 99.5833 667.076 480.678
249 0 55.0665 10.4419 575 99.1513 666.277 479.553
250 0 56.1166 12.0642 677 95.1861 667.524 479.185
251 0 56.223 11.65 655 98.2183 667.716 475.656
252 0 59.07 12.4936 738 96.6924 667.375 476.717
253 0 59.1151 11.6721 690 99.013 668.119 476.441
254 0 61.0805 13.9161 850 97.42 667.087 472.614
255 0 63.1137 12.7864 807 99.2652 668.439 471.686
256 0 63.1137 12.7864 807 141.514 669.429 471.553
257 0 69.0678 13.2623 916 97.7162 667.817 470.657
258 0 69.0623 12.6408 873 99.8499 667.622 468.325
259 0 74.1728 15.1403 1123 94.0463 668.585 466.984
260 0 76.151 13.8409 1054 96.5674 668.824 466.16
261 0 77.0862 13.66 1053 98.2137 668.074 463.401
262 0 80.3059 13.1622 1057 99.0804 669.182 462.612
263 0 80.3059 13.1248 1054 149.695 670.173 462.572
264 0 85.176 14.2059 1210 97.0967 670.434 461.444
265 0 87.222 11.8319 1032 102.759 670.722 459.214
266 1 49.0909 10.8982 535 96.3215 670.654 480.503
267 0 52.1405 10.0114 522 95.5958 671.665 481.149
268 0 52.1373 10.5299 549 96.7177 671.849 479.056
269 0 56.1332 13.2542 744 92.0793 672.383 478.141
270 0 57.245 11.7216 671 95.0164 672.329 477.121
271 0 57.1196 13.5505 774 91.3721 672.395 475.346
272 0 61.2013 11.1599 683 91.8155 671.507 478.067
273 0 61.0822 13.4409 821 90.2509 671.086 476.462
274 0 65.1721 13.6255 888 89.6847 670.061 476.65
275 0 68.1604 12.9547 883 90.3941 670.527 475.408
276 0 69.2094 13.9865 968 89.3936 668.636 475.093
277 0 71.109 13.9082 989 90.8008 669.767 472.493
278 0 71.1499 12.5088 890 94.0944 669.947 468.435
279 0 76.1935 14.0563 1071 91.6872 669.325 469.401
280 0 77.2284 12.5602 970 94.4959 669.099 466.865
281 0 82.2335 16.745 1377 86.8025 669.945 466.927
282 0 83.1671 12.8777 1071 95.3632 669.647 464.626
283 0 87.222 13.5746 1184 95.5861 669.556 462.43
284 0 91.2405 13.4589 1228 96.9023 668.267 460.845
285 1 49.0801 9.55581 469 96.2793 668.507 480.397
286 0 48.072 10.3178 496 96.004 667.966 481.887
287 0 53.0516 9.33054 495 96.3616 667.352 480.723
288 0 54.0834 12.1294 656 94.8628 667.291 477.329
289 0 57.2105 12.4977 715 95.5077 667.541 475.365
290 0 56.0699 11.2538 631 97.4136 668.158 476.748
291 0 61.0357 12.8941 787 95.0673 667.691 474.353
292 0 60.0981 13.2949 799 95.7497 668.075 474.383
293 0 60.0915 13.2631 797 140.772 669.061 474.398
294 0 65.1103 13.8841 904 94.4646 669.513 473.503
295 0 67.1353 14.7166 988 94.502 670.487 470.079
296 0 67.1114 13.8725 931 97.2578 670.728 471.033
297 0 72.1753 13.2594 957 97.5496 671.63 469.604
298 0 70.172 13.1534 923 149.44 672.554 470.104
299 0 76.3268 12.8395 980 98.4327 669.405 467.891
300 0 82.3844 15.4034 1269 92.1663 670.68 467.483
301 0 82.231 12.8662 1058 97.4905 670.403 466.168
302 0 85.4842 14.1664 1211 94.9356 671.27 463.863
303 0 89.4481 14.6006 1306 93.5023 671.534 465.283
304 0 92.4289 13.4157 1240 96.0887 671.034 462.14
305 1 53.2016 11.9357 635 91.9339 671.731 482.824
306 0 53.2016 11.8605 631 140.254 670.724 482.716
307 0 55.2203 13.1111 724 92.1285 671.356 480.403
308 0 56.1765 12.7277 715 92.2895 670.345 481.052
309 0 57.1136 13.2193 755 91.7788 670.376 478.564
310 0 58.0779 12.8104 744 91.1331 669.956 477.898
311 0 60.1261 12.823 771 91.0765 667.917 478.975
312 0 65.0647 14.7238 958 88.0324 667.397 478.082
313 0 65.1763 13.5172 881 91.3587 666.944 474.762
314 0 66.09 12.6494 836 94.1675 667.775 472.945
315 0 70.2352 13.4833 947 92.83 666.394 472.224
316 0 73.1269 14.4543 1057 92.0766 666.363 470.448
317 0 72.2635 12.8834 931 97.4651 666.049 470.044
318 0 77.1874 14.0567 1085 94.9171 667.026 468.391
319 0 81.254 14.6947 1194 95.1147 667.831 464.675
320 0 84.2812 14.8076 1248 96.0633 666.799 461.875
321 0 86.1965 14.4901 1249 96.8247 666.786 461.539
322 0 88.1908 14.4459 1274 97.5118 667.139 459.27
323 0 93.2334 13.729 1280 99.4789 668.053 458.523
324 0 94.3541 14.6788 1385 99.3704 670.064 454.6
325 1 49.2999 11.1968 552 97.8659 672.245 480.339
326 0 51.1202 10.7003 547 99.3126 673.377 478.846
327 0 54.1682 12.1289 657 97.5982 673.788 479.164
328 0 56.1714 12.6755 712 95.9705 673.674 478.978
329 0 57.1693 11.7196 670 97.5642 671.497 478.236
330 0 56.3526 13.3446 752 95.6822 671.983 477.261
331 0 58.2885 12.6097 735 97.9701 670.801 476.233
332 0 64.1648 13.7614 883 93.0351 671.598 480.072
333 0 65.1837 13.4236 875 96.0651 671.237 477.458
334 0 65.1123 12.5168 815 98.7215 672.443 478.19
335 0 70.246 14.7339 1035 95.8473 670.51 474.964
336 0 72.1423 18.5605 1339 89.2823 670.741 476.198
337 0 72.1903 13.6583 986 102.77 670.511 473.363
338 0 77.1891 14.9503 1154 98.5113 670.337 473.121
339 0 79.1866 14.6363 1159 101.606 670.344 469.544
340 0 82.2913 14.5702 1199 101.991 670.052 468.887
341 0 84.2072 14.3931 1212 103.403 669.575 465.485
342 0 88.2748 15.3045 1351 101.025 668.778 465.992
343 0 88.2748 15.3385 1354 153.142 667.798 466.035
344 1 51.112 9.66506 494 107.66 667.749 482.419
345 0 51.2142 10.9735 562 103.836 666.92 483.945
346 0 53.1389 10.3502 550 108.547 666.129 481.062
347 0 56.1595 12.9275 726 103.201 666.738 479.393
348 0 56.0739 12.0734 677 104.945 667.05 479.848
349 0 58.0679 13.4842 783 100.375 665.852 477.349
350 0 60.1862 12.4613 750 101.892 666.264 477.252
351 0 61.0986 12.0788 738 103.913 666.079 474.244
352 0 65.1183 13.821 900 100.041 665.8 473.254
353 0 67.0711 15.4463 1036 95.7529 667.492 474.47
354 0 68.0542 15.2525 1038 98.0328 668.016 471.471
355 0 68.1723 15.0794 1028 100.754 669.094 470.577
356 0 72.189 13.9911 1010 103.013 669.612 469.225
357 0 73.3441 14.8069 1086 100.875 671.202 469.461
358 0 74.2737 14.11 1048 104.397 671.578 468.236
359 0 76.3639 14.3654 1097 105.537 671.829 469.057
360 0 81.1706 15.375 1248 104.019 672.3 466.828
361 0 84.2726 13.7411 1158 109.119 673.029 465.75
362 1 45.058 10.2313 461 108.985 674.451 485.95
363 0 48.047 11.3639 546 109.769 673.727 483.74
364 0 50.0333 11.1526 558 109.928 673.233 483.547
365 0 50.1769 12.6951 637 107.958 672.301 483.306
366 0 53.2207 12.3824 659 108.768 672.003 482.596
367 0 53.1357 13.7384 730 108.552 671.986 482.4
368 0 54.2983 12.8181 696 109.069 672.231 483.444
369 0 56.1877 13.0634 734 109.372 671.256 482.401
370 0 57.2591 12.4696 714 110.873 670.654 481.272
371 0 61.381 15.0046 921 103.768 670.258 481.765
372 0 62.2043 14.1469 880 106.78 670.201 479.276
373 0 63.2413 12.3495 781 111.817 669.417 478.519
374 0 66.1977 14.6984 973 106.054 668.98 477.969
375 0 67.2258 14.3248 963 109.083 668.133 475.324
376 0 69.3416 14.7819 1025 106.84 668.198 473.407
377 0 72.3796 15.2253 1102 104.83 667.974 472.795
378 0 73.2979 14.4342 1058 109.238 667.415 470.665
379 0 77.2939 14.0761 1088 108.699 666.486 468.884
380 0 78.2287 15.2246 1191 106.311 667.623 466.294
381 1 43.0276 9.76118 420 108.357 666.262 485.26
382 0 44.2418 10.3974 460 106.739 665.83 483.111
383 0 45.2226 10.8574 491 107.723 666.257 481.701
384 0 49.2078 10.4455 514 104.864 666.288 481.877
385 0 47.3351 10.0982 478 108.462 666.586 476.962
386 0 47.3196 10.6087 502 106.504 667.271 478.076
387 0 51.4351 12.1318 624 100.865 668.708 474.061
388 0 53.0706 13.2277 702 97.7493 669.199 476.132
389 0 55.0504 13.4422 740 98.977 669.849 480.626
390 0 55.0363 14.3723 791 98.8597 672.632 479.403
391 0 58.1221 14.4523 840 97.6702 674.213 479.794
392 0 60.126 14.8022 890 97.0191 674.042 479.774
393 0 59.1031 14.2632 843 100.429 673.747 478.994
394 0 61.1013 13.5185 826 102.189 673.86 477.947
395 0 65.0701 14.7072 957 99.6604 673.667 476.552
396 0 66.1743 13.9178 921 101.61 673.735 477.843
397 0 69.0873 16.443 1136 97.338 672.731 476.579
398 0 70.0966 14.3659 1007 103.727 671.471 475.319
399 0 73.0923 14.2149 1039 102.825 671.665 477.417
400 0 74.2021 14.191 1053 104.227 672.198 472.777
401 0 80.1444 15.9837 1281 99.3669 670.692 471.785
402 0 79.1772 15.0801 1194 103.415 670.085 469.832
403 1 45.0265 10.9935 495 103.457 668.832 488.824
404 0 45.0816 10.2703 463 105.063 667.382 486.417
405 0 47.1915 11.8453 559 102.388 669.564 486.413
406 0 46.2098 12.6597 585 102.357 668.263 483.185
407 0 48.2137 11.0964 535 103.688 667.923 483.465
408 0 51.1311 12.7711 653 101.663 667.562 481.002
409 0 52.4035 13.6823 717 100.269 667.497 482.159
410 0 54.1886 13.9697 757 100.561 666.938 479.505
411 0 54.1886 14.0251 760 144.486 665.947 479.424
412 0 57.2995 13.6476 782 101.895 667.67 477.373
413 0 57.3812 11.8157 678 107.117 668.025 475.435
414 0 61.3002 14.1761 869 100.342 668.162 475.314
415 0 62.2685 14.052 875 101.934 669.472 474.115
416 0 67.2294 15.3653 1033 97.1491 669.736 474.434
417 0 67.1845 13.3811 899 104.131 671.188 471.35
418 0 69.2231 13.1892 913 104.124 672.004 470.14
419 0 74.3427 15.3747 1143 98.5363 673.276 468.997
420 1 41.119 10.8466 446 101.791 674.323 486.749
421 0 43.1144 12.7568 550 99.7164 674.602 486.858
422 0 43.1984 9.90778 428 103.937 675.722 487.512
423 0 45.0106 12.4637 561 98.7041 674.988 487.28
424 0 46.0658 12.5256 577 99.2686 674.6 486.787
425 0 47.1304 12.1153 571 100.911 675.478 485.673
426 0 51.0701 13.4325 686 95.5335 674.628 486.273
427 0 51.0701 13.315 680 134.744 673.584 486.313
428 0 53.1376 13.8697 737 95.7843 672.411 486.001
429 0 56.0397 14.9715 839 93.851 671.774 484.216
430 0 57.0586 13.0042 742 97.9016 671.236 484.98
431 0 58.033 13.4062 778 98.3008 670.411 484.167
432 0 59.1475 13.441 795 98.7786 670.248 483.911
433 0 62.0907 15.6223 970 94.0412 669.582 481.72
434 0 63.0628 14.2239 897 97.5953 667.844 478.565
435 0 66.0783 14.5585 962 95.4272 668.532 479.599
436 0 67.1892 13.6183 915 99.8951 668.132 476.537
437 0 69.0966 11.9109 823 102.926 666.773 475.99
438 0 73.0626 14.4807 1058 98.6588 667.457 471.899
439 0 75.1205 14.6831 1103 98.3273 667.22 469.184
440 0 78.1092 13.1099 1024 101.01 667.362 469.207
441 0 82.081 14.4491 1186 97.64 666.22 465.376
442 0 83.1301 13.0879 1088 101.262 667.487 465.204
443 0 86.2516 15.0026 1294 98.2751 666.651 460.582
444 0 91.3359 14.5288 1327 98.2276 667.884 461.435
445 0 91.1979 13.2788 1211 101.048 669.208 460.684
446 0 93.4979 13.7971 1290 101.865 670.163 457.793
447 1 49.1202 10.8306 532 100.194 671.962 481.32
448 0 49.1202 10.8509 533 148.265 673.961 481.31
449 0 54.0814 10.5212 569 98.1757 673.974 481.814
450 0 58.1547 11.2115 652 97.0307 675.095 481.362
451 0 59.1453 12.7314 753 96.2696 674.94 480.728
452 0 59.1721 12.7425 754 97.5 675.788 480.416
453 0 62.1896 12.5101 778 98.7275 676.162 478.021
454 0 64.2135 14.6075 938 95.2004 675.297 476.781
455 0 68.1372 15.322 1044 94.8056 674.236 477.057
456 0 69.141 12.8289 887 100.66 674.52 476.581
457 0 72.045 14.2133 1024 98.3232 674.089 476.29
458 0 76.1863 14.622 1114 97.5557 673.572 474.333
459 0 77.1966 13.7053 1058 99.6843 672.839 472.09
460 0 81.2242 13.4566 1093 99.3056 672.093 472.312
461 0 84.1817 13.3283 1122 100.565 672.085 469.394
462 0 87.1566 14.2273 1240 100.104 671.176 467.938
463 0 88.1347 13.4113 1182 102.164 669.677 462.614
464 0 93.2071 14.8594 1385 99.7191 669.32 461.684
465 0 97.1899 13.6537 1327 102.099 667.007 461.221
466 0 101.135 14.6339 1480 100.545 666.91 458.257
467 0 105.228 13.7226 1444 103.854 667.41 456.569
468 1 55.1665 10.7855 595 102.358 668.037 479.775
469 0 57.2236 9.85608 564 104.074 667.186 478.706
470 0 58.1065 11.6166 675 101.536 666.973 477.127
471 0 60.1973 12.6418 761 101.716 665.28 472.371
472 0 63.116 12.1522 767 101.349 667.078 471.608
473 0 64.1837 12.3084 790 100.928 666.097 472.001
474 0 64.1837 12.3707 794 145.179 665.099 471.929
475 0 72.1959 16.3167 1178 94.5399 667.465 470.715
476 0 72.1593 14.5789 1052 98.7842 669.356 464.48
477 0 76.1905 15.1462 1154 96.2487 670.449 467.867
478 0 77.1646 13.0759 1009 100.131 672.733 466.171
479 0 82.2797 16.213 1334 94.4273 674.324 465.74
480 0 85.1466 14.5044 1235 98.7053 674.351 464.13
481 0 88.2513 14.0394 1239 100.676 675.755 462.991
482 0 90.4315 13.4466 1216 102.512 676.137 462.268
483 0 94.4434 14.7284 1391 101.35 674.975 458.82
484 0 99.4687 14.5372 1446 102.638 674.482 459.892
485 1 52.2449 11.6949 611 101.239 674.067 482.268
486 0 53.2788 11.4304 609 100.25 673.09 482.409
487 0 53.3484 8.79126 469 100.599 672.175 487.429
488 0 55.2843 11.0158 609 98.2512 671.974 486.481
489 0 57.1985 12.343 706 96.0439 672.85 481.416
490 0 60.1262 12.9893 781 92.5583 672.827 480.367
491 0 63.1645 13.9319 880 91.0557 670.598 481.101
492 0 66.1918 13.9292 922 91.5325 669.509 478.198
493 0 67.1857 14.512 975 92.1662 667.871 476.518
494 0 69.1192 14.7137 1017 91.7168 668.688 475.594
495 0 71.2928 15.247 1087 91.1822 668.237 472.626
496 0 71.2048 13.9176 991 94.998 667.97 471.369
497 0 76.2716 13.7142 1046 94.6692 667.861 469.341
498 0 77.1732 14.9663 1155 93.4061 666.795 467.314
499 0 79.4579 13.7431 1092 95.4249 666.607 463.756
500 0 82.2377 15.4795 1273 92.1838 666.369 463.649
501 1 46.1149 11.2111 517 92.0948 667.325 480.248
502 0 48.1079 9.64498 464 93.569 668.015 481.849
503 0 45.2327 9.61693 435 94.6253 667.69 481.931
504 0 49.0737 11.0039 540 93.8611 669.226 478.385
505 0 50.2339 10.2919 517 96.793 669.818 476.534
506 0 52.0638 11.0441 575 95.5113 669.93 477.866
507 0 55.0664 13.4565 741 91.1997 672.385 478.626
508 0 58.0717 14.0344 815 89.9632 675.431 477.89
509 0 59.1368 14.2551 843 90.3879 675.577 478.031
510 0 61.0393 14.5808 890 90.4157 675.481 477.748
511 0 62.101 11.8356 735 94.4871 676.278 479.079
512 0 66.0993 14.9472 988 90.414 676.97 477.857
513 0 66.2055 14.455 957 93.5277 676.59 476.596
514 0 71.2877 14.2802 1018 94.3183 674.824 477.638
515 0 70.0932 12.4263 871 100.851 674.411 475.87
516 0 76.142 14.972 1140 99.4202 673.284 476.712
517 0 78.3221 14.4659 1133 98.8058 671.993 475.714
518 0 80.4237 13.8143 1111 100.716 670.616 474.817
519 0 82.4029 13.9315 1148 101.111 669.9 471.705
520 0 86.246 16.5457 1427 96.2901 668.072 471.257
521 0 89.3164 15.3051 1367 98.7857 667.591 469.67
522 0 95.4191 15.9821 1525 97.0039 666.055 466.584
523 1 48.2517 11.668 563 100.648 664.893 487.249
524 0 50.2022 12.0314 604 101.359 663.71 485.998
525 0 51.2472 11.747 602 101.191 663.591 485.949
526 0 54.2444 11.0242 598 102.139 662.798 485.015
527 0 58.2003 14.2095 827 96.5079 662.433 483.622
528 0 59.0896 14.3511 848 98.316 661.376 479.658
529 0 59.0984 14.0782 832 100.059 660.895 478.599
530 0 63.2606 14.8434 939 97.7338 662.283 478.695
531 0 64.224 13.3128 855 101.477 662.952 476.468
532 0 66.4109 14.0489 933 101.357 662.436 475.758
533 0 68.29 15.6685 1070 99.5093 662.859 472.993
534 0 72.2377 14.5215 1049 102.132 663.858 472.888
535 0 73.2173 14.6277 1071 102.705 665.076 472.503
536 0 76.3118 15.6725 1196 101.154 667.344 470.499
537 0 81.2116 15.4658 1256 101.967 669.194 470.576
538 0 83.2922 16.22 1351 100.634 670.592 471.543
539 0 87.2048 15.9395 1390 101.637 671.372 470.444
540 0 87.3093 13.8244 1207 107.726 671.3 468.935
541 1 46.1344 9.62405 444 104.273 671.356 496.119
542 0 48.1787 11.229 541 104.229 670.449 494.257
543 0 49.1319 11.5404 567 106.566 668.473 491.732
544 0 52.1544 11.8111 616 106.323 669.068 491.224
545 0 55.0363 14.336 789 101.513 666.512 492.638
546 0 57.0864 14.189 810 103.373 664.523 489.494
547 0 60.1028 13.6267 819 104.248 663.524 487.416
548 0 62.0719 14.1932 881 103.522 662.37 487.002
549 0 65.137 13.3872 872 105.423 661.041 484.274
550 0 67.1384 14.3286 962 104.788 659.545 481.033
551 0 70.1233 13.79 967 106.837 659.042 479.968
552 0 71.1097 13.7393 977 107.769 658.407 477.112
553 1 39.0605 10.727 419 102.864 657.468 493.181
554 0 39.0275 10.736 419 102.203 656.666 492.048
555 0 40.0263 10.4681 419 146.203 656.683 492.119
556 0 43.0654 12.7945 551 99.3249 656.804 487.457
557 0 42.033 12.1333 510 100.912 656.894 487.143
558 0 44.0396 12.1255 534 102.019 658.092 483.657
559 0 46.1047 11.9944 553 102.978 658.68 483.769
560 0 45.1091 11.5054 519 106.316 660.285 481.788
561 0 48.2763 12.9256 624 102.53 661.574 480.667
562 0 48.1877 12.8249 618 105.341 663.272 480.244
563 0 51.2187 12.5345 642 105.055 665.134 480.101
564 0 51.1202 12.4804 638 106.451 666.614 481.572
565 0 54.2143 13.9631 757 103.642 668.927 479.935
566 0 55.2794 13.3865 740 104.754 671.18 480.907
567 0 58.0895 14.1506 822 103.144 672.725 481.1
568 0 59.2252 14.0987 835 104.4 673.649 479.857
569 0 60.1998 12.6911 764 108.962 672.928 480.936
570 0 66.2655 15.2568 1011 103.02 672.668 479.546
571 0 68.3607 12.7998 875 108.549 672.075 480.51
572 1 37.1224 10.6135 394 105.261 671.203 497.284
573 0 38.08 11.4233 435 106.641 670.218 495.356
574 0 39.0708 11.8503 463 105.816 670.555 496.056
575 0 41.0984 12.1416 499 106.012 668.798 495.862
576 0 43.018 13.7152 590 104.625 666.159 494.039
577 0 47.2416 11.5153 544 107.566 664.702 494.454
578 0 46.1207 13.8983 641 104.384 663.354 492.852
579 0 48.3022 13.3948 647 104.719 662.597 491.941
580 0 48.3286 13.1599 636 108.121 661.179 489.623
581 0 50.2212 12.2259 614 107.695 661.482 490.836
582 0 53.3349 13.3684 713 105.784 660.516 486.439
583 0 52.386 13.6296 714 104.457 659.903 486.011
584 0 55.2652 13.2452 732 107.469 659.743 483.246
585 0 57.234 13.803 790 104.711 659.847 482.805
586 0 58.1833 13.3028 774 106.863 660.203 480.955
587 0 61.306 14.3053 877 104.743 660.534 478.101
588 0 63.2072 14.3655 908 105.274 660.983 476.676
589 0 64.1472 13.6873 878 106.722 662.195 477.067
590 0 67.1749 14.4995 974 104.415 663.282 474.282
591 1 35.0323 9.99078 350 106.329 664.874 490.991
592 0 37.0286 10.1273 375 106.784 664.888 489.069
593 0 37.1105 11.4253 424 104.406 667.035 490.917
594 0 42.1884 10.8561 458 104.061 669.389 491.301
595 0 41.027 12.4552 511 104.548 671.595 489.73
596 0 43.0334 13.3385 574 99.9652 672.545 490.664
597 0 45.0514 13.5401 610 100.12 671.41 492.511
598 0 46.0919 13.1259 605 102.106 671.678 492.775
599 0 46.0423 12.9446 596 104.29 671.599 492.446
600 0 50.0179 14.4348 722 100.46 670.932 492.938
601 0 51.0703 13.3345 681 105.037 668.856 494.874
602 0 51.0703 13.3541 682 142.513 666.864 494.848
603 0 55.086 13.5243 745 105.914 666.995 495.646
604 0 55.1753 14.1005 778 103.954 666.487 494.887
605 0 58.0863 14.3752 835 103.257 664.104 495
606 0 60.1241 13.0064 782 106.9 662.33 495.63
607 0 60.13 13.1715 792 148.746 660.369 495.789
608 0 65.1717 15.1446 987 105.389 658.942 491.77
609 0 68.0846 14.3204 975 106.697 658.631 491.944
610 0 69.1294 13.5832 939 111.329 658.635 488.59
611 0 71.2194 13.4935 961 112.352 657.963 488.673
612 0 74.0908 14.0503 1041 111.504 657.576 487.64
613 0 76.1541 14.1949 1081 113.328 656.117 485.826
614 1 43.0671 12.0742 520 112.396 656.271 500.987
615 0 43.0279 11.7133 504 111.603 655.353 499.359
616 0 45.0186 11.7951 531 112.544 655.224 497.198
617 0 47.0618 12.218 575 111.437 656.05 496.158
618 0 48.0181 11.7456 564 112.156 655.252 494.544
619 0 49.0343 13.0521 640 111.736 655.369 492.442
620 0 53.1147 13.3108 707 108.342 656.182 490.228
621 0 55.0932 12.8872 710 111.11 657.666 491.083
622 0 57.0617 13.5993 776 109.164 658.57 490.327
623 0 59.1566 13.7263 812 110.006 659.643 488.357
624 0 62.1024 13.5905 844 109.209 661.472 486.429
625 0 65.0694 14.108 918 108.791 662.44 486.012
626 0 66.1747 12.9506 857 112.089 662.669 486.608
627 0 71.3004 14.2636 1017 108.821 663.326 484.153
628 0 74.4076 14.1652 1054 110.272 662.696 483.739
629 1 39.2152 9.02711 354 111.141 663.78 505.051
630 0 42.1808 12.1619 513 107.877 661.846 503.963
631 0 43.3473 11.4655 497 109.467 661.785 505.539
632 0 45.2033 12.2557 554 107.805 661.227 505.392
633 0 48.244 12.8721 621 105.49 659.662 506.002
634 0 50.1153 12.4313 623 108.213 659.337 504.982
635 0 52.2827 13.7904 721 105.455 658.598 504.405
636 0 53.1533 12.9437 688 108.126 657.331 501.797
637 0 56.321 13.281 748 107.31 655.848 501.512
638 0 56.1818 13.4385 755 109.633 653.992 499.171
639 0 61.3184 14.5633 893 106.187 651.832 496.035
640 0 62.1998 13.0547 812 110.772 651.906 492.575
641 0 65.1662 13.8569 903 107.972 651.117 491.491
642 0 67.2553 13.6643 919 109.164 650.706 488.594
643 0 69.2699 14.3208 992 107.805 650.446 488.217
644 0 70.205 14.0873 989 110.845 651.509 484.345
645 0 75.1323 15.2265 1144 107.36 652.115 483.169
646 0 76.1553 14.7068 1120 109.962 653.007 484.108
647 0 79.1375 15.8585 1255 107.545 654.052 480.895
648 0 82.2406 15.4425 1270 109.009 655.698 481.513
649 0 85.2207 14.7734 1259 111.225 656.89 478.246
650 0 87.2192 15.57 1358 111.193 658.077 476.197
651 0 92.2975 15.1683 1400 111.787 660.237 474.849
652 1 52.08 11.0407 575 111.492 662.212 497.918
653 0 52.08 10.8871 567 159.242 663.171 497.894
654 0 54.1619 13.0534 707 110.107 664.653 497.02
655 0 58.1268 12.834 746 109.629 665.692 495.903
656 0 61.069 13.2309 808 108.771 665.104 496.151
657 0 62.1006 13.3493 829 108.901 664.359 494.701
658 0 64.0412 12.4607 798 112.009 663.529 494.269
659 0 69.0753 13.9413 963 107.879 664.028 493.561
660 0 70.0606 13.6168 954 107.466 663.431 492.233
661 1 37.015 11.3468 420 106.933 661.071 509.212
662 0 41.0294 11.2846 463 106.873 660.713 506.985
663 0 41.0217 10.6041 435 108.03 658.807 505.846
664 0 42.0987 10.6417 448 106.725 658.105 504.288
665 0 44.1018 11.7909 520 104.129 656.931 502.685
666 0 47.017 13.8886 653 98.415 655.827 500.567
667 0 49.0601 13.5548 665 100.177 654.502 497.433
668 0 51.029 12.7379 650 101.757 654.748 495.505
669 0 50.185 13.1115 658 102.722 655.248 493.971
670 0 51.1468 13.5688 694 101.287 655.12 491.414
671 0 54.1867 12.7153 689 103.643 655.277 489.747
672 0 56.1169 14.1312 793 102.092 656.199 487.339
673 0 57.1215 13.5501 774 104.775 656.473 485.087
674 0 59.2308 13.8948 823 104.713 657.358 485.252
675 0 59.1454 13.9318 824 106.079 659.023 482.795
676 0 63.143 14.4592 913 105.044 659.708 482.28
677 0 64.09 13.325 854 109.109 661.403 479.76
678 0 69.1689 14.2261 984 106.747 662.113 478.014
679 0 69.1305 14.3207 990 108.095 664.122 478.644
680 0 73.1707 13.94 1020 108.679 666.99 478.061
681 0 76.1681 15.5446 1184 105.771 668.334 477.167
682 0 78.0849 13.9207 1087 111.107 669.927 475.214
683 1 41.0264 10.3836 426 106.688 669.991 497.099
684 0 42.1027 11.8045 497 105.877 669.777 497.058
685 0 43.1653 11.2822 487 108.228 671.649 496.191
686 0 45.1529 13.2217 597 107.876 670.392 496.092
687 0 47.0757 13.3615 629 108.234 670.862 495.574
688 0 51.2286 13.43 688 108.038 669.866 496.61
689 0 51.112 13.9106 711 109.816 667.796 495.789
690 0 52.3432 12.2079 639 113.955 667.556 494.341
691 0 54.2235 13.7947 748 110.996 665.684 493.975
692 0 56.2509 13.5642 763 111.803 665.653 491.042
693 0 57.2471 13.3981 767 113.241 664.19 488.988
694 0 60.2281 13.4489 810 112.706 662.452 487.075
695 0 64.154 15.229 977 109.757 660.172 483.481
696 0 65.2068 14.4003 939 113.344 659.03 481.153
697 0 68.2098 14.558 993 110.937 658.327 481.833
698 0 68.1199 14.1075 961 116.101 658.539 478.018
699 0 69.2266 14.3297 992 117.179 659.266 474.607
700 0 73.1387 15.0673 1102 114.428 659.295 474.381
701 0 78.214 15.2402 1192 112.595 659.355 471.235
702 0 80.3006 15.0933 1212 114.109 660.16 468.559
703 0 84.2516 16.4863 1389 110.219 660.857 467.251
704 0 85.219 15.1727 1293 114.169 662.288 466.736
705 0 86.133 15.9637 1375 114.196 664.236 463.814
706 0 90.2135 15.8291 1428 112.627 664.987 464.176
707 0 93.1572 16.1877 1508 112.674 666.842 460.475
708 1 48.0544 9.73897 468 114.103 668.222 487.513
709 0 51.0508 11.9489 610 111.298 671.246 484.672
710 0 51.0356 11.6389 594 114.04 672.32 482.707
711 0 57.0499 14.4435 824 106.91 674.018 483.557
712 0 58.0812 14.8413 862 107.115 675.601 484.106
713 0 61.1152 14.5299 888 106.757 676.329 483.373
714 0 65.0453 13.0063 846 107.278 675.703 485.44
715 0 67.1041 14.9916 1006 105.417 675.152 483.492
716 0 68.0736 12.5159 852 111.108 674.031 484.352
717 0 72.1605 14.6063 1054 107.742 672.546 480.905
718 0 77.1254 14.9108 1150 106.307 671.689 480.68
719 0 78.117 13.7742 1076 109.308 671.145 479.202
720 1 42.0872 10.1694 428 108.117 668.252 497.785
721 0 44.0084 11.0661 487 106.524 668.534 494.889
722 0 47.0699 10.6225 500 106.882 665.872 493.172
723 0 47.141 11.8792 560 106.448 665.464 490.988
724 0 49.0291 13.8285 678 102.305 663.932 488.649
725 0 53.057 13.853 735 100.873 664.072 487.593
726 0 53.047 13.5163 717 103.727 663.121 484.979
727 0 54.0886 13.2375 716 105.168 662.832 484.63
728 0 57.0699 12.6161 720 104.062 662.628 480.744
729 0 60.1272 14.9184 897 98.3958 661.996 481.448
730 0 61.0721 13.8197 844 102.432 661.66 477.911
731 0 64.0991 14.4464 926 101.148 661.907 475.259
732 0 65.0344 13.7927 897 103.43 662.381 475.518
733 0 71.1 15.4008 1095 98.9461 662.377 474.776
734 0 71.0927 13.2362 941 104.7 663.613 473.36
735 0 75.1763 15.2309 1145 100.976 665.706 471.079
736 0 78.1186 12.9675 1013 104.924 668.044 472.53
737 1 40.0666 11.4809 460 102.276 669.374 491.53
738 0 41.201 9.51432 392 103.191 670.791 495.709
739 0 44.0572 11.1446 491 103.124 672.026 492.695
740 0 49.0884 11.9376 586 98.8823 673.044 495.065
741 0 47.078 11.704 551 102.989 672.465 493.412
742 0 50.0891 12.2981 616 101.357 672.807 494.38
743 0 52.0977 13.0332 679 99.4978 672.087 494.582
744 0 55.1275 13.5867 749 98.5754 670.398 494.704
745 0 58.1576 12.6896 738 99.374 669.484 495.82
746 0 60.1357 12.9208 777 100.808 667.488 495.768
747 0 64.0929 13.5896 871 99.163 666.191 493.563
748 0 67.0889 13.6833 918 100.764 663.347 490.716
749 0 70.0764 15.2405 1068 97.8942 662.571 488.463
750 0 72.13 14.1134 1018 99.8183 660.67 486.854
751 0 75.118 15.1628 1139 97.885 660.188 484.04
752 0 77.1189 15.2492 1176 99.2806 657.554 482.042
753 1 41.0184 10.9219 448 99.9665 657.891 499.426
754 0 40.0942 10.7247 430 101.381 658.351 498.195
755 0 41.1656 10.2027 420 99.9929 657.833 498.188
756 0 45.0602 11.3182 510 100.039 658.029 494.224
757 0 44.0521 11.5999 511 137.881 658.068 494.145
758 0 47.0585 13.3663 629 97.1542 657.564 490.38
759 0 49.1646 13.4446 661 97.5688 658.457 489.805
760 0 49.3215 14.4967 715 97.8531 659.137 488.364
761 0 51.1992 12.9885 665 99.7805 660.379 488.62
762 0 53.1276 13.684 727 99.762 660.834 487.868
763 0 54.0884 13.3855 724 101.977 662.649 483.275
764 0 56.1009 13.9392 782 102.542 664.277 483.973
765 0 59.2989 14.1824 841 102.164 666.156 484.275
766 0 58.2973 14.3746 838 149.142 667.168 484.36
767 0 64.2547 14.5981 938 103.09 669.608 481.532
768 0 67.4693 15.118 1020 101.909 670.908 483.037
769 1 36.3306 11.0375 401 105.86 671.207 499.107
770 0 37.2598 12.2652 457 105.457 672.162 499.14
771 0 37.326 11.9756 447 109.116 671.004 497.228
772 0 38.4402 11.6805 449 108.915 669.949 499.864
773 0 41.0574 12.6896 521 108.273 668.466 499.894
774 0 45.2273 14.9246 675 95.84 667.096 500.007
775 0 45.1465 14.5748 658 92.6672 666.22 497.416
776 0 49.1775 17.142 843 84.7544 664.79 501.24
777 0 47.0452 14.7093 692 92.0983 663.636 496.475
778 0 51.0849 14.9359 763 90.6776 662.215 495.444
779 0 53.1749 15.6465 832 88.881 661.209 494.82
780 0 53.2159 14.6009 777 92.6834 660.292 492.16
781 0 55.363 14.6488 811 92.418 659.953 489.65
782 0 58.1822 15.5202 903 91.6811 659.493 488.202
783 0 60.2615 16.0633 968 91.0279 660.129 485.855
784 0 61.2397 14.5004 888 95.4324 660.386 484.039
785 0 65.4595 15.3836 1007 92.6773 659.476 482.118
786 0 65.3047 15.1138 987 95.2655 660.842 481.333
787 0 69.4163 14.5931 1013 94.8312 660.889 479.481
788 1 40.1719 10.8534 436 94.1009 662.624 496.039
789 0 40.2655 12.4672 502 94.494 663.622 494.867
790 0 42.0584 13.0057 547 92.3912 664.148 495.179
791 0 42.0347 12.5135 526 94.7852 665.411 493.669
792 0 47.0582 14.4077 678 90.8097 666.715 493.897
793 0 45.0612 13.5371 610 94.2098 668.4 493.984
794 0 50.1233 13.9456 699 91.4464 669.474 495.09
795 0 50.1233 13.9456 699 155.708 669.474 495.09
796 0 53.0932 13.4104 712 96.4424 670.517 494.864
797 0 55.1341 13.9297 768 94.2682 669.529 495.503
798 0 58.066 13.0369 757 96.5958 667.551 494.244
799 0 63.1181 14.3382 905 94.1072 666.77 495.349
800 1 35.1772 11.968 421 95.8124 665.658 509.097
801 0 37.1718 11.6217 432 95.6042 663.856 510.211
802 0 40.3421 12.9394 522 94.6552 661.741 506.906
803 0 41.199 13.4955 556 95.9083 659.957 505.176
804 0 43.1423 14.626 631 94.775 659.082 503.311
805 0 44.1267 12.8494 567 99.1235 656.67 502.873
806 0 48.0583 15.6269 751 93.4687 656.595 500.493
807 0 48.0469 14.694 706 98.2011 656.286 498.361
808 0 48.1064 12.805 616 107.034 655.894 495.375
809 0 52.0782 14.5166 756 102.05 656.132 493.767
810 0 53.1148 15.0241 798 101.659 655.916 490.134
811 0 54.0243 14.4194 779 104.176 655.392 488.213
812 0 56.0896 13.9598 783 107.04 655.773 486.432
813 0 58.1154 15.2627 887 105.702 656.558 485.573
814 0 61.0608 15.1325 924 103.238 657.749 484.628
815 0 62.1148 15.5197 964 101.516 658.591 484.137
816 0 65.1059 14.8681 968 103.885 660.098 481.607
817 0 68.0703 16.3801 1115 102.321 662.135 481.539
818 0 71.2977 16.1296 1150 101.994 663.986 480.865
819 0 71.2004 15.3229 1091 104.788 666.489 478.909
820 0 75.103 15.3922 1156 103.728 667.307 478.137
821 0 79.0638 16.3286 1291 101.399 668.521 479.081
822 1 42.0533 10.9385 460 104.833 670.111 497.689
823 0 43.0973 11.6249 501 105.291 669.894 496.501
824 0 46.0608 13.6993 631 102.501 670.109 495.144
825 0 50.018 13.5951 680 102.481 670.212 495.171
826 0 51.1107 13.5001 690 105.178 668.626 494.73
827 0 55.1464 15.5223 856 99.9825 667.141 493.388
828 0 55.0451 14.0067 771 103.643 665.724 493.243
829 0 59.0956 14.3835 850 102.346 665.052 492.489
830 0 60.0988 14.2099 854 104.201 663.133 491.349
831 0 64.1116 14.7555 946 101.006 662.625 489.34
832 0 67.3165 15.4791 1042 101.242 661.563 485.581
833 0 69.2109 14.9543 1035 101.75 660.087 484.619
834 0 71.255 14.8902 1061 103.816 659.844 480.838
835 0 77.2308 15.1882 1173 101.794 659.367 478.066
836 1 38.0696 10.6384 405 105.457 660.467 494.867
837 0 41.0915 12.1193 498 101.914 659.145 493.104
838 0 44.1067 13.7167 605 97.438 659.245 492.056
839 0 47.1243 11.4591 540 102.172 659.552 491.817
840 0 48.038 12.5109 601 102.18 659.571 491.195
841 0 49.1897 14.6779 722 101.35 660.06 488.733
842 0 52.0693 13.6357 710 104.473 660.627 489.532
843 0 52.1411 14.6142 762 104.929 662.071 486.682
844 0 56.1346 16.5495 929 100.107 663.646 486.836
845 0 58.0765 14.8941 865 103.65 665.879 487.39
846 0 59.1043 14.9397 883 103.575 667.239 488.804
847 0 62.1114 14.8443 922 103.563 669.172 488.048
848 0 63.2303 13.6327 862 106.229 669.589 487.974
849 0 67.1431 15.5042 1041 102.165 670.934 487.702
850 0 70.1478 15.8237 1110 100.103 670.823 489.741
851 0 71.1939 13.5264 963 106.779 670.273 486.567
852 0 78.1916 15.5004 1212 101.366 669.511 487.105
853 0 80.1034 15.2178 1219 102.218 668.271 485.222
854 1 42.0508 11.1532 469 102.829 666.292 506.004
855 0 43.077 10.8178 466 101.371 664.747 507.609
856 0 46.1367 10.0354 463 99.54 662.881 505.35
857 0 45.173 12.1533 549 99.6157 661.701 503.047
858 0 49.1414 11.7213 576 100.141 659.703 500.797
859 0 51.2204 12.3974 635 99.4173 656.595 497.323
860 0 51.1462 13.96 714 97.5252 655.804 496.179
861 0 53.2238 13.0581 695 98.9957 656.055 494.098
862 0 57.1643 13.3475 763 96.1992 655.245 493.636
863 0 57.0678 12.4413 710 99.1634 654.875 491.393
864 0 60.1596 14.0626 846 96.7813 655.012 485.499
865 0 62.1306 12.8922 801 100.581 655.117 484.989
866 0 64.2197 13.485 866 101.363 655.762 485.074
867 0 67.2561 14.1251 950 99.3105 655.712 482.282
868 0 67.2561 14.0805 947 150.957 654.718 482.232
869 0 72.3176 14.6852 1062 96.9991 657.502 478.372
870 0 73.1824 14.3067 1047 99.3887 659.076 477.575
871 0 76.1464 13.9731 1064 100.759 660.059 476.612
872 1 40.0769 9.80616 393 100.893 661.695 496.372
873 0 43.11 10.2528 442 101.077 663.676 494.989
874 0 45.0937 10.8219 488 99.9303 665.264 496.988
875 0 47.1708 13.0801 617 96.6402 665.527 494.901
876 0 47.1503 12.195 575 100.016 667.327 494.212
877 0 48.1065 12.5347 603 99.5274 666.935 496.685
878 0 51.1838 12.6603 648 101.722 667.173 496.571
879 0 54.1701 14.0668 762 99.584 665.677 496.172
880 0 53.1173 13.4043 712 101.756 665.819 495.791
881 0 56.1458 14.1239 793 100.864 665.068 493.439
882 0 58.1453 13.2771 772 101.763 662.801 494.868
883 0 63.1753 14.9267 943 98.4008 661.239 492.896
884 0 64.2754 12.9287 831 102.639 659.466 490.174
885 0 67.2225 14.2958 961 97.0343 658.109 488.313
886 0 69.2728 15.6338 1083 94.8957 656.708 483.252
887 0 73.2744 14.8483 1088 93.6029 656.02 483.127
888 0 74.2521 13.5215 1004 97.8556 656.041 480.236
889 0 77.3618 12.28 950 100.288 654.722 476.961
890 1 38.0775 11.0301 420 96.7 655.945 495.169
891 0 40.0815 11.5515 463 96.5788 655.808 492.678
892 0 40.0465 9.68874 388 99.1649 657.103 491.683
893 0 41.0308 10.4068 427 96.5012 657.29 491.152
894 0 43.0368 11.0138 474 95.9641 657.08 488.605
895 0 44.0899 12.4065 547 94.7422 657.821 485.649
896 0 45.0327 13.1238 591 94.2301 658.43 485.802
897 0 46.1596 12.7167 587 94.8518 659.891 486.055
898 0 47.2675 12.9687 613 95.0228 662.266 486.028
899 0 51.2395 12.4513 638 95.6912 663.918 485.47
900 0 51.3732 12.2243 628 96.3758 665.021 485.987
901 0 52.2135 12.9851 678 94.8009 667.822 484.69
902 0 55.2536 12.7593 705 95.7234 669.4 484.308
903 0 58.1318 12.9533 753 95.6042 670.865 487.283
904 0 61.1909 16.0808 984 90.6209 672.126 486.184
905 0 63.0795 13.9982 883 96.3488 672.239 485.421
906 0 65.1279 13.6194 887 97.4419 670.938 486.741
907 0 70.0981 13.6523 957 98.186 669.441 487.563
908 0 74.1434 14.4045 1068 100.1 667.566 486.039
909 0 75.1473 12.9346 972 104.369 665.537 484.466
910 1 43.0351 11.5487 497 97.497 664.193 503.143
911 0 44.0481 11.5555 509 97.7564 662.344 502.864
912 0 45.0555 12.3181 555 100.227 660.751 498.467
913 0 48.0956 13.0781 629 99.5692 659.571 497.938
914 0 50.0423 13.5086 676 100.45 658.63 495.923
915 0 52.0934 12.8807 671 100.788 658.094 493.273
916 0 53.1244 14.4755 769 97.8218 656.766 494.139
917 0 56.0685 13.2873 745 100.295 656.179 489.636
918 0 57.1043 15.0777 861 99.2393 656.243 487.574
919 0 59.225 16.6653 987 95.617 656.921 485.604
920 0 63.1709 15.3077 967 97.7921 657.035 486.573
921 0 65.4308 14.9318 977 101.128 656.745 483.384
922 0 65.2965 14.5184 948 103.918 656.863 483.771
923 0 68.1993 14.8535 1013 103.267 656.635 481.375
924 0 73.3338 15.1499 1111 101.92 657.977 481.535
925 0 76.2124 15.3912 1173 102.561 659.549 480.494
926 1 39.0975 11.4841 449 104.924 661.813 497.679
927 0 39.1173 11.7084 458 105.978 663.301 499.271
928 0 42.0408 12.7257 535 103.15 664.968 499.168
929 0 43.0613 12.9815 559 106.701 667.063 500.467
930 0 46.0556 13.6791 630 106.814 668.081 499.286
931 0 48.1367 14.1472 681 106.884 668.416 500.643
932 0 48.101 13.2014 635 112.26 668.17 499.625
933 0 50.1608 14.7526 740 109.427 667.157 498.501
934 0 52.1332 13.2353 690 113.171 666.503 498.864
935 0 56.0352 14.598 818 110.7 664.145 498.171
936 0 57.0771 13.508 771 114.275 661.809 497.091
937 0 59.1158 14.3616 849 110.124 659.19 496.649
938 0 62.1069 14.0081 870 115.532 658.005 493.868
939 0 66.1537 14.6779 971 114.544 656.999 490.529
940 0 69.0399 14.3106 988 117.092 656.059 488.299
941 1 36.0651 9.9265 358 118.151 654.944 503.212
942 0 38.0428 10.7248 408 118.321 654.39 500.679
943 0 42.1128 12.7989 539 114.013 653.545 498.356
944 0 41.0682 12.4914 513 115.694 653.464 496.423
945 0 43.0554 13.0762 563 114.21 654.263 493.622
946 0 43.1301 13.7723 594 112.769 654.49 491.025
947 0 44.1264 13.3254 588 113.168 654.815 489.93
948 0 47.1663 13.463 635 109.943 656.458 490.732
949 0 48.1433 13.9168 670 111.066 657.164 487.621
950 0 49.2409 11.7382 578 114.792 658.578 487.884
951 0 51.22 13.2175 677 111.761 658.91 486.718
952 0 52.205 13.6194 711 112.38 661.617 486.37
953 0 54.2293 13.7933 748 112.254 663.63 486.001
954 0 58.122 13.919 809 112.266 665.733 485.593
955 0 59.1024 13.3497 789 115.038 668.234 484.033
956 0 63.175 14.3886 909 112.459 670.848 485.375
957 0 65.1972 14.6785 957 113.56 671.638 485.253
958 1 36.0114 10.6911 385 113.938 672.392 500.852
959 0 36.0547 9.67973 349 118.289 672.049 501.983
960 0 38.0241 11.256 428 116.799 671.327 502.953
961 0 41.0455 12.0842 496 115.357 670.758 502.389
962 0 44.0851 13.2017 582 114.751 670.015 501.859
963 0 48.1133 12.7615 614 115.984 667.847 501.345
964 0 48.0304 12.3047 591 119.611 666.834 500.037
965 0 50.0573 13.2448 663 117.554 664.492 499.345
966 0 54.0611 14.0397 759 113.47 661.676 497.076
967 0 55.0274 13.8658 763 114.345 659.794 494.769
968 0 57.0845 13.5238 772 115.712 658.939 493.924
969 0 60.1697 14.1766 853 113.515 657.941 490.753
970 0 62.1061 14.3947 894 112.423 658.312 488.878
971 0 65.1702 13.1655 858 114.953 658.283 485.318
972 0 66.2496 13.6907 907 114.378 658.428 483.947
973 0 67.1731 13.3684 898 115.971 657.941 482.122
974 0 70.2715 12.7506 896 117.635 659.116 479.369
975 0 73.2484 14.4713 1060 113.057 659.86 476.35
976 0 74.2941 13.0428 969 117.893 659.877 474.555
977 0 77.1913 13.6544 1054 115.973 660.78 474.11
978 0 82.1183 14.4182 1184 113.493 660.754 472.194
979 1 39.1064 11.2769 441 111.662 662.751 492.78
980 0 42.0459 12.0107 505 109.4 663.556 491.897
981 0 42.0721 12.5261 527 108.518 666.666 492.512
982 0 43.1456 12.2376 528 110.559 668.903 492.856
983 0 46.0516 12.1168 558 109.984 671.459 492.783
984 0 48.1559 12.8126 617 105.629 672.715 494.272
985 0 49.1922 12.9695 638 106.257 672.196 494.26
986 0 52.0831 13.056 680 105.834 671.893 494.672
987 0 54.2153 15.9549 865 101.059 672.186 493.983
988 0 55.1141 13.463 742 106.77 671.167 494.061
989 0 58.1525 13.3614 777 108.032 669.781 492.067
990 0 60.1483 13.0511 785 108.515 668.419 493.256
991 0 63.1135 13.8956 877 104.61 665.644 492.017
992 0 64.0963 13.0897 839 106.853 664.665 490.254
993 0 70.1272 14.3881 1009 101.721 663.41 488.822
994 0 72.3287 14.0055 1013 102.745 661.651 486.633
995 0 71.1588 13.8282 984 104.767 659.35 484.756
996 0 74.198 13.9222 1033 105.542 658.245 481.285
997 0 78.1277 14.2715 1115 104.406 657.04 478.552
998 0 80.1549 14.8837 1193 102.855 657.711 476.454
999 0 83.2577 14.5452 1211 103.544 658.244 472.888
1000 0 88.0892 14.1561 1247 104.336 657.301 469.257
1001 1 49.0423 9.9506 488 102.885 657.201 487.818
1002 0 48.0254 11.2024 538 103.059 657.009 486.502
1003 0 50.0519 12.7867 640 101.167 657.377 485.631
1004 0 53.0858 12.4139 659 100.222 658.555 485.91
1005 0 53.2802 12.7627 680 100.626 658.943 483.959
1006 0 57.2149 13.493 772 99.1723 661.272 483.79
1007 0 59.1609 13.6239 806 98.4318 662.46 483.524
1008 0 59.197 15.0852 893 96.8813 664.069 482.105
1009 0 61.1627 14.3224 876 97.8128 666.305 484.571
1010 0 65.131 15.7682 1027 95.4518 668.465 483.759
1011 0 66.0955 13.3897 885 100.29 671.132 484.454
1012 0 68.1043 14.1841 966 97.6335 671.621 484.863
1013 0 74.2329 14.8317 1101 96.0781 671.433 483.399
1014 0 75.139 14.2403 1070 98.4411 670.922 483.072
1015 0 79.2536 15.4189 1222 96.9509 670.507 480.679
1016 0 84.1615 16.1594 1360 94.6963 669.385 482.4
1017 0 85.1043 15.0286 1279 99.0305 668.285 480.404
1018 0 90.0978 15.9604 1438 96.4465 666.617 479.513
1019 0 95.1504 16.8365 1602 96.1417 665.077 475.6
1020 0 98.1832 15.3387 1506 99.6381 663.778 474.384
1021 0 102.157 15.672 1601 98.466 661.884 472.244
1022 1 56.0972 13.9223 781 95.959 660.598 494.407
1023 0 60.0554 13.7873 828 96.3056 661.064 491.763
1024 0 61.0848 13.8332 845 96.8497 659.793 487.576
1025 0 66.0747 14.756 975 94.7867 659.224 485.692
1026 0 65.1333 13.434 875 98.8651 659.391 483.939
1027 0 70.1208 13.6764 959 98.1032 658.814 480.739
1028 0 72.1567 14.1636 1022 97.6703 658.641 479.369
1029 0 75.184 14.6441 1101 97.8719 658.638 474.999
1030 0 76.1786 14.1641 1079 99.734 657.671 472.881
1031 0 78.1034 13.9047 1086 99.814 658.509 472.224
1032 0 84.0584 14.371 1208 98.4586 659.668 470.252
1033 0 86.099 16.3184 1405 95.7544 659.465 467.142
1034 0 87.1359 13.083 1140 102.161 661.941 467.659
1035 0 93.1518 13.8484 1290 101.069 664.1 465.949
1036 0 98.0774 14.6211 1434 99.2043 665.772 466.329
1037 0 101.17 15.2218 1540 98.9331 667.045 463.656
1038 0 108.102 14.5048 1568 100.628 668.471 463.915
1039 0 111.193 15.5944 1734 98.7578 669.445 462.238
1040 1 66.1973 10.8917 721 98.8044 670.068 489.585
1041 0 70.1115 13.3216 934 98.0385 670.549 486.835
1042 0 70.2131 11.9778 841 102.878 669.864 485.754
1043 0 76.2486 13.3511 1018 102.313 668.643 482.075
1044 0 82.2151 13.4525 1106 101.569 667.898 484.677
1045 0 83.1789 12.2627 1020 105.611 666.659 483.357
1046 0 89.2719 14.0246 1252 102.594 665.428 479.723
1047 0 94.3454 15.6552 1477 99.302 663.784 477.367
1048 1 49.097 11.63 571 99.0701 662.785 498.422
1049 0 53.1068 11.9005 632 96.6915 661.259 497.155
1050 0 53.1206 11.4268 607 99.5157 660.414 494.97
1051 0 55.1428 12.6581 698 98.2708 658.168 489.808
1052 0 55.0974 10.3998 573 104.19 657.883 489.283
1053 0 59.2074 12.414 735 98.8912 658.363 487.795
1054 0 59.3929 10.4558 621 103.341 657.372 483.858
1055 0 59.2984 9.91595 588 105.459 656.903 481.726
1056 0 65.2771 11.5661 755 102.03 658.024 479.385
1057 0 68.2402 12.4267 848 100.646 658.435 477.435
1058 0 71.3074 12.6915 905 100.115 659.515 474.937
1059 1 41.0793 9.44515 388 97.8222 660.979 493.343
1060 0 39.0666 9.31742 364 99.2418 662.266 492.681
1061 0 40.074 9.38263 376 97.8324 663.197 492.848
1062 0 43.1523 11.1466 481 95.0769 665.015 492.181
1063 0 43.066 10.6116 457 97.0875 667.081 491.23
1064 0 42.1649 11.0044 464 98.5065 668.64 491.696
1065 0 43.0682 10.4485 450 96.4444 670.438 492.7
1066 0 46.1167 10.6035 489 95.8671 670.984 490.667
1067 0 50.0881 10.2619 514 95.2529 671.019 489.323
1068 0 51.1032 12.2106 624 94.0946 671.062 491.349
1069 0 52.0831 11.8273 616 95.6039 671.461 490.187
1070 0 55.2153 11.6453 643 95.9082 669.429 490.401
1071 0 58.2 11.8385 689 97.27 669.424 490.66
1072 0 60.2103 13.021 784 95.9337 667.773 490.051
1073 0 63.096 12.9485 817 97.3562 666.985 486.794
1074 0 65.0671 11.8647 772 99.5415 664.913 485.481
1075 0 69.0331 13.3125 919 98.3406 664.07 481.876
1076 0 72.1408 12.1013 873 101.341 662.257 481.42
1077 0 76.1368 14.2113 1082 96.683 661.17 480.277
1078 0 78.055 12.6962 991 101.347 660.647 474.812
1079 1 41.0901 8.9316 367 102.749 658.567 491.313
1080 0 44.0449 9.76277 430 100.549 657.147 490.323
1081 0 48.0898 10.8131 520 96.7558 658.023 488.667
1082 0 49.044 10.6231 521 98.1209 658.248 486.299
1083 0 49.3369 10.3776 512 100.242 659.023 482.551
1084 0 52.1663 12.1918 636 97.2987 658.869 481.857
1085 0 53.163 12.4899 664 98.0301 659.449 480.723
1086 0 57.1682 13.7489 786 95.4084 660.453 478.879
1087 0 58.2078 12.9708 755 97.3762 662.498 480.097
1088 0 60.3669 14.5775 880 94.6409 662.658 478.31
1089 0 61.2652 13.1559 806 98.1923 665.336 478.313
1090 0 63.1807 13.5326 855 96.8012 667.795 478.843
1091 0 64.2858 14.0622 904 95.5332 669.712 479.731
1092 0 67.3141 14.9003 1003 92.9492 671.426 479.49
1093 0 66.2615 13.824 916 96.9039 672.66 477.12
1094 0 70.3533 12.9632 912 97.3366 673.407 480.128
1095 0 74.275 13.3962 995 95.6724 673.561 479.777
1096 1 39.3588 10.2137 402 96.7338 672.06 494.224
1097 0 45.1599 12.0461 544 91.1544 671.972 497.252
1098 0 43.2587 11.1423 482 95.3091 670.753 496.693
1099 0 47.4528 10.4525 496 95.8911 669.391 495.79
1100 0 50.2504 12.5372 630 92.7524 669.319 496.83
1101 0 50.1863 11.3577 570 93.5193 666.833 497.016
1102 0 53.1495 13.3209 708 90.8475 666.191 493.202
1103 0 55.1509 13.5084 745 91.149 663.851 490.464
1104 0 57.1571 12.8418 734 92.3174 661.786 489.704
1105 0 57.2895 12.5678 720 94.3931 660.79 485.647
1106 0 61.1949 14.8215 907 89.0463 660.494 485.838
1107 0 63.1853 14.8611 939 90.2897 660.38 481.193
1108 0 66.102 14.6289 967 91.7849 660.087 481.658
1109 0 67.1869 14.0801 946 93.5307 659.877 478.649
1110 0 70.3004 14.6372 1029 93.6288 659.759 476.056
1111 0 70.3084 14.7209 1035 96.3739 660.519 471.586
1112 0 74.185 14.3156 1062 97.1949 660.814 472.312
1113 0 77.1357 14.2995 1103 97.4778 661.343 470.994
1114 1 42.0424 11.0127 463 98.8877 664.002 489.376
1115 0 42.0878 12.1175 510 96.5137 664.655 489.306
1116 0 43.0345 12.0833 520 99.0365 665.39 488.546
1117 0 45.064 12.3602 557 98.6104 667.697 491.652
1118 0 48.0517 12.2992 591 101.239 668.834 489.963
1119 0 49.3335 13.7837 680 99.6985 670.904 490.162
1120 0 53.1809 14.1404 752 99.0758 672.645 490.468
1121 0 52.1883 14.0836 735 101.305 673.28 490.464
1122 0 56.2513 13.9019 782 101.44 673.059 490.609
1123 0 59.1071 14.1946 839 100.29 672.342 492.147
1124 0 60.1509 15.1452 911 100.596 670.741 490.578
1125 0 64.1567 14.0282 900 101.532 669.359 490.6
1126 0 68.1316 16.0131 1091 97.3932 667.683 491.075
1127 0 69.0963 14.6317 1011 102.07 665.61 487.737
1128 0 74.184 14.0866 1045 103.096 664.95 487.58
1129 0 78.2598 15.5252 1215 99.9778 663.117 483.76
1130 0 77.1669 13.8142 1066 106.222 662.166 481.098
1131 1 47.1843 11.5293 544 102.099 661.419 499.353
1132 0 48.2106 12.4454 600 102.352 660.658 495.087
1133 0 49.096 11.6914 574 104.974 660.206 492.732
1134 0 51.0977 12.936 661 103.475 659.675 489.832
1135 0 54.143 12.3377 668 102.13 659.289 489.939
1136 0 56.0591 13.5928 762 100.753 660.163 487
1137 0 59.119 14.5469 860 98.0814 659.828 484.231
1138 0 59.067 14.1026 833 98.9208 659.675 484.415
1139 0 60.1349 13.0706 786 102.088 658.686 483.041
1140 0 62.0466 13.4576 835 102.234 659.97 481.635
1141 0 65.0791 14.2903 930 100.205 661.367 478.887
1142 0 68.0781 13.8517 943 101.82 662.862 475.581
1143 0 71.2405 14.1493 1008 100.225 663.074 477.774
1144 0 73.1464 13.6849 1001 102.301 665.255 476.038
1145 0 79.0452 15.7631 1246 97.6485 666.925 476.091
1146 0 82.121 15.4772 1271 99.5106 669.304 473.242
1147 1 45.1626 11.6911 528 100.78 670.903 494.093
1148 0 46.1197 10.2559 473 105.696 671.759 494.674
1149 0 48.0845 11.667 561 103.406 672.488 494.506
1150 0 50.0746 12.8408 643 100.975 672.291 495.401
1151 0 54.076 14.3502 776 99.1456 670.798 493.401
1152 0 55.1694 12.9057 712 102.353 669.376 495.294
1153 0 57.251 13.4321 769 103.147 669.022 493.889
1154 0 60.1961 13.0739 787 104.567 665.986 493.783
1155 0 61.2844 14.3593 880 103.872 664.261 491.255
1156 0 65.19 14.2046 926 104.901 663.081 490.907
1157 0 68.2187 14.6001 996 106.022 661.758 488.512
1158 0 70.1046 14.6923 1030 107.24 660.296 484.133
1159 0 73.165 14.7885 1082 107.638 659.449 483.199
1160 0 76.1465 15.2995 1165 107.92 658.736 480.265
1161 0 80.2415 14.1448 1135 109.6 657.718 479.322
1162 1 43.0577 10.7762 464 112.211 658.565 493.866
1163 0 45.0958 10.5553 476 111.395 658.263 493.107
1164 0 46.0985 11.367 524 109.361 658.948 492.013
1165 0 48.0466 13.7783 662 106.18 658.565 489.189
1166 0 51.1069 13.8142 706 104.416 657.718 486.744
1167 0 52.1076 12.8772 671 107.578 658.079 485.422
1168 0 53.1214 13.1021 696 108.207 659.259 485.184
1169 0 56.1223 13.4528 755 106.927 660.473 484.103
1170 0 57.0281 12.8884 735 110.101 661.216 481.879
1171 0 60.0451 14.1893 852 104.888 662.705 482.803
1172 0 59.0394 13.2115 780 110.522 665.441 482.492
1173 0 63.295 14.3139 906 107.087 667.407 482.604
1174 0 66.0723 14.6809 970 105.349 669.209 482.474
1175 0 67.1645 13.6977 920 108.416 670.089 480.243
1176 0 72.1667 15.6028 1126 103.085 671.091 482.528
1177 0 73.2377 15.3336 1123 105.47 671.85 479.863
1178 0 77.2466 15.0039 1159 105.829 671.561 479.807
1179 0 80.2532 15.3763 1234 105.464 670.311 479.333
1180 0 83.2828 14.853 1237 107.782 669.114 477.276
1181 1 49.0724 10.4743 514 107.333 669.375 498.965
1182 0 49.1451 10.9675 539 109.022 667.288 497.425
1183 0 49.0634 11.2507 552 109.103 666.562 496.793
1184 0 53.083 12.6029 669 107.034 665.347 494.111
1185 0 54.0619 12.0602 652 108.127 663.956 492.736
1186 0 57.1198 13.8131 789 104.679 663.203 492.445
1187 0 59.1755 14.6851 869 103.162 661.697 488.944
1188 0 62.1737 14.0091 871 104.013 661.256 486.742
1189 0 61.1279 13.7744 842 106.248 659.841 485.032
1190 0 63.1632 13.5997 859 105.729 658.676 483.279
1191 0 67.1144 14.8701 998 103.475 658.241 478.843
1192 0 69.2413 13.8646 960 105.852 658.041 477.183
1193 0 71.2294 14.0672 1002 105.119 658.15 476.04
1194 0 73.2661 14.3996 1055 105.462 658.261 473.774
1195 1 36.0736 10.1736 367 105.877 661.098 491.071
1196 0 37.0316 8.99232 333 109.345 661.402 489.18
1197 0 43.0316 10.8525 467 102.779 662.066 490.113
1198 0 40.0472 10.2879 412 107.597 662.117 488.536
1199 0 44.0393 12.4207 547 102.854 664.161 488.073
1200 0 47.1245 13.0718 616 100.469 666.906 487.576
1201 0 46.0579 12.7231 586 103.98 669.42 486.623
1202 0 49.0481 13.1096 643 103.058 671.372 486.715
1203 0 52.0814 13.5173 704 101.038 671.33 486.598
1204 0 53.1765 12.6748 674 101.96 672.407 486.313
1205 0 56.037 13.5625 760 99.2763 673.549 487.23
1206 0 58.13 13.6418 793 99.6116 673.299 486.057
1207 0 63.082 13.9659 881 98.0647 672.066 487.376
1208 0 57.2264 12.4593 713 105.641 670.526 481.527
1209 0 67.0961 14.5612 977 98.8076 669.281 484.987
1210 0 70.106 14.0787 987 98.9524 667.953 486.245
1211 0 73.0242 15.5428 1135 96.5542 667.424 481.306
1212 0 75.1037 14.247 1070 99.6467 666.141 480.53
1213 0 79.1768 13.7667 1090 99.645 665 480.035
1214 0 81.1632 13.9472 1132 100.273 662.609 476.935
1215 0 86.1069 13.3555 1150 101.706 661.174 473.863
1216 1 47.051 10.7118 504 101.058 661.706 491.53
1217 0 49.1301 10.8487 533 102.548 661.27 489.807
1218 0 53.1038 11.8447 629 99.504 661.677 487.24
1219 0 55.0911 12.4703 687 95.607 660.878 488.279
1220 0 56.0713 12.8408 720 98.2944 660.367 483.549
1221 0 59.1201 13.4979 798 96.8822 660.223 479.679
1222 0 61.141 13.3462 816 96.3199 661.087 480.582
1223 0 60.0919 12.8969 775 98.2865 661.643 477.871
1224 0 64.0477 13.6617 875 94.8103 662.103 476.104
1225 0 68.0488 12.8437 874 95.8524 662.866 474.281
1226 0 71.0523 13.4549 956 94.546 665.146 477.166
1227 0 73.1325 13.7559 1006 95.3072 667.24 475.384
1228 0 78.1208 13.2999 1039 95.3927 669.013 474.604
1229 0 81.1055 14.3887 1167 93.3111 670.319 475.289
1230 0 85.1735 14.1476 1205 93.9892 671.174 474.646
1231 0 88.1202 14.7753 1302 95.4846 671.49 472.685
1232 1 50.2011 10.8563 545 97.4239 673.086 492.536
1233 0 52.0667 12.4072 646 93.8313 672.427 494.367
1234 0 54.0484 13.2474 716 94.6173 672.138 492.978
1235 0 58.2519 14.403 839 93.0465 670.713 492.49
1236 0 60.187 14.106 849 94.1484 670.193 491.074
1237 0 63.2006 13.9397 881 94.6175 668.802 493.222
1238 0 64.2198 13.4227 862 96.6125 667.906 491.182
1239 0 68.1811 12.9508 883 96.8369 665.646 487.337
1240 0 72.3762 13.8305 1001 94.8422 663.746 487.115
1241 0 74.4196 15.0901 1123 93.7703 661.902 483.247
1242 0 77.2731 14.287 1104 95.7373 660.736 482.422
1243 0 79.553 13.8775 1104 97.9375 659.931 476.048
1244 0 82.2146 14 1151 96.4092 659.103 476.938
1245 0 86.399 14.4215 1246 95.6982 658.77 472.283
1246 0 89.41 15.4904 1385 94.5913 658.474 469.516
1247 0 92.3657 14.6916 1357 97.0155 658.506 466.51
1248 1 51.4155 10.6194 546 98.6136 659.474 486.333
1249 0 53.1239 11.2379 597 97.0821 660.601 485.926
1250 0 53.1111 12.6715 673 95.6731 661.302 486.964
1251 0 55.1822 12.4497 687 94.4847 662.035 487.604
1252 0 56.1594 13.6932 769 94.0403 662.42 483.103
1253 0 59.1275 13.4455 795 94.1182 663.18 483.854
1254 0 61.0639 13.9362 851 93.2338 664.649 484.276
1255 0 64.1529 13.9978 898 94.1013 666.699 482.344
1256 0 67.2082 14.5072 975 93.2328 667.924 481.051
1257 0 69.1484 13.2324 915 95.9967 670.131 482.353
1258 0 74.1354 14.7703 1095 94.1498 671.079 481.034
1259 0 75.1283 13.4969 1014 98.9803 671.454 479.947
1260 0 80.2085 15.1106 1212 96.0149 670.271 479.574
1261 0 83.2706 14.1466 1178 98.4355 669.613 478.174
1262 0 89.2058 15.0102 1339 96.5302 668.953 478.356
1263 0 92.1295 15.2394 1404 97.8917 667.873 475.756
1264 1 53.1406 9.55955 508 102.341 666.821 497.715
1265 0 55.1075 12.4484 686 98.0306 665.017 496.208
1266 0 55.3117 12.4567 689 98.0464 662.694 494.26
1267 0 61.3019 14.9424 916 92.6463 661.071 491.441
1268 0 62.2399 13.7211 854 96.5644 659.57 488.466
1269 0 62.1465 13.2107 821 98.7868 658.379 488.067
1270 0 62.1465 13.259 824 144.113 656.388 488.061
1271 0 70.1616 13.2409 929 98.3025 656.781 480.553
1272 0 72.2183 13.9161 1005 97.7284 656.549 478.261
1273 0 73.2748 13.0058 953 100.367 656.592 475.843
1274 0 77.2355 13.3099 1028 100.566 656.824 471.553
1275 0 82.3126 13.716 1129 99.0824 657.217 471.59
1276 0 85.3531 14.0124 1196 98.6931 657.951 470.457
1277 0 87.1927 14.3131 1248 100.298 658.658 466.72
1278 1 47.0846 9.4086 443 103.837 659.652 488.718
1279 0 50.1769 12.2367 614 99.8436 661.91 487.832
1280 0 54.1729 11.7033 634 101.532 663.623 485.883
1281 0 55.1067 13.1019 722 99.6177 666.386 485.712
1282 0 57.0941 11.1045 634 102.839 668.423 486.254
1283 0 56.0306 12.9037 723 102.046 668.884 484.184
1284 0 60.1408 14.466 870 98.377 670.547 484.925
1285 0 63.081 13.9345 879 99.9147 672.627 484.331
1286 0 67.3541 13.8522 933 100.311 671.574 484.313
1287 0 67.2272 13.8039 928 102.153 671.296 483.527
1288 0 74.1889 14.207 1054 99.9696 670.702 483.943
1289 0 76.2078 14.3949 1097 101.071 669.074 482.607
1290 0 80.1453 13.8623 1111 102.157 667.347 481.334
1291 0 82.3005 13.8274 1138 104.101 666.076 479.87
1292 1 47.1234 11.8837 560 103.073 665.329 497.38
1293 0 49.1738 11.4085 561 101.658 664.508 498.476
1294 0 49.1349 9.4841 466 108.345 662.895 495.775
1295 0 49.1349 9.38234 461 153.779 660.874 495.783
1296 0 54.1801 13.6212 738 100.007 661.28 490.894
1297 0 56.2366 12.483 702 99.9558 660.003 487.778
1298 0 59.1944 14.3595 850 95.8212 658.684 484.761
1299 0 61.1016 12.9293 790 100.173 658.942 482.343
1300 0 62.1855 13.7009 852 98.8392 658.906 480.453
1301 0 65.1191 13.6673 890 98.1112 658.093 478.574
1302 0 65.1428 13.0483 850 101.401 658.221 475.98
1303 0 67.2484 12.952 871 101.927 659.498 476.37
1304 0 70.1595 13.6831 960 101.946 661.377 474.24
1305 0 73.1067 15.197 1111 100.032 661.61 472.178
1306 0 76.2109 14.9191 1137 101.955 663.677 473.023
1307 0 79.1062 15.0683 1192 102.856 665.738 472.634
1308 0 80.1829 13.7062 1099 107.087 668.66 470.607
1309 1 44.0419 12.3973 546 104.929 670.249 489.005
1310 0 46.1319 10.2749 474 108.876 672.574 491.426
1311 0 46.156 10.8762 502 109.982 672.775 491.086
1312 0 49.348 11.0035 543 110.265 672.855 489.98
1313 0 52.4262 12.551 658 108.29 672.679 490.924
1314 0 54.3261 12.9588 704 108.653 673.298 489.936
1315 0 57.3173 13.7829 790 107.284 672.52 489.066
1316 0 59.2635 14.1065 836 106.603 671.458 489.1
1317 0 60.3764 12.9686 783 110.345 669.854 489.263
1318 0 66.5278 14.866 989 104.034 668.95 488.321
1319 0 67.4859 13.6473 921 107.466 667.625 485.012
1320 0 70.6457 14.3109 1011 106.282 665.356 482.642
1321 0 71.6338 13.7086 982 108.519 664.24 480.685
1322 0 76.5325 13.8503 1060 107.202 662.61 480.51
1323 0 79.5198 14.0594 1118 107.863 661.77 474.023
1324 0 84.5957 14.2797 1208 106.433 661.201 471.131
1325 1 43.2181 11.1759 483 106.12 662.735 490.275
1326 0 46.2037 10.9731 507 109.28 663.197 486.323
1327 0 50.3012 11.0733 557 106.646 662.23 486.33
1328 0 51.3224 11.0478 567 108.339 663.418 484.342
1329 0 53.1552 12.1719 647 105.257 662.685 482.27
1330 0 56.2567 13.7584 774 101.707 662.88 481.384
1331 0 57.2626 12.2593 702 101.795 663.016 481.726
1332 0 59.1746 13.3165 788 99.4835 664.84 480.849
1333 0 60.3067 12.7183 767 101.781 665.558 481.528
1334 0 63.2711 13.4975 854 100.58 667.487 477.735
1335 0 65.2064 13.0509 851 101.835 669.863 477.917
1336 0 71.4534 13.3933 957 99.4807 671.495 478.429
1337 0 71.4147 13.4146 958 101.315 673.192 478.63
1338 0 73.3425 13.1847 967 102.724 674.117 477.114
1339 0 79.4586 14.6743 1166 99.0103 674.194 476.652
1340 0 81.366 14.7113 1197 99.8713 674.607 475.859
1341 0 84.2136 13.6914 1153 103.589 673.354 475.347
1342 0 89.5031 14.7593 1321 101.158 672.266 471.793
1343 1 47.2604 10.1988 482 105.398 672.266 493.793
1344 0 51.1806 10.3164 528 102.112 669.616 496.29
1345 0 53.3451 11.9036 635 101.261 667.961 491.017
1346 0 56.1001 12.4242 697 100.71 666.963 491.293
1347 0 57.2008 12.325 705 101.525 665.909 488.826
1348 0 61.2801 13.4464 824 97.8483 664.589 487.902
1349 0 65.3166 12.7073 830 98.1036 662.701 485.495
1350 0 68.2446 14.0524 959 95.7289 661.128 482.918
1351 0 67.3831 13.5049 910 98.6582 661.081 479.595
1352 0 69.469 13.8335 961 99.2612 660.951 475.806
1353 0 75.39 14.4847 1092 96.0476 660.654 474.051
1354 0 77.337 13.6933 1059 98.3088 661.102 471.91
1355 0 78.3816 12.7453 999 100.355 661.38 467.916
1356 0 84.3875 15.9147 1343 94.0194 660.928 467.149
1357 0 85.3472 13.861 1183 99.7041 661.648 463.995
1358 1 45.1244 9.24112 417 99.1631 663.329 488.588
1359 0 45.1216 9.64061 435 101.092 664.299 486.963
1360 0 49.1438 11.4969 565 99.1221 667.161 486.327
1361 0 50.0968 11.8371 593 100.653 669.089 485.599
1362 0 54.0543 12.1174 655 99.3252 671.197 486.118
1363 0 57.1627 13.1379 751 97.0999 672.097 486.198
1364 0 57.2132 12.2699 702 101.019 673.266 488.073
1365 0 60.2979 13.0353 786 100.606 674.355 486.768
1366 0 61.3955 12.5091 768 102.585 674.439 487.585
1367 0 66.2884 13.5318 897 101.499 674.334 488.087
1368 0 70.2384 14.8494 1043 99.9453 672.914 486.933
1369 0 74.2373 15.0194 1115 100.241 671.802 485.666
1370 0 77.1846 13.2928 1026 105.119 671.217 484.229
1371 1 43.0292 9.52842 410 106.705 670.105 503.439
1372 0 47.0581 11.3689 535 105.011 668.445 499.968
1373 0 49.0985 12.1389 596 103.013 665.428 499.034
1374 0 50.0173 12.2758 614 103.948 662.86 495.989
1375 0 54.1003 14.0849 762 99.5525 663.21 495.739
1376 0 54.0842 13.442 727 102.917 660.333 492.249
1377 0 56.0372 12.8664 721 105.093 658.822 488.818
1378 0 56.0372 12.8843 722 152.632 657.82 488.766
1379 0 59.093 14.2657 843 102.594 658.333 485.586
1380 0 61.0892 14.2251 869 103.354 658.262 484.216
1381 0 63.1487 13.587 858 105.02 659.033 482.364
1382 0 66.0812 14.346 948 102.935 659.906 479.137
1383 0 68.1821 14.4613 986 103.653 661.079 479.545
1384 0 70.1356 15.5983 1094 101.457 661.761 476.72
1385 0 74.2211 15.5616 1155 101.051 662.74 476.502
1386 0 77.1563 15.177 1171 102.711 663.582 474.413
1387 0 80.1934 14.7144 1180 104.608 665.107 473.986
1388 0 82.123 14.8071 1216 105.377 666.933 472.259
1389 0 86.0874 13.8232 1190 107.445 668.926 472.824
1390 1 48.0332 12.0333 578 105.671 670.369 493.189
1391 0 50.0246 10.7747 539 108.043 669.863 494.494
1392 0 51.012 11.6443 594 109.655 670.64 490.961
1393 0 56.0666 13.805 774 103.955 672.196 493.018
1394 0 56.0746 12.7509 715 108.604 670.683 492.794
1395 0 59.0353 12.9753 766 107.967 669.593 494.043
1396 0 62.0977 14.3645 892 106.982 668.658 492.601
1397 0 63.1715 13.123 829 111.215 667.785 491.27
1398 0 65.1803 12.5191 816 112.602 665.4 490.801
1399 0 71.2338 15.1192 1077 105.851 664.711 487.286
1400 0 75.1032 16.3375 1227 103.104 663.17 485.802
1401 0 77.1934 13.667 1055 110.255 662.219 484.718
1402 0 79.1749 14.4238 1142 108.647 660.892 479.739
1403 0 80.2661 13.8415 1111 112.087 659.866 477.147
1404 0 85.2529 14.1696 1208 110.204 658.986 475.796
1405 0 88.1432 13.4554 1186 112.436 658.251 471.734
1406 0 90.2773 14.4222 1302 110.048 658.967 469.826
1407 0 96.3026 14.6933 1415 108.317 659.524 465.955
1408 1 51.1094 10.1351 518 107.784 658.755 490.407
1409 0 54.1562 11.7253 635 107.378 658.518 486.543
1410 0 54.0639 12.0228 650 108.265 659.728 483.94
1411 0 58.0782 14.8593 863 99.4032 659.78 484.293
1412 0 61.0475 13.94 851 101.464 661.55 483.472
1413 0 61.03 14.1898 866 102.719 661.73 483.315
1414 0 63.0328 14.7701 931 102.238 663.564 481.519
1415 0 67.1839 14.6315 983 100.241 666.715 483.72
1416 0 69.0715 13.9276 962 102.74 667.891 481.169
1417 0 71.0383 15.0623 1070 100.869 668.627 481.108
1418 0 74.1988 13.8951 1031 104.54 670.234 480.534
1419 0 79.0982 14.817 1172 102 670.879 480.634
1420 0 82.1319 13.1861 1083 106.315 670.778 480.438
1421 0 86.116 14.3295 1234 104.994 670.028 475.848
1422 0 92.1717 14.7008 1355 103.898 668.372 475.578
1423 0 95.2269 13.9561 1329 106.139 666.683 475.485
1424 1 52.0756 10.504 547 105.852 666.143 497.962
1425 0 58.2022 11.9411 695 101.672 663.399 496.383
1426 0 60.0568 12.1218 728 102.692 661.632 494.383
1427 0 63.0505 11.8318 746 103.098 661.818 491.101
1428 0 61.1246 12.27 750 103.557 659.259 489.555
1429 0 67.1592 13.0585 877 100.202 658.39 487.275
1430 0 69.1609 13.4469 930 99.5559 658.651 482.483
1431 0 73.0663 13.8915 1015 98.6089 658.431 480.851
1432 0 74.2973 13.2979 988 100.669 658.349 478.588
1433 0 76.1092 12.9551 986 101.071 657.871 474.239
1434 0 81.0857 13.9729 1133 98.4784 657.217 470.661
1435 0 84.1617 13.5929 1144 99.8776 658.499 470.076
1436 0 87.1764 13.5931 1185 100.382 658.013 467.219
1437 1 48.0346 10.4508 502 99.4124 659.839 487.275
1438 0 48.1365 9.7639 470 98.3043 661.055 489.449
1439 0 51.1805 10.375 531 97.162 662.198 488.772
1440 0 53.0778 11.436 607 97.2125 663.692 486.56
1441 0 54.0469 11.0275 596 99.6007 665.148 485.285
1442 0 60.2191 13.0689 787 94.8513 667.324 486.304
1443 0 60.0806 13.6983 823 93.3451 668.853 487.33
1444 0 61.0468 11.7123 715 97.9664 669.975 487.239
1445 0 65.07 14.1386 920 94.3076 671.263 484.437
1446 0 66.0455 12.8396 848 98.4917 670.629 485.327
1447 0 71.0611 13.9317 990 96.9333 670.122 485.854
1448 0 73.1265 13.6613 999 99.004 670.678 485.023
1449 0 76.2907 13.8287 1055 100.45 668.201 485.171
1450 0 79.0996 14.2858 1130 100.877 667.845 485.008
1451 0 82.1591 13.7782 1132 102.384 665.593 482.375
1452 0 88.1468 14.9977 1322 99.7844 664.734 482.367
1453 0 90.289 15.5833 1407 100.43 663.402 477.716
1454 1 50.2751 11.457 576 101.528 661.505 500.122
1455 0 51.1499 10.4594 535 102.047 660.293 500.94
1456 0 53.0721 10.9662 582 101.696 660.753 498.216
1457 0 56.1445 12.2363 687 101.555 659.298 493.811
1458 0 57.1535 13.6125 778 102.216 657.812 489.419
1459 0 61.1279 14.0852 861 100.056 658.756 489.049
1460 0 60.1355 11.9896 721 106.38 657.222 488.601
1461 0 62.2299 13.9322 867 104.844 657.491 482.475
1462 0 67.1458 14.4462 970 102.744 657.569 481.493
1463 0 67.1375 13.167 884 106.969 657.911 480.838
1464 0 69.2332 14.9784 1037 103.82 658.647 480.621
1465 0 72.2213 14.7187 1063 104.591 659.992 479.627
1466 0 74.3096 13.982 1039 107.054 661.072 477.77
1467 0 79.1619 14.603 1156 105.353 663.239 476.117
1468 0 81.2491 14.0186 1139 107.744 664.34 473.278
1469 0 85.4572 14.124 1207 106.56 666.965 475.862
1470 0 88.2023 13.9566 1231 107.261 669.13 474.604
1471 0 92.4024 15.0429 1390 105.932 669.819 470.162
1472 0 95.3296 14.9691 1427 107.552 669.847 470.681
1473 0 99.3142 16.0098 1590 105.353 669.658 470.05
1474 0 101.315 14.519 1471 109.527 668.575 467.877
1475 0 105.423 14.1145 1488 111.519 667.21 465.221
1476 0 114.446 16.2348 1858 104.35 667.315 468.562
1477 0 118.2 14.9746 1770 106.961 666.052 462.921
1478 0 121.391 13.7242 1666 108.577 665.724 459.758
1479 0 127.423 14.9188 1901 105.658 664.179 453.897
1480 0 134.327 14.9932 2014 104.543 662.444 453.474
1481 0 138.322 13.7722 1905 107.578 659.992 450.373
1482 0 145.291 14.9494 2172 104.564 659.314 445.994
1483 0 154.237 15.8133 2439 102.53 658.39 439.511
1484 0 158.25 14.6162 2313 105.514 657.749 437.275
1485 0 166.266 15.3309 2549 104.726 657.464 429.909
1486 0 170.442 15.5889 2657 104.679 656.568 424.219
1487 0 178.28 14.4043 2568 106.626 656.508 426.322
1488 0 183.377 15.3018 2806 105.887 656.648 420.684
1489 0 192.23 14.8884 2862 105.454 657.788 414.427
1490 0 199.3 15.143 3018 105.55 657.745 409.589
1491 1 154.284 13.4622 2077 106.797 659.233 436.553
1492 0 159.297 14.0429 2237 106.796 659.845 435.696
1493 0 166.361 15.4303 2567 103.314 660.654 435.702
1494 0 170.201 14.2479 2425 106.539 662.922 432.304
1495 0 177.682 14.7173 2615 106.134 664.741 424.906
1496 0 186.63 15.6566 2922 104.65 667.209 418.627
1497 0 195.408 16.5244 3229 102.585 669.481 415.78
1498 0 205.557 16.8761 3469 100.96 669.774 414.287
1499 0 207.71 14.5732 3027 106.182 669.646 417.704
1500 0 208.692 12.1663 2539 109.742 669.479 426.455
1501 0 209.594 13.8887 2911 107.561 669.516 421.471
1502 0 211.521 10.5191 2225 112.218 668.145 432.885
1503 0 212.471 13.8042 2933 110.056 667.657 418.803
1504 0 214.641 13.5156 2901 110.43 666.364 421.443
1505 0 214.463 10.426 2236 112.161 664.109 438.243
1506 1 313.165 28.8219 9026 79.6245 662.636 350.686
1507 0 345.466 31.3258 10822 75.4374 661.058 332.697
1508 0 342.692 30.9666 10612 76.8547 660.452 314.117
1509 1 304.668 10.8085 3293 114.821 659.052 396.586
1510 0 304.476 11.0945 3378 112.726 658.369 401.38
1511 0 304.725 12.6836 3865 113.176 657.954 384.945
1512 1 324.665 30.9673 10054 77.9645 657.364 323.116
1513 1 74.3903 10.0147 745 102.952 656.803 480.566
1514 0 78.3788 12.0058 941 100.113 657.243 476.811
1515 0 81.3554 14.5289 1182 97.1472 657.396 470.655
1516 0 83.3926 14.03 1170 99.6692 658.003 466.544
1517 0 86.2916 13.5818 1172 101.185 658.393 465.277
1518 0 91.4748 13.654 1249 99.1457 659.283 464.981
1519 0 95.5439 14.0354 1341 98.343 659.331 462.873
1520 0 98.3799 14.5253 1429 97.0742 660.062 462.871
1521 0 102.373 13.5778 1390 100.089 662.018 457.998
1522 0 107.368 14.0265 1506 98.2795 663.653 456.73
1523 0 112.265 14.831 1665 96.7544 666.34 456.255
1524 1 63.2165 9.5861 606 95.198 667.579 486.804
1525 0 64.2481 10.5373 677 95.3752 668.626 485.381
1526 0 67.2679 11.4468 770 94.6169 669.273 483.495
1527 0 70.4422 12.4641 878 93.7517 671.15 481.126
1528 0 68.5739 11.8412 812 96.1379 670.498 479.603
1529 0 78.3799 12.5798 986 92.8793 670.849 482.135
1530 0 81.8271 13.223 1082 91.6978 669.054 479.755
1531 0 86.8824 13.5701 1179 90.8592 667.503 476.046
1532 1 46.4915 10.2384 476 87.7332 667.494 499.523
1533 0 47.3796 10.4475 495 89.7354 665.198 496.186
1534 0 50.4167 9.6595 487 89.3183 665.185 494.569
1535 0 53.5581 10.8107 579 88.2142 662.634 493.727
1536 0 55.4267 10.789 598 88.1388 660.241 491.162
1537 0 57.3854 13.3135 764 85.7906 658.52 489.668
1538 0 58.3518 11.6363 679 88.3152 658.913 490.205
1539 0 62.287 13.0204 811 84.6473 658.36 486.783
1540 0 65.1947 13.6361 889 83.622 658.409 482.809
1541 0 66.3024 14.3283 950 83.0253 658.075 481.301
1542 0 66.1923 12.7205 842 87.177 658.593 479.918
1543 0 70.3189 12.6566 890 86.3022 659 479.158
1544 0 72.2163 11.9641 864 87.9965 659.219 476.183
1545 0 76.1567 14.5621 1109 85.7367 659.951 474.115
1546 0 77.1149 13.0066 1003 90.009 660.299 474.398
1547 0 80.1873 12.0343 965 91.4104 660.399 471.769
1548 0 84.0645 14.0012 1177 88.6542 662.213 470.56
1549 1 44.0303 7.47213 329 91.7629 662.912 491.641
1550 0 50.1039 11.3963 571 87.296 664.758 490.511
1551 0 51.1032 10.2146 522 89.8487 665.885 490.268
1552 0 52.1113 12.2046 636 86.3711 667.869 491.643
1553 0 52.3255 10.8551 568 90.5792 669.482 489.109
1554 0 57.1721 12.4012 709 88.8449 670.557 489.636
1555 0 57.3233 12.2987 705 89.4184 670.091 490.648
1556 0 59.1597 12.3057 728 89.6731 669.213 489.957
1557 0 66.1895 12.6455 837 87.4229 668.904 490.069
1558 0 67.1801 12.8163 861 88.0569 667.883 489.366
1559 0 70.2162 12.8318 901 88.4173 666.762 490.584
1560 0 73.1986 13.5658 993 88.4935 665.26 486.313
1561 0 75.1421 13.2017 992 90.1683 663.908 482.104
1562 0 81.2599 13.9675 1135 86.9656 662.22 480.208
1563 0 82.1664 13.0345 1071 89.0411 660.067 479.722
1564 0 87.1503 13.7808 1201 87.383 659.823 479.244
1565 1 44.0197 11.2904 497 90.0865 657.948 494.867
1566 0 47.0624 8.88182 418 91.3134 657.612 495.069
1567 0 49.0368 10.6858 524 88.5763 657.324 493.542
1568 0 51.0611 9.75303 498 88.4237 657.596 492.647
1569 0 53.079 12.5097 664 87.3976 656.824 486.58
1570 0 53.2608 10.3641 552 89.933 657.947 485.344
1571 0 58.4497 12.9 754 85.0239 658.76 482.752
1572 0 60.1229 13.5389 814 84.5025 658.903 480.983
1573 0 61.2021 12.8427 786 86.2417 659.774 480.064
1574 0 61.1261 11.0591 676 89.7278 662.593 478.305
1575 0 67.1653 14.978 1006 82.1074 663.637 478.341
1576 0 67.0925 12.9075 866 86.4018 664.803 477.701
1577 0 68.0564 12.6366 860 87.5826 666.835 478.108
1578 0 74.0997 13.4953 1000 85.762 668.359 478.748
1579 0 75.1631 13.5572 1019 86.8822 669.864 474.937
1580 0 80.1525 13.3246 1068 87.1189 671.209 476.274
1581 0 84.2097 13.3951 1128 88.2518 672.152 476.296
1582 0 87.244 12.3791 1080 90.1972 671.874 477.505
1583 1 42.034 9.08788 382 92.3377 671.249 496.228
1584 0 46.1533 9.68511 447 89.3266 670.886 498.609
1585 0 49.0365 10.6655 523 89.6138 670.914 499.463
1586 0 53.1862 13.7066 729 84.3141 668.178 497.143
1587 0 53.2712 10.8314 577 91.1612 666.329 497.645
1588 0 55.1766 13.0853 722 86.8338 665.747 496.166
1589 0 58.1931 13.3521 777 88.6924 664.245 493.57
1590 0 62.1645 14.0112 871 86.4673 662.124 491.754
1591 0 64.3305 11.9539 769 91.0429 660.739 489.204
1592 0 66.3078 13.3016 882 89.2347 660.247 486.023
1593 0 67.2795 12.7676 859 90.227 658.442 483.787
1594 0 70.2909 12.8608 904 89.865 658.39 483.587
1595 0 72.3082 12.7786 924 90.9275 657.943 480.425
1596 0 75.2757 13.869 1044 90.4224 657.536 475.215
1597 1 37.2598 8.481 316 92.6329 658.373 495.123
1598 0 42.2606 10.4826 443 89.3837 658.388 492.88
1599 0 42.2176 10.0669 425 91.9059 660.341 491.329
1600 0 42.3957 10.8502 460 92.2152 661.026 489.554
1601 0 46.1523 11.4187 527 91.1044 661.85 489.62
1602 0 48.1686 12.8092 617 91.9449 662.812 487.323
1603 0 48.076 11.0866 533 94.5178 662.567 487.779
1604 0 50.11 13.2309 663 91.7647 663.496 487.189
1605 0 51.1153 11.7773 602 94.912 665.518 488.311
1606 0 54.0818 13.1653 712 93.4663 667.708 488.237
1607 0 54.1231 11.6217 629 97.3148 668.469 489.266
1608 0 59.0686 13.3404 788 95.3376 669.008 488.953
1609 0 59.2029 12.8879 763 98.6396 669.653 488.336
1610 0 62.2248 13.2423 824 98.8095 669.468 488.473
1611 0 63.2379 14.6273 925 96.853 669.107 490.059
1612 0 65.1724 15.0677 982 96.8951 668.689 487.904
1613 0 68.2224 14.526 991 97.8698 668.012 488.679
1614 0 72.2102 13.9315 1006 98.7406 667.068 488.258
1615 0 75.2002 15.0532 1132 96.7323 666.307 485.74
1616 0 79.2642 15.0888 1196 96.2057 665.539 484.457
1617 0 79.2679 14.6339 1160 99.1328 663.574 479.968
1618 0 85.5181 14.839 1269 97.3467 662.446 480.671
1619 0 88.3474 14.7486 1303 99.2295 660.8 474.791
1620 1 49.2496 12.9341 637 97.8022 660.447 494.923
1621 0 50.2574 11.5804 582 101.552 660.564 492.732
1622 0 52.1281 12.6419 659 101.184 660.109 489.715
1623 0 54.0635 12.6518 684 102.675 659.171 485.632
1624 0 54.1551 13.1843 714 102.422 659.653 484.102
1625 0 58.0518 14.4354 838 97.284 658.551 484.931
1626 0 58.2198 14.5483 847 99.4097 659.247 481.789
1627 0 59.2153 12.6488 749 103.43 660.477 480.485
1628 0 64.1808 14.3189 919 99.1088 661.113 478.976
1629 0 67.0624 14.3299 961 99.7326 662.068 478.322
1630 0 69.1703 13.9511 965 101.206 662.169 478.232
1631 0 71.0475 15.2855 1086 99.5055 664.205 476.476
1632 0 71.1858 12.6289 899 107.26 666.481 475.672
1633 0 76.2968 13.9193 1062 102.031 667.869 476.524
1634 0 80.1605 15.469 1240 99.1161 669.907 476.319
1635 0 82.1389 14.4998 1191 102.909 670.964 477.024
1636 1 43.0652 11.5871 499 105.395 670.663 495.204
1637 0 43.1669 11.166 482 106.799 670.975 496.606
1638 0 47.0541 11.5612 544 107.987 670.923 496.004
1639 0 46.1342 12.0301 555 107.065 670.058 496.625
1640 0 50.0393 13.7692 689 101.168 669.361 497.994
1641 0 53.146 14.225 756 98.6442 668.7 497.779
1642 0 54.1795 13.4737 730 102.777 667.352 496.934
1643 0 56.1442 14.3024 803 100.775 666.953 495.796
1644 0 60.0707 14.5828 876 98.7763 664.913 492.759
1645 0 62.2658 14.5184 904 98.052 663.36 492.133
1646 0 63.1612 13.2676 838 101.942 661.369 488.945
1647 0 65.1667 14.8389 967 99.0517 659.862 486.916
1648 0 68.19 14.2836 974 100.097 659.055 484.012
1649 0 69.2296 12.9713 898 102.768 658.913 481.286
1650 0 73.1253 15.494 1133 97.7211 658.395 477.951
1651 0 76.1521 14.2215 1083 99.1893 659.006 477.144
1652 0 79.1988 15.0886 1195 97.7448 658.725 474.183
1653 0 83.1812 16.458 1369 94.6757 659.21 472.191
1654 0 84.283 16.1954 1365 96.4007 659.368 468.538
1655 0 85.2422 13.5966 1159 103.399 660.058 467.733
1656 0 91.1925 15.5166 1415 98.9392 660.82 466.821
1657 0 94.1904 15.4474 1455 98.855 662.039 467.05
1658 0 98.3989 14.675 1444 99.7154 663.627 464.154
1659 1 56.1636 12.5704 706 98.5099 666.295 485.561
1660 0 55.2332 11.8407 654 100.55 666.907 486.365
1661 0 55.2332 11.8226 653 153.216 667.896 486.358
1662 0 63.2908 13.7145 868 96.2362 670.408 484.632
1663 0 64.1157 12.9609 831 97.8724 670.095 484.622
1664 0 68.2466 14.9311 1019 94.7605 670.671 484.718
1665 0 70.1977 14.3879 1010 96.597 670.019 482.979
1666 0 72.295 13.3066 962 98.8004 669.57 484.244
1667 0 79.228 14.0607 1114 94.4506 668.117 483.196
1668 1 42.1386 11.2961 476 93.7269 667.742 502.866
1669 0 42.1971 11.0434 466 96.706 666.979 500.83
1670 0 49.3175 9.12456 450 96.3778 664.913 500.009
1671 0 47.0809 10.4289 491 95.1303 664.446 497.813
1672 0 51.0522 12.2228 624 90.9952 662.909 494.183
1673 0 54.0499 12.803 692 88.4942 660.228 491.996
1674 0 56.0793 15.1571 850 85.2529 660.233 491.74
1675 0 57.061 13.3015 759 87.8419 659.602 491.452
1676 0 58.0892 13.5653 788 87.2284 658.197 488.287
1677 0 61.0804 14.2599 871 85.5649 658.196 482.408
1678 0 63.0512 11.8317 746 88.8995 657.361 483.572
1679 0 66.0785 14.6644 969 83.9432 656.737 478.795
1680 0 68.1788 12.8779 878 87.0399 657.651 477.205
1681 0 72.0359 14.2984 1030 84.0854 657.907 477.074
1682 0 73.0755 15.0529 1100 84.49 658.401 473.352
1683 0 77.1206 13.628 1051 86.1161 658.904 472.217
1684 0 79.1378 13.7608 1089 86.9688 659.552 470.05
1685 0 81.1129 14.2271 1154 87.195 661.848 467.503
1686 0 84.2371 13.5332 1140 89.2158 662.114 466.681
1687 0 87.2472 14.1666 1236 89.8738 663.994 464.896
1688 0 92.2179 15.2573 1407 87.7036 666.457 465.803
1689 0 96.4465 14.5469 1403 89.3207 668.29 462.957
1690 0 99.3026 14.6018 1450 91.1048 669.575 461.741
1691 0 102.458 13.4006 1373 94.3343 670.941 458.965
1692 1 55.1799 10.7829 595 92.9008 671.539 487.113
1693 0 58.3146 10.8892 635 92.915 671.472 488.735
1694 0 61.2365 11.9863 734 92.2847 671.394 488.738
1695 0 63.1677 13.8678 876 90.5205 669.404 485.257
1696 0 66.1518 13.8923 919 90.8683 669.211 485.378
1697 0 68.1527 12.9122 880 92.5261 667.758 486.022
1698 0 71.1986 12.8654 916 91.9203 667.035 486.909
1699 0 75.3206 14.3653 1082 91.3956 665.579 481.727
1700 0 78.168 13.2791 1038 94.1416 663.993 479.25
1701 0 83.2873 14.6841 1223 90.4751 663.372 478.017
1702 0 85.3031 13.6924 1168 93.2363 662.172 474.321
1703 0 90.1422 14.4549 1303 91.287 660.395 471.262
1704 0 92.4773 14.3819 1330 92.391 660.084 466.825
1705 1 47.4042 10.9695 520 95.2077 659.21 483.421
1706 0 51.3176 9.48992 487 95.3121 658.665 485.308
1707 0 55.3244 10.4656 579 93.2608 657.551 482.699
1708 0 55.2865 11.775 651 90.2058 657.166 484.052
1709 0 58.2518 13.1326 765 89.6497 660.332 481.008
1710 0 57.0975 12.1196 692 92.7153 661.246 480.579
1711 0 61.1264 13.7093 838 89.5489 662.486 480.63
1712 0 60.1857 13.0263 784 93.1569 663.472 478.515
1713 0 64.3272 14.333 922 90.3861 665.329 477.258
1714 0 67.3 12.7489 858 94.5944 667.015 477.388
1715 0 69.2526 14.7143 1019 91.6771 668.605 474.115
1716 0 73.398 14.1148 1036 93.5328 670.878 475.606
1717 0 75.3816 13.3322 1005 95.8318 672.077 474.667
1718 0 79.4173 14.3168 1137 94.1697 672.721 472.785
1719 0 80.5948 13.6237 1098 96.2905 672.575 473.044
1720 0 82.3999 12.2573 1010 101.039 673.645 471.873
1721 0 90.4995 14.5415 1316 94.9179 672.736 471.449
1722 0 93.4536 14.5848 1363 96.5987 671.979 472.135
1723 1 48.2663 8.9089 430 104.551 670.37 492.449
1724 0 51.4126 11.4369 588 99.9507 670.109 492.33
1725 0 55.2419 12.8345 709 95.9873 669.238 494.199
1726 0 57.1038 12.1008 691 97.9204 667.342 493.033
1727 0 60.1104 13.6416 820 93.189 665.116 491.632
1728 0 61.1964 13.04 798 94.8872 664.239 488.539
1729 0 61.2192 13.2638 812 96.5998 663.225 486.885
1730 0 66.1991 13.9579 924 94.092 661.898 484.193
1731 0 67.1288 14.7925 993 93.0916 661.134 482.293
1732 0 69.1705 12.7077 879 97.0284 660.23 478.108
1733 0 71.2377 13.5322 964 95.0892 660.468 476.241
1734 0 74.4253 14.0409 1045 93.9943 659.387 470.875
1735 0 78.347 13.2998 1042 94.3752 658.976 469.748
1736 0 81.3329 14.5083 1180 92.0814 659.139 467.2
1737 1 40.4571 10.1342 410 93.3488 660.144 486.629
1738 0 40.3275 10.2907 415 92.2313 661.6 488.255
1739 0 43.2539 10.5655 457 91.8162 661.79 486.807
1740 0 47.3395 11.5548 547 89.4899 661.938 485.252
1741 0 47.3427 13.8564 656 85.1997 663.57 484.831
1742 0 48.1843 12.7427 614 87.4951 664.884 485.05
1743 0 51.1749 12.7992 655 86.0076 667.418 486.663
1744 0 52.1957 13.1237 685 85.0847 668.797 488.401
1745 0 53.1563 12.4915 664 86.6958 670.875 487.548
1746 0 57.2245 12.8791 737 86.1248 671.881 486.583
1747 0 58.0571 13.4523 781 85.8873 672.538 485.964
1748 0 60.1414 12.3542 743 88.074 672.63 488.124
1749 0 63.0584 13.099 826 86.1768 671.169 487.43
1750 0 66.1472 13.6967 906 86.255 670.855 487.794
1751 0 69.2568 14.4679 1002 85.8094 669.904 486.053
1752 0 71.0848 13.2236 940 88.7128 669.31 487.491
1753 0 76.0529 14.9501 1137 86.7775 667.057 484.25
1754 0 78.1495 14.6642 1146 88.6353 665.182 483.646
1755 1 43.0371 11.2926 486 91.2551 663.714 500.63
1756 0 45.0484 12.4311 560 90.5696 662.738 497.796
1757 0 48.194 12.4704 601 90.6938 661.687 496.113
1758 0 48.1841 12.9296 623 91.8828 661.23 495.032
1759 0 51.1925 13.0292 667 92.5472 660.486 492.444
1760 0 53.1203 15.4931 823 87.949 659.645 489.211
1761 0 53.046 13.7994 732 91.3757 659.689 489.788
1762 0 57.0444 14.7604 842 89.5594 658.783 485.669
1763 0 59.1013 14.0606 831 91.0698 659.147 484.467
1764 0 61.0809 16.208 990 87.3293 659.765 483.482
1765 0 61.0415 15.7762 963 89.4974 660.552 479.935
1766 0 64.1606 15.43 990 89.896 661.144 480.032
1767 0 67.14 15.073 1012 89.9298 662.081 479.392
1768 0 71.1039 14.7952 1052 90.4335 663.011 478.791
1769 0 73.1601 15.2132 1113 89.6855 665.095 478.314
1770 0 76.1459 14.8268 1129 90.9247 666.376 477.575
1771 0 78.2619 14.9242 1168 90.8502 668.905 476.338
1772 0 80.3051 14.4823 1163 91.7678 668.813 478.016
1773 0 86.4397 15.3633 1328 90.1386 670.962 474.769
1774 0 89.4931 14.5933 1306 91.5536 671.839 474.926
1775 1 46.1796 12.603 582 91.878 671.796 496.507
1776 0 48.2168 13.8334 667 91.4738 671.748 494.397
1777 0 50.0618 12.5844 630 93.054 670.744 496.906
1778 0 53.1437 14.489 770 89.026 670.19 497.732
1779 0 55.2592 13.3733 739 90.9526 668.585 497.424
1780 0 58.4927 14.3779 841 89.0832 667.722 494.939
1781 0 60.3151 14.2585 860 89.107 666.348 492.552
1782 0 62.1606 14.6556 911 88.3677 664.746 491.248
1783 0 65.4137 14.4007 942 88.0446 662.895 489.812
1784 0 66.4604 13.8428 920 89.0348 661.368 486.97
1785 0 70.4959 15.6747 1105 85.4462 661.364 483.558
1786 0 72.5265 15.2082 1103 86.0345 660.277 480.255
1787 0 74.689 14.4064 1076 87.7928 659.313 479.102
1788 1 42.3886 10.8992 462 90.6472 659.626 493.894
1789 0 41.1892 11.5807 477 90.847 659.642 492.423
1790 0 43.2159 10.1352 438 91.5548 659.76 493.139
1791 0 46.1153 11.7748 543 90.6059 659.042 487.306
1792 0 47.1731 13.4611 635 89.3685 658.515 486.861
1793 0 49.1232 13.8427 680 87.9059 659.324 480.762
1794 0 52.2123 13.0046 679 89.1679 660.957 484.624
1795 0 54.0921 13.2182 715 87.8098 661.001 484.182
1796 0 58.1375 15.859 922 83.7983 663.128 483.811
1797 0 59.1243 14.2412 842 86.6021 663.635 485.847
1798 0 61.0465 14.8411 906 86.0342 665.049 482.125
1799 0 64.1348 15.2803 980 84.8531 667.496 483.563
1800 0 67.2072 14.4627 972 86.4599 668.034 483.101
1801 0 70.1701 14.3651 1008 86.4077 670.004 483.233
1802 0 72.0916 14.8561 1071 86.1363 669.59 479.738
1803 0 74.1508 14.4435 1071 87.6583 669.243 483.064
1804 0 78.2368 15.517 1214 86.9811 669.97 479.217
1805 0 82.2241 14.9956 1233 87.9262 668.281 481.287
1806 1 42.1492 11.4356 482 89.0643 667.68 502.537
1807 0 43.1736 10.3072 445 91.1258 666.202 501.391
1808 0 45.0462 10.8777 490 92.002 665.414 499.388
1809 0 48.1795 9.75518 470 94.6468 663.2 497.298
1810 0 47.076 11.3858 536 93.5504 661.263 494.767
1811 0 53.0301 12.2383 649 91.9938 661.267 493.351
1812 0 54.0621 14.8903 805 89.7031 660.226 489.232
1813 0 56.0557 12.1843 683 93.3485 659.656 489.937
1814 0 58.1926 12.4414 724 94.2638 658.963 486.985
1815 0 60.0749 12.834 771 94.1855 658.642 484.818
1816 0 61.1548 12.5256 766 96.2258 658.244 482.568
1817 0 62.1841 12.7846 795 97.1572 657.714 478.454
1818 0 67.2095 13.0934 880 96.2977 658.359 475.889
1819 0 67.1889 13.2611 891 96.7957 659.534 475.377
1820 0 72.2725 12.6466 914 97.9562 661.094 475.416
1821 0 74.2997 13.459 1000 96.53 662.909 474.482
1822 0 76.3147 12.265 936 98.4017 663.525 474.185
1823 0 80.3459 13.5539 1089 95.9229 664.965 474.408
1824 0 79.4793 13.903 1105 99.7158 666.456 470.969
1825 0 84.303 14.3886 1213 98.1566 667.811 472.763
1826 0 88.3161 13.2479 1170 99.0051 670.693 473.426
1827 0 90.257 11.9326 1077 101.718 671.881 474.006
1828 0 94.4009 13.2626 1252 100.76 672.905 467.95
1829 0 98.2059 10.9973 1080 102.163 672.64 473.311
1830 0 102.238 12.0698 1234 102.129 673.329 471.417
1831 0 106.314 12.8018 1361 102.938 672.336 469.923
1832 1 57.1343 11.9018 680 100.059 672.631 495.262
1833 0 62.3155 13.7045 854 97.0679 671.506 491.477
1834 0 63.3092 13.3314 844 98.9988 669.975 489.592
1835 0 66.1729 12.1802 806 100.852 668.728 488.885
1836 0 74.1452 13.9861 1037 96.0906 667.306 484.284
1837 0 77.22 13.0795 1010 97.8059 665.03 483.557
1838 1 43.0962 9.65283 416 97.3966 664.079 499.728
1839 0 45.2206 11.079 501 95.5589 663.479 498.046
1840 0 47.1674 11.7666 555 98.6613 662.337 490.831
1841 0 49.2064 13.9413 686 96.0831 661.34 489.63
1842 0 50.304 13.4979 679 95.7599 661.138 489.518
1843 0 52.1478 13.2125 689 97.8897 661.328 486.473
1844 0 54.1164 14.6351 792 95.8207 660.926 483.405
1845 0 55.3629 12.987 719 100.191 660.986 481.159
1846 0 58.3104 13.7025 799 99.9412 661.12 480.874
1847 0 61.3339 15.0488 923 96.8353 661.735 479.653
1848 0 61.2309 13.8982 851 100.328 662.187 480.394
1849 0 63.2651 14.0046 886 102.951 662.956 476.062
1850 0 66.2706 14.8482 984 100.46 663.721 475.421
1851 1 33.2505 9.17278 305 106.705 664.892 492.905
1852 0 37.2408 11.3048 421 101.553 666.876 493.872
1853 0 37.1058 10.9686 407 105.4 668.816 493.086
1854 0 39.3636 12.3972 488 104.193 671.322 492.092
1855 0 39.0651 10.7001 418 107.608 672.543 495.397
1856 0 41.2093 12.2302 504 104.708 672.442 494.157
1857 0 43.1755 12.6229 545 102.273 674.072 496.239
1858 0 45.0937 12.0194 542 103.494 673.804 495.751
1859 0 47.1145 12.077 569 103.977 672.548 495.708
1860 0 50.0689 13.5813 680 101.816 671.753 496.944
1861 0 50.1251 12.9675 650 105.96 671.369 495.582
1862 0 53.1359 13.6819 727 104.431 670.223 495.272
1863 0 54.1218 13.4142 726 106.685 668.778 495.503
1864 0 57.2659 13.3937 767 107.171 666.748 492.558
1865 0 59.2278 13.237 784 108.402 665.149 490.454
1866 0 61.1998 13.4641 824 109.164 664.169 486.904
1867 0 64.1965 14.9852 962 106.325 662.666 486.023
1868 0 67.2573 14.6601 986 106.667 661.894 483.832
1869 1 36.0361 10.4895 378 110.643 661.849 497.601
1870 0 37.0869 11.9988 445 108.047 661.847 496.454
1871 0 39.0437 11.7048 457 109.711 660.985 493.322
1872 0 39.0765 9.85246 385 110.738 661.031 493.208
1873 0 41.0733 11.3943 468 110.526 661.882 488.767
1874 0 46.1636 12.3474 570 104.463 661.172 488.754
1875 0 46.0968 13.1463 606 105.937 662.068 484.7
1876 0 46.1112 12.6434 583 107.882 663.654 484.353
1877 0 50.1392 12.5052 627 107.413 664.424 484.145
1878 0 52.1385 13.234 690 104.742 665.762 483.613
1879 0 55.0608 13.0583 719 103.627 666.822 481.903
1880 0 56.2024 12.0813 679 104.803 667.457 482.396
1881 0 59.1031 14.2463 842 100.051 669.678 482.517
1882 0 62.1303 13.3429 829 101.053 672.31 483.805
1883 0 62.1971 13.0392 811 101.732 673.797 484.3
1884 0 67.3251 14.2146 957 99.93 673.937 482.102
1885 0 70.1899 14.8597 1043 99.3279 674.746 482.07
1886 0 73.2341 15.2251 1115 98.0305 673.865 482.776
1887 0 77.1766 13.359 1031 101.753 672.892 482.613
1888 0 80.2815 14.337 1151 100.636 671.46 479.947
1889 1 41.0649 8.81532 362 106.669 671.467 501.224
1890 0 45.0639 10.3631 467 103.257 670.18 501.126
1891 0 46.041 12.5975 580 102.791 668.766 497.652
1892 0 50.0556 14.1443 708 99.2994 667.874 497.63
1893 0 51.0513 13.5354 691 101.352 666.42 494.509
1894 0 51.1768 12.1344 621 105.918 665.419 492.976
1895 0 54.0497 12.7105 687 103.448 663.457 490.696
1896 0 58.148 14.3771 836 101.776 661.401 487.732
1897 0 57.0719 13.4567 768 107.4 660.725 483.072
1898 0 62.255 15.2919 952 101.193 661.016 482.582
1899 0 63.1307 13.3057 840 105.24 661.204 480.455
1900 0 64.1272 13.2861 852 105.569 661.047 477.309
1901 0 67.1097 14.1112 947 103.209 661.722 474.589
1902 0 70.0829 13.27 930 104.031 662.153 474.108
1903 0 73.0961 14.3373 1048 101.37 662.456 471.886
1904 0 75.0607 13.0161 977 103.663 663.079 470.036
1905 1 38.0073 9.62972 366 104.475 661.795 488.617
1906 0 39.0143 10.4321 407 103.297 662.732 487.752
1907 0 41.0248 10.8959 447 100.163 664.723 488.358
1908 0 44.0221 13.3569 588 96.716 668.148 488.347
1909 0 45.1297 11.1456 503 98.7714 669.215 489.996
1910 0 47.0314 12.0345 566 98.2191 670.095 490.127
1911 0 48.3626 12.551 607 98.8847 671.562 490.239
1912 0 51.2016 12.8512 658 97.0334 672.915 489.795
1913 0 52.2197 13.0985 684 97.1667 671.687 488.615
1914 0 55.1258 14.1495 780 95.0538 671.927 490.372
1915 0 57.2375 12.9635 742 96.8235 671.451 489.836
1916 0 61.2077 13.6911 838 93.9964 670.538 490.634
1917 0 62.1573 13.675 850 95.2165 669.381 488.26
1918 0 65.1397 14.0314 914 95.4672 667.456 488.412
1919 0 68.2072 14.236 971 93.8774 666.529 488.201
1920 0 73.0908 16.0075 1170 90.653 665.781 484.857
1921 0 77.186 15.8448 1223 90.408 665.598 481.291
1922 0 78.5067 16.7756 1317 90.5573 663.595 483.27
1923 1 42.1979 11.0195 465 99.2538 663.305 496.923
1924 0 42.1411 9.84788 415 100.81 661.14 496.995
1925 0 44.1775 11.0916 490 99.2816 660.498 494.837
1926 0 48.1974 12.3658 596 96.1963 660.45 492.46
1927 0 50.2407 13.077 657 95.6606 659.843 490.755
1928 0 51.2384 12.0613 618 99.1456 660.125 487.662
1929 0 53.2504 12.4318 662 98.7326 660.37 485.988
1930 0 54.1181 12.9716 702 98.5214 660.288 484.15
1931 0 56.1764 12.9236 726 99.3402 660.544 483.759
1932 0 58.2872 15.0119 875 95.288 660.645 482.439
1933 0 60.2461 14.4076 868 97.2742 660.967 481.644
1934 0 61.1727 14.5326 889 98.2745 662.43 482.036
1935 0 63.0571 13.4798 850 100.972 663.272 480.699
1936 0 66.0442 14.9142 985 97.8893 666.386 481.458
1937 0 69.0936 14.531 1004 96.5319 668.399 479.606
1938 0 72.0596 15.0154 1082 94.9889 669.616 480.79
1939 0 75.072 15.1321 1136 94.8407 670.481 479.276
1940 0 76.0974 14.7048 1119 97.4772 670.641 478.819
1941 1 40.0676 12.6037 505 98.9366 671.4 500.483
1942 0 43.0236 10.901 469 101.03 670.041 499.209
1943 0 42.0685 10.9345 460 103.45 668.828 499.448
1944 0 45.0837 11.0683 499 101.77 668.016 498.076
1945 0 50.1734 13.5929 682 95.937 665.701 499.287
1946 0 52.2165 14.9761 782 95.844 665.748 498.763
1947 0 51.2828 13.3183 683 103.341 664.359 500.139
1948 0 54.2675 13.7467 746 101.772 664.239 498.098
1949 0 57.2283 14.2936 818 100.776 661.388 495.903
1950 0 59.278 15.7563 934 98.3084 660.07 493.13
1951 0 64.1655 14.6185 938 98.4275 658.599 491.87
1952 0 66.1425 16.3133 1079 97.0704 658.01 490.083
1953 0 67.3933 14.0518 947 103.517 656.814 485.235
1954 0 70.17 16.3175 1145 97.4952 656.632 483.032
1955 0 73.1287 15.712 1149 98.6614 655.539 479.791
1956 0 76.2227 15.3891 1173 99.1952 655.705 478.714
1957 0 77.1076 15.0569 1161 100.409 656.55 477.038
1958 0 77.1325 14.5075 1119 102.786 657.406 472.78
1959 0 81.128 15.3584 1246 100.468 657.781 473.876
1960 0 83.3245 13.8135 1151 103.858 658.263 471.262
1961 0 88.3847 15.3533 1357 100.494 659.252 469.25
1962 0 91.1553 15.5449 1417 100.439 660.322 466.944
1963 0 95.2836 17.3797 1656 96.872 661.54 465.775
1964 1 53.1399 11.3098 601 100.953 663.724 489.301
1965 0 55.0784 11.8014 650 102.542 665.774 487.691
1966 0 58.0842 12.6885 737 100.103 665.925 489.043
1967 0 60.0517 13.7881 828 99.5157 666.396 487.35
1968 0 65.0976 14.2094 925 96.9784 667.412 487.569
1969 0 67.1825 13.2773 892 100.455 666.092 486.479
1970 0 70.121 12.9776 910 101.021 665.576 486.899
1971 0 72.083 13.5816 979 99.6313 665.932 486.461
1972 0 77.2639 14.7935 1143 97.231 665.276 484.518
1973 0 81.149 14.8123 1202 98.0591 664.625 483.267
1974 0 85.2526 14.9086 1271 97.9276 663.455 481.479
1975 0 89.2572 14.1277 1261 99.1261 662.461 479.418
1976 0 91.1542 13.4497 1226 101.731 661.533 477.067
1977 1 53.035 12.7274 675 99.6296 660.326 495.104
1978 0 52.1001 11.4011 594 102.451 659.436 492.778
1979 0 56.0929 10.4826 588 101.051 658.981 493.48
1980 0 59.1725 13.3339 789 97.3866 657.686 488.877
1981 0 62.0433 13.4583 835 96.703 656.891 487.395
1982 0 64.0539 13.7384 880 97.2591 656.534 483.892
1983 0 64.206 14.6871 943 95.877 656.151 482.27
1984 0 66.114 13.87 917 96.6914 656.311 480.273
1985 0 70.1948 13.0636 917 98.1592 657.687 476.02
1986 0 72.1865 13.9915 1010 96.6723 657.712 473.38
1987 0 74.1722 13.9945 1038 97.0145 659.182 473.299
1988 0 78.1828 14.4661 1131 96.4934 659.652 472.926
1989 0 79.2444 14.1587 1122 97.4608 660.449 470.188
1990 0 83.1718 15.3177 1274 95.0549 661.747 469.538
1991 0 85.2965 14.0686 1200 98.2217 663.443 467.12
1992 0 90.3192 15.2681 1379 95.2756 666.293 468.888
1993 0 94.4468 15.1937 1435 95.4774 667.53 467.857
1994 0 97.3734 14.9425 1455 97.7065 668.027 465.957
1995 0 101.382 14.2037 1440 100.115 669.331 465.561
1996 0 102.253 14.2001 1452 101.182 669.351 466.429
1997 1 56.0929 10.75 603 101.109 669.06 493.111
1998 0 59.0331 12.1457 717 98.5258 668.706 491.007
1999 0 63.1012 13.3436 842 97.633 668.399 489.996
2000 0 66.163 14.1922 939 95.7497 667.725 490.269
2001 0 67.1551 12.97 871 99.4248 666.319 489.423
2002 0 72.1294 15.1256 1091 96.9991 665.066 485.848
2003 0 75.2883 14.491 1091 99.0632 662.969 483.742
2004 0 79.1672 14.1725 1122 98.8137 661.404 482.374
2005 0 79.2946 13.5949 1078 102.222 659.953 478.536
2006 0 86.3551 14.9731 1293 98.8701 659.526 477.845
2007 0 88.3149 14.0293 1239 102.429 657.433 473.392
2008 0 90.3117 14.2396 1286 103.391 656.715 469.036
2009 0 94.3761 13.8488 1307 103.361 657.003 467.212
2010 0 99.2539 14.75 1464 101.783 657.398 464.47
2011 0 101.309 14.668 1486 101.422 657.792 460.734
2012 1 56.2834 12.0106 676 100.047 658.019 481.607
2013 0 56.1014 11.2475 631 101.582 658.601 481.639
2014 0 59.1009 12.0303 711 101.588 660.26 478.897
2015 0 61.0415 13.4499 821 98.3167 660.896 478.09
2016 0 62.0422 11.9113 739 101.34 662.091 479.796
2017 0 65.084 13.5363 881 96.0284 662.079 476.909
2018 0 69.1256 13.3959 926 94.5572 663.641 475.646
2019 0 70.1658 13.3826 939 95.0351 665.643 477.284
2020 0 72.1297 12.0616 870 97.3655 667.369 476.597
2021 0 78.099 13.9695 1091 91.4766 669.273 476.367
2022 0 81.0776 12.3955 1005 94.3692 670.563 475.9
2023 0 85.0856 13.8096 1175 92.2196 670.774 476.131
2024 1 43.0266 10.296 443 95.3567 670.609 495.603
2025 0 49.0482 11.2135 550 92.9945 669.945 495.876
2026 0 49.0263 10.5658 518 93.9846 669.313 497.693
2027 0 52.109 11.3416 591 93.0017 668.23 498.008
2028 0 55.1963 12.1023 668 93.7305 667.957 495.063
2029 0 55.306 12.0963 669 95.5695 666.486 493.386
2030 0 60.277 12.7246 767 92.957 665.227 492.403
2031 0 61.2093 13.2496 811 93.4155 663.605 490.365
2032 0 63.2512 12.1421 768 95.9831 661.596 489.069
2033 0 64.1588 11.83 759 98.0382 660.373 484.714
2034 0 67.1866 12.562 844 97.6256 659.476 481.28
2035 0 73.1358 15.1909 1111 90.2322 659.77 481.021
2036 0 72.1739 13.8416 999 96.9429 658.681 478.235
2037 0 78.1517 14.8301 1159 93.8628 658.654 476.583
2038 0 80.2349 14.9187 1197 93.8079 658.32 473.818
2039 0 82.0747 13.7558 1129 96.8946 658.762 472.004
2040 0 83.1717 13.2737 1104 99.6975 659.47 470.327
2041 0 87.2539 13.902 1213 98.3479 660.019 466.143
2042 1 46.0321 12.4044 571 99.1524 661.214 486.73
2043 0 49.0614 11.6589 572 99.3427 662.222 486.657
2044 0 50.1119 10.9754 550 100.747 664.004 486.849
2045 0 53.0194 12.4294 659 98.1806 665.898 487.258
2046 0 54.1903 14.0431 761 96 666.922 485.059
2047 0 55.0635 14.565 802 94.6608 669.529 488.465
2048 0 58.0503 12.9026 749 99.2724 670.465 487.338
2049 0 60.175 13.843 833 97.7359 672.046 487.321
2050 0 61.0838 13.6697 835 97.9653 672.559 487.765
2051 0 65.2055 14.5233 947 97.1457 672.556 487.286
2052 0 67.2174 13.5977 914 99.6039 672.24 486.873
2053 0 71.0865 13.9408 991 98.6024 670.916 488.718
2054 0 76.179 14.3872 1096 98.5794 669.161 486.904
2055 0 78.16 13.3188 1041 101.384 668.014 486.334
2056 0 80.1695 13.8581 1111 101.562 667.393 484.668
2057 0 84.1546 14.0099 1179 101.161 665.812 482.242
2058 1 46.0974 9.93548 458 103.537 663.954 501.299
2059 0 45.1203 10.062 454 104.8 662.954 498.778
2060 0 47.0752 11.1524 525 101.421 660.457 499.432
2061 0 51.085 11.1187 568 102.581 660.07 495.627
2062 0 52.1874 10.8072 564 102.399 658.954 494.635
2063 0 57.0669 13.2827 758 98.3734 658.347 489.191
2064 0 57.1152 12.0633 689 102.302 656.872 487.951
2065 0 58.0944 12.5485 729 102.502 658.128 486.85
2066 0 63.1053 13.1526 830 100.494 657.701 484.869
2067 0 63.0776 14.6645 925 99.4065 658.6 482.509
2068 0 65.1714 12.8891 840 102.908 659.564 480.224
2069 0 70.145 12.4599 874 103.423 659.914 478.889
2070 0 72.1749 13.5227 976 101.964 658.895 477.8
2071 0 71.2188 13.4655 959 101.857 659.742 469.407
2072 0 78.2938 13.6154 1066 102.525 660.269 475.568
2073 1 44.0697 11.3911 502 101.418 663.394 494.837
2074 0 48.1647 11.0869 534 100.309 665.169 495.257
2075 0 45.0756 11.1147 501 101.405 666.176 496.645
2076 0 50.0534 12.3468 618 98.657 666.437 497.047
2077 0 54.2007 13.7268 744 97.9677 667.199 497.954
2078 0 54.1151 14.155 766 97.5104 667.948 498.29
2079 0 55.1543 13.7795 760 99.8079 667.959 499.017
2080 0 59.2744 13.4797 799 100.202 666.859 496.581
2081 0 59.0897 13.5895 803 101.115 666.153 497.3
2082 0 65.1077 14.0844 917 99.1603 665.311 496.75
2083 0 67.2149 14.3272 963 99.568 663.466 494.592
2084 0 70.2782 14.1438 994 100.684 662.366 492.958
2085 0 75.1586 14.7954 1112 99.6754 661.247 490.565
2086 0 77.136 14.4031 1111 101.866 659.122 486.857
2087 0 80.1668 14.4075 1155 101.61 657.421 481.796
2088 0 84.2667 14.644 1234 101.75 656.609 480.021
2089 0 86.5071 14.126 1222 103.799 655.331 477.746
2090 1 46.1629 10.7229 495 105.053 654.98 494.954
2091 0 50.1417 11.8863 596 101.98 655.987 496.421
2092 0 51.1009 10.626 543 105.223 655.864 493.123
2093 0 53.1026 12.2593 651 103.51 656.866 490.315
2094 0 57.1397 11.5331 659 105.152 656.742 488.53
2095 0 56.1125 11.5839 650 108.372 658.057 485.563
2096 0 61.1171 15.8057 966 97.9358 658.454 483.806
2097 0 63.0762 14.1258 891 102.398 658.629 482.999
2098 0 65.0584 13.5417 881 103.582 660.325 481.171
2099 0 68.0851 15.1134 1029 99.7172 661.583 479.543
2100 0 68.1336 14.0606 958 103.211 661.64 479.366
2101 0 72.107 15.1303 1091 99.9597 663.689 477.537
2102 0 76.1448 14.5118 1105 101.119 664.444 477.898
2103 0 78.1095 15.5423 1214 98.4662 666.091 477.194
2104 1 42.0754 11.6933 492 103.498 669.717 494.539
2105 0 45.1011 12.0396 543 101.746 670.622 496.339
2106 0 47.1157 11.2489 530 102.338 671.334 496.875
2107 0 49.0898 12.7521 626 96.9984 671.474 497.484
2108 0 50.1807 11.4187 573 101.482 670.408 497.496
2109 0 52.0509 13.4099 698 96.8181 670.189 496.678
2110 0 54.0919 12.4788 675 99.4904 668.164 496.216
2111 0 57.0683 13.6328 778 97.045 667.328 495.593
2112 0 58.0937 14.0291 815 97.2798 666.049 493.699
2113 0 61.1553 14.4223 882 95.4807 664.905 494.823
2114 0 63.0721 13.5084 852 98.1185 663.731 491.782
2115 0 65.0605 13.9562 908 96.5826 662.269 489.912
2116 0 67.0997 13.2787 891 98.8002 661.055 487.422
2117 0 71.0896 13.3353 948 98.9346 660.03 481.999
2118 0 71.1429 12.4398 885 101.217 659.372 482.33
2119 0 74.0978 14.0355 1040 98.3192 659.764 480.966
2120 1 43.0548 10.7073 461 99.4187 661.321 495.751
2121 0 43.0615 10.6127 457 98.2473 660.812 495.689
2122 0 43.0199 10.6462 458 100.683 661.052 492.098
2123 0 46.0884 11.4129 526 98.2281 659.827 490.314
2124 0 47.1625 12.3827 584 96.0976 658.949 488.866
2125 0 48.2315 13.1242 633 95.8989 659.4 487.94
2126 0 51.2521 13.1897 676 93.7559 661.386 486.436
2127 0 51.2257 12.5718 644 94.1056 662.118 485.958
2128 0 54.1748 12.2566 664 92.7244 662.361 487.786
2129 0 55.1882 12.3033 679 93.7953 663.28 484.781
2130 0 57.1973 11.9586 684 92.6257 665.306 487.548
2131 0 58.1931 12.0117 699 92.6137 666.956 485.349
2132 0 60.1052 12.9772 780 91.2551 668.931 486.787
2133 0 63.3196 12.8712 815 91.4147 670.24 484.093
2134 0 67.2325 12.9104 868 90.6959 669.767 485.681
2135 0 68.2844 12.2283 835 93.1114 670.363 485.613
2136 0 74.3646 13.5548 1008 88.4167 670.533 484.882
2137 0 80.4405 14.5698 1172 86.8805 671.143 484.108
2138 1 43.2936 10.0939 437 91.9497 670.801 502.27
2139 0 44.3307 12.2488 543 88.011 669.247 503.552
2140 0 44.3498 10.2819 456 94.7171 667.384 503.454
2141 0 47.2509 12.7828 604 90.2781 665.758 500.954
2142 0 49.251 13.5429 667 84.943 664.508 498.868
2143 0 50.2451 13.6133 684 85.7354 662.825 495.11
2144 0 55.2259 14.4679 799 82.4193 660.914 495.12
2145 0 56.2789 14.1438 796 84.2412 659.805 492.984
2146 0 56.4593 14.3998 813 84.449 659.544 492.766
2147 0 57.3291 14.3731 824 84.8859 659.799 491.251
2148 0 59.3816 13.068 776 88.1392 658.481 488.728
2149 0 61.376 13.4906 828 89.1715 657.69 485.96
2150 0 66.5117 14.4185 959 86.6069 657.839 483.267
2151 0 68.4209 13.4169 918 88.9826 657.417 480.802
2152 0 68.5438 14.0348 962 87.9958 657.484 479.139
2153 0 73.4903 15.0496 1106 86.1365 657.283 477.925
2154 0 76.3273 15.7087 1199 84.4771 658.321 476.41
2155 0 77.4239 15.357 1189 85.5315 659.196 473.214
2156 0 82.3499 14.997 1235 85.3223 660.091 473.955
2157 0 84.4822 14.5238 1227 86.3333 660.812 472.716
2158 1 45.1696 12.8184 579 86.4024 662.96 493.606
2159 0 44.0712 11.2772 497 90.8149 664.942 492.588
2160 0 47.1173 12.7766 602 86.3522 666.749 495.174
2161 0 51.1025 14.0306 717 85.4644 668.647 492.304
2162 0 53.1586 13.6008 723 84.603 668.62 492.925
2163 0 54.2192 13.5376 734 85.97 669.792 491.886
2164 0 55.2178 14.144 781 86.7465 670.257 491.498
2165 0 59.1818 14.2612 844 85.7749 669.168 491.829
2166 0 62.2115 14.8847 926 85.1048 668.422 493.359
2167 0 64.1252 16.577 1063 84.4741 666.77 489.071
2168 0 66.2238 14.9342 989 88.1163 665.54 490.05
2169 0 70.246 14.4208 1013 89.4077 663.64 488.063
2170 0 73.0945 15.4321 1128 88.4246 662.842 485.576
2171 0 76.3575 15.0607 1150 89.7774 661.417 480.17
2172 0 80.3326 16.5064 1326 87.2172 660.273 479.06
2173 0 83.2188 15.4893 1289 89.3918 658.588 476.414
2174 0 87.3107 17.2602 1507 86.6065 657.806 474.689
2175 1 46.2279 11.3351 524 93.2863 656.408 492.731
2176 0 48.2263 13.1878 636 91.9748 656.454 488.135
2177 0 49.4326 12.4007 613 93.8662 656.91 487.091
2178 0 52.4464 12.4699 654 93.2156 657.002 485.791
2179 0 53.1794 13.9904 744 91.418 657.999 482.792
2180 0 54.448 14.0501 765 92.5621 658.055 480.439
2181 0 58.3204 14.4032 840 91.3964 658.298 478.544
2182 0 62.1297 15.9183 989 87.8362 659.197 476.578
2183 0 65.4022 15.9475 1043 87.3423 659.788 476.385
2184 0 64.3826 14.7555 950 91.2789 661.076 473.652
2185 0 67.1365 15.6696 1052 88.9449 663.184 475.234
2186 0 68.0871 13.938 949 93.7471 665.174 474.724
2187 0 73.273 14.4392 1058 91.8847 666.158 474.78
2188 0 76.3867 13.4709 1029 94.0943 668.328 472.902
2189 1 46.2578 13.3815 619 90.2892 669.273 489.984
2190 0 42.2231 11.3208 478 94.3452 669.952 492.1
2191 0 46.4037 11.2706 523 95.2447 671.465 492.566
2192 0 48.2538 13.2839 641 92.624 671.39 494.069
2193 0 48.2265 12.4205 599 96.5576 671.548 493.132
2194 0 52.2179 14.7459 770 90.3636 669.37 494.701
2195 0 53.1333 12.798 680 95.2353 668.865 493.368
2196 0 54.2106 14.5912 791 94.2162 666.908 492.681
2197 0 57.17 12.3666 707 97.1938 666.477 492.331
2198 0 63.1603 14.7086 929 92.3531 664.872 489.149
2199 0 64.2426 15.0368 966 92.5694 664.001 488.602
2200 0 67.4631 13.3999 904 95.4425 662.107 486.153
2201 0 69.1949 13.7871 954 93.2872 661.176 483.372
2202 0 72.1852 15.4187 1113 88.2498 660.305 479.165
2203 0 73.0898 15.2142 1112 91.1205 659.547 477.585
2204 0 79.1524 14.8448 1175 91.7387 659.174 475.933
2205 0 81.1146 15.8171 1283 91.7919 658.953 470.631
2206 0 83.0802 15.7438 1308 91.7462 658.534 468.834
2207 0 87.1097 14.74 1284 93.6324 658.234 465.038
2208 0 92.1435 14.9115 1374 94.9709 659.852 463.648
2209 0 94.0766 15.7744 1484 92.4488 659.514 462.856
2210 0 97.0576 15.7638 1530 92.4948 661.031 460.399
2211 0 102.074 14.6855 1499 94.8079 660.785 460.083
2212 0 102.074 14.7345 1504 154.009 660.792 460.085
2213 1 56.0517 11.079 621 95.9936 663.089 480.973
2214 0 60.0558 11.5226 692 94.6806 664.632 479.873
2215 0 63.073 11.7324 740 96.2608 666.916 479.653
2216 0 65.0202 13.4112 872 94.2133 669.023 479.929
2217 0 71.1094 14.4003 1024 91.0234 671.264 480.708
2218 0 73.0861 12.6563 925 95.2151 671.72 480.12
2219 0 76.108 14.3875 1095 92.8776 673.627 481.496
2220 0 78.2136 13.4887 1055 96.3829 672.168 479.636
2221 1 44.1029 8.59353 379 94.8945 671.799 500.391
2222 0 46.2088 12.1189 560 90.5893 670.886 499.457
2223 0 47.1345 12.1355 572 92.0874 669.178 497.794
2224 0 49.1445 12.331 606 91.0891 667.924 498.33
2225 0 50.2872 13.0848 658 88.7052 667.205 495.41
2226 0 52.265 11.9392 624 91.3622 665.955 496.189
2227 0 54.2953 12.1926 662 91.5665 664.651 495.018
2228 0 56.1326 11.2947 634 92.4748 663.24 493.931
2229 0 59.1528 13.2369 783 89.5977 662.111 492.217
2230 0 61.3002 14.3393 879 87.5506 661.683 489.017
2231 0 60.1329 11.9402 718 94.1226 660.783 483.894
2232 0 66.2315 11.6863 774 92.6202 659.181 483.127
2233 0 66.2207 13.0624 865 92.6983 659.489 481.583
2234 0 69.1562 14.8505 1027 89.5648 659.357 477.661
2235 0 71.2416 12.1979 869 93.1404 660.64 477.74
2236 0 76.2205 14.5761 1111 86.9973 660.68 476.45
2237 1 34.0358 7.43335 253 92.1344 661.755 494.984
2238 0 40.075 9.25763 371 90.8086 662.404 492.305
2239 0 41.0274 8.70151 357 92.112 663.437 492.258
2240 0 41.0687 8.86319 364 95.6401 662.563 490.365
2241 0 44.1514 10.7811 476 90.6912 664.244 492.116
2242 0 45.18 10.7348 485 93.8103 667.039 489.542
2243 0 45.1568 11.5819 523 93.26 667.711 489.264
2244 0 49.1665 11.5933 570 95.0737 669.696 491.067
2245 0 49.1125 11.6874 574 94.8415 670.681 490.455
2246 0 53.1679 11.285 600 94.7167 671.36 493.357
2247 0 55.1293 12.1351 669 93.6338 671.741 492.143
2248 0 59.0751 13.2882 785 91.4841 670.247 492.804
2249 0 60.1255 12.7567 767 94.2347 669.936 493.254
2250 0 62.1398 12.9225 803 95.2092 669.447 493.775
2251 0 64.1553 14.1999 911 94.416 667.574 494.266
2252 0 63.1329 12.9726 819 99.8388 667.024 490.436
2253 0 69.1994 14.0897 975 97.1846 664.966 489.97
2254 0 72.2268 12.9176 933 100.392 663.876 488.332
2255 0 74.1352 14.2577 1057 99.8439 661.555 484.15
2256 0 76.1738 13.8368 1054 102.231 661.86 480.537
2257 0 80.2036 14.7624 1184 100.938 660.863 481.567
2258 1 44.034 10.8325 477 102.734 657.688 497.01
2259 0 44.1601 10.4619 462 104.571 657.552 494.721
2260 0 46.1398 11.5302 532 102.229 658.357 493.829
2261 0 47.1904 12.6509 597 102.69 658.164 489.771
2262 0 50.2026 13.6845 687 99.9927 657.978 488.415
2263 0 50.1056 12.793 641 101.972 658.527 487.566
2264 0 53.2245 12.6446 673 101.324 658.862 485.903
2265 0 55.1953 13.2801 733 100.135 659.985 484.483
2266 0 55.2184 11.9344 659 104.175 661.633 482.791
2267 0 55.2184 11.9888 662 148.85 662.633 482.743
2268 0 60.0767 13.9988 841 99.9465 661.977 481.018
2269 0 62.153 13.9173 865 100.345 664.267 480.517
2270 0 63.1878 12.9614 819 101.692 666.637 482.808
2271 0 66.1291 13.9273 921 101.709 668.645 479.666
2272 0 71.1535 15.0379 1070 97.2271 670.088 481.965
2273 0 71.1607 14.924 1062 99.0951 671.489 480.38
2274 0 73.2549 13.8694 1016 102.34 671.709 479.539
2275 0 76.1988 14.2259 1084 103.018 671.712 478.275
2276 0 80.3663 14.7325 1184 102.347 672.652 475.162
2277 0 85.6482 14.5712 1248 101.977 671.772 477.22
2278 0 88.3744 15.0949 1334 101.771 670.555 474.474
2279 1 46.2355 11.6144 537 105.272 669.67 495.471
2280 0 48.4169 10.8433 525 104.505 668.684 496.345
2281 0 48.2048 10.3724 500 107.51 667.398 494.022
2282 0 50.0964 11.8771 595 104.782 667.279 491.847
2283 0 53.0789 13.4705 715 102.173 664.393 490.041
2284 0 56.1804 13.6168 765 103.39 663.316 492.46
2285 0 58.1382 14.3279 833 102.375 662.436 488.838
2286 0 61.0848 14.3244 875 102.341 661.854 486.435
2287 0 62.1585 12.9829 807 105.967 661.356 483.335
2288 0 66.0949 13.7227 907 104.202 660.472 481.331
2289 0 67.1695 13.9795 939 105.052 660.592 478.231
2290 0 68.1437 14.0585 958 105.382 661.275 474.465
2291 0 73.1462 16.3782 1198 99.7671 661.659 474.295
2292 0 74.1319 13.8807 1029 105.419 661.273 471.74
2293 0 76.4681 13.9405 1066 106.159 662.09 464.913
2294 0 82.4809 14.4397 1191 103.287 661.683 464.986
2295 1 42.3086 9.28889 393 108.626 662.728 482.168
2296 0 45.2881 10.665 483 104.538 663.859 483.23
2297 0 45.3419 10.6083 481 103.557 666.308 483.59
2298 0 47.249 12.1484 574 100.922 668.483 482.005
2299 0 48.3384 12.8056 619 100.976 670.312 482.139
2300 0 53.2659 13.8926 740 99.1838 671.781 486.359
2301 0 54.1811 13.7317 744 101.003 673.485 487.566
2302 0 57.1382 14.3162 818 98.4401 674.059 487.27
2303 0 58.6717 13.942 818 99.3826 673.445 486.727
2304 0 60.3875 14.0261 847 100.698 672.394 484.782
2305 0 64.618 14.3923 930 99.7355 671.827 483.883
2306 0 64.3957 14.178 913 100.528 671.818 484.543
2307 0 69.7602 14.9799 1045 98.867 671.185 481.469
2308 0 70.6968 13.1123 927 102.974 669.81 481.493
2309 0 74.8972 13.1914 988 102.855 668.907 479.698
2310 0 73.5438 13.203 971 103.967 667.24 476.389
2311 0 80.7258 14.1095 1139 101.495 665.636 476.625
2312 0 84.8819 14.9502 1269 100.031 664.043 472.521
2313 0 87.5891 12.6842 1111 104.816 663.337 469.701
2314 0 90.601 14.3597 1301 103.321 662.463 465.515
2315 0 95.6368 14.5342 1390 102.754 660.191 462.771
2316 0 96.7045 14.3323 1386 103.81 659.481 460.255
2317 0 103.935 14.5572 1513 102.592 659.796 457.542
2318 0 108.008 14.1101 1524 104.539 659.593 454.186
2319 0 108.827 13.3882 1457 107.526 659.741 451.121
2320 1 52.458 11.514 604 105.354 661.247 478.2
2321 0 56.7996 11.5846 658 105.099 662.819 475.919
2322 0 57.5407 11.5397 664 103.991 663.086 478.729
2323 0 59.5386 12.5297 746 106.724 663.578 475.386
2324 0 64.7494 14.1468 916 103.879 664.679 473.873
2325 0 63.8918 12.6307 807 108.579 666.85 473.466
2326 0 69.8281 14.9653 1045 104.078 668.982 473.66
2327 0 69.6311 13.9736 973 108.234 672.065 474.43
2328 0 73.6027 14.4968 1067 107.251 672.918 474.666
2329 0 74.3848 13.9276 1036 110.344 673.725 472.874
2330 0 79.6854 15.3102 1220 106.812 674.344 471.831
2331 0 81.4256 13.9637 1137 111.184 674.637 475.421
2332 0 83.295 13.5902 1132 113.666 674.462 473.587
2333 0 88.3075 14.7666 1304 111.199 673.572 473.274
2334 0 92.3376 12.8983 1191 114.57 672.637 468.34
2335 0 97.4634 13.0305 1270 113.811 671.021 470.902
2336 0 102.295 14.5852 1492 111.085 670.016 469.093
2337 1 58.159 9.2849 540 114.424 668.489 488.62
2338 0 62.1027 9.91905 616 112.828 666.911 486.935
2339 0 67.1662 12.1341 815 110.14 666.04 481.979
2340 0 71.089 13.1947 938 106.856 664.063 482.634
2341 0 74.1593 14.3205 1062 106.169 663.323 479.84
2342 0 76.1527 13.2497 1009 109.002 662.104 477.153
2343 0 79.1545 14.1243 1118 107.014 660.747 471.666
2344 0 78.1273 12.4412 972 113.012 660.858 468.77
2345 0 84.2517 13.2579 1117 111.724 661.939 467.197
2346 0 87.2571 13.6608 1192 109.367 661.07 466.362
2347 0 87.2071 15.8129 1379 105.545 661.844 462.271
2348 0 89.2459 15.1716 1354 94.935 661.612 459.664
2349 0 87.3883 13.9492 1219 95.041 663.001 461.594
2350 1 44.2042 8.09878 358 95.4525 663.335 486.391
2351 0 39.0298 9.65928 377 94.2095 664.645 486.679
2352 0 42.0185 7.66329 322 95.264 666.028 489.012
2353 0 41.0238 8.65351 355 95.5239 668.69 489.318
2354 0 38.028 10.466 398 94.9397 670.535 489.879
2355 0 41.0394 10.4777 430 91.4326 671.814 493.842
2356 0 40.0301 8.01897 321 95.6542 672.181 491.804
2357 0 43.1045 8.5142 367 95.0245 672.954 495.785
2358 0 42.1073 9.61829 405 94.7284 672.923 495.622
2359 0 44.0634 7.37574 325 94.2769 672.886 500.317
2360 0 42.0682 9.38952 395 94.8051 672.435 498.494
2361 0 43.0481 8.75765 377 95.0716 670.769 498.607
2362 0 42.064 7.51237 316 94.3639 670.37 496.348
2363 1 89.3345 15.9177 1422 128.45 668.662 331.985
2364 0 86.1733 16.3508 1409 130.082 666.86 332.708
2365 0 88.2002 17.0975 1508 127.57 665.735 331.723
2366 0 88.1217 17.4418 1537 127.706 664.96 331.779
