time division length width area intensity CMx CMy
0 0 83.5544 12.7342 1064 135.757 433.061 459.762
1 0 84.3829 13.5454 1143 133.381 433.06 462.712
2 0 86.4662 12.6986 1098 135.295 433.53 462.231
3 1 64.697 17.7288 1147 84.6783 434.37 471.158
4 0 62.7197 16.7252 1049 90.9342 434.561 473.845
5 0 56.5323 18.4496 1043 94.2848 432.741 465.415
6 0 45.2915 12.9826 588 121.677 433.107 482.85
7 0 55.0801 16.0494 884 104.175 431.345 470.516
8 0 55.0498 16.7666 923 105.802 432.12 467.768
9 0 55.3092 18.8938 1045 102.509 433.275 477.62
10 0 54.2821 15.6589 850 112.732 433.401 476.881
11 0 54.1913 16.4048 889 114.226 432.728 478.892
12 0 53.1362 14.1335 751 123.75 434.012 478.427
13 0 54.1274 14.1887 768 122.616 433.104 477.854
14 0 55.2337 14.8098 818 122.556 433.66 477.291
15 0 55.1927 13.6069 751 126.724 432.676 478.386
16 1 30.04 11.4847 345 129.07 432.151 490.287
17 0 30.0303 11.0555 332 129.262 432.798 490.452
18 0 33.0115 11.3294 374 129.128 432.39 489.971
19 0 32.0925 9.69073 311 132.35 433.26 490.212
20 0 32.0344 11.2067 359 130.047 432.276 489.869
21 0 33.019 10.1154 334 132.389 431.982 489.91
22 0 34.0212 12.4334 423 126.109 432.279 489.139
23 0 34.0239 12.8145 436 124.45 432.47 489.005
24 0 36.0382 12.5145 451 125.876 432.698 487.477
25 0 37.0458 13.2808 492 121.746 433.642 487.311
26 0 38.2113 14.0534 537 119.451 435.912 486.38
27 0 40.3004 14.5656 587 116.632 437.221 486.681
28 0 41.1401 14.0982 580 120.374 437.419 485.522
29 0 40.1396 14.9229 599 119.967 435.925 484.576
30 0 42.3348 13.8184 585 121.605 435.846 483.911
31 0 41.2575 13.9126 574 123.831 435.618 483.983
32 0 44.229 15.2615 675 118.778 435.415 483.326
33 0 46.2216 13.6084 629 120.736 436.698 483.378
34 0 45.2266 13.9962 633 120.828 436.719 482.637
35 0 48.129 15.126 728 118.045 436.293 482.104
36 0 49.2159 14.6904 723 119.134 436.196 481.917
37 0 51.19 15.9211 815 116.789 437.215 479.525
38 0 50.1416 14.6984 737 120.319 436.805 479.787
39 0 51.1426 13.5699 694 122.872 436.514 478.533
40 0 55.2007 15.181 838 118.926 437.291 478.37
41 0 56.1349 17.0482 957 114.003 436.756 477.595
42 0 58.0899 15.6654 910 116.119 438.081 478.416
43 0 59.0825 15.0637 890 118.563 437.16 475.856
44 0 61.1167 16.3785 1001 114.518 437.08 475.233
45 0 62.1036 15.3936 956 117.122 436.567 474.843
46 0 65.0872 15.7174 1023 116.11 437.238 475.337
47 0 67.1253 16.4468 1104 114.675 437.46 472.98
48 0 70.1304 15.956 1119 115.881 437.295 473.583
49 0 72.111 18.4854 1333 110.071 437.257 469.57
50 0 74.2586 15.244 1132 115.614 438.394 470.023
51 0 76.1848 16.8275 1282 112.265 437.711 467.782
52 0 81.3321 16.0453 1305 111.253 437.949 469.861
53 0 82.1229 15.2698 1254 114.499 438.257 467.864
54 0 82.1574 15.0686 1238 115.949 438.113 465.958
55 0 85.1993 15.2349 1298 117.039 438.817 464.247
56 0 88.1724 16.343 1441 113.944 437.79 462.763
57 0 91.2223 16.6845 1522 113.442 438.143 462.231
58 0 94.1452 15.1787 1429 117.661 437.808 459.845
59 0 97.1565 16.4889 1602 114.556 438.345 458.717
60 0 101.227 15.2924 1548 116.838 438.352 456.147
61 1 52.0537 11.3921 593 119.383 438.487 480.187
62 0 55.0383 12.3732 681 117.721 438.814 478.809
63 0 55.0361 12.5736 692 120.105 439.428 475.792
64 0 59.0381 12.8392 758 117.044 439.825 476.127
65 0 62.1301 13.4717 837 115.295 441.105 473.947
66 0 65.1823 14.5592 949 111.553 441.681 470.96
67 0 66.1299 14.6227 967 111.172 442.031 470.724
68 0 71.1464 14.5896 1038 109.664 442.117 469.902
69 0 71.1538 14.6022 1039 130.304 442.143 469.717
70 0 75.1137 14.9374 1122 111.058 441.485 467.568
71 0 78.1343 14.987 1171 111.646 442.154 466.368
72 0 81.0961 15.7221 1275 110.316 440.236 464.032
73 0 85.1724 15.2162 1296 110.91 440.812 463.022
74 1 43.0185 11.8321 509 110.929 442.259 482.963
75 0 47.1539 10.752 507 109.826 442.377 484.665
76 0 46.0281 10.9933 506 111.045 440.32 482.717
77 0 47.0661 10.9845 517 111.923 439.807 481.226
78 0 47.0622 12.2391 576 109.257 439.83 480.753
79 0 52.0359 13.8174 719 106.531 441.698 479.954
80 0 53.0568 14.6258 776 105.057 440.241 479.927
81 0 57.0893 14.6437 836 104.138 440.508 480.438
82 0 58.092 14.5975 848 105.298 440.482 479.879
83 0 59.1301 14.5442 860 106.213 441.152 478.031
84 0 59.2279 13.389 793 108.052 441.204 476.257
85 0 63.0803 13.7444 867 106.081 441.6 476.452
86 0 65.1579 14.3651 936 106.443 441.491 474.152
87 0 70.1722 15.234 1069 103.926 440.807 472.954
88 0 70.0962 14.8225 1039 106.181 440.867 470.378
89 0 71.126 14.875 1058 106.659 440.746 468.642
90 0 75.0714 14.5195 1090 106.757 440.084 469.665
91 0 75.1664 13.7561 1034 109.946 440.851 467.486
92 0 78.1732 14.6981 1149 108.741 440.406 465.975
93 0 82.0841 16.6171 1364 106.124 441.207 464.253
94 0 83.0853 15.117 1256 110.139 441.628 462.072
95 0 86.1405 15.4051 1327 109.251 442.047 461.334
96 0 90.0449 15.5478 1400 109.623 441.361 459.867
97 0 92.2609 15.0768 1391 109.226 442.266 459.221
98 0 95.192 14.3604 1367 109.943 442.118 459.699
99 1 50.0624 11.3658 569 107.392 442.069 481.032
100 0 52.1378 11.834 617 106.705 441.632 480.731
101 0 54.1052 13.4368 727 104.524 441.695 479.884
102 0 57.1823 13.5881 777 104.279 441.407 476.627
103 0 58.1883 13.3016 774 106.229 441.809 476.503
104 0 62.3114 13.6251 849 103.225 441.357 476.124
105 0 63.1057 13.9766 882 104.58 441.365 473.731
106 0 67.1304 15.2092 1021 102.082 441.384 472.411
107 0 69.2096 14.55 1007 102.371 441.141 471.395
108 0 71.1004 12.8691 915 107.378 441.384 470.574
109 0 73.2136 14.0001 1025 105.417 441.701 469.446
110 0 76.1064 13.3497 1016 104.738 441.505 470.359
111 0 79.101 13.3121 1053 104.71 441.383 469.283
112 0 84.2154 14.2848 1203 101.071 441.733 468.678
113 1 43.0825 11.211 483 99.5942 442.424 486.791
114 0 44.0955 9.41138 415 101.504 442.13 488.439
115 0 48.1555 11.8367 570 98.2702 441.77 485.446
116 0 45.1135 9.06601 409 102.631 440.183 486.758
117 0 49.0637 11.7398 576 99.2257 441.306 484.759
118 0 49.1493 11.9839 589 98.6825 441.048 482.577
119 0 54.0778 14.775 799 91.2678 441.294 482.325
120 0 54.1705 13.236 717 95.7211 440.954 479.441
121 0 55.2879 13.5653 750 95.228 439.719 479.321
122 0 57.1942 13.1657 753 95.4263 439.797 479.206
123 0 59.1553 14.369 850 92.9388 439.126 477.355
124 0 60.2388 13.2307 797 95.9134 438.738 478.097
125 0 63.2143 12.8768 814 96.2359 439.208 476.555
126 0 65.1362 12.8346 836 97.0431 439.177 474.996
127 0 66.4132 13.2353 879 98.0478 439.419 471.933
128 0 68.0845 13.4098 913 97.7579 440.077 472.808
129 0 69.1347 14.1029 975 98.7508 440.205 470.197
130 0 73.134 13.7829 1008 98.9623 440.962 468.754
131 1 41.0547 9.86489 405 98.7136 442.217 487.457
132 0 42.0543 10.1773 428 100.369 442.061 485.764
133 0 43.1025 10.2314 441 100.315 442.717 486.472
134 0 45.2081 11.5245 521 98.9463 442.226 483.319
135 0 46.275 10.9778 508 99.5728 442.032 484.061
136 0 47.1903 12.0576 569 97.7592 441.958 484.313
137 0 51.3033 13.1765 676 93.7456 441.794 482.629
138 0 51.2204 12.7684 654 95.8792 442.118 483.046
139 0 53.2706 13.2906 708 94.6822 442.362 482.469
140 0 54.2687 12.7145 690 96.6275 442.101 481.68
141 0 55.214 13.004 718 97.1421 442.535 479.798
142 0 57.2893 13.0565 748 96.0829 441.666 481.928
143 0 58.1698 13.6841 796 96.7123 442.349 478.847
144 0 60.2584 13.5749 818 96.934 441.439 479.785
145 0 62.2401 13.3194 829 98.0724 441.524 478.131
146 0 65.2386 12.1554 793 97.9723 441.091 479.248
147 0 67.1326 14.4639 971 95.2667 440.464 476.05
148 0 67.1843 14.3337 963 97.3333 439.376 474.692
149 1 37.0186 10.1841 377 98.557 440.111 490.44
150 0 36.0834 9.47806 342 99.5936 440.035 491.412
151 0 39.0096 11.7407 458 94.048 440.218 489.17
152 0 40.0373 9.81584 393 99.1654 440.02 487.578
153 0 41.0308 11.6985 480 96.6375 439.092 487.023
154 0 42.0194 11.6375 489 97.6871 440.955 486.131
155 0 46.0683 14.9343 688 91.2922 440.419 484.337
156 0 42.1017 11.1635 470 101.277 438.945 483.623
157 0 46.152 13.1305 606 96.7492 438.46 483.513
158 0 48.0933 12.6629 609 99.5566 439.21 482.327
159 0 47.0963 11.5508 544 101.662 440.112 481.189
160 0 50.1215 11.7115 587 100.017 440.436 482.281
161 0 52.1327 13.1587 686 98.2682 440.819 479.175
162 0 54.158 13.8853 752 96.5545 441.128 478.815
163 0 57.2308 14.1882 812 95.1909 441.09 479.78
164 0 57.2256 12.2672 702 98.7764 440.826 479.261
165 0 59.2243 13.1027 776 98.46 441.352 477.16
166 0 59.1394 13.0201 770 98.6377 441.312 477.861
167 0 60.1518 13.6488 821 99.0938 441.87 476.508
168 0 64.2961 14.0444 903 97.5936 442.635 474.147
169 0 66.2119 14.4989 960 96.8667 442.38 472.274
170 0 67.3074 12.6881 854 101.453 441.541 472.714
171 0 69.1448 14.1298 977 98.3828 441.743 473.528
172 1 38.0503 9.77654 372 99.6694 442.312 490.355
173 0 37.0544 9.58052 355 100.296 441.972 489.651
174 0 38.0137 10.391 395 98.9063 441.484 489.635
175 0 40.0838 11.1017 445 96.9775 440.551 489.371
176 0 41.0825 11.416 469 97.6652 440.177 488.337
177 0 43.0436 11.5232 496 98.4839 440.458 487.581
178 0 43.1591 12.6972 548 96.5967 439.5 487.266
179 0 44.17 11.6368 514 98.6965 439.344 486.471
180 0 46.1214 12.7273 587 94.9727 439.082 486.44
181 0 48.0901 12.3518 594 95.6279 438.768 485.45
182 0 49.1066 13.7456 675 93.9037 439.099 483.387
183 0 50.0914 12.2376 613 96.7471 438.706 484.798
184 0 54.1734 13.1799 714 93.612 438.923 483.385
185 0 53.0652 13.0217 691 96.7974 438.593 480.965
186 0 56.1017 13.1903 740 96.2986 438.328 480.853
187 0 55.1251 13.17 726 103.288 438.854 478.909
188 0 57.2053 12.3765 708 101.254 439.106 477.798
189 0 62.0993 14.8955 925 96.8919 439.436 476.646
190 0 65.1294 14.31 932 97.6964 439.882 475.162
191 0 64.0702 13.7349 880 101.107 439.515 474.556
192 0 67.0964 13.652 916 101.651 438.998 472.365
193 0 68.0719 14.4553 984 101.768 439.248 471.768
194 0 70.1144 13.7204 962 104.762 438.906 470.125
195 0 73.0733 13.2333 967 106.978 439.622 469.236
196 1 40.026 11.1927 448 106.076 440.011 484.761
197 0 43.0199 11.4366 492 103.596 440.364 487.337
198 0 42.0545 10.9382 460 109.128 440.741 484.896
199 0 44.0245 10.9257 481 107.281 440.655 486.333
200 0 45.051 10.6102 478 108.471 438.889 485.446
201 0 47.0278 12.2906 578 105.979 439.106 485.225
202 0 50.1256 13.127 658 104.182 438.845 483.544
203 0 52.0791 13.2683 691 103.624 439.313 484.585
204 0 51.1015 13.9918 715 104.855 439.669 481.751
205 0 54.0187 14.1618 765 104.489 439.673 482.776
206 0 55.0305 14.7736 813 104.678 439.675 479.963
207 0 58.0749 14.068 817 104.803 440.143 480.284
208 0 59.0924 14.0458 830 104.339 439.514 481.211
209 0 60.042 14.0069 841 106.404 439.005 480.094
210 0 61.0748 13.7209 838 107.666 439.155 479.458
211 0 64.1462 13.6407 875 107.84 438.782 479.12
212 0 66.0893 14.9041 985 105.007 438.539 478.448
213 0 69.291 13.0176 902 108.406 437.634 478.21
214 0 70.0551 15.602 1093 104.583 437.713 474.713
215 0 71.136 14.0857 1002 108.678 437.928 472.336
216 0 71.136 14.156 1007 151.675 438.911 472.29
217 0 77.098 14.4102 1111 107.323 436.796 470.041
218 0 80.0675 15.0373 1204 105.816 436.732 469.934
219 1 43.0363 10.5725 455 109.266 436.376 488.026
220 0 44.0272 11.7882 519 108.002 437.204 485.971
221 0 47.107 11.8878 560 106.354 437.455 485.632
222 0 46.0675 11.2661 519 109.351 436.921 484.732
223 0 49.1516 13.0413 641 105.25 436.598 483.641
224 0 51.0965 13.3082 680 103.04 436.628 482.91
225 0 53.0711 14.0566 746 100.822 437.048 481.693
226 0 52.0898 13.2464 690 104.059 436.791 480.174
227 0 54.1013 12.9017 698 103.785 437.54 479.149
228 0 56.1932 13.4892 758 103.652 437.716 477.222
229 0 58.1728 13.5287 787 101.949 438.111 478.508
230 0 58.0933 12.9963 755 104.466 437.936 476.885
231 0 59.1632 12.981 768 105.594 438.581 475.815
232 0 61.1919 12.9102 790 104.804 438.752 476.187
233 0 64.1996 14.2836 917 103.027 438.907 472.701
234 0 65.2959 14.1663 925 104.036 438.086 472.789
235 0 69.1389 13.7983 954 103.74 439.074 472.889
236 0 72.2947 14.5515 1052 102.525 438.883 470.425
237 0 74.1903 13.9237 1033 103.836 439.042 470.334
238 1 34.0831 8.86069 302 148.513 440.907 491.543
239 0 42.0621 10.0565 423 101.976 440.355 490.374
240 0 42.0572 10.3906 437 105.128 440.529 488.35
241 0 43.0277 12.4106 534 103.277 440.457 487.485
242 0 45.0997 14.3016 645 100.842 439.522 485.913
243 0 48.0322 12.2626 589 104.2 439.577 487.414
244 0 47.0484 12.0939 569 106.207 438.067 486.406
245 0 49.0914 12.4054 609 107.087 437.663 485.051
246 0 50.1822 13.1919 662 106.739 436.698 483.831
247 0 52.246 13.1685 688 105.91 436.635 483.802
248 0 54.1263 13.3761 724 105.383 436.267 481.851
249 0 57.1806 14.2181 813 103.084 435.395 482.592
250 0 56.1369 12.4517 699 107.991 435.383 480.634
251 0 59.2532 13.9402 826 105.036 435.668 478.554
252 0 58.2736 13.3337 777 108.13 435.956 478.134
253 0 62.2338 13.9795 870 106.255 435.846 476.826
254 0 64.0986 13.7132 879 105.736 435.494 477.066
255 0 66.2066 14.8777 985 103.964 435.482 473.528
256 0 68.143 14.5723 993 104.709 436.196 472.974
257 0 71.1102 16.2846 1158 99.4352 435.884 473.587
258 0 72.1233 16.0558 1158 145.39 434.911 473.718
259 0 75.1757 15.0049 1128 103.189 436.83 470.201
260 0 75.3338 14.1371 1065 107.03 437.022 467.531
261 0 80.3018 16.5999 1333 103.045 437.946 465.717
262 0 81.5238 13.7383 1120 109.576 438.2 466.818
263 0 84.4184 14.3689 1213 109.25 439.539 463.647
264 0 88.7117 16.4578 1460 103.697 439.584 464.938
265 0 89.3739 15.631 1397 107.474 439.858 462.412
266 0 92.3764 15.5992 1441 107.532 439.801 460.341
267 0 92.3764 15.5884 1440 156.396 440.828 460.399
268 0 98.4569 16.3422 1609 106.72 440.044 458.981
269 0 101.59 14.47 1470 111.322 440.399 454.969
270 0 106.518 15.8752 1691 107.084 440.217 455.847
271 0 108.544 14.326 1555 110.76 439.758 452.396
272 1 59.466 11.3678 676 106.203 439.274 480.464
273 0 62.406 12.4026 774 103.946 439.832 479.345
274 0 66.1859 14.7917 979 97.4801 439.996 478.069
275 0 67.191 11.6533 783 103.245 439.743 476.969
276 0 72.1537 13.2495 956 100.514 439.34 476.649
277 0 74.2231 14.389 1068 97.5833 439.482 475.365
278 0 77.4761 14.6755 1137 96.1952 438.934 475.427
279 0 78.2552 12.4592 975 101.191 437.574 469.886
280 0 81.2704 13.1905 1072 98.8405 436.913 470.198
281 0 86.447 13.5921 1175 96.9072 437.884 468.763
282 0 90.3209 14.9799 1353 95.2498 437.604 465.988
283 0 94.1719 14.9089 1404 95.3454 437.411 464.348
284 1 49.1904 10.1646 500 96.842 436.706 483.442
285 0 50.1784 11.1801 561 95.0873 436.791 483.209
286 0 53.1158 12.1809 647 93.2751 436.699 482.051
287 0 53.1158 12.1998 648 136.983 436.707 482.046
288 0 55.1573 11.9839 661 94.8654 437.617 479.145
289 0 57.2346 12.0207 688 95.6134 437.746 477.355
290 0 61.1734 12.5545 768 93.0052 438.505 479.316
291 0 60.2198 13.3677 805 93.8758 439.027 476.194
292 0 60.0638 11.3046 679 98.0191 439.869 475.538
293 0 62.309 11.8763 740 96.977 440.573 475.632
294 0 66.2455 14.0991 934 92.015 440.156 473.484
295 0 68.1816 13.156 897 93.8618 440.712 470.152
296 0 71.2005 13.3847 953 92.7093 441.938 472.454
297 0 73.1298 13.0863 957 94.3051 442.334 469.145
298 0 76.4703 13.8877 1062 92.4689 441.858 469.172
299 1 39.3633 10.492 413 91.6707 442.746 488.16
300 0 41.3334 11.6613 482 89.2801 443.932 486.921
301 0 45.1996 9.62398 435 91.9563 442.963 486.303
302 0 45.3975 11.5425 524 88.4542 443.555 486.716
303 0 48.4496 11.0424 535 89.7925 444.107 485.385
304 0 47.3943 11.5626 548 91.0474 441.909 484.531
305 0 48.2112 11.9682 577 88.8059 440.073 484.563
306 0 53.1436 12.645 672 86.6949 439.932 486.173
307 0 52.0438 13.162 685 88.3781 440.895 483.585
308 0 52.0438 13.1236 683 132.881 439.889 483.577
309 0 56.0751 13.1609 738 89.0122 440.057 481.065
310 0 60.0589 14.0529 844 86.2749 440.206 481.988
311 0 61.0428 14.1868 866 86.5843 439.65 479.887
312 0 62.0712 14.1612 879 87.4824 438.885 479.13
313 0 64.0422 13.4286 860 87.6802 438.506 479.473
314 0 66.0384 14.2493 941 86.7248 438.239 477.6
315 0 67.146 13.7462 923 88.4518 437.181 474.323
316 0 68.1336 12.5342 854 90.7892 437.125 473.917
317 0 71.114 13.9072 989 88.6926 436.761 471.485
318 0 73.1224 13.4979 987 89.2837 436.977 470.348
319 0 77.055 14.4572 1114 88.2208 437.186 467.399
320 0 78.0534 13.8751 1083 90.0609 437.766 468.253
321 0 83.1324 14.6513 1218 88.5977 437.963 465.503
322 0 84.1714 14.1378 1190 90.6513 438.104 462.263
323 1 43.0227 10.3899 447 92.3311 439.324 484.808
324 0 46.0155 10.4965 483 91.1925 439.596 484.424
325 0 44.0983 9.2067 406 92.7808 440.52 484.239
326 0 47.0448 9.41656 443 92.1919 441.492 480.077
327 0 47.0951 11.0202 519 90.6936 441.915 480.056
328 0 48.0401 10.6578 512 92.8027 442.471 479.006
329 0 50.0938 13.2152 662 91.1012 439.965 481.394
330 0 54.1634 14.1793 768 87.6562 440.613 481.013
331 0 53.3567 14.3749 767 89.5737 439.948 481.04
332 0 55.1194 12.7178 701 93.4736 440.384 480.029
333 0 56.1095 12.8855 723 93.1646 441.451 480.552
334 0 60.0725 13.0509 784 92.5982 442.321 479.758
335 0 61.2641 14.3477 879 91.7292 441.36 477.908
336 0 64.1275 14.4556 927 91.5027 441.463 478.133
337 0 69.1106 15.5837 1077 89.468 441.298 478.636
338 0 71.1466 13.423 955 94.4094 441.056 477.143
339 0 74.0376 15.3436 1136 91 439.114 475.829
340 1 41.0291 11.699 480 92.5917 439.508 491.358
341 0 43.0179 10.2748 442 93.4231 440.195 491.697
342 0 44.0727 12.0936 533 91.925 438.803 490.37
343 0 44.0315 10.6288 468 97.6026 437.694 488.703
344 0 46.0964 10.6299 490 98.1408 437.545 488.641
345 0 49.2047 13.7385 676 93.5192 436.592 486.756
346 0 53.1837 15.6815 834 89.3957 437.188 485.502
347 0 52.1504 14.1322 737 93.0448 436.758 485.189
348 0 54.0937 13.5506 733 94.4188 437.349 484.292
349 0 53.1758 12.5997 670 99.6448 436.966 481.366
350 0 57.2556 13.5533 776 96.4497 436.883 479.986
351 0 56.1858 13.5978 764 98.0222 436.88 478.355
352 0 59.2539 14.4801 858 96.6527 437.155 476.614
353 0 61.0945 14.273 872 97.1663 437.167 476.025
354 0 63.1337 13.7328 867 97.8028 437.685 476.258
355 0 65.073 14.8295 965 96.9845 438.289 473.439
356 0 65.073 14.891 969 149.925 438.273 473.433
357 0 67.1847 15.5541 1045 94.3598 439.21 473.266
358 0 71.0881 14.3203 1018 95.5638 440.582 472.93
359 0 72.2097 14.7487 1065 95.1878 441.387 472.639
360 0 74.1194 14.4766 1073 96.6114 442.513 471.736
361 0 76.2083 14.3948 1097 96.9462 443.167 470.011
362 0 80.2055 13.8893 1114 97.6795 442.847 468.102
363 0 82.2598 14.4785 1191 96.9001 442.432 467.582
364 0 86.2115 13.6061 1173 98.2046 442.044 467.039
365 1 45.1249 10.061 454 140.945 440.813 488.302
366 0 49.0775 10.025 492 97.9329 441.201 488.4
367 0 52.1739 11.3083 590 95.0051 440.998 489.258
368 0 53.1426 13.5108 718 94.5836 441.247 486.845
369 0 54.0368 14.3606 776 94.7848 440.559 484.947
370 0 58.0974 13.5979 790 95.4532 440.533 483.582
371 0 58.1094 13.6295 792 136.149 440.519 483.532
372 0 61.1167 12.337 754 97.9894 440.886 482.736
373 0 62.1071 13.5572 842 96.7755 440.372 480.447
374 0 65.1213 15.1563 987 94.157 439.51 478.892
375 0 68.1863 13.9617 952 97.4254 439.098 476.594
376 0 70.1924 13.9331 978 96.8579 438.775 474.9
377 0 73.0865 14.9138 1090 95.7771 438.367 471.984
378 0 72.1497 13.8601 1000 100.451 438.096 470.612
379 0 76.1289 13.2932 1012 100.976 436.643 468.581
380 0 79.2388 15.0558 1193 97.3663 437.542 469.482
381 0 82.1979 14.9152 1226 99.1623 437.023 465.521
382 1 42.1173 11.373 479 99.929 437.762 485.555
383 0 45.1779 12.0634 545 99.8477 438.646 482.802
384 0 47.2412 11.4942 543 101.794 438.919 481.599
385 0 49.0785 12.9792 637 98.1224 439.243 482.84
386 0 50.0821 13.2582 664 96.7816 439.654 483.176
387 0 52.0568 13.1971 687 97.722 440.18 480.201
388 0 53.2474 12.6579 674 98.2448 441.116 481.165
389 0 54.1591 13.6819 741 97.386 441.536 478.215
390 0 56.1245 13.4522 755 97.4265 442.213 479.376
391 0 59.1257 12.651 748 98.6898 442.779 479.578
392 0 63.152 14.0613 888 95.4336 443.244 479.811
393 0 64.2511 13.6184 875 96.6674 443.459 478.998
394 0 66.1051 13.5391 895 96.781 443.099 479.255
395 0 69.1332 13.4667 931 98.0129 443.643 478.746
396 0 70.2328 12.7718 897 100.866 443.598 477.42
397 0 70.2328 12.7149 893 145.168 443.607 477.359
398 1 40.1248 8.97202 360 100.519 443.339 494.536
399 0 42.1061 10.4973 442 99.5543 443.649 492.563
400 0 43.1144 11.2259 484 97.9897 443.289 490.781
401 0 45.0918 11.9978 541 97.353 442.251 490.161
402 0 47.0534 12.4539 586 97.2218 441.14 488.345
403 0 48.106 12.2646 590 96.3492 440.817 487.59
404 0 49.0559 12.8221 629 96.9094 439.536 485.45
405 0 53.0848 12.3388 655 96.655 439.789 485.031
406 0 53.0407 12.2736 651 97.7465 439.316 483.519
407 0 55.0436 12.2812 676 98.5148 438.598 480.84
408 0 57.0532 12.6724 723 97.881 438.574 480.059
409 0 57.0524 11.7085 668 100.566 438.802 480.183
410 0 59.1336 12.9537 766 100.137 438.223 476.651
411 0 61.1125 12.5179 765 99.3124 438.273 476.507
412 0 65.0907 13.7808 897 93.9599 438.6 476.467
413 0 69.1747 13.7912 954 94.5514 438.52 472
414 0 71.1057 14.0776 1001 93.9271 438.894 472.174
415 0 73.0879 12.9844 949 97.0938 440.724 471.178
416 1 35.0258 10.3638 363 93.8347 441.386 489.975
417 0 38.1078 10.654 406 95.2685 442.808 486.668
418 0 42.0317 12.1575 511 90.7926 443.614 487.521
419 0 42.0517 10.4633 440 93.4955 445.052 488.023
420 0 44.0426 12.3744 545 92.6587 444.088 486.98
421 0 45.0379 11.568 521 94.9213 444.902 487.983
422 0 46.2867 13.5892 629 93.6741 444.569 486.986
423 0 48.129 13.7755 663 93.6712 444.943 487.664
424 0 50.2242 13.1013 658 97.1368 444.438 486.587
425 0 50.13 12.6671 635 98.4283 444.734 486.384
426 0 53.2358 12.0784 643 99.0218 444.296 486.788
427 0 54.161 13.9953 758 95.7942 443.598 485.661
428 0 55.1611 14.1404 780 96.1769 443.76 485.791
429 0 57.1904 13.3939 766 97.9778 443.137 483.329
430 0 58.3202 13.0487 761 99.2352 442.615 485.742
431 0 61.1996 13.4151 821 98.782 442.242 482.73
432 0 64.1341 13.8772 890 97.218 442.344 483.201
433 0 65.2186 13.3398 870 99.2437 439.829 481.239
434 0 67.2212 15.2035 1022 96.4951 439.078 480.621
435 0 69.3022 14.5161 1006 99.7714 438.71 476.521
436 0 69.2131 14.896 1031 100.065 438.092 476.266
437 0 73.3024 14.4334 1058 100.15 437.098 474.865
438 0 76.4913 14.4853 1108 101.755 438.439 471.183
439 1 42.053 11.3666 478 101.841 437.096 488.619
440 0 41.0504 11.0596 454 103.396 437.687 487.5
441 0 43.2069 11.0399 477 104.593 437.008 485.084
442 0 45.1668 11.7343 530 103.543 437.374 485.658
443 0 46.2212 13.4354 621 100.3 436.977 483.672
444 0 49.1768 13.5023 664 98.0497 438.104 484.163
445 0 48.1638 12.2083 588 102.44 439.24 482.094
446 0 51.2726 14.0816 722 98.5125 439.5 482.051
447 0 53.4352 14.3351 766 98.4347 440.521 480.167
448 0 54.2689 12.6776 688 102.955 442.323 479.844
449 0 55.188 14.0973 778 101.253 442.976 479.589
450 0 59.2347 13.8095 818 101.98 444.144 479.227
451 0 60.1704 14.3925 866 101.693 444.177 479.096
452 0 59.1786 13.096 775 106.383 444.505 477.961
453 0 62.256 14.1512 881 104.112 444.985 479.539
454 0 64.1001 14.1965 910 105.71 444.259 479.241
455 0 68.2404 13.8628 946 106.696 443.061 477.992
456 0 72.1669 15.5611 1123 103.072 442.688 477.55
457 0 71.2881 14.3923 1026 108.575 442.97 476.913
458 0 74.341 14.5411 1081 108.575 442.406 475.87
459 1 42.0931 11.5696 487 106.573 442.181 493.528
460 0 42.2245 10.9889 464 107.688 441.453 493.349
461 0 46.1563 13.411 619 103.557 440.864 492.255
462 0 47.0876 13.6979 645 104.107 439.636 491.276
463 0 49.1206 14.3524 705 103.074 439.026 488.695
464 0 50.1009 13.7722 690 104.764 438.688 487.296
465 0 51.143 13.8631 709 105.441 437.134 485.504
466 0 54.1253 14.6327 792 103.692 437.979 484.311
467 0 54.1878 15.1695 822 104.13 438.13 483.718
468 0 56.0566 13.968 783 107.542 438.806 480.581
469 0 60.0732 15.5643 935 103.39 437.213 479.282
470 0 62.0876 14.399 894 106.111 436.876 476.776
471 0 64.1192 14.6446 939 105.618 436.683 475.719
472 0 65.1675 14.1942 925 106.435 436.853 475.052
473 0 69.252 14.5122 1005 104.807 437.68 473.84
474 1 36.0476 10.6526 384 105.354 437.833 489.021
475 0 38.242 10.3551 396 105.535 438.677 488.869
476 0 40.2699 12.9625 522 101.084 440.048 486.898
477 0 40.2343 11.7561 473 102.913 440.989 487.245
478 0 42.1736 12.8991 544 101.392 442.822 485.915
479 0 43.0604 13.5159 582 102.495 445.577 485.375
480 0 46.1881 13.4017 619 101.501 445.008 486.927
481 0 47.1309 12.391 584 105.736 446.127 486.582
482 0 48.0642 14.231 684 103.827 446.548 485.379
483 0 50.2417 14.4103 724 103.209 445.899 486.112
484 0 50.2387 13.2169 664 107.238 444.967 486.821
485 0 52.3217 13.3023 696 107.188 444.616 487.339
486 0 53.2996 14.1652 755 105.809 444.47 486.29
487 0 54.3359 12.8644 699 108.551 443.468 486.359
488 0 56.2224 12.4328 699 109.33 442.903 485.25
489 0 59.2073 13.6639 809 105.329 442.486 484.475
490 0 61.1746 13.4369 822 107.129 441.575 482.684
491 0 66.1663 16.0354 1061 99.9878 440.089 480.568
492 1 35.0591 10.7533 377 102.992 439.642 494.897
493 0 35.0933 10.0019 351 103.695 438.387 493.353
494 0 39.0383 10.938 427 100.044 438.314 493.682
495 0 40.1463 11.7321 471 101.671 438.119 489.471
496 0 40.2231 11.66 469 101.296 437.269 488.623
497 0 41.248 12.2188 504 100.034 436.968 487.349
498 0 42.2201 12.2217 516 99.5194 436.585 486.118
499 0 45.1199 13.2092 596 97.4497 436.975 484.384
500 0 46.1412 12.5918 581 99.0843 437.325 482.967
501 0 48.237 12.8532 620 97.9968 437.798 482.426
502 0 48.1672 12.6642 610 100.334 438.797 480.915
503 0 50.2091 13.8023 693 98.5483 438.97 479.73
504 0 51.1619 12.8807 659 101.099 440.486 478.912
505 0 53.0685 15.659 831 96.1974 441.045 478.479
506 0 55.1359 14.1469 780 99.4051 441.98 479.647
507 0 56.1852 14.0784 791 100.231 443.862 479.607
508 0 57.1926 14.4075 824 100.891 445.184 480.226
509 0 58.1527 13.4817 784 104.449 446.688 477.685
510 0 60.2107 12.7718 769 106.173 446.48 480.113
511 0 65.2164 13.6776 892 103.787 446.178 479.057
512 0 66.2202 13.8326 916 105.618 446.413 479.105
513 0 69.1191 13.7155 948 106.889 445.764 479.49
514 0 72.3125 13.8565 1002 107.925 444.57 478.432
515 1 40.0699 11.0307 442 108.534 443.122 496.14
516 0 39.0231 11.3779 444 112.2 442.018 497.869
517 0 45.0875 12.9748 585 105.256 440.839 495.901
518 0 42.1045 10.3789 437 110.849 439.309 496.437
519 0 45.1368 12.9384 584 106.231 438.861 494
520 0 47.1599 13.5709 640 104.141 437.734 493.97
521 0 48.0806 14.2053 683 104.028 436.041 491.379
522 0 51.0648 14.4914 740 101.804 434.473 491.184
523 0 53.0833 14.3925 764 102.949 433.906 488.774
524 0 55.0958 14.738 812 102.507 432.9 488.01
525 0 56.0881 13.8532 777 106.068 432.556 486.471
526 0 56.1363 13.5207 759 107.642 431.974 484.444
527 0 59.1916 15.4752 916 103.265 431.84 483.104
528 0 61.1853 14.595 893 105.955 430.604 481.199
529 0 62.1462 14.5463 904 107.24 430.192 479.025
530 0 66.0995 14.1 932 107.52 431.119 478.033
531 0 66.0579 14.2148 939 108.733 431.031 476.591
532 0 72.2558 16.1094 1164 102.546 431.489 477.016
533 0 71.1315 13.6648 972 110.765 433.423 472.929
534 0 77.3183 15.0288 1162 105.743 434.905 473.814
535 1 38.1158 9.41867 359 112.396 435.955 490.986
536 0 39.1068 8.54071 334 111.162 438.078 494.94
537 0 42.0321 12.7997 538 106.223 440.052 492.346
538 0 43.3112 12.3294 534 107.427 441.316 492.919
539 0 45.1352 13.4928 609 104.988 442.956 494.606
540 0 46.2131 13.3728 618 105.822 443.348 495.309
541 0 48.1865 14.3609 692 104.149 442.9 496.906
542 0 51.1308 13.5926 695 104.456 439.443 495.535
543 0 53.0771 12.6608 672 107.134 438.131 493.829
544 0 54.1956 12.4549 675 107.492 436.914 493.705
545 0 56.2572 13.5272 761 105.591 434.677 492.615
546 0 61.0764 14.4082 880 101.595 434.059 492.133
547 0 62.0959 15.1057 938 101.986 432.742 490.097
548 0 63.098 14.9133 941 148.937 431.731 490.122
549 0 67.1419 14.8789 999 103.344 430.022 484.999
550 0 70.1808 14.3344 1006 103.631 429.14 483.536
551 0 71.2817 14.3655 1024 105.193 429.236 481.317
552 0 74.2687 14.7438 1095 103.954 428.394 478.534
553 0 75.2 13.9229 1047 107.225 428.727 474.702
554 1 40.1627 11.7273 471 101.234 428.378 492.875
555 0 41.1823 11.1698 460 103.265 428.457 491.9
556 0 41.143 11.934 491 102.444 428.051 489.908
557 0 44.2099 11.2644 498 103.745 428.203 488.217
558 0 45.2477 11.647 527 102.609 428.66 486.97
559 0 46.2472 12.7359 589 101.489 428.997 484.915
560 0 47.2166 13.364 631 102.206 429.754 483.06
561 0 49.2629 12.0984 596 104.539 430.611 482.054
562 0 50.2773 13.5648 682 102.912 432.559 481.13
563 0 50.24 12.2612 616 106.422 434.852 482.37
564 0 54.2976 14.089 765 102.446 437.132 481.728
565 0 54.3245 13.0328 708 105.34 439.757 481.322
566 0 57.3204 13.7298 787 103.355 441.726 482.831
567 0 61.283 13.6579 837 103.769 442.771 481.83
568 0 62.067 13.0988 813 106.438 444.194 481.964
569 0 65.1381 14.1852 924 104.766 443.751 481.316
570 0 67.1436 14.4764 972 103.545 443.094 481.95
571 0 72.1718 13.5233 976 103.464 441.972 482.251
572 0 74.1586 13.4037 994 103.267 439.711 480.617
573 0 75.0964 13.0366 979 104.046 440.265 479.396
574 0 79.0877 13.1373 1039 102.676 439.798 478.381
575 1 44.034 10.8552 478 96.4184 438.722 499.257
576 0 44.0359 11.4225 503 97.4095 437.072 496.247
577 0 46.0382 9.49212 437 97.7346 435.128 496.503
578 0 48.1649 11.5437 556 94.7284 433.345 494.218
579 0 50.1583 13.4375 674 90.8576 432.378 492.435
580 0 50.1195 12.6897 636 93.783 431.272 490.841
581 0 52.2753 12.0898 632 95.4731 430.497 488.256
582 0 54.248 12.9774 704 94.6179 430.037 486.99
583 0 56.1996 12.0819 679 94.0943 429.255 484.75
584 0 59.244 14.685 870 90.5 429.175 482.415
585 0 60.2253 12.9846 782 92.945 429.742 480.951
586 0 61.2268 12.3965 759 95.3874 430.099 480.105
587 0 64.3462 12.899 830 93.4554 430.175 477.504
588 0 65.1765 13.1489 857 93.6663 431.59 477.705
589 0 68.2723 13.8416 945 91.8571 432.237 475.743
590 0 72.2704 14.6256 1057 90.3179 433.543 473.491
591 0 75.2095 15.0247 1130 90.108 434.438 472.563
592 0 77.3252 14.0187 1084 92.7749 435.356 471.141
593 0 81.4404 14.0962 1148 92.6507 438.486 472.605
594 1 43.1159 10.7153 462 95.1991 441.838 490.92
595 0 45.0468 10.0562 453 97.7152 443.32 490.234
596 0 46.073 12.3934 571 95.951 444.76 489.419
597 0 48.067 12.0665 580 97.5828 443.25 489.702
598 0 51.12 13.9085 711 93.1392 443.862 489.664
599 0 53.2301 13.6389 726 91.8444 442.563 492.625
600 0 53.192 12.8967 686 95.6137 441.71 492.942
601 0 57.2383 14.658 839 92.6043 438.992 492.869
602 0 60.2292 14.7769 890 93.0955 439.14 493.851
603 0 62.1594 15.2029 945 94.0159 437.871 491.975
604 0 65.1345 14.0172 913 93.2311 436.084 491.767
605 0 69.2257 14.0988 976 92.04 434.285 492.492
606 0 72.2288 14.5371 1050 92.8257 432.982 489.919
607 0 76.33 14.2539 1088 92.4265 431.904 489.326
608 0 78.1806 14.1723 1108 93.6977 430.677 487.527
609 0 80.1948 13.2926 1066 95.3002 429.231 486.426
610 1 45.0695 10.5615 476 93.9895 430.351 506.49
611 0 49.0766 11.6349 571 92.655 429.135 504.34
612 0 48.1029 11.413 549 94.0055 428.727 502.703
613 0 51.0845 13.233 676 93.5133 427.87 500.275
614 0 52.0943 12.9957 677 94.9335 428.024 499.052
615 0 54.2944 12.4322 675 95.2607 426.99 495.973
616 0 54.075 12.5566 679 99.1164 427.437 492.937
617 0 58.0571 14.3479 833 94.9772 428.424 492.268
618 0 57.0888 14.0308 801 97.6305 428.017 489.788
619 0 59.0447 13.041 770 100.29 428.223 487.574
620 0 61.0522 13.4966 824 99.6153 428.215 486.484
621 0 62.0553 13.2624 823 101.587 429.588 486.253
622 0 66.288 14.6633 972 98.4383 430.377 486.404
623 0 69.0936 14.9363 1032 98.439 431.602 487.229
624 0 72.1025 14.4516 1042 99.4741 433.063 485.29
625 0 73.092 14.4886 1059 100.94 433.849 483.851
626 0 77.2432 16.0532 1240 96.5419 433.783 482.965
627 0 79.1987 14.2679 1130 100.262 433.986 481.288
628 0 83.3071 15.833 1319 96.5785 433.615 482.647
629 0 86.196 14.2234 1226 100.735 433.656 481.599
630 1 39.0269 11.7868 460 96.7044 432.726 506.578
631 0 41.0296 10.3584 425 95.8706 432.986 510.875
632 0 43.0351 10.4334 449 96.4699 431.653 509.655
633 0 42.203 9.64387 407 98.1597 429.572 507.494
634 0 45.1179 12.5006 564 93.4574 429.521 507.202
635 0 46.2388 11.6136 537 95.635 429.458 507.439
636 0 52.1555 13.0763 682 91.0088 426.295 506.076
637 0 52.1704 12.4783 651 93.0215 425.539 504.916
638 0 53.0976 13.0138 691 91.7829 422.757 503.11
639 0 54.2078 12.655 686 93.6808 422.388 499.098
640 0 57.2199 13.0549 747 91.743 422.264 497.594
641 0 59.1702 13.1316 777 91.1982 422.075 494.968
642 0 59.2261 12.3932 734 93.5695 422.582 493.493
643 0 58.3373 12.3077 718 93.617 422.639 492.412
644 0 63.2568 13.7218 868 91.1256 422.772 489.369
645 0 63.1484 12.3677 781 93.3611 423.731 489.676
646 0 66.272 14.7423 977 89.2068 424.309 487.235
647 0 68.1892 14.1078 962 89.0988 425.424 485.475
648 0 72.2432 13.9113 1005 88.7443 426.265 485.296
649 0 73.3912 14.6884 1078 88.1614 426.878 484.299
650 0 74.3715 13.2174 983 91.6297 428.283 483.033
651 1 37.062 9.44364 350 91.2943 430.566 500.551
652 0 40.0169 9.77088 391 90.4783 431.668 500.44
653 0 40.1951 9.03095 363 90.562 432.182 501.416
654 0 42.022 10.5421 443 88.5327 433.445 501.781
655 0 42.0367 12.4415 523 86.8872 434.671 500.189
656 0 46.1208 12.7708 589 85.961 436.185 502.146
657 0 48.2805 13.2144 638 86.8981 435.898 501.79
658 0 48.211 11.4912 554 92.139 435.977 502.572
659 0 51.2182 13.4913 691 88.9725 435.454 501.766
660 0 51.0919 12.9179 660 90.5439 433.727 500.376
661 0 54.2395 12.2973 667 91.1514 431.552 498.985
662 0 56.1623 13.1761 740 91.7108 431.324 498.07
663 0 58.1198 12.3882 720 92.9694 429.461 498.375
664 0 59.2638 14.5789 864 89.6447 428.575 495.402
665 0 61.1453 13.0182 796 93.2487 427.263 491.936
666 0 64.3108 14.1034 907 91.8379 426.181 490.355
667 0 66.3737 13.0925 869 94.8021 425.043 488.815
668 0 69.1983 14.0899 975 92.8851 425.365 487.649
669 0 70.2438 13.5528 952 94.2668 425.216 483.673
670 0 72.2901 13.3075 962 94.9574 425.144 481.666
671 0 76.1941 14.778 1126 93.921 424.834 478.555
672 0 76.3471 13.6482 1042 97.8349 425.419 476.559
673 0 79.2506 13.7538 1090 98.1037 426.694 475.222
674 0 82.2244 15.2145 1251 97.3237 427.083 471.404
675 0 85.322 14.8965 1271 97.4548 428.054 469.834
676 0 88.1389 14.8856 1312 97.843 428.878 469.603
677 1 43.0265 12.2715 528 96.7159 430.188 491.907
678 0 42.0391 9.68146 407 101.727 430.772 490.162
679 0 48.0659 11.1306 535 98.4523 433.153 490.002
680 0 48.0656 12.4621 599 97.9416 435.683 488.461
681 0 50.1252 12.8079 642 97.1713 437.495 490.227
682 0 54.0653 14.8709 804 93.7724 440.192 490.954
683 0 54.0754 11.2806 610 101.289 440.036 491.385
684 0 57.1059 13.2911 759 98.2885 439.827 491.271
685 0 59.0179 14.0296 828 98.8044 441.347 489.016
686 0 63.0933 13.5989 858 100.619 439.829 490.998
687 0 63.119 13.9261 879 102.795 441.044 489.124
688 0 68.2091 14.0304 957 102.693 440.117 488.998
689 0 70.2032 13.8455 972 104.486 437.707 487.753
690 0 73.2627 15.5058 1136 101.974 437.729 485.227
691 0 76.2068 14.5788 1111 104.541 435.275 484.172
692 0 79.2881 14.3527 1138 105.458 434.727 481.875
693 0 80.2714 14.7873 1187 105.623 433.48 479.603
694 0 84.3064 13.8305 1166 108.563 431.579 476.251
695 0 86.2382 15.0861 1301 107.054 429.389 472.94
696 0 91.3787 15.2224 1391 106.416 428.608 472.342
697 0 93.2324 15.2093 1418 107.661 428.281 467.298
698 0 96.2439 15.0036 1444 108.647 428.458 465.735
699 0 98.2802 14.5095 1426 110.41 429.309 461.541
700 0 100.394 14.7419 1480 109.392 430.102 461.996
701 0 104.171 15.561 1621 107.983 429.56 459.119
702 0 107.219 15.557 1668 108.754 430.611 454.361
703 0 112.108 15.9132 1784 106.191 431.464 455.652
704 0 116.279 17.1054 1989 103.598 432.245 453.184
705 0 118.238 15.6802 1854 107.904 434.024 450.457
706 0 125.487 15.651 1964 107.356 434.171 445.539
707 0 129.26 17.105 2211 106.07 436.394 443.12
708 0 133.324 16.3736 2183 108.061 437.653 441.966
709 0 138.218 15.5479 2149 110.161 440.335 444.067
710 0 146.288 16.2283 2374 109.78 442.265 441.121
711 0 151.222 17.0015 2571 109.254 443.722 437.711
712 0 155.318 15.6582 2432 114.048 446.334 435.326
713 0 163.288 16.3944 2677 112.855 446.806 433.323
714 0 167.267 15.9565 2669 115.625 446.38 430.855
715 0 176.234 16.0128 2822 115.743 445.07 428.921
716 0 184.432 18.3916 3392 110.215 444.016 428.076
717 0 193.339 16.9288 3273 113.497 442.429 425.064
718 0 202.598 17.0238 3449 114.032 441.169 417.768
719 1 156.361 12.9572 2026 118.804 441.025 444.775
720 0 164.412 14.4332 2373 116.526 439.795 435.291
721 0 174.45 16.0505 2800 112.324 438.221 433.45
722 0 179.383 16.0884 2886 112.124 436.654 426.904
723 0 188.25 15.6122 2939 112.89 434.799 422.696
724 0 198.309 15.3195 3038 113.388 433.984 416.231
725 1 153.254 13.2199 2026 112.86 433.057 441.904
726 0 158.394 12.8224 2031 115.216 432.614 435.036
727 0 166.29 15.8639 2638 108.555 432.654 433.033
728 0 173.404 16.0665 2786 107.706 431.877 430.171
729 0 179.434 15.2368 2734 109.841 430.634 426.232
730 0 186.334 15.0965 2813 111.188 430.613 418.221
731 0 193.338 15.7186 3039 109.366 430.983 416.204
732 1 56.1903 11.1407 626 103.749 432.038 484.837
733 0 57.1856 10.702 612 104.817 432.538 484.023
734 0 61.0922 11.9492 730 103.234 434.69 480.536
735 0 62.0954 12.3036 764 144.501 435.685 480.997
736 0 66.2855 12.4914 828 101.342 438.161 480.655
737 0 70.2474 13.2389 930 100.512 439.194 478.948
738 0 71.2071 12.5268 892 103.639 440.372 479.274
739 0 77.1332 13.7425 1060 101.792 440.641 477.697
740 0 81.1101 13.0193 1056 103.537 441.578 478.394
741 1 47.0963 10.8076 509 101.992 442.006 498.159
742 0 47.0855 10.3004 485 106.282 442.588 496.852
743 0 50.1276 12.947 649 101.21 441.872 495.47
744 0 52.0994 12.1307 632 103.282 439.589 496.513
745 0 56.1849 14.6659 824 98.9709 439.864 498.465
746 0 59.0298 13.8405 817 102.248 436.524 496.679
747 0 61.0523 15.2492 931 99.3706 433.338 493.912
748 0 63.0407 14.2765 900 102.258 430.327 494.523
749 0 65.1861 12.9936 847 104.36 430.976 492.813
750 0 70.1456 14.4129 1011 101.055 429.864 488.494
751 0 72.1538 14.774 1066 100.07 429.927 485.971
752 1 36.0305 11.518 415 101.378 426.463 501.419
753 0 40.1224 10.5178 422 100.161 425.218 501.758
754 0 42.1007 10.7837 454 99.174 426.504 500.216
755 0 43.1008 11.5543 498 98.8353 426.803 497.835
756 0 44.2243 12.2105 540 99.75 425.981 494.057
757 0 46.1467 12.742 588 96.7024 427.371 492.396
758 0 46.1452 13.1325 606 96.8894 426.795 490.767
759 0 49.1895 13.0109 640 97.1062 427.959 491.984
760 0 51.2058 13.6703 700 96.12 427.643 489.854
761 0 52.1828 14.4492 754 94.439 428.784 487.532
762 0 53.2958 13.4532 717 94.0349 430.757 487.464
763 0 54.146 14.5717 789 94.9518 433.578 487.072
764 0 56.3064 14.4744 815 94.8712 434.636 485.588
765 0 57.1904 14.9151 853 95.6213 435.56 484.09
766 0 61.1953 13.7756 843 96.3203 438.938 486.792
767 0 65.1572 14.9485 974 93.1119 439.904 485.856
768 0 63.2467 15.2103 962 95.21 440.364 484.998
769 0 67.1155 14.706 987 96.6028 440.415 484.212
770 0 72.1862 14.4349 1042 97.4443 440.655 484.289
771 0 73.0894 14.6396 1070 98.9355 439.13 483.343
772 1 38.0691 10.4284 397 102.023 437.955 504.841
773 0 42.2269 12.4802 527 101.493 436.404 502.406
774 0 43.1034 12.18 525 99.7867 434.027 501.811
775 0 45.0529 14.3831 648 88.7114 433.153 499.887
776 0 48.0947 14.3467 690 86.6044 432.542 499.857
777 0 50.06 14.2029 711 87.7904 431.689 498.162
778 0 51.0398 15.3997 786 85.4987 430.977 497.102
779 0 52.0348 14.3366 746 87.8727 429.434 495.327
780 0 55.12 16.2917 898 83.4165 428.798 493.136
781 0 56.0616 14.1273 792 86.8687 428.355 492.395
782 0 58.0973 14.1487 822 87.4647 427.243 488.551
783 0 59.037 14.059 830 87.1422 428.088 486.993
784 0 62.0684 14.4035 894 84.1275 428.678 488.828
785 0 65.1047 16.0204 1043 82.0345 429.23 482.578
786 0 67.1962 15.0008 1008 83.2986 430.385 482.202
787 0 70.0826 16.9514 1188 78.8771 430.461 480.864
788 0 72.1981 15.4436 1115 81.0099 431.458 478.166
789 1 37.0745 12.2456 454 83.3943 431.837 495.76
790 0 38.069 11.7681 448 83.6027 431.46 495.763
791 0 39.0448 11.7045 457 84.081 433.28 495
792 0 42.033 11.8003 496 84.9436 435.444 495.518
793 0 44.0464 12.8501 566 83.5442 437.604 496.518
794 0 46.128 14.7633 681 80.7827 439.881 497.673
795 0 47.1992 14.3646 678 82.7006 440.168 495.789
796 0 52.1593 14.6474 764 82.5681 440.378 496.204
797 0 53.1319 14.6804 780 83.0308 438.964 496.282
798 0 57.0455 15.8119 902 81.5299 437.288 497.667
799 0 60.1237 15.0689 906 83.2241 436.017 497.292
800 0 62.2826 15.3655 957 84.7732 434.461 494.988
801 0 65.1848 15.6172 1018 85.442 432.404 493.8
802 0 69.1536 17.0056 1176 82.7134 431.569 492.381
803 0 71.0643 17.2098 1223 85.26 429.468 489.483
804 0 74.182 15.3541 1139 89.9912 428.634 488.376
805 0 77.1464 15.9826 1233 89.7956 426.609 486.855
806 0 81.1535 16.82 1365 88.5788 425.552 484.815
807 0 84.109 16.3122 1372 91.8076 424.727 480.84
808 0 87.1113 17.2308 1501 93.1146 423.877 478.586
809 0 90.1483 16.6282 1499 95.8326 424.053 473.338
810 0 93.1375 16.6206 1548 96.0426 424.245 472.214
811 0 94.2347 15.61 1471 99.1054 424.528 469.593
812 0 100.144 16.4763 1650 98.0424 424.939 466.378
813 1 52.073 13.6731 712 102.837 426.532 488.069
814 0 56.0525 13.7371 770 101.205 427.399 486.109
815 0 58.1596 17.0737 993 93.3736 428.677 486.848
816 0 63.1179 15.0195 948 97.288 430.222 484.829
817 0 63.118 15.7958 997 98.4283 431.751 482.655
818 0 66.1972 15.5747 1031 97.0679 433.434 483.613
819 0 68.1009 15.7854 1075 98.6837 435.889 480.564
820 0 72.2442 16.7211 1208 97.5538 436.339 479.01
821 0 76.2916 15.8471 1209 99.8056 437.259 477.203
822 0 80.2216 16.4918 1323 99.1731 438.543 478.728
823 0 82.2675 15.717 1293 101.377 438.787 477.611
824 0 87.1172 16.8164 1465 100.081 438.475 474.401
825 1 45.094 12.9064 582 104.206 439.347 497.204
826 0 49.1244 13.2114 649 104.196 439.334 496.752
827 0 51.1525 15.2876 782 100.23 438.166 496.033
828 0 53.1506 14.9011 792 101.335 435.612 494.822
829 0 54.1647 14.5298 787 102.967 435.039 493.616
830 0 58.1175 16.6731 969 97.4933 433.012 493.584
831 0 60.2642 16.0626 968 98.3068 431.992 490.381
832 0 62.166 14.96 930 101.059 430.791 489.329
833 0 65.0647 15.8919 1034 98.6122 429.762 487.182
834 0 66.0556 15.1388 1000 100.826 429.454 485.014
835 0 69.0918 16.0222 1107 98.6739 428.425 481.854
836 0 73.2268 16.0324 1174 97.9591 428.134 480.704
837 0 77.1257 16.1295 1244 95.9751 427.771 479.647
838 0 79.2231 16.6492 1319 94.0152 427.832 477.394
839 1 40.0719 11.704 469 98.4008 429.06 496.292
840 0 42.1001 12.7316 536 97.4664 430.321 495.965
841 0 43.0664 13.5604 584 97.8168 430.563 495.185
842 0 46.1177 13.5523 625 99.128 431.477 493.523
843 0 46.0742 14.4549 666 100.327 432.979 491.92
844 0 48.0616 14.96 719 99.0181 434.04 492.648
845 0 51.0532 15.5328 793 98.0517 435.465 492.566
846 0 53.0598 16.472 874 96.23 436.848 492.574
847 0 55.0432 14.6612 807 100.918 438.88 492.685
848 0 56.116 14.4166 809 101.832 439.816 492.976
849 0 60.0537 14.9699 899 101.582 440.468 493.655
850 0 63.2066 15.5522 983 100.913 440.43 493.221
851 0 66.1119 15.3981 1018 101.751 440.782 494.225
852 0 69.0938 16.4414 1136 100.547 440.416 493.546
853 0 72.1053 15.2277 1098 102.46 438.832 492.711
854 0 77.0427 16.3286 1258 98.3704 436.762 492.846
855 0 78.1072 15.2099 1188 102.105 433.854 489.881
856 0 83.257 17.0316 1418 95.3477 433.03 486.176
857 0 85.1411 16.4198 1398 97.5486 430.496 484.07
858 0 88.1087 16.1392 1422 98.0865 428.262 481.937
859 0 89.1002 14.1189 1258 102.629 426.08 477.956
860 1 49.0522 12.4969 613 99.9788 425.589 498.116
861 0 51.0745 14.1362 722 96.4543 425.442 495.899
862 0 53.0773 15.6753 832 93.6623 425.073 494.519
863 0 53.1371 14.3779 764 98.0982 424.444 491.482
864 0 57.1725 15.462 884 96.0679 424.111 489.805
865 0 59.1348 15.1011 893 97.065 424.405 488.251
866 0 62.0531 15.2934 949 96.4858 424.542 486.621
867 0 61.1168 12.5497 767 101.604 424.82 483.48
868 0 64.1435 14.5923 936 96.2895 425.391 483.274
869 0 66.2289 14.7368 976 96.6721 427.38 480.456
870 0 69.1496 14.9097 1031 95.8186 428.674 481.202
871 0 73.236 15.4705 1133 94.722 429.382 479.015
872 0 75.123 15.3348 1152 95.2292 431.858 479.093
873 0 79.0744 15.8964 1257 94.9125 434.269 478.493
874 0 77.1151 13.9532 1076 100.047 434.906 475.043
875 0 84.3048 15.7998 1332 94.7583 435.088 474.017
876 1 46.052 10.7704 496 99.121 436.438 494.161
877 0 50.0609 11.8656 594 95.5673 436.227 494.128
878 0 52.0386 12.0872 629 97.3672 435.545 492.625
879 0 56.0701 13.394 751 94.6511 434.218 492.041
880 0 59.0633 13.4432 794 94.5365 434.986 491.443
881 0 63.1211 13.8622 875 93.8263 433.158 490.934
882 0 65.1221 13.9584 909 93.9692 431.529 489.497
883 0 68.1135 13.8886 946 95.2907 430.432 487.789
884 0 70.0851 12.8558 901 98.0677 428.617 483.303
885 0 73.1167 13.1707 963 95.2897 427.19 482.194
886 0 76.0829 12.999 989 93.9737 426.407 479.945
887 1 43.0498 11.6377 501 85.7266 425.283 494.695
888 0 46.1107 11.2338 518 83.4826 425.207 495.72
889 0 46.2331 10.6417 492 85.8171 424.467 493.419
890 0 48.062 11.2355 540 86.6815 425.169 490.469
891 0 49.0481 11.0708 543 88.9042 423.657 486.591
892 0 52.1488 11.0645 577 87.0381 425.34 488.714
893 0 54.1728 9.91273 537 78.067 425.179 485.568
894 0 53.3412 11.1921 597 88.8693 425.157 482.36
895 0 57.2882 11.2938 647 88.5688 426.096 481.151
896 0 59.3308 11.596 688 88.532 427.629 479.294
897 0 64.5491 10.7825 696 89.3434 429.555 479.414
898 0 63.376 10.8085 685 91.5693 431.943 479.272
899 0 65.4812 10.7512 704 92.7131 432.774 478.531
900 0 67.4239 10.1744 686 95.5875 434.343 477.889
901 1 37.2178 7.12025 265 91.5736 435.789 495.532
902 0 40.3283 10.6377 429 86.9324 437.392 497.312
903 0 42.2529 9.20647 389 90.581 438.794 495.9
904 0 45.3667 10.5584 479 89.9248 439.747 496.894
905 0 44.141 10.5797 467 92.1092 439.754 498.096
906 0 47.2508 10.7088 506 90.8874 439.186 498.757
907 0 47.2508 10.8358 512 135.074 437.189 498.717
908 0 51.283 9.06734 465 95.1376 436.819 502.114
909 0 53.4103 10.2415 547 92.4625 435.614 501.547
910 0 55.3852 10.6166 588 89.4524 433.236 497.201
911 1 30.0168 7.72902 232 85.0647 432.634 510.815
912 0 32.0672 9.35535 300 84.95 430.56 509.763
913 0 34.086 9.32934 318 86.1069 429.129 508.006
914 0 36.1215 9.05278 327 85.4771 427.856 506.703
915 0 37.2344 9.37305 349 85.6074 426.361 502.754
916 0 39.2106 9.41073 369 85.0894 426.06 501.688
917 0 39.2082 9.58984 376 85.4335 425.681 499.295
918 0 43.2079 11.3174 489 82.8057 426.123 498.607
919 0 42.3229 10.2781 435 87.1218 425.646 497.099
920 0 43.279 8.96509 388 90.1727 425.827 493.271
921 1 23.0064 8.21511 189 84.4974 423.831 505.148
922 0 16.0142 7.306 117 84.5983 424.239 507.47
923 0 22.042 7.12277 157 87.6688 424.637 504.847
924 0 21.0044 6.80811 143 85.0699 426.357 507.112
925 0 29.0422 8.26384 240 81.475 427.604 507.879
926 0 28.0087 7.9261 222 84.7703 429.342 506.441
927 0 31.0095 7.22359 224 85.125 431.491 507.129
928 0 25.0306 8.34979 209 84.6794 432.651 509.153
929 0 26.0439 7.29538 190 88.9368 434.537 508.574
930 0 34.0715 8.68761 296 87.8142 435.138 508.807
931 0 33.1028 9.66686 320 90.1094 435.284 506.122
932 0 34.1743 7.52027 257 91.5331 435.105 508.883
933 0 35.3126 8.35396 295 86.9525 434.366 510.654
934 0 37.2063 7.74063 288 91.2292 433.219 505.389
935 0 38.2228 10.1249 387 88.4884 431.935 508.013
936 0 40.0927 9.25355 371 91.5014 429.307 505.027
937 0 42.0412 11.2271 472 86.7521 429.591 502.943
938 0 43.0674 9.49675 409 93.5477 427.939 502.638
939 0 46.1583 11.4389 528 89.2102 426.898 501.515
940 0 50.0564 13.0852 655 88.0122 425.754 498.565
941 0 49.0821 12.5708 617 89.3096 425.374 496.955
942 0 50.0744 12.9208 647 89.847 424.199 492.713
943 0 52.0321 12.377 644 91.8307 423.657 491.498
944 0 53.199 11.5604 615 91.4455 423.511 490.535
945 0 57.2036 11.9573 684 91.1959 423.351 487.129
946 0 58.1563 12.518 728 90.9451 422.64 485.298
947 0 60.1327 11.9236 717 91.9693 423.289 483.204
948 0 60.3072 11.5243 695 91.8719 424.974 482.281
949 0 63.1885 11.8376 748 91.6537 424.636 477.483
950 0 66.3091 12.9092 856 89.7886 426.737 477.519
951 0 69.2979 11.6165 805 92.1441 426.976 478.735
952 0 72.2292 13.4848 974 89.2731 429.281 476.006
953 1 39.0615 9.26743 362 92.2514 431.21 494.959
954 0 40.0978 9.05286 363 94.3967 433.432 494.14
955 0 43.0427 9.89714 426 91.7418 435.434 495.89
956 0 46.0174 11.061 509 90.7584 437.193 494.454
957 0 47.1064 11.4846 541 92.0037 438.464 494.714
958 0 50.3556 12.1734 613 92.0016 439.152 492.152
959 0 51.3774 11.9118 612 93.6634 438.83 496.129
960 0 52.2427 12.4419 650 95.6431 437.675 494.34
961 0 58.282 12.8513 749 93.5167 437.621 493.856
962 0 58.2061 12.2668 714 96.1471 436.374 493.394
963 0 62.2202 13.1308 817 95.2889 433.882 493.072
964 0 64.1687 12.9191 829 95.4391 434.487 494.942
965 0 64.2617 12.6203 811 97.3255 432.266 490.688
966 0 68.1949 13.4761 919 92.9282 431.236 487.965
967 0 73.2664 14.6452 1073 90.028 430.323 487.953
968 1 39.0455 10.2189 399 95.2306 430.682 499.506
969 0 42.025 9.11362 383 97.6893 428.358 500.426
970 0 42.035 10.063 423 100.501 428.156 497.986
971 0 43.1001 11.8793 512 97.3848 427.447 496.918
972 0 45.1524 11.3172 511 97.0039 426.704 493.663
973 0 46.3979 12.0911 561 94.697 425.622 490.451
974 0 48.2345 12.4807 602 93.9934 425.673 488.611
975 0 50.2418 12.6588 636 93.9686 426.432 489.376
976 0 53.1863 14.1766 754 90.252 427.613 486.068
977 0 54.1674 13.0521 707 92.5403 428.293 485.767
978 0 56.1859 12.8146 720 94.2125 429.674 487.121
979 0 58.2051 13.7101 798 89.4637 429.788 482.221
980 0 59.2525 12.7421 755 92.2146 432.225 481.107
981 0 60.2036 14.2184 856 89.8657 434.595 480.505
982 0 63.0964 12.2035 770 95.0766 436.714 483.347
983 0 67.0365 14.6636 983 89.4639 438.411 481.456
984 0 70.0962 13.6955 960 91.7417 439.701 482.234
985 0 71.1698 13.7418 978 90.7515 439.518 481.298
986 0 74.0511 13.3826 991 93.665 439.966 480.655
987 0 78.3077 13.779 1079 93.4115 439.388 479.708
988 1 44.0779 11.2528 496 90.5867 438.488 499.252
989 0 46.0477 10.576 487 90.54 438.448 501.304
990 0 47.091 11.0212 519 91.3507 436.441 501.177
991 0 50.2969 13.7186 690 86.1174 436.629 502.206
992 0 53.4112 12.9186 690 87.7696 435.726 499.014
993 0 55.2884 14.0536 777 86.0039 433.861 496.894
994 0 56.3016 12.5929 709 88.5444 431.681 494.134
995 0 60.2669 14.4358 870 84.3667 429.443 493.47
996 0 61.0954 13.5526 828 88.593 427.338 492.012
997 0 64.2219 15.0572 967 85.5326 427.52 490.185
998 0 66.2142 13.6527 904 87.4646 426.819 484.622
999 0 71.1426 14.1828 1009 86.8484 426.626 470.106
1000 0 71.3383 14.9849 1069 86.5248 426.833 468.117
1001 0 73.1396 14.6842 1074 88.257 425.86 467.446
1002 0 75.1846 14.1385 1063 89.2568 427.001 468.584
1003 0 77.1363 14.5586 1123 89.6216 427.615 471.183
1004 0 80.4649 14.5405 1170 88.9752 429.182 473.805
1005 0 85.5023 15.7774 1349 87.2491 429.386 469.999
1006 1 47.4088 9.97704 473 89.019 432.395 494.268
1007 0 48.3579 11.7664 569 90.8383 433.162 489.248
1008 0 52.2876 13.7317 718 87.2674 434.556 489.836
1009 0 53.2808 11.3362 604 90.7632 436.093 488.043
1010 0 56.1594 14.4232 810 87.6926 438.194 488.451
1011 0 58.1414 14.0519 817 89.4529 440.595 489.75
1012 0 61.1046 16.2181 991 85.6993 441.131 489.9
1013 0 60.0603 13.22 794 93.2506 441.077 491.248
1014 0 65.2019 14.2327 928 92.139 441.519 490.815
1015 0 67.1497 14.5943 980 90.9663 440.682 492.547
1016 0 72.1976 15.4991 1119 90.0456 439.389 490.064
1017 0 74.2109 15.6446 1161 91.062 438.602 488.74
1018 0 79.1384 16.8313 1332 88.8003 437.097 488.053
1019 0 81.2548 15.1007 1227 93.7449 435.127 486.961
1020 0 85.1991 15.3523 1308 93.7003 433.841 482.953
1021 0 88.3884 14.9454 1321 96.159 432.552 479.852
1022 1 47.0873 10.1514 478 97.9226 431.144 502.151
1023 0 49.08 12.0619 592 96.3801 430.679 498.204
1024 0 50.0836 11.7004 586 95.884 430.452 498.491
1025 0 52.028 11.8398 616 99.211 428.906 493.383
1026 0 54.0858 12.0734 653 98.4824 428.57 491.614
1027 0 56.066 13.3771 750 95.764 427.811 486.721
1028 0 57.217 14.1741 811 95.3046 427.591 485.515
1029 0 61.1522 14.2922 874 93.9531 427.704 484.953
1030 0 61.1756 13.1915 807 97.5613 427.238 483.131
1031 0 65.1438 13.3858 872 96.3796 428.472 480.577
1032 0 67.2388 13.8313 930 95.1753 429.267 480.776
1033 0 68.1885 13.7853 940 96.0043 430.514 479.761
1034 0 72.1439 14.8037 1068 93.9316 432.307 479.062
1035 0 75.2183 13.3611 1005 98.2468 434.12 477.481
1036 0 76.1856 13.7559 1048 98.4179 435.429 478.602
1037 0 80.2091 14.6866 1178 97.2453 437.136 477.977
1038 0 85.344 15.045 1284 96.7593 438.453 478.751
1039 0 88.2109 14.9868 1322 97.0764 439.715 476.812
1040 0 91.1116 15.0255 1369 97.8393 439.579 476.809
1041 1 53.0596 11.1573 592 97.3497 441.243 498.463
1042 0 53.1178 11.2015 595 98.7765 441.136 497.173
1043 0 56.04 12.0271 674 99.6024 439.457 496.421
1044 0 60.0632 12.2371 735 96.332 439.55 497.725
1045 0 63.0487 13.7513 867 93.2999 437.465 496.707
1046 0 65.0761 14.4446 940 92.2692 434.703 493.34
1047 0 68.0345 14.1546 963 92.5992 432.561 491.296
1048 0 71.0777 13.5345 962 93.657 431.531 489.047
1049 0 73.167 13.4487 984 94.4848 429.757 485.522
1050 0 77.0831 13.946 1075 92.9851 428.688 484.142
1051 0 77.1394 13.158 1015 95.8424 427.168 478.095
1052 0 81.1781 14.7577 1198 92.1878 426.594 478.356
1053 0 83.2349 14.7775 1230 92.6415 427.311 473.002
1054 0 84.1042 14.6247 1230 92.8943 427.611 470.024
1055 0 90.2226 14.3312 1293 93.1299 427.424 469.063
1056 0 92.1402 13.7833 1270 93.578 428.07 466.398
1057 1 48.0696 8.07162 388 97.8247 429.09 483.796
1058 0 50.0361 8.25404 413 95.2373 430.973 484.61
1059 0 54.0715 11.8732 642 90.0436 431.657 482.106
1060 0 56.039 10.7782 604 90.6589 432.608 482.556
1061 0 57.1567 12.5795 719 87.025 432.641 480.498
1062 0 61.1452 11.3173 692 90.8526 433.665 482.064
1063 0 60.1362 13.1036 788 89.5254 435.258 478.857
1064 0 65.1927 13.3911 873 87.7297 436.544 481.294
1065 0 69.1341 12.9459 895 87.7687 438.636 480.733
1066 0 70.1336 12.1625 853 89.8558 440.104 479.537
1067 0 75.1384 14.8792 1118 84.644 441.127 480.3
1068 0 76.284 12.4535 950 90.021 441.2 477.709
1069 0 78.1776 12.9193 1010 90.1614 440.667 478.644
1070 0 83.2144 12.5579 1045 90.7263 438.63 476.298
1071 0 89.1884 13.8135 1232 88.9253 438.835 477.17
1072 0 93.2005 14.0021 1305 88.2981 436.969 477.737
1073 1 53.036 9.72924 516 90.6124 436.2 495.93
1074 0 54.0837 10.4653 566 90.0777 436.707 492.412
1075 0 58.0857 11.0354 641 88.8424 435.442 491.041
1076 0 59.1147 11.6384 688 86.1541 432.983 492.743
1077 0 63.2488 12.6959 803 85.868 431.386 487.554
1078 0 63.0335 12.533 790 86.657 431.273 484.466
1079 0 66.034 11.5698 764 88.5641 430.364 481.923
1080 0 70.0442 12.0781 846 86.4114 430.775 479.52
1081 0 73.0965 14.3098 1046 82.6864 430.786 477.307
1082 0 74.1209 12.9923 963 85.3001 431.153 473.593
1083 0 78.1192 12.8778 1006 85.6938 431.909 471.622
1084 0 79.1942 11.3266 897 89.3378 430.69 471.078
1085 0 82.0973 12.0223 987 89.0233 430.836 470.486
1086 0 84.1363 12.3252 1037 90.9354 431.308 464.703
1087 0 89.0595 13.519 1204 89.0125 433.208 465.243
1088 0 90.1988 13.0046 1173 91.6496 433.776 462.255
1089 1 54.0936 11.8314 640 87.2234 436.073 485.834
1090 0 53.3291 9.52576 508 93.1968 438.368 485.74
1091 0 58.1718 10.1596 591 91.1574 438.953 486.597
1092 0 61.3941 12.379 760 88.9816 440.874 484.884
1093 0 64.1609 13.4038 860 87.0674 442.79 484.609
1094 0 66.2335 12.8334 850 87.5776 442.687 488.191
1095 0 67.3194 13.4731 907 87.5402 443.079 487.893
1096 0 69.2509 12.8807 892 89.0292 442.719 485.507
1097 0 72.36 14.0824 1019 88.2699 441.693 484.197
1098 0 77.3622 14.8522 1149 87.1131 439.904 482.614
1099 0 79.2342 13.2266 1048 90.3817 438.904 483.861
1100 0 85.2683 16.0787 1371 85.2728 437.491 480.857
1101 1 47.14 9.43997 445 88.9124 436.249 503.721
1102 0 48.0959 11.7889 567 87.9877 435.422 501.293
1103 0 50.1233 11.1325 558 89.3477 433.26 498.697
1104 0 53.2477 12.3386 657 90.6256 431.306 495.667
1105 0 53.2156 12.4775 664 90.9277 431.154 493.09
1106 0 56.1803 13.5635 762 88.0289 430.614 490.929
1107 0 56.2092 13.7166 771 89.0908 430.984 489.668
1108 0 59.1223 14.2755 844 88.0829 431.118 487.182
1109 0 61.1683 14.7789 904 87.1604 430.917 485.226
1110 0 62.1153 14.5697 905 89.7635 430.428 483.146
1111 0 62.0939 13.3347 828 93.128 431.13 482.676
1112 0 67.1478 14.9819 1006 89.0308 431.684 483.137
1113 0 67.1776 15.5111 1042 89.9376 432.235 478.312
1114 0 68.134 14.8237 1010 92.6178 433.252 477.787
1115 0 74.1915 16.2418 1205 89.6954 434.74 477.801
1116 0 75.0729 15.0121 1127 93.8332 436.513 475.72
1117 0 77.4159 14.9969 1161 94.7519 437.618 475.126
1118 0 82.22 15.4829 1273 95.8068 438.686 476.178
1119 0 84.2076 14.963 1260 98.5421 440.859 475.548
1120 1 45.1305 12.1869 550 103.022 442.487 494.249
1121 0 47.2089 11.6504 550 105.496 444.064 495.182
1122 0 47.3663 11.675 553 105.694 443.66 498.107
1123 0 51.179 12.7201 651 105.882 443.012 496.877
1124 0 54.1143 12.8617 696 105.668 441.731 497.006
1125 0 55.1443 14.9426 824 102.597 439.596 496.718
1126 0 55.1443 14.9789 826 158.925 437.577 496.708
1127 0 61.107 15.1538 926 103.27 436.573 494.095
1128 0 65.0868 15.6867 1021 101.356 434.934 493.228
1129 0 67.1083 15.1397 1016 103.922 433.524 488.234
1130 0 72.3384 16.2293 1174 100.309 432.253 486.687
1131 0 73.2812 15.8431 1161 101.781 430.402 483.223
1132 0 76.2294 15.4927 1181 101.962 429.587 480.495
1133 0 79.4915 16.1904 1287 100.692 429.095 478.535
1134 0 83.3347 15.4198 1285 101.613 428.868 475.43
1135 0 86.3558 14.255 1231 103.716 428.853 475.275
1136 0 88.3356 14.5128 1282 105.447 429.572 468.367
1137 0 93.5238 15.6217 1461 100.72 429.511 465.991
1138 0 96.358 16.7189 1611 98.5227 429.435 465.994
1139 1 51.1938 10.2551 525 106.775 428.398 486.608
1140 0 55.2695 11.5796 640 101.577 429.052 486.214
1141 0 59.263 12.318 730 101.147 431.11 485.029
1142 0 62.1998 14.775 919 96.7856 432.777 484.816
1143 0 62.1758 13.687 851 100.361 434.783 483.083
1144 0 65.2604 14.3885 939 98.4494 435.888 482.868
1145 0 68.1288 14.6194 996 96.8785 438.452 483.834
1146 0 71.2374 13.5603 966 98.7547 440.655 483.43
1147 0 76.2728 15.4708 1180 93.683 442.038 482.203
1148 0 78.1902 14.0171 1096 98.2016 443.298 482.401
1149 0 80.221 13.039 1046 100.185 443.042 479.99
1150 0 87.2799 15.181 1325 94.4853 442.64 481.297
1151 0 90.4369 15.2814 1382 94.8553 439.459 478.284
1152 0 97.3731 16.8835 1644 91.1788 438.738 478.768
1153 0 99.2752 14.7368 1463 97.5844 437.89 475.669
1154 0 103.431 16.2234 1678 95.0256 436.221 474.864
1155 1 60.3165 12.2023 736 97.9905 434.817 494.08
1156 0 61.2596 12.1124 742 98.7332 433.426 492.623
1157 0 65.2525 10.8808 710 100.504 432.104 491.397
1158 0 68.1701 14.3905 981 94.9541 430.686 490.078
1159 0 69.1768 13.6896 947 98.6315 430.005 486.205
1160 0 73.3112 13.395 982 99.9206 428.336 483.963
1161 0 77.4124 15.3076 1185 95.6042 427.384 481.766
1162 0 78.4089 13.8377 1085 100.681 427.223 478.888
1163 0 82.3664 14.8604 1224 98.3717 426.709 474.322
1164 0 87.4672 13.9252 1218 99.8678 427.006 472.857
1165 0 90.2745 16.2061 1463 95.1866 427.936 470.874
1166 0 92.3252 14.8713 1373 99.0903 428.477 468.332
1167 0 93.2892 14.5569 1358 101.652 428.652 463.322
1168 0 100.273 14.8295 1487 99.0289 429.746 464.278
1169 0 102.317 15.8624 1623 98.0068 430.453 460.34
1170 1 54.1648 11.7604 637 101.684 431.16 485.028
1171 0 56.1596 11.7166 658 100.251 432.252 484.043
1172 0 60.1618 13.4471 809 98.0705 434.858 482.925
1173 0 61.1365 13.2163 808 99.1361 437.217 483.014
1174 0 62.1967 13.3287 829 98.0133 439.06 483.273
1175 0 65.1639 13.2589 864 97.8229 440.387 481.964
1176 0 68.1677 13.8776 946 98.6015 442.189 483.682
1177 0 72.1375 14.9991 1082 96.2579 442.303 481.659
1178 0 76.4085 14.344 1096 98.2117 442.432 481.354
1179 0 79.2754 14.7839 1172 97.9061 441.532 481.97
1180 0 81.1202 14.7559 1197 98.5706 440.179 479.642
1181 0 85.3351 15.2106 1298 97.9445 439.682 479.861
1182 0 91.2831 16.0818 1468 95.904 437.356 476.281
1183 0 93.2478 14.0271 1308 100.748 436.32 475.911
1184 1 51.0236 10.6813 545 101.284 434.644 495.939
1185 0 52.0691 11.0238 574 102.282 432.803 493.847
1186 0 55.0862 12.9434 713 100.792 431.48 489.181
1187 0 59.1757 13.857 820 95.9805 430.034 488.506
1188 0 60.0422 14.1068 847 96.6116 429.456 486.295
1189 0 61.0527 14.2008 867 96.8478 428.709 484.355
1190 0 64.0551 14.5656 933 95.1426 427.7 480.721
1191 0 66.0648 14.4706 956 94.4216 427.804 479.183
1192 0 71.1246 15.5642 1107 92.0921 427.152 475.827
1193 0 71.1993 15.1406 1078 93.884 428.263 475.335
1194 0 75.1144 15.097 1134 93.5273 428.699 471.78
1195 0 77.2208 14.9053 1151 93.5586 430.379 471.185
1196 0 81.1507 14.9229 1211 92.4715 431.778 467.677
1197 0 85.1916 15.1306 1289 91.588 432.161 468.338
1198 1 44.081 8.68855 383 98.2245 432.723 485.05
1199 0 49.0874 11.4082 560 92.3911 434.077 484.82
1200 0 49.1528 10.7217 527 94.9431 436.482 481.958
1201 0 53.1346 12.8542 683 90.3411 440.051 483.026
1202 0 55.1158 12.6461 697 91.5237 440.835 483.362
1203 0 57.04 13.3941 764 89.7264 441.58 482.554
1204 0 59.0508 14.3436 847 87.4687 443.491 483.828
1205 0 61.157 14.9942 917 86.0632 443.854 485.608
1206 0 62.2161 14.7872 920 87.8424 443.67 482.975
1207 0 66.1182 14.3985 952 88.9958 442.886 483.246
1208 0 69.1696 14.5729 1008 90.0089 440.964 480.915
1209 0 71.1001 15.1336 1076 90.6078 439.807 480.479
1210 0 73.0807 15.3666 1123 91.4604 437.804 481.449
1211 0 77.0914 15.099 1164 92.9278 437.387 479.407
1212 0 78.0742 13.564 1059 98.0397 435.734 475.623
1213 0 82.2663 14.1978 1168 97.262 434.476 474.051
1214 0 87.1036 15.8547 1381 93.9204 432.618 474.66
1215 0 88.1486 15.2016 1340 97.1806 431.296 470.395
1216 0 91.0692 14.4615 1317 99.8474 430.896 467.453
1217 0 93.0473 15.6909 1460 98.289 430.138 463.445
1218 0 98.1144 16.3483 1604 96.8454 430.88 460.926
1219 0 101.105 15.3306 1550 98.4432 430.648 459.675
1220 0 106.214 14.8098 1573 99.9294 431.118 458.337
1221 1 65.1499 11.0054 717 102.001 430.206 478.679
1222 0 67.101 11.9968 805 98.7068 431.01 478.114
1223 0 68.054 12.9162 879 99.074 431.499 474.561
1224 0 71.0889 13.7434 977 96.263 432.292 474.409
1225 0 73.0682 14.0964 1030 97.0184 433.598 472.594
1226 0 77.1301 13.4707 1039 96.6275 435.88 475.243
1227 0 78.0577 13.3363 1041 99.6052 438.268 469.752
1228 0 79.1519 12.596 997 101.618 440.089 470.276
1229 0 85.1502 13.7639 1172 98.6997 441.962 472.724
1230 0 90.2202 14.1764 1279 97.7271 442.489 472.837
1231 0 93.2744 15.0309 1402 98.0435 442.915 470.588
1232 0 95.0779 15.0719 1433 99.6971 443.359 469.756
1233 0 101.14 15.7504 1593 98.4394 443.277 469.058
1234 0 106.179 14.89 1581 99.6224 443.272 469.509
1235 1 63.0335 11.4701 723 98.3527 441.66 489.618
1236 0 66.0531 11.2939 746 96.4464 441.617 492.09
1237 0 72.0898 12.6648 913 94.3319 440.084 490.752
1238 0 71.1504 13.0006 925 96.4249 437.894 485.703
1239 0 76.1744 13.2984 1013 96.0997 436.351 486.116
1240 0 77.1098 12.1515 937 97.984 435.574 484.57
1241 0 80.1381 13.3145 1067 96.4086 434.007 480.855
1242 0 85.2228 12.4849 1064 99.3835 432.61 478.064
1243 0 90.1685 13.5635 1223 97.7547 431.363 475.917
1244 0 91.0959 12.7997 1166 100.483 430.151 472.678
1245 0 97.0978 12.5132 1215 99.5276 430.566 471.332
1246 1 58.0634 9.74796 566 95.8516 430.422 489.124
1247 0 61.053 10.4335 637 95.3862 429.936 487.656
1248 0 59.0516 11.1259 657 96.4399 430.642 484.953
1249 0 63.0418 10.4692 660 95.6091 431.841 483.708
1250 0 65.2403 10.8522 708 97.4167 431.028 481.281
1251 0 68.1769 11.6168 792 95.9646 432.234 480.683
1252 0 70.1705 11.2155 787 95.9416 433.643 481.562
1253 0 75.2765 12.0091 904 95.5254 434.969 479.829
1254 0 77.3262 11.6002 897 97.2163 436.215 477.862
1255 0 81.2464 13.7729 1119 96.303 439.017 476.534
1256 0 84.1815 12.0573 1015 100.792 440.431 477.208
1257 0 88.1998 12.1542 1072 102.993 443.406 476.727
1258 0 89.3145 12.26 1095 106.486 443.339 474.483
1259 1 53.1229 9.22389 490 101.463 443.961 497.698
1260 0 56.0691 11.1648 626 101.974 443.054 495.968
1261 0 60.1343 11.6572 701 101.877 442.271 495.833
1262 0 58.0676 11.4866 667 106.615 441.273 494.057
1263 0 63.0967 12.774 806 105.466 439.466 492.795
1264 0 66.2123 13.5624 898 103.249 437.172 492.893
1265 0 67.2096 12.5875 846 108.155 433.675 490.404
1266 0 72.3436 12.7447 922 107.433 431.553 487.288
1267 0 75.4736 12.1367 916 108.015 430.052 486.666
1268 0 76.2824 13.8302 1055 106.484 428.884 483.314
1269 0 81.3615 12.9668 1055 108.737 428.571 480.399
1270 1 47.2014 9.25819 437 108.368 428.828 497.169
1271 0 48.1862 9.56705 461 107.121 429.028 495.716
1272 0 50.17 11.2019 562 105.655 428.144 493.039
1273 0 51.1716 11.2562 576 105.906 428.283 489.811
1274 0 53.0624 11.5148 611 104.754 428.828 488.977
1275 0 56.1236 13.0961 735 101.328 428.336 486.72
1276 0 57.236 12.7367 729 102.379 428.402 486.082
1277 0 57.1875 11.8557 678 105.826 428.794 484.077
1278 0 60.1442 13.8667 834 101.573 429.348 483.338
1279 0 60.1898 12.2944 740 104.435 432.399 485.016
1280 0 63.218 13.0343 824 103.678 433.755 481.422
1281 0 64.222 11.8651 762 105.913 435.73 482.765
1282 0 66.1825 12.7224 842 102.752 438.331 481.028
1283 0 70.1683 12.8548 902 102.237 439.059 482.224
1284 0 74.203 13.6383 1012 99.3478 441.268 480.44
1285 0 75.174 13.3291 1002 101.628 442.45 479.169
1286 0 78.2903 13.4883 1056 103.139 441.236 478.021
1287 0 82.1662 13.9352 1145 101.808 441.525 478.493
1288 1 49.1263 10.3611 509 101.676 440.766 497.9
1289 0 48.2807 9.23764 446 103.856 439.222 498.823
1290 0 51.0407 11.4223 583 100.475 438.907 498.52
1291 0 53.165 10.9471 582 101.6 435.529 493.122
1292 0 55.2017 13.0793 722 100.766 434.312 494.569
1293 0 55.1741 12.7234 702 101.523 434.433 492.66
1294 0 58.2712 12.8194 747 101.866 431.985 490.831
1295 0 58.3126 12.2958 717 102.784 431.054 488.862
1296 0 62.1408 13.228 822 99.8285 431.139 489.665
1297 0 63.2355 13.5683 858 99.5186 431.483 486.009
1298 0 65.2219 13.0631 852 100.899 430.523 483.153
1299 0 68.1797 13.4938 920 99.1206 429.068 480.779
1300 0 70.1286 14.3451 1006 97.7992 429.101 477.066
1301 0 72.2134 13.0031 939 99.9393 428.266 476.247
1302 0 75.233 14.9403 1124 96.1895 429.502 472.827
1303 0 78.3477 13.823 1083 99.2382 430.277 473.162
1304 0 80.3079 14.6561 1177 97.4359 431.895 471.382
1305 0 82.3957 14.042 1157 99.204 432.864 469.194
1306 0 84.4896 14.2029 1200 99.9117 434.667 467.028
1307 0 90.3957 14.5471 1315 98.1262 436.438 465.888
1308 1 49.4002 10.7489 531 98.2731 440.348 488.175
1309 0 52.1656 11.7319 612 97.9265 441.047 487.391
1310 0 55.0747 11.439 630 98.3667 442.77 488.473
1311 0 57.215 12.4268 711 97.5302 444.037 488.214
1312 0 57.033 11.8002 673 99.3566 443.673 486.404
1313 0 61.0763 13.9498 852 97.4836 445.007 488.035
1314 0 64.0788 13.2025 846 99.4882 445.584 485.812
1315 0 66.0698 13.4252 887 98.1522 443.691 486.566
1316 0 69.1089 14.5423 1005 95.1373 442.91 485.599
1317 0 72.1381 13.5712 979 97.7007 441.101 484.908
1318 0 75.1268 13.3907 1006 97.0934 439.923 481.82
1319 0 79.179 14.0441 1112 95.4236 437.186 479.335
1320 0 83.2392 14.128 1176 94.4651 434.893 477.144
1321 0 86.2956 13.3495 1152 95.9557 434.069 475.799
1322 0 90.2017 14.2569 1286 94.1718 432.116 474.181
1323 1 51.0679 11.5924 592 93.1166 432.235 492.824
1324 0 54.1039 11.2376 608 93.4951 432.245 490.038
1325 0 53.0547 10.9698 582 95.1701 431.838 485.756
1326 0 55.0728 11.9115 656 94.8247 431.418 483.517
1327 0 61.1062 12.8956 788 90.7043 432.359 481.595
1328 0 61.0691 12.5268 765 92.4837 433.718 480.061
1329 0 65.1397 13.2024 860 90.0988 433.674 479.478
1330 0 67.145 13.8804 932 88.618 434.541 478.218
1331 0 68.0854 13.6446 929 89.1033 434.914 476.358
1332 0 72.1206 13.5745 979 89.1685 435.642 475.882
1333 0 74.1397 12.2741 910 92.0077 436.767 474.506
1334 0 77.2071 13.8588 1070 89.4514 438.832 474.901
1335 0 80.1874 13.7677 1104 90.0544 441.319 471.81
1336 0 85.1342 14.7179 1253 88.9784 443.117 473.409
1337 0 90.2149 15.3855 1388 87.7644 444.836 471.924
1338 1 50.0807 9.24507 463 93.6264 446.175 495.46
1339 0 53.1897 12.0512 641 90.9766 447.184 492.789
1340 0 56.1309 13.4507 755 88.1788 445.939 493.236
1341 0 59.163 14.1474 837 88.6774 445.32 491.409
1342 0 60.265 13.6895 825 91.103 444.358 492.292
1343 0 63.3214 13.5815 860 91.9488 442.746 489.533
1344 0 65.0576 13.0653 850 93.8824 440.098 490.819
1345 0 70.3985 15.0856 1062 89.8776 438.709 487.89
1346 0 72.2951 12.9608 937 94.9584 437.515 487.38
1347 0 77.3712 14.4369 1117 91.6097 436.234 485.225
1348 0 78.3125 15.3871 1205 90.9427 434.772 480.947
1349 0 83.4614 15.1687 1266 90.8483 433.909 478.46
1350 0 85.3105 13.6091 1161 95.4324 432.92 475.885
1351 0 89.3083 16.4486 1469 91.9809 431.591 470.255
1352 0 94.1858 14.5882 1374 95.5619 431.54 468.158
1353 1 48.1377 12.0695 581 98.6833 431.124 490.358
1354 0 53.1722 13.2024 702 93.0769 431.566 487.882
1355 0 57.1764 11.5607 661 95.6384 431.908 485.168
1356 0 56.1574 15.2251 855 93.1205 431.89 483.813
1357 0 57.2019 14.9645 856 94.8738 432.657 483.762
1358 0 58.169 13.8734 807 96.71 433.548 482.074
1359 0 63.1649 14.6125 923 94.7584 435.205 479.463
1360 0 65.1178 15.9096 1036 92.7374 436.098 478.335
1361 0 66.259 15.9978 1060 93.134 437.812 479.735
1362 0 70.2231 16.3479 1148 92.5671 439.901 481.564
1363 0 70.1038 15.8907 1114 94.763 441.744 482.837
1364 0 70.1746 14.2787 1002 99.2774 444.197 483.899
1365 0 73.1496 15.8306 1158 97.12 444.752 483.094
1366 0 76.2646 15.4987 1182 98.0212 445.011 482.152
1367 0 77.1602 15.6039 1204 99.9801 444.883 483.098
1368 0 79.2775 16.2089 1285 99.007 443.983 483.872
1369 0 82.1796 18.0093 1480 95.1655 441.851 483.557
1370 0 84.1264 16.4514 1384 98.565 439.71 483.246
1371 0 84.1953 15.2503 1284 102.463 438.953 482.951
1372 0 85.237 15.8734 1353 101.489 437.843 481.269
1373 0 85.2427 15.4617 1318 101.982 436.228 481.763
1374 0 86.1715 15.7013 1353 101.956 435.166 480.508
1375 0 86.1976 14.5828 1257 105.289 433.804 478.692
1376 0 88.296 14.9724 1322 103.872 431.661 478.014
1377 0 88.1742 16.5468 1459 101.193 430.121 473.845
1378 0 90.2435 18.1509 1638 95.9023 429.662 471.673
1379 0 91.1659 17.2433 1572 98.3747 429.606 473.13
1380 0 90.2487 16.4878 1488 100.336 430.127 470.38
1381 0 90.2603 15.9317 1438 100.846 430.749 469.757
1382 0 90.1104 15.4033 1388 101.596 431.115 468.369
