time division length width area intensity CMx CMy
0 0 40.1074 14.2368 571 136.548 442.51 490.832
1 0 43.3298 14.2396 617 134.431 442.436 490.4
2 0 45.148 14.1091 637 133.89 443.344 491.284
3 0 43.2261 15.4305 667 131.307 442.106 490.115
4 0 45.2388 14.5892 660 133.977 443.38 488.723
5 0 48.2645 14.5034 700 129.851 445.076 490.921
6 0 49.154 13.8544 681 133.264 444.746 489.668
7 0 48.1151 14.4861 697 130.974 444.67 488.643
8 0 50.3057 14.4516 727 129.972 444.29 486.846
9 0 52.4382 13.9211 730 130.001 444.441 486.737
10 0 51.3288 14.3389 736 128.988 444.189 486.87
11 0 54.3045 15.3947 836 124.99 444.187 486.419
12 0 54.3709 14.5482 791 128.197 443.249 485.429
13 0 57.2943 14.0503 805 125.74 444.027 486.709
14 0 56.2433 14.1172 794 129.233 444.23 484.744
15 0 58.2398 14.011 816 128.417 443.882 484.593
16 0 60.103 14.5916 877 125.675 443.473 485.202
17 0 63.0957 14.5652 919 124.108 442.871 484.597
18 0 62.1413 13.7268 853 128.961 443.354 483.331
19 0 65.0399 15.5136 1009 122.934 445.105 481.021
20 0 68.1006 14.5667 992 124.208 444.217 480.688
21 0 71.076 15.406 1095 123.162 445.011 478.128
22 1 37.0281 12.0719 447 122.378 446.895 495.868
23 0 37.0967 10.54 391 126.159 447.023 495.225
24 0 39.0126 11.6116 453 123.627 447.296 493.294
25 0 42.0658 12.2665 516 120.151 447.463 493.762
26 0 41.1036 10.9479 450 122.424 446.044 494.089
27 0 45.0205 13.1718 593 117.653 446.454 491.592
28 0 45.0534 13.0068 586 120.285 446.834 490.082
29 0 47.0939 13.42 632 118.774 447.12 488.676
30 0 47.0844 14.0174 660 115.815 447.348 488.589
31 0 47.152 13.4883 636 117.879 447.472 488.258
32 0 51.2152 13.8435 709 116.599 447.25 488.202
33 0 52.1617 14.7235 768 114.698 447.336 485.895
34 0 53.1195 15.964 848 112.16 448.298 485.728
35 0 53.0513 14.4012 764 118.886 448.538 484.563
36 0 54.0816 14.0528 760 120.568 448.8 483.934
37 0 56.0663 15.339 860 116.383 448.627 485.269
38 0 60.1426 15.3967 926 115.722 449.083 484.009
39 0 60.0477 15.1213 908 116.3 448.059 484.436
40 0 61.0457 14.3827 878 118.986 448.533 482.139
41 0 64.1222 16.7804 1076 113.802 448.362 481.993
42 0 66.293 14.979 993 117.789 448.566 481.371
43 0 67.1445 16.889 1134 113.903 448.951 480.436
44 0 69.0802 15.5182 1072 117.549 448.754 478.306
45 0 71.1557 15.2201 1083 117.958 449.596 479.633
46 0 74.1973 15.9709 1185 116.305 449.78 478.082
47 0 76.2285 16.3718 1248 116.868 449.984 475.202
48 0 79.2842 15.5516 1233 118.197 449.85 473.335
49 0 81.2123 14.4683 1175 119.946 449.614 474.015
50 0 85.3493 16.3095 1392 113.836 448.962 471.44
51 0 88.352 16.4343 1452 113.125 448.75 469.972
52 0 92.3693 16.7047 1543 110.465 449.262 471.917
53 0 93.257 15.5484 1450 114.077 449.663 467.237
54 1 50.2321 11.9246 599 115.204 449.731 489.346
55 0 50.2406 11.0866 557 116.33 450.404 489.91
56 0 51.1971 11.9147 610 114.636 449.405 489.321
57 0 53.11 11.5986 616 116.323 450.034 487.659
58 0 55.3132 12.9083 714 115.113 449.014 485.129
59 0 57.3088 14.3259 821 111.562 449.024 483.78
60 0 59.2041 13.8842 822 112.881 449.072 482.434
61 0 62.2377 15.0713 938 108.777 448.613 482.389
62 0 63.0971 14.2796 901 111.454 448.344 480.277
63 0 66.1272 14.8199 980 110.468 448.517 479.659
64 0 69.2043 15.0569 1042 110.302 447.657 477.542
65 0 70.2502 15.5302 1091 109.938 448.185 475.105
66 0 73.2007 15.2321 1115 108.502 447.974 475.175
67 0 76.2385 15.0711 1149 109.25 447.808 473.526
68 0 78.1443 14.7292 1151 107.436 447.983 472.702
69 0 80.0741 16.21 1298 104.65 447.526 470.92
70 0 83.1925 15.1216 1258 107.196 446.38 467.591
71 0 87.235 16.8396 1469 103.525 447.15 468.121
72 0 89.1702 14.534 1296 108.208 445.65 463.783
73 0 89.2713 16.265 1452 105.428 446.254 460.713
74 0 94.4601 15.3292 1448 106.704 446.577 461.426
75 0 93.4618 15.0222 1404 150.002 447.651 460.788
76 1 52.1582 9.26029 483 110.807 449.195 484.58
77 0 56.1239 10.851 609 108.118 449.207 483.941
78 0 59.0692 12.8663 760 104.893 448.879 481.986
79 0 59.1355 12.9195 764 103.321 449.094 482.414
80 0 61.064 12.0857 738 105.088 449.854 480.458
81 0 64.1958 12.8046 822 102.251 450.74 480.858
82 0 65.2319 12.5705 820 105.056 450.404 479.643
83 0 69.3151 13.7344 952 101.254 450.354 478.866
84 0 70.2442 13.9798 982 100.351 450.303 477.262
85 0 71.1825 13.0791 931 103.085 450.53 475.612
86 0 77.3767 13.8672 1073 101.991 451.213 473.808
87 0 79.2966 14.2251 1128 102.352 451.116 472.498
88 0 82.2982 13.1959 1086 103.008 451.039 472.573
89 0 86.3107 14.2277 1228 100.323 450.384 469.16
90 0 89.2274 15.5782 1390 97.9777 450.04 467.512
91 0 88.2563 12.9849 1146 104.133 450.941 462.843
92 0 94.2355 15.1217 1425 99.9025 451.681 463.138
93 0 97.3502 14.2167 1384 102.388 450.947 464.709
94 0 100.32 13.8556 1390 103.903 450.724 459.72
95 1 51.1933 8.92696 457 103.751 452.35 486.947
96 0 55.0992 12.0147 662 99.4335 452.725 484.625
97 0 55.0981 12.4324 685 100.401 452.896 481.877
98 0 55.497 12.4151 689 99.0813 451.171 482.972
99 0 58.3444 11.8606 692 100.649 451.199 481.831
100 0 60.2885 13.7505 829 98.8782 452.238 481.297
101 0 63.2845 12.9416 819 101.194 452.955 480.189
102 0 67.3117 14.9305 1005 95.996 453.697 479.064
103 0 69.3027 12.8278 889 100.868 452.841 479.495
104 0 69.2378 12.9409 896 100.879 453.422 478.235
105 0 73.2762 13.7698 1009 99.6234 453.537 476.087
106 0 74.2523 12.875 956 103.626 452.883 473.366
107 0 79.4244 14.6932 1167 98.6958 453.533 473.971
108 0 81.2104 14.5055 1178 99.3328 454.016 470.423
109 1 43.1416 10.8016 466 100.811 455.255 491.56
110 0 42.1002 9.80993 413 103.782 454.896 490.722
111 0 44.1459 11.5073 508 97.8406 455.006 491.719
112 0 45.1608 10.6951 483 101.427 454.489 490.048
113 0 48.1564 11.6288 560 98.4018 454.079 490.498
114 0 49.0879 12.6304 620 94.7935 453.953 491.874
115 0 52.0591 13.5423 705 94.0809 453.2 489.244
116 0 53.2035 12.7435 678 96.4572 451.271 489.245
117 0 55.21 12.6064 696 96.8592 451.332 488.615
118 0 55.1886 12.9737 716 95.7877 450.268 487.823
119 0 56.1896 12.707 714 96.4958 450.711 485.605
120 0 58.27 12.6137 735 96.7837 450.907 485.01
121 0 60.206 12.6898 764 97.716 451.246 482.682
122 0 63.1755 13.3438 843 96.5658 450.788 482.276
123 0 67.2114 14.0452 944 94.7585 450.831 481.044
124 0 68.289 13.9847 955 96.3309 450.353 481.027
125 0 70.1844 13.8777 974 98.229 450.599 478.914
126 0 72.2361 13.622 984 99.7287 450.31 474.039
127 0 75.1927 16.6506 1252 93.6997 451.002 476.287
128 0 77.2943 13.7268 1061 100.084 451.689 472.201
129 1 43.0717 10.912 470 102.451 453.547 488.283
130 0 43.0595 8.52309 367 104.561 452.471 492.24
131 0 44.0723 9.89284 436 104.183 452.431 491.693
132 0 47.0193 11.6335 547 102.106 452.832 488.876
133 0 51.0289 12.9143 659 97.2747 451.71 489.278
134 0 53.1007 12.7682 678 95.3127 451.046 488.389
135 0 54.1898 13.2497 718 94.1713 450.795 487.794
136 0 54.0577 14.244 770 94.0545 450.856 488.819
137 0 56.0397 15.1321 848 93.8184 451.232 486.955
138 0 56.0422 13.579 761 97.4205 450.724 486.48
139 0 59.1893 13.9214 824 96.4563 453.119 486.022
140 0 59.2855 13.8145 819 95.4383 454.282 485.363
141 0 61.2489 13.2737 813 94.92 454.554 486.498
142 0 62.2433 15.4073 959 93.0021 453.106 484.218
143 0 64.3153 14.0868 906 95.4216 453.051 482.374
144 0 66.2067 15.4667 1024 93.3105 451.802 484.198
145 0 67.2046 13.749 924 97.1742 451.514 484.335
146 0 68.2092 14.5288 991 100.707 451.233 479.943
147 0 72.1935 14.5997 1054 100.536 451.265 481.176
148 0 72.2484 13.8827 1003 103.941 451.377 478.575
149 0 76.2968 14.614 1115 103.12 450.52 477.814
150 0 75.2973 14.7814 1113 152.451 449.518 477.797
151 0 79.2152 14.4417 1144 103.92 450.341 476.45
152 0 79.1513 12.4698 987 106.18 450.819 475.892
153 0 84.2534 13.4831 1136 103.62 450.466 472.787
154 1 47.1206 11.7571 554 99.2419 451.444 492.93
155 0 49.0824 10.7574 528 99.8902 451.608 493.608
156 0 49.0824 10.737 527 144.552 450.596 493.609
157 0 52.124 12.1825 635 99.9858 451.011 489.835
158 0 55.1592 12.7631 704 100.943 451.642 489.25
159 0 53.094 13.0335 692 102.272 451.178 486.444
160 0 55.3027 13.0373 721 102.609 450.706 486.576
161 0 57.3067 12.9828 744 103.656 450.254 485.696
162 0 58.4343 12.39 724 105.265 451.077 484.286
163 0 61.3466 14.4751 888 99.4854 451.402 484.732
164 0 63.3237 13.8021 874 100.593 452.002 481.784
165 0 64.2953 14.4178 927 99.4941 452.327 479.861
166 0 66.2932 13.0783 867 101.234 450.987 479.4
167 0 70.2913 14.2407 1001 98.044 450.828 478.681
168 0 70.3898 13.9225 980 100.269 451.18 477.36
169 0 75.3181 14.0471 1058 99.431 451.519 475.411
170 0 77.2721 14.5331 1123 96.7008 452.549 475.716
171 0 80.3343 14.7633 1186 95.8052 452.126 475.35
172 0 84.3082 14.364 1211 97.3212 452.121 473.285
173 0 86.209 14.5576 1255 97.1649 452.25 470.896
174 0 87.2988 13.0013 1135 100.959 451.209 470.221
175 0 93.2243 14.2667 1330 95.7917 451.171 472.153
176 1 51.194 10.9778 562 97.8577 452.205 489.285
177 0 52.2265 9.91834 518 96.861 452.488 493.149
178 0 54.2631 11.26 611 95.9476 452.324 491.025
179 0 56.1876 13.8465 778 92.6131 451.6 488.941
180 0 59.2348 14.5016 859 88.5157 451.449 487.612
181 0 60.3374 13.3416 805 93.0075 450.293 488.045
182 0 62.2761 14.243 887 91.4318 450.31 486.869
183 0 64.2875 14.824 953 88.8615 449.71 483.922
184 0 66.3396 13.7776 914 91.2352 449.523 483.251
185 0 68.3289 13.5082 923 92.2102 449.478 482.866
186 0 72.2276 14.1912 1025 91.9376 448.962 481.466
187 0 72.2714 12.9927 939 95.6113 448.922 481.705
188 0 76.3571 13.0702 998 95.3216 448.661 478.885
189 0 78.2728 14.7689 1156 93.077 448.228 476.793
190 1 45.1191 11.7024 528 95.8826 448.758 491.812
191 0 44.0624 9.69081 427 97.1874 448.817 494.527
192 0 46.3223 10.8371 502 99.0598 448.478 485.769
193 0 50.1296 11.949 599 98.5225 449.705 489.295
194 0 52.0494 11.5083 599 97.1018 450.087 490.299
195 0 53.0442 11.7826 625 97.232 450.411 490.214
196 0 53.0442 11.6507 618 153.542 450.427 490.172
197 0 56.259 13.189 742 97.717 449.853 485.946
198 0 59.1601 13.4888 798 97.5977 450.253 485.397
199 0 58.2366 14.4411 841 98.3781 449.369 485.944
200 0 61.188 13.9406 853 98.8218 450.434 484.651
201 0 64.1584 16.132 1035 94.0589 451.155 485.516
202 0 64.348 14.9811 964 99.1556 450.288 483.387
203 0 64.3859 14.2112 915 101.68 449.92 483.601
204 0 68.2623 15.2939 1044 99.319 450.682 482.542
205 0 69.2606 13.9329 965 103.335 450.759 480.39
206 0 72.3467 15.8127 1144 99.2614 451.101 480.439
207 0 75.2431 14.4598 1088 100.811 450.126 481.28
208 0 77.2523 16.6079 1283 97.8566 450.14 479.419
209 0 78.3287 14.886 1166 102.121 449.798 479.104
210 0 83.0699 15.9625 1326 99.4291 449.581 478.157
211 0 84.353 15.9093 1342 101.177 449.571 477.51
212 0 86.3206 15.6394 1350 102.729 449.05 472.762
213 0 90.4604 16.2723 1472 100.124 448.765 474.041
214 0 90.6149 15.8694 1438 102.714 448.681 468.528
215 0 96.7087 16.3067 1577 100.767 448.563 467.366
216 0 97.3698 15.0046 1461 104.103 447.7 468.427
217 0 101.456 16.0759 1631 100.92 448.256 465.731
218 0 102.441 16.1849 1658 101.01 447.344 465.999
219 1 58.3723 13.3796 781 101.67 447.786 486.501
220 0 59.337 13.516 802 101.052 448.296 485.276
221 0 60.1865 12.9929 782 100.604 448.303 484.771
222 0 63.2933 15.1517 959 96.9406 448.567 482.836
223 0 62.1699 13.9617 868 103.276 448.289 482.079
224 0 68.2903 15.1852 1037 98.5169 447.866 481.875
225 0 68.257 15.134 1033 99.8112 447.992 478.244
226 0 72.3496 15.2316 1102 98.1515 448.912 479.439
227 0 74.3563 16.1116 1198 97.6219 449.343 476.28
228 0 75.4459 15.6006 1177 99.1071 449.048 476.085
229 0 75.4428 14.0371 1059 102.936 449.078 474.73
230 0 79.3738 17.8774 1419 95.5708 450.18 475.126
231 0 80.312 14.9915 1204 103.135 449.601 470.304
232 0 82.202 15.0118 1234 102.153 450.216 471.734
233 0 86.5055 14.9355 1292 103.58 450.293 470.646
234 0 90.4415 15.9772 1445 101.572 450.781 469.427
235 0 91.3792 14.8174 1354 105.854 450.372 466.439
236 0 97.3895 16.203 1578 102.49 450.696 466.563
237 0 97.5025 14.8817 1451 106.32 450.376 465.79
238 0 103.298 16.5831 1713 102.44 450.284 464.723
239 0 106.463 16.3906 1745 103.901 450.519 463.177
240 0 107.405 15.6324 1679 106.332 450.256 462.061
241 0 112.649 16.0499 1808 105.478 449.476 459.803
242 0 116.296 15.7185 1828 106.489 449.127 459.069
243 1 62.2797 12.1227 755 102.038 449.404 486.813
244 0 65.3089 13.3672 873 97.677 449.527 486.841
245 0 65.3356 13.0557 853 99.7702 449.491 482.938
246 0 69.3035 13.4769 934 98.7859 449.128 482.65
247 0 70.2064 13.3749 939 98.8552 448.928 482.067
248 0 71.1468 13.3948 953 100.2 448.265 478.054
249 0 74.2941 14.5907 1084 97.4954 447.601 478.744
250 0 78.4942 15.3897 1208 96.4495 446.958 474.753
251 0 80.5083 14.2967 1151 98.3875 447.358 472.703
252 0 83.3749 14.129 1178 98.7046 447.543 473.299
253 0 87.5913 14.4421 1265 98.7771 447.545 471.697
254 0 89.6053 15.0214 1346 98.2994 447.269 468.993
255 0 90.5805 13.8882 1258 100.676 447.647 468.932
256 0 94.4766 15.824 1495 97.3311 447.928 466.408
257 0 96.3455 14.967 1442 99.258 447.414 465.565
258 0 99.4737 14.7878 1471 99.499 448.251 462.378
259 0 101.445 13.8992 1410 100.48 448.782 462.018
260 1 55.4541 10.3689 575 97.1339 449.626 485.501
261 0 58.3997 10.959 640 96.3438 449.362 485.403
262 0 58.3584 12.5603 733 94.8772 449.165 482.089
263 0 62.2819 13.0214 811 93.2133 449.637 483.637
264 0 61.2705 12.6488 775 138.243 449.612 483.186
265 0 64.2175 11.5856 744 97.1358 450.116 481.298
266 0 66.182 11.9368 790 98.0835 450.166 478.872
267 0 69.2532 12.9958 900 96.1767 451.243 480.663
268 0 69.2465 12.405 859 99.1246 451.341 479.163
269 0 74.3312 13.8973 1033 96.7832 451.322 477.08
270 0 77.2741 14.3386 1108 95.0505 451.289 480.704
271 0 79.3982 14.3832 1142 97.7513 450.804 473.408
272 0 81.3741 14.8081 1205 97.6855 450.619 474.332
273 0 84.1753 15.444 1300 98.1738 449.921 473.174
274 0 85.3085 13.8087 1178 102.43 450.223 474.025
275 0 87.2797 14.3447 1252 102.727 450.066 472.192
276 0 91.2477 15.573 1421 101.097 449.602 471.531
277 0 93.2161 14.0748 1312 103.135 449.698 470.714
278 0 94.3763 13.5098 1275 105.915 448.787 468.491
279 1 52.1276 8.17226 426 104.728 449.427 489.235
280 0 56.0962 11.4625 643 98.7247 449.215 488.764
281 0 56.2053 8.84258 497 102.899 448.893 487.71
282 0 58.2204 11.1473 649 100.24 448.729 486.602
283 0 62.1426 12.6805 788 98.0495 447.876 484.976
284 0 65.2248 12.9399 844 98.141 447.499 483.214
285 0 66.2614 13.2656 879 97.6837 447.341 481.762
286 0 66.2139 12.2029 808 101.347 447.275 479.429
287 0 70.3514 13.4326 945 99.6677 447.256 479.107
288 0 72.2929 12.5877 910 100.964 447.856 477.89
289 0 73.2607 13.7045 1004 100.615 447.743 474.202
290 0 76.2845 13.5152 1031 100.807 448.325 473.145
291 0 78.5422 12.7575 1002 101.396 448.418 474.615
292 0 83.6408 12.8287 1073 101.319 449.064 471.148
293 0 85.5712 14.2221 1217 99.7913 448.913 468.593
294 0 89.5284 14.1854 1270 98.8764 449.191 467.976
295 1 47.1102 10.2313 482 98.944 450.548 488.595
296 0 47.2367 9.03959 427 99.8478 450.052 490.571
297 0 50.1602 8.49278 426 100.728 450.653 491.521
298 0 52.269 11.0582 578 96.7924 451.564 489.433
299 0 54.1979 11.8455 642 96.7492 452.234 487.237
300 0 52.1532 10.0857 526 100.485 451.838 486.293
301 0 57.1327 11.202 640 98.1688 452.034 488.755
302 0 58.0941 12.015 698 100.318 450.136 486.991
303 0 59.1806 12.6224 747 99.7657 449.376 485.913
304 0 59.1152 12.5179 740 99.0554 449.757 487.342
305 0 63.3661 12.3094 780 98.4756 450.331 486.403
306 0 66.2384 13.6628 905 96.642 450.081 485.271
307 0 67.2077 12.6325 849 99.0954 450.015 484.808
308 0 67.2249 12.6887 853 133.921 448 484.734
309 0 72.2737 13.7948 997 97.6279 450.285 481.59
310 0 73.248 12.1505 890 100.755 448.618 482.002
311 0 75.3559 13.8277 1042 99.2226 447.568 478.456
312 0 78.5066 13.7058 1076 98.1766 447.568 477.878
313 0 79.2333 14.0219 1111 97.1728 447.916 476.287
314 0 82.6156 12.661 1046 98.9943 447.568 475.274
315 0 81.5891 12.0972 987 140.549 446.493 474.026
316 0 86.382 11.0208 952 101.299 447.578 470.028
317 0 91.4964 15.5962 1427 93.2544 447.336 470.735
318 0 94.4627 14.1326 1335 95.9206 446.874 467.503
319 0 94.3868 11.919 1125 100.924 447.574 466.335
320 0 96.5402 14.4085 1391 97.1596 447.019 460.62
321 0 101.476 14.0724 1428 96.7955 447.894 462.065
322 0 103.622 13.1825 1366 96.8067 447.672 460.377
323 0 106.449 13.584 1446 96.5906 448.515 460.254
324 0 109.458 13.9871 1531 96.2939 449.271 459
325 0 112.335 14.2609 1602 96.7609 450.36 455.698
326 0 117.32 13.7573 1614 97.3321 450.488 452.595
327 0 121.378 14.1047 1712 98.0117 451.142 448.421
328 0 127.356 14.8796 1895 96.4142 451.542 449.915
329 1 67.2066 9.83535 661 94.3828 453.177 481.074
330 0 71.1842 12.1516 865 91.9884 452.579 479.454
331 0 71.1642 12.2112 869 93.0115 453.037 479.323
332 0 75.0818 11.4808 862 94.0534 452.855 477.785
333 0 77.0632 11.3154 872 94.9472 452.577 475.552
334 0 82.2369 12.7315 1047 94.5692 452.437 476.611
335 0 84.1871 13.9689 1176 94.5952 452.392 475.423
336 0 86.1164 13.0753 1126 96.2726 452.507 474.337
337 0 89.1651 12.9647 1156 97.2111 451.897 472.976
338 0 93.1066 14.4136 1342 95.2824 450.63 471.941
339 0 94.0935 12.2325 1151 87.5995 450.466 469.825
340 1 55.1774 10.1672 561 96.5116 449.469 489.861
341 0 57.019 10.2773 586 93.6706 449.642 489.642
342 0 62.1058 12.7846 794 88.5554 449.732 487.727
343 0 58.2804 11.8565 691 92.9522 447.666 483.753
344 0 61.2656 12.4866 765 90.5974 448.944 486.348
345 0 65.229 11.3906 743 93.0121 448.564 484.795
346 0 66.1877 13.2955 880 90.3716 448.834 482.495
347 0 69.2896 14.2446 987 89.1672 447.891 481.062
348 0 70.1026 13.5944 953 90.7146 447.043 477.912
349 0 70.1098 11.7245 822 93.5669 446.972 479.927
350 0 73.2671 12.4476 912 93.0263 447.221 475.761
351 0 76.2022 12.1519 926 93.2041 447.498 475.301
352 0 80.2796 11.9208 957 94.163 447.742 472.118
353 0 81.1706 12.7632 1036 93.167 448.126 471.281
354 0 84.1942 11.6279 979 94.8938 449.352 471.379
355 1 49.2415 9.17926 452 94.0973 449.221 490.179
356 0 49.1924 10.0829 496 93.8306 450.026 489.976
357 0 51.1738 11.0408 565 92.6265 450.846 486.519
358 0 52.2443 11.3314 592 90.3919 450.711 489.524
359 0 56.2578 13.8825 781 86.4827 450.565 487.887
360 0 58.1724 13.1506 765 87.7229 451.327 487.307
361 0 57.2668 11.1758 640 91.1516 451.956 485.322
362 0 61.0823 14.194 867 85.1707 453.033 486.257
363 0 62.0961 13.2536 823 87.5079 453.456 485.471
364 0 65.0559 13.5268 880 86.4409 453.547 484.426
365 0 64.0806 13.4674 863 88.314 453.549 483.648
366 0 68.2029 13.7238 936 86.4936 453.297 482.26
367 0 68.2094 11.582 790 90.0139 452.676 483.542
368 0 72.1262 13.2268 954 87.9193 452.172 481.423
369 0 76.1073 12.6663 964 89.6691 451.667 479.45
370 0 77.1544 13.0258 1005 89.3672 451.201 479.459
371 0 78.1416 12.183 952 90.4307 450.58 478.146
372 0 83.0964 13.5987 1130 88.4929 449.53 475.26
373 0 85.1443 12.8488 1094 89.9808 449.282 471.378
374 0 89.1002 14.5679 1298 87.0824 448.316 470.207
375 0 92.1306 13.915 1282 88.5421 447.939 469.089
376 0 97.0812 14.7814 1435 86.1986 447.691 465.944
377 1 53.0618 10.7234 569 88.6028 447.977 486.641
378 0 52.1759 10.5604 551 90.0563 446.397 486.04
379 0 55.0809 10.3847 572 88.5647 447.991 485.75
380 0 58.1403 9.52868 554 90.935 448.614 484.522
381 0 61.1217 12.287 751 85.0732 448.316 486.7
382 0 61.1528 12.2807 751 86.6032 448.503 481.204
383 0 64.1986 13.7542 883 85.4168 448.764 481.19
384 0 65.3542 13.2815 868 86.2546 450.353 482.046
385 0 65.1248 12.4069 808 91.0656 450.834 479.975
386 0 67.1184 12.247 822 91.3856 451.358 479.477
387 0 72.1667 14.9515 1079 86.1603 451.676 477.178
388 0 74.1765 13.9802 1037 87.7454 452.126 477.373
389 0 76.1266 13.0441 993 88.7462 452.885 476.921
390 0 77.2241 14.1277 1091 87.2429 452.594 477.625
391 0 80.1047 13.0454 1045 90.1732 452.741 475.666
392 0 84.1459 14.1659 1192 89.5076 453.448 472.633
393 1 46.0416 9.96923 459 90.3333 454.279 494.865
394 0 49.0745 9.96443 489 90.8753 453.755 494.016
395 0 49.1066 9.6321 473 90.6342 452.628 497.11
396 0 52.024 10.0338 522 91.9234 452.249 494.559
397 0 52.0674 11.197 583 92.5455 451.648 492.216
398 0 56.2285 12.4136 698 89.7235 450.506 493.662
399 0 57.2474 13.3631 765 88.9987 449.88 493.06
400 0 60.2164 13.0861 788 88.1459 449.612 490.236
401 0 63.1427 14.3326 905 85.895 448.983 488.935
402 0 64.1255 14.1441 907 86.9338 449.235 488.347
403 0 65.1427 13.8619 903 87.6556 448.535 486.936
404 0 67.3285 13.9317 938 88.2985 448.338 484.608
405 0 67.1774 12.8019 860 92.0465 447.063 482.356
406 0 69.1112 12.0386 832 93.7127 446.772 482.397
407 0 72.0557 14.6415 1055 90.2464 446.426 478.31
408 0 76.1827 13.9795 1065 90.5728 446.413 481.008
409 0 78.0425 13.9411 1088 93.0221 446.666 474.936
410 0 78.2 13.0818 1023 96.0841 445.803 473.163
411 1 45.103 11.2631 508 90.8976 445.937 491.829
412 0 47.1243 11.2044 528 90.7443 448.958 489.011
413 0 44.068 9.19034 405 96.7975 449.037 489.551
414 0 49.1507 10.6814 525 93.019 449.282 490.411
415 0 49.0327 12.1144 594 93.3838 448.449 487.628
416 0 52.222 12.1213 633 94.5308 448.365 487.972
417 0 54.039 13.4903 729 91.5761 450.261 487.881
418 0 54.1763 12.4409 674 94.3991 449.948 487.264
419 0 56.3624 13.0406 735 92.7769 451.487 486.356
420 0 57.5295 13.5756 781 91.9513 453.178 487.389
421 0 61.4169 15.582 957 88.1233 453.089 486.995
422 0 60.2322 12.651 762 97.063 453.16 485.457
423 0 65.195 14.9551 975 92.1672 453.647 485.912
424 0 64.2204 13.5159 868 96.6371 453.203 485.594
425 0 68.2243 14.2911 975 94.9672 453.831 484.592
426 0 70.233 14.1386 993 95.3313 453.59 485.978
427 0 73.2269 14.3527 1051 96.5309 452.379 483.064
428 0 75.1836 12.117 911 100.292 452.137 484.543
429 0 77.3099 15.0563 1164 96.9983 451.026 481.668
430 0 81.2827 14.9724 1217 98.1298 450.361 480.357
431 0 84.2936 14.9359 1259 99.3137 449.427 478.419
432 0 86.2672 13.9914 1207 102.82 449.057 476.674
433 0 89.2974 14.4237 1288 103.171 449.238 476.337
434 0 92.2253 14.7356 1359 103.255 448.322 472.958
435 1 53.0506 10.8387 575 101.583 448.323 494.57
436 0 53.1027 12.5794 668 101.154 448.039 491.036
437 0 55.0537 12.0609 664 102.167 448.399 489.711
438 0 56.1078 12.8503 721 99.4757 447.447 488.589
439 0 59.051 13.8016 815 96.8663 447.885 486.714
440 0 57.3096 13.017 746 100.157 446.684 487.071
441 0 61.2216 12.5936 771 100.852 447.358 484.909
442 0 61.2216 12.7079 778 149.584 448.356 484.895
443 0 63.0904 12.8546 811 102.401 447.689 483.561
444 0 66.2183 14.5428 963 99.8214 448.174 481.672
445 0 67.2139 14.0447 944 101.298 448.514 480.234
446 0 69.2503 14.036 972 102.113 449.902 479.394
447 0 72.1262 15.4036 1111 99.495 450.498 478.571
448 0 73.2303 13.9696 1023 103.253 452.043 477.567
449 0 77.2602 14.0305 1084 103.46 453.613 477.281
450 0 80.2804 14.3248 1150 101.675 453.959 478.127
451 0 81.1898 13.0435 1059 104.367 454.188 475.922
452 1 44.2265 9.76789 432 101.178 454.975 497.921
453 0 48.0429 9.92862 477 101.629 455.358 495.013
454 0 48.0928 10.2302 492 102.677 454.703 494.872
455 0 48.0928 10.2302 492 145.297 453.724 494.742
456 0 52.0235 12.1099 630 99.3444 453.583 493.754
457 0 56.2776 12.3317 694 98.8444 452.526 493.852
458 0 54.1467 11.0995 601 102.527 452.266 493.622
459 0 58.5117 12.1172 709 99.3893 451.584 493.664
460 0 57.1965 13.1651 753 99.3466 451.437 492.49
461 0 60.2309 13.8467 834 97.9341 450.554 490.176
462 0 64.2498 15.253 980 95.1704 449.68 487.988
463 0 67.4923 15.098 1019 95.366 448.61 485.711
464 0 69.2872 14.5626 1009 98.0565 447.638 484.915
465 0 71.5853 14.5421 1041 97.4284 447.192 483.156
466 0 71.5959 14.4841 1037 136.109 447.191 483.13
467 0 74.3344 13.52 1005 102.638 445.719 478.224
468 0 78.2523 14.7472 1154 99.3501 444.889 478.701
469 1 42.1072 10.5208 443 103.607 444.151 494.585
470 0 43.0734 11.8403 510 102.343 443.449 492.596
471 0 45.103 12.283 554 99.9188 444.374 492.877
472 0 48.0469 11.468 551 103.514 445.53 490.085
473 0 48.1108 12.6375 608 102.686 447.408 489.296
474 0 49.0508 12.9254 634 104.94 448.954 489.604
475 0 49.1684 12.3047 605 105.192 448.293 489.879
476 0 51.1337 13.0051 665 102.792 448.877 488.971
477 0 54.3642 14.3293 779 99.0436 450.145 487.068
478 0 56.1867 13.9535 784 98.9783 451.71 487.726
479 0 57.1787 13.554 775 101.978 453.243 487.115
480 0 58.1962 12.7843 744 105.285 453.613 487.392
481 0 61.1289 13.6269 833 104.555 454.655 485.93
482 0 65.2213 16.0224 1045 99.2785 455.3 486.635
483 0 67.1781 14.335 963 103.093 455.282 485.255
484 0 68.152 13.9248 949 105.554 455.339 487.285
485 0 71.4068 14.8165 1058 106.597 454.149 483.854
486 0 72.2777 14.0846 1018 109.725 454.042 483.763
487 0 78.2105 14.4993 1134 108.262 452.911 484.288
488 0 80.4838 16.5872 1335 105.157 452.345 481.609
489 0 83.2619 14.8207 1234 107.903 451.4 476.4
490 1 46.248 11.46 530 107.587 450.794 496.955
491 0 48.1234 12.4264 598 107.079 450.159 494.861
492 0 48.1057 11.4539 551 106.969 448.851 495.35
493 0 49.1298 11.9276 586 109.749 447.962 491.724
494 0 50.108 12.7125 637 109.388 448.035 491.039
495 0 55.1091 14.2626 786 103.139 446.588 488.859
496 0 55.1199 13.7155 756 106.063 445.714 485.566
497 0 58.1784 15.0743 877 103.83 446.268 488.117
498 0 58.202 12.68 738 109.316 445.955 486.768
499 0 60.1529 14.0475 845 107.436 445.96 484.109
500 0 65.1861 15.2793 996 103.101 445.874 484.183
501 0 66.1395 14.3636 950 106.485 446.658 480.352
502 0 69.1987 15.824 1095 103.984 447.505 477.551
503 0 70.1481 13.9419 978 108.697 448.075 479.539
504 0 72.1906 14.9188 1077 107.786 449.029 477.305
505 0 74.2671 14.3536 1066 108.981 450.739 477.59
506 0 77.173 14.785 1141 108.188 452.629 477.55
507 0 78.2625 14.8219 1160 110.162 452.577 475.852
508 0 82.3637 13.9989 1153 112.857 454.539 474.886
509 0 86.3734 15.1088 1305 111.054 455.569 475.056
510 0 88.228 14.6439 1292 113.132 456.026 473.789
511 1 47.037 10.5662 497 112.32 458.416 497.056
512 0 49.0418 12.1529 596 112.537 458.418 496.391
513 0 52.0417 11.779 613 113.811 457.653 495.794
514 0 51.0436 10.8731 555 116.804 457.056 495.805
515 0 57.0847 13.2435 756 111.577 456.239 494.999
516 0 57.1869 13.2373 757 112.989 454.345 495.337
517 0 59.1446 13.2556 784 109.722 452.454 496.408
518 0 62.2301 12.6627 788 109.836 451.456 494.883
519 0 64.2263 14.4178 926 105.589 450.484 491.202
520 0 68.262 16.3634 1117 100.54 448.444 489.642
521 0 72.2049 15.0544 1087 104.821 446.969 486.911
522 0 75.2056 15.0388 1131 103.699 445.981 488.04
523 0 77.1974 14.9098 1151 105.342 444.972 485.089
524 0 77.0935 13.1788 1016 111.634 444.664 482.225
525 0 84.1802 14.469 1218 107.35 443.872 480.608
526 0 86.1373 15.2895 1317 106.507 443.149 476.161
527 1 44.0536 10.351 456 107.52 443.002 498.41
528 0 46.0151 11.192 515 107.621 441.854 495.981
529 0 49.0703 11.9828 588 105.357 441.663 495.539
530 0 49.0709 12.2883 603 107.507 442.381 493.076
531 0 52.0784 12.5964 656 105.11 442.694 493.326
532 0 55.1439 14.7977 816 99.277 443.527 491.026
533 0 57.0353 14.2894 815 100.259 445.556 490.659
534 0 56.0886 13.443 754 104.11 446.898 490.605
535 0 58.0472 13.7302 797 103.331 448.651 491.212
536 0 63.0343 13.2467 835 102.486 449.418 492.418
537 0 63.0847 13.7276 866 104.525 450.508 489.91
538 0 67.0547 14.0184 940 102.83 451.791 491.826
539 0 68.0452 13.9466 949 106.168 452.018 491.418
540 0 71.0615 13.3265 947 108.148 452.393 491.299
541 0 74.132 13.5569 1005 107.347 451.387 489.96
542 0 77.1322 14.3909 1110 105.858 452.068 488.781
543 1 43.0257 10.3194 444 106.966 450.86 507.757
544 0 41.0232 9.60431 394 144.49 448.706 506.703
545 0 46.0716 11.1566 514 106.656 448.066 505.815
546 0 49.1753 11.7742 579 104.019 445.61 505.75
547 0 52.2316 14.5314 759 99.6838 444.918 502.381
548 0 52.0379 12.9329 673 102.918 445.795 501.186
549 0 55.0674 13.8557 763 101.007 444.252 498.933
550 0 57.1705 15.1477 866 98.9723 442.45 496.397
551 0 59.1306 13.8169 817 101.547 441.485 494.967
552 0 58.0363 12.6645 735 104.576 440.928 493.399
553 0 62.0474 12.5871 781 104.723 440.059 489.68
554 0 65.099 13.9173 906 101.788 439.565 485.996
555 0 67.0843 14.4743 971 100.982 439.586 483.299
556 0 69.0305 14.1677 978 102.419 439.109 483.335
557 0 69.1456 13.0883 905 105.867 439.155 480.591
558 0 75.0775 14.4917 1088 102.092 439.543 479.715
559 0 75.0764 13.706 1029 142.769 440.521 478.273
560 0 78.1769 14.7358 1152 103.836 440.639 474.434
561 1 41.0757 9.44597 388 107.876 441.003 494.75
562 0 43.0671 11.1222 479 106.555 442.05 492.436
563 0 45.1147 11.3267 511 105.509 444.245 493.906
564 0 47.157 12.1509 573 103.131 446.867 495.531
565 0 48.2736 12.3877 598 103.821 448.697 494.505
566 0 49.1501 12.8789 633 99.4502 450.919 496.073
567 0 50.1723 13.6729 686 99.7857 451.694 494.347
568 0 53.2186 15.0511 801 96.9551 451.973 493.597
569 0 56.1915 14.4328 811 98.402 451.968 494.883
570 0 56.2385 13.745 773 100.036 453.622 494.846
571 0 60.2025 15.4645 931 95.9721 452.509 496.662
572 0 62.2261 12.9849 808 101.153 451.615 497.046
573 0 64.0705 13.5164 866 100.83 451.212 495.144
574 0 65.0691 13.7239 893 100.592 449.422 496.594
575 0 69.1458 14.4767 1001 101.068 447.858 493.349
576 0 73.3358 14.0177 1028 102.138 446.266 492.005
577 0 74.1329 14.8922 1104 102.818 445.385 488.529
578 0 78.1875 14.478 1132 103.366 443.869 486.438
579 1 39.0983 11.0491 432 104.481 442.616 506.111
580 0 41.1346 9.72417 400 107.662 441.29 505.24
581 0 45.0952 10.8659 490 106.073 440.735 501.729
582 0 46.082 11.8918 548 105.918 440.65 499.772
583 0 45.2573 12.1306 549 105.412 439.947 496.638
584 0 49.2417 12.8143 631 104.319 440.208 495.13
585 0 51.4185 13.5943 699 102.585 439.697 493.04
586 0 53.3247 13.9335 743 101.969 440.162 492.988
587 0 52.1658 13.6871 714 103.724 440.364 492.02
588 0 55.1989 13.3155 735 104.127 441.177 491.657
589 0 55.2271 13.87 766 103.268 441.247 491.157
590 0 60.1031 14.7746 888 100.334 442.3 488.512
591 0 62.1336 14.324 890 101.625 442.996 488.067
592 0 64.1731 14.5076 931 100.412 445.537 488.744
593 0 65.0866 17.0849 1112 97.429 448.067 488.565
594 0 69.1968 14.8995 1031 101.952 450.072 487.486
595 0 70.2549 15.9277 1119 100.363 451.294 487.098
596 0 74.1903 15.5007 1150 101.124 452.91 486.859
597 0 77.2113 15.5677 1202 101.944 453.989 486.751
598 0 81.1839 15.7913 1282 101.348 454.302 487.037
599 0 84.1599 14.6745 1235 102.152 454.138 487.204
600 0 86.2652 16.4956 1423 100.28 452.613 483.717
601 1 48.0316 11.5965 557 106.072 450.878 508.948
602 0 50.0374 12.8304 642 103.967 450.643 508.379
603 0 53.1599 12.7352 677 102.713 448.762 509.294
604 0 54.136 14.3897 779 99.0783 447.769 507.082
605 0 57.1908 15.1073 864 97.1192 445.676 507.402
606 0 59.2364 15.109 895 95.5721 442.837 507.508
607 0 62.1195 15.5829 968 95.47 442.353 504.747
608 0 62.2292 15.2501 949 96.687 440.725 504.23
609 0 62.2292 15.2983 952 132.559 439.732 504.202
610 0 68.1876 16.2053 1105 93.2045 438.025 502.088
611 0 69.1806 14.4983 1003 96.7577 437.797 502.025
612 0 70.1396 13.2735 931 99.0666 436.745 499.799
613 0 76.1379 15.7871 1202 96.7762 436.097 496.192
614 0 79.3361 14.344 1138 98.2118 435.78 495.103
615 1 41.0772 11.2471 462 95.0887 436.266 514.245
616 0 43.3685 13.074 567 95.3986 435.723 509.145
617 0 45.109 12.7469 575 94.5357 436.758 509.59
618 0 45.0922 13.5722 612 95.8742 436.217 506.961
619 0 48.2859 14.2277 687 95.6667 436.927 506.186
620 0 48.1844 14.2577 687 94.0262 437.975 504.678
621 0 51.3234 15.9966 821 92.6577 438.827 502.18
622 0 52.1948 16.0361 837 93.6177 439.649 501.407
623 0 55.2413 15.4413 853 94.4748 441.784 501.535
624 0 57.1452 16.6593 952 92.667 443.438 500.372
625 0 59.4945 15.2787 909 95.1507 444.287 501.077
626 0 62.4569 15.3546 959 94.8008 444.299 499.258
627 0 65.3229 16.4567 1075 93.6502 444.505 496.843
628 0 69.4191 15.9178 1105 94.6054 443.613 497.686
629 0 70.442 14.3664 1012 98.0543 443.831 499.674
630 0 74.6539 14.7748 1103 97.6473 441.88 497.362
631 1 39.4369 13.8702 547 97.6289 442.013 517.137
632 0 40.2705 14.5516 586 96.9881 441.014 516.892
633 0 41.2128 14.874 613 98.2121 439.992 516.896
634 0 42.1404 14.8788 627 98.5391 439.284 516.458
635 0 46.5168 16.2522 756 96.2156 437.493 514.896
636 0 47.2908 16.3668 774 96.9574 436.009 514.437
637 0 49.3354 15.5872 769 97.8153 435.438 513.247
638 0 51.2309 16.006 820 98.3 432.48 511.591
639 0 52.3909 16.3578 857 99.6628 432.315 507.672
640 0 55.4763 15.7905 876 100.326 432.015 506.436
641 0 57.4004 16.5852 952 99.187 431.651 504.745
642 0 59.2502 16.7425 992 99.9778 430.975 502.029
643 0 62.5591 17.8551 1117 96.9033 431.067 502.61
644 0 65.3385 16.7589 1095 100.505 431.503 500.786
645 0 66.5366 16.7727 1116 103.26 432.589 498.704
646 0 68.3079 16.3671 1118 103.763 433.621 499.729
647 0 69.3404 16.9165 1173 104.636 435.146 497.332
648 0 74.2788 18.6998 1389 100.802 436.023 497.519
649 0 76.4595 18.1142 1385 103.397 437.347 494.103
650 1 39.4369 14.8592 586 107.742 438.589 512.858
651 0 40.2268 14.2939 575 109.643 439.689 512.508
652 0 42.1265 16.3792 690 106.641 440.752 511.303
653 0 43.2258 16.3329 706 108.542 441.681 510.465
654 0 44.138 17.8984 790 105.892 442.495 511.2
655 0 46.3039 16.7589 776 108.937 441.941 510.588
656 0 50.3281 15.7566 793 110.014 442.189 510.444
657 0 51.1526 17.3794 889 107.082 441.592 511.9
658 0 54.1919 15.7957 856 112.273 442.105 511.027
659 0 55.2128 16.9526 936 111.939 441.692 509.937
660 0 59.2214 17.6963 1048 109.807 441.219 509.344
661 0 62.31 17.0759 1064 111.461 440.902 506.844
662 0 63.5052 16.6443 1057 113.055 439.319 505.916
663 0 67.2513 18.0368 1213 110.087 438.706 503.732
664 0 68.1712 16.1799 1103 113.089 437.89 502.132
665 0 72.2458 14.949 1080 115.093 437.797 498.492
666 1 36.3485 11.2797 410 114.478 436.441 511.668
667 0 39.4421 12.8797 508 113.606 435.604 509.146
668 0 39.3981 13.7824 543 111.201 434.89 508.711
669 0 42.1773 15.2926 645 107.788 435.31 505.701
670 0 42.1862 15.2894 645 107.747 435.326 504.512
671 0 46.3132 14.4667 670 109.349 435.633 502.979
672 0 48.2112 14.8513 716 109.774 435.662 500.582
673 0 47.165 14.9263 704 112.206 436.355 497.881
674 0 50.1674 16.1459 810 109.748 436.178 496.736
675 0 51.2138 14.7226 754 111.924 437.284 497.696
676 0 55.2775 15.7388 870 110.551 438.122 496.001
677 0 56.2111 15.9043 894 110.781 439.29 494.736
678 0 58.358 16.3474 954 111.048 440.217 492.901
679 0 59.2007 14.7802 875 115.381 443.09 492.401
680 0 62.2182 15.5742 969 113.747 445.245 491.827
681 0 63.4071 15.4714 981 115.909 446.594 492.179
682 0 66.3815 15.9382 1058 115.593 448.597 492.664
683 0 69.6021 16.853 1173 114.91 449.517 491.487
684 0 71.1727 15.1744 1080 120.275 449.746 491.323
685 0 73.2397 16.9853 1244 117.342 450.208 491.137
686 0 77.3614 15.7443 1218 121.083 449.79 491.025
687 0 80.4121 17.2486 1387 119.293 448.455 487.365
688 0 81.3745 15.5085 1262 124.22 447.656 488.412
689 0 85.462 15.7965 1350 123.993 447.091 487.426
690 0 91.2764 17.4744 1595 118.397 445.776 485.646
691 0 93.6486 16.6367 1558 121.954 444.972 483.315
692 0 99.394 16.8723 1677 119.765 443.394 480.714
693 1 56.2029 13.2199 743 115.536 443.455 500.327
694 0 59.2508 12.8606 762 115.636 442.549 498.743
695 0 61.2681 13.3022 815 115.18 441.281 496.463
696 0 64.2115 12.7392 818 116.423 440.216 494.399
697 0 65.2591 13.8525 904 115.871 439.617 490.055
698 0 67.1294 13.2133 887 116.989 439.772 488.399
699 1 40.028 9.89307 396 112.328 440.891 503.667
700 0 40.1407 10.5878 425 113.106 441.633 500.92
701 0 40.0497 11.0862 444 112.523 441.995 499.948
702 0 41.0927 11.6322 478 111 443.395 498.105
703 0 44.055 12.0304 530 108.783 443.913 497.698
704 0 45.1414 12.3168 556 107.876 443.214 496.228
705 0 45.0972 11.6415 525 109.556 444.488 494.73
706 0 46.1747 13.1024 605 107 445.326 494.539
707 0 48.1918 12.6993 612 107.583 447.113 494.247
708 0 51.128 12.4198 635 106.065 450.326 495.606
709 0 51.1599 13.0571 668 103.174 451.993 495.855
710 0 51.2001 11.7968 604 107.927 454.096 495.286
711 0 55.3291 13.0311 721 104.46 455.222 496.345
712 0 57.0839 11.7371 670 105.391 456.481 497.309
713 0 59.1159 12.2471 724 105.678 456.253 495.858
714 0 62.2493 13.2853 827 104.867 456.943 495.037
715 1 33.0226 9.59947 317 103.703 456.685 512.382
716 0 32.0764 10.0073 321 104.685 455.589 511.882
717 0 34.0251 11.374 387 103.638 453.793 512.078
718 0 34.1525 9.89679 338 107.036 452.305 513.263
719 0 37.2028 11.3164 421 104.827 450.786 511.143
720 0 39.2129 11.6798 458 104.555 449.044 509.325
721 0 39.2131 12.0113 471 105.643 447.327 508.346
722 0 43.2553 12.484 540 104.343 445.556 506.252
723 0 44.2127 13.1863 583 104.262 444.605 504.256
724 0 44.3324 13.5567 601 104.138 442.591 502.892
725 0 46.3336 12.7553 591 106.352 441.81 500.887
726 0 48.4397 13.6045 659 105.086 441.53 499.115
727 0 50.1458 12.8226 643 106.757 441.292 497.474
728 0 51.1078 13.0313 666 107.468 440.553 496.781
729 0 51.3324 12.9548 665 108.138 441.337 495.744
730 0 54.4126 13.1036 713 107.626 441.645 493.449
731 0 56.4164 13.5776 766 107.069 441.495 491.483
732 0 57.5601 15.132 871 104.677 441.188 489.662
733 0 60.4163 14.4663 874 106.396 443.166 488.248
734 0 63.2215 13.6346 862 108.361 443.971 487.84
735 0 66.6764 14.9828 999 105.438 446.098 486.866
736 0 66.589 15.423 1027 105.511 447.917 487.682
737 0 70.7071 14.6661 1037 107.138 449.67 486.188
738 1 37.6412 10.9455 412 108.561 451.597 505.529
739 0 36.6791 10.9599 402 111.303 452.833 505.067
740 0 41.5229 12.6436 525 107.36 453.49 505.124
741 0 43.5002 13.839 602 104.944 453.897 505.453
742 0 43.726 13.9962 612 108.288 452.824 505.592
743 0 45.5549 13.5221 616 108.703 451.5 506.721
744 0 49.6111 13.505 670 108.381 450.097 507.506
745 0 50.3301 13.9479 702 110.825 448.942 507.588
746 0 52.3164 12.8067 670 116.175 446.861 506.404
747 0 54.6387 14.4037 787 111.752 445.457 505.905
748 0 56.4161 13.0282 735 114.701 443.756 505.065
749 0 58.4629 13.376 782 113.445 441.478 503.849
750 0 60.4791 13.8395 837 113.079 439.159 501.424
751 0 61.247 13.6986 839 113.505 438.703 499.541
752 0 65.4259 14.184 928 111.751 438.032 496.475
753 0 68.321 13.5976 929 112.807 437.217 494.656
754 1 36.016 11.3561 409 110.895 439.35 509.416
755 0 37.0207 11.264 417 109.17 439.691 508.067
756 0 39.0623 10.9569 428 110.325 439.229 506.329
757 0 41.0773 12.3669 508 107.187 438.591 504.447
758 0 43.0758 11.8628 511 106.166 439.395 503.272
759 0 43.0206 12.9938 559 106.079 439.426 500.83
760 0 44.0177 12.1542 535 106.202 440.441 499.548
761 0 46.1478 12.3516 570 106.482 440.816 496.625
762 0 47.0607 12.5795 592 103.742 442.12 499.277
763 0 49.0318 14.46 709 102.371 443.894 497
764 0 51.0614 13.3173 680 104.924 447.038 494.913
765 0 52.0658 12.5802 655 108.324 447.969 496.527
766 0 55.1206 13.4251 740 107.318 450.3 497.373
767 0 57.1182 13.9535 797 107.905 451.836 497.112
768 0 61.0379 14.8269 905 105.998 452.485 495.534
769 0 63.0856 15.8039 997 105.587 452.124 495.266
770 0 66.1373 15.3469 1015 108.112 451.629 494.968
771 0 68.0909 14.5688 992 111.044 450.947 494.517
772 0 70.0381 15.4487 1082 109.682 450.534 496.657
773 1 38.1364 10.4624 399 115.571 449.351 512.343
774 0 39.09 10.2072 399 112.028 447.872 511.436
775 0 42.1184 11.1353 469 99.6652 446.652 512.623
776 0 44.1858 12.108 535 97.9925 445.034 509.049
777 0 47.1447 13.5328 638 95.0235 443.039 507.296
778 0 47.1853 13.5 637 96.5981 440.783 504.568
779 0 50.1557 13.8568 695 94.564 440.217 505.094
780 0 51.0827 12.6853 648 97.4676 438.867 502.731
781 0 52.2631 13.9295 728 94.8846 438.192 500.893
782 0 54.1558 14.1628 767 95.1095 437.947 498.462
783 0 56.2659 13.3829 753 98.4223 438.312 495.438
784 0 56.1866 13.1704 740 99.2797 438.081 494.893
785 0 59.2361 15.0415 891 96.2694 437.86 492.708
786 0 61.2513 15.1344 927 96.0917 437.618 489.93
787 0 65.2556 15.5389 1014 93.3284 438.427 490.347
788 0 67.1148 14.9296 1002 96.3623 439.343 489.93
789 0 69.1742 16.0465 1110 95.5225 440.905 489.343
790 0 69.1578 14.8935 1030 99.6893 443.518 487.446
791 0 70.3156 14.1078 992 102.245 444.755 487.414
792 0 76.1796 15.8835 1210 98.9463 446.675 487.907
793 0 80.1943 17.7569 1424 94.9073 447.903 487.731
794 1 41.1828 10.1013 416 103.05 449.231 510.262
795 0 45.1258 13.2075 596 99.8322 450.044 507.493
796 0 43.1003 12.0185 518 106.127 449.967 508.353
797 0 49.1444 14.2234 699 97.6195 450.552 509.431
798 0 50.054 14.4844 725 100.334 450.095 509.486
799 0 52.0708 13.8465 721 102.197 449.121 509.784
800 0 54.1029 14.7681 799 102.767 447.041 508.81
801 0 57.0435 14.0594 802 102.574 445.086 508.375
802 0 59.199 13.6489 808 104.037 443.571 505.017
803 0 60.1072 15.0065 902 102.911 441.753 503.114
804 0 64.0753 14.1084 904 102.95 439.888 499.887
805 0 66.1757 14.3557 950 102.685 437.763 499.512
806 0 69.1591 14.8932 1030 101.506 436.728 495.848
807 0 71.1977 15.5342 1106 100.235 435.748 494.481
808 0 74.2375 15.2079 1129 104.894 436.027 491.243
809 0 77.2269 16.7947 1297 100.891 436.141 489.951
810 0 79.2362 15.8513 1256 103.771 436.072 487.262
811 0 84.2069 16.4357 1384 101.377 436.61 484.96
812 0 85.294 15.6869 1338 104.933 436.673 482.239
813 0 89.2125 16.6905 1489 102.051 437.081 478.261
814 1 47.0332 11.9703 563 101.474 438.835 501.146
815 0 48.0902 11.3745 547 102.634 439.583 500.391
816 0 51.0423 11.226 573 102.787 440.895 499.353
817 0 53.1405 13.4361 714 101.798 442.273 494.927
818 0 56.1933 13.7383 772 101.859 443.898 495.751
819 0 58.1845 14.7806 860 99.8849 446.794 496.133
820 0 59.2333 13.8942 823 101.734 447.571 495.842
821 0 63.1685 15.5615 983 99.1292 449.274 493.635
822 0 66.1262 15.1226 1000 100.57 450.137 494.215
823 0 69.1764 14.5859 1009 102.367 450.654 494.181
824 0 74.3137 16.7533 1245 97.955 449.276 493.111
825 0 76.372 16.4851 1259 101.721 448.114 491.977
826 0 80.2068 15.0112 1204 105.172 447.448 491.495
827 0 83.2223 20.4392 1701 95.4156 446.607 490.805
828 0 86.0729 17.2644 1486 103.925 445.16 487.515
829 0 89.2565 15.349 1370 108.685 444.918 484.731
830 1 48.0963 12.4958 601 107.787 444.521 506.933
831 0 49.0642 12.8811 632 105.286 443.468 505.954
832 0 51.1357 13.0828 669 107.59 442.507 501.595
833 0 54.0861 13.7743 745 104.232 441.081 500.502
834 0 55.1575 14.5402 802 102.534 440.07 498.611
835 0 57.2246 14.4868 829 101.001 440.224 497.621
836 0 59.2853 14.9953 889 99.1395 439.822 497.138
837 0 62.2194 13.7256 854 99.9122 440.44 494.044
838 0 64.2207 13.9675 897 97.0156 439.945 492.021
839 0 65.208 13.4799 879 98.2617 440.255 489.846
840 0 68.3843 14.0676 962 97.2692 440.924 489.065
841 0 72.2064 15.0125 1084 94.4151 441.708 488.016
842 0 71.394 13.7827 984 99.1057 442.129 486.062
843 0 75.4746 14.0047 1057 97.8335 443.74 482.982
844 0 79.3666 13.5069 1072 98.0243 445.676 482.688
845 1 43.1873 9.23882 399 95.1529 447.634 504.832
846 0 46.158 9.74913 450 94.3 449.2 506.109
847 0 45.0976 11.5749 522 92.6782 451.364 505.638
848 0 48.1383 10.5737 509 93.7917 452.108 506.12
849 0 49.0649 10.8632 533 94.8255 453.15 504.771
850 0 52.0561 12.5826 655 93.1008 453.246 502.896
851 0 54.184 13.2511 718 91.5195 452.375 504.572
852 0 59.1548 13.676 809 89.9778 450.267 505.42
853 0 61.2357 13.9951 857 88.2765 449.289 505.838
854 0 64.1148 11.9629 767 91.6741 447.052 503.898
855 0 66.221 12.6395 837 91.6487 445.495 501.914
856 0 67.1681 13.1015 880 88.9068 442.699 500.331
857 0 72.2302 13.1524 950 89.7758 441.701 497.048
858 0 73.1786 12.9819 950 90.7621 440.087 495.669
859 0 75.2348 13.1721 991 90.2805 438.498 493.446
860 0 80.5341 14.2424 1147 88.0366 437.276 490.496
861 0 82.2886 13.2582 1091 89.3712 436.479 489.49
862 0 86.1709 15.6317 1347 85.3935 436.205 486.78
863 1 47.1267 11.4373 539 88.4898 437.701 503.05
864 0 49.0223 9.03671 443 88.3905 437.774 505.79
865 0 48.0209 9.4334 453 91.6181 437.475 501.887
866 0 55.0872 11.1641 615 88.9398 438.314 499.94
867 0 53.0824 8.15714 433 90.1062 438.755 500.242
868 0 58.1891 13.8514 806 82.6191 438.45 497.12
869 0 59.0476 11.5839 684 86.9781 440.496 493.411
870 0 62.1311 13.9383 866 85.418 441.372 494.021
871 0 66.0975 13.4801 891 87.4355 442.284 493.202
872 0 69.13 14.2196 983 85.9664 444.282 492.619
873 0 70.1904 14.0475 986 88.5467 445.459 491.314
874 0 73.2008 14.0026 1025 86.8644 446.168 491.419
875 0 75.4321 13.4293 1013 87.8233 447.594 490.498
876 0 77.3045 12.5995 974 89.6756 448.915 488.504
877 0 83.4113 13.895 1159 87.0846 449.587 489.538
878 0 86.321 13.9595 1205 89.327 449.264 486.908
879 1 47.3004 10.2748 486 85.216 448.13 511.344
880 0 44.2977 11.4679 508 86.8051 446.122 507.1
881 0 47.3523 10.707 507 85.8639 444.751 508.874
882 0 52.1461 11.6212 606 84.2508 442.924 506.543
883 0 55.2118 12.6241 697 83.6557 442.237 505.185
884 0 55.1131 14.2253 784 81.3903 441.736 502.189
885 0 59.2314 16.1401 956 76.2364 440.19 501.288
886 0 61.3058 14.2727 875 77.7737 438.576 498.121
887 0 64.4115 12.4667 803 79.3213 437.615 496.624
888 0 65.3041 13.8889 907 78.3043 436.665 491.178
889 0 66.1937 12.9469 857 81.2555 436.156 488.265
890 0 70.2357 14.4229 1013 78.8243 436.596 489.066
891 0 72.286 12.9762 938 82.6205 436.545 484.936
892 0 76.3309 14.1358 1079 79.949 436.109 481.676
893 0 78.3044 13.6008 1065 82.03 437.452 477.7
894 1 42.1161 11.1596 470 81.2851 438.366 499.426
895 0 45.2054 11.5252 521 82.0595 439.856 495.088
896 0 45.2272 12.2935 556 81.9209 440.644 494.674
897 0 47.3565 11.6774 553 82.5136 441.908 495.835
898 0 48.2615 13.2404 639 82.4836 442.603 494.687
899 0 51.2779 14.1776 727 82.1403 444.472 493.525
900 0 52.0206 13.2255 688 83.673 447.568 497.571
901 0 51.0565 12.0063 613 87.4176 450.558 497.23
902 0 54.0357 13.4726 728 85.9368 451.426 497.272
903 0 58.0822 13.4465 781 86.0141 453.328 497.982
904 0 61.2257 15.3857 942 83.9798 451.931 498.308
905 0 63.1202 13.9575 881 88.5414 451.203 498.446
906 0 67.1448 15.0868 1013 86.9714 450.138 499.291
907 0 70.2738 13.4474 945 90.3333 449.049 496.278
908 0 75.1553 14.7827 1111 90.9658 447.484 497.252
909 0 78.2214 15.2644 1194 91.0377 445.518 495.482
910 0 82.1761 15.4911 1273 88.458 443.837 494.83
911 1 43.1565 10.4735 452 94.4071 442.887 512.254
912 0 45.1101 11.4387 516 94.0698 441.808 511.421
913 0 45.0586 12.8055 577 94.0953 440.799 509.925
914 0 48.0444 13.2586 637 91.9513 439.334 506.396
915 0 50.0362 14.3696 719 91.4298 438.957 503.613
916 0 52.2153 13.9806 730 90.1014 436.933 504.093
917 0 52.2465 13.6851 715 91.4503 436.434 501.842
918 0 55.1869 13.7895 761 91.1748 435.88 501.332
919 0 55.211 14.5804 805 91.0149 436.181 499.37
920 0 58.1569 14.6328 851 91.9965 436.627 496.798
921 0 58.248 13.3395 777 94.9395 437.557 495.611
922 0 61.2112 13.3962 820 93.9598 438.309 496.44
923 0 65.2087 15.8108 1031 90.3113 438.651 493.577
924 0 66.1805 14.5209 961 93.0718 440.407 493.719
925 0 67.1725 15.1104 1015 93.4956 441.908 492.868
926 0 71.1834 15.6076 1111 91.694 443.825 492.295
927 1 40.0189 9.82035 393 94.2443 445.885 511.733
928 0 39.0878 11.0265 431 93.5383 447.455 512.529
929 0 41.1065 11.6283 478 98.6946 449.703 510.741
930 0 44.0353 11.5362 508 100.644 450.039 511.533
931 0 44.1214 11.5817 511 101.92 450.149 512.644
932 0 47.0412 13.4138 631 99.5895 449.532 511.437
933 0 48.1107 12.6791 610 100.305 448.467 509.349
934 0 53.0764 15.5625 826 92.1295 446.029 510.092
935 0 55.2268 14.7754 816 94.212 443.977 510.778
936 0 57.1959 14.6864 840 93.7202 441.511 507.789
937 0 59.1046 13.8737 820 94.7939 440.506 505.323
938 0 63.1857 15.225 962 94.4615 439.386 502.939
939 0 64.2512 14.3344 921 96.6526 438.241 500.479
940 0 66.1691 15.3999 1019 96.3003 437.132 497.104
941 0 70.2787 15.3531 1079 95.3355 436.453 494.249
942 0 71.1435 15.2509 1085 96.7429 435.547 492.021
943 0 74.2037 14.3524 1065 99.9793 434.582 488.419
944 0 77.1379 14.6232 1128 99.5124 435.165 484.58
945 0 79.2308 14.868 1178 98.7657 435.008 482.949
946 1 42.1495 11.388 480 100.756 435.277 500.638
947 0 46.1444 12.0275 555 98.9063 435.359 499.018
948 0 44.1186 10.3358 456 101.853 436.807 499.235
949 0 47.1058 11.2937 532 103.226 437.654 495.607
950 0 50.0759 13.8989 696 98.8879 438.264 494.697
951 0 52.2308 14.3785 751 99.3582 439.59 493.63
952 0 55.0571 16.2014 892 94.7713 442.833 494.398
953 0 54.0286 13.9001 751 101.438 445.288 494.779
954 0 58.0613 15.0875 876 98.4498 447.446 494.11
955 0 57.075 12.5274 715 104.418 448.845 494.891
956 0 62.0481 14.0375 871 100.669 450.917 495.033
957 0 65.0907 15.44 1005 98.8756 451.501 492.984
958 0 65.0891 12.9054 840 104.612 452.239 494.708
959 0 71.0839 15.7279 1118 98.3524 451.965 494.915
960 0 74.0803 13.7148 1016 103.164 451.564 493.914
961 1 39.1379 11.7789 461 101.169 450.542 512.354
962 0 43.1232 12.1976 526 100.452 449.369 511.945
963 0 42.2828 11.021 466 103.863 448.118 511.506
964 0 46.1842 13.1863 609 100.719 445.833 509.136
965 0 47.1607 12.7649 602 100.762 444.214 508.668
966 0 50.1719 14.1713 711 98.0309 442.136 506.699
967 0 54.2211 14.8097 803 96.6252 441.308 504.761
968 0 53.1506 13.2642 705 101.326 440.396 502.641
969 0 57.3112 14.4474 828 99.0604 439.386 501.688
970 0 58.2255 13.5679 790 101.815 438.758 499.118
971 0 61.1876 13.5812 831 101.658 439.006 497.166
972 0 62.2143 14.7715 919 100.664 438.737 495.084
973 0 63.3037 13.5221 856 104.919 438.717 491.672
974 0 65.2586 14.297 933 103.783 438.646 490.386
975 0 68.2317 14.0844 961 104.033 438.874 487.479
976 0 68.1957 13.7985 941 105.9 439.659 486.272
977 0 74.4251 15.8414 1179 101.342 440.423 484.531
978 0 76.3413 13.9505 1065 104.753 440.727 485.513
979 0 80.4239 14.8712 1196 104.057 442.341 482.944
980 0 81.2782 13.6937 1113 107.936 444.401 480.203
981 0 85.1674 14.0782 1199 107.555 446.274 480.085
982 1 46.071 10.3753 478 108.854 449.126 501.655
983 0 45.0992 10.2663 463 110.538 450.978 503.244
984 0 49.1401 10.7041 526 109.608 452.251 503.428
985 0 49.1401 10.6023 521 150.058 453.228 503.482
986 0 56.1662 14.6173 821 103.933 453.996 502.279
987 0 55.0931 13.813 761 108.767 452.732 501.783
988 0 60.0942 14.627 879 106.214 452.305 502.581
989 0 62.1152 14.8112 920 105.353 449.71 502.305
990 0 65.1769 14.1308 921 107.553 448.494 501.2
991 0 69.2175 13.6815 947 107.072 447.379 497.847
992 0 71.1366 15.0696 1072 104.871 445.7 496.722
993 0 75.1689 14.4342 1085 105.292 442.827 494.453
994 0 78.297 14.8154 1160 103.563 440.882 491.496
995 0 80.4141 14.9352 1201 104.201 440.454 487.9
996 0 85.7206 15.8538 1359 101.541 439.605 486.579
997 0 88.3018 15.6509 1382 102.465 439.258 483.525
998 1 48.1658 12.9345 623 99.0899 438.125 503.379
999 0 49.2241 11.4172 562 101.203 438.078 502.215
1000 0 51.1215 12.4018 634 100.301 438.297 498.476
1001 0 55.115 14.497 799 93.7484 439.185 497.931
1002 0 54.0594 12.3753 669 99.6966 439.046 496.348
1003 0 56.1061 13.5814 762 97.8911 440.235 494.747
1004 0 59.2662 14.1565 839 95.9571 440.483 494.659
1005 0 59.159 13.0327 771 97.7588 441.488 494.389
1006 0 63.1409 14.1905 896 94.8504 441.25 491.519
1007 0 64.1976 14.0348 901 95.8047 443.073 489.287
1008 0 68.2492 15.0624 1028 92.6196 445.217 491.085
1009 0 67.1289 12.9154 867 98.4291 447.672 490.345
1010 0 73.2965 14.339 1051 95.6137 449.903 489.748
1011 0 75.0874 14.33 1076 95.1626 451.134 489.773
1012 0 79.2113 13.9627 1106 95.858 451.959 488.8
1013 0 80.3291 14.2912 1148 96.3432 452.67 487.454
1014 0 85.2117 13.5075 1151 97.0582 452.799 489.285
1015 0 88.2843 12.7656 1127 98.9539 451.275 484.15
1016 1 51.1905 11.4279 585 90.9829 450.533 510.499
1017 0 51.124 10.9733 561 93.3191 449.622 508.471
1018 0 53.1012 10.4894 557 93.781 447.303 505.772
1019 0 56.0741 11.9306 669 90.8221 445.356 505.303
1020 0 59.049 13.565 801 87.2047 445.042 502.658
1021 0 63.045 14.2121 896 85.7913 443.69 501.35
1022 0 63.0747 13.1431 829 88.1484 442.912 498.259
1023 0 67.089 13.1467 882 87.8005 441.55 496.861
1024 0 68.0759 13.294 905 89.179 440.406 493.8
1025 0 71.1115 13.8937 988 88.003 439.42 490.319
1026 0 73.0459 13.115 958 89.2902 438.608 486.698
1027 0 77.0803 14.3746 1108 86.7428 439.316 485.589
1028 0 80.0552 13.9154 1114 88.1284 438.759 482.296
1029 1 44.0354 9.24256 407 90.6216 439.776 501.85
1030 0 46.046 11.1845 515 89.5476 440.897 498.351
1031 0 47.0783 10.1745 479 90.3236 441.395 499.146
1032 0 48.0637 10.5277 506 91.1126 441.83 498.399
1033 0 52.265 11.92 623 88.2697 442.197 497.128
1034 0 52.4381 12.9867 681 88.188 442.131 494.872
1035 0 54.2721 12.2531 665 89.2992 444.414 497.03
1036 0 56.3868 11.9177 672 89.5789 446.583 496.405
1037 0 57.2541 12.593 721 90.6907 449.104 495.153
1038 0 61.3204 13.7964 846 88.3747 451.552 496.85
1039 0 63.3396 13.0724 828 90.1969 451.664 496.839
1040 0 64.4029 12.0336 775 92.3652 451.99 497.15
1041 0 68.1759 13.3918 913 90.3801 452.482 498.346
1042 0 73.3303 13.6778 1003 89.8395 451.32 494.657
1043 1 36.0516 8.79294 317 93.7445 452.47 515.003
1044 0 39.1181 10.7111 419 91.7995 450.663 514.248
1045 0 41.0749 10.3226 424 92.1675 448.875 515.033
1046 0 47.0481 11.5414 543 89.6409 447.238 512.151
1047 0 45.1095 11.062 499 93.1002 446.451 510.944
1048 0 49.2383 13.6682 673 86.5037 443.437 509.418
1049 0 48.3362 11.4821 555 90.9946 441.641 506.782
1050 0 53.2373 13.2802 707 87.1938 440.18 505.044
1051 0 54.0701 13.8154 747 88.8541 438.452 501.36
1052 0 56.1257 14.2181 798 88.0852 438.591 499.888
1053 0 58.1528 15.1669 882 86.9444 437.723 498.448
1054 0 59.1273 13.953 825 90.0085 437.939 495.983
1055 0 61.1747 13.911 851 90.9847 439.039 494.415
1056 0 63.3552 14.2845 905 90.8917 438.496 492.381
1057 0 63.2327 15.3085 968 91.251 438.788 488.789
1058 0 66.2047 14.8328 982 92.4868 439.514 489.093
1059 0 69.179 16.6958 1155 89.4147 440.339 487.772
1060 0 71.2645 15.7301 1121 92.3318 442.2 486.15
1061 0 73.2111 15.2982 1120 94.8491 443.003 483.568
1062 0 76.3364 15.2221 1162 95.7427 445.77 483.696
1063 0 78.3499 15.9541 1250 95.3096 447.799 483.131
1064 1 40.0895 10.8507 435 98.2621 449.292 504.943
1065 0 42.16 11.6698 492 97.815 450.927 505.234
1066 0 40.1361 11.8347 475 102.587 452.768 502.619
1067 0 47.1416 14.1276 666 95.503 453.613 504.559
1068 0 47.1071 13.5861 640 98.5062 453.072 504.689
1069 0 50.1086 14.9076 747 96.3199 452.661 503.839
1070 0 51.0521 14.7496 753 97.2417 450.972 503.267
1071 0 55.075 15.2156 838 96.1659 449.877 501.523
1072 0 58.1513 15.5972 907 95.4763 448.857 501.959
1073 0 60.1068 16.0215 963 95.1973 447.308 500.126
1074 0 63.1846 14.8296 937 98.0854 445.755 498.899
1075 0 65.1641 14.3177 933 99.7331 444.371 497.376
1076 0 68.2113 15.0268 1025 98.1746 442.753 495.121
1077 0 69.2181 15.4439 1069 98.7914 442.36 493.775
1078 0 73.2152 15.4066 1128 97.9087 440.695 490.335
1079 0 74.3125 15.1388 1125 99.8053 439.378 486.658
1080 0 78.1389 15.3829 1202 98.292 438.695 484.151
1081 1 38.2469 10.3538 396 100.081 439.884 503.417
1082 0 41.2125 12.3992 511 95.6047 440.386 501.597
1083 0 43.1395 12.2857 530 96.9434 440.623 499.966
1084 0 44.1849 13.1493 581 97.6833 440.721 497.854
1085 0 46.1824 13.6849 632 96.5142 441.731 496.101
1086 0 49.1535 14.6683 721 94.577 441.567 494.241
1087 0 49.1132 13.1533 646 98.3916 443.658 492.957
1088 0 52.0876 14.0916 734 96.0995 445.561 492.319
1089 0 55.1976 14.2579 787 96.6048 447.681 491.931
1090 0 55.1243 14.8392 818 97.2066 449.215 492.082
1091 0 59.1337 14.3911 851 97.8226 451.411 492.216
1092 0 61.1634 15.1398 926 96.5162 453.254 492.66
1093 0 65.1169 14.8348 966 96.8478 454.064 493.945
1094 0 67.0785 13.1786 884 101.674 454.811 492.066
1095 0 71.1141 15.0744 1072 97.8116 454.232 491.971
1096 0 75.2413 14.088 1060 99.1264 454.591 492.881
1097 1 37.0483 9.2042 341 102.548 453.924 510.71
1098 0 40.1969 9.87637 397 100.307 452.363 511.826
1099 0 44.1799 11.5437 510 97.1451 450.682 510.651
1100 0 43.1008 11.6239 501 99.6627 449.579 510.13
1101 0 47.1832 12.6528 597 96.9648 448.245 508.224
1102 0 48.2614 13.2404 639 95.9937 445.698 505.834
1103 0 50.2928 12.288 618 95.8317 444.615 504.555
1104 0 52.1525 13.0387 680 94.9029 443.537 503.301
1105 0 53.2173 12.7966 681 95.9104 442.753 500.476
1106 0 57.2669 13.7252 786 92.8372 441.177 498.118
1107 0 58.3235 13.2022 770 94.3312 440.522 495.131
1108 0 61.3504 14.1808 870 92.808 440.209 492.689
1109 0 61.1571 13.2446 810 95.1975 441.189 490.14
1110 0 64.3205 14.5521 936 92.9701 441.407 489.7
1111 1 31.4309 8.90844 280 99.1786 440.904 503
1112 0 35.0914 10.8004 379 96.285 442.127 501.28
1113 0 37.3673 10.4905 392 93.9158 442.939 503.577
1114 0 39.3193 11.5974 456 94.8004 444.395 501.61
1115 0 39.1955 11.8891 466 96.4721 444.672 501.345
1116 0 42.3316 12.6856 537 92.7169 446.251 500.922
1117 0 42.2504 12.1656 514 97.5661 447.479 500.134
1118 0 45.3913 12.4914 567 98.0353 451.476 501.104
1119 0 45.0294 12.8583 579 101.102 452.922 502.029
1120 0 50.2012 13.8244 694 98.0778 453.569 502.339
1121 0 53.3939 14.5148 775 97.7394 454.339 501.231
1122 0 54.3049 14.4186 783 98.7663 454.004 504.017
1123 0 56.4088 13.934 786 101.359 454.041 502.508
1124 0 59.1589 15.2809 904 98.9502 453.553 501.979
1125 0 62.5253 14.746 922 101.422 451.873 503.195
1126 0 65.5357 14.8774 975 103.438 450.645 500.444
1127 0 68.4282 15.666 1072 102.926 449.193 499.562
1128 0 71.2608 16.0537 1144 102.679 447.623 498.091
1129 0 73.3311 15.1368 1110 105.115 445.61 497.308
1130 0 77.5073 15.6501 1213 105.34 443.864 492.084
1131 1 41.3334 10.4032 430 106.077 443.188 511.247
1132 0 41.1563 11.347 467 106.313 442.66 508.707
1133 0 46.1991 12.2513 566 104.072 441.65 506.899
1134 0 46.1991 12.1864 563 160 440.65 506.996
1135 0 49.0816 13.6711 671 102.38 441.101 502.592
1136 0 50.1467 14.2781 716 105.334 440.05 499.423
1137 0 50.1135 13.8486 694 104.756 441.928 497.452
1138 0 52.0613 14.4829 754 102.554 442.306 497.727
1139 0 55.2389 14.3377 792 102.539 442.914 496.178
1140 0 57.1685 14.6584 838 102.998 443.753 494.801
1141 0 60.1647 15.0919 908 100.714 444.081 493.521
1142 0 62.4143 15.4933 967 99.6277 445.438 493.383
1143 0 63.3216 13.2498 839 104.948 446.809 492.616
1144 0 66.2196 14.4066 954 101.569 447.449 493.545
1145 0 67.3508 14.8179 998 103.286 448.834 492.14
1146 0 71.2557 14.5251 1035 103.876 451.041 489.793
1147 0 75.2716 13.8034 1039 103.914 452.01 491.997
1148 0 76.2629 12.8372 979 108.759 452.805 490.669
1149 0 82.463 14.1518 1167 104.189 452.594 489.395
1150 1 43.1385 12.1701 525 100.981 451.838 509.189
1151 0 46.2334 11.7015 541 100.832 451.802 509.475
1152 0 48.2737 11.5798 559 100.694 451.336 510.102
1153 0 52.2543 12.3052 643 99.4059 450.432 509.145
1154 0 52.1462 13.9799 729 97.0274 449.244 507.292
1155 0 54.1196 11.3822 616 101.7 447.511 506.524
1156 0 52.1761 12.0553 629 102 445.892 504.267
1157 0 56.1893 12.0308 676 100.281 443.975 501.182
1158 0 60.3449 12.8097 773 99.5925 443.085 500.057
1159 0 61.1939 12.2561 750 100.209 441.847 498.997
1160 0 65.3083 13.2296 864 97.8796 440.712 495.046
1161 0 66.2291 12.2605 812 99.1034 440.553 494.67
1162 0 72.4374 13.8602 1004 95.5 440.106 489.304
1163 1 40.3392 10.0399 405 94.1309 440.069 506.469
1164 0 38.4334 9.57501 368 95.9701 440.394 504.166
1165 0 41.2787 10.5381 435 93.9609 440.414 502.313
1166 0 43.4211 11.8145 513 93.2573 440.458 500.018
1167 0 44.3612 11.4965 510 94.6333 441.339 498.627
1168 0 45.3783 10.7981 490 95.8551 442.627 497.384
1169 0 48.4068 11.9405 578 93.2076 444.374 498.478
1170 0 49.4725 13.1588 651 94.0323 444.533 495.849
1171 0 51.3485 12.0938 621 96.1014 446.314 495.572
1172 0 53.2947 10.7515 573 99.0332 448.825 495.604
1173 0 54.4921 12.6073 687 95.5109 450.421 495.83
1174 0 58.2417 11.9502 696 95.4713 452.122 495.553
1175 0 59.4015 12.0704 717 96.2357 453.317 494.152
1176 0 61.3938 12.0208 738 96.8184 453.943 495.634
1177 0 63.3465 12.4869 791 96.5133 454.547 493.555
1178 0 67.3598 12.5297 844 96.5628 454.993 492.995
1179 0 69.4338 13.0196 904 95.4491 454.034 492.416
1180 0 74.5147 12.4539 928 96.083 453.23 491.784
1181 0 76.2728 12.6126 962 96.1933 452.104 488.941
1182 0 82.557 14.3537 1185 91.9958 450.208 485.842
1183 0 85.5066 14.876 1272 91.0354 448.961 485.017
1184 0 87.5827 12.6395 1107 94.5312 448.186 485.003
1185 1 45.3052 10.1975 462 95.5563 448.032 502.584
1186 0 47.2633 10.1347 479 97.1691 446.025 496.336
1187 0 47.3351 9.73907 461 96.8742 444.655 495.026
1188 0 51.3486 10.3021 529 95.5482 443.609 491.922
1189 0 53.2869 11.804 629 92.4134 443.361 489.905
1190 0 56.5627 13.3657 756 88.6759 442.331 488.344
1191 0 60.3738 13.3502 806 88.5782 441.877 491.552
1192 0 62.1923 14.4391 898 87.0612 442.249 488.458
1193 0 63.4393 12.9415 821 91.0816 442.384 486.924
1194 0 69.241 14.8611 1029 87.0486 442.603 485.565
1195 0 69.3707 14.2279 987 89.3627 443.152 483.86
1196 0 70.2157 13.4585 945 91.5238 443.34 483.041
1197 0 71.2345 12.7887 911 95.1647 445.257 480.722
1198 0 76.2617 14.7387 1124 91.4048 446.356 480.649
1199 0 80.3982 15.0998 1214 91.4498 446.926 477.848
1200 1 40.3667 9.31461 376 93.7287 449.005 499.194
1201 0 39.4101 9.28696 366 98.7213 451.183 497.117
1202 0 45.3556 10.1862 462 97.6883 452.693 495.994
1203 0 46.1919 11.6254 537 96.6276 453.806 494.812
1204 0 49.412 12.9523 640 93.4453 453.922 494.473
1205 0 52.4223 13.086 686 93.0087 455 495.845
1206 0 51.2424 13.0946 671 93.5022 454.317 494.93
1207 0 57.2295 14.8001 847 90.1535 454.244 495.937
1208 0 58.1203 14.47 841 92.7229 453.874 494.946
1209 0 61.1852 13.4183 821 95.5128 452.787 494.889
1210 0 63.1873 14.2117 898 94.1203 451.336 493.524
1211 0 67.1694 14.4858 973 93.9681 450.008 493.425
1212 0 70.314 14.3215 1007 94.9732 448.563 490.965
1213 0 73.1673 15.6627 1146 92.9808 447.205 488.736
1214 0 74.2013 14.9458 1109 95.6303 446.877 491.073
1215 0 77.1573 14.3343 1106 97.8779 444.885 487.686
1216 0 79.2186 13.8982 1101 99.5286 444.269 483.226
1217 0 83.2257 16.245 1352 94.7012 443.291 478.92
1218 0 85.3207 15.2483 1301 97.4796 442.774 476.326
1219 0 86.3029 14.5302 1254 99.6252 442.222 474.869
1220 0 92.1485 14.7479 1359 98.8771 441.64 472.012
1221 0 94.3462 15.3795 1451 98.1268 442.36 470.735
1222 0 95.1976 14.118 1344 102.406 443.302 464.256
1223 1 50.4163 9.22321 465 103.086 445.645 490.428
1224 0 53.3971 10.1316 541 102.423 446.331 489.813
1225 0 55.249 13.1043 724 98.5815 447.057 487.624
1226 0 57.2001 14.0384 803 97.4097 447.112 488.559
1227 0 59.2115 14.0175 830 98.1687 449.492 489.555
1228 0 63.1722 13.851 875 99.3714 451.674 490.049
1229 0 64.1899 15.127 971 97.276 452.858 487.964
1230 0 68.2613 14.2101 970 99.0598 455.109 491.152
1231 0 71.2125 15.8961 1132 98.8666 456.326 488.804
1232 0 74.3705 15.5841 1159 98.5203 455.312 490.792
1233 0 77.1541 14.8663 1147 102.293 455.418 488.2
1234 0 83.1236 17.2514 1434 96.4379 454.35 488.104
1235 0 85.1039 15.0169 1278 103.485 453.084 485.906
1236 0 91.2334 14.7643 1347 103.071 451.61 486.522
1237 0 95.2303 15.1947 1447 103.158 450.263 484.594
1238 1 51.1165 11.7183 599 102.297 448.217 506.97
1239 0 52.099 12.5914 656 100.848 447.127 503.02
1240 0 53.044 13.7622 730 99.3822 445.244 499.164
1241 0 58.2651 13.3013 775 96.24 443.066 500.528
1242 0 60.3019 14.1953 856 95.0187 441.772 499.619
1243 0 60.2813 13.2047 796 99.652 441.523 495.103
1244 0 64.1156 14.2087 911 97.7585 440.872 492.457
1245 0 66.1687 14.1003 933 96.9689 440.732 491.179
1246 0 70.1832 14.1772 995 96.6673 441.101 490.162
1247 0 72.1255 13.9895 1009 99.5203 441.073 486.008
1248 0 75.0994 14.7671 1109 98.3679 441.662 484.458
1249 0 78.1348 15.8828 1241 97.5117 441.921 482.309
1250 0 79.2561 14.2323 1128 101.093 443.515 484.102
1251 0 80.056 14.1651 1134 102.987 443.708 480.14
1252 0 85.1557 15.2192 1296 99.9252 444.974 478.404
1253 0 89.1717 16.5635 1477 98.3053 446.525 477.397
1254 0 92.2231 15.7987 1457 100.535 447.901 477.47
1255 1 51.1332 8.68321 444 106.16 450.563 499.624
1256 0 56.3463 11.0566 623 102.278 452.119 500.053
1257 0 55.323 11.6588 645 105.361 454.471 496.49
1258 0 61.2366 12.9498 793 103.602 453.396 496.411
1259 0 64.2225 12.7681 820 104.479 452.71 495.504
1260 0 70.3162 13.8659 975 100.896 452.302 494.97
1261 0 72.2151 14.6784 1060 99.2292 451.066 496.049
1262 0 74.5149 12.5747 937 104.473 450.126 491.165
1263 0 78.5238 13.4609 1057 101.846 448.711 491.336
1264 0 83.4757 14.9265 1246 97.6172 447.231 490.947
1265 0 86.7936 13.5379 1175 101.577 445.811 484.117
1266 0 90.6828 12.9903 1178 101.955 444.268 480.08
1267 0 94.5185 13.701 1295 99.3915 442.114 480.318
1268 1 52.2589 10.3523 541 99.2181 441.397 499.301
1269 0 55.2532 9.93607 549 99.4226 441.951 499.554
1270 0 57.2942 10.4897 601 99.6106 440.559 497.236
1271 0 60.109 12.7102 764 97.4869 439.196 492.314
1272 0 61.2332 11.7583 720 100.018 439.383 489.612
1273 0 64.3642 13.0041 837 96.4815 438.622 487.301
1274 0 66.2088 12.5512 831 98.2347 439.309 487.437
1275 0 68.2865 12.8722 879 98.5381 439.935 482.242
1276 0 70.4017 12.4855 879 98.6405 441.275 483.584
1277 0 76.5941 14.1656 1085 94.6783 441.991 480.745
1278 0 76.646 14.5865 1118 95.839 443.787 478.519
1279 0 77.6203 12.7158 987 101.075 443.546 476.788
1280 1 40.3333 9.07438 366 101.675 446.126 494.145
1281 0 44.3596 11.0461 490 97.2061 448.094 497.135
1282 0 45.6726 10.4001 475 97 449.333 497.474
1283 0 46.3975 11.1213 516 99.3372 450.888 496.552
1284 0 48.3582 10.4843 507 101.909 452.473 497.986
1285 0 53.0671 13.1343 697 97.6313 454.686 497.64
1286 0 52.0681 12.9062 672 102.068 455.976 498.321
1287 0 55.1199 13.6974 755 100.257 456.356 499.068
1288 0 56.2068 12.8988 725 102.719 454.847 499.841
1289 0 58.1214 13.5406 787 101.841 453.745 498.278
1290 0 62.0418 13.3942 831 102.872 451.722 499.806
1291 0 62.0998 12.2706 762 106.731 449.883 496.024
1292 0 69.3019 13.7081 950 102.46 448.272 495.403
1293 0 71.1214 14.651 1042 100.184 446.261 491.907
1294 0 75.2166 14.6643 1103 99.8504 445.689 490.401
1295 0 77.1835 14.7441 1138 99.3638 443.687 489.328
1296 0 79.3126 14.3357 1137 100.412 440.372 485.392
1297 0 80.479 13.6433 1098 102.251 439.597 479.09
1298 0 83.3177 14.4747 1206 100.593 438.663 477.213
1299 0 87.6798 14.7925 1297 99.7363 439.157 474.057
1300 0 92.2423 16.771 1547 93.9095 439.024 475.714
1301 0 94.3342 14.5758 1375 98.0458 440.816 472.265
1302 1 55.3585 10.7843 597 99.598 439.993 491.025
1303 0 54.2565 10.1555 551 99.2305 440.739 491.43
1304 0 57.2539 9.55393 547 100.048 442.322 490.066
1305 0 60.4114 12.7294 769 93.5319 442.992 489.153
1306 0 61.0942 13.1927 806 94.0248 444.094 486.029
1307 0 62.1416 12.9543 805 94.8981 447.232 485.502
1308 0 66.3417 13.0235 864 92.3773 449.373 487.748
1309 0 71.344 14.311 1021 89.8355 451.738 485.699
1310 0 72.24 13.206 954 93.1761 453.428 484.87
1311 0 74.331 13.6417 1014 92.643 454.193 483.837
1312 0 77.2394 13.0244 1006 94.2565 455.612 481.916
1313 0 82.3188 14.2009 1169 92.2198 454.608 484.23
1314 0 84.2158 12.088 1018 97.0157 454.536 482.219
1315 0 87.246 13.0665 1140 96.9026 453.937 480.738
1316 0 93.1192 13.8962 1294 95.9706 452.702 479.031
1317 0 97.2861 14.2261 1384 95.6236 451.635 479.202
1318 0 101.318 14.8443 1504 95.7141 450.272 476.36
1319 0 105.171 14.0533 1478 96.4012 449.321 476.396
1320 0 109.277 14.5227 1587 96.8979 447.821 471.503
1321 1 64.115 10.1068 648 96.5062 446.582 494.242
1322 0 65.1952 9.49456 619 97.3279 444.313 493.817
1323 0 68.1332 11.7564 801 96.3908 443.24 489.433
1324 0 68.1584 11.8401 807 95.7968 442.668 486.489
1325 0 72.1696 13.108 946 93.0603 442.571 484.724
1326 0 75.2247 11.9774 901 95.5938 442.774 481.501
1327 0 78.3697 13.3725 1048 91.4714 443.327 481.186
1328 0 83.3838 14.4393 1204 90.8821 443.843 476.975
1329 0 84.2634 12.3422 1040 93.224 444.416 478.599
1330 0 87.2763 14.5057 1266 90.4258 445.194 472.635
1331 0 90.2356 13.7972 1245 90.9912 445.979 474.954
1332 0 95.3346 13.269 1265 92.9589 446.666 472.033
1333 0 98.2471 14.036 1379 92.2995 447.786 467.967
1334 0 100.175 12.1787 1220 96.3041 450.68 468.243
1335 0 105.167 14.0538 1478 94.1536 453.758 466.647
1336 1 55.1673 7.21442 398 98.9397 453.94 493.384
1337 0 57.1712 10.8271 619 93.3732 454.772 493.612
1338 0 61.2562 10.6112 650 93.6646 456.148 493.478
1339 0 65.3313 13.1331 858 91.7156 456.713 489.317
1340 0 67.2343 13.2968 894 94.0917 455.667 493.35
1341 0 73.2316 13.9557 1022 92.3738 454.854 491.518
1342 0 77.3598 14.5554 1126 92.532 453.973 490.004
1343 0 79.3331 14.1051 1119 95.2324 452.645 490.478
1344 0 83.2958 15.0428 1253 94.7765 451.846 488.173
1345 0 87.1375 14.1386 1232 98.5633 450.705 487.14
1346 1 49.1239 9.79157 481 99.0208 449.534 505.884
1347 0 50.1674 11.1626 560 98.0893 447.464 503.043
1348 0 53.123 12.1605 646 95.5232 446.22 502.454
1349 0 54.1203 12.8048 693 95.8268 444.82 496.709
1350 0 56.1066 13.3139 747 93.8983 443.714 492.884
1351 0 59.1348 12.9535 766 93.4373 443.157 495.266
1352 0 60.2529 14.0242 845 93.2462 442.55 492.631
1353 0 63.1901 13.5464 856 93.4206 442.735 490.293
1354 0 64.2675 13.4749 866 93.537 443.167 487.642
1355 0 66.2021 13.3228 882 94.7676 444.836 485.754
1356 0 68.3813 13.7757 942 93.6529 444.365 485.619
1357 0 71.3334 13.1916 941 95.1382 445.593 485.588
1358 0 73.198 14.3993 1054 93.9032 446.086 482.724
1359 0 74.1748 13.6569 1013 97.465 447.365 480.815
1360 0 78.4292 13.6301 1069 97.4659 449.148 480.664
1361 0 83.261 14.953 1245 95.3301 451.025 479.846
1362 0 83.1685 13.3584 1111 100.283 453.24 478.291
1363 0 87.1299 13.8414 1206 100.25 454.789 479.54
1364 0 92.2886 12.9919 1199 100.371 456.126 480.57
1365 0 97.3249 14.0046 1363 99.2216 455.156 478.821
1366 1 55.1091 9.85318 543 99.5525 455.884 502.471
1367 0 59.1535 11.411 675 98.6578 455.72 500.819
1368 0 59.3434 10.751 638 101.445 454.864 498.417
1369 0 62.1264 12.4585 774 97.8023 453.37 498.779
1370 0 65.2504 12.2605 800 99.2925 452.125 496.378
1371 0 69.338 11.5954 804 99.6965 450.244 497.376
1372 0 71.3175 11.4839 819 100.3 449.084 495.427
1373 0 75.3394 12.4503 938 99.2527 447.636 490.22
1374 0 79.3111 12.4447 987 99.1702 445.239 488.671
1375 1 44.0501 11.1691 492 95.6829 445.646 506.177
1376 0 46.0575 10.1178 466 95.5129 444.908 505.521
1377 0 46.075 10.7216 494 96.5911 443.81 502.561
1378 0 49.2713 12.0151 592 91.9139 441.889 501.274
1379 0 50.0739 12.4416 623 94.2199 442.18 498.965
1380 0 50.2282 11.6867 587 96.5145 441.637 498.411
1381 0 51.3134 11.0303 566 98.7049 441.728 497.053
1382 0 54.3633 12.3429 671 96.1341 442.301 493.656
1383 0 57.2118 13.1966 755 95.245 442.674 492.609
1384 0 58.2534 11.3126 659 98.9044 443.894 492.222
1385 0 58.275 12.4925 728 97.75 444.372 489.864
1386 0 59.2494 11.9326 707 97.8967 446.089 492.871
1387 0 63.3054 12.4002 785 97.0535 448.08 491.352
1388 0 66.1853 13.9155 921 93.7177 450.429 490.436
1389 0 68.2858 13.2531 905 95.389 452.495 489.221
1390 0 68.197 11.6867 797 97.5132 453.743 489.893
1391 0 72.2149 12.9059 932 95.7811 454.458 488.682
1392 0 74.4416 11.8885 885 98.6282 454.527 487.803
1393 0 79.2796 12.992 1030 97.1777 454.847 486.533
1394 0 82.2796 11.8134 972 99.7191 453.567 486.329
1395 1 47.1314 9.67508 456 94.5241 454.388 508.976
1396 0 51.2091 8.98278 460 96.2174 453.58 508.102
1397 0 54.2812 9.74555 529 95.7694 451.79 507.25
1398 0 54.2558 10.1372 550 97.5218 450.047 506.329
1399 0 59.112 12.1972 721 94.0402 447.581 502.495
1400 0 61.2311 13.2612 812 91.7599 445.712 500.963
1401 0 60.0941 12.0644 725 92.1255 445.251 499.899
1402 0 63.0625 13.4628 849 89.9152 444.502 497.181
1403 0 65.0505 11.2835 734 93.218 443.984 496.732
1404 0 66.1443 13.3647 884 90.5905 443.878 492.209
1405 0 69.1101 13.1674 910 90.4297 443.378 491.777
1406 0 73.0854 12.9164 944 90.4576 443.229 489.032
1407 0 74.1262 14.3134 1061 88.525 443.162 486.342
1408 0 76.0848 13.669 1040 89.3962 443.689 481.38
1409 0 80.1338 13.2528 1062 88.4925 443.756 482.396
1410 0 82.1041 13.0566 1072 90.2397 444.301 478.367
1411 1 43.0567 9.80104 422 89.1114 445.491 501.218
1412 0 43.0348 8.62092 371 91.0889 446.809 501.332
1413 0 45.0509 9.92211 447 89.8434 447.43 501.776
1414 0 49.207 10.4863 516 89.7907 447.771 500.072
1415 0 48.426 11.3988 552 90.2609 450.397 498.301
1416 0 52.4292 11.7301 615 89.8065 452.023 497.727
1417 0 55.2318 12.7282 703 89.7468 453.331 498.691
1418 0 58.3365 12.9079 753 92.5803 454.191 501.247
1419 0 56.1939 12.5814 707 96.0976 454.485 500.634
1420 0 60.2129 13.3526 804 94.0311 453.97 501.367
1421 0 64.2049 14.7964 950 91.76 452.509 501.024
1422 0 67.282 13.8521 932 93.8101 451.385 499.969
1423 0 70.1874 13.5494 951 95.4763 449.856 498.018
1424 0 71.1754 13.3895 953 97.7324 448.647 495.745
1425 0 75.2669 13.3923 1008 97.625 446.945 496.437
1426 0 79.2582 14.0301 1112 95.7878 445.339 492.73
1427 0 82.1948 13.0544 1073 97.9627 444.406 491.273
1428 0 85.1358 15.0818 1284 93.9688 443.61 485.826
1429 0 88.1141 14.7309 1298 95.7149 443.559 485.294
1430 1 45.1208 9.64079 435 99.5724 442.246 505.924
1431 0 47.1202 11.354 535 97.6542 442.129 503.57
1432 0 46.0543 9.42365 434 104.071 440.956 500.73
1433 0 50.0559 10.9278 547 100.057 441.243 498.163
1434 0 48.0596 10.3829 499 139.355 440.158 498.279
1435 0 53.2804 12.8753 686 97.5758 441.57 495.297
1436 0 56.2954 12.5232 705 96.3433 442.757 493.596
1437 0 57.2254 12.7216 728 95.9451 443.084 494.797
1438 0 59.1918 13.0255 771 95.8846 444.13 491.838
1439 0 61.197 12.6313 773 96.749 445.224 490.137
1440 0 66.1417 14.9527 989 92.4317 446.452 490.199
1441 0 67.1505 13.5516 910 97.1912 448.332 490.798
1442 0 69.1814 12.9515 896 99.0469 450.552 491.054
1443 0 72.1709 12.7614 921 101.448 452.098 490.401
1444 0 76.2066 13.634 1039 100.811 452.852 490.02
1445 0 79.2412 13.9448 1105 101.804 454.43 488.602
1446 0 83.2244 13.5417 1127 101.964 453.107 490.316
1447 1 45.0635 10.2744 463 100.665 452.724 512.261
1448 0 48.042 11.0112 529 102.635 451.705 509.316
1449 0 48.0197 10.9747 527 105.556 451.609 509.698
1450 0 50.0877 11.8193 592 106.458 450.775 508.552
1451 0 53.3515 13.3267 711 100.899 449.259 507.821
1452 0 54.3186 11.0828 602 105.892 448.395 508.198
1453 0 57.4565 13.941 801 99.9176 446.375 505.815
1454 0 59.2438 13.6385 808 102.594 444.755 503.941
1455 0 61.2593 14.104 864 100.073 442.218 501.345
1456 0 62.2558 12.6735 789 104.574 440.648 497.513
1457 0 64.2646 13.3199 856 102.989 440.451 495.495
1458 0 67.3493 13.4819 908 106.153 440.235 493.297
1459 0 69.3004 14.4588 1002 104.279 440.493 491.033
1460 0 71.3887 12.9012 921 105.509 440.984 489.134
1461 0 74.3863 13.7257 1021 104.066 440.959 484.356
1462 0 77.3125 14.228 1100 104.265 441.349 485.796
1463 0 79.3602 14.8941 1182 102.506 441.547 482.865
1464 0 81.2787 13.1277 1067 106.421 442.519 480.375
1465 1 42.0641 8.15423 343 104.525 444.799 505.195
1466 0 45.2073 9.84355 445 104.944 444.773 500.56
1467 0 47.1502 11.9406 563 100.06 446.11 502.201
1468 0 46.2424 9.75294 451 104.663 448.514 503.304
1469 0 51.2072 12.4201 636 100.425 450.255 501.473
1470 0 51.3245 13.1321 674 99.9362 451.728 502.163
1471 0 54.2277 12.927 701 100.402 452.294 502.322
1472 0 55.2867 13.8912 768 99.7734 453.199 503.577
1473 0 57.2447 12.2457 701 102.452 453.974 503.331
1474 0 61.2975 13.3774 820 100.913 453.355 502.068
1475 0 59.2327 13.2191 783 104.33 452.167 500.791
1476 0 65.3283 13.0878 855 102.876 451.771 502.373
1477 0 67.3149 13.2512 892 102.999 450.549 500.427
1478 0 70.2673 13.5056 949 102.92 448.143 497.87
1479 0 75.2094 14.5062 1091 99.2951 446.069 495.632
1480 0 79.2759 15.4397 1224 96.0727 444.884 493.444
1481 0 81.2389 14.2419 1157 100.27 444.218 490.779
1482 1 45.0913 10.2681 463 101.335 444.285 508.549
1483 0 47.0238 10.9306 514 97.6556 444.068 508.449
1484 0 46.0679 10.2457 472 102.203 443.9 506.54
1485 0 48.0353 10.4298 501 99.4371 442.339 502.629
1486 0 50.031 12.0325 602 96.8472 442.266 498.221
1487 0 53.2921 13.6793 729 93.0151 441.811 496.524
1488 0 53.0186 13.1652 698 94.5301 442.47 496.818
1489 0 56.0164 14.8706 833 90.1561 441.869 493.922
1490 0 56.058 14.1461 793 93.2396 442.164 492.038
1491 0 60.0348 13.8253 830 92.3602 443.19 492.39
1492 0 62.0935 13.2864 825 93.5248 443.535 493.084
1493 0 63.0792 13.9031 877 94.4458 444.818 491.971
1494 0 65.1242 13.6662 890 96.0787 446.398 489.946
1495 0 71.0722 13.9576 992 92.4224 448.11 493.034
1496 0 72.1346 14.1541 1021 94.9647 450.392 488.386
1497 1 40.0219 10.4693 419 95.9499 452.58 508.876
1498 0 40.0078 10.198 408 98.2819 453.98 509.27
1499 0 42.0439 10.8458 456 96.1535 454.787 509.658
1500 0 44.0232 10.131 446 98.4148 454.538 510.744
1501 0 46.0598 11.8107 544 98.2463 453.138 509.781
1502 0 48.258 14.1531 683 94.2972 452.546 508.556
1503 0 49.2958 12.0497 594 100.143 452.047 508.84
1504 0 51.244 14.6164 749 94.0801 451.069 507.704
1505 0 55.2978 13.5629 750 95.968 448.984 507.812
1506 0 58.1692 12.859 748 96.7353 447.983 505.956
1507 0 59.2234 14.6902 870 93.7736 446.528 503.805
1508 0 60.1728 15.0234 904 94.4834 445.279 501.852
1509 0 63.1532 14.2511 900 94.7511 444.384 499.722
1510 0 65.1206 15.049 980 94.1133 443.087 496.461
1511 0 68.1748 14.6975 1002 94.2665 441.944 492.799
1512 0 68.1041 14.3163 975 96.1487 442.109 491.862
1513 0 71.1279 14.3966 1024 98.1328 441.729 489.309
1514 0 73.1198 13.7993 1009 98.8097 441.595 487.839
1515 0 76.0869 13.6949 1042 100.624 441.484 485.505
1516 1 41.0806 11.5626 475 97.6379 441.808 502.162
1517 0 41.1112 11.2865 464 99.2845 442.017 500.213
1518 0 42.1166 11.8481 499 99.2465 442.625 500.07
1519 0 46.104 11.5391 532 96.282 443.528 501.395
1520 0 46.0818 12.0004 553 97.4195 443.924 500.168
1521 0 49.1263 13.2516 651 96.9432 446.02 496.92
1522 0 49.0629 12.4942 613 98.9886 448.104 498.186
1523 0 53.0403 14.0082 743 96.2907 450.141 498.371
1524 0 55.0912 12.6699 698 98.7307 451.324 497.954
1525 0 57.1657 13.9419 797 97.1882 452.142 499.243
1526 0 59.1041 13.8231 817 98.2203 453.535 500.069
1527 0 63.019 13.6943 863 98.7659 454.46 498.947
1528 0 66.0855 15.0714 996 96.0341 453.893 498.783
1529 0 68.1093 14.139 963 98.6407 453.86 499.676
1530 0 71.1689 14.0932 1003 100.45 452.669 496.628
1531 0 73.1183 15.0168 1098 98.9053 450.379 496.799
1532 0 77.3645 14.7484 1141 97.9115 448.521 496.44
1533 0 82.2204 14.2787 1174 98.8688 446.747 493.59
1534 0 87.4713 15.3879 1346 98.1768 445.576 491.029
1535 0 89.3706 15.1392 1353 99.8884 444.778 487.154
1536 1 48.109 12.7627 614 100.365 443.243 508.153
1537 0 47.091 12.8687 606 104.482 442.777 505.609
1538 0 52.0467 15.0826 785 95.6828 442.903 504.529
1539 0 53.144 13.8492 736 98.6087 441.917 502.985
1540 0 55.2295 14.4669 799 97.5357 441.702 500.837
1541 0 56.0705 14.2856 801 100.467 441.166 497.613
1542 0 60.0753 14.0157 842 102.16 441.289 494.967
1543 0 61.1106 14.6783 897 101.545 442.108 492.507
1544 0 64.0295 14.8369 950 100.921 442.223 491.279
1545 0 65.1645 13.8419 902 103.686 442.958 490.335
1546 0 67.0958 14.3824 965 105.479 443.417 489.378
1547 0 70.2961 15.6339 1099 102.961 444.59 487.682
1548 0 73.0569 14.8514 1085 103.725 445.702 487.145
1549 0 75.093 15.554 1168 103.498 448.439 486.399
1550 0 79.1354 16.4655 1303 101.54 450.157 485.787
1551 0 84.0764 16.5445 1391 99.2236 451.455 484.393
1552 1 43.09 10.2808 443 110.124 453.675 507.014
1553 0 48.1232 10.7433 517 111.311 453.329 505.735
1554 0 49.0814 11.43 561 108.686 454.066 505.695
1555 0 54.2061 12.0282 652 107.089 454.344 504.988
1556 0 55.1424 14.5442 802 103.339 453.572 504.342
1557 0 57.2618 13.8836 795 105.107 452.084 503.708
1558 0 59.3161 13.4196 796 107.379 450.538 503.19
1559 0 63.216 13.968 883 110.077 449.07 502.632
1560 0 65.2616 14.1737 925 106.856 448.112 499.319
1561 0 70.2396 14.3794 1010 105.342 446.799 498.678
1562 0 73.3425 14.6163 1072 105.311 445.626 496.354
1563 0 76.3555 14.3277 1094 109.049 443.587 494.463
1564 0 79.2884 15.2734 1211 103.787 441.645 489.258
1565 0 82.3857 15.0269 1238 104.444 441.158 484.793
1566 0 86.3216 14.7124 1270 104.598 440.716 486.024
1567 0 89.5491 14.7293 1319 104.544 440.03 481.133
1568 0 92.2597 15.1204 1395 104.59 440.484 479.363
1569 1 47.3564 11.0439 523 104.078 442.468 501.639
1570 0 48.1732 11.5417 556 104.637 442 498.968
1571 0 49.1935 10.1233 498 108.036 442.743 497.548
1572 0 53.098 12.8253 681 102.465 443.559 495.112
1573 0 55.1259 11.7912 650 104.443 444.382 494.122
1574 0 60.2847 14.8296 894 97.2685 444.229 493.23
1575 0 62.0701 12.7275 790 101.792 445.838 492.829
1576 0 62.3007 13.9645 870 102.975 446.636 489.462
1577 0 67.1562 14.0866 946 97.6142 449.798 493.963
1578 0 69.3045 14.4579 1002 99.5369 450.918 491.172
1579 0 71.1826 13.7112 976 100.586 452.375 492.234
1580 0 75.1537 14.2375 1070 99.8551 452.883 490.931
1581 0 81.2089 15.023 1220 97.6467 453.645 491.311
1582 0 81.1703 14.6729 1191 100.816 453.405 490.459
1583 0 87.3424 14.1054 1232 100.872 453.185 491.625
1584 0 88.3184 15.4441 1364 99.8746 452.235 489.551
1585 0 92.2218 14.1181 1302 104.24 451.344 489.031
1586 0 97.2235 14.5541 1415 102.123 450.077 487.011
1587 0 99.2208 14.2914 1418 103.591 448.768 485.589
1588 0 106.192 14.954 1588 101.479 447.203 481.394
1589 1 58.0925 10.8276 629 101.859 446.987 505.653
1590 0 58.0586 12.1429 705 101.966 445.733 501.915
1591 0 58.1148 10.7202 623 102.082 444.445 499.618
1592 0 63.0603 11.7348 740 98.8743 442.599 494.182
1593 0 65.1682 13.4882 879 95.3606 441.881 492.543
1594 0 69.3344 14.0334 973 95.3607 440.963 490.614
1595 0 70.3021 12.7877 899 98.2647 440.703 487.979
1596 0 75.2804 14.4128 1085 94.9917 440.558 484.938
1597 0 75.4408 13.4675 1016 98.8829 441.213 479.539
1598 0 79.3025 13.5179 1072 98.6399 441.424 479.856
1599 0 81.4296 14.9209 1215 96.9704 440.974 477.802
1600 0 86.392 15.3139 1323 95.028 441.395 475.538
1601 0 90.4009 13.6946 1238 98.7819 442.671 473.385
1602 0 94.3424 15.9525 1505 94.2598 444.198 473.995
1603 0 98.5181 15.5403 1531 95.6466 445.35 471.871
1604 0 100.551 14.0526 1413 99.3468 448.399 468.781
1605 1 52.2338 12.1569 635 97.5354 449.729 493.006
1606 0 54.1997 13.1181 711 96.398 451.44 493.249
1607 0 58.2608 11.9291 695 96.5568 452.98 497.027
1608 0 59.2831 13.5789 805 95.0882 454.273 497.689
1609 0 61.1955 12.8768 788 97.0635 454.124 496.631
1610 0 62.2325 11.9873 746 99.7024 454.697 497.168
1611 0 67.1931 12.7989 860 98.2721 453.558 495.934
1612 0 70.2754 12.636 888 99.1667 452.698 494.026
1613 0 73.2825 13.8505 1015 98.5517 451.31 493.39
1614 0 77.3183 14.7313 1139 96.4925 449.125 490.851
1615 0 80.3923 15.9841 1285 93.9354 446.668 491.254
1616 0 84.5454 13.614 1151 97.6116 444.708 488.601
1617 0 87.4094 14.3577 1255 97.0837 443.483 484.165
1618 0 92.3999 13.8745 1282 97.131 442.824 483.779
1619 1 48.1648 11.0662 533 92.424 441.976 497.084
1620 0 47.1217 9.71952 458 100.406 441.862 499.083
1621 0 51.1629 10.9063 558 96.2348 439.993 496.197
1622 0 53.1364 11.7622 625 94.6688 439.821 494.483
1623 0 54.063 13.1143 709 91.7391 439.234 493.458
1624 0 57.0235 13.5032 770 88.5701 439.643 490.565
1625 0 57.1295 12.603 720 90.5264 441 490.515
1626 0 61.5494 13.7613 847 86.791 442.123 488.551
1627 0 61.2084 11.9918 734 91.2888 443.602 488.446
1628 0 64.0638 13.1431 842 92.0178 444.253 486.622
1629 0 67.0751 13.4327 901 89.0166 445.4 487.094
1630 0 68.1118 13.4925 919 89.568 446.365 485.212
1631 0 71.1271 13.6235 969 91.5284 448.864 486.811
1632 0 72.081 13.7484 991 91.8496 450.893 485.527
1633 0 75.2159 14.3055 1076 90.2974 451.941 485.478
1634 0 76.109 13.4281 1022 92.9589 453.217 484.598
1635 0 82.1027 14.5915 1198 90.909 455.244 486.498
1636 1 42.0273 10.3742 436 94.3005 456.094 506.835
1637 0 42.0357 11.1334 468 93.8141 456.286 509.075
1638 0 47.1017 10.8276 510 94.0451 455.453 509.616
1639 0 49.0763 12.9798 637 91.584 454.352 506.633
1640 0 50.1012 12.0157 602 93.3505 453.527 507.643
1641 0 55.0943 13.5949 749 89.8117 452.011 505.048
1642 0 56.0841 14.1751 795 90.6642 451.077 505.789
1643 0 58.0673 14.0182 814 90.6044 449.424 504.286
1644 0 62.1433 14.3539 892 89.6726 447.389 502.692
1645 0 65.0943 15.7464 1025 86.9024 445.81 499.744
1646 0 66.2426 14.1903 940 91.4426 444.806 495.388
1647 0 68.1733 14.4925 988 91.2874 443.482 490.667
1648 0 72.2503 14.3529 1037 91.405 441.89 488.024
1649 0 75.2892 14.9955 1129 90.1258 441.449 488.619
1650 0 75.3079 13.8631 1044 94.4157 441.419 485.326
1651 1 41.0148 9.82572 403 93.8089 442.551 501.866
1652 0 44.0191 10.609 467 92.2163 442.285 500.974
1653 0 44.0992 10.5217 464 92.7802 442.83 499.539
1654 0 46.0347 11.2307 517 92.2205 443.232 499.327
1655 0 48.1154 12.3661 595 91.8689 442.76 498.405
1656 0 49.0838 11.8776 583 92.952 443.218 498.367
1657 0 51.1342 12.0272 615 91.3447 443.885 496.38
1658 0 52.0731 13.2314 689 89.9086 446.64 495.75
1659 0 52.1212 13.3919 698 90.967 448.761 494.746
1660 0 58.0351 13.3368 774 88.8475 450.415 497.344
1661 0 59.1307 13.7661 814 89.2211 451.881 495.588
1662 0 63.2076 15.9949 1011 85.367 453.216 496.772
1663 0 64.1298 14.6578 940 88.3457 454.548 497.122
1664 0 67.1105 13.1872 885 91.3672 454.854 495.122
1665 0 70.0368 15.3776 1077 88.1309 454.254 495.768
1666 0 74.097 14.3865 1066 89.2946 454.432 497.184
1667 0 76.0766 15.1426 1152 89.3498 452.22 495.482
1668 0 77.0907 14.0095 1080 93.0111 451.284 491.861
1669 0 83.0645 14.8198 1231 89.5508 450.274 492.582
1670 0 81.086 13.1835 1069 94.8896 448.613 488.682
1671 0 88.2259 14.1908 1252 91.6861 447.507 488.974
1672 0 92.217 15.4635 1426 89.676 445.478 484.183
1673 0 94.3694 13.7015 1293 94.5305 444.174 480.858
1674 0 96.4598 14.0058 1351 94.8971 443.575 479.942
1675 0 102.183 13.975 1428 94.2031 442.137 476.779
1676 0 109.174 15.8279 1728 89.3131 441.09 471.013
1677 0 108.241 14.0151 1517 94.002 440.778 471.208
1678 0 111.221 14.125 1571 93.7257 440.137 468.085
1679 0 118.163 13.9384 1647 93.32 440.083 465.187
1680 0 118.407 13.9012 1646 94.1227 439.965 460.146
1681 0 125.28 14.8307 1858 92.0457 440.192 459.158
1682 0 129.302 14.6324 1892 92.398 440.56 457.231
1683 1 78.1693 12.038 941 92.6982 441.628 481.721
1684 0 81.3078 12.3973 1008 93.2093 442.794 481.735
1685 0 80.288 11.5335 926 146.973 443.937 480.057
1686 0 85.3302 12.9966 1109 92.4445 445.215 478.077
1687 0 88.2464 13.4963 1191 92.0479 447.033 478.128
1688 0 89.185 15.238 1359 91.755 449.133 477.374
1689 0 93.2322 13.7077 1278 94.0321 449.477 476.587
1690 0 96.3707 14.0292 1352 93.7086 451.879 476.92
1691 0 100.361 14.0094 1406 93.5861 452.341 475.871
1692 0 106.493 14.0197 1493 93.5224 452.871 472.537
1693 0 110.447 13.6717 1510 93.5974 452.117 472.568
1694 0 116.406 16.0216 1865 90.5566 451.349 471.22
1695 0 120.434 13.7171 1652 94.1755 450.742 468.611
1696 0 123.377 12.8874 1590 96.995 450.696 463.442
1697 0 131.252 13.6074 1786 95.9127 448.657 461.582
1698 0 139.293 14.4371 2011 94.5002 447.21 456.533
1699 0 145.391 15.3586 2233 93.3511 445.951 454.966
1700 0 150.348 14.8522 2233 93.8222 444.894 452.387
1701 0 154.467 14.7475 2278 96.0307 443.442 446.504
1702 0 159.406 15.633 2492 94.2957 442.368 446.634
1703 0 163.437 13.6138 2225 99.1721 441.756 440.187
1704 0 168.379 14.307 2409 97.9556 441.553 436.768
1705 0 174.531 13.6251 2378 98.5034 439.577 431.565
1706 1 128.179 9.20586 1180 100.707 440.236 459.025
1707 0 135.171 9.82457 1328 101.464 441.112 455.745
1708 0 138.323 12.2178 1690 100.722 442.82 446.137
1709 0 143.306 14.9889 2148 96.622 441.757 440.946
1710 0 148.584 14.5035 2155 97.5963 442.25 441.652
1711 0 151.477 13.8965 2105 99.7886 443.082 436.98
1712 0 157.342 15.317 2410 97.6498 444.591 433.993
1713 0 164.285 14.6392 2405 99.1992 446.37 434.847
1714 0 169.615 14.5683 2471 100.437 448.159 430.408
1715 0 175.304 14.723 2581 101.561 450.537 425.154
1716 0 183.32 15.072 2763 100.92 452.643 423.024
1717 0 189.383 15.0647 2853 102.431 454.134 421.026
1718 0 199.348 15.4905 3088 100.77 455.105 418.344
1719 0 206.279 16.8655 3479 98.3012 454.696 418.928
1720 0 215.301 15.8244 3407 102.109 455.443 414.961
1721 0 217.479 12.277 2670 105.778 454.127 425.807
1722 1 183.582 11.4662 2105 103.362 453.893 443.531
1723 0 192.349 12.3785 2381 103.911 452.769 435.012
1724 0 200.614 13.6232 2733 102.671 452.072 427.228
1725 0 209.63 14.9454 3133 99.9336 450.683 425.666
1726 1 221.577 14.46 3204 101.538 450.059 413.372
1727 1 232.728 14.8198 3449 99.2908 447.802 410.028
1728 0 239.666 14.2073 3405 100.493 446.228 403.539
1729 0 251.768 15.6017 3928 97.8773 443.718 398.838
1730 0 262.545 16.679 4379 94.8968 442.922 397.401
1731 0 271.794 15.0408 4088 99.0203 442.295 385.93
1732 0 280.849 16.1012 4522 97.8992 441.804 374.633
1733 0 291.867 15.5242 4531 97.7047 442.84 368.215
1734 0 287.692 9.79171 2817 100.614 441.502 396.477
1735 0 343.174 21.5372 7391 81.2557 441.433 330.855
1736 0 333.081 21.8325 7272 83.5054 442.576 333.93
1737 1 178.6 7.26206 1297 91.724 443.683 449.375
1738 0 178.584 9.29535 1660 92.0566 444.847 439.04
1739 0 183.565 11.5 2111 90.9692 444.758 429.311
1740 0 193.474 12.472 2413 89.0862 445.854 425.462
1741 0 198.407 12.1467 2410 90.117 446.351 412.185
1742 0 205.515 12.4809 2565 89.7166 448.635 410.975
1743 0 216.591 13.6294 2952 88.0125 451.322 409.033
1744 0 223.726 12.9534 2898 90.2533 452.668 406.016
1745 0 233.509 13.4213 3134 89.3146 454.769 402.606
1746 0 244.749 14.9173 3651 87.1674 455.718 403.402
1747 0 244.53 10.0642 2461 88.514 455.156 427.033
1748 1 64.1941 9.95418 639 80.7246 453.969 492.834
1749 0 63.0692 9.78291 617 82.7391 455.31 495.914
1750 0 68.1082 11.0266 751 82.3755 453.337 493.692
1751 0 69.2815 13.6689 947 81.0824 453.616 496.93
1752 0 71.304 13.772 982 81.5621 452.804 495.96
1753 0 72.2699 14.0031 1012 82.1472 451.604 494.743
1754 0 73.2992 12.2375 897 85.9454 449.768 493.992
1755 0 72.3035 13.2359 957 84.3166 447.061 490.933
1756 0 74.3355 12.8741 957 85.5475 445.769 489.303
1757 0 76.453 12.3736 946 85.2801 444.733 491.883
1758 0 76.3466 14.015 1070 79.2047 443.78 488.153
1759 0 77.1359 13.4049 1034 81.7079 441.485 489.022
1760 0 77.1855 11.6861 902 84.684 440.91 486.144
1761 0 81.1408 13.3595 1084 82.1061 441.516 482.96
1762 0 77.2086 12.0841 933 85.0204 442.062 482.981
1763 0 79.1852 12.3255 976 83.8627 442.7 479.621
1764 0 81.1689 12.1475 986 84.0406 442.919 477.71
1765 0 82.2347 13.121 1079 81.3401 443.859 479.099
1766 1 44.2314 10.332 457 82.4333 444.724 499.311
1767 0 44.2042 8.66434 383 85.4073 445.83 499.538
1768 0 44.1208 9.17935 405 85.3111 446.262 498.168
1769 0 45.2722 11.221 508 82.3583 447.535 495.843
1770 0 44.1035 9.68176 427 81.4098 450.417 501.504
1771 0 44.0395 10.0364 442 81.5 454.369 499.389
