time division length width area intensity CMx CMy
0 0 27.0234 11.1385 301 106.395 366.748 498.734
1 0 30.0632 10.2783 309 106.926 366.796 498.366
2 0 30.0062 11.4976 345 105.223 367.814 498.548
3 0 30.0209 11.6585 350 104.777 366.763 497.026
4 0 31.0307 13.1483 408 101.01 367.873 497.13
5 0 28.052 11.9421 335 105.349 368.319 500.522
6 0 27.072 11.1554 302 112.606 368.04 497.536
7 0 28.0987 11.8867 334 109.15 367.734 497.419
8 0 28.2496 13.0268 368 113.946 369.405 497.764
9 0 29.2232 13.6535 399 112.501 369.466 497.293
10 0 30.3187 11.9069 361 115.266 369.38 496.753
11 0 32.3532 14.7744 478 109.996 369.266 495.985
12 0 31.5335 13.0338 411 115.263 368.382 496.302
13 0 31.3477 12.3773 388 115.17 369.335 498.402
14 0 32.2058 12.7927 412 117.012 369.294 496.956
15 0 34.4256 14.8436 511 113.477 368.945 495.914
16 0 34.4449 12.5708 433 117.711 368.732 496.882
17 0 34.4341 13.0394 449 120.359 368.022 495.526
18 0 35.3287 13.1338 464 120.289 368.502 496.694
19 0 40.3418 16.1867 653 111.657 368.706 494.115
20 0 40.4341 13.7508 556 118.935 367.518 494.04
21 0 42.2858 14.804 626 116.554 368.435 493.088
22 0 40.3024 14.0438 566 121.276 369.882 492.887
23 0 43.3077 14.7318 638 118.745 369.839 492.768
24 0 45.3657 14.4603 656 119.805 370.655 491.639
25 0 48.3093 17.2845 835 110.669 370.965 491.898
26 0 50.3359 16.529 832 113.31 369.673 487.768
27 0 50.2381 14.4711 727 118.344 369.922 489.213
28 0 53.3705 16.2262 866 114.36 370.567 488.712
29 0 52.169 15.4689 807 118.401 370.559 486.814
30 0 53.1049 14.8762 790 119.452 370.535 486.784
31 0 55.4027 17.1472 950 114.831 371.865 484.858
32 0 57.3011 16.5442 948 116.178 371.872 485.228
33 0 59.455 17.5258 1042 112.301 372.188 483.767
34 0 59.305 17.1318 1016 111.994 372.173 484.082
35 0 59.3956 14.7654 877 119.062 372.629 483.894
36 0 60.4766 14.4684 875 119.815 373.002 483.755
37 0 64.2572 16.9164 1087 112.647 372.702 482.638
38 0 67.3999 17.3294 1168 110.687 373.212 481.269
39 0 73.2302 21.1934 1552 101.493 371.348 476.581
40 0 73.3395 17.6985 1298 110.43 372.633 477.87
41 0 73.3432 16.2387 1191 115.874 372.444 478.501
42 0 76.3222 16.5483 1263 114.81 372.633 478.082
43 0 78.4042 15.4329 1210 118.121 373.158 476.888
44 0 83.3033 18.8468 1570 109.915 373.104 476.786
45 0 81.2955 15.4498 1256 119.514 373.842 474.689
46 0 87.3687 15.0512 1315 119.071 374.14 473.624
47 0 86.2435 15.4099 1329 118.942 374.556 475.278
48 0 93.3211 16.1271 1505 116.623 374.17 469.912
49 0 97.3246 17.3646 1690 113.649 373.621 468.871
50 0 100.259 16.4074 1645 112.472 373.119 468.967
51 0 102.354 16.9021 1730 113.15 372.905 464.591
52 0 105.308 15.6113 1644 114.532 373.51 465.554
53 0 109.579 16.0889 1763 113.009 373.825 464.204
54 0 112.524 16.4409 1850 113.354 373.063 460.53
55 1 58.1049 14.6287 850 117.153 374.189 487.226
56 0 62.1146 15.3748 955 114.074 372.971 484.572
57 0 63.1619 15.8323 1000 112.813 373.896 485.112
58 0 67.3622 14.5928 983 115.133 372.871 482.591
59 0 69.1433 15.0557 1041 113.906 373.06 480.657
60 0 71.2049 17.3584 1236 109.682 373.186 478.298
61 0 75.223 16.8167 1265 108.155 373.215 478.504
62 0 75.3327 14.7612 1112 113.495 373.335 477.232
63 0 79.1965 16.4022 1299 110.915 373.316 476.184
64 0 81.2739 15.5523 1264 113.624 372.353 473.609
65 0 85.4575 16.8154 1437 110.109 372.466 471.251
66 1 44.1549 12.8185 566 111.281 372.422 490.138
67 0 49.1751 11.2862 555 113.25 372.178 489.362
68 0 49.098 12.8926 633 109.239 372.028 488.39
69 0 50.2554 13.4513 676 110.402 372.046 485.953
70 0 49.1535 13.0001 639 110.709 371.327 487.696
71 0 53.0607 15.0771 800 106.19 372.622 486.009
72 0 55.0414 13.8986 765 109.18 371.331 484.816
73 0 56.0828 14.9065 836 107.376 372.258 484.866
74 0 55.045 13.7887 759 110.955 372.714 485.273
75 0 55.045 13.8069 760 165.612 373.708 485.307
76 0 61.0574 15.2643 932 111.056 375.204 481.929
77 0 63.0394 14.8161 934 111.512 375.276 481.228
78 0 65.0399 14.2374 926 112.319 375.177 480.471
79 0 68.0769 16.8486 1147 108.219 375.649 478.63
80 0 70.1068 15.5049 1087 112.469 376.552 479.946
81 0 69.08 14.2299 983 116.457 376.504 477.742
82 0 74.1212 15.6231 1158 113.791 375.398 477.859
83 0 77.0597 14.9105 1149 116.479 375.205 476.418
84 0 77.1207 13.5761 1047 119.788 375.243 474.562
85 0 81.1167 14.6949 1192 118.231 375.535 472.05
86 1 42.1301 11.868 500 113.78 375.958 494.23
87 0 43.0821 11.6986 504 114.252 376.397 492.893
88 0 45.0981 12.4617 562 111.349 375.964 491.105
89 0 46.0943 12.2792 566 111.744 375.246 489.417
90 0 46.2471 12.9522 599 111.409 376.275 489.332
91 0 50.0532 14.4047 721 106.728 376.777 488.261
92 0 50.0418 13.9683 699 109.213 377.119 486.546
93 0 49.0743 12.1652 597 114.834 376.211 486.571
94 0 51.0746 13.2355 676 113.027 376.351 485.744
95 0 55.022 14.267 785 108.271 376.346 486.47
96 0 57.0645 13.6512 779 110.117 376.748 482.22
97 0 59.0427 13.9221 822 108.684 377.063 482.985
98 0 59.0216 13.961 824 109.28 376.684 481.874
99 0 62.0502 14.7461 915 107.969 376.785 481.212
100 0 62.0539 13.3755 830 112.794 377.829 480.654
101 0 65.0308 14.2855 929 111.656 378.537 479.632
102 0 67.0711 13.2248 887 112.661 379.266 479.837
103 0 69.1406 12.5831 870 114.851 378.363 478.503
104 0 72.1694 14.9786 1081 109.277 378.95 476.202
105 0 73.1084 13.2543 969 113.994 378.944 475.73
106 0 77.134 14.1961 1095 112.684 378.767 474.003
107 0 78.0826 14.5871 1139 110.831 379.176 473.014
108 1 43.1075 11.2046 483 110.81 378.88 492.706
109 0 45.1175 10.0405 453 110.857 379.075 493.773
110 0 48.0568 11.9858 576 108.05 378.939 492.425
111 0 47.0586 13.9188 655 105.69 378.345 490.258
112 0 50.1284 12.0092 602 107.593 378.007 490.716
113 0 51.1015 13.7178 701 107.83 377.248 490.277
114 0 50.0709 11.5436 578 112.844 377.723 490.408
115 0 50.074 12.5015 626 112.621 377.24 488.724
116 0 54.1123 13.5089 731 108.547 376.58 489.272
117 0 57.0868 13.9086 794 107.511 376.372 485.571
118 0 59.129 14.1386 836 105.244 375.202 484.597
119 0 61.1432 12.9205 790 107.148 375.586 483.771
120 0 64.0984 13.5417 868 104.912 375.719 483.433
121 0 62.0576 13.278 824 108.402 375.788 482.745
122 0 67.09 14.8606 997 103.985 375.346 482.152
123 0 71.1812 13.7396 978 106.166 375.23 481.127
124 1 36.1488 11.3973 412 107.811 373.643 496.99
125 0 39.126 12.0892 473 109.059 373.985 494.617
126 0 41.0306 11.8448 486 107.543 374.041 494.584
127 0 38.0343 10.0962 384 115.357 374.398 493.724
128 0 42.1893 11.5669 488 110.166 374.861 494.217
129 0 41.4078 12.8237 531 112.913 375.569 492.324
130 0 44.3691 12.5087 555 112.414 375.557 491.741
131 0 47.3231 13.2916 629 110.064 375.51 491.076
132 0 45.1603 12.6881 573 112.098 375.901 491.916
133 0 47.1043 13.5019 636 108.629 376.178 491.528
134 0 48.1394 13.3155 641 110.02 377.003 489.864
135 0 50.1228 13.2674 665 109 376.792 488.541
136 0 50.2899 13.4023 674 109.562 377.015 488.957
137 0 53.1313 13.2126 702 110.399 377.175 487.556
138 0 55.1675 14.0844 777 107.403 377.035 488.493
139 0 55.2099 15.6675 865 106.465 378.437 485.577
140 0 57.2506 16.1745 926 104.495 378.941 486.635
141 0 59.269 13.5821 805 109.558 378.275 485.635
142 0 62.1884 14.6812 913 107.843 377.418 485.49
143 0 64.2522 15.5325 998 105.108 377.417 485.39
144 0 65.3919 13.2126 864 112.323 376.525 483.992
145 0 63.3916 12.6831 804 158.144 374.55 484.881
146 0 68.1693 13.7745 939 112.663 376.101 481.962
147 0 72.3749 15.4612 1119 109.062 376.114 480.124
148 0 73.1827 15.0992 1105 110.989 376.475 477.066
149 0 76.3133 15.2005 1160 110.457 375.537 476.972
150 0 76.3148 14.7023 1122 151.912 374.527 477.619
151 1 41.1013 11.3135 465 108.348 375.802 495.075
152 0 43.1562 11.5163 497 108.247 375.992 494.579
153 0 45.0864 12.5315 565 106.648 375.6 492.014
154 0 46.0589 12.5708 579 106.736 375.623 490.705
155 0 49.0346 12.9093 633 104.899 375.923 489.949
156 0 50.0504 13.0269 652 104.876 375.204 490.325
157 0 49.1704 13.1177 645 106.268 375.102 488.974
158 0 51.2777 13.4366 689 104.701 374.996 488.819
159 0 53.2031 14.3977 766 102.136 374.586 484.65
160 0 55.1575 13.1079 723 104.292 375.805 485.921
161 0 57.1081 14.9716 855 100.924 375.467 485.033
162 0 59.2197 15.0119 889 100.868 376.162 482.179
163 0 61.2716 14.1501 867 102.258 376.326 481.205
164 0 62.1503 13.4674 837 102.503 377.022 480.912
165 0 64.171 13.9783 897 102.026 377.428 479.807
166 0 68.1133 14.7548 1005 100.245 376.181 479.1
167 0 68.2387 13.5553 925 104.154 375.629 478.248
168 0 72.3556 13.6962 991 102.379 376.476 477.164
169 0 75.3965 13.6478 1029 103.287 376.433 476.797
170 1 37.0471 9.42044 349 102.731 377.172 497.421
171 0 39.0798 11.3358 443 101 376.488 496.214
172 0 41.109 10.3627 426 102.214 376.624 495.901
173 0 42.0314 10.8252 455 102.103 376.996 494.149
174 0 43.0531 11.5671 498 101.43 375.727 493.811
175 0 45.0384 11.7899 531 100.154 376.808 493.996
176 0 45.0526 11.8084 532 100.675 376.705 494.321
177 0 47.0791 12.9144 608 98.7632 376.694 493.553
178 0 48.0387 12.9687 623 99.9133 376.425 493.488
179 0 49.0643 12.7995 628 100.47 375.994 491.264
180 0 54.0449 15.3021 827 93.3906 375.871 492.482
181 0 53.0673 15.1506 804 95.5062 374.893 490.234
182 0 54.0533 13.2462 716 98.574 374.936 489.703
183 0 58.1121 13.7665 800 96.1088 374.679 489.249
184 0 61.0812 15.2584 932 93.1717 374.605 486.251
185 0 60.0839 13.1316 789 98.3485 374.49 485.749
186 0 63.0615 14.2401 898 96.1102 374.124 484.458
187 0 65.0698 14.1387 920 97.4554 374.051 483.086
188 0 67.0894 15.6359 1049 95.7769 373.935 481.285
189 0 70.0984 15.4497 1083 95.8633 373.67 479.114
190 0 72.2066 14.8186 1070 97.915 373.039 478.49
191 0 75.081 12.8661 966 101.6 373.335 479.539
192 0 76.099 13.9555 1062 101.446 373.242 476.655
193 0 79.0595 15.6211 1235 98.9198 374.274 473.978
194 1 44.0258 11.8113 520 98.6154 374.235 492.229
195 0 45.0366 12.3011 554 98.3881 374.646 491.747
196 0 45.0366 12.3011 554 143.258 375.619 491.765
197 0 47.1269 12.774 602 98.2193 373.367 489.608
198 0 47.1109 12.2689 578 99.0087 373.578 490.415
199 0 49.1698 12.528 616 99.8847 374.263 489.213
200 0 50.2574 14.8038 744 96.0645 375.223 487.414
201 0 53.1597 15.1807 807 94.9405 375.827 488.413
202 0 53.1644 13.5993 723 96.8492 375.151 490.502
203 0 55.1343 13.2223 729 98.5199 374.675 489.198
204 0 57.2568 12.8718 737 98.7151 375.596 488.754
205 0 59.2554 13.619 807 98.6667 375.954 485.318
206 0 63.221 14.6787 928 96.9009 376.302 484.859
207 0 64.3161 14.5376 935 97.3273 375.181 484.56
208 0 65.1614 13.0138 848 101.054 375.663 485.077
209 0 68.2032 13.9583 952 99.2216 374.591 484.959
210 0 71.3507 13.0763 933 100.556 374.476 483.149
211 0 74.3285 13.9516 1037 99.7406 374.703 481.075
212 0 76.4799 14.8797 1138 97.7531 374.011 480.816
213 0 77.1856 13.2926 1026 102.071 373.653 478.41
214 1 42.0937 11.807 497 102.223 373.883 494.632
215 0 44.0502 12.5084 551 100.336 373.316 493.897
216 0 46.0612 12.5485 578 100.429 372.701 493.085
217 0 46.0467 10.8368 499 103.507 372.936 493.046
218 0 48.0606 12.3802 595 100.121 372.04 492.286
219 0 50.0167 13.0356 652 99.7362 372.365 488.819
220 0 52.3125 13.8399 724 98.3619 372.547 489.633
221 0 53.1294 14.2294 756 99.6944 372.521 487.55
222 0 53.2219 13.2464 705 102.433 372.513 487.491
223 0 54.2129 13.779 747 101.884 372.241 486.83
224 0 58.1808 13.1487 765 101.664 371.878 486.434
225 0 58.428 13.4867 788 101.712 372.241 485.435
226 0 61.3246 13.7465 843 100.819 373.208 485.535
227 0 64.4459 15.2065 980 99.548 374.062 481.038
228 0 62.5093 13.71 857 103.165 373.863 479.37
229 0 66.3625 13.1249 871 102.688 373.494 481.886
230 0 68.2637 14.5612 994 101.643 374.324 478.037
231 0 70.356 12.8347 903 104.75 373.882 478.369
232 0 72.2751 13.9744 1010 102.286 374.515 476.931
233 0 75.3957 15.1335 1141 101.554 374.599 475.81
234 0 79.4679 14.7355 1171 100.906 375.304 476.297
235 0 79.294 13.658 1083 104.012 374.86 475.03
236 1 45.1948 9.09397 411 103.703 375.217 493.258
237 0 44.433 10.8928 484 100.822 375.114 493.184
238 0 45.2551 10.1646 460 103.248 374.315 491.059
239 0 48.3391 12.8674 622 98.5916 374.723 490.227
240 0 50.1627 12.7186 638 98.5251 374.633 490.041
241 0 49.1669 12 590 100.127 375.256 489.769
242 0 52.1774 12.0359 628 100.873 374.729 488.806
243 0 53.1315 13.0055 691 100.152 374.509 488.182
244 0 57.0906 14.0128 800 96.44 374.496 487.234
245 0 58.2647 13.2842 774 97.9535 374.563 485.317
246 0 62.1582 12.9347 804 97.9888 374.066 485.684
247 0 59.2206 13.6946 811 100.104 373.761 482.555
248 0 64.4276 13.7829 888 98.8029 373.245 481.261
249 0 67.1576 15.8284 1063 94.9765 372.347 480.55
250 0 70.2377 14.2231 999 98.1842 371.601 480.052
251 0 73.2145 14.0409 1028 99.6002 371.946 479.258
252 0 74.2815 14.6066 1085 100.187 372.094 476.148
253 0 75.3656 13.8259 1042 103.982 372.226 476.316
254 1 42.1825 11.6162 490 102.794 372.253 493.657
255 0 41.0999 10.1703 418 106.005 372.876 493.658
256 0 43.2793 11.9226 516 103.422 372.787 492.62
257 0 45.2106 13.0058 588 101.656 372.556 491.971
258 0 44.2269 12.1645 538 101.924 373.53 490.794
259 0 45.3516 12.0834 548 99.8522 373.973 487.08
260 0 50.2276 14.8723 747 93.0469 373.419 488.098
261 0 49.3626 13.492 666 101.282 373.889 488.935
262 0 49.1378 13.5944 668 102.46 374.123 487.199
263 0 51.2306 12.0436 617 103.622 374.418 487.133
264 0 50.2455 14.051 706 142.657 374.394 486.275
265 0 56.1772 13.493 758 99.7797 375.104 488.166
266 0 56.2365 12.6253 710 102.251 375.369 486.565
267 0 59.1781 14.7521 873 98.5636 376.229 485.653
268 0 59.2284 13.4395 796 101.075 376.263 485.324
269 0 61.1574 14.0457 859 100.149 376.014 483.466
270 0 64.2157 15.0898 969 98.4128 375.662 481.871
271 0 67.1988 14.1223 949 99.549 375.643 483.27
272 0 69.2901 13.3497 925 100.572 375.364 482.817
273 0 70.2712 14.7429 1036 99.1071 374.833 482.266
274 0 72.1532 13.2357 955 102.523 375.28 479.346
275 0 76.2651 13.8333 1055 100.779 375.318 478.445
276 1 43.0313 11.5265 496 99.3085 376.002 497.002
277 0 45.041 12.2555 552 96.4801 375.987 495.978
278 0 45.0601 9.67596 436 99.2798 375 498.858
279 0 46.0574 11.464 528 99.6212 373.991 493.972
280 0 45.0249 11.1716 503 100.215 373.783 493
281 0 52.0906 13.3805 697 93.924 373.582 491.739
282 0 51.0483 12.0866 617 96.4603 373.352 491.603
283 0 53.0576 12.7032 674 96.4169 372.515 490.547
284 0 54.0622 14.4463 781 94.9577 372.191 487.539
285 0 55.0664 14.4553 796 94.9309 372.354 488.888
286 0 55.1716 13.3946 739 99.3694 371.257 486.405
287 0 56.2392 12.429 699 100.25 371.867 487.464
288 0 58.1715 13.2711 772 100.219 372.242 482.715
289 0 61.2335 14.2896 875 98.1577 372.335 482.53
290 0 63.4789 13.3588 848 100.097 373.031 482.16
291 0 65.3165 14.1465 924 98.7738 373.166 480.817
292 0 66.2212 13.4247 889 102.348 373.604 477.206
293 0 70.3111 14.0661 989 101.266 373.382 480.659
294 0 72.2236 13.8182 998 102.32 373.532 479.515
295 0 75.2926 14.5698 1097 101.808 374.072 478.536
296 1 40.1776 12.1959 490 101.069 374.969 495.273
297 0 40.3865 11.7614 475 104.364 374.947 494.792
298 0 44.2449 11.6172 514 101.691 376.158 496.358
299 0 44.1733 12.5641 555 102.523 377.975 495.559
300 0 45.0884 12.6197 569 104.209 377.1 495.214
301 0 46.2933 12.7664 591 106.926 376.531 495.477
302 0 47.2533 12.7398 602 107.483 376.432 494.355
303 0 49.2035 12.8243 631 107.995 375.628 492.905
304 0 50.404 13.987 705 106.043 375.977 493.001
305 0 55.4557 13.921 772 103.969 375.563 493.47
306 0 54.2905 14.2566 774 105.531 375.147 493.683
307 0 57.2761 14.1071 808 106.079 375.181 492.443
308 0 57.2848 14.2795 818 150.304 375.175 492.347
309 0 60.319 13.3291 804 106.502 375.328 492.7
310 0 62.3637 14.7843 922 103.717 373.591 487.549
311 0 64.3154 14.0402 903 105.103 372.913 488.755
312 0 68.2436 14.5069 990 104.63 372.7 485.942
313 0 68.2739 13.812 943 105.862 372.933 486.506
314 0 69.2444 13.2285 916 107.134 372.3 483.975
315 0 69.2444 13.1274 909 146.748 372.309 483.985
316 1 38.0717 10.4802 399 104.371 373.383 498.912
317 0 40.0905 11.2495 451 103.725 372.865 498.297
318 0 40.0525 12.0592 483 103.886 372.346 495.025
319 0 45.3182 13.2618 601 99.2396 372.293 494.586
320 0 45.2799 13.538 613 99.7227 371.92 492.687
321 0 44.052 11.2367 495 104.836 372.333 493.289
322 0 48.3729 14.4916 701 96.8046 372.499 491.728
323 0 49.4435 13.3283 659 100.138 373.264 490.334
324 0 50.3041 13.0407 656 101.059 374.143 490.599
325 0 53.2363 13.6373 726 99.2837 375.288 489.924
326 0 54.2882 14.1283 767 98.9857 375.219 488.695
327 0 55.3753 13.2369 733 101.66 375.814 488.81
328 0 57.2068 15.0507 861 98.6492 376.113 486.316
329 0 60.146 13.8995 836 98.8289 376.347 486.762
330 0 64.1642 14.572 935 96.5797 376.67 485.448
331 0 66.3844 13.9491 926 98.1782 377.336 484.468
332 0 67.1882 13.5887 913 99.5225 376.927 486.205
333 0 70.2663 14.1319 993 98.4763 376.641 485.119
334 0 73.2504 15.4402 1131 96.3616 376.332 481.954
335 0 74.3223 13.4953 1003 101.069 376.317 481.646
336 0 79.1813 16.3928 1298 95.0755 376.135 480.205
337 0 81.3132 14.0814 1145 100.049 375.569 482.119
338 0 84.2196 13.821 1164 101.249 374.739 479.72
339 1 46.0747 10.8085 498 86.8394 375.048 498.673
340 0 47.0542 12.2412 576 100.286 373.661 496.424
341 0 46.1657 12.6717 585 100.764 373.072 495.554
342 0 51.1557 13.2928 680 98.4118 373.135 493.224
343 0 51.3273 14.203 729 97.9835 373.196 491.745
344 0 52.2784 13.9063 727 98.5227 372.649 491.931
345 0 53.1459 14.432 767 98.5854 372.407 491.104
346 0 55.2879 13.1855 729 101.66 372.704 489.785
347 0 54.1321 13.4301 727 103.33 371.908 489.557
348 0 57.2259 13.5603 776 102.166 371.352 489.09
349 0 59.2287 13.5745 804 102.896 371.357 487.794
350 0 63.1785 14.2453 900 101.093 371.672 485.168
351 0 65.1491 14.8122 965 100.686 371.909 484.35
352 0 66.2416 14.9755 992 101.789 372.206 483.434
353 0 68.2352 15.4759 1056 101.167 372.264 481.531
354 0 71.2317 15.7093 1119 101.812 373.54 481.618
355 0 73.3622 15.8256 1161 102.899 373.693 479.691
356 0 75.1712 15.2452 1146 106.134 375.334 478.253
357 0 80.2846 16.0305 1287 102.045 375.427 477.225
358 0 81.4722 15.3917 1254 102.728 375.555 479.12
359 0 83.1808 16.2057 1348 103.494 375.406 474.99
360 1 47.3527 11.5727 548 108.423 376.808 492.516
361 0 48.1488 10.6337 512 108.945 377.213 493.27
362 0 50.2014 11.2148 563 107.362 377.407 495.075
363 0 53.2935 13.4913 719 103.505 377.427 493.915
364 0 54.2245 15.1776 823 101.639 377.366 491.773
365 0 56.187 14.1848 797 102.807 377.64 492.394
366 0 57.1309 14.3705 821 103.121 377.492 492.301
367 0 57.1164 14.1991 811 104.249 376.503 493.179
368 0 61.0709 15.2609 932 102.032 375.988 491.147
369 0 62.0676 15.6281 970 102.101 375.393 489.591
370 0 64.0323 15.5703 997 102.03 375.114 486.771
371 0 68.1528 15.5973 1063 101.921 374.509 485.046
372 0 70.1506 16.8209 1180 99.3237 373.516 485.498
373 0 72.0544 15.974 1151 100.805 373.262 484.518
374 0 73.0693 15.7795 1153 101.225 372.249 485.428
375 0 76.1379 17.2713 1315 100.936 371.587 480.507
376 0 78.1113 15.862 1239 102.967 371.536 478.458
377 0 80.1202 15.8886 1273 103.156 371.091 477.542
378 0 85.058 17.4939 1488 100.171 369.847 476.344
379 0 87.1088 15.142 1319 104.93 371.488 473.87
380 0 88.0944 19.1159 1684 98.2423 371.977 471.468
381 1 49.0622 10.9861 539 105.46 372.065 492.544
382 0 50.0475 10.8897 545 103.883 372.512 493.264
383 0 52.1661 11.8276 617 103.342 372.94 491.663
384 0 51.1103 10.5654 540 108.376 374.124 492.215
385 0 56.1026 14.7408 827 100.873 374.324 489.273
386 0 56.1894 14.6825 825 102.038 375.156 486.766
387 0 58.0397 13.0428 757 104.107 375.008 487.987
388 0 59.1592 12.965 767 104.475 375.424 487.846
389 0 63.1898 13.7364 868 102.248 376.328 487.157
390 0 67.1674 14.6202 982 101.418 376.296 485.743
391 0 67.1196 14.7796 992 103.757 377.037 482.235
392 0 70.1781 14.5202 1019 103.457 377.004 483.913
393 0 72.1463 14.1657 1022 104.2 377.381 484.401
394 0 73.121 13.8674 1014 106.825 377.17 483.004
395 0 76.1996 13.6877 1043 106.872 376.63 483.741
396 0 81.1299 15.6169 1267 102.841 376.413 481.975
397 0 85.2759 14.459 1233 104.545 375.918 481.906
398 0 86.3092 16.6726 1439 102.485 375.234 480.831
399 1 48.0999 11.7672 566 100.876 374.792 500.39
400 0 48.0834 10.9809 528 101.676 374.616 499.905
401 0 48.0381 9.70064 466 103.172 373.933 500.367
402 0 52.0277 11.8591 617 102.144 374.514 496.956
403 0 55.1531 13.7798 760 97.3763 374.195 495.171
404 0 55.3557 13.9462 772 99.3148 373.242 491.001
405 0 56.2443 12.499 703 101.085 372.996 493.04
406 0 58.2255 12.2627 714 101.797 372.627 490.887
407 0 61.2728 14.8027 907 97.5138 372.034 488.796
408 0 62.4143 12.8496 802 101.788 372.271 487.178
409 0 64.1337 13.0197 835 101.964 372.266 483.254
410 0 67.3601 13.3165 897 102 371.716 482.695
411 0 70.3305 13.7636 968 98.9132 372.005 483.389
412 0 71.7759 13.8069 991 98.889 371.387 480.448
413 1 41.2341 10.3798 428 98.6145 372.215 497.091
414 0 40.4061 10.4192 421 99.0831 372.955 496.85
415 0 42.1746 10.7885 455 101.209 372.985 495.442
416 0 43.2205 11.8462 512 100.939 373.951 493.834
417 0 46.1303 13.2668 612 98.5768 374.181 492.44
418 0 44.284 11.1101 492 102.654 375.25 492.752
419 0 48.1713 12.9123 622 98.0498 376.4 492.849
420 0 49.2108 11.5015 566 102.115 377.348 492.41
421 0 50.0721 13.161 659 98.2215 377.627 491.305
422 0 51.238 12.0028 615 100.849 378.779 493.176
423 0 52.1396 12.8501 670 101.749 379.055 492.696
424 0 54.0279 12.8452 694 101.875 378.519 493.918
425 0 58.0688 14.1384 821 98.3776 378.937 492.358
426 0 61.1411 13.7551 841 99.107 378.396 491.377
427 0 63.2171 13.161 832 100.054 377.194 490.106
428 0 65.0807 13.4909 878 100.274 376.733 489.335
429 0 68.0724 13.7794 938 99.6119 375.81 488.493
430 0 69.0906 13.9961 967 100.074 375.516 489.711
431 0 73.1764 15.4421 1130 98.031 374.427 484.82
432 0 75.2141 13.6278 1025 100.724 372.655 481.858
433 0 76.3234 13.1676 1005 103.344 373.696 482.87
434 0 80.4718 13.1723 1060 103.466 372.853 478.606
435 0 82.5957 14.2138 1174 100.866 371.658 479.298
436 0 84.3253 12.3569 1042 103.86 371.38 476.939
437 1 44.3326 10.8272 480 102.927 371.885 495.956
438 0 50.2298 11.8456 595 101.018 371.092 493.259
439 0 50.2033 11.553 580 101.395 371.693 491.774
440 0 52.2756 13.7349 718 96.8217 371.893 489.648
441 0 53.184 14.2148 756 95.6124 371.913 487.709
442 0 53.184 14.2148 756 124.646 371.925 487.652
443 0 56.2604 13.7219 772 96.0596 372.119 488.475
444 0 57.4191 13.8804 797 96.5483 373.05 488.238
445 0 59.2393 12.7112 753 97.9137 373.518 487.485
446 0 62.2883 12.4261 774 99.376 374.673 484.322
447 0 64.2341 13.3262 856 98.5689 375.268 483.737
448 0 67.2247 13.8491 931 98.1676 376.636 482.512
449 0 68.2631 13.5652 926 99.946 378.433 484.504
450 0 72.2603 13.0224 941 101.048 378.63 483.422
451 0 74.3 12.786 950 101.117 378.655 482.144
452 1 39.0216 10.7376 419 100.714 380.117 499.038
453 0 42.1117 10.9946 463 99.8035 380.525 499.181
454 0 42.0226 10.9465 460 99.4565 379.691 501.859
455 0 42.0226 10.4468 439 141.419 378.661 501.56
456 0 46.066 12.5472 578 98.2958 378.434 498.929
457 0 49.0274 13.8698 680 98.3956 377.94 497.329
458 0 50.2401 13.3161 669 98.9626 377.149 496.96
459 0 52.0974 13.5899 708 97.0212 376.161 497.556
460 0 53.32 14.1785 756 97.5304 375.968 495.315
461 0 56.16 14.334 805 97.1391 375.157 494.28
462 0 58.3824 13.3602 780 99.1013 374.354 494.032
463 0 59.4552 14.4479 859 99.1781 373.033 490.659
464 0 62.4405 14.5899 911 98.876 371.911 490.653
465 0 64.3211 14.2411 916 99.2107 371.501 482.85
466 0 65.6929 14.6135 960 99.5333 370.839 484.783
467 0 70.6261 15.4192 1089 97.9339 370.485 483.382
468 0 72.6018 14.1319 1026 99.3363 370.049 482.987
469 0 72.6402 14.4135 1047 101.565 369.539 479.806
470 0 77.6278 15.1106 1173 99.5354 369.337 478.842
471 1 39.3316 11.5937 456 99.4605 371.162 495.855
472 0 39.4342 10.9296 431 99.7193 371.592 495.051
473 0 43.3259 13.1099 568 96.7817 371.97 491.995
474 0 45.4937 12.837 584 97.7483 372.545 490.714
475 0 46.1504 12.5459 579 97.5561 373.772 492.699
476 0 49.0911 12.9351 635 97.0945 374.564 490.854
477 0 49.1787 12.6477 622 96.4003 375.651 491.199
478 0 51.3064 12.4741 640 95.3156 377.289 491.338
479 0 52.2056 13.8874 725 93.9586 378.801 491.952
480 0 54.1209 14.6524 793 93.1917 379.144 492.142
481 0 55.443 13.2929 737 97.2904 379.806 491.149
482 0 58.1777 14.5589 847 96.8359 380.137 489.805
483 0 61.3245 13.8933 852 98.1444 379.68 482.667
484 0 63.1297 16.2523 1026 94.0068 379.86 486.243
485 0 65.2412 14.4694 944 97.1822 378.93 489.638
486 0 69.4374 15.4528 1073 94.9096 378.699 489.998
487 0 69.3136 15.5814 1080 96.7028 377.632 489.253
488 0 72.4361 14.5508 1054 99.0503 377.05 486.239
489 0 76.3606 14.7458 1126 98.2984 375.814 485.882
490 0 77.8304 14.2618 1110 100.1 374.755 482.352
491 1 43.3077 12.3073 533 96.8293 374.462 501.25
492 0 43.4579 11.5284 501 99.2715 373.184 497.701
493 0 45.4493 12.5415 570 98.4474 372.979 495.572
494 0 47.1954 12.4377 587 98.0903 373.036 497.177
495 0 45.2543 11.2255 508 102.583 372.396 494.803
496 0 49.2934 10.5491 520 102.308 371.962 493.808
497 0 52.3922 13.2462 694 98.3963 371.046 491.173
498 0 53.2134 13.9063 740 97.6473 370.969 490.739
499 0 54.1812 14.2116 770 98.3909 371.087 487.91
500 0 55.3011 13.5802 751 99.727 370.893 486.909
501 0 57.2204 13.7014 784 99.3801 371.675 485.134
502 0 60.188 14.7372 887 97.0011 372.528 484.928
503 0 61.243 13.8138 846 101.277 372.691 483.056
504 0 62.2396 13.6248 848 101.843 373.654 481.401
505 0 65.2514 16.7353 1092 95.5385 375.29 483.88
506 0 65.3511 14.1849 927 102.122 377.188 481.197
507 0 67.2753 12.7982 861 104.274 377.18 481.041
508 0 71.2967 14.8955 1062 101.006 379.109 480.509
509 0 73.333 13.3637 980 103.831 380.607 480.342
510 0 76.3804 13.8779 1060 102.477 380.943 480.993
511 0 80.5117 15.4139 1241 99.2748 381.856 480.89
512 1 43.1593 11.7008 505 100.602 381.45 499.98
513 0 43.3041 9.99906 433 101.667 379.875 499.37
514 0 46.3195 10.5355 488 102.832 380.309 500.082
515 0 47.2908 10.8689 514 103.362 379.342 500.226
516 0 49.2643 11.692 576 103.592 377.401 496.729
517 0 51.1111 15.0456 769 94.1053 376.835 500.618
518 0 51.0506 11.8706 606 101.526 375.416 499.37
519 0 55.0754 15.1792 836 94.2201 374.866 497.182
520 0 55.1812 12.6311 697 98.9928 373.121 496.08
521 0 61.1449 14.2449 871 95.3008 371.91 495.086
522 0 63.2646 14.5421 920 95.0098 371.447 493.909
523 0 66.3484 14.8007 982 95.5305 370.302 490.898
524 0 66.3508 15.0865 1001 97.7972 369.121 489.594
525 0 68.2716 13.3438 911 100.998 368.541 487.108
526 0 71.3083 15.2717 1089 97.5482 367.649 485.921
527 0 74.3929 14.3293 1066 100.114 366.792 483.927
528 0 76.2576 15.0018 1144 100.563 365.816 481.149
529 0 79.4806 13.8273 1099 103.302 365.848 479.937
530 0 82.3635 14.8003 1219 102.23 366.217 477.737
531 0 85.3924 17.3318 1480 97.5642 366.599 476.917
532 0 86.4663 15.6708 1355 101.736 367.444 475.201
533 0 91.427 16.319 1492 100.714 368.421 473.107
534 0 92.3657 14.7999 1367 105.528 369.707 470.252
535 0 97.3974 15.0825 1469 103.66 371.323 469.807
536 1 52.1123 10.3047 537 105.555 371.784 492.92
537 0 52.0763 11.56 602 105.198 372.977 494.233
538 0 56.1256 12.472 700 103.36 374.234 494.866
539 0 59.0759 14.7945 874 101.765 375.45 496.302
540 0 60.2237 14.5292 875 102.354 375.851 497.853
541 0 63.1018 16.0693 1014 99.5937 374.532 497.527
542 0 65.0728 13.508 879 105.753 375.588 495.887
543 0 67.1749 15.2289 1023 105.009 374.643 495.38
544 0 70.1862 14.2621 1001 106.976 373.552 494.731
545 0 73.1363 14.2064 1039 107.596 372.064 494.491
546 0 76.2923 14.6411 1117 108.08 370.18 489.819
547 0 81.2973 15.8923 1292 104.825 369.864 489.56
548 0 82.2316 12.2094 1004 112.679 369.207 488.621
549 0 88.1566 15.7674 1390 105.801 368.177 484.723
550 1 46.0961 11.8882 548 108.142 366.485 503.878
551 0 48.091 11.9565 575 106.348 365.496 504.078
552 0 48.1474 12.2333 589 108.553 364.9 500.149
553 0 51.1896 12.9519 663 108.659 364.112 496.06
554 0 52.1657 13.3804 698 107.663 363.454 494.805
555 0 55.1598 13.5425 747 107.823 363.566 493.758
556 0 55.1864 12.485 689 111.518 363.015 491.049
557 0 58.1532 14.2039 826 107.442 363.255 489.805
558 0 60.1844 14.1731 853 107.408 363.468 488.041
559 0 60.1844 14.1731 853 152.15 363.448 488.043
560 0 62.264 13.8443 862 108.991 365.331 484.926
561 0 65.2145 14.5673 950 106.813 366.836 483.997
562 0 66.2789 14.9671 992 106.425 368.068 483.504
563 0 69.2933 14.5613 1009 106.227 370.598 483.984
564 0 71.0434 14.3433 1019 107.776 372.293 483.671
565 0 70.0799 12.0719 846 111.274 374.442 484.417
566 0 74.3399 14.0301 1043 106.625 376.193 483.215
567 0 79.2831 13.4329 1065 105.927 377.123 482.526
568 1 43.0974 11.3232 488 100.918 377.389 502.818
569 0 44.0149 12.2004 537 98.9721 376.886 503.544
570 0 43.0379 12.1753 524 101.519 378.187 502.51
571 0 45.1423 11.8957 537 102.022 377.138 502.169
572 0 48.3671 12.4465 602 99.2674 376.301 504.875
573 0 49.3987 13.5024 667 100.786 374.631 503.088
574 0 51.2421 12.4897 640 102.128 373.13 503.923
575 0 53.2437 12.5273 667 103.996 371.972 502.636
576 0 54.1956 14.706 797 102.168 370.985 500.281
577 0 56.3999 14.2376 803 103.123 370.208 498.895
578 0 60.2986 13.4829 813 103.846 368.747 497.867
579 0 60.2922 13.2853 801 105.944 368.039 495.928
580 0 62.3588 13.2459 826 107.413 366.699 494.521
581 0 64.3964 13.743 885 107.032 366.159 492.903
582 0 66.4795 13.9291 926 108.191 365.829 490.521
583 1 35.1271 11.3872 400 104.285 365.142 505.935
584 0 36.2789 10.4744 380 106.453 365.161 504.637
585 0 38.2621 12.2053 467 103.188 364.336 502.936
586 0 40.309 11.4615 462 106.084 364.92 501.675
587 0 40.3336 11.7768 475 105.638 365.314 500.375
588 0 40.2951 11.2669 454 109.095 365.7 497.927
589 0 42.2379 12.6427 534 106.62 365.712 497.551
590 0 45.4572 13.1112 596 104.814 366.638 495.943
591 0 47.3736 13.6363 646 104.789 367.169 495.55
592 0 49.2027 13.3936 659 104.982 369.792 495.866
593 0 50.1146 13.2496 664 106.964 372.98 494.328
594 0 50.0745 12.4814 625 108.968 375.334 496.973
595 0 54.1601 13.0724 708 106.743 376.473 496.161
596 0 56.1951 12.1007 680 109.269 377.869 495.625
597 0 59.2766 14.2215 843 106.671 378.97 493.847
598 0 62.3459 14.0346 875 107.617 378.842 494.559
599 0 65.3122 13.336 871 108.674 378.295 494.311
600 0 68.7255 13.2265 909 110.054 376.724 494.341
601 0 70.6082 12.888 910 111.519 374.519 494.389
602 1 38.3122 11.4846 440 107.025 374.611 514.393
603 0 41.4744 12.1279 503 104.797 372.972 515.966
604 0 42.2695 13.13 555 105.423 371.328 513.299
605 0 45.2779 13.2294 599 105.077 369.149 513.092
606 0 44.2795 12.8728 570 107.077 367.275 514.668
607 0 46.0978 12.3216 568 108.141 368.352 512.97
608 0 47.0651 12.3234 580 108.502 366.888 512.352
609 0 47.0651 12.3659 582 160.314 365.887 512.383
610 0 51.1842 13.7347 703 105.792 363.979 510.774
611 0 53.0778 13.2447 703 106.467 363.996 508.461
612 0 55.0977 14.5741 803 103.649 362.523 506.781
613 0 58.2364 14.029 817 106.705 362.067 505.6
614 0 60.0861 14.3627 863 104.323 362.29 503.853
615 0 60.1023 13.8597 833 107.48 361.477 501.267
616 0 65.1604 14.1957 925 106.843 360.8 498.646
617 0 66.1694 14.2966 946 109.671 361.586 496.02
618 0 69.1644 14.4438 999 109.934 360.975 495.976
619 1 35.1388 10.9281 384 114.406 362.255 510.708
620 0 39.1897 12.146 476 104.626 364.418 510.321
621 0 40.1478 11.8313 475 112.947 364.891 508.878
622 0 42.294 12.5786 532 110.968 365.615 508.615
623 0 44.3943 13.335 592 109.101 367.821 509.38
624 0 44.1173 13.4188 592 106.954 368.275 509.248
625 0 44.3242 13.6043 603 107.796 368.834 510.265
626 0 48.2321 13.8497 668 106.338 368.969 509.296
627 0 50.365 13.839 697 106.945 369.205 508.597
628 0 49.1647 12.7734 628 111.438 368.068 508.589
629 0 52.3145 13.7056 717 109.099 368.315 510.202
630 0 54.3368 13.0298 708 109.972 366.626 511.291
631 0 57.3247 14.8278 850 105.838 366.34 511.481
632 0 60.4599 14.2408 861 106.963 366.344 506.193
633 0 65.5362 15.747 1032 102.257 365.609 507.547
634 0 66.2466 13.329 883 108.162 364.339 508.823
635 1 34.2078 10.1731 348 110.322 363.011 524.385
636 0 36.1633 11.9735 433 108.741 361.457 521.573
637 0 38.2572 13.0433 499 106.555 361.565 518.804
638 0 40.3705 12.8559 519 107.069 358.189 518.721
639 0 42.0986 13.5159 569 106.091 357.587 517.102
640 0 44.1279 14.186 626 104.837 358.69 513.54
641 0 43.1612 12.9746 560 110.195 356.855 512.171
642 0 45.0881 14.4162 650 106.835 355.866 510.823
643 0 45.2521 13.8999 629 108.576 356.307 507.21
644 0 48.3656 13.8528 670 108.458 356.594 507.676
645 0 49.2377 14.5214 715 108.537 357.754 507.429
646 0 51.3206 14.0489 721 109.111 358.723 506.466
647 0 52.1469 13.8455 722 110.67 360.957 505.137
648 0 54.223 14.385 780 109.836 361.81 505.681
649 0 57.1826 14.4624 827 108.83 362.912 504.709
650 0 59.4224 14.3212 851 109.365 364.525 503.952
651 0 61.5504 14.9146 918 107.49 365.687 503.047
652 0 62.2322 14.944 930 109.755 366.291 502.685
653 0 65.5073 14.2427 933 110.681 367.196 502.493
654 0 66.3169 14.2196 943 111.94 367.799 503.729
655 0 69.184 14.7288 1019 114.218 367.33 501.624
656 0 72.2965 14.2745 1032 115.876 367.641 499.686
657 1 40.192 11.6939 470 114.083 367.581 518.091
658 0 40.4491 11.8173 478 116.812 367.808 518.707
659 0 42.3147 13.1396 556 114.996 367.228 517.396
660 0 44.2992 13.5442 600 116.412 366.917 516.627
661 0 47.2666 14.1961 671 112.756 366.598 516.79
662 0 47.2509 12.8886 609 116.146 364.716 513.034
663 0 48.1318 13.1306 632 116.57 364.081 512.152
664 0 50.2826 13.802 694 113.471 363.316 511.255
665 0 52.1879 14.2178 742 112.881 363.291 509.038
666 0 54.3349 14.3002 777 109.537 362.707 508.3
667 0 56.209 13.6989 770 112.635 361.391 504.521
668 0 58.2509 14.2487 830 110.101 360.743 502.807
669 0 62.2015 14.7585 918 108.27 360.963 499.42
670 0 63.2433 14.5944 923 107.744 360.835 496.932
671 0 67.2864 14.743 992 107.783 361.209 494.09
672 0 69.1984 14.4656 1001 108.75 361.364 491.03
673 1 34.1009 10.8795 371 107.065 363.642 507.501
674 0 36.1493 10.18 368 111.535 363.399 504.78
675 0 39.0805 11.8473 463 104.611 364.229 504.622
676 0 38.1106 11.9652 456 106.441 365.535 505.213
677 0 41.1226 12.3776 509 105.646 366.44 503.409
678 0 41.0553 12.6415 519 106.295 366.96 501.965
679 0 43.07 13.2575 571 104.452 369.475 501.644
680 0 44.2308 13.7009 606 104.612 371.03 501.218
681 0 45.2638 13.7858 624 103.755 372.288 503.822
682 0 47.2084 13.7476 649 105.054 374.236 502.72
683 0 48.4249 12.4936 605 109.271 376.031 501.488
684 0 50.4982 14.3768 726 104.621 376.216 503.344
685 0 52.3568 14.7259 771 105.481 376.224 503.071
686 0 56.3298 15.6578 882 104.095 375.763 502.287
687 0 57.1897 14.8803 851 106.885 374.651 500.737
688 0 59.1474 13.9144 823 108.804 373.65 500.351
689 0 59.1474 13.9482 825 157.688 371.644 500.424
690 0 62.2642 13.7479 856 110.718 371.744 499.77
691 0 66.2411 14.5982 967 109.37 370.797 496.886
692 0 66.2364 14.6445 970 147.551 369.776 496.952
693 0 71.2689 14.8732 1060 109.12 368.127 492.475
694 0 71.3141 13.3354 951 115.004 366.844 488.654
695 0 74.307 14.4132 1071 112.129 365.508 487.736
696 0 78.3661 15.4786 1213 110.319 364.4 483.838
697 1 42.238 10.8433 458 113.583 363.472 499.332
698 0 43.1513 10.5211 454 112.778 363.678 498.934
699 0 47.1518 11.9189 562 109.552 363.875 496.899
700 0 45.1892 12.68 573 109.538 364.784 494.225
701 0 49.3602 12.8444 634 106.826 366.402 494.86
702 0 48.0826 12.9777 624 107.082 367.654 493.857
703 0 48.2634 12.7011 613 107.639 368.375 493.078
704 0 50.3648 13.6206 686 104.319 367.647 491.582
705 0 51.4929 12.9532 667 106.552 369.066 490.673
706 0 50.2666 12.1154 609 108.979 370.184 492.406
707 0 55.2576 13.989 773 104.991 371.926 492.05
708 0 54.2342 13.0729 709 108.846 375.021 491.011
709 0 56.2057 14.5537 818 106.814 377.125 491.801
710 0 54.1909 13.2679 719 105.602 378.981 491.423
711 0 57.2922 14.1555 811 111.956 380.425 494.858
712 0 57.2732 13.8634 794 113.713 381.453 495.574
713 0 57.3272 14.7574 846 112.309 381.054 495.726
714 0 58.2296 13.7044 798 115.396 381.569 496.664
715 0 60.3176 15.2194 918 112.528 380.063 496.638
716 0 60.2609 13.5411 816 116.156 379.576 498.401
717 0 62.1775 15.2949 951 111.588 378.436 498.623
718 0 63.2441 13.2344 837 116.84 377.287 499.283
719 0 62.2834 14.7551 919 115.114 375.557 496.116
720 0 63.2853 13.5418 857 117.886 373.587 495.077
721 0 64.326 14.3177 921 114.859 372.214 495.249
722 0 64.2364 14.3221 920 114.439 370.586 495.324
723 0 64.3963 14.9698 964 113.833 369.451 493.129
724 0 65.2475 14.4986 946 113.791 367.452 493.053
725 0 65.2301 14.7938 965 113.633 366.856 491.66
726 0 65.3178 13.4114 876 116.477 366.171 490.936
727 0 64.175 13.8528 889 115.597 366.007 488.729
728 0 64.3107 14.5233 934 113.906 365.124 488.68
729 0 62.3179 12.9337 806 117.996 366.107 488.49
730 0 63.2491 12.5219 792 116.479 366.506 489.22
731 0 65.2999 14.1807 926 113.146 365.884 485.389
732 0 66.4703 14.7434 980 110.6 365.561 486.497
733 0 64.3777 12.6131 812 115.238 367.624 486.922
734 0 64.3414 12.6357 813 116.834 368.339 484.651
735 0 65.4163 13.1772 862 114.194 370.347 486.624
736 0 65.2884 14.1832 926 112.163 371.906 486.092
737 0 64.2804 12.9277 831 113.294 373.782 490.046
738 0 66.2402 13.6171 902 113.319 375.296 490.353
739 0 64.4285 12.7273 820 115.101 376.354 491.011
740 0 66.2414 13.3602 885 112.85 377.134 493.855
741 0 65.4168 13.3911 876 113.41 377.534 493.524
742 0 65.357 13.5716 887 113.788 376.7 495.298
743 0 65.4588 13.4436 880 113.569 375.36 495.957
744 0 64.4085 12.6536 815 115.194 373.931 497.598
745 0 65.2829 13.7249 896 111.935 372.873 500.079
746 0 64.3113 11.9886 771 116.632 370.986 499.607
747 0 67.2948 13.27 893 112.147 369.626 499.786
748 0 67.3091 14.6191 984 108.931 367.881 499.964
749 0 67.4437 14.0117 945 110.096 365.56 498.021
750 0 65.3832 12.3732 809 113.168 363.412 497.103
751 0 66.3519 12.7502 846 111.918 362.913 495.649
752 0 64.3517 12.4783 803 113.771 362.26 492.585
753 0 66.4677 12.0359 800 112.132 361.336 494.778
754 0 67.2292 13.7143 922 109.581 362.269 492.484
755 0 67.4298 13.8218 932 107.893 362.67 491.262
756 0 67.1965 14.5841 980 106.682 362.094 489.755
757 0 69.4392 12.9178 897 108.62 361.475 488.572
758 0 68.2588 14.6501 1000 106.227 362.309 484.842
759 0 69.4439 13.1473 913 107.97 362.421 485.524
760 0 69.3338 12.7355 883 107.569 363.511 485.943
761 0 68.5839 13.1518 902 106.604 364.918 485.371
762 0 68.457 13.4537 921 106.013 365.574 485.21
763 0 69.2952 13.9115 964 109.567 367.341 484.813
764 0 64.257 12.1699 782 114.83 370.598 486.51
765 0 67.332 13.025 877 112.235 371.702 488.255
766 0 65.3105 13.6119 889 112.144 373.957 488.73
767 0 66.2787 12.9453 858 112.287 375.548 490.647
768 0 67.2841 13.6288 917 109.435 376.167 491.73
769 0 64.3077 11.4139 734 114.564 376.132 492.793
770 0 64.3387 12.3876 797 114.803 375.651 492.13
771 0 66.3203 13.9324 924 109.236 375.085 494.371
772 0 65.4071 12.2769 803 113.005 374.968 495.007
773 0 66.2176 13.5916 900 111.112 373.602 495.446
774 0 66.3079 12.5475 832 106.774 372.468 497.702
775 0 67.2078 13.7633 925 97.0422 371.045 496.156
