time division length width area intensity CMx CMy
0 0 45.3077 11.8082 535 108.273 207.692 480.497
1 0 45.3269 12.0238 545 108.628 207.697 479.958
2 0 47.4058 13.1419 623 105.857 208.406 479.409
3 0 47.557 12.28 584 110.49 208.411 477.385
4 0 50.5544 11.7102 592 110.157 209.576 478.694
5 0 48.5269 13.0237 632 109.823 209.386 475.922
6 0 49.5242 12.0749 598 111.774 209.022 477.146
7 0 50.1944 11.8539 595 111.859 208.607 476.99
8 0 52.1547 12.7889 667 110.187 208.747 476.318
9 0 52.1735 12.4776 651 109.227 208.544 476.637
10 1 24.1415 9.03008 218 110.858 208.683 488.266
11 0 25.19 9.84516 248 111.085 207.875 486.992
12 0 28.19 11.2451 317 105.423 207.795 488.183
13 0 26.1477 9.56107 250 107.112 209.056 489.068
14 0 28.1154 9.56771 269 107.528 208.409 487.796
15 0 29.0188 9.58001 278 105.219 209.421 489.356
16 0 29.0697 11.0424 321 104.199 210.29 487.171
17 0 31.0486 10.8862 338 103.092 210.009 487.163
18 0 30.0172 10.0609 302 105.533 210.169 487.348
19 0 31.0181 11.0258 342 102.333 210.073 486.719
20 0 33.0199 11.7808 389 99.0977 209.221 486.437
21 0 33.1538 13.362 443 95.246 207.792 486.488
22 0 34.3374 13.1926 453 94.8035 209.497 486.83
23 0 33.2157 11.2898 375 99.5973 209.195 486.291
24 0 34.3766 11.9849 412 100.682 209.267 485.942
25 0 33.1192 13.1042 434 101.258 209.224 484.562
26 0 36.3561 12.6251 459 100.597 208.329 485.869
27 0 36.3487 12.16 442 102.595 209.396 486.02
28 0 36.168 12.2484 443 104.659 209.573 484.968
29 0 38.081 13.5763 517 101.834 210.414 484.147
30 0 38.2107 11.4366 437 107.696 211.057 484.613
31 0 40.2181 13.5262 544 105.399 211.726 482.031
32 0 40.2385 13.6934 551 105.477 211.225 482.232
33 0 42.2891 13.2422 560 106.029 212.034 481.748
34 0 43.1608 14.4576 624 105.051 212.205 480.25
35 0 43.2401 13.5985 588 108.667 212.051 481.156
36 0 46.1637 14.1453 653 107.502 212.449 480.136
37 0 46.2059 15.1712 701 106.766 212.633 480.227
38 0 48.257 15.2724 737 107.387 212.543 478.55
39 0 48.2022 14.1902 684 109.874 212.196 479.804
40 0 51.1667 14.6189 748 109.251 212.253 478.541
41 0 52.1957 15.7293 821 109.007 212.537 477.942
42 0 53.1397 15.2617 811 110.476 212.536 477.652
43 0 56.1583 15.9015 893 109.168 212.664 476.735
44 0 57.268 16.2918 933 108.28 212.391 476.359
45 0 58.2164 14.2228 828 113.622 212.833 475.889
46 0 60.1276 16.4484 989 108.407 213.256 475.283
47 0 61.1093 15.9877 977 110.015 213.497 475.471
48 0 64.1617 16.1155 1034 109.289 213.691 474.409
49 0 65.1133 14.7589 961 112.355 212.871 473.852
50 0 67.068 15.0594 1010 110.023 213.064 472.471
51 0 68.0934 15.8899 1082 109.323 213.035 469.072
52 0 74.1864 16.5394 1227 104.654 213.043 470.455
53 0 74.1885 14.5575 1080 108.697 213.29 470.072
54 0 78.2839 15.4055 1206 106.203 212.318 467.604
55 1 43.0803 13.4168 578 105.232 212.471 485.606
56 0 42.089 13.8754 584 106.154 212.007 483.815
57 0 44.1496 11.4837 507 109.649 212.85 483.357
58 0 45.1738 12.3302 557 109.591 212.625 481.44
59 0 48.2126 14.1042 680 104.125 213.176 480.691
60 0 48.2047 14.3762 693 104.899 212.831 479.84
61 0 52.2462 13.8957 726 106.313 213.022 477.058
62 0 54.1302 15.3149 829 102.129 212.87 477.324
63 0 55.124 15.4379 851 105.008 213.262 476.932
64 0 58.1713 15.4544 899 105.239 212.902 474.478
65 0 60.2469 14.2746 860 107.883 213.192 473.007
66 0 61.1329 15.5072 948 106.097 213.409 473.292
67 0 64.2025 15.2486 979 107.244 213.791 469.883
68 0 67.1133 15.3472 1030 106.522 214.037 470.818
69 0 69.1845 14.5264 1005 110.449 213.913 468.177
70 0 72.0913 14.8145 1068 109.536 213.68 467.654
71 0 75.141 16.5289 1242 108.172 214.102 465.571
72 1 38.0844 12.1835 464 112.181 212.752 481.731
73 0 42.1251 11.7982 497 113.014 214.044 481.624
74 0 40.0181 10.7201 429 115.816 214.448 483.501
75 0 42.0551 12.2458 515 114.981 214.429 482.604
76 0 44.0593 11.3483 500 117.092 215.686 482.076
77 0 45.1615 12.71 574 115.071 214.551 480.476
78 0 49.0599 14.5129 712 110.185 214.098 479.987
79 0 48.0485 13.5488 651 115.857 214.381 478.33
80 0 50.2216 13.5599 681 111.013 214.523 479.533
81 0 50.2682 13.6269 685 111.184 215.15 479.81
82 0 51.2713 14.6671 752 110.218 215.08 479.23
83 0 54.1272 14.4844 784 110.103 215.126 477.703
84 0 54.1863 13.7673 746 112.449 215.327 476.328
85 0 59.3032 14.1814 841 109.273 214.9 476.648
86 0 58.2016 13.522 787 113.551 215.404 476.03
87 0 60.1757 14.8565 894 111.221 215.529 474.786
88 0 62.2483 13.1249 817 115.705 215.182 472.355
89 0 66.1559 14.6472 969 110.249 214.375 472.465
90 0 66.1685 14.1457 936 113.418 214.956 469.709
91 0 71.2661 15.365 1095 109.057 214.979 467.485
92 0 72.2796 14.1672 1024 111.996 215.862 468.008
93 0 76.2136 14.8924 1135 110.171 215.281 466.227
94 1 42.0411 10.7752 453 112.892 217.064 483.276
95 0 42.0527 11.3667 478 112.259 217.155 482.709
96 0 44.0214 11.29 497 112.195 217.058 481.827
97 0 46.0683 12.2644 565 112.942 217.977 479.055
98 0 50.0158 14.1355 707 106.181 217.484 479.843
99 0 50.0537 13.945 698 110.867 217.526 477.102
100 0 51.1763 14.5966 747 107.688 217.454 477.776
101 0 51.1983 14.3755 736 109.893 218.027 477.935
102 0 54.1239 14.4299 781 108.599 217.339 476.05
103 0 55.1598 14.1045 778 110.405 216.242 476.654
104 0 56.1723 13.0491 733 111.819 217.112 475.364
105 0 60.2631 14.0716 848 108.788 218.026 474.329
106 0 60.0837 14.097 847 112.27 218.419 471.274
107 0 61.1876 13.8754 849 111.828 218.66 472.181
108 0 65.1972 15.4915 1010 108.237 218.175 471.406
109 0 67.1033 15.4389 1036 109.991 218.595 469.778
110 0 68.1803 14.1243 963 112.476 218.636 470.596
111 1 37.0237 11.4521 424 110.106 218.83 486.606
112 0 38.0157 11.0744 421 112.192 215.204 484.454
113 0 39.0211 12.4548 486 110.901 214.298 482.969
114 0 42.099 12.9219 544 108.546 214.509 483.689
115 0 44.0762 11.2759 497 110.41 214.097 484.565
116 0 43.0559 12.0773 520 112.769 214.123 481.629
117 0 47.0627 12.664 596 106.956 213.725 483.188
118 0 47.0598 12.6222 594 107.608 213.409 480.835
119 0 50.1321 14.0828 706 103.932 214.333 479.54
120 0 49.2197 13.1248 646 107.772 214.937 479.834
121 0 50.1721 13.3341 669 109.144 214.404 479.813
122 0 53.1711 15.4783 823 103.533 214.61 479.474
123 0 54.1548 13.9046 753 107.41 215.016 479.1
124 0 57.2898 14.1561 811 106.989 215.164 476.078
125 0 58.2055 14.5175 845 107.168 215.877 475.201
126 0 62.3187 14.3135 892 104.276 216.233 474.723
127 0 62.3047 14.2204 886 106.957 215.981 473.783
128 0 66.1878 15.6071 1033 103.498 216.015 471.916
129 0 66.2723 14.2744 946 109.291 215.321 468.514
130 0 69.1499 13.8106 955 109.09 215.363 468.728
131 0 70.211 14.4279 1013 108.306 215.468 468.89
132 0 74.0739 15.6195 1157 103.518 215.363 469.17
133 0 77.238 15.3681 1187 102.258 216.791 467.5
134 0 80.1779 15.7899 1266 100.797 216.83 464.312
135 0 82.1184 15.8673 1303 102.613 216.961 464.019
136 0 84.204 13.9186 1172 106.581 217.283 462.674
137 0 86.1911 13.8994 1198 106.7 216.206 463.663
138 1 44.2737 10.277 455 105.193 214.967 485.33
139 0 44.1745 9.98313 441 109.526 216.107 482.279
140 0 46.1175 11.1021 512 107.777 216.076 482.727
141 0 49.169 11.0639 544 106.888 216.401 483.022
142 0 50.1062 12.4735 625 104.222 215.186 482.662
143 0 50.3424 12.8321 646 105.737 214.285 478.529
144 0 53.2956 13.1343 700 104.976 213.84 478.026
145 0 54.3388 12.6981 690 104.739 213.783 478.232
146 0 56.3553 13.3084 750 143.28 213.887 477.313
147 0 58.1551 13.0685 760 105.736 214.476 478.651
148 0 61.1594 14.4867 886 103.256 214.398 476.251
149 0 61.1575 14.5689 891 104.469 214.266 472.99
150 0 63.2763 14.1285 894 104.913 214.699 473.694
151 0 67.2941 15.0236 1011 102.251 213.705 470.855
152 0 69.2863 14.0143 971 104.898 214.668 470.891
153 0 73.2677 14.2082 1041 104.522 214.514 469.264
154 0 75.3009 16.6665 1255 99.4606 213.592 467.606
155 0 78.3353 15.3188 1200 102.589 213.512 465.274
156 0 79.2811 14.1522 1122 105.983 213.313 464.679
157 0 82.2338 15.006 1234 104.673 212.392 462.255
158 0 85.362 13.9992 1195 106.787 213.438 460.777
159 0 88.2963 13.5906 1200 106.832 213.568 457.279
160 0 91.3098 14.5877 1332 105.693 213.866 456.565
161 0 95.271 15.7341 1499 103.763 213.703 455.057
162 1 49.1685 11.8775 584 106.161 213.825 476.01
163 0 51.1886 11.7409 601 103.676 213.739 474.318
164 0 54.3171 12.4638 677 102.842 213.898 474.424
165 0 54.2913 12.2119 663 103.732 213.968 473.837
166 0 56.0859 12.0529 676 104.173 213.077 471.793
167 0 58.1773 13.4932 785 100.929 214.275 472.282
168 0 60.3189 13.9426 841 100.9 215.442 472.361
169 0 63.101 14.4213 910 100.031 214.512 471.91
170 0 65.1514 14.5661 949 100.046 214.683 470.635
171 0 69.2347 15.3969 1066 97.4625 215.036 470.086
172 0 70.2351 14.1667 995 100.385 214.267 469.117
173 0 75.1254 15.747 1183 96.7836 213.746 468.768
174 0 75.2262 14.7023 1106 101.046 213.208 466.39
175 0 79.1522 14.4153 1141 101.034 212.933 465.966
176 0 80.2059 15.8467 1271 99.6467 213.598 462.704
177 0 84.1808 14.6946 1237 101.805 213.402 463.339
178 0 89.1325 16.1557 1440 98.5743 213.209 463.04
179 0 90.2209 15.4066 1390 100.553 213.167 461.592
180 0 92.0866 16.0284 1476 100.033 212.693 460.651
181 0 96.2104 16.36 1574 99.3647 212.893 458.051
182 0 96.3227 15.8011 1522 101.252 212.408 457.631
183 0 99.218 15.35 1523 102.099 211.969 456.091
184 0 101.365 15.2321 1544 101.525 211.302 453.555
185 0 106.318 15.9521 1696 99.8626 211.125 450.162
186 1 59.2934 10.9118 647 98.8485 210.858 476.555
187 0 58.2022 10.0512 585 98.7641 210.414 479.029
188 0 62.2282 13.3059 828 97.1848 210.429 472.159
189 0 61.0573 12.5292 765 99.1765 210.108 471.042
190 0 61.0573 12.4309 759 158.577 210.129 471.132
191 0 67.1341 13.4358 902 97.1452 211.938 470.251
192 0 70.3015 14.3098 1006 95.668 212.065 467.353
193 0 72.3426 13.9337 1008 96.6181 212.255 465.178
194 0 74.1728 14.9651 1110 94.3811 212.559 464.676
195 0 77.2698 14.5594 1125 95.6551 213.088 462.376
196 0 79.3804 14.5628 1156 95.782 212.664 461.452
197 0 82.291 13.7075 1128 97.7154 213.238 460.308
198 0 84.2184 14.403 1213 95.5919 214.285 460.872
199 0 87.1421 14.0231 1222 97.5679 213.974 457.219
200 0 90.2968 14.9064 1346 95.4116 213.96 455.964
201 0 95.2558 15.915 1516 93.1557 214.639 455.165
202 0 96.149 14.7167 1415 95.4636 214.085 453.719
203 1 54.14 10.1404 549 95.9636 214.772 477.457
204 0 55.2804 10.5462 583 96.1698 214.825 477.156
205 0 58.1837 13.423 781 91.9603 214.264 475.341
206 0 59.1754 12.8263 759 93.7167 214.186 471.833
207 0 60.1833 12.6281 760 93.3724 214.118 471.618
208 0 63.1454 12.2891 776 92.5103 213.316 469.463
209 0 63.1572 12.8885 814 94.0774 213.35 469.076
210 0 68.1494 13.7932 940 90.5351 213.547 468.272
211 0 68.2503 12.4688 851 94.2127 213.518 467.152
212 0 73.2211 13.1656 964 92.2656 213.2 466.095
213 0 78.3358 14.1442 1108 91.0975 212.348 468.654
214 0 77.3412 13.4081 1037 93.3877 211.7 467.167
215 0 82.6234 13.3255 1101 93.0736 211.143 463.761
216 0 83.3271 12.7449 1062 93.7759 209.983 465.17
217 0 87.3374 14.2665 1246 92.5931 210.388 458.522
218 1 45.3459 10.5853 480 94.6396 209.829 479.94
219 0 48.3878 9.69253 469 93.6951 210.168 481.761
220 0 48.2182 9.7681 471 94.1062 210.866 481.607
221 0 53.1812 11.5078 612 92.4493 210.377 476.908
222 0 54.2374 12.5006 678 90.8584 211.007 476.565
223 0 54.2189 11.0847 601 94.9168 210.752 475.023
224 0 57.3522 14.2802 819 89.8694 212.258 474.295
225 0 58.0484 13.5749 788 91.3541 212.43 474.806
226 0 56.102 12.6733 711 94.2672 212.371 473.395
227 0 61.0449 13.6457 833 91.6302 212.068 472.999
228 0 62.1661 12.4183 772 94.4443 211.785 469.874
229 0 65.1173 14.1898 924 91.4545 211.718 469.218
230 0 67.1226 14.6597 984 90.9411 212.518 468.293
231 0 68.0851 14.6728 999 91.987 212.619 467.671
232 0 72.1782 15.2262 1099 90.1874 213.274 467.626
233 0 73.1296 16.587 1213 90.249 213.354 466.443
234 0 76.1703 15.3341 1168 92.1233 214.075 467.049
235 0 78.2899 14.574 1141 94.9851 213.832 465.232
236 0 83.174 15.2091 1265 93.2174 213.927 465.784
237 0 86.1916 15.5816 1343 93.8652 214.418 464.529
238 0 88.34 15.3271 1354 86.7518 214.186 463.665
239 0 89.1916 15.5956 1391 98.0122 214.377 460.081
240 0 93.4151 16.1644 1510 97.3265 213.963 459.244
241 1 48.1889 11.9322 575 98.1739 213.466 482.619
242 0 49.0538 10.1317 497 100.31 212.829 483.248
243 0 49.258 10.4349 514 100.839 212.537 481.768
244 0 52.1397 10.5294 549 99.7086 213.087 482.413
245 0 55.2132 12.9679 716 96.4386 213.102 480.06
246 0 56.2591 12.2825 691 98.4978 212.738 477.702
247 0 56.4184 13.2581 748 96.7206 211.991 477.123
248 0 59.3843 14.1115 838 95.3854 211.389 474.218
249 0 59.1506 13.8291 818 96.1332 210.622 475.221
250 0 63.3801 15.478 981 93.3507 211.056 472.084
251 0 66.478 13.779 916 95.5306 211.194 472.299
252 0 65.2641 13.2538 865 99.3318 211.489 469.538
253 0 71.514 13.8714 992 97.5817 210.746 468.703
254 0 72.396 14.7108 1065 96.785 210.851 466.127
255 0 75.3714 14.9128 1124 95.9075 210.316 468.407
256 0 77.5104 13.4047 1039 100.108 210.609 462.059
257 0 79.6602 13.8086 1100 99.1818 210.392 464.423
258 0 82.5866 14.3001 1181 98.6207 211.124 462.321
259 0 85.4526 14.7567 1261 97.9096 211.569 460.91
260 0 88.3474 15.9597 1410 96.1433 212.062 457.999
261 1 45.4203 12.2412 556 94.9119 212.214 480.977
262 0 48.2816 11.3915 550 97.1927 212.735 478.811
263 0 48.2908 12.2798 593 95.7943 212.029 479.835
264 0 50.4734 11.729 592 96.7399 212.667 479.961
265 0 52.3101 11.7568 615 99.7659 212.483 478.808
266 0 53.3888 13.205 705 97.373 212.626 476.845
267 0 54.2953 13.003 706 97.0297 213.432 475.503
268 0 55.1755 12.7955 706 98.2309 213.142 477.456
269 0 58.072 13.2594 770 97.0364 213.845 477.179
270 0 59.0358 15.5838 920 94.2196 213.442 475.777
271 0 60.1596 13.3644 804 98.3234 213.537 474.929
272 0 63.1732 13.0752 826 99.7978 213.341 473.747
273 0 67.0849 13.9376 935 96.8011 213.077 476.243
274 0 69.2996 15.8875 1101 94.5577 213.248 473.886
275 0 70.1374 14.4716 1015 99.2473 213.03 473.217
276 0 73.1122 13.6913 1001 101.283 212.302 471.897
277 0 76.3159 16.4841 1258 95.093 211.628 468.942
278 0 78.1347 15.998 1250 96.1384 210.781 469.849
279 0 81.3783 16.2943 1326 95.8733 210.334 467.901
280 0 82.431 13.2838 1095 102.545 210.611 466.947
281 1 42.2328 10.7026 452 101.184 211.635 486.033
282 0 45.1985 9.49146 429 105.238 211.317 483.685
283 0 46.4782 9.98318 464 104.198 211.435 483.496
284 0 48.1086 11.6403 560 102.655 211.527 482.882
285 0 48.1805 12.5985 607 102.463 211.881 478.783
286 0 48.1521 10.903 525 105.128 211.15 477.507
287 0 52.1808 12.1692 635 99.8567 210.639 475.342
288 0 52.3308 12.0388 630 101.929 209.225 477.008
289 0 54.0473 12.8221 693 100.349 211.3 476.814
290 0 57.166 13.8719 793 96.7428 210.15 478.527
291 0 55.1362 12.5507 692 102.132 210.003 475.337
292 0 59.3226 13.1485 780 100.362 211.022 473.555
293 0 61.2027 13.7902 844 99.2251 211.947 473.594
294 0 63.1996 14.114 892 98.4406 212.689 473.566
295 0 65.109 13.6847 891 100.168 212.952 472.966
296 0 69.1353 14.5801 1008 98.0744 214.037 472.059
297 0 70.1442 14.1423 992 101.251 214.317 471.585
298 0 72.2342 15.5743 1125 100.106 214.019 467.347
299 0 74.1756 14.1151 1047 102.968 214.141 470.415
300 0 77.1946 14.9881 1157 101.315 215.217 470.274
301 0 79.1557 15.4127 1220 103.039 214.645 467.62
302 0 83.2288 14.334 1193 104.205 214.071 467.251
303 1 44.0919 9.84307 434 109.97 214.618 485.606
304 0 46.1136 12.1873 562 107.294 214.057 484.246
305 0 50.2938 12.1884 613 105.781 213.209 485.367
306 0 51.2147 14.6442 750 102.496 213.189 484.012
307 0 51.1864 12.8354 657 105.461 214.706 484.406
308 0 53.3172 14.2168 758 101.947 213.016 483.517
309 0 53.1324 13.2876 706 104.344 213.17 484.139
310 0 53.1298 12.78 679 107.308 212.225 482.474
311 0 58.2718 13.3512 778 104.298 211.704 482.174
312 0 58.2764 13.9508 813 104.812 211.418 481.02
313 0 58.2569 12.1874 710 107.997 210.708 478.513
314 0 63.2228 15.2635 965 100.63 210.743 478.234
315 0 65.2501 14.0843 919 104.411 210.121 475.316
316 0 66.1178 13.5516 896 106.069 210.39 473.739
317 0 68.1939 13.3003 907 107.564 209.822 473.531
318 0 72.1959 15.1394 1093 102.91 210.203 470.662
319 0 72.1713 14.5903 1053 105.156 210.739 468.171
320 0 74.1418 15.0522 1116 104.639 211.458 466.31
321 0 77.233 14.6958 1135 104.638 211.236 465.98
322 0 80.1832 14.3796 1153 104.537 211.613 464.218
323 0 84.1358 14.0012 1178 105.135 212.316 464.111
324 1 48.064 11.235 540 100.45 213.491 482.4
325 0 46.1537 11.0284 509 104.363 214.312 480.823
326 0 50.0733 11.1636 559 102.714 214.331 480.565
327 0 50.1255 11.93 598 103.503 214.169 479.426
328 0 52.0458 13.8148 719 101.3 214.93 482.353
329 0 56.1243 13.3454 749 99.7223 214.801 480.905
330 0 55.0602 15.0018 826 99.2058 215.443 479.038
331 0 57.1096 13.728 784 102.079 214.983 477.963
332 0 60.0699 14.2334 855 100.476 214.798 478.605
333 0 62.1955 13.4737 838 101.278 215.276 478.087
334 0 63.2142 13.7153 867 101.903 214.668 477.12
335 0 63.2103 13.1466 831 104.177 213.988 477.078
336 0 67.1314 16.4751 1106 97.9656 212.601 474.094
337 0 69.1119 13.3552 923 105.094 212.516 475.618
338 0 73.1709 14.6096 1069 103.08 211.686 473.51
339 0 74.1591 15.2105 1128 103.73 211.947 470.332
340 0 77.2798 14.3246 1107 106.251 211.261 470.707
341 0 79.2218 15.0716 1194 105.214 211.833 468.409
342 0 83.4196 14.493 1209 106.476 211.668 466.908
343 0 87.3459 16.3602 1429 103.122 211.633 464.409
344 0 90.4487 15.3457 1388 105.488 209.885 461.749
345 0 94.3417 14.9245 1408 105.793 209.825 461.913
346 0 97.3944 17.1673 1672 102.391 210.198 459.677
347 1 47.4013 10.8014 512 105.781 209.646 482.475
348 0 51.272 12.619 647 102.124 210.308 480.53
349 0 52.352 12.6834 664 102.523 209.94 479.785
350 0 56.1782 12.5138 703 100.889 209.168 480.686
351 0 55.1838 12.3043 679 103.065 209.184 478.47
352 0 57.1359 12.339 705 104.15 210.474 476.84
353 0 59.161 12.8294 759 103.507 210.747 475.813
354 0 61.2396 12.8838 789 103.155 212.169 475.913
355 0 64.1338 12.7078 815 104.052 212.908 473.636
356 0 66.2608 14.3976 954 100.248 213.604 473.549
357 0 67.2624 13.2912 894 103.815 214.023 472.258
358 0 68.3056 14.3619 981 102.309 214.154 472.261
359 0 71.402 14.2153 1015 102.666 213.464 472.09
360 0 72.3743 13.4302 972 105.623 214.923 471.324
361 0 76.3992 14.3064 1093 103.801 215.554 470.8
362 0 79.3771 14.9539 1187 103.075 215.127 469.056
363 0 81.2918 15.6719 1274 102.756 216.637 467.72
364 1 45.211 12.0546 545 100.479 217.11 486.976
365 0 48.3697 12.2184 591 100.012 217.132 486.76
366 0 47.2438 12.5096 591 102.1 216.717 483.912
367 0 49.1002 12.3014 604 101.743 215.725 486.579
368 0 51.066 11.4558 585 104.426 215.856 484.993
369 0 51.0657 11.5537 590 104.383 215.995 484.708
370 0 52.3402 11.7883 617 102.562 214.16 484.575
371 0 54.2027 13.1912 715 100.636 213.415 482.681
372 0 57.2366 12.7715 731 100.644 212.503 482.111
373 0 59.2366 13.5727 804 97.5784 212.206 481.022
374 0 61.2066 12.7927 783 100.088 211.511 478.944
375 0 64.1609 12.8895 827 99.5986 210.793 478.648
376 0 65.3653 13.371 874 98.1831 210.662 475.593
377 0 68.2417 13.672 933 97.8971 210.071 473.13
378 0 70.3386 13.9468 981 99.1019 210.223 470.863
379 0 73.2466 12.847 941 100.459 210.46 471.011
380 1 36.3499 10.1788 370 102.549 211.438 487.095
381 0 38.0536 10.3013 392 102.375 211.13 487.658
382 0 40.1351 10.4896 421 101.663 210.34 486.036
383 0 41.069 10.7624 442 102.83 210.715 484.916
384 0 44.114 12.3317 544 100.454 211.544 483.971
385 0 43.1941 11.5756 500 102.836 211.726 484.368
386 0 47.1105 12.5025 589 99.9932 213.229 483.506
387 0 47.2649 13.4561 636 99.4638 213.253 481.613
388 0 48.2054 12.3638 596 101.836 214.673 483.928
389 0 50.3674 11.3367 571 103.97 214.986 483.51
390 0 52.2059 12.6231 659 103.055 215.349 482.196
391 0 55.2573 13.5186 747 100.149 216.282 480.968
392 0 58.2131 14.1892 826 98.9673 216.109 480.594
393 0 57.1787 13.8863 794 101.66 216.771 478.532
394 0 59.2478 13.3845 793 102.493 216.359 479.369
395 0 62.2011 13.6332 848 101.388 215.637 479.626
396 0 63.156 14.8521 938 100.431 215.755 478.359
397 0 66.1845 14.1423 936 101.618 214.999 478.301
398 0 68.156 14.1734 966 102.115 213.853 478.401
399 0 71.1389 13.7196 976 102.924 213.723 475.98
400 0 74.1077 15.383 1140 100.943 213.598 473.73
401 0 76.1027 14.4542 1100 103.237 213.324 473.086
402 0 80.1613 14.4334 1157 103.82 212.706 471.037
403 1 41.0628 10.5205 432 106.727 213.009 490.174
404 0 42.0348 12.2042 513 103.834 212.501 489.199
405 0 45.0376 13.4332 605 103.134 210.8 487.041
406 0 46.0742 12.762 588 106.034 210.658 485.624
407 0 47.0332 12.7782 601 107.256 209.993 485.075
408 0 50.044 13.2284 662 106.32 210.677 482.435
409 0 51.1612 13.5259 692 105.195 210.76 481.431
410 0 52.0903 13.3038 693 109.216 210.166 479.527
411 0 53.1452 13.3784 711 108.44 211.336 478.408
412 0 54.1067 13.0853 708 111.227 211.182 476.177
413 0 57.0737 14.6127 834 107.424 212.194 476.072
414 0 58.081 14.1526 822 108.86 213.023 474.659
415 0 61.0669 14.1975 867 108.78 213.61 473.915
416 0 62.1262 14.9373 928 106.894 213.004 473.081
417 0 64.1311 14.5795 935 108.141 213.178 471.496
418 0 67.1743 15.9734 1073 102.634 213.753 473.408
419 0 69.0942 15.1966 1050 105.935 215.172 470.597
420 0 73.2412 15.1964 1113 106.737 215.679 470.858
421 0 73.2485 15.8365 1160 106.95 215.783 470.883
422 0 78.3317 15.9322 1248 106.381 217.087 469.091
423 0 80.2162 15.9195 1277 107.262 217.063 468.094
424 0 84.3193 15.9987 1349 106.772 216.886 468.148
425 0 87.415 16.8621 1474 103.677 216.996 470.338
426 0 89.2823 15.6022 1393 108.916 216.823 466.286
427 0 92.2056 15.9101 1467 108.184 216.2 465.35
428 1 50.1222 13.7664 690 107.929 215.057 485.758
429 0 49.2423 11.6363 573 111.024 214.799 486.73
430 0 54.1942 13.0272 706 109.516 213.819 484.584
431 0 56.2392 13.6915 770 108.199 213.118 484.287
432 0 59.1776 14.5832 863 106.764 212.089 481.997
433 0 59.2016 15.253 903 108.237 211.451 479.576
434 0 63.0927 16.1191 1017 104.807 211.906 479.158
435 0 64.1125 15.1453 971 107.556 211.336 477.971
436 0 68.2262 14.4666 987 107.513 210.966 477.158
437 0 67.1123 13.6637 917 110.697 209.814 474.246
438 0 67.1123 13.7531 923 158.361 208.852 474.365
439 0 74.079 15.4025 1141 107.918 210.131 469.978
440 0 77.1671 15.1878 1172 107.562 209.773 469.088
441 0 80.2673 16.0962 1292 107.2 210.23 465.651
442 0 82.3009 15.7714 1298 108.054 210.361 463.689
443 1 43.1959 11.5752 500 111.518 210.624 481.776
444 0 43.1582 12.6279 545 109.444 210.875 481.633
445 0 45.2192 11.2784 510 111.053 212.625 480.408
446 0 47.1235 12.3293 581 108.583 212.959 479.208
447 0 50.1883 12.5129 628 107.4 214.541 480.732
448 0 49.0562 12.8016 628 108.822 215.256 479.406
449 0 52.1223 12.9503 675 107.329 216.729 478.833
450 0 53.141 13.3983 712 105.937 216.956 479.305
451 0 57.152 14.8376 848 102.452 217.941 479.328
452 0 57.1291 14.0209 801 105.498 218.367 479.125
453 0 60.1718 14.1927 854 104.898 218.173 478.566
454 0 63.1731 14.025 886 104.643 218.034 478.786
455 0 63.1293 14.1931 896 106.05 216.708 476.065
456 0 65.3408 13.1465 859 107.595 216.383 477.002
457 0 70.1991 14.2594 1001 105.804 215.605 474.42
458 0 75.1541 14.2241 1069 104.875 215.021 475.806
459 0 76.168 14.2842 1088 104.973 214.819 474.268
460 0 78.2857 14.3577 1124 106.53 214.134 469.303
461 0 83.224 14.4069 1199 104.736 213.649 471.048
462 1 44.0675 10.6882 471 107.652 213.546 486.813
463 0 48.0306 11.0138 529 103.711 212.641 487.873
464 0 47.1253 10.0158 472 106.833 211.881 485.163
465 0 49.1479 12.4115 610 103.051 211.392 483.997
466 0 52.0916 11.2686 587 105.388 211.109 482.514
467 0 53.1363 13.3619 710 102.877 210.33 478.975
468 0 56.1128 13.7758 773 100.127 210.03 478.95
469 0 55.5078 12.6108 700 104.611 209.703 477.361
470 0 58.1552 12.673 737 104.953 209.475 475.982
471 0 60.2409 14.2096 856 101.621 209.567 475.076
472 0 62.1217 13.6828 850 102.386 209.888 472.474
473 0 64.1974 13.6921 879 102.495 210.225 469.687
474 0 67.2439 14.1277 950 101.658 210.597 470.438
475 0 68.1729 14.6246 997 101.624 212.191 468.618
476 0 69.1358 13.2927 919 104.812 213.128 467.162
477 0 73.3512 14.7919 1085 98.2719 214.347 466.832
478 0 75.2348 13.0923 985 101.777 215.15 466.63
479 0 80.2515 14.953 1200 98.8517 215.581 467.208
480 0 83.1939 15.2655 1270 98.5449 216.287 466.496
481 0 88.1409 15.1008 1331 99.9301 217.276 462.892
482 1 47.035 11.4808 540 97.4611 218.059 486.026
483 0 49.0943 9.65488 474 102.314 217.323 485.745
484 0 50.1697 10.4645 525 100.257 216.975 486.604
485 0 53.032 11.7665 624 97.4904 216.522 486.439
486 0 55.132 12.0075 662 98.2115 215.367 484.589
487 0 58.0993 13.6318 792 95.8106 214.984 482.864
488 0 58.0614 12.3662 718 99.4763 216.323 484.241
489 0 62.0954 13.8013 857 96.9568 214.767 481.714
490 0 64.0822 14.3098 917 95.0185 213.598 482.146
491 0 67.2649 13.6029 915 96.4896 211.968 480.122
492 0 69.1705 12.1005 837 100.403 211.21 476.933
493 0 71.2372 13.3217 949 97.4689 210.071 475.974
494 0 76.3456 14.8273 1132 94.9726 210.511 473.959
495 0 76.1937 13.0457 994 99.5684 209.329 470.705
496 1 40.2712 10.4045 419 99.1074 208.205 488.673
497 0 43.1617 10.0784 435 96.7126 208.191 489.83
498 0 43.2383 12.0264 520 96.2404 208.46 486.473
499 0 44.0672 11.6186 512 97.9492 207.734 484.592
500 0 46.1788 11.4122 527 99.2922 207.52 484.484
501 0 47.2242 13.4677 636 95.4261 208.605 482.805
502 0 48.1928 13.778 664 95.6431 208.319 479.952
503 0 50.2883 12.7863 643 96.7434 209.63 481.872
504 0 51.2371 11.0662 567 101.307 210.277 478.929
505 0 51.2278 11.4781 588 101.56 211.893 479.269
506 0 52.2376 11.6966 611 144.754 212.856 479.538
507 0 56.2476 12.0183 676 99.568 214.114 478.728
508 0 57.234 13.0517 747 98.66 216.892 479.659
509 0 58.2202 12.5386 730 99.6822 218.922 479.145
510 0 61.3517 12.0453 739 100.675 219.663 479.371
511 0 63.339 12.2515 776 101.332 220.45 479.442
512 0 66.197 13.913 921 100.478 220.18 478.892
513 0 69.2029 13.2509 917 102.135 219.087 478.361
514 0 71.1779 13.3047 947 103.467 218.62 476.162
515 0 73.3578 12.4731 915 106.156 217.648 477.025
516 0 76.2124 12.99 990 108.765 216.5 476.784
517 0 80.4512 14.4187 1160 104.547 215.073 473.651
518 0 85.3167 14.4755 1235 103.274 214.591 473.773
519 1 45.0763 10.6708 481 104.428 213.971 492.69
520 0 47.1098 12.0782 569 102.596 212.599 492.158
521 0 48.0866 12.9974 625 101.147 211.472 489.117
522 0 50.1001 12.6746 635 101.231 210.792 489.942
523 0 50.2796 13.3454 671 100.285 209.458 486.818
524 0 54.2186 13.3533 724 100.541 208.369 486.28
525 0 55.3573 14.5058 803 101.325 207.116 483.903
526 0 57.234 15.5327 889 99.1046 206.021 481.714
527 0 60.2516 14.2735 860 101.46 205.437 480.821
528 0 61.4222 15.0272 923 101.897 204.684 479.207
529 0 63.1351 14.1601 894 104.453 204.57 478.388
530 0 64.2177 13.1116 842 107.462 205.262 477.584
531 0 65.217 13.3861 873 108.419 204.987 476.795
532 0 69.1635 14.9356 1033 105.06 205.807 475.009
533 0 70.1765 13.5515 951 109.342 206.136 474.573
534 0 74.1822 15.4215 1144 105.483 208.533 473.58
535 0 74.1706 14.1566 1050 110.114 210.034 473.446
536 0 78.2483 15.7831 1235 106.259 211.962 474.64
537 0 81.205 13.9893 1136 112.511 214.365 473.413
538 0 84.1931 14.835 1249 111.554 215.896 472.873
539 0 88.1585 15.3587 1354 111.524 216.349 471.968
540 1 45.0268 11.6597 525 110.267 216.947 496.352
541 0 46.0815 11.4146 526 111.842 215.745 496.884
542 0 48.1293 12.9235 622 110.682 214.977 494.907
543 0 49.1184 12.5208 615 112.899 213.722 494.603
544 0 53.1347 13.8892 738 110.033 212.486 493.638
545 0 53.388 12.6246 674 113.442 211.181 493.191
546 0 57.2098 14.1934 812 110.209 209.291 489.163
547 0 59.233 14.654 868 109.04 207.641 489.142
548 0 61.2174 13.983 856 110.95 207.011 486.801
549 0 63.3079 14.3268 907 110.327 205.765 484.68
550 0 65.4539 13.9335 912 110.688 204.726 482.727
551 0 67.4425 15.4057 1039 108.591 203.673 480.335
552 0 69.3791 15.2495 1058 108.454 203.424 479.41
553 0 73.3851 14.9349 1096 109.1 202.467 474.937
554 0 77.4023 15.8652 1228 107.036 201.563 473.333
555 0 78.339 14.7819 1158 110.11 201.832 471.166
556 0 78.4822 13.3406 1047 113.895 202.036 468.728
557 0 83.2796 15.1538 1262 109.684 202.605 464.266
558 0 86.1966 15.453 1332 109.244 201.81 464.49
559 1 43.2314 11.6351 503 110.632 202.692 481.372
560 0 45.4662 12.7347 579 110.604 203.893 479.313
561 0 47.2847 12.2661 580 110.205 204.197 478.398
562 0 49.3313 13.0343 643 107.692 207.082 478.661
563 0 52.223 12.7913 668 109.115 209.811 477.617
564 0 53.151 14.4118 766 106.881 211.807 477.73
565 0 52.1197 12.8934 672 110.429 213.923 479.138
566 0 56.2061 12.9879 730 107.314 215.581 480.248
567 0 58.1914 13.9883 814 106.098 216.441 477.731
568 0 60.3463 14.4168 870 104.859 216.298 479.46
569 0 64.3484 15.0276 967 102.798 216.307 478.037
570 0 66.2745 15.2547 1011 102.757 215.984 478.352
571 0 68.3782 15.6483 1070 102.233 214.849 476.724
572 0 71.4199 13.1756 941 108.029 213.661 476.369
573 0 75.5051 14.7672 1115 103.813 212.261 476.476
574 0 77.46 13.5167 1047 107.462 211.004 473.213
575 0 82.3028 14.7869 1217 104.873 210.509 474.121
576 0 85.2534 15.8 1347 102.874 210.027 473.83
577 1 46.1023 11.4311 527 102.693 208.651 493.002
578 0 48.1536 11.2972 544 103.574 207.342 490.487
579 0 46.0902 11.152 514 103.426 206.558 491.628
580 0 49.0433 12.6011 618 99.9272 205.816 490.162
581 0 52.0253 13.0129 677 97.9069 206.244 488.476
582 0 54.0347 12.7511 689 99.5907 205.454 485.453
583 0 56.1303 14.4663 812 97.3337 204.756 484.966
584 0 57.1414 13.0903 748 101.283 204.517 482.249
585 0 60.0529 14.2041 853 98.6647 203.782 480.569
586 0 63.0979 13.9307 879 98.8874 204.116 479.429
587 0 65.3527 16.3421 1068 94.2172 204.179 476.981
588 0 66.147 14.498 959 98.1981 204.325 474.634
589 0 67.1482 12.7777 858 100.859 204.759 474.219
590 0 71.2283 13.2672 945 99.4296 205.711 472.967
591 0 72.3392 13.7961 998 99.5301 206.616 472.569
592 1 39.279 12.0421 473 95.0042 209.672 490.368
593 0 39.289 10.2319 402 100.055 211.965 489.858
594 0 39.1556 10.9307 428 99.7991 211.547 491.252
595 0 44.2319 11.3041 500 98.852 213.666 490.104
596 0 46.1913 11.8637 548 98.4617 214.648 490.14
597 0 47.1421 12.3669 583 98.1458 215.866 490.091
598 0 49.2755 12.9882 640 97.1625 216.233 490.522
599 0 50.1374 12.8447 644 97.7531 215.714 491.905
600 0 53.1993 13.5904 723 96.1646 215.427 492.423
601 0 55.1292 13.296 733 98.8158 213.883 492.117
602 0 57.2131 14.8043 847 96.1688 213.319 492.362
603 0 62.1603 14.0604 874 97.0069 211.791 492.689
604 0 65.0946 13.9182 906 96.1004 209.167 491.483
605 0 68.2005 15.8357 1080 92.4083 206.762 490.553
606 0 71.1838 14.9332 1063 95.4628 205.21 488.686
607 0 75.1928 15.3339 1153 94.6557 203.68 488.27
608 0 78.1262 15.5134 1212 95.6295 202.165 486.878
609 1 39.0777 11.8226 462 98.2576 201.216 504.814
610 0 41.088 11.4145 469 97.6162 201.311 506.021
611 0 41.0882 10.9764 451 100.166 201.528 504.834
612 0 44.1233 12.9184 570 94.9246 201.281 504.205
613 0 44.2613 12.6069 558 98.5574 200.518 500.726
614 0 47.2604 12.2724 580 99.6017 200.222 499.883
615 0 47.1862 13.3513 630 98.8365 199.465 495.673
616 0 50.1169 13.7678 690 97.5768 198.746 494.259
617 0 52.27 14.1573 740 97.5676 198.703 493.804
618 0 53.1906 13.4798 717 99.2204 198.671 493.02
619 0 54.2684 15.2391 827 97.8827 199.225 490.85
620 0 56.2446 12.7834 719 100.969 200.577 490.312
621 0 58.1213 14.4869 842 99.9026 202.039 491.133
622 0 59.1931 13.9881 828 101.597 203.26 488.076
623 0 63.2051 14.0653 889 101.285 205.325 486.828
624 0 66.2203 13.9081 921 100.844 207.35 488.365
625 0 69.138 14.6229 1011 98.9664 207.825 488.257
626 0 70.1273 14.0887 988 101.639 207.795 486.965
627 0 74.2324 14.98 1112 99.0396 207.878 486.54
628 0 75.4469 12.8435 969 104.856 207.571 485.754
629 0 79.4013 14.4708 1149 102.629 207.976 483.841
630 0 82.4712 14.4899 1195 101.54 206.173 486.831
631 1 46.2325 11.6152 537 99.6015 206.006 507.4
632 0 47.5251 11.4045 542 100.707 204.661 506.004
633 0 49.2621 12.9308 637 97.843 203.093 507.367
634 0 52.1847 13.6247 711 97.5021 201.632 505.277
635 0 55.2737 15.1247 836 94.8947 200.876 502.953
636 0 56.0752 13.7494 771 97.2335 198.953 502.346
637 0 57.3046 13.6638 783 98.6296 198.083 500.478
638 0 60.1988 15.6149 940 95.85 197.203 498.203
639 0 62.1675 14.6057 908 98.706 196.309 496.768
640 0 65.4983 15.3744 1007 97.0308 196.096 493.843
641 0 68.4689 15.4815 1060 97.4679 195.571 490.535
642 0 71.2688 14.8452 1058 98.3336 194.752 488.933
643 0 72.4531 13.9263 1009 101.098 195.041 485.64
644 0 75.6318 15.5093 1173 99.9335 195.001 484.919
645 0 78.6765 15.3286 1206 101.305 196.208 483.522
646 1 39.6095 11.6891 463 105.864 197.665 499.898
647 0 40.331 10.9841 443 106.806 199.027 500.018
648 0 39.3924 10.4335 411 107.672 200.221 500.443
649 0 43.4179 12.8288 557 102.74 201.135 498.203
650 0 43.7278 11.7545 514 104.411 202.833 499.362
651 0 46.6165 13.6003 634 103.027 204.14 496.904
652 0 49.6444 15.2082 755 98.4344 205.391 498.025
653 0 48.4885 13.6115 660 103.867 206.512 497.842
654 0 51.2602 15.353 787 100.13 206.906 498.597
655 0 55.2423 14.8618 821 100.015 207.035 499.931
656 0 53.1102 15.4584 821 101.847 208.342 496.471
657 0 56.1384 15.6755 880 101.048 206.898 498.308
658 0 60.1484 15.5116 933 101.466 206.674 497.537
659 0 61.2598 16.6014 1017 100.326 205.933 496.572
660 0 62.2612 15.6438 974 103.624 205.46 497.009
661 0 67.4647 16.3789 1105 101.706 204.824 495.51
662 0 68.2499 16.718 1141 103.689 203.741 494.088
663 0 72.2787 16.5886 1199 103.674 203.816 493.063
664 0 73.4187 15.7725 1158 104.621 202.91 491.119
665 0 74.4148 17.1203 1274 103.208 202.085 489.699
666 0 78.3203 17.8242 1396 101.445 201.162 484.842
667 1 40.313 11.4107 460 112.087 201.109 502.685
668 0 39.2902 12.6749 498 110.46 200.996 501.02
669 0 40.0769 12.7006 509 108.371 200.737 499.554
670 0 44.2261 14.5841 645 105.719 200.119 495.885
671 0 47.1342 13.6843 645 107.119 200.212 495.119
672 0 48.1127 14.6115 703 106.502 200.471 492.302
673 0 49.2508 14.1927 699 108.05 199.213 491.295
674 0 51.261 15.782 809 106.206 199.854 488.587
675 0 52.336 16.9482 887 104.335 201.692 488.241
676 0 53.1778 15.3824 818 107.587 202.285 487.641
677 0 55.1357 16.1601 891 106.04 203.229 486.952
678 0 56.1791 15.5752 875 108.819 204.701 484.469
679 0 57.2296 15.9708 914 107.736 206.578 485.204
680 0 62.1053 15.0712 936 108.637 209.644 486.002
681 0 62.3402 15.7042 979 108.961 211.218 483.855
682 0 65.3141 16.5049 1078 108.537 212.725 484.251
683 0 70.2098 15.9807 1122 108.584 214.02 483.574
684 0 71.2387 16.1008 1147 110.06 214.256 482.19
685 0 73.1254 15.9862 1169 110.837 214.761 482.79
686 0 77.1645 16.3676 1263 111.252 214.275 482.302
687 0 81.3914 15.4193 1255 113.633 212.902 481.612
688 1 41.2202 12.688 523 116.086 210.841 501.333
689 0 45.2948 13.1583 596 113.859 209.923 501.022
690 0 47.2607 15.0865 713 111.825 208.836 497.596
691 0 49.1608 13.8118 679 115.601 207.533 496.451
692 0 52.2624 15.3648 803 111.927 206.157 493.941
693 0 53.2671 15.5443 828 113.517 205.68 490.82
694 0 57.2583 15.0197 860 113.762 204.897 488.327
695 0 60.2448 15.7358 948 112.488 204.526 484.889
696 0 63.2014 16.7718 1060 110.225 203.246 483.346
697 0 66.2331 16.8345 1115 110.574 202.149 479.029
698 0 66.2633 16.3288 1082 113.4 202.945 477.579
699 0 69.2424 15.4241 1068 115.266 202.573 475.535
700 0 73.4427 16.5844 1218 112.797 202.273 473.644
701 0 77.2748 17.7678 1373 109.393 202.798 471.16
702 0 80.1715 16.8763 1353 111.329 203.508 468.425
703 1 39.093 13.2249 517 114.251 204.752 487.058
704 0 43.2362 13.5072 584 112.231 205.478 485.735
705 0 40.2709 13.1112 528 116.002 206.67 486.125
706 0 46.2706 14.2207 658 112.226 207.816 484.921
707 0 47.3279 14.6425 693 111.983 210.117 483.841
708 0 50.2779 16.5878 834 106.583 212.516 484.257
709 0 52.2786 16.7564 876 106.983 214.639 484.083
710 0 54.2814 16.5066 896 108.608 215.992 482.749
711 0 55.4678 16.0634 891 108.837 216.257 483.251
712 0 57.3435 15.4682 887 110.86 217.62 482.76
713 0 59.5734 15.4431 920 111.3 217.018 482.754
714 0 62.339 16.5546 1032 108.729 217.928 483.64
715 0 65.2518 15.831 1033 112.147 218.209 482.918
716 0 69.213 17.1066 1184 111.01 217.779 481.993
717 0 71.2726 17.5944 1254 110.913 216.75 478.886
718 0 75.2109 15.543 1169 116.796 215.34 479.801
719 0 79.2905 17.0512 1352 112.678 214.166 479.604
720 0 83.2841 16.0295 1335 116.515 212.909 474.888
721 1 44.3189 11.5301 511 119.847 210.802 493.802
722 0 46.2833 12.942 599 118.83 208.975 491.426
723 0 47.1849 12.8855 608 118.112 207.393 491.176
724 0 49.1369 15.1821 746 115.682 206.454 488.193
725 0 51.0552 13.8282 706 119.275 205.275 486.401
726 0 53.1418 13.3981 712 120.115 204.848 485.485
727 0 52.2813 13.1404 687 120.237 204.349 484.64
728 0 58.2313 15.0606 877 114.571 204.424 481.531
729 0 60.2666 15.1328 912 115.727 204.886 477.521
730 0 64.214 16.6786 1071 112.002 203.968 477.083
731 0 66.3238 16.0727 1066 113.583 204.154 474.839
732 0 66.3747 16.2411 1078 115.606 204.565 472.764
733 0 71.5059 15.0897 1079 115.791 205.564 474.313
734 0 74.4727 16.1804 1205 114.042 207.116 473.884
735 0 75.4353 16.133 1217 115.166 209.279 472.519
736 1 40.23 11.7077 471 113.686 212.276 491.909
737 0 43.0969 12.2515 528 111.358 214.331 491.983
738 0 44.0823 12.0003 529 111.123 215.631 493.095
739 0 45.2953 13.4893 611 107.378 217.131 492.826
740 0 48.1952 12.8021 617 108.473 218.147 493.19
741 0 48.1336 12.6523 609 110.847 218.338 492.417
742 0 53.2159 12.4587 663 109.25 216.911 494.905
743 0 58.1386 14.1902 825 106.309 215.812 494.194
744 0 61.2354 12.8194 785 110.089 213.414 492.124
745 1 34.1231 11.3706 388 104.049 211.686 509.023
746 0 35.1773 12.4796 439 103.039 209.642 506.902
747 0 37.2559 11.7565 438 104.947 208.4 506.139
748 0 38.2647 12.4658 477 104.478 206.256 504.604
749 0 39.2525 11.719 460 107.291 203.752 502.972
750 0 40.1552 12.1529 488 109.559 202.684 501.9
751 0 41.0842 13.4845 554 106.303 202.058 501.125
752 0 42.1061 12.1597 512 110.84 202.43 498.037
753 0 44.2042 11.9446 528 111.375 201.494 495.712
754 0 45.4576 12.3852 563 108.675 202.078 496.332
755 0 45.2453 12.3549 559 110.894 200.513 492.685
756 0 48.0995 11.9752 576 110.802 201.01 493.064
757 0 48.2137 11.6357 561 111.324 201.474 490.72
758 0 51.1787 12.427 636 109.132 201.248 488.325
759 0 53.2882 12.6482 674 109.328 201.892 486.134
760 0 54.2037 11.5675 627 110.34 202.987 485.801
761 0 55.1358 12.2788 677 109.207 203.826 484.473
762 0 58.1244 12.2496 712 111.125 205.441 483.535
763 0 61.2453 13.8786 850 108.408 207.934 481.554
764 0 62.084 12.6442 785 111.127 209.12 482.326
765 0 65.1815 14.0224 914 109.208 210.733 481.165
766 1 34.0954 8.09494 276 110.87 213.308 500.304
767 0 37.0947 11.7537 436 106.55 214.014 497.461
768 0 39.2046 12.7791 501 104.928 214.886 497.461
769 0 41.2214 11.5474 476 108.055 214.118 497.292
770 0 42.275 12.1112 512 109.25 213.967 496.42
771 0 45.1837 11.6192 525 109.23 213.488 497.581
772 0 46.1649 13.6467 630 106.716 212.854 498.225
773 0 47.1904 13.0535 616 108.393 211.278 498.164
774 0 50.2735 13.5658 682 105.264 210.151 497.365
775 0 52.2588 13.4714 704 97.3466 209.151 497.66
776 0 54.0296 12.9003 697 101.019 209.311 494.44
777 0 55.042 13.9348 767 99.5802 206.748 492.755
778 0 57.0196 11.382 649 104.888 205.279 490.475
779 0 59.0283 14.1627 836 99.5096 204.432 487.551
780 0 62.0222 13.8821 861 99.8966 203.165 485.794
781 0 65.0756 13.4305 874 98.5767 202.793 484.93
782 0 68.0654 13.8543 943 98.1177 202.599 480.959
783 1 35.0088 10.8259 379 99.5409 202.826 497.369
784 0 36.0662 10.3698 374 100.444 203.011 496.123
785 0 38.113 11.3347 432 99.0972 203.866 492.678
786 0 40.0106 11.272 451 97.5033 203.951 495.251
787 0 42.1121 10.8995 459 98.0174 204.972 493.848
788 0 43.0224 12.7608 549 96.4026 206.137 491.869
789 0 45.0845 13.6632 616 95.6899 207.729 492.136
790 0 46.1608 13.6696 631 95.7639 208.151 491.702
791 0 47.1095 13.267 625 97.7904 209.64 491.117
792 0 50.0765 14.5178 727 95.7689 211.684 490.608
793 0 53.1505 15.4843 823 93.2017 212.887 493.006
794 0 52.0314 13.7225 714 99.5742 212.889 494.609
795 0 54.1112 13.768 745 101.115 213.179 492.286
796 0 55.0781 13.4355 740 104.42 213.585 493.197
797 0 59.1107 14.4644 855 101.211 212.871 494.174
798 0 62.1742 15.7139 977 100.411 211.209 493.506
799 0 64.016 15.9335 1020 101.396 210.353 494.045
800 0 66.1136 14.1877 938 106.842 208.613 494.515
801 0 69.1464 16.4578 1138 101.409 206.757 492.337
802 0 74.1939 15.8369 1175 102.304 205.11 490.376
803 0 77.1574 16.2525 1254 103.495 203.4 488.262
804 0 76.2632 14.5155 1107 109.972 201.481 487.425
805 1 41.0553 13.0799 537 111.27 200.493 502.773
806 0 41.1267 11.8415 487 112.85 199.259 501.782
807 0 44.05 12.4631 549 112.02 198.572 498.699
808 0 45.0553 12.9396 583 115.298 198.467 496.669
809 0 49.0394 15.8444 777 107.776 198.797 493.664
810 0 50.0794 15.8947 796 107.897 199.098 491.319
811 0 49.1154 15.0258 738 110.992 199.763 489.129
812 0 52.1045 14.4517 753 112.992 199.734 488.169
813 0 54.1194 14.3941 779 110.621 200.316 487.027
814 0 56.1375 16.709 938 104.639 201.3 485.091
815 0 56.2616 16.5833 933 105.301 202.632 485.26
816 0 58.1792 15.0741 877 107.341 203.556 484.7
817 0 60.0758 15.7468 946 107.467 204.858 481.984
818 0 61.2849 14.6529 898 108.843 206.646 483.243
819 0 64.2225 15.8979 1021 106.154 208.728 480.74
820 0 68.2439 16.7927 1146 103.99 209.946 480.496
821 0 70.2246 16.2621 1142 105.3 211.613 481.847
822 0 71.2171 15.0947 1075 110.147 212.554 478.376
823 0 77.2893 18.075 1397 103.168 211.703 477.847
824 0 79.364 15.3218 1216 108.526 212.354 478.71
825 1 43.1068 10.3464 446 109.592 211.901 498.856
826 0 45.2266 11.1881 506 111.042 211.431 496.583
827 0 46.1417 11.573 534 110.206 209.8 495.949
828 0 48.1821 11.6848 563 111.174 208.068 494.567
829 0 50.1703 12.9758 651 108.736 207.995 492.124
830 0 54.083 14.1819 767 104.997 206.714 491.516
831 0 58.1261 16.2406 944 98.7352 205.582 489.714
832 0 60.216 15.1289 911 100.694 204.42 487.138
833 0 61.2833 13.6579 837 103.734 203.824 484.461
834 0 63.2188 14.1255 893 101.722 202.858 484.148
835 0 65.208 14.6148 953 101.532 202.512 478.849
836 0 68.2712 14.9697 1022 98.7544 202.096 479.167
837 0 72.584 16.3948 1190 94.3445 203.092 477.118
838 0 74.3824 14.8153 1102 96.8058 203.23 474.158
839 0 78.1931 16.4465 1286 93.4238 203.341 473.684
840 0 81.2064 15.9347 1294 93.9513 203.895 473.489
841 0 82.4627 15.8132 1304 95.1488 204.23 471.487
842 0 86.1395 15.4052 1327 97.997 205.201 468.295
843 0 88.4697 15.4629 1368 96.9788 207.01 467.202
844 0 93.4851 16.3769 1531 94.8681 208.944 466.701
845 0 97.488 16.2071 1580 95.1905 210.297 466.061
846 0 99.333 15.3524 1525 96.438 211.906 465.394
847 0 105.435 15.602 1645 95.6164 214.466 465.441
848 1 61.3006 12.0717 740 95.277 214.589 487.584
849 0 63.2018 11.1231 703 97.5064 215.028 486.893
850 0 65.2355 11.7267 765 97.2745 214.614 486.571
851 0 70.434 13.0619 920 96.012 212.908 485.502
852 0 75.2848 15.6207 1176 91.0306 211.425 486.72
853 0 79.4029 13.7652 1093 93.9735 211.216 484.321
854 0 81.4806 12.862 1048 95.9876 209.32 481.51
855 1 41.157 7.94518 327 93.8104 208.22 506.012
856 0 46.2351 9.60309 444 92.295 205.716 501.146
857 0 48.235 10.5525 509 91.7014 204.314 498.587
858 0 50.3119 12.7008 639 87.8482 202.56 496.93
859 0 52.172 14.2605 744 86.1626 200.71 493.188
860 0 54.2577 13.9151 755 86.5046 201.217 494.626
861 0 56.2584 12.2115 687 89.6521 200.498 490.732
862 0 56.1218 12.1521 682 90.022 201.019 487.881
863 0 59.1485 13.6098 805 87.282 200.743 486.93
864 0 62.2032 14.6938 914 85.4858 200.523 482.965
865 0 65.1793 13.5166 881 87.899 200.616 481.589
866 0 66.194 13.3245 882 88.4025 200.83 481.35
867 0 69.1486 13.8398 957 85.5287 200.803 477.126
868 0 72.2172 12.4209 897 86.6388 199.951 477.038
869 0 75.137 13.3623 1004 85.5418 201.507 472.653
870 1 40.0196 6.87163 275 88.2545 204.491 492.92
871 0 40.1399 8.54511 343 86.7085 205.886 492.965
872 0 43.0476 11.615 500 83.886 207.716 491.006
873 0 47.1253 13.8991 655 81.7328 209.397 491.284
874 0 47.1559 11.4302 539 83.8349 210.128 492.013
875 0 46.3509 11.0893 514 84.5623 211.329 491.447
876 0 50.4178 12.4162 626 82.6709 212.08 492.605
877 0 50.2865 12.4487 626 83.9042 212.046 492.372
878 0 53.1934 11.2232 597 86.6817 211.017 491.518
879 0 57.1564 13.1744 753 84.1222 210.084 492.628
880 0 58.2556 12.8056 746 86.5255 208.52 489.626
881 0 61.2622 12.4547 763 86.9358 207.723 491.265
882 0 63.2145 12.8926 815 87.4798 207.452 489.101
883 0 68.1734 13.9937 954 85.4392 206.474 487.851
884 0 69.2553 13.0965 907 88.3947 204.406 486.589
885 0 72.2282 13.0558 943 88.3181 203.434 482.026
886 0 76.2398 14.9397 1139 83.7287 202.173 478.509
887 0 77.1795 13.9415 1076 86.5846 201.047 477.233
888 1 44.0388 10.8314 477 83.587 200.734 496.057
889 0 42.0551 11.5087 484 87.3409 200.236 491.599
890 0 46.0452 12.7483 587 85.6729 199.855 490.891
891 0 46.0764 12.3708 570 86.6825 198.968 488.644
892 0 48.1469 11.7765 567 87.5079 199.346 485.242
893 0 48.363 12.6336 611 85.1555 200.589 481.406
894 0 50.3114 13.0388 656 84.753 200.268 477.63
895 0 50.1798 12.515 628 86.0653 202.74 479.282
896 0 54.0762 13.9803 756 85.2526 203.024 479.266
897 0 55.1278 14.8745 820 86.1244 203.552 478.594
898 0 57.3256 14.217 815 86.4552 206.74 481.245
899 0 60.1975 13.9541 840 87.9226 207.774 480.95
900 0 60.1952 13.1406 791 90.5866 210.494 483.243
901 0 64.1368 15.8879 1019 86.8891 212.324 482.909
902 0 66.2891 13.3204 883 91.3352 213.621 482.713
903 0 69.2913 15.673 1086 87.7523 214.725 483.132
904 0 71.2464 14.5691 1038 91.7302 215.102 482.733
905 0 75.2067 14.8657 1118 92.3336 214.33 484.521
906 0 80.343 15.7574 1266 91.1098 213.788 482.208
907 0 81.257 14.8664 1208 94.1109 212.714 481.977
908 1 46.0436 11.4457 527 96.6641 211.514 500.909
909 0 48.2551 12.2889 593 91.8921 209.9 502.383
910 0 48.0777 10.6494 512 92.6074 207.953 502.15
911 0 53.048 12.4227 659 90.5979 205.046 499.137
912 0 54.2847 13.9082 755 90.3762 203.543 496.612
913 0 55.1252 12.2448 675 92.4 202.825 497.662
914 0 56.1514 13.8732 779 92.2118 202.033 493.48
915 0 59.1433 13.0192 770 91.6896 201.425 491.831
916 0 63.0425 13.9588 880 89.6057 199.734 491.331
917 0 62.0948 13.8337 859 92.6007 198.965 486.317
918 0 63.0749 13.1114 827 94.4196 198.786 486.634
919 0 66.2011 14.9846 992 92.1321 198.72 485.648
920 0 67.1826 12.7116 854 96.603 200.176 486.671
921 1 33.2511 10.9169 363 96.5868 199.309 499.127
922 0 37.0187 12.9934 481 92.4719 201.031 500.073
923 0 38.1364 13.1371 501 92.5429 201.333 500.18
924 0 38.0913 12.2338 466 96.6395 202.451 499.015
925 0 38.2323 12.0579 461 98.039 204.566 500.193
926 0 40.1053 12.9908 521 96.6737 206.374 500.202
927 0 41.1743 13.0421 537 98.4693 207.872 500.352
928 0 42.2472 12.0008 507 101.138 209.45 501.562
929 0 44.2364 13.9026 615 102.208 211.154 499.751
930 0 46.1947 12.7937 591 104.552 210.953 502.083
931 0 49.3184 13.9705 689 102.875 211.984 500.64
932 0 54.1457 15.6615 848 98.5071 211.347 498.433
933 0 56.1905 15.0381 845 99.1822 211.292 497.743
934 0 60.4499 16.2118 980 95.7939 209.34 494.64
935 1 33.1784 11.182 371 100.957 207.388 510.41
936 0 35.2344 10.7282 378 98.3889 205.701 509.484
937 0 38.2955 12.8736 493 95.643 204.32 506.759
938 0 37.1953 11.5875 431 100.348 202.608 506.26
939 0 41.1908 12.7941 527 99.3472 201.461 502.448
940 0 41.2078 12.5219 516 101.021 200.213 500.413
941 0 43.2046 12.7996 553 100.405 199.248 498.552
942 0 46.1821 14.6594 677 97.1285 197.895 495.638
943 0 48.213 14.6641 707 97.4767 197.447 493.45
944 0 47.3458 13.0318 617 101.888 197.823 491.705
945 0 51.2284 13.7424 704 99.3295 197.378 489.391
946 0 51.1868 13.9684 715 98.807 197.123 488.787
947 0 55.2634 14.639 809 97.6428 198.037 486.124
948 0 55.2163 14.4885 800 98.6025 199.831 484.639
949 0 59.174 14.5841 863 96.3488 200.644 483.506
950 0 61.3032 14.1102 865 96.3237 201.555 483.193
951 0 61.2884 13.3304 817 99.1371 202.114 481.105
952 0 64.1217 15.6109 1001 96.1888 203.531 479.87
953 0 67.2391 14.2774 960 98.9115 206.594 479.545
954 1 36.2004 11.243 407 99.4226 208.843 495.988
955 0 38.2489 10.7716 412 98.3447 210.784 497.459
956 0 40.1388 12.9301 519 97.0173 212.243 496.582
957 0 42.0618 12.9809 546 97.9707 213.266 496.998
958 0 45.12 13.3422 602 98.2774 214.289 496.005
959 0 46.1413 12.7218 587 101.496 213.813 497.358
960 0 48.2499 13.0778 631 101.534 213.468 498.414
961 0 51.2036 13.417 687 102.304 212.972 496.902
962 0 52.1983 14.1959 741 105.88 212.762 495.37
963 0 55.1565 15.6464 863 102.827 211.492 495.637
964 0 56.0841 14.2286 798 106.927 209.277 496.118
965 0 59.311 13.5894 806 108.423 207.643 493.252
966 0 65.1691 15.2219 992 102.757 205.721 492.181
967 0 66.2061 15.5424 1029 102.59 204.262 489.535
968 0 69.2601 16.3586 1133 100.986 202.967 486.249
969 1 38.3471 11.083 425 107.986 202.327 501.586
970 0 40.2372 12.5257 504 105.514 200.79 499.55
971 0 42.2045 12.2973 519 107.368 200.917 496.802
972 0 44.2414 13.6524 604 105.997 200.556 494.068
973 0 46.1844 13.5977 628 105.561 200.513 491.976
974 0 47.1276 13.9409 657 105.97 200.782 490.17
975 0 49.2005 15.8332 779 101.25 200.96 488.909
976 0 50.111 15.1663 760 102.889 203.391 489.567
977 0 52.0294 14.1458 736 103.519 204.148 487.534
978 0 53.1698 14.0869 749 104.57 205.92 483.188
979 0 54.1002 16.1922 876 101.715 206.011 485.331
980 0 56.1096 15.7905 886 103.867 208.103 484.094
981 0 58.283 14.7556 860 105.843 208.984 484.441
982 0 62.2867 15.7819 983 103.66 209.957 483.804
983 0 66.3322 14.8043 982 104.23 211.563 484.922
984 0 65.2355 14.0568 917 109.198 213.305 483.807
985 0 69.3412 15.4886 1074 106.501 215.166 484.458
986 0 75.4303 15.2856 1153 106.387 214.69 484.013
987 0 77.3077 15.0955 1167 109.069 213.781 483.803
988 0 81.4496 16.7957 1368 106.053 213.092 480.565
989 1 43.1052 11.1123 479 113.846 212.461 502.213
990 0 47.4164 12.696 602 110.927 211.294 499.045
991 0 49.2856 12.9855 640 108.855 209.297 499.248
992 0 54.4492 15.5007 844 102.098 207.934 495.972
993 0 54.3084 14.5097 788 104.418 205.742 493.509
994 0 56.3708 14.1918 800 105.21 205.376 494.669
995 0 59.1452 15.6226 924 103.68 204.403 490.336
996 0 61.3862 16.2903 1000 101.516 202.881 490.508
997 0 63.1349 14.8729 939 105.553 201.388 486.286
998 0 65.4184 14.3232 937 103.561 200.521 482.998
999 0 69.2199 15.328 1061 101.079 201.284 479.668
1000 0 70.4137 16.119 1135 100.498 201.57 472.386
1001 0 74.3087 14.3725 1068 102.909 202.108 475.315
1002 0 77.6717 16.0805 1249 98.9464 202.363 474.196
1003 1 40.4415 10.8057 437 103.002 204 491.957
1004 0 42.2873 11.5874 490 103.651 203.753 490.849
1005 0 45.1887 12.8572 581 101.22 204.941 490.256
1006 0 45.19 11.8168 534 101.929 206.489 491.21
1007 0 48.2301 13.7259 662 99.3006 207.219 488.696
1008 0 49.2716 13.9837 689 100.604 208.335 488.3
1009 0 51.1799 14.8887 762 98.9856 210.882 488.633
1010 0 53.1945 14.6256 778 100.609 213.494 489.594
1011 0 54.1591 14.8636 805 101.209 214.042 489.379
1012 0 56.2379 15.0966 849 100.691 214.987 490.259
1013 0 58.1403 15.583 906 101.152 215.688 490.592
1014 0 61.1248 15.5747 952 102.352 215.13 490.26
1015 0 64.1901 15.2204 977 102.73 213.618 490.148
1016 0 70.0515 15.303 1072 101.269 213.335 489.335
1017 0 72.1932 16.0126 1156 101.279 212.039 487.759
1018 0 76.1434 15.983 1217 100.846 210.002 488.449
1019 0 80.1328 15.4244 1236 102.457 208.089 485.334
1020 0 85.1072 15.5921 1327 102.301 205.945 482.384
1021 1 42.074 11.6462 490 106.504 205.312 501.792
1022 0 48.1146 11.5142 554 106.285 204.249 499.468
1023 0 50.0216 13.834 692 102.075 203.566 497.162
1024 0 49.136 13.5542 666 106.126 201.917 493.616
1025 0 53.0787 14.9024 791 101.406 201.496 490.465
1026 0 54.017 14.2733 771 104.54 202.183 489.641
1027 0 55.0604 14.5113 799 105.67 201.617 487.683
1028 0 59.0875 15.2824 903 103.147 201.57 486.527
1029 0 61.0974 15.1889 928 102.7 202.111 484.819
1030 0 61.0652 14.8366 906 104.413 202.727 484.255
1031 0 65.1464 14.7514 961 104.289 202.938 481.433
1032 0 66.0451 14.8383 980 103.878 203.267 480.194
1033 0 70.0692 14.7568 1034 103.633 203.782 478.274
1034 0 73.2079 16.4873 1207 100.415 204.312 477.366
1035 0 77.3342 15.4653 1196 102.474 206.583 477.827
1036 0 79.1776 14.8527 1176 103.36 208.97 477.976
1037 1 42.2532 12.5198 529 104.622 211.616 495.546
1038 0 44.1097 11.9701 528 105.39 212.919 496.547
1039 0 44.0754 11.9795 528 106.765 214.089 497.822
1040 0 46.188 12.9471 598 107.057 214.758 498.38
1041 0 50.0905 14.7733 740 104.93 214.377 496.755
1042 0 53.1759 15.571 828 101.908 213.442 497.293
1043 0 55.2316 16.5485 914 102.438 211.628 495.837
1044 0 56.2085 15.1578 852 106.536 210.748 495.958
1045 0 60.1182 15.7357 946 104.159 209.44 495.975
1046 0 62.0988 15.2821 949 106.095 207.784 494.313
1047 0 65.2354 14.532 948 108.367 206.722 489.75
1048 0 68.2378 14.9917 1023 108.431 204.487 487.788
1049 0 72.2458 15.5857 1126 107.967 204.104 484.846
1050 0 75.2189 14.4645 1088 111.233 202.801 483.704
1051 0 78.1121 16.5275 1291 107.621 201.959 480.084
1052 0 81.2298 16.8042 1365 108.084 201.473 476.604
1053 0 84.2011 14.9048 1255 112.649 201.078 474.963
1054 1 44.1589 11.3454 501 114.05 200.735 494.325
1055 0 46.2024 13.7655 636 112.983 200.55 489.211
1056 0 47.1868 12.3763 584 113.171 200.445 489.694
1057 0 51.1459 12.7087 650 112.231 201.112 488.318
1058 0 53.2905 12.9667 691 113.97 202.324 484.207
1059 0 54.4074 12.7189 692 113.944 202.789 484.243
1060 0 57.2335 15.4106 882 107.3 204.575 483.074
1061 0 58.3036 15.4193 899 107.069 205.423 482.076
1062 0 63.4593 15.049 955 105.619 206.966 480.363
1063 0 64.405 14.8902 959 106.056 209.702 477.971
1064 0 67.5686 15.5398 1050 103.689 211.553 476.873
1065 0 70.6383 15.8979 1123 100.988 213.419 477.213
1066 0 73.4047 14.8219 1088 103.733 214.654 475.236
1067 0 77.3248 14.743 1140 102.868 214.818 476.698
1068 0 82.7358 16.7642 1387 98.1947 215.644 477.041
1069 0 87.6796 15.6023 1368 99.2368 214.8 475.727
1070 1 43.3454 11.2353 487 105.078 214.608 496.423
1071 0 47.4226 11.64 552 104.406 213.933 495.984
1072 0 49.2312 12.2686 604 104.616 212.666 494.124
1073 0 51.1712 13.0151 666 104.428 211.8 492.518
1074 0 54.3144 14.5265 789 101.142 210.241 491.096
1075 0 56.3671 15.6297 881 100.04 208.689 489.492
1076 0 56.3311 14.5568 820 104.456 207.282 487.718
1077 0 59.3305 14.5962 866 104.864 206.805 485.632
1078 0 61.287 14.6524 898 105.795 204.899 480.629
1079 0 66.4153 16.442 1092 101.824 204.484 480.854
1080 0 69.4251 15.5563 1080 103.908 204.066 477.811
1081 0 70.436 15.3189 1079 106.087 204.394 475.399
1082 0 74.35 16.3685 1217 104.097 203.52 472.461
1083 1 39.4575 12.4184 490 112.42 204.235 487.427
1084 0 39.3236 12.2319 481 112.665 204.859 487.131
1085 0 41.3012 12.6388 522 113.119 204.588 486.251
1086 0 43.1812 14.2886 617 110.559 205.381 484.746
1087 0 46.0611 16.1307 743 106.168 206.051 485.84
1088 0 45.0739 14.6648 661 112.705 208.006 484.828
1089 0 47.1843 15.0686 711 111.949 210.239 486.248
1090 0 49.232 16.2496 800 109.725 213.372 486.599
1091 0 50.3622 14.8524 748 114.838 215.188 485.821
1092 0 53.4424 15.3249 819 111.586 217.927 486.897
1093 0 55.1402 15.6329 862 111.962 218.762 486.138
1094 0 58.1964 15.568 906 110.745 219.067 487.957
1095 0 60.0877 15.0613 905 110.952 218.61 489.228
1096 0 64.1926 16.4349 1055 107.016 218.841 488.265
1097 0 67.1883 16.0891 1081 109.106 217.088 486.671
1098 0 71.1681 15.2878 1088 110.634 215.585 487.755
1099 0 73.1172 16.9727 1241 109.224 214.093 484.847
1100 1 39.0727 11.4914 449 117.134 212.875 501.86
1101 0 42.0813 13.9492 587 111.387 211.223 500.463
1102 0 44.0388 13.7833 607 111.908 210.04 499.038
1103 0 45.307 14.2142 644 110.866 207.547 496.143
1104 0 48.2479 14.2804 689 109.972 206.785 495.504
1105 0 49.1093 14.6205 718 109.554 205.901 491.416
1106 0 52.1733 14.0302 732 108.135 204.872 490.02
1107 0 54.296 13.408 728 109.093 203.746 486.446
1108 0 57.2713 14.6496 839 105.545 203.791 484.777
1109 0 59.2142 13.696 811 107.519 204.226 481.983
1110 0 63.1608 14.5343 918 104.051 204.343 480.371
1111 0 66.2494 14.2794 946 104.854 204.772 477.478
1112 0 66.2364 12.6215 836 109.615 205.371 476.071
1113 0 70.1064 12.7093 891 109.613 206.8 475.952
1114 1 40.0718 10.9304 438 107.509 208.393 490.368
1115 0 42.0679 10.388 437 108.11 209.572 490.426
1116 0 46.0542 11.4213 526 104.922 210.96 489.386
1117 0 46.1038 11.5826 534 106.521 213.026 488.745
1118 0 49.0612 13.5545 665 102.675 216.364 488.952
1119 0 49.1569 13.1619 647 102.329 214.946 491.21
1120 0 52.1624 13.803 720 101.303 215.74 490.321
1121 0 55.4462 14.1398 784 100.677 215.874 490.718
1122 0 56.2444 13.1213 738 104.176 215.343 491.405
1123 0 59.1257 13.5812 803 104.812 214.428 490.06
1124 0 60.1301 12.8056 770 107.486 213.56 491.522
1125 0 63.3496 13.5597 859 106.957 213.542 490.395
1126 0 68.2286 13.8945 948 105.07 211.745 490.621
1127 0 70.2364 14.2804 1003 105.932 210.342 487.731
1128 0 74.2583 14.7997 1099 105.464 209.292 485.196
1129 1 38.2037 9.92052 379 110.628 207.559 502.744
1130 0 39.2978 10.3314 406 110.116 205.985 501.515
1131 0 43.2248 13.0249 563 104.76 205.503 498.721
1132 0 43.1575 12.2343 528 105.176 204.561 497.934
1133 0 44.0541 13.3245 587 105.676 203.894 494.482
1134 0 48.14 13.6062 655 103.824 203.127 492.812
1135 0 48.1628 13.1429 633 105.028 203.003 492.31
1136 0 49.1295 12.7418 626 108.083 203.035 488.268
1137 0 52.132 14.4058 751 102.806 203.692 486.554
1138 0 52.3109 13.8403 724 105.459 204.065 486.924
1139 0 55.1421 13.71 756 105.567 204.541 485.782
1140 0 57.2443 15.0059 859 103.248 205.561 484.17
1141 0 57.2167 13.7722 788 106.292 206.056 484.376
1142 0 60.104 14.1588 851 104.378 207.204 483.534
1143 0 63.2663 15.5059 981 101.291 207.796 482.476
1144 0 65.1178 15.3261 998 102.425 209.792 482.079
1145 0 70.5392 15.3248 1081 100.954 211.876 483.068
1146 0 71.2228 15.2339 1085 103.227 213.427 481.456
1147 0 73.2627 15.0827 1105 104.527 214.739 482.013
1148 0 76.2169 15.797 1204 105.878 215.386 482.455
1149 0 82.378 16.0358 1321 103.347 215.229 481.285
1150 0 83.4098 15.8854 1325 106.129 215.239 479.115
1151 0 87.4268 15.716 1374 106.285 214.958 479.95
1152 0 92.3868 16.7015 1543 104.402 214.437 477.349
1153 1 48.3478 11.562 559 112.571 212.683 499.038
1154 0 50.4824 12.123 612 111.191 211.056 497.147
1155 0 54.1577 14.1254 765 106.187 209.66 495.076
1156 0 57.4454 14.64 841 105.113 208.421 494.556
1157 0 59.2557 14.3109 848 107.302 205.868 490.125
1158 0 63.1268 15.9995 1010 105.193 205.749 489.025
1159 0 64.4593 14.5518 938 109.182 204.957 487.116
1160 0 67.2341 15.3494 1032 107.34 204.005 484.843
1161 0 72.3959 15.0561 1090 106.75 203.491 481.812
1162 0 73.4522 15.5067 1139 107.621 203.434 477.138
1163 0 76.2631 15.2761 1165 108.476 203.543 476.458
1164 0 79.4036 17.3418 1377 104.734 203.766 471.805
1165 0 80.4873 15.1949 1223 110.448 204.302 467.769
1166 0 86.4841 15.4595 1337 110 204.464 466.067
1167 1 42.3633 11.2834 478 114.408 204.931 488.132
1168 0 48.387 12.5034 605 110.322 205.507 485.869
1169 0 49.4654 12.6755 627 111.059 206.514 484.53
1170 0 50.2213 14.1972 713 110.47 207.203 482.732
1171 0 52.2407 13.8972 726 110.023 208.477 483.328
1172 0 55.1179 15.4215 850 106.867 210.902 485.227
1173 0 57.1893 15.405 881 106.899 212.209 484.676
1174 0 60.1926 15.3009 921 104.466 214.22 484.396
1175 0 63.162 15.199 960 104.584 215.989 482.302
1176 0 64.1817 14.3499 921 107.742 217.182 482.412
1177 0 66.1435 14.7104 973 106.297 217.3 483.365
1178 0 71.3739 16.3365 1166 102.101 217.286 481.213
1179 0 74.1628 16.2615 1206 102.238 216.161 480.58
1180 0 76.2392 14.7037 1121 105.635 215.359 482.343
1181 0 79.2202 15.135 1199 105.21 214.248 480.744
1182 0 83.1621 15.6682 1303 103.591 213.355 478.601
1183 0 86.156 14.88 1282 105.161 211.327 475.182
1184 0 92.3027 15.7525 1454 102.058 210.757 473.473
1185 1 52.0953 10.8455 565 102.837 210.503 494.163
1186 0 52.0957 10.6535 555 102.319 208.591 492.607
1187 0 56.0878 11.2324 630 99.8079 207.492 490.314
1188 0 58.1082 13.079 760 97.9697 206.488 484.836
1189 0 59.1526 13.237 783 96.59 205.665 484.282
1190 0 62.2378 14.9909 933 94.2379 204.866 480.354
1191 0 63.2009 13.734 868 96.773 204.574 477.817
1192 0 65.1258 13.3741 871 97.3088 204.766 474.233
1193 0 67.138 13.152 883 98.5108 205.344 472.858
1194 0 72.2805 13.0464 943 97.7126 205.45 471.529
1195 0 74.2035 13.6921 1016 96.438 205.547 469.443
1196 0 76.1808 14.0455 1070 95.7841 206.28 467.902
1197 1 40.0388 9.74055 390 97.6077 206.462 487.254
1198 0 43.0677 11.3542 489 94.2515 208.172 487.579
1199 0 45.0634 11.5837 522 94.3429 210.36 486.226
1200 0 45.0637 9.89711 446 95.1233 212.222 488.309
1201 0 47.0467 13.3697 629 92.3625 215.149 486.129
1202 0 48.1374 13.8977 669 93.6457 215.348 485.254
1203 0 51.3078 12.5127 642 93.5405 216.536 486.779
1204 0 54.269 13.82 750 90.6827 216.568 487.009
1205 0 58.0259 14.7865 858 88.4289 218.27 485.839
1206 0 59.0528 12.5311 740 92.7176 218.104 487.628
1207 0 64.1013 13.5879 871 91.8484 217.419 484.861
1208 0 67.0868 15.3085 1027 89.9737 217.176 483.995
1209 0 70.1502 14.6115 1025 92.0293 216.026 484.399
1210 0 74.1466 14.7546 1094 91.989 214.531 484.084
1211 0 76.2854 14.4195 1100 94.3945 212.917 480.115
1212 1 43.1672 11.9072 514 96.3249 212.702 498.755
1213 0 45.0456 11.3885 513 96.8187 211.109 497.821
1214 0 47.0482 12.179 573 97.6091 209.759 494.773
1215 0 49.0603 12.5356 615 97.9724 208.33 492.353
1216 0 50.1406 12.804 642 98.0436 207.167 488.949
1217 0 53.1967 14.1926 755 95.5788 206.752 487.17
1218 0 56.187 13.3483 750 96.3627 206.373 486.684
1219 0 56.1633 13.9949 786 97.1972 206.074 484.672
1220 0 58.1807 14.4721 842 96.8599 205.71 483.986
1221 0 61.2978 16.167 991 94.0928 205.482 481.418
1222 0 62.1786 14.9569 930 97.914 205.815 477.703
1223 0 64.222 12.8772 827 103.641 206.894 478.499
1224 0 68.1096 13.8013 940 101.577 207.77 477.636
1225 0 69.1995 13.7429 951 102.111 208.128 477.595
1226 0 71.1734 13.8394 985 103.463 208.988 476.038
1227 0 75.3507 15.408 1161 100.341 212.534 474.007
1228 0 79.2096 15.5537 1232 98.5633 214.196 473.562
1229 1 42.0347 10.4675 440 105.689 216.78 493.359
1230 0 45.1047 10.5532 476 104.641 217.307 494.868
1231 0 46.1339 13.2007 609 105.918 217.179 492.716
1232 0 49.0896 12.2226 600 106.528 216.285 494.095
1233 0 50.1171 13.1891 661 105.275 216.646 495.381
1234 0 53.1235 15.8875 844 98.545 215.98 494.373
1235 0 54.1727 15.2291 825 103.684 215.198 494.384
1236 0 59.2334 15.0591 892 102.47 212.765 494.04
1237 0 58.1799 15.2114 885 105.086 211.542 493.627
1238 0 63.1444 16.0109 1011 102.474 210.279 492.039
1239 0 63.1331 16.093 1016 155.338 209.276 492.095
1240 0 65.1996 14.5246 947 107.127 207.208 487.248
1241 0 70.1648 15.9909 1122 102.988 205.987 485.531
1242 0 73.2662 15.819 1159 105.371 204.632 480.259
1243 0 76.2378 16.4485 1254 103.704 203.692 477.243
1244 1 42.0546 12.46 524 108.83 203.048 494.445
1245 0 43.0511 11.5212 496 108.387 202.629 494.153
1246 0 44.1784 12.1326 536 108.959 202.545 491.81
1247 0 47.1577 13.105 618 107.147 202.9 489.285
1248 0 47.1229 13.1147 618 109.83 202.565 485.43
1249 0 51.1351 14.1977 726 104.77 204.455 484.705
1250 0 52.1662 14.7989 772 103.595 205.234 484.058
1251 0 55.2418 15.2602 843 102.094 205.752 482.798
1252 0 57.4181 15.152 870 102.176 207.09 481.428
1253 0 59.3081 14.9726 888 102.336 207.946 480.848
1254 0 60.616 14.9631 907 102.783 210.335 480.461
1255 0 62.3499 15.3008 954 102.239 212.371 481.314
1256 0 68.2036 19.5151 1331 86.6431 212.984 480.699
1257 0 68.3866 15.6025 1067 103.466 214.53 479.357
1258 0 73.4939 15.77 1159 103.218 214.832 478.162
1259 0 75.3178 15.574 1173 103.664 215.088 478.061
1260 0 79.4105 14.9476 1187 105.78 214.598 477.582
1261 0 84.4173 15.838 1337 104.762 213.616 475.886
1262 0 88.4309 15.5715 1377 105.611 212.344 475.359
1263 1 46.3811 11.5996 538 106.446 210.794 498.928
1264 0 46.2874 11.299 523 108.751 208.962 497.461
1265 0 50.2231 13.1214 659 109.115 207.484 493.59
1266 0 54.4152 11.8717 646 108.438 205.94 492.655
1267 0 54.3137 12.3726 672 108.394 204.903 489.243
1268 0 61.4006 14.9184 916 101.281 203.264 487.834
1269 0 62.3967 14.1033 880 105.025 201.692 483.259
1270 0 66.3117 15.0652 999 102.233 201.315 482.092
1271 0 67.299 14.2944 962 105.853 201.819 478.107
1272 0 70.4258 13.4894 950 107.98 201.794 475.18
1273 0 73.3816 14.1316 1037 106.543 201.77 473.174
1274 0 78.3226 15.3468 1202 103.384 201.898 471.128
1275 0 81.2451 15.8779 1290 103.226 202.25 467.985
1276 0 83.1846 14.558 1211 105.863 202.895 467.409
1277 0 86.2823 13.7919 1190 108.611 203.82 463.653
1278 0 86.2823 13.7572 1187 162.142 204.827 463.681
1279 1 45.1147 9.33177 421 111.014 204.841 484.202
1280 0 49.1532 11.0674 544 108.575 207.846 482.904
1281 0 50.154 11.2852 566 108.875 210.786 481.648
1282 0 54.1901 12.2162 662 105.494 212.491 483.225
1283 0 58.0853 13.6696 794 105.27 215.859 484.053
1284 0 59.2137 13.3246 789 105.622 216.354 483.989
1285 0 63.2241 15.0101 949 102.021 217.209 483.291
1286 0 67.2713 14.4638 973 102.627 217.624 481.96
1287 0 69.3101 13.5334 938 106.154 217.587 482.437
1288 0 73.2757 13.5925 996 106.882 215.761 479.693
1289 0 75.3055 14.1291 1064 106.963 214.387 479.617
1290 0 78.169 14.7501 1153 107.962 212.36 478.755
1291 0 83.29 15.6201 1301 106.352 211.127 476.374
1292 0 87.2359 14.3748 1254 109.667 210.179 473.833
1293 0 89.3682 14.2668 1275 112.056 208.393 471.054
1294 0 93.3797 15.0782 1408 109.218 206.817 468.274
1295 0 99.3419 13.9015 1381 111.883 205.588 466.117
1296 1 53.2312 10.1256 539 109.603 205.199 488.019
1297 0 54.1843 9.85525 534 110.367 204.873 485.846
1298 0 57.3674 11.069 635 106.332 203.984 483.077
1299 0 59.3247 12.6423 750 102.235 203.349 477.836
1300 0 59.052 11.8032 697 103.4 203.331 477.944
1301 0 62.0425 11.9595 742 102.074 203.914 476.311
1302 0 65.0241 12.7799 831 99.9085 202.941 473.315
1303 0 68.0487 12.9907 884 100.284 203.121 470.753
1304 0 71.0419 15.1178 1074 96.4404 204.354 471.269
1305 0 73.1119 13.2947 972 101.495 206.239 469.805
1306 0 76.2157 13.921 1061 101.649 208.542 467.006
1307 0 81.0653 14.6672 1189 97.2288 211.04 468.568
1308 0 84.1706 13.9479 1174 98.6201 213.645 468.837
1309 1 46.0777 9.00653 415 100.202 215.964 488.282
1310 0 47.094 10.4897 494 97.5364 218.188 489.609
1311 0 49.1247 9.425 463 100.207 218.27 487.406
1312 0 51.0744 11.8063 603 97.6783 219.566 486.619
1313 0 53.1577 11.1743 594 101.848 219.258 486.879
1314 0 56.3186 12.4115 699 96.7139 217.918 486.476
1315 0 54.2401 11.8363 642 101.519 217.04 485.519
1316 0 58.2824 11.9075 694 99.7104 216.785 488.006
1317 0 61.254 12.3094 754 100.748 215.534 486.761
1318 0 63.2931 11.6758 739 102.632 214.21 485.041
1319 0 66.4229 12.2849 816 100.887 212.488 484.544
1320 0 67.3109 11.7663 792 104.071 211.057 481.694
1321 0 71.3824 12.6922 906 102.338 209.074 478.046
1322 0 73.4214 13.3885 983 103.437 208.68 476.434
1323 0 77.3932 12.4946 967 105.984 207.722 474.783
1324 0 80.3057 12.8758 1034 103.717 206.373 471.502
1325 1 44.2419 10.307 456 102.618 205.114 488.215
1326 0 44.2531 8.2706 366 106.552 204.251 485.959
1327 0 46.2733 10.1354 469 106.179 204.917 483.755
1328 0 48.1865 11.0404 532 105.711 205.803 481.946
1329 0 50.293 11.1149 559 104.521 204.844 481.456
1330 0 52.1854 12.3598 645 100.665 206.057 481.55
1331 0 52.2334 13.0185 680 96.0015 207.832 481.793
1332 0 54.1972 11.7534 637 99.2009 209.526 481.35
1333 0 56.2399 13.478 758 96.8443 210.855 478.967
1334 0 56.1573 12.2157 686 99.5773 214.194 479.328
1335 0 59.2201 12.0905 716 103.25 216.309 480.887
1336 0 59.2537 12.1174 718 104.07 217.598 480.766
1337 0 64.2833 12.6783 815 101.869 218.731 480.551
1338 0 67.119 15.0926 1013 95.8292 220.153 481.248
1339 0 70.2961 14.0691 989 98.3226 219.806 480.811
1340 0 73.1042 13.9937 1023 98.7947 217.654 478.598
1341 0 73.1042 14.0348 1026 146.25 216.66 478.645
1342 0 77.1772 15.2117 1174 98.3066 216.23 479.54
1343 0 79.2301 13.8962 1101 101.121 214.955 480.399
1344 1 44.0946 10.2507 452 104.325 214.131 498.502
1345 0 46.0919 10.0018 461 105.421 211.618 495.57
1346 0 48.0537 12.1947 586 99.7236 208.869 494.71
1347 0 50.1818 12.1558 610 99.1 206.944 492.848
1348 0 50.3696 11.9715 603 98.0332 206.39 490.869
1349 0 53.4578 13.3937 716 95.9427 206.57 485.18
1350 0 56.4394 13.8733 783 95.8851 206.969 486.098
1351 0 58.2962 14.1004 822 96.4197 207.538 484.242
1352 0 60.1488 14.3145 861 96.4901 206.995 482.885
1353 0 61.0833 13.588 830 100.631 207.29 479.675
1354 0 63.3029 14.5175 919 97.9336 206.468 478.62
1355 0 62.1427 13.7586 855 101.398 207.502 474.841
1356 0 67.2182 14.4455 971 97.5263 207.177 476.924
1357 0 69.2877 14.8078 1026 97.5302 208.039 474.938
1358 0 71.2302 14.6006 1040 98.0269 209.068 473.902
1359 0 70.2314 13.7118 963 101.421 209.911 472.358
1360 0 75.3052 13.3324 1004 100.264 212.207 471.704
1361 1 43.1085 11.0187 475 97.2526 215.585 489.96
1362 0 41.0973 9.44101 388 99.4871 217.704 490.946
1363 0 44.1158 10.5631 466 96.9721 220.258 488.279
1364 0 45.0553 11.2972 509 97.9764 220.289 486.984
1365 0 46.1139 12.9245 596 95.1443 220.406 492.529
1366 0 48.177 12.1427 585 97.2974 219.215 490.769
1367 0 50.2221 13.8584 696 90.6466 218.284 489.958
1368 0 52.2863 13.3113 696 92.046 217.04 489.897
1369 0 54.2567 12.8463 697 97.9412 215.864 491.228
1370 0 57.2971 13.0722 749 97.3511 213.632 492.234
1371 0 60.1118 14.0239 843 95.325 212.197 492.129
1372 0 60.0996 13.5442 814 97.6474 209.86 490.033
1373 0 65.0682 14.4617 941 95.712 208.797 487.14
1374 0 69.0607 14.7551 1019 94.3533 207.636 484.625
1375 0 68.2432 13.8475 945 97.7968 206.234 482.867
1376 0 68.2432 13.8915 948 143.361 205.223 482.864
1377 0 75.1823 14.3518 1079 96.2363 205.612 475.906
1378 0 76.2974 14.4304 1101 95.8901 205.275 474.612
1379 0 80.263 13.7672 1105 96.2145 205.022 472.258
1380 0 81.4518 13.9101 1133 96.2886 205.777 470.323
1381 1 44.2539 10.2138 452 99.4159 206.5 486.918
1382 0 46.207 11.7947 545 95.1908 207.71 487.062
1383 0 46.1961 11.1481 515 95.8136 207.916 487.322
1384 0 49.2927 12.5171 617 93.7893 208.81 485.663
1385 0 52.1254 12.7577 665 92.1429 208.74 485.132
1386 0 51.2785 13.8655 711 92.533 209.93 482.669
1387 0 55.254 14.8948 823 88.9113 210.341 485.011
1388 0 55.1294 13.1509 725 92.9366 212.937 484.857
1389 0 58.1561 14.7878 860 89.0988 215.308 485.673
1390 0 61.1266 15.8196 967 86.4033 217.505 485.718
1391 0 62.1289 12.9408 804 92.5323 217.708 484.646
1392 0 66.1832 14.5656 964 89.1514 218.004 484.288
1393 0 71.2358 15.3434 1093 86.4931 217.446 485.253
1394 0 72.1663 14.2033 1025 90.1785 216.426 483.153
1395 0 75.1712 14.0346 1055 90.2493 215.403 484.395
1396 0 78.2128 14.2943 1118 90.136 213.538 482.416
1397 0 83.2602 13.5359 1127 91.7187 212.193 481.573
1398 1 46.0888 10.5883 488 93.6414 211.303 499.824
1399 0 49.0657 12.2489 601 89.426 210.286 499.444
1400 0 51.0435 12.2249 624 89.5577 208.245 497.518
1401 0 53.0342 12.8973 684 86.5658 206.88 493.776
1402 0 54.1012 14.1032 763 84.3552 205.024 491.733
1403 0 56.183 12.7441 716 88.0321 204.187 490.355
1404 0 58.2651 14.2967 833 85.6098 203.827 488.675
1405 0 57.1762 13.4147 767 88.3012 203.123 485.485
1406 0 61.124 12.5319 766 89.0379 203.49 482.158
1407 0 66.1498 13.4997 893 83.402 203.638 480.571
1408 0 68.0871 13.5562 923 83.9902 203.404 477.36
1409 0 71.1277 13.2578 943 84.21 203.286 476.474
1410 0 73.2016 14.4122 1055 83.4711 203.936 472.797
1411 0 76.0806 13.696 1042 84.1305 204.984 469.864
1412 0 79.1428 15.2004 1203 82.473 206.16 472.737
1413 0 79.1543 15.1224 1197 83.7201 207.515 471.033
1414 0 84.0699 14.2381 1197 86.4628 209.501 466.813
1415 0 87.123 13.9917 1219 86.6136 212.03 467.929
1416 0 92.4037 14.5882 1348 85.3412 214.875 465.636
1417 0 95.555 14.6198 1397 85.0981 215.568 468.328
1418 1 56.2922 9.55727 538 85.9498 215.678 490.803
1419 0 58.2 11.0653 644 87.4922 216.188 486.759
1420 0 61.24 11.3488 695 87.5367 216.652 490.147
1421 0 66.2347 13.1804 873 84.9977 216.846 488.245
1422 0 68.3011 12.4742 852 86.5646 214.757 489.577
1423 0 73.3249 13.8016 1012 85.3903 213.623 488.127
1424 0 78.2307 16.4258 1285 80.2965 211.492 487.665
1425 0 79.339 14.52 1152 85.5686 209.505 481.772
1426 0 85.3267 14.5675 1243 84.3443 207.19 479.647
1427 0 83.3125 13.4554 1121 150.44 204.211 477.87
1428 1 46.1237 9.90813 457 88.3217 203.987 495.486
1429 0 48.2051 9.83299 474 88.673 202.778 494.07
1430 0 49.1923 9.595 472 89.0233 202.708 491.203
1431 0 52.1821 11.5749 604 86.2036 202.222 486.707
1432 0 56.2514 13.6708 769 83.0312 202.446 485.135
1433 0 56.1992 13.5055 759 83.6324 202.578 483.801
1434 0 57.301 13.4553 771 85.1076 203.407 482.477
1435 0 58.2442 12.997 757 85.9524 203.904 481.283
1436 0 61.3998 13.2737 815 85.0503 203.714 481.188
1437 0 64.1505 13.3748 858 86.2681 204.04 479.612
1438 0 66.1076 14.8092 979 83.9775 205.403 479.075
1439 0 67.1946 13.1112 881 88.2588 206.351 477.011
1440 0 70.2134 16.1365 1133 83.4395 207.966 476.855
1441 0 72.2417 14.05 1015 89.6266 210.383 476.398
1442 0 75.3652 14.6221 1102 88.4837 212.411 477.907
1443 0 77.2025 15.0384 1161 89.3566 214.738 477.125
1444 0 80.2273 13.1127 1052 93.4078 215.981 475.664
1445 0 86.3863 14.1689 1224 91.8636 216.988 476.542
1446 0 86.4713 13.253 1146 95.9092 217.631 472.154
1447 0 90.6547 13.7665 1248 96.6611 216.891 471.405
1448 0 94.6214 12.9146 1222 99.1154 215.503 470.858
1449 1 55.4039 10.9379 606 97.0875 214.922 493.706
1450 0 60.4195 11.1222 672 96.1533 212.442 493.792
1451 0 61.1837 12.9283 791 95.1732 209.999 493.044
1452 0 65.0922 13.2274 861 94.964 209.474 492.872
1453 0 64.2104 11.509 739 98.8173 207.559 490.686
1454 0 68.2111 14.2352 971 96.9454 206.734 486.965
1455 0 70.2422 14.9198 1048 93.5286 205.136 486.796
1456 0 74.185 13.8842 1030 95.3816 204.366 485.141
1457 0 76.3142 14.65 1118 95.254 204.213 482.116
1458 0 77.299 13.9717 1080 99.9972 204.11 479.834
1459 0 81.3481 14.1245 1149 99.3882 203.908 476.362
1460 0 81.2994 13.7885 1121 99.3961 202.517 472.256
1461 0 84.2063 13.4432 1132 101.453 202.919 470.87
1462 0 89.3257 14.8334 1325 99.7374 202.795 467.447
1463 0 92.2709 15.6821 1447 99.5086 204.124 468.176
1464 1 51.3436 10.4589 537 101.872 203.775 490.078
1465 0 51.1735 11.2558 576 103.262 205.884 486.443
1466 0 55.1128 12.7194 701 101.391 207.783 486.739
1467 0 53.1105 10.5441 560 104.438 209.839 487.073
1468 0 58.3174 13.2722 774 100.654 210.205 485.585
1469 0 57.0526 12.6375 721 102.211 211.677 485.216
1470 0 62.0605 13.7124 851 99.4912 213.833 486.25
1471 0 63.1327 14.7467 931 99.2159 215.503 484.777
1472 0 67.1851 15.3606 1032 100.668 215.664 483.577
1473 0 70.2682 13.8612 974 104.491 215.479 485.75
1474 0 74.1747 14.0884 1045 105.048 214.922 484.561
1475 0 75.2376 13.8096 1039 107.533 213.721 485.186
1476 0 81.1811 14.3999 1169 105.932 212.577 485.092
1477 0 81.177 13.5137 1097 109.105 211.217 482.428
1478 0 86.163 15.726 1355 104.349 209.902 481.219
1479 0 91.1316 15.2198 1387 104.696 209.737 479.459
1480 0 95.1413 14.9882 1426 104.451 207.872 476.734
1481 1 51.0623 11.0453 564 107.977 207.534 496.073
1482 0 53.074 11.9268 633 106.656 206.619 494.446
1483 0 56.1276 12.7923 718 104.022 205.638 490.579
1484 0 58.0487 12.9891 754 103.22 205.074 490.377
1485 0 59.1114 14.1259 835 101.671 204.729 485.127
1486 0 61.2335 13.375 819 103.713 203.129 484.641
1487 0 63.1389 13.3515 843 101.77 203.246 483.936
1488 0 67.2105 12.7807 859 103.473 202.186 479.21
1489 0 69.1053 14.1668 979 99.8059 202.656 477.377
1490 0 71.1534 13.7028 975 101.364 204.584 475.48
1491 0 75.1454 14.8911 1119 98.4549 204.836 474.933
1492 0 79.1687 15.3722 1217 99.009 205.315 475.434
1493 0 83.1116 14.8716 1236 100.388 206.409 472.739
1494 0 85.2123 15.1856 1294 97.5757 207.886 471.175
1495 0 88.1595 14.6439 1291 98.7134 210.521 472.309
1496 1 46.0494 8.70805 401 104.99 214.297 494.252
1497 0 50.0865 12.5583 629 99.2051 215.922 493.766
1498 0 53.0565 12.7034 674 99.9481 216.531 492.868
1499 0 54.064 12.9291 699 99.9742 217.515 494.029
1500 0 58.2491 13.9058 810 99.579 216.37 491.32
1501 0 59.1085 14.7864 874 98.6339 216.064 490.978
1502 0 62.1541 15.3811 956 96.8682 215.759 492.115
1503 0 63.1617 14.9141 942 99.0775 215.022 491.07
1504 0 67.1892 13.8862 933 101.242 213.057 491.24
1505 0 69.188 14.8292 1026 100.265 211.434 489.331
1506 0 70.219 14.9247 1048 101.084 210.065 487.921
1507 0 74.1582 15.4534 1146 100.657 208.64 486.329
1508 0 78.1924 16.4082 1283 99.4645 207.881 483.192
1509 0 80.1955 15.537 1246 101.165 206.457 479.385
1510 0 82.2388 14.4093 1185 103.352 205.821 479.261
1511 1 44.206 10.7225 474 105.897 206.139 495.622
1512 0 49.1112 11.5656 568 103.093 206.007 493.687
1513 0 49.0419 12.2752 602 104.654 206.035 489.766
1514 0 50.0432 12.4892 625 105.147 206.256 489.099
1515 0 52.0349 12.5685 654 103.843 206.382 488.073
1516 0 55.069 13.3651 736 103.326 206.641 485.23
1517 0 57.0493 14.2158 811 101.591 206.117 482.92
1518 0 58.1622 13.7031 797 103.671 205.588 482.945
1519 0 58.1489 14.0501 817 103.24 206.848 481.64
1520 0 61.2169 13.8034 845 103.586 207.702 480
1521 0 65.1957 13.2217 862 103.093 209.477 481.655
1522 0 66.1395 14.5601 963 101.769 211.758 479.319
1523 0 68.1864 13.5951 927 103.928 214.019 480.173
1524 0 71.0826 14.8841 1058 101.112 215.681 479.215
1525 0 74.1356 13.219 980 104.703 216.547 479.45
1526 0 76.0929 13.6938 1042 103.429 216.902 478.047
1527 0 81.0609 15.2355 1235 101.87 216.196 476.751
1528 0 88.2376 16.2969 1438 97.6697 215.509 476.409
1529 0 91.3924 14.6073 1335 102.329 215.012 475.215
1530 0 95.2771 14.7884 1409 101.953 213.951 474.492
1531 1 54.1367 11.0276 597 101.238 212.194 499.127
1532 0 56.1775 12.1935 685 104.27 210.908 495.216
1533 0 60.1493 13.2171 795 100.779 209.508 495.013
1534 0 62.0903 14.3017 888 101.464 208.416 491.633
1535 0 61.4636 12.9507 796 105.163 208.603 489.677
1536 0 66.1637 15.2349 1008 100.221 207.073 486.689
1537 0 68.1859 14.8271 1011 101.691 206.035 484.518
1538 0 71.2504 14.5262 1035 102.786 205.153 481.559
1539 0 74.2384 15.2616 1133 101.074 204.5 480.158
1540 0 77.1795 14.7189 1136 102.437 203.362 477.234
1541 0 80.3376 14.0532 1129 104.948 203.002 473.082
1542 0 82.2044 15.279 1256 103.979 202.377 470.244
1543 0 84.2282 14.6269 1232 104.956 203.192 468.954
1544 0 91.2225 14.6784 1339 103.276 203.625 468.943
1545 0 92.2028 15.5744 1436 102.476 204.626 464.367
1546 1 50.1076 11.615 582 104.156 204.914 488.04
1547 0 52.1038 13.1276 684 102.307 205.69 485.105
1548 0 53.0723 11.5314 612 104.054 207.404 484.472
1549 0 56.1615 13.4256 754 100.279 209.107 482.907
1550 0 57.0787 13.823 789 99.9126 210.165 483.446
1551 0 62.1859 14.4084 896 97.1842 212.999 484.872
1552 0 65.1429 15.9342 1038 93.4393 215.502 484.649
1553 0 67.1655 14.0251 942 97.6603 215.867 483.252
1554 0 71.2145 14.9829 1067 94.7254 216.999 481.854
1555 0 75.1639 15.7655 1185 93.9536 216.337 481.638
1556 0 80.2159 15.1466 1215 95.4016 216.129 480.244
1557 0 82.1864 15.1242 1243 97.3685 214.223 480.514
1558 0 86.1972 14.9541 1289 98.8542 212.648 479.146
1559 0 89.2606 14.0039 1250 101.898 211.776 479.029
1560 0 94.1356 16.2 1525 98.0564 209.932 472.97
1561 0 98.2678 15.0914 1483 100.225 208.859 471.738
1562 1 54.0395 13.046 705 98.2596 208.105 494.617
1563 0 57.2371 12.6841 726 100.813 204.899 488.629
1564 0 59.2245 14.3522 850 96.5376 203.768 487.58
1565 0 61.1296 14.8537 908 96.87 204.066 484.926
1566 0 64.0961 13.8542 888 97.0315 204.534 485.524
1567 0 64.2151 13.19 847 100.429 203.991 482.269
1568 0 68.1543 14.4818 987 98.304 203.507 479.235
1569 0 70.133 14.0305 984 99.6341 203.718 479.008
1570 0 74.1974 14.0167 1040 99.3577 204.015 476.595
1571 0 76.178 15.9364 1214 97.4975 204.434 473.974
1572 0 75.1963 18.2855 1375 85.4044 204.799 469.921
1573 0 80.2477 14.4926 1163 102.705 205.751 470.803
1574 0 85.1503 13.7874 1174 104.034 206.77 469.916
1575 0 87.0797 15.1011 1315 102.526 208.685 469.872
1576 0 91.1493 14.8218 1351 103.992 210.245 466.726
1577 0 93.1309 14.3883 1340 106.737 211.448 465.302
1578 0 97.2381 15.2615 1484 105.713 213.595 466.944
1579 0 101.212 15.6701 1586 106.858 214.917 464.319
1580 0 105.361 15.2808 1610 109.63 214.519 464.668
1581 0 107.314 14.5182 1558 112.691 215.828 464.404
1582 0 112.604 15.5856 1755 110.405 215.916 458.144
1583 0 115.767 14.6242 1693 113.602 215.89 457.523
1584 0 125.575 16.5797 2082 106.989 215.281 455.282
1585 0 130.513 16.3815 2138 108.27 214.227 453.629
1586 0 134.599 15.2453 2052 112.016 213.685 453.598
1587 0 141.451 16.2742 2302 109.975 211.895 450.159
1588 0 146.63 15.2288 2233 113.223 210.915 443.338
1589 0 155.539 16.1567 2513 110.226 208.416 444.638
1590 0 160.432 19.0672 3059 104.859 207.331 440.759
1591 0 165.459 15.4963 2564 113.439 206.25 431.275
1592 0 173.389 15.745 2730 113.396 205.032 430.517
1593 0 176.469 15.2435 2690 113.655 204.2 425.531
1594 0 184.425 15.7462 2904 112.035 203.799 421.243
1595 0 191.374 16.392 3137 110.325 203.413 416.372
1596 0 197.453 16.652 3288 110.274 202.683 410.193
1597 0 204.363 17.0285 3480 108.51 202.605 409.179
1598 0 214.473 17.7971 3817 105.79 202.176 402.726
1599 1 48.2016 11.1407 537 96.2328 203.978 486.79
1600 0 47.1383 10.6495 502 96.006 205.896 484.426
1601 0 49.2335 10.7244 528 93.4848 206.021 487.083
1602 0 52.2616 12.38 647 91.5858 208.025 485.592
1603 0 52.3089 10.3615 542 95.2343 208.839 484.849
1604 0 56.2121 12.9865 730 90.6206 210.875 484.989
1605 0 56.2121 13.0755 735 121.718 212.883 484.984
1606 0 60.195 11.7784 709 92.5994 213.55 483.532
1607 0 63.1005 11.553 729 93.0494 214.436 480.705
1608 0 68.177 12.6142 860 90.2314 215.833 483.696
1609 0 65.1728 12.137 791 94.9456 216.121 483.59
1610 0 73.0922 13.1341 960 94.4135 216.175 482.069
1611 0 73.1835 12.6121 923 97.2611 215.363 481.22
1612 0 77.1268 12.6286 974 96.8398 214.878 479.643
1613 1 44.0324 9.19777 405 96.0049 213.857 501.41
1614 0 45.0705 9.45186 426 96.6315 212.643 500.904
1615 0 47.1095 8.70312 410 98.9244 210.71 497.893
1616 0 50.1078 9.99844 501 97.3134 208.443 496.325
1617 0 51.2721 10.3175 529 98.1474 207.958 494.246
1618 0 53.1691 11.5481 614 96.5375 206.712 492.99
1619 0 56.2798 13.6106 766 92.3668 205.063 488.799
1620 0 56.238 11.967 673 94.7058 204.581 487.963
1621 0 60.0916 11.7487 706 94.7295 205.48 485.95
1622 0 60.129 12.2736 738 95.4295 205.008 483.042
1623 0 62.0826 12.9022 801 95.6679 204.407 478.739
1624 0 65.334 13.959 912 94.296 204.24 477.75
1625 0 69.3526 15.2265 1056 90.054 204.812 476.549
1626 0 71.2624 13.766 981 92.3456 205.363 477.931
1627 0 73.1604 13.6686 1000 93.939 206.574 474.751
1628 0 76.0924 15.7966 1202 89.8835 207.834 475.359
1629 0 75.0646 13.495 1013 96.7463 209.573 473.443
1630 0 80.118 13.7547 1102 95.8103 210.837 472.923
1631 0 81.1807 14.4616 1174 94.9676 212.072 471.958
1632 0 80.079 13.3868 1072 95.8694 213.232 465.188
1633 0 85.0783 14.0929 1199 94.9249 215.433 467.113
1634 0 89.3076 13.5487 1210 95.3785 216.617 466.026
1635 1 50.2415 9.47424 476 94.7353 217.874 489.92
1636 0 51.1369 9.46478 484 98.3698 217.837 488.207
1637 0 56.062 11.0413 619 100.851 218.016 490.851
1638 0 62.0982 12.0777 750 98.5507 218.035 491.749
1639 0 63.1665 14.1689 895 96.5631 216.588 489.865
1640 0 66.14 12.791 846 98.0934 213.485 489.73
1641 0 66.3695 13.2892 882 98.6043 212.438 489.878
1642 0 70.2173 14.1418 993 97.7271 211.128 488.468
1643 0 71.1237 13.7085 975 98.3508 209.012 486.098
1644 0 75.163 15.1936 1142 96.521 207.823 483.887
1645 0 77.14 14.4672 1116 99.0556 206.206 480.93
1646 0 79.1206 14.3199 1133 100.848 205.378 477.001
1647 0 80.1396 14.3874 1153 101.247 204.742 475.71
1648 0 82.2805 13.4297 1105 104.134 204.126 472.659
1649 0 89.2832 16.3077 1456 97.0996 204.267 471.075
1650 0 92.2719 14.8041 1366 100.315 204.217 469.872
1651 0 96.1855 16.0939 1548 97.4574 204.341 465.818
1652 0 99.3468 14.8369 1474 100.014 204.541 463.436
1653 0 101.592 15.8477 1610 98.9981 204.781 458.609
1654 0 104.404 16.3595 1708 98.0351 205.308 458.485
1655 0 108.449 15.2145 1650 102.499 205.734 457.598
1656 0 112.586 15.97 1798 102.125 206.743 453.647
1657 1 63.5174 10.9419 695 106.174 207.23 478.03
1658 0 66.5009 13.3382 887 99.2559 209.218 479.897
1659 0 66.4284 10.1914 677 106.095 210.671 479.287
1660 0 70.3901 12.3455 869 102.587 213.252 479.633
1661 0 74.1504 13.5266 1003 102.137 213.969 478.395
1662 0 75.2735 14.0288 1056 103.832 215.364 477.871
1663 0 80.2095 15.1728 1217 101.236 216.079 477.356
1664 0 81.2043 13.8047 1121 106.771 214.459 476.866
1665 0 89.1861 18.2988 1632 96.3781 214.363 476.996
1666 0 88.1729 14.7097 1297 107.475 212.948 472.801
1667 0 95.1772 14.7409 1403 107.609 212.449 472.153
1668 0 99.3041 16.525 1641 104.463 210.904 471.441
1669 0 102.284 14.3033 1463 109.23 210.307 472.546
1670 0 105.181 14.4798 1523 109.085 210.175 467.255
1671 0 110.329 14.0126 1546 110.971 209.201 463.94
1672 1 60.217 10.2629 618 109.751 207.485 484.929
1673 0 66.2202 10.8879 721 110.492 205.963 485.578
1674 0 65.1398 11.7593 766 109.967 205.244 480.607
1675 0 70.2442 13.0687 918 105.577 204.935 477.625
1676 0 74.2816 14.8758 1105 100.591 203.186 476.557
1677 0 77.1702 14.3449 1107 103.284 203.194 477.163
1678 0 81.2654 14.1758 1152 101.911 202.435 473.986
1679 0 83.1886 13.5956 1131 103.567 202.48 470.024
1680 0 87.1414 14.2297 1240 101.746 202.916 467.572
1681 0 89.2999 14.6585 1309 101.864 203.574 468.087
1682 0 91.2646 13.7074 1251 105.329 203.173 463.649
1683 0 95.4093 13.2377 1263 106.477 204.119 462.353
1684 0 97.2713 13.6525 1328 104.522 205.107 461.439
1685 0 102.349 14.8805 1523 101.72 206.367 457.7
1686 0 107.505 15.1807 1632 99.9081 208.284 458.589
1687 0 110.375 13.7894 1522 104.803 209.779 455.11
1688 0 117.212 15.6554 1835 101.137 212.36 455.468
1689 1 67.1776 11.224 754 100.016 213.606 481.755
1690 0 69.2008 11.8785 822 99.7506 214.678 481.703
1691 0 71.2704 11.8142 842 101.733 215.917 479.875
1692 0 74.2164 13.0968 972 100.394 216.158 478.002
1693 0 79.1834 13.1467 1041 100.135 217.301 477.63
1694 0 81.2191 14.4794 1176 97.7576 215.662 478.181
1695 0 86.2021 14.4312 1244 98.7741 214.34 474.34
1696 0 90.2684 14.2353 1285 99.6646 213.974 472.423
1697 0 92.2148 14.1409 1304 101.462 212.592 471.801
1698 0 97.2383 15.3335 1491 99.0013 210.983 468.549
1699 0 103.161 15.7618 1626 97.0006 210.055 468.422
1700 0 104.19 13.9073 1449 101.513 209.136 465.662
1701 0 108.271 14.7131 1593 100.314 207.701 460.554
1702 0 112.298 15.2452 1712 98.3768 206.909 458.866
1703 1 63.2127 9.50758 601 101.223 205.102 482.77
1704 0 63.2071 10.2362 647 103.583 203.586 477.816
1705 0 68.2488 12.6449 863 97.1309 203.47 474.423
1706 0 70.3281 11.6738 821 99.1583 203.328 472.325
1707 0 71.2244 11.6252 828 101.078 203.499 467.595
1708 0 73.0598 12.6882 927 97.3074 204.998 464.433
1709 0 77.0405 13.8888 1070 94.3916 205.25 464.297
1710 0 80.0707 13.7753 1103 92.9628 204.131 460.139
1711 0 82.1619 14.3254 1177 91.2056 205.643 459.774
1712 0 85.0846 12.8578 1094 93.4918 207.448 458.362
1713 0 88.2037 14.1377 1247 91.5004 209.04 456.283
1714 0 91.0911 14.1177 1286 92.2084 210.544 456.208
1715 0 95.0936 13.8705 1319 92.2828 213.036 456.8
1716 0 97.0681 13.6605 1326 93.3311 215.222 453.818
1717 0 102.115 15.7273 1606 89.6364 217.267 453.729
1718 1 61.104 11.3086 691 93.2388 217.719 483.082
1719 0 65.0961 10.1389 660 90.4576 217.847 486.241
1720 0 65.0797 11.2939 735 93.2925 220.076 484.241
1721 0 67.1268 12.7222 854 90.6991 217.995 484.527
1722 0 71.1926 13.3581 951 88.5426 215.691 477.862
1723 0 73.2076 14.1652 1037 88.2729 214.971 484.984
1724 0 77.169 13.3344 1029 90.4266 213.652 481.915
1725 0 81.0606 14.3226 1161 88.5702 212.321 480.099
1726 0 84.2668 14.6796 1237 89.675 211.186 478.91
1727 0 86.1711 14.6337 1261 90.5448 209.749 477.259
1728 0 89.1663 14.1758 1264 92.8204 208.596 471.44
1729 0 92.1524 14.3458 1322 93.9213 207.821 472.526
1730 0 95.1439 14.2731 1358 94.6002 206.908 470.744
1731 0 99.1863 14.6996 1458 95.5295 205.528 466.669
1732 0 103.174 15.9924 1650 94.3358 205.034 463.521
1733 0 105.337 15.1514 1596 95.9555 205.419 460.155
1734 1 60.3208 9.49921 573 97.7173 203.815 482.105
1735 0 62.3538 10.2159 637 102.945 204.562 475.195
1736 0 64.2475 11.9693 769 99.6853 204.67 477.013
1737 0 66.397 12.4403 826 96.6828 205.869 471.132
1738 0 69.4484 14.7304 1023 91.7087 207.235 470.819
1739 0 70.3672 14.6091 1028 96.0272 206.941 472.39
1740 0 75.2874 14.2255 1071 96.3072 208.205 471.418
1741 0 75.1617 14.0231 1054 98.908 210.113 469.535
1742 0 80.2324 16.2029 1300 93.1269 212.762 471.948
1743 0 83.3303 14.6405 1220 97.3443 214.543 471.397
1744 0 83.242 13.5028 1124 102.727 216.33 470.66
1745 0 89.34 16.4316 1468 95.8849 218.559 471.765
1746 0 90.5143 15.0694 1364 100.128 219.328 469.346
1747 0 93.5707 15.678 1467 100.904 218.915 465.92
1748 0 99.3685 15.7092 1561 99.8078 218.692 466.266
1749 1 58.4074 9.1598 535 106.062 217.948 487.68
1750 0 59.3733 11.234 667 103.193 217.333 487.102
1751 0 61.3921 12.4935 767 101.975 215.708 486.087
1752 0 65.5203 13.8888 910 98.6154 214.592 485.885
1753 0 67.3123 14.143 952 98.0158 212.175 486.391
1754 0 71.3441 14.339 1023 96.1906 211.634 486.992
1755 0 75.3411 14.1224 1064 94.9474 210.091 485.324
1756 0 76.3261 14.3725 1097 96.6026 209.089 481.093
1757 0 80.2675 14.3146 1149 96.1793 208.166 476.519
1758 0 82.2791 14.2807 1175 94.8843 206.74 477.862
1759 0 86.4307 14.7401 1274 94.9113 206.232 470.909
1760 0 89.2282 13.5607 1210 96.4016 205.699 470.363
1761 0 91.2752 14.4289 1317 94.451 205.082 466.971
1762 0 93.1947 13.005 1212 97.1568 205.174 463.939
1763 0 98.251 15.0228 1476 92.3455 205.611 463.712
1764 0 100.289 13.7005 1374 93.9622 205.597 460.433
1765 0 105.228 14.901 1568 91.2258 206.742 456.435
1766 0 108.216 14.5081 1570 91.7242 207.468 455.496
1767 0 112.356 13.7776 1548 93.1273 208.543 454.428
1768 0 117.172 16.5057 1934 88.3511 209.505 452.343
1769 1 65.1308 11.7917 768 89.5638 211.464 479.327
1770 0 69.1684 12.2599 848 88.1215 213.676 478.427
1771 0 72.1731 12.3315 890 90.7494 215.496 476.608
1772 0 76.2338 13.9177 1061 86.7342 217.719 477.381
1773 0 79.2304 12.4573 987 90.2584 217.978 476.654
1774 0 82.2685 14.0394 1155 88.0675 217.56 478.497
1775 0 87.3002 14.7193 1285 88.937 217.959 476.699
1776 0 90.3752 13.9751 1263 91.3721 217.222 476.791
1777 0 95.2084 14.6521 1395 90.6889 216.09 475.901
1778 0 97.3773 14.6235 1424 93.1973 215.09 474.487
1779 0 102.523 15.8404 1624 91.5228 214.195 471.121
1780 0 106.408 15.3466 1633 92.2884 213.06 471.009
1781 0 110.358 15.3954 1699 94.0135 211.247 467.878
1782 0 115.713 15.7978 1828 93.6318 210.185 465.422
1783 1 67.2905 10.8931 733 94.5648 208.714 490.15
1784 0 68.3346 10.6974 731 97.9001 208.233 485.602
1785 0 72.2436 12.1533 878 94.8348 207.232 485.684
1786 0 75.1791 12.0778 908 96.6806 206.182 481.773
1787 0 80.1979 15.1001 1211 92.0033 205.768 479.965
1788 0 82.4645 14.1394 1166 95.9177 205.536 475.6
1789 0 84.4524 14.8604 1255 96.4414 205.124 474.763
1790 0 87.2781 13.7262 1198 98.8823 204.74 471.974
1791 0 92.4556 15.9428 1474 95.1296 204.598 468.03
1792 0 94.487 15.1873 1435 96.9429 204.774 466.885
1793 0 99.6573 15.3024 1525 96.4538 205.765 464.87
1794 1 55.474 10.1669 564 101.686 206.683 484.936
1795 0 60.407 10.1975 616 100.006 207.752 484.193
1796 0 61.4329 12.5014 768 95.7435 209.171 485.382
1797 0 64.6176 10.2449 662 98.0755 210.992 486.119
1798 0 67.5029 13.0957 884 93.8484 212.893 484.784
1799 0 69.4691 11.8758 825 98.7709 214.581 482.128
1800 0 72.5804 14.4943 1052 93.8859 214.911 484.492
1801 0 72.4535 12.8772 933 100.81 216.308 481.416
1802 0 76.5936 13.9829 1071 98.4304 215.782 479.627
1803 0 82.7308 13.8159 1143 96.8819 215.364 478.9
1804 0 84.6047 14.2309 1204 98.1794 214.61 477.243
1805 0 88.6706 14.1422 1254 97.8477 213.602 475.486
1806 0 92.9584 14.2322 1323 97.5238 212.536 474.294
1807 0 94.6907 13.655 1293 98.9118 211.763 471.939
1808 0 100.502 13.741 1381 98.7581 210.288 468.486
1809 0 102.449 13.3628 1369 99.2374 209.241 467.711
1810 0 109.533 15.9404 1746 93.1913 207.987 464.238
1811 1 63.3952 9.02276 572 95.201 207.301 489.306
1812 0 64.1947 11.4651 736 91.1943 206.31 488.304
1813 0 63.3571 11.4273 724 96.4088 205.971 481.595
1814 0 67.2644 13.7368 924 90.9362 204.781 481.092
1815 0 69.317 13.9071 964 91.5996 204.759 478.218
1816 0 71.4654 12.7474 911 92.9089 203.829 475.263
1817 0 73.2064 13.1273 961 92.6889 204.459 472.245
1818 0 75.3915 13.0784 986 92.932 204.026 468.94
1819 0 78.4998 14.4969 1138 90.6995 204.056 467.138
1820 0 81.3969 14.2389 1159 91.6721 205.267 466.679
1821 0 85.3366 14.4604 1234 91.1823 206.657 466.891
1822 0 84.467 14.041 1186 93.9014 208.234 465.008
1823 0 90.4319 15.2159 1376 91.3328 210.564 464.526
1824 0 93.5057 13.5393 1266 95.5237 212.579 463.26
1825 0 97.1823 14.7866 1437 93.6667 215.046 462.171
1826 1 56.218 12.5761 707 91.4936 216.201 486.116
1827 0 56.1416 12.4506 699 93.9499 217.858 484.471
1828 0 60.2637 11.3999 687 96.3843 218.672 482.891
1829 0 63.2663 11.9179 754 94.4244 217.78 483.39
1830 0 64.2556 12.4036 797 93.9084 217.518 485.312
1831 0 68.2512 12.9668 885 93.8644 217.27 483.948
1832 0 73.1588 16.1703 1183 87.2604 215.962 484.941
1833 0 74.2328 15.1685 1126 90.9831 214.44 481.88
1834 0 79.1818 14.1825 1123 92.9118 213.276 482.85
1835 0 81.307 14.1685 1152 94.2821 211.832 479.867
1836 0 84.4118 14.678 1239 93.8975 210.529 476.791
1837 0 88.2189 14.8494 1310 94.7802 209.279 475.204
1838 0 88.3256 14.2314 1257 98.2975 208.15 467.045
1839 0 94.718 15.0552 1426 96.756 207.001 468.635
1840 0 96.4022 15.3109 1476 98.2629 205.654 466.53
1841 0 100.381 14.5048 1456 99.3894 205.204 463.396
1842 0 105.44 15.8385 1670 96.7545 205.108 458.766
1843 0 107.372 15.3764 1651 99.8298 204.52 455.443
1844 0 114.568 16.8983 1936 96.5026 204.58 455.543
1845 1 62.238 9.11019 567 102.864 205.085 478.501
1846 0 63.536 11.3322 720 102.001 205.319 473.136
1847 0 68.3145 11.8277 808 101.024 206.146 472.459
1848 0 71.6186 13.6138 975 99.08 207.555 470.193
1849 0 72.448 13.0024 942 99.3747 208.769 470.295
1850 0 76.387 14.3087 1093 97.1802 209.733 468.132
1851 0 79.4572 14.448 1148 96.6646 211.028 467.871
1852 0 81.737 15.0605 1231 96.225 213.145 464.31
1853 0 86.4759 15.0446 1301 96.8017 214.849 464.814
1854 0 87.4305 14.4343 1262 99.2139 215.876 462.582
1855 0 94.4473 14.7913 1397 96.6929 217.071 465.838
1856 0 96.4597 13.8296 1334 99.1259 217.798 462.858
1857 0 100.444 13.9481 1401 98.8351 217.951 461.749
1858 0 105.569 14.2371 1503 97.9953 218.347 461.629
1859 0 109.516 13.7058 1501 100.325 217.606 457.24
1860 0 115.564 15.4979 1791 95.9749 216.395 458.81
1861 0 120.536 15.1075 1821 96.978 215.522 456.851
1862 0 123.517 13.1399 1623 100.813 214.839 455.354
1863 0 131.597 15.2815 2011 96.1427 213.112 450.424
1864 1 73.3598 10.1418 744 99.0148 211.751 480.618
1865 0 79.4512 10.5474 838 99.2351 210.279 476.494
1866 0 82.4502 11.9709 987 96.2776 208.721 473.526
1867 0 85.5665 12.5984 1078 94.0835 207.878 472.191
1868 1 15.0125 6.32805 95 77.7684 204.432 506.211
1869 0 13.0025 5.76812 75 76.7867 203.68 505.453
1870 0 15.0081 7.32937 110 76.3727 203.1 503.627
1871 0 23.0242 5.86339 135 78.3778 203.133 498.978
1872 0 13.0019 4.92237 64 77.7656 202.609 501.406
1873 1 100.453 13.2401 1330 97.7662 206.55 451.892
1874 0 104.263 13.6386 1422 97.6575 206.411 454.366
1875 0 105.261 13.9368 1467 98.2018 206.813 450.477
1876 0 109.246 14.3346 1566 98.2414 206.893 448.492
1877 0 114.371 14.8376 1697 97.1326 207.193 449.335
1878 0 115.398 15.3816 1775 97.2434 208.337 446.768
1879 0 117.263 14.4803 1698 100.386 210.495 444.656
1880 0 124.306 15.494 1926 96.19 212.814 445.882
1881 0 129.36 15.7082 2032 97.7323 214.162 439.967
1882 0 134.277 15.9968 2148 98.2118 216.021 439.032
1883 0 139.361 15.8724 2212 99.3608 217.656 439.199
1884 0 132.436 11.4999 1523 106.209 218.02 450.356
1885 1 87.3077 12.0722 1054 98.1138 218.911 470.831
1886 0 93.1971 11.5132 1073 99.3793 217.854 469.493
1887 0 97.2869 11.5226 1121 99.8769 217.332 467.703
1888 0 102.4 13.2813 1360 98.3507 216.534 462.982
1889 0 105.285 12.1385 1278 101.808 214.842 462.291
1890 0 111.375 13.7553 1532 98.1136 213.86 463.008
1891 0 117.399 13.995 1643 99.3761 212.198 457.479
1892 0 120.376 14.1307 1701 99.254 210.717 454.277
1893 0 126.54 14.4381 1827 97.468 209.568 453.337
1894 0 132.335 14.3953 1905 97.9449 207.885 448.542
1895 0 137.452 13.612 1871 98.612 207.072 445.335
1896 1 82.2292 8.54928 703 98.9929 206.001 472.656
1897 0 85.2409 10.3002 878 98.0718 205.295 467.772
1898 1 13.0016 6.46075 84 80.3571 204.131 501.833
1899 0 17.008 3.70415 63 82.9206 206.079 500.381
1900 0 17.0157 7.05229 120 78.1083 206.25 499.275
1901 0 16.0462 6.97984 112 77.625 206.946 499.018
1902 0 17.0052 6.93905 118 74.9746 207.22 499.161
1903 0 18.0168 6.82696 123 76.7724 207.472 497.626
1904 0 18.004 9.55342 172 71.6919 205.965 497.849
1905 0 14.0068 8.13892 114 72.7018 205.851 498.991
1906 0 14.0329 4.70324 66 78.3939 207.394 498.576
1907 0 15.0032 5.66544 85 76.6588 209.388 497.447
1908 0 15.0334 4.19068 63 74.7778 211.238 502.603
1909 0 12.087 9.76257 118 72.9576 212.712 501.814
1910 0 16.0114 9.80552 157 72.5732 215.975 503.49
1911 0 15.0033 5.1322 77 76.4675 219.649 504.831
1912 0 14.0109 3.64003 51 80.3529 220.235 505.157
1913 0 20.0055 5.99836 120 75.3833 220.475 507.342
1914 0 14.0024 3.21374 45 80.2889 219.667 509.089
1915 0 17.0096 7.52517 128 73.5547 219.625 509.492
1916 1 99.5145 12.5208 1246 92.3555 217.152 465.864
1917 0 102.583 13.4037 1375 91.8378 215.671 464.61
1918 0 106.427 14.2445 1516 91.1695 214.779 464.619
1919 0 107.375 12.5914 1352 95.4172 213.332 463.387
1920 0 110.434 12.478 1378 95.397 211.427 464.163
1921 0 116.464 14.1761 1651 91.9364 209.795 458.677
1922 0 120.535 13.6309 1643 92.5928 208.101 457.859
1923 0 123.315 12.9424 1596 94.5877 207.558 455.774
1924 0 127.422 13.4671 1716 92.2413 206.03 450.352
1925 0 129.484 12.4726 1615 94.1536 205.163 444.002
1926 0 133.491 12.233 1633 94.8494 204.489 440.735
1927 1 82.2557 10.8442 892 87.2601 205.174 470.928
1928 0 85.2886 9.48544 809 89.3523 205.19 469.606
1929 0 87.5569 11.1813 979 91.5516 205.415 466.583
1930 0 90.465 12.6568 1145 89.7624 205.546 462.686
1931 0 92.3426 13.3633 1234 89.3874 207.041 462.873
1932 0 94.4867 12.2345 1156 93.2137 206.92 458.578
1933 0 99.2939 12.7198 1263 91.5891 208.184 460.573
1934 0 101.49 12.2081 1239 93.8321 209.048 457.887
1935 0 103.527 12.7117 1316 94.152 209.722 452.74
1936 0 108.515 11.0031 1194 97.191 211.717 452.421
1937 0 112.427 12.7727 1436 94.4965 212.904 450.377
1938 0 115.462 13.381 1545 94.0434 214.232 451.195
1939 0 117.648 12.8349 1510 96.6411 215.903 448.674
1940 0 125.484 12.91 1620 95.7389 216.553 449.519
1941 0 129.461 11.6096 1503 98.3779 216.391 449.88
1942 1 78.2407 9.7903 766 93.7376 217.273 477.324
1943 0 77.2306 11.1873 864 92.2234 216.62 478.317
1944 0 84.2528 12.688 1069 88.5921 214.704 478.258
1945 0 87.3015 12.5084 1092 89.9918 213.465 474.479
1946 0 92.5723 13.9675 1293 86.0294 210.052 477.795
1947 0 94.7789 12.3023 1166 91.6518 208.77 475.848
1948 0 99.6902 14.1538 1411 88.6719 207.422 471.033
1949 0 102.759 13.4295 1380 90.5217 205.933 467.076
1950 0 105.408 13.8699 1462 89.5985 204.528 467.266
1951 1 60.6106 9.66828 586 91.1911 203.439 488.106
1952 0 62.348 8.62898 538 93.777 202.615 483.885
1953 0 65.4548 12.0388 788 87.0571 201.197 482.662
1954 0 68.541 13.1308 900 86.4822 201.537 478.513
1955 0 72.3624 13.2527 959 86.609 199.854 477.227
1956 0 72.2181 12.9607 936 88.3088 203.434 477.069
1957 0 74.2331 12.1779 904 90.3938 202.76 473.493
1958 0 76.26 11.9722 913 90.1763 202.519 473.738
1959 0 80.2476 12.935 1038 89.7524 200.742 469.385
1960 0 83.2793 13.4607 1121 89.0883 201.609 470.047
1961 0 86.3394 14.0145 1210 88.5364 202.097 467.875
1962 0 88.2882 14.1129 1246 88.9478 203.918 467.214
1963 0 90.3434 13.8804 1254 91.3445 205.919 461.248
1964 0 92.5905 12.8199 1187 93.3244 208.31 461.08
1965 0 98.3478 13.3709 1315 90.6829 210.366 461.967
1966 0 100.309 15.1631 1521 88.8192 211.581 459.181
1967 0 104.452 13.614 1422 91.7961 211.706 459.47
1968 0 109.388 14.4166 1577 90.3836 212.405 459.872
1969 0 113.38 14.35 1627 91.6208 211.693 458.271
1970 0 116.456 13.3269 1552 94.6289 211.521 455.616
1971 1 70.1488 9.20899 646 91.2663 209.642 483.147
1972 0 73.1153 10.6681 780 90.2231 209.732 483.042
1973 0 73.1312 12.0195 879 91.6667 208.39 477.057
1974 0 80.2642 13.9415 1119 86.6327 207.682 486.174
1975 0 81.3217 14.7316 1198 84.1603 207.85 477.725
1976 0 83.4059 13.764 1148 86.2352 205.916 478.399
1977 0 85.2977 13.6815 1167 88.1465 205.286 475.218
1978 0 90.3775 13.3662 1208 88.3949 203.923 473.452
1979 0 92.3602 13.3283 1231 90.2413 202.963 466.802
1980 0 95.3568 13.8952 1325 88.6181 202.957 466.303
1981 0 100.385 13.4282 1348 88.1758 202.085 463.74
1982 0 105.306 14.6335 1541 86.6892 202.857 460.969
1983 0 110.365 15.2495 1683 84.8081 202.232 458.526
1984 0 110.317 14.0414 1549 88.0013 201.467 455.425
1985 0 115.226 15.6475 1803 85.528 202.708 452.884
1986 0 117.321 14.2601 1673 88.3389 202.786 452.971
1987 0 121.292 14.8567 1802 88.2642 204.203 450.39
1988 1 69.1366 11.6581 806 88.3437 205.038 475.475
1989 0 73.1911 11.5178 843 86.2218 206.355 472.622
1990 0 76.116 11.8241 900 84.0244 207.007 474.038
1991 0 79.0591 12.1428 960 84.7635 208.648 469.541
1992 0 82.1803 11.852 974 84.7012 212.351 473.547
1993 0 84.2034 12.4936 1052 85.2975 214.329 471.855
1994 0 89.1957 14.7429 1315 82.1711 215.637 472.379
1995 0 93.2064 14.6986 1370 82.7642 215.655 469.562
1996 0 96.2103 13.4081 1290 84.2969 215.406 471.484
1997 0 101.254 14.5377 1472 82.5299 215.778 465.196
1998 0 105.3 12.0798 1272 85.7697 213.543 470.044
1999 0 110.516 14.5952 1613 82.0868 212.423 467.996
2000 0 114.43 14.6203 1673 82.7376 211.446 464.677
2001 0 119.554 14.8887 1780 82.9674 210.63 463.452
2002 0 122.474 13.6437 1671 85.5978 209.804 461.806
2003 0 126.33 13.0452 1648 86.5328 207.79 455.941
2004 0 133.47 16.0036 2136 81.0351 206.675 453.492
2005 0 135.334 13.6772 1851 85.94 205.402 448.895
2006 1 82.2314 11.0663 910 85.0692 204.696 471.006
2007 0 88.2085 13.5021 1191 81.2309 204.479 469.472
2008 0 91.1766 14.1374 1289 79.3444 203.674 463.499
2009 0 89.2075 12.1963 1088 83.6967 203.211 458.248
2010 0 95.1918 14.455 1376 80.0676 202.952 460.511
2011 0 98.1561 13.7128 1346 80.7184 202.95 457.226
2012 0 101.318 11.5379 1169 84.3174 203.013 455.94
2013 0 105.196 13.0043 1368 82.3348 203.889 454.495
2014 0 112.336 15.329 1722 80.8891 205.844 455.406
2015 0 114.26 13.6706 1562 84.694 206.746 451.465
2016 0 117.245 14.653 1718 82.9191 207.128 446.285
2017 0 122.383 13.9643 1709 83.5594 207.695 447.073
2018 0 124.613 13.6904 1706 85.687 209.273 443.946
2019 1 72.3075 10.3585 749 85.5955 211.681 476.166
2020 0 75.3771 11.5818 873 84.4353 213.26 474.402
2021 0 77.4959 12.3877 960 83.5146 214.717 473.765
2022 0 82.2448 14.6392 1204 78.8605 214.934 474.057
2023 0 83.2215 13.0014 1082 82.8253 215.356 473.018
2024 0 87.4967 14.1834 1241 81.4053 215.949 473.193
2025 0 90.3988 13.3077 1203 83.9044 214.874 473.685
2026 0 96.5876 15.5921 1506 80.5564 214.101 471.238
2027 0 98.6084 15.1103 1490 83.4101 213.194 473.107
2028 0 104.428 15.7047 1640 82.853 212.529 470.458
2029 0 107.504 15.2924 1644 84.3455 211.242 465.748
2030 0 112.52 14.9485 1682 85.1528 210.273 464.09
2031 0 114.567 12.5953 1443 89.5087 208.759 461.421
2032 1 68.2775 10.3695 708 87.3573 206.602 484.757
2033 0 67.1888 11.7133 787 86.5438 205.973 481.554
2034 0 70.3073 10.2123 718 89.4889 204.354 478.909
2035 0 74.1623 10.4096 772 88.2772 203.179 476.51
2036 0 75.1484 11.617 873 86.1386 202.126 475.246
2037 0 77.1983 10.5443 814 85.8268 202.765 475.403
2038 0 78.1144 11.1375 870 88.7816 202.552 465.557
2039 0 82.2393 12.9865 1068 84.9831 202.232 465.94
2040 0 83.1015 13.1887 1096 85.2372 203.81 465.862
2041 0 86.2391 12.7204 1097 86.5953 205.078 460.683
2042 0 91.3243 15.6804 1432 82.9756 205.643 465.529
2043 0 93.1911 14.1537 1319 85.8484 206.75 465.306
2044 0 98.2211 14.9764 1471 85.2692 207.649 461.358
2045 0 101.205 15.6021 1579 85.197 209.64 459.242
2046 0 104.32 14.7527 1539 86.4113 211.787 463.158
2047 0 108.284 14.2034 1538 88.1352 214.179 459.709
2048 0 112.225 14.8273 1664 87.5 214.653 457.645
2049 0 116.358 13.192 1535 90.6391 215.96 456.771
2050 0 123.363 14.3641 1772 88.6253 216.695 458.28
2051 0 124.444 13.8376 1722 91.7712 216.442 455.492
2052 0 133.481 15.8299 2113 88.0218 215.689 450.157
2053 1 80.1786 9.46637 759 90.1146 213.92 487.945
2054 0 81.157 11.3853 924 87.7771 215.33 486.588
2055 0 84.2741 11.4151 962 87.4283 213.726 484.804
2056 0 87.155 12.7818 1114 87.3007 212.101 482.216
2057 0 91.1823 13.0837 1193 87.5063 210.831 478.2
2058 0 97.2573 14.6724 1427 85.0084 208.957 478.182
2059 0 99.3514 13.3063 1322 87.6505 207.881 473.774
2060 0 105.231 15.1572 1595 84.358 206.574 470.808
2061 0 107.319 13.3994 1438 88.2677 204.85 468.969
2062 0 111.299 15.0136 1671 86.0353 203.535 465.059
2063 0 115.527 14.819 1712 86.476 202.739 462.664
2064 0 120.436 15.7843 1901 85.4366 202.361 457.429
2065 0 123.405 16.7416 2066 83.3054 202.258 459.924
2066 0 125.416 16.0027 2007 85.9711 202.251 454.91
2067 0 130.375 15.0336 1960 87.4515 203.168 448.392
2068 1 73.4945 11.6199 854 84.8126 203.385 479.913
2069 0 79.5319 12.7496 1014 85.5848 203.877 477.69
2070 0 81.5409 11.2336 916 88.9662 205.418 476.542
2071 0 83.5005 11.3173 945 90.1862 205.023 475.228
2072 0 87.5002 12.6857 1110 88.7036 206.477 475.866
2073 0 89.4409 13.6627 1222 87.5221 207.698 474.021
2074 0 91.7209 14.2388 1306 87.9992 209.457 472.967
2075 0 97.3455 14.5872 1420 86.8873 210.717 473.001
2076 0 100.377 15.0334 1509 86.4016 211.239 472.284
2077 0 107.359 15.9279 1710 84.631 212.33 471.875
2078 0 107.366 13.3562 1434 90.6213 212.797 469.103
2079 0 113.419 14.6889 1666 87.9292 212.804 469.6
2080 0 117.55 15.134 1779 86.8758 211.614 470.114
2081 0 124.29 15.6408 1944 85.8302 211.42 468.039
2082 0 128.424 15.7603 2024 86.0731 210.625 462.122
2083 0 134.492 17.7854 2392 82.4682 209.583 464
2084 0 140.554 16.9827 2387 84.209 208.346 457.806
2085 1 78.1681 12.2173 955 87.3853 207.05 490.096
2086 0 80.2413 11.6025 931 87.6466 205.285 489.15
2087 0 83.1596 12.1333 1009 87.1209 204.584 482.282
2088 0 87.2052 13.8639 1209 84.8296 203.719 478.358
2089 0 89.1098 15.8007 1408 83.0412 201.942 473.783
2090 0 92.0692 17.2588 1589 80.2259 201.094 474.023
2091 0 97.181 15.2087 1478 83.343 201.117 470.898
2092 0 100.132 16.8977 1692 80.1489 201.512 469.314
2093 0 102.207 14.4805 1480 85.6142 201.431 464.554
2094 0 106.191 13.8524 1471 87.3902 202.577 463.026
2095 0 108.142 14.5549 1574 87.1804 203.431 459.461
2096 0 113.162 16.5868 1877 82.9339 203.528 455.993
2097 0 118.134 15.0676 1780 85.6331 204.332 454.489
2098 0 119.259 14.5231 1732 87.1518 205.518 452.74
2099 0 124.197 16.3128 2026 84.9067 205.956 448.184
2100 0 130.16 16.3414 2127 84.2572 206.915 450.516
2101 0 134.28 15.6315 2099 85.9814 208.919 445.858
2102 0 138.264 14.2119 1965 88.5858 211.541 445.307
2103 1 77.2972 11.2941 873 87.7239 213.069 477.357
2104 0 79.1156 13.2717 1050 85.2143 214.652 476.667
2105 0 82.1891 11.2424 924 88.0422 215.722 478.482
2106 0 84.0979 12.4141 1044 87.8688 216.911 475.571
2107 0 89.2071 14.0123 1250 84.6736 217.264 469.926
2108 0 93.3035 14.8226 1383 84.7173 216.485 466.661
2109 0 96.3322 14.1801 1366 85.164 215.833 464.372
2110 0 100.309 15.3426 1539 85.1131 215.65 467.297
2111 0 102.275 15.028 1537 86.1705 215.275 466.708
2112 0 108.447 15.1225 1640 84.8915 213.746 466.491
2113 0 112.318 15.1 1696 85.8078 212.784 461.469
2114 0 114.449 14.9586 1712 86.4048 210.639 457.492
2115 0 120.359 15.5036 1866 85.0252 209.341 457.676
2116 0 127.621 15.5696 1987 84.7831 207.895 453.006
2117 0 129.324 15.7821 2041 85.2852 206.882 449.645
2118 0 134.426 15.4806 2081 86.4858 205.988 446.114
2119 0 141.452 15.666 2216 86.5199 205.681 443.421
2120 0 146.265 16.2445 2376 86.8241 205.498 436.12
2121 0 151.581 17.8254 2702 85.2591 205.311 431.784
2122 1 88.3422 11.8403 1046 89.6061 205.772 467.434
2123 0 92.2481 12.6398 1166 90.2521 205.546 462.747
2124 0 96.1866 12.5485 1207 90.5924 205.452 462.729
2125 0 99.1862 15.97 1584 86.5101 205.874 457.262
2126 0 101.329 13.6979 1388 88.4863 206.147 453.628
2127 0 106.265 16.0448 1705 84.9144 206.588 454.97
2128 0 108.206 15.6183 1690 87.5752 208.318 453.057
2129 0 111.265 15.2069 1692 89.8056 210.434 452.095
2130 0 114.332 15.1664 1734 89.8085 212.577 452.196
2131 0 122.445 15.9501 1953 88.4869 213.851 451.635
2132 0 122.374 14.6764 1796 93.343 215.769 449.909
2133 0 127.425 14.33 1826 94.4808 217.088 448.314
2134 0 134.161 16.8753 2264 90.4364 217.376 445.962
2135 1 83.2311 11.6903 973 91.0236 217.323 480.85
2136 0 84.3368 11.6201 980 93.5031 216.54 479.113
2137 0 89.4634 13.8381 1238 90.8821 216.788 476.559
2138 0 94.2477 14.8014 1395 87.9319 214.705 476.795
2139 0 98.4506 14.3219 1410 89.0071 213.655 477.929
2140 0 101.374 14.1555 1435 90.6787 212.364 475.934
2141 0 107.546 13.9196 1497 86.8063 210.822 469.593
2142 0 111.758 16.0436 1793 84.3519 209.055 467.735
2143 0 115.435 15.0301 1735 86.4951 206.923 462.448
2144 0 119.393 15.4113 1840 88.0294 205.97 458.881
2145 0 124.827 17.0075 2123 84.1564 204.971 457.302
2146 0 128.787 16.011 2062 86.3899 204.106 453.37
2147 1 75.9634 12.4534 946 86.3943 203.934 483.226
2148 0 76.9139 13.2486 1019 86.5761 203.273 478.943
2149 0 79.4777 14.0794 1119 88.6282 204.329 473.965
2150 0 83.7051 14.9573 1252 87.5958 205.742 470.96
2151 0 85.5238 14.9432 1278 89.3099 205.676 466.486
2152 0 88.5606 15.7971 1399 88.1508 205.623 466.218
2153 0 91.4458 15.069 1378 89.9419 205.795 462.719
2154 0 96.7099 16.6787 1613 86.0434 206.496 462.473
2155 0 96.4715 15.7041 1515 89.6779 206.343 458.415
2156 0 102.775 16.0836 1653 88.3376 207.25 460.136
2157 0 104.683 15.0167 1572 91.8028 208.18 456.905
2158 0 110.739 15.1979 1683 91.2383 209.345 456.455
2159 0 111.392 14.7676 1645 93.5514 211.565 456.512
2160 0 114.736 14.8079 1699 94.834 212.974 454.833
2161 0 119.562 14.6869 1756 93.1993 214.103 454.097
2162 0 125.569 16.0948 2021 90.662 215.69 453.885
2163 0 127.64 14.8622 1897 94.9383 216.718 451.139
2164 0 136.648 17.1975 2350 90.5328 217.241 449.896
2165 1 77.7422 12.4643 969 95.742 217.317 480.462
2166 0 79.6066 13.328 1061 94.9925 216.606 480.895
2167 0 84.6761 14.644 1240 93.4177 215.615 479.917
2168 0 86.5902 15.8217 1370 92.9635 214.535 476.189
2169 0 89.7358 16.4371 1475 91.6319 212.901 475.818
2170 0 92.7272 16.8559 1563 91.9021 211.407 473.869
2171 0 96.6004 15.9627 1542 93.1459 209.98 472.864
2172 0 98.6203 16.0312 1581 94.1417 208.398 469.855
2173 0 101.142 15.9578 1614 94.9486 207.16 468.551
2174 0 104.677 18.6096 1948 90.0739 205.854 465.102
2175 1 59.5758 12.6394 753 98.83 206.482 485.829
2176 0 62.3096 12.8391 800 100.791 206.739 481.604
2177 0 64.3189 14.6613 943 97.3446 207.265 481.488
2178 0 65.3041 14.8076 967 99.3454 207.051 477.119
2179 0 69.5402 15.2142 1058 96.6182 207.327 476.162
2180 0 69.5433 14.2789 993 100.812 208.166 474.033
2181 0 73.3138 16.4498 1206 95.9444 208.691 474.97
2182 0 72.3138 15.3083 1107 100.432 208.881 472.144
2183 0 78.2524 16.5234 1293 96.6674 209.302 472.23
2184 0 80.2612 17.0817 1371 96.0883 210.647 472.683
2185 0 81.3176 15.5932 1268 100.389 211.953 469.696
2186 0 86.2461 16.279 1404 98.7528 213.717 471.185
2187 0 87.2198 16.8998 1474 99.0061 215.271 469.988
2188 0 90.2492 16.3104 1472 100.328 216.605 469.171
2189 0 94.3428 15.8465 1495 101.425 218.116 468.612
2190 0 99.2482 17.1993 1707 97.0141 219.252 468.613
2191 0 102.276 16.9443 1733 98.6919 219.591 467.9
2192 0 106.199 16.921 1797 98.8681 219.636 467.753
2193 0 111.272 17.1831 1912 97.6255 219.449 464.058
2194 0 117.207 16.3898 1921 98.8444 218.158 465.589
2195 0 121.361 16.9165 2053 97.151 216.725 463.547
2196 0 125.272 16.053 2011 99.7728 215.799 459.246
2197 1 60.1243 12.6904 763 97.2162 214.476 492.257
2198 0 64.1058 12.1674 780 96.4949 212.465 491.092
2199 0 66.1352 14.8484 982 93.9756 211.357 489.449
2200 0 67.0524 14.0487 942 96.1008 210.312 486.58
2201 0 68.1279 12.9462 882 93.6338 208.72 483.561
2202 0 70.0837 13.7835 966 92.4006 208.096 481.62
2203 0 75.1863 15.9471 1199 92.0676 207.349 479.136
2204 0 75.1403 14.0936 1059 97.3418 207.198 474.812
2205 0 79.1748 14.8911 1179 95.6438 206.956 473.534
2206 0 82.1408 15.2908 1256 93.9268 206.503 472.125
2207 0 85.1652 15.7224 1339 95.8185 207.364 468.294
2208 1 49.0469 8.11467 398 97.2362 207.128 488.106
2209 0 52.0501 10.4515 544 95.6066 207.54 484.829
2210 0 54.1679 11.2428 609 95.5189 207.864 481.315
2211 0 59.2817 13.1913 782 90.2545 208.064 482.88
2212 0 62.0671 12.9859 806 90.5571 210.04 483.421
2213 0 60.1719 12.1818 733 94.8786 211.72 480.348
2214 0 63.2229 11.5781 732 96.1516 213.205 481.104
2215 0 68.2297 12.6631 864 95.2326 215.307 479.311
2216 0 70.1588 14.1536 993 93.6103 216.749 479.395
2217 0 72.243 13.0947 946 94.223 218.123 481.442
2218 0 73.2137 13.1533 963 94.7975 218.132 481.594
2219 0 75.2688 13.3389 1004 96.1524 218.96 482.263
2220 0 77.1374 12.3157 950 99.5695 218.392 480.133
2221 0 81.2304 14.3912 1169 95.6082 217.398 481.47
2222 0 86.1759 14.8998 1284 95.021 216.748 478.97
2223 0 88.1381 14.2731 1258 96.7011 215.117 478.353
2224 0 92.1997 14.794 1364 96.1899 213.67 474.894
2225 0 94.1784 13.9735 1316 98.2394 211.721 473.189
2226 0 98.2537 15.4294 1516 95.1906 210.058 470.242
2227 0 99.1743 11.8882 1179 100.916 208.709 468.895
2228 0 107.201 13.7686 1476 97.3462 208.087 463.446
2229 1 65.062 10.1134 658 90.4149 205.968 488.62
2230 0 68.1566 9.34612 637 93.2606 204.892 482.904
2231 0 72.3049 11.0919 802 87.7182 204.924 483.418
2232 0 72.1171 11.7587 848 88.8042 204.274 478.597
2233 0 77.1389 12.4969 964 88.3236 204.407 474.937
2234 0 78.2968 13.6149 1066 87.3809 204.178 471.679
2235 0 79.2706 10.1677 806 93.1005 204.588 469.543
2236 0 81.1142 11.7612 954 90.544 205.744 466.135
2237 1 15.0026 7.99859 120 72.4 206.533 503.392
2238 0 13.0037 6.3059 82 75.4146 208.171 503.646
2239 0 20.1074 6.51501 131 75.2824 208.344 501.893
2240 0 15.0316 5.58823 84 77.0119 209.738 503.595
2241 0 15.008 4.93069 74 78.2568 211.311 503.568
2242 0 16.0427 7.10605 114 75.8509 213.193 505.298
2243 0 18.0092 5.49718 99 79.6162 214.313 504.556
2244 0 20.0378 9.03294 181 75.5249 215.834 505.215
2245 0 18.0734 6.8609 124 77.0242 217.613 508.081
2246 0 18.1305 5.51556 100 78.94 217.28 509
2247 0 20.1157 9.39566 189 75.5608 218.037 509.243
2248 0 19.1417 8.14974 156 76.0705 217.808 511.776
2249 0 19.0449 7.82361 149 73.0201 217.785 513.584
2250 1 85.4872 9.77924 836 84.1734 215.321 485.921
2251 0 87.5871 10.9834 962 84.5717 214.159 481.156
2252 0 90.3908 11.5277 1042 85.0528 212.804 476.999
2253 0 95.6228 12.246 1171 84.0256 210.962 474.987
2254 0 100.62 14.8082 1490 81.5181 209.391 473.792
2255 1 20.299 7.14321 145 76.4483 210.4 511.69
2256 0 17.091 7.48932 128 77.7969 209.961 508.445
2257 0 18.1642 8.36813 152 76.4934 209.178 508.388
2258 0 19.1654 7.30484 140 75.8214 208.264 506.779
2259 0 16.042 7.66736 123 77.5366 208.033 504.472
2260 0 21.323 7.83192 167 74.8144 206.994 504
2261 0 20.1678 8.03259 162 76 207.605 503.056
2262 0 23.1505 4.40596 102 78.0882 208.235 502.569
2263 0 19.0627 7.97367 152 76.9276 207.493 499.474
2264 0 22.2013 7.83737 174 76.2644 207.293 498.868
2265 0 22.1647 9.06846 201 74.3085 209.328 498.144
2266 0 22.2732 7.94676 177 75.2429 211.079 499.333
2267 0 22.1323 10.2565 227 71.7313 211.841 499.308
2268 0 20.1862 9.61051 194 74.3299 213.196 499.072
2269 0 18.0128 8.93807 161 76.7453 215.317 500.068
2270 0 24.2377 10.8509 263 71.3232 215.973 500.627
2271 0 31.2293 8.70977 272 76.2574 217.79 496.772
2272 0 23.2106 8.05667 187 74.4011 218.738 502.647
2273 0 18.0254 5.38129 97 80.866 219.443 504.268
2274 0 19.0051 8.57666 163 76.2945 220.399 506.012
2275 0 19.0029 7.36731 140 77.1071 221.543 507.864
2276 0 17.0086 7.46679 127 75.6457 222.008 511.598
2277 0 19.0393 7.14311 136 75.7574 221.529 511.015
2278 0 17.0176 9.4608 161 75.7391 219.366 511.025
2279 1 226.627 14.9056 3378 93.1522 215.989 407.069
2280 1 56.5017 9.84041 556 78.7734 215.838 498.133
2281 0 53.2742 10.0612 536 78.4478 213.399 496.121
2282 0 57.1413 11.6728 667 76.7421 211.618 489.928
2283 0 57.4051 12.0895 694 78.6628 209.673 490.127
2284 0 61.3568 12.1095 743 78.6972 208.739 490.046
2285 0 62.3412 12.8486 801 78.809 208.147 486.016
2286 0 64.28 12.8656 827 78.0133 207.066 484.626
2287 0 66.2415 13.2998 881 77.849 206.379 480.25
2288 0 67.1776 12.9061 867 79.1038 207.255 478.271
2289 0 69.3827 11.9771 831 79.2106 207.304 477.276
2290 0 72.2501 13.6194 984 77.5346 207.302 473.895
2291 0 75.3124 14.0349 1057 76.8382 207.863 471.458
2292 0 76.359 13.4889 1030 78.4058 207.52 469.287
2293 0 79.4261 14.0886 1119 77.8499 207.685 466.002
2294 0 80.5188 14.1954 1143 78.8311 208.721 465.311
2295 0 83.3644 14.9104 1243 77.6235 209.562 466.389
2296 0 84.4255 13.4675 1137 80.2401 210.98 465.151
2297 0 87.409 13.1451 1149 82.2141 212.891 461.189
2298 0 89.5401 14.5298 1301 80.9339 214.577 464.072
2299 0 91.3925 14.3666 1313 82.6329 216.613 459.57
2300 0 98.4447 14.1094 1389 82.2239 217.338 462.218
2301 0 99.4975 14.533 1446 82.1307 218.972 462.464
2302 0 102.571 14.2536 1462 82.7777 218.973 461.665
2303 0 109.646 16.7266 1834 78.4547 219.533 458.011
2304 0 108.664 12.7733 1388 86.0605 219.9 456.541
2305 1 121.757 18.9968 2313 73.5227 218.593 454.082
2306 0 123.377 17.8396 2201 76.508 217.805 455.407
2307 0 122.575 14.0078 1717 84.2068 216.944 458.264
2308 0 127.629 16.1719 2064 81.1032 214.891 456.999
2309 0 132.575 15.5006 2055 82.7392 213.37 454.346
2310 0 136.625 13.7822 1883 85.1737 212.024 452.252
2311 0 140.848 13.2057 1860 86.0457 210.503 447.927
2312 0 148.704 15.8772 2361 82.0805 208.73 444.015
2313 0 154.726 15.5759 2410 83.232 207.18 439.641
2314 0 159.567 16.9208 2700 82.6633 206.568 431.82
2315 0 165.647 19.1069 3165 79.7058 206.337 430.766
2316 0 170.637 15.6004 2662 85.9057 206.322 427.43
2317 0 177.7 15.8244 2812 85.798 205.752 420.706
2318 0 183.609 16.5678 3042 84.9057 205.042 414.457
2319 0 191.894 15.6597 3005 87.0037 206.185 412.582
2320 1 142.657 13.0243 1858 90.9386 207.025 442.802
2321 0 147.431 15.5734 2296 88.7552 208.103 431.63
2322 0 152.585 16.096 2456 88.1002 209.248 428.842
2323 0 156.306 15.9943 2500 89.0864 210.498 429.072
2324 0 162.457 15.0748 2449 91.1936 211.745 428.512
2325 0 165.447 13.8715 2295 94.2828 213.455 427.996
2326 0 172.434 14.5911 2516 93.936 215.281 425.215
2327 0 178.436 14.8456 2649 93.7429 217.441 424.945
2328 0 185.515 16.8073 3118 90.7553 219.535 418.907
2329 0 191.509 16.2499 3112 91.8885 220.556 421.3
2330 0 201.511 15.4979 3123 92.9433 220.793 417.424
2331 1 51.2561 12.9155 662 90.068 221.344 488.503
2332 0 53.1563 12.5103 665 91.7609 220.314 488.218
2333 0 56.0911 13.7277 770 87.7844 220.019 490.265
2334 0 59.1703 14.1118 835 86.4958 218.447 491.62
2335 0 62.211 14.933 929 85.6448 216.858 490.121
2336 0 66.2587 14.4283 956 86.1088 215.289 489.288
2337 0 67.2089 13.8226 929 87.8558 213.752 485.412
2338 0 72.2044 13.6418 985 87.4355 212.881 485.014
2339 0 73.2438 14.9637 1096 86.417 211.162 480.284
2340 0 78.4006 14.4259 1131 87.13 209.981 479.009
2341 0 80.4121 14.6993 1182 87.5406 209.052 476.605
2342 0 85.2776 15.901 1356 86.354 207.879 472.726
2343 0 86.3607 14.2657 1232 89.5446 206.215 472.104
2344 0 89.4407 14.7584 1320 88.9083 206.264 468.052
2345 0 91.2571 12.1854 1112 94.9919 206.953 462.395
2346 0 98.3054 15.2382 1498 89.4506 207.1 462.509
2347 0 100.366 15.1744 1523 91.1957 207.286 460.183
2348 0 104.383 15.8359 1653 90.8143 206.904 457.078
2349 0 105.308 15.089 1589 94.2052 207.906 453.064
2350 0 109.249 15.1763 1658 95.1399 208.679 454.92
2351 0 113.469 15.5197 1761 95.2873 210.668 451.714
2352 0 118.395 14.4347 1709 98.5734 211.836 449.549
2353 0 120.228 12.9753 1560 102.155 214.017 447.887
2354 1 75.1821 10.1354 762 97.9396 215.386 476.735
2355 0 78.1748 12.8942 1008 94.4911 217.673 476.498
2356 0 80.2829 13.0414 1047 94.7173 218.692 476.395
2357 0 83.2388 12.6984 1057 94.79 218.545 476.481
2358 0 88.2359 13.8606 1223 93.7817 219.218 474.692
2359 0 91.3036 12.3763 1130 96.377 219.189 472.038
2360 0 95.2811 12.5733 1198 96.131 218.033 470.857
2361 0 102.431 13.7068 1404 93.7229 216.17 468.448
2362 0 108.303 13.6285 1476 93.7724 215.453 467.124
2363 0 109.267 12.1994 1333 97.823 213.563 463.353
2364 0 115.207 13.428 1547 94.4467 211.94 463.023
2365 0 121.281 13.8934 1685 95.178 210.12 457.39
2366 1 75.2495 10.0997 760 94.7118 209.704 481.503
2367 0 78.1579 12.4748 975 91.078 208.346 479.475
2368 0 80.2131 10.7588 863 93.7486 207.587 472.506
2369 0 82.2304 12.9149 1062 90.1949 207.194 474.313
2370 0 86.3152 12.8251 1107 92.252 207.831 470.177
2371 0 90.229 13.0778 1180 90.5534 206.824 467.314
2372 0 92.2977 13.3481 1232 90.3847 205.387 464.89
2373 0 95.1043 13.7428 1307 91.9885 206.213 463.077
2374 0 99.186 14.6694 1455 90.9175 206.551 461.957
2375 0 105.251 13.8812 1461 90.2649 205.638 457.717
2376 0 106.234 13.988 1486 91.8856 206.214 452.549
2377 0 109.209 13.5703 1482 93.5256 207.557 454.083
2378 0 112.2 15.1336 1698 91.9617 208.483 449.184
2379 0 118.201 14.8222 1752 93.0479 210.136 450.285
2380 0 121.299 14.2788 1732 94.9197 210.983 447.629
2381 0 123.467 14.9108 1841 96.5008 212.958 451.325
2382 0 130.313 14.3885 1875 96.568 214.906 446.19
2383 0 134.299 14.8847 1999 97.1206 216.759 445.712
2384 1 14.0012 7.99932 112 81.9196 215.598 508.482
2385 0 13.0034 7.69032 100 80.96 215.56 509.64
2386 0 14.0024 7.64154 107 79.0561 215.888 511.458
2387 0 17.0037 6.11631 104 82.7404 214.837 511.808
2388 0 18.0206 6.43706 116 83.0517 214.767 512.069
2389 0 17.0023 6.88144 117 81.1795 213.299 512.726
2390 0 16.0032 6.37373 102 82.3431 211.412 512.49
2391 0 14.0035 6.56976 92 77.9348 210.391 513.804
2392 0 13.006 6.61231 86 76.407 209.291 514.209
2393 0 11.0039 5.72526 63 77.7143 208.603 512.746
2394 0 8.00009 2.37497 19 79.421 206.316 512.632
2395 0 3 2 6 68.8333 205.167 509.5
2396 0 4 2.5 10 64.4 203.6 509.9
2397 0 2 3.5 7 54.7143 205.429 509
2398 0 0 0 3.7549e-322 -nan 451 -0.0347561
2399 0 0 0 0 -nan -nan -nan
2400 0 13.0013 6.07631 79 75.519 202.937 499.152
2401 0 12.0041 4.74836 57 73.3684 203.947 499.509
2402 0 13.0073 6.38106 83 72.7831 204.024 498.169
2403 0 14.0082 7.9239 111 68.7928 204.153 498.748
2404 0 15.0196 7.52352 113 71.9204 204.814 496.965
2405 0 10.005 4.29784 43 77.2093 206.256 496.767
2406 0 12.0055 5.99726 72 75.1944 206.875 496.847
2407 0 13.0008 8.0764 105 70.8381 208.705 497.543
2408 1 83.2897 13.279 1106 84.8861 213.26 464.183
2409 0 81.2531 9.57502 778 91.6298 214.913 464.246
2410 0 86.163 10.5962 913 90.3132 216.541 465.485
2411 0 85.1839 8.52273 726 92.9077 217.605 469.11
2412 0 89.0763 10.3507 922 89.5911 217.802 469.676
2413 0 93.1905 8.60603 802 89.9314 215.585 473.893
2414 0 96.5412 8.91847 861 92.8908 215.552 464.98
2415 0 101.341 9.78876 992 92.5726 214.801 465.964
2416 0 101.174 11.0799 1121 89.6485 213.748 469.326
2417 0 108.575 9.12731 991 92.3542 213.155 460.752
2418 0 110.421 9.57247 1057 85.614 211.823 468.415
2419 1 79.5978 10.2641 817 84.9853 210.211 481.053
2420 0 77.5712 9.2689 719 86.395 209.366 479.826
2421 0 76.2314 10.2189 779 84.5327 207.39 479.653
2422 0 78.2788 10.8714 851 82.3302 206.917 478.485
2423 1 26.0259 7.76151 202 76.0644 209.035 500.327
2424 0 23.029 7.64254 176 76.017 206.352 496.875
2425 0 19.022 5.04678 96 77.1458 204.542 497.479
2426 1 62.1637 10.5528 656 79.2591 205.692 482.215
2427 0 56.1298 9.94124 558 82.5968 205.815 476.36
2428 0 57.3237 10.2052 585 82.7607 206.154 467.53
2429 0 59.1766 12.0656 714 79.8053 207.06 456.878
2430 0 61.2521 11.5425 707 77.9519 208.277 443.225
2431 0 65.332 10.3472 676 79.7086 208.271 447.009
2432 0 68.2532 11.2815 770 78.5948 207.479 452.16
2433 0 73.3145 12.7806 937 76.4973 208.533 461.367
2434 0 69.0609 11.8157 816 79.4375 210.717 465.109
2435 0 74.1179 13.0333 966 78.97 212.624 467.051
2436 0 77.132 12.1091 934 80.8694 214.589 468.609
2437 1 92.942 17.2688 1605 66.929 216.308 458.788
2438 0 84.1185 15.4068 1296 76.5046 217.524 451.332
2439 0 87.1327 14.9427 1302 74.9094 218.126 443.69
2440 0 91.1554 16.3677 1492 73.2158 218.816 444.326
2441 1 36.042 9.48892 342 71.7719 218.111 481.333
2442 0 37.0614 6.39479 237 74.8439 217.688 485.949
2443 0 36.0646 7.79158 281 72.2847 216.281 492.317
2444 0 37.0328 9.15405 339 71.0944 215.705 489.705
2445 0 39.0689 10.4943 410 71.922 215.198 488.659
2446 0 40.052 10.5613 423 70.435 212.872 491.792
2447 0 40.0847 10.3032 413 70.7361 210.344 491.651
2448 0 40.2091 10.6195 427 70.4239 210.194 493.391
2449 0 43.1601 11.2372 485 69.9629 209.872 491.064
2450 0 44.2412 10.0585 445 71.164 209.638 490.82
2451 0 45.295 13.1582 596 67.6107 209.144 487.68
2452 0 46.2631 10.3754 480 71.6917 209.421 487.86
2453 0 42.1554 11.1018 468 73.8654 209.162 485.222
2454 0 44.3011 12.1667 539 72.8479 208.362 484.776
2455 0 45.1485 11.5176 520 74.325 208.431 485.444
2456 0 47.182 14.4547 682 69.2786 208.928 484.501
2457 0 48.1908 11.5582 557 73.5494 209.987 484.892
2458 0 47.1642 12.3187 581 73.346 211.203 481.797
2459 0 49.3374 12.83 633 71.5482 212.553 482.548
2460 0 47.2363 11.8553 560 74.9929 214.559 481.936
2461 0 49.3119 10.3829 512 75.3144 216.836 485.07
2462 0 49.2299 11.0908 546 75.1978 218.59 487.244
2463 0 49.267 11.0013 542 77.0203 219.314 485.199
2464 0 50.093 9.62211 482 79.0456 220.633 487.693
2465 0 50.1408 10.989 551 77.7441 219.693 486.964
2466 0 49.1515 11.2916 555 77.8919 220.825 488.699
2467 0 51.0999 10.274 525 79.1638 221.267 489.924
2468 0 54.1241 12.5452 679 76.5243 220.996 491.323
2469 0 54.0979 11.7565 636 76.8695 220.689 492.692
2470 0 55.1279 11.6456 642 77.296 219.466 493.355
2471 0 52.1605 10.3335 539 80.2059 218.85 492.44
2472 0 56.2558 11.3766 640 79.0375 216.572 491.702
2473 0 57.0568 10.5859 604 79.9785 214.508 488.435
2474 1 27.0132 5.70091 154 81.3571 213.305 502.805
2475 0 24.0348 6.19934 149 80.7651 212.383 502.953
2476 0 22.025 6.31102 139 78.6331 211.014 502.252
2477 0 25.0162 5.8762 147 77.4898 209.497 500.17
2478 0 26.056 8.59687 224 74.6205 208.58 499.299
2479 0 24.0082 7.03927 169 76.1124 208.219 497.633
2480 0 25.0046 10.0781 252 71.6667 207.774 495.802
2481 0 24.0095 6.74733 162 75.6975 208.426 494.765
2482 0 22.0171 8.90219 196 75.0306 208.015 493.224
2483 0 28.0521 7.94949 223 72.8117 208.552 494.368
2484 0 25.0075 4.91853 123 75.9268 209.52 494.772
2485 0 23.0109 6.82285 157 73.5669 209.739 495.924
2486 0 24.0153 5.62142 135 75.3407 211.193 496.015
2487 0 22.0143 4.63335 102 76.4314 211.971 497.51
2488 0 20.0244 6.74177 135 74.9111 213.896 497.763
2489 0 21.1157 6.58279 139 72.5612 215.388 499.727
2490 0 21.1157 6.48807 137 106.504 216.409 499.796
2491 0 22.0159 5.08724 112 71.9821 217.67 502.759
2492 0 25.0143 7.11593 178 69.7921 218.809 504.86
2493 0 15.0013 6.86609 103 72.6699 218.534 506.621
2494 0 23.0214 6.03787 139 73.0288 219.187 506.374
2495 0 21.1872 8.6845 184 69.3641 219.527 508.413
2496 0 22.0739 7.33898 162 70.0247 218.383 508.272
2497 0 23.3073 7.16514 167 69.7605 217.994 509.258
2498 0 26.1512 7.036 184 70.5761 217.212 509.065
2499 0 27.0919 10.3721 281 67.0107 215.327 506.648
2500 0 27.0402 6.47186 175 72.3486 214.589 508.2
2501 0 27.0722 6.31644 171 71.5556 213.363 507.105
2502 0 24.0412 6.78003 163 72.5828 212.098 504.215
2503 0 23.0098 8.38771 193 71.1036 210.316 504.492
2504 1 41.2811 6.54052 270 72.237 208.767 494.411
2505 0 40.2375 7.70426 310 70.4032 209.261 492.623
2506 0 38.2352 7.4277 284 72.5 208.986 490.039
2507 0 37.0782 8.0101 297 72.3973 209.202 488.384
2508 0 41.0608 7.72025 317 72.1956 209.382 485.432
2509 0 39.0204 8.71338 340 71.4206 208.403 484.324
2510 0 40.0377 8.44205 338 70.9822 208.183 486.391
2511 0 41.0437 9.64825 396 69.25 208.604 481.662
2512 0 47.0883 7.43284 350 69.7857 209.074 480.774
2513 0 50.0906 8.70422 436 69.2684 208.601 484.596
2514 0 51.0796 7.98754 408 71.2426 210.507 482.76
2515 0 52.0412 7.20583 375 71.6373 213.904 480.573
2516 0 60.2773 10.9328 659 64.3915 218.455 478.832
2517 0 54.2013 10.295 558 65.1649 221.821 484.328
2518 0 60.2028 9.51784 573 67.0052 221.825 480.829
