time division length width area intensity CMx CMy
0 0 50.1823 12.5542 630 113.11 435.257 477.205
1 0 50.0327 13.1714 659 112.628 435.557 476.596
2 0 51.0324 13.1877 673 112.406 436.138 475.892
3 1 27.0251 10.8048 292 111.144 434.997 487.671
4 0 29.0085 10.9623 318 107.783 436.406 487.733
5 0 28.0117 10.1029 283 112.943 437.565 487.329
6 0 30.0703 10.0099 301 111.375 436.03 488.159
7 0 30.041 12.4829 375 108.288 435.771 485.765
8 0 31.0193 11.1544 346 110.332 436.231 486.986
9 0 32.0908 11.187 359 109.73 435.682 485.145
10 0 31.0129 11.7693 365 109.929 434.679 483.978
11 0 34.0266 11.1384 379 108.177 434.19 484.773
12 0 33.0545 13.2206 437 107.016 434.098 483.297
13 0 36.0254 12.8243 462 104.742 435.474 483.623
14 0 36.2147 13.1715 477 106.13 434.493 482.801
15 0 37.1557 13.8068 513 102.844 435.596 485.029
16 0 37.0337 13.4202 497 103.425 437.213 483.437
17 0 40.0467 13.4593 539 102.75 436.397 482.631
18 0 41.1769 14.4013 593 101.565 436.164 481.464
19 0 42.052 13.9827 588 102.434 436.162 481.474
20 0 43.08 13.5794 585 103.549 435.632 481.759
21 0 44.0506 14.892 656 101.561 435.72 480.645
22 0 45.0568 14.9589 674 101.66 437.41 479.128
23 0 47.0791 15.5271 731 100.023 436.945 479.425
24 0 50.0174 15.0148 751 101.554 437.067 479.76
25 0 49.0986 14.4607 710 105.796 437.1 477.265
26 0 50.1432 14.2193 713 105.656 436.035 478.243
27 0 50.1126 13.5695 680 109.453 437.065 477.26
28 0 52.0251 14.7429 767 107.934 437.263 475.09
29 0 54.1234 16.0005 866 104.452 438.099 475.258
30 0 57.0611 16.053 916 104.629 438.546 474.719
31 0 58.1053 15.8161 919 106.251 439.223 473.667
32 0 58.1186 16.105 936 106.302 438.751 472.559
33 0 59.1447 14.8111 876 109.219 439.743 471.944
34 0 60.0399 15.9894 960 108.206 440.043 470.892
35 0 61.0793 15.4226 942 111.382 439.669 469.679
36 0 63.048 15.1948 958 112.009 440.15 469.077
37 0 65.0944 13.7185 893 114.613 440.306 472.143
38 0 67.2179 15.7994 1062 112.81 440.13 467.908
39 0 72.2146 16.8249 1215 107.518 439.427 466.22
40 0 73.2298 15.1441 1109 111.545 439.52 466.193
41 0 77.1347 16.0239 1236 110.433 439.831 466.023
42 0 79.2868 16.207 1285 110.019 439.777 465.322
43 1 43.1118 12.0385 519 114.615 440.191 481.85
44 0 47.2287 13.7417 649 109.166 439.875 481.983
45 0 47.0232 11.8027 555 113.939 440.476 481.182
46 0 49.1267 13.9435 685 109.968 440.612 481.096
47 0 50.1381 14.5797 731 109.457 440.601 477.176
48 0 51.1124 13.7736 704 112.138 440.876 475.56
49 0 54.1989 15.0003 813 108.87 440.014 476.33
50 0 56.3639 14.1225 796 109.574 440.293 477.342
51 0 59.1322 15.1525 896 107.979 439.999 476.624
52 0 58.1254 14.8644 864 109.539 440.068 477.101
53 0 62.1268 16.4985 1025 105.645 440.248 475.822
54 0 65.1619 15.6687 1021 107.768 439.282 475.062
55 0 62.1859 14.1029 877 114.553 439.16 472.476
56 0 67.2204 14.8318 997 113.099 438.896 471.663
57 0 69.278 14.8099 1026 114.074 439.718 470.82
58 0 71.2178 15.1648 1080 114.831 439.487 470.3
59 0 74.385 14.4518 1075 115.183 439.647 469.302
60 0 77.1796 15.2242 1175 114.311 439.478 465.174
61 0 79.1612 15.5632 1232 113.164 439.777 464.409
62 0 82.244 15.2352 1253 112.633 439.777 463.739
63 0 86.349 14.9857 1294 115.444 440.189 462.293
64 1 48.1751 11.562 557 112.343 439.812 480.115
65 0 46.1104 10.6484 491 116.407 439.955 477.845
66 0 49.1446 11.863 583 111.129 440.381 478.988
67 0 47.028 10.2705 483 115.294 440.621 477.358
68 0 51.0638 14.4133 736 108.606 441.452 477.158
69 0 53.3765 13.3767 714 111.36 441.317 476.22
70 0 55.0566 14.2944 787 109.405 441 472.684
71 0 56.0457 14.5774 817 109.182 441.455 474.187
72 0 57.1199 14.0406 802 110.352 438.744 473.685
73 0 61.1544 14.0955 862 109.428 439.796 470.657
74 0 62.1438 13.9837 869 110.717 440.227 470.482
75 0 65.134 14.3857 937 109.445 440.382 470.584
76 0 67.1787 14.3944 967 110.376 441.543 469.581
77 0 69.1781 13.8194 956 111.691 440.577 469.929
78 0 72.1158 13.2842 958 111.225 440.092 468.694
79 0 73.1214 14.0725 1029 111.797 440.185 464.308
80 0 76.1172 13.6763 1041 112.856 440.581 464.74
81 0 76.2301 12.4491 949 114.184 441.376 468.199
82 0 80.2592 13.0826 1050 114.68 441.083 464.796
83 0 83.2379 14.0321 1168 113.255 440.796 462.947
84 0 86.4333 13.3166 1151 113.729 440.949 459.346
85 0 89.3767 14.478 1294 112.4 440.464 459.742
86 0 91.4674 14.1799 1297 114.731 441.035 458.973
87 0 94.2024 14.2671 1344 116.21 441.347 455.821
88 0 100.353 13.7913 1384 115.199 440.952 454.004
89 1 55.0775 12.3462 680 107.335 440.116 476.879
90 0 55.1954 12.0481 665 108.32 441.932 478.305
91 0 54.2868 11.6235 631 111.266 442.068 476.843
92 0 59.2516 13.3667 792 107.413 442.766 473.544
93 0 61.2378 13.6027 833 107.836 442.205 473.622
94 0 61.2697 13.4651 825 111.602 443.053 472.232
95 0 62.3005 12.8731 802 113.522 442.95 471.742
96 0 66.1536 11.9873 793 113.894 443.061 471.899
97 0 70.3534 13.8018 971 110.453 443.713 465.998
98 0 71.2613 13.0225 928 112.642 443.509 468.04
99 0 72.4218 13.0762 947 115.679 443.465 467.86
100 0 78.3735 13.0146 1020 116.176 443.63 463.436
101 0 78.2767 13.0946 1025 116.787 444.173 464.847
102 1 43.1136 9.09227 392 110.551 444.339 483.061
103 0 44.0499 9.98868 440 110.491 443.15 483.1
104 0 48.0918 11.1661 537 108.739 443.654 481.402
105 0 45.1416 10.3009 465 111.058 444.819 484.688
106 0 49.139 11.8236 581 108.318 444.494 480.773
107 0 52.187 12.0145 627 109.925 444.581 477.014
108 0 52.1033 12.1489 633 111.028 443.994 479.194
109 0 53.2782 12.7069 677 111.307 444.554 478.682
110 0 57.2912 13.4401 770 109.805 444.687 476.379
111 0 58.4133 13.0107 760 110.242 443.888 475.932
112 0 58.2741 11.9436 696 111.24 443.935 476.983
113 0 61.3371 12.4721 765 110.954 442.739 475.154
114 0 63.4405 13.0201 826 107.86 443.189 477.186
115 0 65.4866 11.7887 772 111.602 442.843 475.791
116 0 69.3957 12.6233 876 110.658 442.724 470.025
117 0 71.3037 13.155 938 110.041 442.116 469.423
118 0 72.5175 13.3761 970 108.371 441.83 471.341
119 0 77.4914 15.163 1175 103.854 442.137 466.935
120 0 77.5269 13.2986 1031 108.225 441.462 467.741
121 1 40.1329 11.9354 479 105.633 441.944 484.142
122 0 44.1654 11.2758 498 105.311 442.122 483.777
123 0 45.2128 12.9609 586 101.754 442.556 482.911
124 0 45.1542 13.1328 593 104.277 442.565 481.497
125 0 47.2347 12.3426 583 103.727 442.998 483.172
126 0 49.0775 11.7162 575 103.583 443.139 480.492
127 0 49.0443 13.0698 641 101.52 442.98 479.284
128 0 49.1158 13.2748 652 101.888 442.388 480.044
129 0 51.0773 12.4126 634 104.719 441.875 478.897
130 0 52.2993 11.8166 618 106.79 442.05 477.662
131 0 56.1398 14.1433 794 101.775 442.393 476.668
132 0 55.2472 13.5211 747 104.598 442.178 475.529
133 0 58.2447 14.0099 816 102.213 443.446 475.05
134 0 59.3385 13.6505 810 103.067 443.704 475.262
135 0 61.2211 13.6881 838 102.916 443.694 474.362
136 0 60.2859 13.9004 838 104.264 444.084 473.757
137 0 64.186 14.6294 939 102.711 443.554 472.632
138 0 67.3036 14.3083 963 101.84 443.271 473.191
139 0 68.1755 12.3505 842 109.771 443.533 472.251
140 0 70.2084 12.4771 876 110.417 442.874 471.552
141 0 73.3195 14.1436 1037 107.612 442.976 469.548
142 0 74.2485 12.4851 927 111.581 442.029 468.691
143 1 39.066 10.2903 402 105.343 442.612 488.44
144 0 42.0948 11.0227 464 105.787 442.233 486.485
145 0 43.0443 11.3139 487 105.501 442.066 486.517
146 0 45.0516 11.9419 538 104.66 441.896 485.565
147 0 44.0972 11.9055 525 106.941 442.651 484.556
148 0 46.1308 12.5079 577 146.444 443.64 485.589
149 0 46.0726 11.8075 544 109.188 441.961 483.989
150 0 52.218 14.4203 753 103.169 440.614 482.363
151 0 51.1685 13.2112 676 108.33 440.533 480.707
152 0 51.1684 14.0712 720 109.511 440.912 480.807
153 0 55.1576 13.5974 750 109.773 441 480.623
154 0 57.1484 13.7537 786 107.57 441.296 478.055
155 0 57.1804 12.5043 715 112.296 441.25 477.593
156 0 58.2206 13.2771 773 110.992 441.19 477.696
157 0 60.2904 13.1198 791 111.601 440.162 477.829
158 0 59.1828 12.115 717 117.138 441.268 475.07
159 0 64.2561 13.384 860 109.78 441.294 474.127
160 0 64.2268 13.7482 883 113.014 441.572 472.503
161 0 67.1765 13.5613 911 113.215 441.316 470.079
162 0 69.2206 14.7788 1023 111.736 441.485 467.76
163 0 71.2859 13.8597 988 113.679 441.305 469.169
164 0 72.3328 15.4425 1117 112.026 441.38 466.728
165 0 74.325 14.2752 1061 114.033 441.451 466.371
166 0 77.5552 13.758 1067 115.18 440.677 466.616
167 0 77.2244 13.0658 1009 118.58 440.337 463.813
168 0 83.3445 13.7742 1148 115.125 441.456 461.098
169 1 42.3147 10.0438 425 110.266 441.282 484.089
170 0 45.2673 12.1059 548 106.985 441.451 483.358
171 0 46.2475 11.7628 544 108.971 441.778 483.596
172 0 46.0802 11.5668 533 109.97 441.06 483.719
173 0 48.1892 11.8076 569 109.047 440.991 481.404
174 0 51.1017 13.7177 701 105.203 441.014 482.742
175 0 50.3165 12.3816 623 110.287 440.936 483.496
176 0 51.278 14.1971 728 108.217 441.624 482.217
177 0 54.5213 12.8757 702 108.281 441.358 480.299
178 0 57.2864 12.8128 734 107.593 441.432 480.804
179 0 58.428 12.3571 722 109.539 441.368 479.69
180 0 58.428 12.34 721 150.232 440.365 479.832
181 0 61.2384 12.4595 763 111.788 440.959 479.26
182 0 64.2376 12.7807 821 110.592 440.462 477.202
183 0 64.292 12.3188 792 112.423 439.991 477.213
184 0 69.3355 14.3505 995 106.727 438.761 471.753
185 0 71.3255 14.4128 1028 107.044 438.61 472.434
186 0 74.25 14.7609 1096 106.142 438.745 469.187
187 0 76.4446 14.0232 1072 108.577 438.178 467.622
188 1 42.219 12.4825 527 101.08 438.106 486.207
189 0 43.2633 11.6727 505 104.659 438.339 484.65
190 0 43.2633 11.5572 500 140.696 437.35 484.456
191 0 47.3364 10.9641 519 105.231 438.632 481.528
192 0 47.3283 11.6421 551 105.378 439.145 481.281
193 0 49.1521 11.3322 557 105.969 439.242 480.198
194 0 51.1035 12.6997 649 105.039 439.341 474.656
195 0 54.386 13.6432 742 103.977 439.966 477.371
196 0 55.0316 12.1748 670 106.978 440.136 477.736
197 0 56.1692 12.5158 703 108.684 440.912 475.667
198 0 56.1195 10.7449 603 109.912 441.59 476.975
199 0 59.2575 12.5048 741 107.005 440.453 474.032
200 0 62.4603 14.7614 922 101.319 440.653 473.99
201 0 62.2933 12.6338 787 107.374 441.057 472.286
202 0 65.2422 12.8904 841 104.615 440.612 474.754
203 0 67.2156 11.6342 782 107.281 440.24 472.94
204 0 69.214 13.2054 914 106.661 440.34 473.36
205 0 73.2952 12.4701 914 106.489 439.833 470.251
206 0 72.4363 11.8311 857 108.959 440.131 469.38
207 0 76.2329 12.0683 920 107.562 440.866 469.877
208 1 40.1479 7.5471 303 104.67 440.102 489.479
209 0 43.153 10.1963 440 103.059 440.52 486.07
210 0 46.0845 9.67787 446 100.451 440.303 487.942
211 0 47.0778 9.77106 460 104.03 440.335 484.463
212 0 50.2556 11.4813 577 101.05 440.177 483.801
213 0 50.1819 11.5978 582 103.038 440 482.101
214 0 55.1579 13.2891 733 98.0887 439.067 479.895
215 0 53.424 13.2712 709 100.355 438.279 477.913
216 0 53.2494 12.4696 664 102.467 437.36 479.45
217 0 54.2812 12.0668 655 103.525 437.759 480.163
218 0 56.2473 13.7429 773 102.241 436.93 478.009
219 0 60.1215 13.2232 795 101.894 436.784 474.46
220 0 62.1656 14.027 872 101.172 437.483 474.229
221 0 62.3549 12.6373 788 103.421 437.712 474.108
222 0 62.2822 12.3952 772 105.31 437.786 472.566
223 0 67.1819 12.8904 866 103.032 437.433 471.365
224 0 68.3625 13.4723 921 102.173 438.548 471.124
225 0 73.3277 13.9238 1021 101.674 438.737 466.639
226 0 73.4118 12.246 899 103.793 438.961 467.006
227 0 76.279 14.0012 1068 102.173 438.584 463.013
228 1 38.2109 8.89798 340 103.268 439.276 485.421
229 0 39.0941 9.0295 353 102.844 438.017 483.246
230 0 42.455 10.7879 458 101.393 438.928 480.592
231 0 43.1259 11.2461 485 100.206 439.65 481.404
232 0 45.0674 11.6492 525 98.8171 440.436 480.619
233 0 47.1768 12.0398 568 99.9577 440.512 477.79
234 0 48.1911 12.2637 591 98.0931 441.249 480.79
235 0 49.1569 12.9788 638 97.7524 441.337 480.668
236 0 47.2592 11.638 550 101.629 441.009 477.765
237 0 52.282 13.2359 692 98.2601 441.266 477.512
238 0 53.2256 12.7758 680 89.7706 441.165 478.809
239 0 54.1945 12.123 657 101.889 441.347 479.813
240 0 55.3191 14.1 780 99.482 440.72 478.505
241 0 59.3153 14.0942 836 98.4605 439.778 477.648
242 0 60.4852 13.9869 846 99.7352 439.239 476.528
243 0 60.2995 12.8028 772 102.589 439.027 477.447
244 0 63.2518 13.3119 842 100.169 439.483 477.185
245 0 65.1274 15.1396 986 97.9615 439.297 473.983
246 0 69.2538 15.5082 1074 96.1629 438.993 472.067
247 0 70.4727 14.871 1048 98.0926 438.57 471.094
248 0 72.3614 13.7919 998 99.7525 437.79 473.465
249 0 75.2255 14.0112 1054 99.5304 437.088 469.764
250 0 78.4794 14.0674 1104 99.2319 437.598 467.101
251 0 79.3958 13.3886 1063 100.696 437.959 467.476
252 1 46.1524 11.592 535 97.7065 438.985 484.434
253 0 43.2666 10.7473 465 100.548 438.363 482.206
254 0 49.0873 11.9175 585 96.3573 438.347 482.53
255 0 47.0971 11.7417 553 100.378 438.166 478.873
256 0 52.2 12.5671 656 95.5244 438.175 480.413
257 0 53.1622 13.8256 735 91.7687 437.74 476.967
258 0 52.17 11.635 607 96.2554 438.339 476.965
259 0 54.1459 12.3555 669 94.997 438.798 477.676
260 0 55.1747 12.2701 677 95.7504 439.486 475.551
261 0 60.208 13.7523 828 91.3684 439.772 475.372
262 0 60.3153 13.0647 788 93.4137 440.033 471.822
263 0 62.2201 13.7415 855 92.138 439.276 473.814
264 0 64.2238 14.7764 949 90.942 440.272 473.686
265 0 65.0777 14.0908 917 93.7263 439.974 473.371
266 0 67.1677 12.7889 859 95.1688 440.318 471.898
267 0 71.2005 12.9634 923 95.1203 440.841 469.213
268 0 70.2324 11.6898 821 98.9976 441.007 467.142
269 0 75.0939 13.0636 981 96.6952 441.204 469.233
270 0 77.274 15.2703 1180 94.2483 441.051 470.188
271 0 80.1345 12.9407 1037 97.9065 441.288 468.147
272 0 83.1212 14.3405 1192 96.8054 440.844 463.196
273 0 87.2656 13.3844 1168 98.1413 440.604 464.231
274 1 47.0925 11.1058 523 93.1664 441.266 486.769
275 0 45.0515 10.0108 451 97.2284 440.834 486.215
276 0 47.0608 10.9433 515 95.8563 440.109 483.647
277 0 50.0176 12.4956 625 93.9104 439.688 479.445
278 0 52.0479 12.8728 670 92.8597 439.128 481.802
279 0 54.0211 13.106 708 92.6384 438.576 482.01
280 0 56.0401 12.7052 712 93.0772 437.975 479.736
281 0 57.0629 13.8619 791 91.4779 438.249 478.575
282 0 59.0647 13.8154 816 92.3885 437.806 474.603
283 0 59.0251 12.8589 759 94.7945 437.626 475.551
284 0 60.0196 12.8458 771 96.2594 437.464 476.005
285 0 62.087 13.1589 817 96.142 437.169 472.094
286 0 65.1239 13.1135 854 95.8782 436.486 472.541
287 0 66.1368 12.701 840 97.725 436.161 470.398
288 0 70.207 12.7338 894 96.0492 435.895 469.435
289 0 72.1227 13.0888 944 96.7977 435.932 465.862
290 0 73.2045 12.39 907 98.2591 436.2 466.464
291 1 38.1096 8.02947 306 93.7745 436.059 486.359
292 0 38.0885 7.74512 295 92.461 437.305 486.817
293 0 41.0626 10.3744 426 91.7113 437.894 484.11
294 0 43.049 10.4532 450 91.5178 438.484 483.456
295 0 47.0581 10.8164 509 92.0904 438.77 480.613
296 0 48.1171 9.6847 466 93.8391 439.73 481.212
297 0 49.2591 11.5715 570 92.6351 440.233 482.114
298 0 48.2235 11.2393 542 94.417 439.744 478.076
299 0 52.1709 12.114 632 91.8291 440.43 478.549
300 0 52.2066 10.9756 573 93.9267 441.393 479.468
301 0 53.3585 12.8377 685 93.2058 440.993 478.396
302 0 51.229 7.69095 394 99.2868 440.805 480.383
303 0 59.1702 13.4358 795 90.3182 440.336 478.725
304 0 58.1481 12.3822 720 93.6514 439.833 477.115
305 0 59.4001 10.8249 643 95.9969 439.958 479.569
306 0 62.38 11.9269 744 95.1519 440.04 479.042
307 0 67.2618 13.9009 935 92.4225 440.147 474.506
308 0 68.1999 13.2845 906 95.372 439.502 473.587
309 0 70.5098 11.8707 837 99.2258 439.731 475.931
310 0 73.2002 11.7623 861 100.447 438.604 468.398
311 0 76.3065 13.0395 995 99.2864 438.038 471.695
312 0 81.268 14.003 1138 97.8418 437.824 467.798
313 0 84.5029 14.8161 1252 96.4337 437.022 465.188
314 0 87.2278 13.9061 1213 98.8442 436.866 465.065
315 1 43.0492 9.26848 399 101.481 437.429 486.366
316 0 45.1718 10.449 472 99.9407 437.114 484.328
317 0 47.0292 11.2058 527 100.888 436.932 483.85
318 0 49.0164 12.2612 601 98.9301 437.544 483.77
319 0 51.0699 12.2185 624 100.2 438.117 481.311
320 0 52.2498 12.5551 656 101.27 437.979 477.561
321 0 54.1448 13.8702 751 99.1358 437.57 477.874
322 0 58.1452 14.1198 821 96.5566 438.347 478.25
323 0 57.3272 13.1177 752 101.146 438.944 477.359
324 0 58.1394 11.9196 693 104.509 439.616 477.087
325 0 59.2612 13.0102 771 103.301 440.352 474.458
326 0 61.3047 11.973 734 104.95 440.372 475.55
327 0 66.1824 14.46 957 99.9686 440.606 473.677
328 0 68.2586 14.2546 973 101.621 441.089 471.353
329 0 71.2038 14.1987 1011 101.127 441.088 473.461
330 1 37.0604 11.09 411 101.445 442.418 487.526
331 0 39.028 9.50601 371 103.69 443.213 488.841
332 0 39.025 9.50674 371 140.261 443.213 488.841
333 0 40.1122 10.0219 402 103.455 442.898 488.391
334 0 45.0842 12.0663 544 100.996 442.557 486.862
335 0 45.1006 12.9267 583 100.971 442.235 486.449
336 0 48.0505 12.1955 586 100.995 440.875 487.053
337 0 48.0439 12.551 603 102.254 440.832 485.643
338 0 50.2468 13.8118 694 104.308 438.919 483.784
339 0 48.1595 11.6903 563 110.849 439.211 482.838
340 0 54.2109 13.9455 756 103.878 438.283 483.29
341 0 57.1702 13.2062 755 103.626 438.767 480.996
342 0 59.1886 14.2933 846 99.2707 438.827 480.511
343 0 59.1783 13.8564 820 101.568 438.74 480.477
344 0 60.2722 14.5009 874 99.754 436.984 481.238
345 0 61.2577 14.039 860 101.734 436.937 478.929
346 0 63.1558 12.9996 821 104.955 437.306 477.231
347 0 67.0963 14.7698 991 100.171 436.709 473.888
348 0 69.164 14.0246 970 102.363 437.347 470.424
349 0 68.1987 12.3903 845 106.456 437.174 470.379
350 1 41.031 11.2598 462 103.6 438.091 484.851
351 0 39.059 10.4201 407 103.364 438.383 484.921
352 0 42.0183 10.5906 445 104.622 439.007 483.13
353 0 46.0214 10.1909 469 101.269 439.034 484.324
354 0 47.0804 12.4043 584 99.3973 440.488 481.728
355 0 47.0132 12.8262 603 99.6053 441.295 480.837
356 0 50.0342 12.2716 614 101.928 442.002 481.155
357 0 51.1302 12.83 656 100.756 442.311 481.578
358 0 55.035 12.3558 680 100.606 442.246 477.921
359 0 55.1341 12.1885 672 102.039 441.442 478.632
360 0 57.0528 12.8828 735 101.193 442.502 480.42
361 0 57.0543 12.9351 738 103.398 442.747 477.205
362 0 59.1002 12.2335 723 104.205 442.303 478.852
363 0 63.1082 12.7559 805 101.622 444.092 477.511
364 0 62.0593 12.5042 776 103.284 443.742 476.772
365 0 64.1113 13.7261 880 101.715 443.608 477.827
366 0 67.0433 14.2744 957 100.129 443.099 477.141
367 0 70.1422 14.8698 1043 98.4631 442.352 475.144
368 0 74.168 14.0357 1041 100.356 442.275 472.713
369 0 77.2907 14.2449 1101 98.7757 441.809 472.264
370 1 40.057 10.8096 433 99.7644 440.688 491.083
371 0 42.0864 9.38547 395 100.165 440.162 492.281
372 0 46.0665 12.0044 553 96.5371 439.483 488.859
373 0 47.1353 11.9231 562 96.6032 438.82 487.158
374 0 49.1157 12.949 636 95.6902 438.458 484.558
375 0 49.0868 13.0381 640 96.5938 437.986 485.031
376 0 52.0746 12.8662 670 95.6358 437.925 482.167
377 0 51.1313 12.9275 661 97.7897 437.342 480.915
378 0 53.0503 13.1196 696 98.9181 437.74 480.738
379 0 58.0716 14.1205 820 96.1195 438.218 477.205
380 0 60.0368 15.2906 918 92.9052 437.804 476.234
381 0 60.0576 14.9856 900 94.9422 437.204 477.34
382 0 60.1182 12.9245 777 100.674 436.322 474.38
383 0 63.182 13.0575 825 99.2655 436.378 473.955
384 0 65.1821 14.191 925 97.88 437.671 473.549
385 0 65.1855 12.8403 837 101.213 436.753 471.71
386 0 70.2882 13.4589 946 99.0909 437.584 471.021
387 0 72.142 13.7091 989 97.6279 439.051 473.875
388 0 75.1321 13.2833 998 99.3908 440.157 469.622
389 0 79.2681 15.252 1209 96.0488 440.412 468.522
390 1 39.2075 10.7378 421 96.5154 441.378 489.558
391 0 41.1495 10.7899 444 95.8739 442.322 488.077
392 0 40.1066 10.9209 438 97.3105 442.057 488.6
393 0 45.0404 14.5647 656 90.5518 443.175 487.738
394 0 47.3311 13.8598 656 91.2363 442.93 484.264
395 0 46.2895 13.2427 613 96.9038 442.457 486.168
396 0 47.2035 11.9906 566 101.451 442.11 487.516
397 0 50.2129 13.622 684 98.4196 441.627 486.291
398 0 50.1731 14.2905 717 96.9554 440.681 485.548
399 0 51.4603 12.6505 651 99.8909 440.69 486.518
400 0 52.2694 14.1957 742 98.3935 440.482 486.441
401 0 55.335 13.8249 765 99.5621 440.112 483.803
402 0 56.2721 14.3766 809 99.0173 439.449 482.628
403 0 56.2123 12.8797 724 103.711 439.298 480.406
404 0 58.3081 13.7888 804 102.223 439.136 481.083
405 0 59.2346 13.5056 800 104.12 437.404 477.39
406 0 61.247 13.3884 820 104.272 436.921 476.856
407 0 64.1692 14.602 937 99.158 435.396 471.178
408 0 65.0898 13.3969 872 102.22 436.78 473.677
409 0 68.0609 13.1353 894 103.681 437.337 472.839
410 0 70.1024 14.1793 994 104.733 436.339 469.322
411 0 72.5404 14.585 1058 102.855 437.646 469.031
412 1 37.0638 9.9828 370 102.2 436.97 483.689
413 0 37.0271 10.0467 372 105.159 437.804 481.194
414 0 41.156 11.7844 485 101.037 439.126 481.835
415 0 41.1311 11.1594 459 103.841 439.808 481.083
416 0 43.0602 12.587 542 102.434 439.002 478.395
417 0 47.165 13.2301 624 101.535 440.002 482.155
418 0 48.2057 14.0232 676 99.8669 440.559 479.686
419 0 51.1607 14.6206 748 97.0134 442.099 479.881
420 0 52.2326 14.7992 773 98.2458 442.756 480.494
421 0 54.1986 13.8934 753 102.364 442.632 480.027
422 0 56.1615 15.2774 858 100.16 443.861 479.878
423 0 53.1918 12.6335 672 106.851 443.774 480.966
424 0 58.1072 15.4542 898 100.675 443.742 479.969
425 0 57.024 14.3799 820 103.574 444.562 480.515
426 0 62.1227 13.5699 843 104.297 444.469 479.594
427 0 64.0564 14.3155 917 102.84 443.543 480.626
428 0 66.0285 13.7516 908 103.989 442.687 478.95
429 0 68.0887 13.1593 896 105.054 442.132 474.891
430 0 73.0219 14.8312 1083 101.361 441.216 475.554
431 0 75.1446 14.9844 1126 102.345 440.292 472.2
432 0 78.1866 15.2584 1193 101.649 439.578 472.394
433 0 78.136 14.5259 1135 104.626 438.904 469.592
434 1 42.0209 11.9226 501 102.423 438.541 488.974
435 0 45.0414 12.4996 563 100.877 438.57 487.391
436 0 45.1162 12.6784 572 101.255 438.128 486.301
437 0 47.0581 13.1114 617 99.5235 436.713 484.519
438 0 49.0902 12.8539 631 100.651 437.72 484.772
439 0 49.0913 13.1591 646 102.037 436.723 481.3
440 0 53.0792 15.8254 840 95.6202 436.458 479.946
441 0 53.1923 14.3254 762 102.852 436.727 479.756
442 0 54.3485 11.8863 646 107.735 436.981 479.89
443 0 55.319 12.4008 686 108.044 437.229 478.16
444 0 57.2004 14.1957 812 104.459 436.958 476.962
445 0 57.2394 12.439 712 109.296 438.831 476.062
446 0 62.1878 15.3085 952 103.57 438.831 473.77
447 0 66.2524 13.841 917 106.808 440.31 473.828
448 0 65.2576 14.9714 977 106.959 441.676 473.228
449 0 68.3371 14.9114 1019 107.769 442.973 471.565
450 0 72.148 15.8979 1147 106.184 442.995 471.403
451 0 71.0918 14.8118 1053 111.404 444.747 472.377
452 0 74.4819 14.0571 1047 113.703 445.324 472.431
453 0 78.2166 14.9585 1170 112.268 444.759 470.833
454 0 82.2186 16.1764 1330 110.232 444.487 470.288
455 0 84.1964 15.9746 1345 111.348 443.2 469.966
456 0 85.28 14.7866 1261 114.642 442.687 470.545
457 0 90.2316 15.97 1441 112.265 442.009 468.384
458 0 90.2316 15.8814 1433 167.32 443 468.299
459 1 47.0539 13.4314 632 112.677 441.617 489.003
460 0 49.094 13.5251 664 112.419 440.937 486.715
461 0 49.0896 13.6078 668 151.521 438.919 486.771
462 0 52.1403 13.3294 695 114.882 439.275 484.555
463 0 53.3316 13.3317 711 115.579 437.993 483.617
464 0 55.2764 14.328 792 111.739 437.581 483.718
465 0 58.3152 15.0218 876 110.374 436.944 479.503
466 0 59.2079 14.4069 853 112.048 436.498 481.018
467 0 62.3048 15.3279 955 110.625 435.986 477.92
468 0 63.1229 15.2718 964 111.863 435.893 475.418
469 0 65.1615 13.7505 896 115.646 435.888 474.882
470 0 70.1407 15.6542 1098 110.782 435.543 470.855
471 0 71.3582 14.5323 1037 113.016 435.764 471.136
472 0 70.1665 13.4537 944 118.769 436.162 468.779
473 0 76.1022 16.399 1248 110.805 436.445 467.544
474 0 78.2678 15.2937 1197 114.578 436.892 466.351
475 0 78.2113 15.2791 1195 116.212 438.393 465.261
476 0 81.3042 13.2588 1078 118.841 439.547 467.814
477 0 85.48 16.2494 1389 110.284 440.287 461.127
478 0 89.5928 15.3695 1377 112.654 441.07 459.931
479 0 92.3982 15.6496 1446 113.057 441.566 462.584
480 1 49.276 12.8257 632 114.134 442.671 484.574
481 0 51.196 13.0674 669 116.8 443.589 481.167
482 0 53.2743 13.1583 701 116.093 444.167 480.369
483 0 56.1125 14.5778 818 112.284 444.216 482.704
484 0 58.051 14.7801 858 112.409 444.434 481.178
485 0 60.0461 13.2398 795 115.52 444.216 483.146
486 0 61.0303 13.9603 852 114.32 443.5 480.907
487 0 65.0813 14.2437 927 113.244 443.067 481.679
488 0 67.0619 13.8529 929 114.562 442.66 480.245
489 0 70.1728 14.2648 1001 113.832 440.605 478.096
490 0 71.1265 13.5955 967 115.611 440.016 476.721
491 0 77.1019 14.0723 1085 112.835 438.749 475.351
492 0 79.2644 14.786 1172 112.408 438.047 470.427
493 0 81.0854 14.3059 1160 113.742 437.172 468.531
494 0 87.1625 15.1212 1318 110.825 437.427 468.115
495 0 88.2179 14.8723 1312 112.098 436.326 464.005
496 1 48.1125 12.0759 581 111.267 436.842 483.119
497 0 49.0425 13.3354 654 107.376 436.601 483.942
498 0 49.0949 12.8119 629 109.051 437.102 481.65
499 0 51.0851 13.2524 677 107.626 436.406 481.374
500 0 54.214 13.8156 749 107.292 435.666 478.024
501 0 56.2842 13.3785 753 107.207 436.722 475.317
502 0 56.3091 13.6035 766 108.225 436.313 473.598
503 0 58.2784 11.874 692 109.676 437.309 477.071
504 0 62.308 13.337 831 106.952 438.051 470.97
505 0 65.2993 13.3539 872 106.869 439.429 473.313
506 0 65.2993 13.4305 877 132.079 441.432 473.138
507 1 35.2089 11.162 393 104.041 441.779 488.817
508 0 36.1076 12.9613 468 103.917 444.667 488.818
509 0 39.4175 11.6953 461 105.931 445.712 486.039
510 0 39.1853 11.2542 441 108.193 446.649 488.052
511 0 42.1079 12.6817 534 104.618 447.64 489.543
512 0 45.0877 13.7732 621 102.029 447.283 489.597
513 0 47.0854 15.44 727 100.649 446.33 488.644
514 0 47.1091 14.6044 688 102.688 446.06 488.996
515 0 51.0417 13.3616 682 103.915 444.622 489.217
516 0 52.2088 13.5992 710 106.603 443.414 490.082
517 0 53.0844 13.3184 707 105.55 441.846 489.832
518 0 55.2316 14.0137 774 102.433 441.348 488.359
519 0 58.4345 14.4778 846 101.911 439.884 486.096
520 0 58.1668 14.2005 826 103.357 438.369 486.418
521 0 61.4429 13.1016 805 103.229 437.396 486.641
522 0 64.2926 14.1229 908 102.582 436.847 483.97
523 0 67.3124 15.3761 1035 99.8348 435.838 478.725
524 0 68.9153 13.8576 955 104.274 434.704 478.913
525 0 70.3098 13.6965 963 105.321 433.723 477.806
526 0 73.583 14.6229 1076 104.244 432.724 475.165
527 1 36.5775 11.1271 407 107.558 432.386 492.344
528 0 40.5707 12.0777 490 106.298 431.637 491.302
529 0 42.2824 13.3389 564 105.211 431.668 488.855
530 0 42.1814 12.9441 546 106.72 431.828 487.984
531 0 47.1068 14.7537 695 101.958 431.563 487.984
532 0 47.1248 13.8993 655 106.006 432.802 487.07
533 0 48.249 13.078 631 108.867 432.983 484.952
534 0 50.2499 15.5622 782 104.737 435.26 484.733
535 0 51.2086 13.1618 674 111.312 436.648 485.148
536 0 52.1206 13.5647 707 110.806 438.443 486.198
537 0 55.1893 14.6586 809 108.939 441.007 486.114
538 0 58.2314 15.696 914 107.945 442.451 485.012
539 0 59.1741 15.2601 903 111.215 442.437 486.555
540 0 62.1179 14.9876 931 111.9 442.615 486.52
541 0 67.5056 16.1616 1091 107.17 441.919 484.524
542 0 68.3337 15.0731 1030 112.103 441.127 483.629
543 0 72.2655 15.5538 1124 110.956 439.81 484.232
544 0 74.4532 14.1297 1052 115.313 438.432 484.332
545 0 81.3939 16.6966 1359 107.141 437.287 483.47
546 1 42.1297 13.3872 564 113.2 435.867 498.665
547 0 46.1357 15.2377 703 110.698 434.09 494.875
548 0 48.1448 14.1656 682 113.117 433.567 494.711
549 0 49.1276 13.6583 671 113.499 432.39 492.618
550 0 50.1218 14.9636 750 111.452 431.304 491.773
551 0 52.1919 15.1748 792 111.641 430.324 490.523
552 0 54.1261 14.8912 806 112.841 430.084 488.98
553 0 54.1429 15.8654 859 112.184 429.086 483.991
554 0 56.2081 16.4033 922 109.924 428.241 483.668
555 0 59.2315 14.6375 867 114.337 428.458 480.453
556 0 60.213 15.7773 950 112.016 428.699 479.876
557 0 62.0743 15.0787 936 115.035 429.577 477.246
558 0 64.1988 15.3274 984 115.382 428.923 475.715
559 0 64.2167 15.9927 1027 114.784 430.486 474.624
560 0 69.3794 16.0134 1111 114.342 431.092 471.797
561 0 70.2521 15.1882 1067 116 431.47 473.024
562 0 73.4061 16.0477 1178 115.729 433.62 471.565
563 1 39.3706 12.268 483 119.147 436.584 486.911
564 0 40.0699 12.4033 497 118.881 438.926 488.165
565 0 40.2803 11.7427 473 121.448 440.983 487.858
566 0 44.1683 13.1316 580 116.366 442.426 488.116
567 0 46.1045 13.8381 638 116.111 443.545 487.77
568 0 47.1006 15.4987 730 113.441 443.081 488.129
569 0 50.0719 16.1767 810 112.593 443.379 486.706
570 0 52.0496 15.8695 826 113.007 442.941 488.967
571 0 50.1897 15.541 780 117.549 441.867 488.58
572 0 57.0954 15.8331 904 112.521 440.544 489.198
573 0 56.097 14.2788 801 118.537 439.227 488.592
574 0 60.2081 16.1606 973 113.66 437.954 488.865
575 0 60.2314 15.6895 945 116.832 437.585 489.237
576 0 65.1322 16.4895 1074 113.858 437.167 486.321
577 0 69.1573 16.4263 1136 112.992 436.05 484.578
578 0 69.464 15.3461 1066 116.338 434.297 483.691
579 0 71.2623 14.5238 1035 120.109 433.358 480.958
580 1 36.151 13.4713 487 116.509 432.17 497.037
581 0 38.1599 13.2338 505 115.297 432.232 495.23
582 0 39.248 13.5294 531 117.019 431.294 493.143
583 0 42.1842 14.0337 592 113.194 430.846 491.63
584 0 44.1367 14.7043 649 111.914 430.502 489.687
585 0 47.2356 15.772 745 108.248 430.168 488.242
586 0 46.2805 15.4493 715 111.734 430.752 486.462
587 0 49.1447 15.9325 783 108.416 431.409 484.773
588 0 49.1054 15.1715 745 111.541 432.004 484.15
589 0 52.2432 16.4806 861 108.014 432.469 482.415
590 0 53.123 15.5488 826 108.577 433.484 482.383
591 0 57.1533 15.3972 880 109.538 434.464 480.678
592 0 59.2283 14.8746 881 110.938 436.989 480.356
593 0 59.1678 15.0758 892 114.408 439.118 480.565
594 0 61.2075 14.361 879 116.452 438.766 481.156
595 0 66.3418 15.5407 1031 112.249 440.88 478.569
596 0 71.4238 15.6951 1121 111.515 441.991 478.888
597 0 72.1516 15.8278 1142 113.678 443.406 478.954
598 0 74.1852 15.65 1161 115.078 443.699 479.806
599 0 78.2252 16.069 1257 112.957 443.066 478.095
600 1 44.3713 13.7927 612 114.234 443.038 496.974
601 0 45.0942 12.6402 570 118.181 441.577 499.479
602 0 48.0716 13.147 632 117.703 441.008 498.495
603 0 52.2204 15.3005 799 111.139 439.372 497.969
604 0 52.1181 13.5654 707 114.668 436.499 499.15
605 0 57.3004 15.8987 911 107.627 434.177 495.35
606 0 58.3795 15.8275 924 109.534 432.341 495.307
607 0 59.2978 14.8066 878 113.331 430.544 495.706
608 0 62.1547 15.4453 960 112.732 428.724 493.833
609 0 65.1786 15.2657 995 114.198 427.429 492.984
610 1 32.2383 9.36775 302 114.354 428.457 510.801
611 0 36.196 11.6035 420 112.655 428.271 508.867
612 0 36.2516 13.8201 501 110.503 428.068 507.092
613 0 37.0902 13.9929 519 114.59 427.129 504.472
614 0 39.1163 12.5523 491 117.497 427.754 504.02
615 0 38.1288 13.3757 510 116.037 427.149 501.798
616 0 40.0691 13.8261 554 115.626 426.249 499.634
617 0 43.1811 14.2192 614 116.278 426.176 498.228
618 0 42.0914 13.4707 567 121.032 426.243 496.785
619 0 44.0881 14.3803 634 120.819 426.53 495.489
620 0 48.1457 13.5838 654 118.066 427.875 494.563
621 0 48.0838 14.1628 681 121.28 429.269 493.426
622 0 47.0376 14.903 701 122.933 430.364 492.544
623 0 51.1335 14.9608 765 121.667 432.477 492.511
624 0 54.0879 13.552 733 123.355 434.326 493.603
625 0 55.1772 15.2418 841 120.467 434.832 492.869
626 0 58.2926 15.3879 897 122.217 435.2 492.544
627 0 61.2821 14.9636 917 122.021 435.172 490.527
628 0 62.2971 14.4469 900 125.743 434.981 492.583
629 0 69.2787 15.7047 1088 120.213 435.216 491.96
630 0 69.2076 14.4059 997 126.103 433.38 493.7
631 1 35.2622 12.0242 424 125.373 433.241 510.238
632 0 39.188 10.6921 419 124.267 432.422 510.587
633 0 42.2807 13.8361 585 117.956 430.713 508.689
634 0 42.3643 13.1951 559 121.109 429.118 508.472
635 0 46.1451 13.9126 642 119.762 427.569 507.354
636 0 44.2737 13.1907 584 123.533 426.392 508.512
637 0 49.176 14.4379 710 119.115 425.361 504.628
638 0 49.2508 13.3399 657 124.906 424.291 501.373
639 0 54.2101 15.0525 816 117.135 423.624 500.023
640 0 55.1879 15.1845 838 117.728 423.173 497.125
641 0 55.1976 14.276 788 119.494 422.608 497.536
642 0 56.1511 14.5856 819 119.632 421.664 495.186
643 0 59.2404 14.2639 845 119.308 421.911 491.885
644 0 60.1972 13.0737 787 123.755 422.006 490.506
645 1 32.1331 11.6391 374 118.436 423.762 504.206
646 0 33.1407 11.768 390 118.374 424.036 504.487
647 0 36.2103 11.9027 431 116.371 425.251 501.543
648 0 35.376 11.2788 399 118.348 426.228 503.108
649 0 37.5151 12.7948 480 116.242 427.581 502.496
650 0 39.3633 12.9054 508 114.344 429.303 501.252
651 0 39.5956 13.0065 515 116.138 430.8 501.297
652 0 39.4875 11.3707 449 119.875 432.648 502.568
653 0 42.6911 12.1102 517 118.828 433.19 500.65
654 0 44.6479 12.2066 545 119.114 434.196 501.949
655 0 44.2871 12.9835 575 122.104 433.969 502.393
656 0 46.2838 13.0067 602 121.605 434.206 500.645
657 0 51.2288 13.0981 671 119.928 432.605 499.009
658 0 51.2222 13.0217 667 124.046 432.571 498.729
659 0 53.27 13.3283 710 123.235 432.346 501.155
660 0 55.2941 12.6053 697 126.053 431.814 500.552
661 0 57.3562 13.1982 757 126.814 431.147 499.67
662 0 59.2231 12.7653 756 128.549 430.009 498.456
663 0 62.2159 12.6816 789 128.872 430.038 497.484
664 0 65.5191 12.4696 817 126.576 429.048 495.291
665 1 33.044 12.1051 400 123.958 429.122 507.112
666 0 35.0291 12.0186 421 121.929 427.879 504.632
667 0 37.1371 12.7366 473 120.224 427.514 503.486
668 0 39.0659 12.9525 506 117.751 427.451 502.395
669 0 39.0998 12.4553 487 117.033 427.343 500.608
670 0 39.0441 13.3183 520 117.321 427.004 497.846
671 0 41.1902 12.4787 514 119.564 427.126 496.84
672 0 44.0456 12.3735 545 120.613 427.631 493.433
673 0 42.0615 13.0523 549 119.973 426.26 493.124
674 0 44.2154 12.9819 574 121.164 427.216 491.488
675 0 47.1349 12.6021 594 118.532 428.938 490.609
676 0 47.0935 13.0591 615 118.059 429.563 489.977
677 0 49.1314 15.0209 738 114.476 430.629 489.575
678 0 49.0381 13.4181 658 118.755 431.924 489.263
679 0 55.112 12.4292 685 113.993 433.778 487.496
680 0 55.0979 13.0132 717 115.032 436.844 486.884
681 0 56.1722 11.9454 671 116.487 438.216 488.091
682 0 59.2866 12.6504 750 116.893 439.483 487.101
683 0 61.2645 11.5564 708 116.605 440.662 487.432
684 0 66.4257 11.336 753 117.309 440.896 484.635
685 1 35.0969 11.568 406 111.441 441.835 501.901
686 0 35.206 10.3959 366 116.749 441.268 501.645
687 0 39.487 12.0293 475 114.787 439.954 501.798
688 0 41.3076 12.5643 519 112.464 437.748 501.141
689 0 42.3958 10.0953 428 118.395 436.696 501.465
690 0 42.304 10.1645 430 118.253 435.754 500.235
691 0 42.1838 10.5728 446 118.433 434.585 500.135
692 1 19.0062 10.1546 193 105.192 434.539 509.373
693 0 23.0224 10.9024 251 103.94 433.92 507.167
694 0 23.1915 10.478 243 105.65 433.091 505.099
695 0 28.2147 10.5619 298 104.107 431.336 501.054
696 0 28.1676 8.66243 244 105.516 430.27 501.516
697 0 30.083 11.568 348 105.319 429.046 496.853
698 0 29.1747 9.80301 286 108.136 430.014 496.133
699 0 34.3005 10.8162 371 105.42 429.625 495.536
700 0 34.1234 10.8137 369 108.42 429.322 493.306
701 0 34.3171 11.8017 405 106.254 430.212 490.504
702 0 36.1898 12.545 454 104.421 430.742 491.489
703 0 37.1662 12.4306 462 106.355 432.123 490.234
704 0 37.0127 11.5366 427 109.466 433.939 490.532
705 0 39.0173 12.0716 471 111.49 435.467 487.1
706 0 39.034 12.1689 475 112.802 436.316 488.455
707 0 45.1105 14.4534 652 105.564 438.339 486.032
708 0 46.2411 13.9486 645 108.022 440.416 486.584
709 0 46.1174 13.5524 625 111.565 442.672 487.214
710 0 45.0527 12.3855 558 118.34 443.95 487.771
711 0 51.1828 14.4384 739 109.748 443.982 486.198
712 0 52.1823 13.9128 726 112.519 445.174 487.503
713 0 53.199 13.2897 707 113.713 444.584 487.761
714 0 56.4191 13.8251 780 112.44 445.619 484.76
715 0 59.381 14.348 852 111.884 445.85 486.388
716 0 61.358 14.0161 860 113.128 445.416 485.081
717 0 65.4475 14.3779 941 112.921 444.22 482.986
718 0 70.4995 14.5391 1025 111.766 442.931 481.581
719 1 37.2957 11.6367 434 111.373 442.244 499.032
720 0 38.3737 12.0656 463 112.287 440.743 495.965
721 0 39.252 11.7446 461 113.709 438.67 495.011
722 0 40.418 12.9893 525 111.973 436.83 491.975
723 0 43.2843 12.2215 529 112.913 435.361 491.611
724 0 45.073 13.223 596 112.495 433.664 491.411
725 0 45.044 12.7875 576 114.399 433.465 490.29
726 0 47.2237 13.1502 621 113.377 432.089 485.063
727 0 49.2851 14.0408 692 111.582 431.672 484.283
728 0 51.1163 13.9486 713 110.457 431.491 484.519
729 0 51.1757 13.3657 684 113.928 431.985 481.933
730 0 53.0893 13.6562 725 112.957 431.357 477.886
731 0 55.1345 13.6938 755 111.254 431.491 477.371
732 0 57.2 13.479 771 112.027 431.429 476.589
733 0 61.1618 13.9793 855 109.925 432.296 477.806
734 0 62.2296 13.7394 855 111.304 433.647 477.464
735 0 64.2075 14.0793 904 110.727 435.668 476.441
736 0 66.1342 14.1077 933 111.286 438.369 473.982
737 0 70.1722 14.2792 1002 109.778 440.276 475.991
738 0 70.2551 14.4331 1014 112.155 441.339 477.658
739 0 75.1907 14.5497 1094 111.239 442.931 475.37
740 0 80.2183 15.3706 1233 108.855 444.623 472.95
741 0 83.2255 14.9113 1241 110.876 444.409 472.339
742 0 88.2156 15.0314 1326 110.799 443.233 473.803
743 0 94.4299 14.7729 1395 111.401 442.6 473.46
744 1 50.0272 12.7331 637 110.276 440.239 495.686
745 0 52.0518 12.0841 629 112.164 438.58 495.874
746 0 56.048 14.0594 788 104.694 436.288 492.895
747 0 56.1653 12.9439 727 109.055 434.776 494.66
748 0 59.2133 13.2403 784 109.179 432.703 493.159
749 0 61.1297 14.641 895 107.121 430.226 491.829
750 0 65.1507 14.1365 921 108.834 429.214 489.081
751 0 70.0939 14.9656 1049 105.571 429.084 486.747
752 0 70.1062 13.3797 938 112.619 429.601 483.816
753 0 73.1637 14.1054 1032 110.445 428.88 482.457
754 0 74.1276 14.7179 1091 109.344 429.703 481.592
755 0 79.1925 14.5468 1152 109.873 427.803 476.47
756 0 81.2546 14.1284 1148 111.944 428.593 473.267
757 0 82.2083 12.1399 998 116.041 429.039 471.603
758 0 90.3652 14.043 1269 110.939 428.926 468.418
759 0 92.2309 13.7481 1268 111.342 429.472 468.387
760 0 96.3063 14.4123 1388 108.641 429.285 464.23
761 0 99.4896 14.8357 1476 108.511 430.944 461.904
762 1 56.0998 13.0838 734 104.154 432.984 483.668
763 0 58.0744 11.1581 648 105.795 435.505 484.147
764 0 62.1483 12.261 762 103.916 435.055 483.077
765 0 65.1884 13.8828 905 101.91 436.913 481.876
766 0 63.0809 11.1127 701 110.613 440.486 480.723
767 0 69.1555 13.6793 946 103.706 441.062 480.427
768 0 73.2507 13.1603 964 105.401 441.627 478.67
769 0 75.1817 13.9529 1049 105.309 440.592 477.832
770 0 80.1904 13.1936 1058 106.576 440.6 478.601
771 1 42.1255 9.80403 413 105.206 439.901 498.409
772 0 42.0979 8.88406 374 106.58 439.548 501.816
773 0 47.2493 12.7621 603 101.267 438.29 495.725
774 0 50.0993 12.6349 633 99.3096 436.847 497.024
775 0 51.3442 13.7309 705 91.4794 435.572 494.482
776 0 53.1269 12.5737 668 92.1258 433.817 492.774
777 0 54.1306 13.8184 748 90.7019 431.317 492.397
778 0 55.0562 13.4227 739 92.9648 431.039 492.078
779 0 60.0654 15.4831 930 87.9183 430.084 487.324
780 0 60.1906 14.155 852 91.3134 428.955 486.175
781 0 61.1481 13.361 817 93.5386 428.535 483.889
782 0 66.1202 14.2316 941 91.5398 428.406 483.013
783 0 67.0862 13.4752 904 94.771 428.562 476.775
784 0 70.1611 13.9536 979 93.7436 428.424 474.243
785 0 74.3757 13.5932 1011 94.0959 428.6 476.112
786 1 40.0803 9.48097 380 96.2395 428.845 493.921
787 0 38.0719 10.2438 390 94.3615 429.582 494.492
788 0 42.1454 11.4366 482 91.639 430.923 492.598
789 0 45.1406 12.2285 552 89.6105 432.87 491.708
790 0 44.0862 11.5456 509 93.8585 434.008 489.918
791 0 48.1888 13.6339 657 87.8995 436.711 489.807
792 0 48.1296 13.7961 664 88.2078 436.729 491.983
793 0 48.1824 12.7432 614 90.9609 437.855 492.894
794 0 50.2471 12.5977 633 91.8894 438.148 493.771
795 0 53.1967 13.5347 720 90.9819 438.558 492.619
796 0 56.1237 14.0404 788 90.7005 438.957 492.423
797 0 58.1994 14.33 834 90.265 438.348 492.657
798 0 59.1154 13.1607 778 95.5823 437 494.278
799 0 63.1473 13.904 878 94.2107 436.052 495.173
800 0 65.2382 13.673 892 97.343 434.604 492.127
801 0 68.1533 14.2913 974 97.3337 433.121 490.029
802 0 70.1738 13.0105 913 100.148 431.827 490.78
803 0 74.1172 14.3287 1062 100.225 430.152 486.688
804 0 77.1657 13.5682 1047 102.951 428.208 484.649
805 1 43.0725 11.2833 486 103.27 428.51 500.42
806 0 44.153 12.3887 547 100.843 427.194 498.267
807 0 46.0292 12.5572 578 99.9879 427.228 497.285
808 0 46.0758 12.1105 558 104.927 426.754 494.147
809 0 51.057 12.9855 663 100.946 426.388 492.044
810 0 48.2679 12.9071 623 104.708 424.841 489.841
811 0 52.1557 13.4597 702 102.355 425.708 488.245
812 0 52.1785 12.2848 641 108.24 425.796 487.771
813 0 57.1698 13.871 793 100.518 426.429 484.281
814 0 57.1423 12.9676 741 101.73 427.274 482.692
815 0 58.1624 12.5855 732 103.378 428.495 482.779
816 0 59.1777 12.623 747 102.896 429.626 484.06
817 0 60.1272 11.9912 721 104.746 431.057 480.454
818 0 64.1788 13.3689 858 101.559 432.759 479.167
819 0 68.1201 13.1239 894 101.15 435.054 477.294
820 0 73.116 13.9504 1020 98.8765 436.457 479.03
821 0 72.2523 12.83 927 103.398 437.982 478.577
822 1 40.0532 11.1851 448 99.0737 440.337 496.022
823 0 40.0684 11.5802 464 100.556 439.31 496.416
824 0 43.1151 13.1276 566 96.9894 439.996 493.936
825 0 45.126 14.0495 634 94.4117 439.549 493.177
826 0 46.2815 12.1431 562 97.6406 437.988 495.576
827 0 51.1079 13.54 692 93.6069 435.75 494.575
828 0 50.1024 12.5942 631 96.6815 434.599 495.577
829 0 51.1856 12.5035 640 98.9344 434.208 492.855
830 0 58.1709 12.1195 705 95.7461 432.643 491.421
831 0 59.1338 13.6132 805 93.3466 431.513 488.36
832 0 60.0623 14.102 847 93.2255 431.808 487.675
833 0 63.0837 13.0462 823 94.2345 431.097 486.766
834 1 33.1038 11.8717 393 93.3817 429.43 498.364
835 0 35.0502 10.4136 365 93.2767 429.715 496.411
836 0 39.0557 13.5192 528 85.9697 428.913 494.14
837 0 36.1649 10.6457 385 90.0338 429.039 493.418
838 0 40.2493 11.5033 463 86.5248 429.769 493.644
839 0 39.1296 10.0691 394 89.5432 429.822 491.571
840 0 42.2712 12.4908 528 84.3352 430.297 491.008
841 0 42.0421 10.3706 436 89.2362 431.821 491.401
842 0 46.0366 13.4458 619 85.3506 433.501 488.342
843 0 46.0761 10.9818 506 88.3874 434.496 487.98
844 0 47.1168 12.6919 598 86.2107 436.284 488.567
845 0 50.1341 12.7658 640 85.6984 437.62 487.958
846 0 53.0248 13.5786 720 83.6847 439.188 487.979
847 0 52.0623 13.6567 711 86.1308 441.35 489.191
848 0 54.0659 13.0766 707 87.7001 441.147 491.536
849 0 53.2066 12.0474 641 91.0749 441.808 492.019
850 0 60.0871 13.6136 818 87.0636 441.477 490.483
851 0 61.212 13.5267 828 89.1184 439.641 491.878
852 0 64.0611 12.9408 829 90.1351 438.02 490.555
853 0 68.3456 13.4317 918 89.5174 437.97 489.033
854 0 73.3247 14.6335 1073 87.4045 436.172 487.837
855 0 77.152 16.4351 1268 85.5789 434.409 486.18
856 0 80.2839 14.8349 1191 86.4811 432.485 484.761
857 1 43.2393 11.101 480 90.2479 431.327 500.529
858 0 42.2595 10.0569 425 91.28 429.673 500.24
859 0 46.2774 12.7492 590 88.0288 427.634 498.407
860 0 49.3309 11.1897 552 89.1141 427.808 496.147
861 0 49.4453 13.1863 652 87.5399 426.748 492.06
862 0 53.0883 12.0554 640 89.2406 426.55 492.891
863 0 54.1407 12.9293 700 89.7143 426.334 491.581
864 0 55.0691 13.0382 718 90.9763 426.572 487.616
865 0 57.4806 14.7702 849 87.9753 426.583 486.545
866 0 60.0767 14.4149 866 89.6674 426.613 485.27
867 0 60.3573 12.9065 779 90.0308 426.641 485.205
868 0 62.1369 13.3254 828 89.7717 425.764 482.807
869 0 65.3696 14.5022 948 88.8734 427.775 479.829
870 0 66.2246 15.6588 1037 88.3452 429.722 480.278
871 0 72.8025 16.7027 1216 85.81 431.545 477.12
872 0 73.4404 14.6241 1074 90.2728 433.246 479.406
873 0 76.3964 14.4902 1107 94.0976 434.735 477.24
874 0 78.4108 14.6663 1150 93.4887 435.602 477.963
875 0 84.449 15.1926 1283 90.8012 437.041 478.054
876 0 87.5366 15.0566 1318 92.3126 437.947 472.93
877 0 93.6495 14.9814 1403 92.3699 437.79 473.351
878 0 95.1881 15.4641 1472 95.8668 436.938 471.515
879 1 52.2999 12.6578 662 94.8263 437.323 492.557
880 0 56.1491 13.2326 743 92.9246 434.773 493.95
881 0 55.0809 11.2743 621 97.6779 433.836 494.337
882 0 61.2638 14.7395 903 91.1573 433.548 490.807
883 0 63.1923 13.8308 874 94.6464 432.659 489.349
884 0 66.255 14.4291 956 93.296 430.546 487.274
885 0 69.3125 14.6005 1012 92.665 429.96 484.884
886 0 70.2335 13.4124 942 92.1263 428.941 483.658
887 0 75.1723 15.0853 1134 89.575 427.72 478.998
888 0 78.2459 15.6558 1225 88.0784 427.191 478.238
889 0 79.2762 13.9386 1105 92.7348 427.421 474.96
890 0 81.2344 14.5751 1184 92.647 427.226 472.834
891 0 82.2323 12.7322 1047 96.957 427.266 470.327
892 0 86.414 13.2155 1142 94.7758 426.903 464.811
893 0 91.2457 13.5897 1240 93.3564 427.556 464.588
894 1 44.0473 10.0574 443 88.009 428.51 489.33
895 0 46.0831 9.41777 434 90.9447 429.737 485.108
896 0 49.1179 11.9508 587 88.7717 430.494 483.002
897 0 50.1425 11.3477 569 89.7346 430.777 482.487
898 0 54.2073 11.3638 616 90.263 432.919 483.118
899 0 57.3435 13.3058 763 86.9764 434.4 480.242
900 0 59.2363 11.8677 703 89.3343 436.987 481.232
901 0 62.1496 12.5825 782 88.032 439.069 483.877
902 0 63.4166 12.2208 775 89.5987 440.617 484.279
903 0 64.4189 13.2725 855 89.8959 441.883 483.575
904 0 68.3413 12.3205 842 91.4299 441.999 481.891
905 0 76.4889 13.283 1016 90.4793 441.259 483.035
906 0 78.3038 13.6136 1066 90.9794 440.704 483.539
907 0 77.3995 12.4936 967 95.1965 439.464 482.472
908 1 47.055 10.6896 503 94.5825 438.626 500.626
909 0 46.0426 11.6414 536 91.8563 437.175 500.944
910 0 48.0279 11.9722 575 91.88 435.136 499.203
911 0 52.0487 10.9321 569 92.9631 432.726 498.186
912 0 53.0255 12.3903 657 92.8204 431.411 494.898
913 0 56.0667 13.5553 760 89.3184 430.603 493.692
914 0 57.155 12.4748 713 90.8317 427.666 493.16
915 0 57.1884 13.814 790 89.7418 427.21 491.306
916 0 62.1791 12.9626 806 90.9814 425.638 489.196
917 0 64.3375 13.3981 862 89.3573 425.108 487.507
918 0 65.1846 12.9018 841 92.604 424.803 484.946
919 0 70.2597 13.1085 921 91.1346 424.979 481.772
920 0 71.2182 14.0835 1003 91.351 426.584 477.533
921 0 72.2204 11.9357 862 95.3028 426.415 479.117
922 0 73.1653 13.2167 967 93.8004 427.761 478.906
923 0 78.194 11.7784 921 95.4289 427.669 475.443
924 0 80.2445 11.1659 896 96.2567 428.616 476.771
925 0 86.1136 14.7247 1268 90.2484 430.759 473.11
926 0 88.3018 13.4992 1192 92.8532 432.257 470.009
927 1 48.0794 11.377 547 88.6801 434.068 495.091
928 0 49.2197 11.0118 542 90.441 436.096 494.86
929 0 51.2032 12.5969 645 90.3922 437.554 495.549
930 0 52.3515 11.4992 602 96.8821 437.347 493.684
931 0 56.2216 12.931 727 94.9807 438.201 492.054
932 0 60.183 12.246 737 94.8738 437.731 495.507
933 0 59.2324 12.2906 728 96.158 437.58 493.883
934 0 62.3202 11.3286 706 95.6331 435.799 493.718
935 0 67.1707 14.8428 997 90.4042 434.715 491.478
936 0 69.1389 14.1744 980 91.0847 432.689 487.303
937 0 72.3454 13.0485 944 93.5858 431.589 488.006
938 0 76.26 13.8998 1060 94.7264 429.311 482.299
939 0 76.2542 13.0616 996 98.749 428.918 481.322
940 0 83.2811 13.5925 1132 97.735 426.986 478.144
941 0 86.3864 15.0139 1297 95.4472 425.392 473.379
942 0 85.2413 13.1744 1123 101.4 424.185 470.378
943 0 90.4846 14.9749 1355 98.8649 423.643 466.309
944 0 92.3455 13.5686 1253 101.842 423.717 462.717
945 0 96.4907 15.0584 1453 98.2712 423.427 460.408
946 0 99.384 15.1131 1502 98.6804 423.457 460.853
947 0 100.551 13.8238 1390 102.875 424.717 458.686
948 0 103.504 14.753 1527 100.263 425.873 453.405
949 0 107.369 14.697 1578 100.712 426.847 452.571
950 0 113.318 15.2315 1726 98.8088 427.976 449.689
951 0 111.376 13.8539 1543 102.286 429.478 448.099
952 0 118.303 15.3082 1811 99.8967 430.949 448.178
953 1 62.244 10.6998 666 101.441 434.737 479.122
954 0 67.1279 12.1261 814 98.1241 436.01 478.498
955 0 68.3061 12.078 825 101.648 437.707 476.582
956 0 71.1545 13.7869 981 96.1641 438.777 478.469
957 0 75.1386 13.1224 986 97.5396 439.957 479.623
958 0 76.1702 12.3277 939 99.6986 440.963 478.444
959 0 82.3044 15.795 1300 93.0046 440.631 480.123
960 0 88.4122 14.0026 1238 95.9758 440.162 478.922
961 0 90.3757 14.5393 1314 96.242 439.759 476.825
962 1 48.2495 10.6115 512 98.416 438.201 499.572
963 0 51.219 11.9682 613 96.2529 437.114 497.449
964 0 51.4021 10.6805 549 97.969 435.324 497.69
965 0 55.1525 13.4174 740 93.3865 433.954 494.972
966 0 58.3088 13.5657 791 92.7269 432.367 492.875
967 0 60.2086 13.0878 788 93.3134 430.863 491.678
968 0 61.3017 13.8006 846 93.0792 429.522 490.593
969 0 64.4115 13.9727 900 93.4122 429.087 487.566
970 0 67.3955 14.1552 954 93.8082 427.61 483.66
971 0 69.3815 14.4995 1006 93.2744 427.835 481.416
972 0 71.3842 13.4764 962 96.183 427.55 479.981
973 0 72.3576 14.1796 1026 95.3967 427.603 476.547
974 0 75.2377 14.2083 1069 96.6623 427.584 473.67
975 0 78.7753 13.5068 1064 96.5648 427.975 474.537
976 0 78.3902 13.2415 1038 99.1965 429.264 470.224
977 0 83.538 14.6281 1222 95.5646 429.975 468.874
978 1 43.3136 11.1974 485 96.2825 431.748 490.707
979 0 46.42 13.1194 609 93.9146 432.88 488.785
980 0 48.6093 10.821 526 97.6806 435.179 488.164
981 0 50.4562 13.5959 686 94.7843 435.684 487.724
982 0 48.3964 11.8191 572 99.5367 436.642 488.117
983 0 53.1375 13.1734 700 95.0814 438.383 489.72
984 0 55.4245 12.7922 709 96.4217 440.219 487.595
985 0 58.3407 13.2669 774 97.2054 441.845 488.003
986 0 58.2644 12.7179 741 99.3752 441.124 489.676
987 0 62.1693 13.3989 833 100.409 440.316 487.843
988 0 65.3223 11.9408 780 101.86 439.77 489.974
989 0 69.2793 13.1641 912 100.63 438.885 486.663
990 0 71.6352 12.9266 926 100.057 437.473 486.956
991 0 77.2799 14.5187 1122 95.8057 435.471 485.659
992 0 78.3574 13.8851 1088 98.193 434.27 482.898
993 0 81.2865 14.1844 1153 97.588 432.432 481.258
994 0 84.4124 12.2968 1038 100.581 431.482 477.31
995 1 46.1576 10.0308 463 97.1512 431.441 496.732
996 0 48.1532 10.5704 509 96.7426 430.64 495.473
997 0 49.0713 11.2897 554 95.7617 428.903 493.957
998 0 52.1381 11.0859 578 95.7336 427.751 486.92
999 0 54.0867 12.5354 678 93.9513 428.44 484.813
1000 0 55.1253 13.1156 723 92.4869 429.048 484.746
1001 0 55.1705 12.8873 711 96.6329 428.537 481.565
1002 0 59.2344 14.029 831 93.7256 428.611 480.523
1003 0 61.0935 12.4072 758 95.6939 429.875 479.074
1004 0 62.0474 12.5549 779 95.5738 429.861 480.646
1005 0 66.1284 12.2187 808 96.4616 431.082 479.541
1006 0 66.1157 12.8714 851 96.1422 432.357 478.321
1007 0 68.152 11.3716 775 97.3845 433.6 480.51
1008 0 70.1128 12.7651 895 97.0112 435.961 478.251
1009 0 75.1931 13.6715 1028 94.8327 438.191 477.377
1010 0 77.0785 13.8301 1066 95.47 440.103 476.858
1011 0 77.0785 13.8301 1066 133.203 442.105 476.919
1012 0 82.3087 11.5662 952 98.3162 441.633 477.422
1013 0 87.1741 13.7311 1197 96.0744 442.459 475.247
1014 1 47.0584 10.1788 479 96.4697 441.562 496.948
1015 0 50.1901 10.0617 505 95.7762 440.067 497.81
1016 0 53.2654 11.959 637 94.664 439.914 496.549
1017 0 55.3139 12.5285 693 95.1746 438.765 495.561
1018 0 56.3118 11.9336 672 96.1994 437.146 496.26
1019 0 58.2236 12.6924 739 97.046 435.139 493.367
1020 0 63.2375 11.6228 735 97.4517 433.293 491.528
1021 0 66.2859 13.0797 867 95.534 432.344 488.193
1022 0 69.1881 13.3549 924 95.7846 430.959 485.53
1023 0 72.365 13.6806 990 95.4172 430.006 482.07
1024 0 75.2247 14.0778 1059 95.1265 428.864 481.434
1025 0 77.377 13.3114 1030 97.6534 428.416 478.102
1026 0 80.3804 13.3988 1077 97.9814 428.565 476.964
1027 1 42.1102 10.235 431 94.8167 429.661 496.536
1028 0 43.027 11.6903 503 95.493 429.825 493.96
1029 0 43.0815 11.4899 495 95.9535 430.289 493.614
1030 0 43.0606 12.6798 546 97.6996 430.8 491.077
1031 1 85.4183 11.3793 972 105.474 429.876 473.806
1032 0 86.3848 12.4791 1078 104.95 430.159 470.819
1033 0 85.2976 13.5057 1152 105.514 430.615 470.277
1034 0 87.3473 13.017 1137 106.836 430.845 471.804
1035 1 53.0281 12.5782 667 94.051 434.054 489.526
1036 0 56.2792 14.0194 789 89.616 435.972 487.024
1037 0 56.3421 13.4358 757 92.5799 438.464 485.407
1038 0 59.145 13.4077 793 91.9886 439.801 486.516
1039 0 62.2301 13.1608 819 91.746 440.82 487.619
1040 1 33.2949 9.52099 317 89.5552 441.577 504.338
1041 0 36.3104 10.8509 394 90.3274 441.155 502.627
1042 0 38.1772 11.3942 435 89.2023 439.913 503.72
1043 0 40.2389 10.8104 435 91.1149 438.106 504.12
1044 0 42.2002 12.3696 522 89.6552 437.736 502.331
1045 0 44.2611 13.7593 609 86.4647 436.25 503.816
1046 0 45.552 11.9424 544 93.421 434.688 502.949
1047 0 46.2758 13.8734 642 91.796 433.769 499.759
1048 0 48.482 12.4376 603 93.3964 431.886 500.342
1049 0 48.3296 13.2838 642 94.0405 431.254 497.255
1050 0 48.2878 12.3427 596 96.0252 430.141 497.359
1051 0 49.5111 11.4116 565 98.2407 429.127 494.874
1052 0 56.4874 14.8352 838 89.8246 428.599 487.962
1053 0 55.2637 12.1961 674 96.4807 428.053 485.371
1054 0 60.2421 13.2466 798 92.6454 427.848 484.878
1055 0 59.2912 11.6206 689 96.6836 427.865 482.147
1056 0 63.3134 13.8201 875 93.2034 427.509 478.863
1057 0 63.1996 12.2311 773 95.4942 428.409 480.665
1058 0 64.1429 12.706 815 96.173 429.426 476.07
1059 0 69.2642 13.2247 916 93.4945 429.948 475.341
1060 0 72.4066 13.6728 990 93.4707 431.231 474.492
1061 0 72.2601 12.8286 927 95.1877 432.277 474.834
1062 0 77.2024 13.782 1064 92.9643 433.796 473.533
1063 0 78.2798 11.5483 904 96.2976 436.61 474.883
1064 0 79.3296 11.9375 947 97.9799 438.397 473.427
1065 0 85.2732 14.2131 1212 93.0462 439.94 470.708
1066 0 91.3349 14.6494 1338 91.9357 441.117 466.836
1067 1 50.0962 12.3962 621 89.6361 441.523 490.198
1068 0 52.0811 10.6949 557 92.5063 442.887 491.946
1069 0 54.0988 13.7896 746 88.4236 442.327 490.991
1070 0 56.0974 12.9953 729 91.3717 441.682 493.259
1071 0 59.04 10.1965 602 95.9169 440.537 491.915
1072 0 63.1403 13.5254 854 88.7471 438.013 489.604
1073 0 65.1612 11.5866 755 92.4 436.918 487.689
1074 0 69.3224 12.1606 843 91.1993 435.298 487.638
1075 0 68.1559 10.6667 727 94.586 433.605 484.659
1076 0 75.394 13.2239 997 89.1454 432.217 480.261
1077 0 78.4526 12.0327 944 91.6727 431.798 477.862
1078 1 44.237 7.68588 340 91.2324 430.188 496.147
1079 0 43.1585 9.8706 426 88.7817 429.46 492.505
1080 0 44.1583 12.8855 569 84.9279 429.425 490.076
1081 0 46.1788 11.8453 547 86.6124 429.824 488.013
1082 0 47.1339 11.9235 562 88.2384 428.733 483.456
1083 0 48.0241 12.1189 582 89.5172 430.582 481.445
1084 0 51.0712 12.3749 632 88.9873 431.024 481.476
1085 0 53.0882 12.6205 670 88.9716 430.639 482.379
1086 0 56.0801 13.1062 735 87.566 431.356 479.544
1087 0 57.0787 13.6478 779 87.5905 432.166 478.268
1088 0 59.0463 12.1938 720 90.0292 434.399 479.443
1089 0 61.0601 13.8552 846 88.1643 436.53 479.141
1090 0 64.2948 12.7693 821 89.3362 438.549 479.918
1091 0 63.5168 12.2015 775 91.7536 440.204 480.174
1092 0 68.2078 12.7551 870 90.1161 442.98 476.395
1093 0 70.1826 13.0232 914 90.7473 443.777 478.8
1094 0 73.4755 14.236 1046 88.0794 444.267 476.486
1095 0 76.5519 12.9585 992 89.7581 443.71 479.333
1096 0 82.5744 13.6241 1125 88.2667 443.777 475.689
1097 0 85.5638 13.9545 1194 89.2345 442.245 472.966
1098 1 48.3748 9.199 445 89.5079 441.258 496.238
1099 0 54.4519 9.89865 539 90.2672 439.998 492.245
1100 0 54.2079 12.4705 676 89.2352 437.763 493.17
1101 0 56.4504 14.03 792 87.649 436.039 492.819
1102 0 59.3997 13.7711 818 90.9792 434.949 488.864
1103 0 63.4679 14.8422 942 89.4873 433.637 483.072
1104 0 63.1192 12.516 790 94.6823 433.035 485.814
1105 0 66.2216 13.3038 881 92.9955 432.245 482.826
1106 0 68.313 13.4089 916 93 431.043 481.011
1107 0 72.2747 13.2688 959 92.9875 430.232 477.008
1108 0 75.411 14.6265 1103 90.4551 430.257 475.781
1109 0 76.6487 14.1685 1086 93.7385 430.415 472.318
1110 0 79.5312 15.189 1208 91.6283 430.611 469.509
1111 0 82.7193 12.887 1066 96.0901 430.719 469.386
1112 0 85.5425 13.3852 1145 96.1039 431.589 464.853
1113 0 89.6634 14.0414 1259 95.1581 433.01 463.788
1114 1 47.3622 11.2326 532 93.3233 433.613 487.34
1115 0 48.5127 11.6464 565 96.1664 434.184 485.081
1116 0 51.8673 10.8353 562 95.7918 437.027 484.824
1117 0 53.3842 12.0073 641 97.3588 438.151 483.938
1118 0 55.2868 13.9997 774 91.8786 440.707 485.26
1119 0 56.5328 12.7537 721 98.4036 441.698 484.775
1120 0 61.2547 13.3214 816 95.2157 442.868 484.893
1121 0 65.3633 14.4424 944 93.5053 442.882 483.851
1122 0 66.2976 12.7305 844 98.8389 442.568 484.707
1123 0 70.2875 12.5911 885 98.7763 441.894 486.42
1124 0 72.2255 12.9456 935 100.007 441.096 483.613
1125 1 41.1004 10.3162 424 96.8113 442.512 501.894
1126 0 44.1626 10.5519 466 96.2618 440.788 501.041
1127 0 44.0717 9.37109 413 97.6247 439.465 501.83
1128 0 45.105 10.0432 453 98.4547 438.106 498.592
1129 0 51.1533 12.14 621 93.7504 435.747 494.804
1130 0 50.0746 11.8423 593 99.0776 434.263 492.961
1131 0 53.1591 13.3185 708 96.7853 433.823 491.764
1132 0 55.3321 12.4701 690 101.112 431.464 490.678
1133 0 55.3316 12.9763 718 100.27 430.678 487.799
1134 0 58.4263 12.888 753 100.645 430.219 485.819
1135 0 59.3723 13.5417 804 100.866 429.889 482.853
1136 0 61.3865 12.6086 774 102.709 430.474 484.004
1137 0 62.5446 12.7109 795 101.321 431.162 480.21
1138 0 63.2678 12.9924 822 103.262 431.326 477.529
1139 0 67.2096 14.0159 942 100.978 432 480.066
1140 0 66.365 12.8079 850 105.326 433.084 478.801
1141 0 70.6526 12.979 917 103.688 433.653 477.836
1142 0 75.3708 14.2363 1073 100.34 434.788 474.223
1143 0 76.3299 12.97 990 103.575 435.473 475.348
1144 1 40.0646 12.3301 494 99.0708 438.567 495.577
1145 0 39.055 10.5748 413 106.087 440.642 492.298
1146 0 45.2297 11.7401 531 100.557 441.284 493.74
1147 0 46.1257 11.6204 536 102.039 442.838 495.494
1148 0 46.2176 11.8353 547 103.346 442.135 496.32
1149 0 48.1921 12.7614 615 98.9415 442.091 496.693
1150 0 49.1044 12.1374 596 102.681 441.728 494.354
1151 0 52.1468 12.0813 630 103.192 441.662 496.987
1152 0 53.1584 12.3217 655 102.869 441.379 495.108
1153 0 57.2763 12.85 736 101.442 439.908 495.418
1154 0 57.0927 13.3993 765 103.09 439.005 495.681
1155 0 58.0836 11.9483 694 106.393 437.523 495.465
1156 0 60.1354 12.4386 748 105.852 436.231 492.674
1157 0 65.2283 13.7824 899 99.3059 432.813 487.644
1158 0 66.0908 13.1183 867 103.751 433.332 487.02
1159 0 69.047 14.2077 981 102.068 432.573 487.281
1160 0 73.2013 14.7675 1081 99.6142 430.869 481.374
1161 0 73.1716 13.6528 999 103.033 430.219 478.823
1162 1 40.1283 8.89646 357 107.613 430.266 495.137
1163 0 39.0655 9.49686 371 109.129 430.059 493.003
1164 0 41.1064 10.8499 446 107.356 430.191 491.408
1165 0 43.1655 11.7455 507 104.369 430.846 490.106
1166 0 42.1714 13.0657 551 104.644 430.964 487.24
1167 0 45.1565 13.6636 617 102.796 431.263 485.883
1168 0 48.1648 13.5368 652 100.572 431.859 486.917
1169 0 47.1256 13.0715 616 103.128 432.956 484.433
1170 0 49.0961 14.9706 735 99.4952 434.322 483.638
1171 0 51.0344 13.7358 701 101.511 435.588 483.514
1172 0 53.0748 12.4541 661 105.563 438.595 486.803
1173 0 51.0338 13.7556 702 106.595 440.037 484.184
1174 0 57.1664 14.4491 826 102.046 441.84 485.357
1175 0 58.0851 14.5821 847 103.438 443.303 484.488
1176 0 60.0655 13.4187 806 103.736 444.254 484.099
1177 0 62.1844 14.055 874 103.253 444.362 484.323
1178 0 65.046 14.3898 936 103.62 444.409 484.431
1179 0 69.1125 15.9305 1101 101.175 443.039 483.304
1180 0 70.2202 13.1586 924 109.226 442.231 483.496
1181 0 72.1426 14.208 1025 109.071 441.225 482.277
1182 0 76.1629 14.9285 1137 107.662 440.234 481.558
1183 0 79.049 15.3576 1214 107.507 438.237 480.224
1184 0 80.1236 14.0782 1128 111.413 437.605 479.484
1185 0 86.1512 14.5442 1253 110.289 436.785 476.779
1186 1 44.0561 11.44 504 111.99 435.083 494.923
1187 0 46.187 10.9988 508 111.179 434.407 494.256
1188 0 47.0728 13.8296 651 108.023 433.588 490.739
1189 0 49.034 12.8686 631 109.263 432.937 488.249
1190 0 49.088 13.0378 640 109.767 431.862 485.647
1191 0 54.1882 13.4531 729 106.453 430.914 484.7
1192 0 56.1954 13.7556 773 106.223 431.135 482.841
1193 0 55.2451 12.9604 716 112.557 431.633 479.656
1194 0 59.2191 14.2522 844 109.064 431.642 476.355
1195 0 60.3911 13.6941 827 109.814 431.734 477.705
1196 0 63.3134 13.4727 853 109.606 432.877 477.829
1197 0 63.103 12.9154 815 112.596 432.436 473.074
1198 0 69.1795 13.0674 904 110.811 434.269 472.427
1199 0 69.2573 12.9228 895 111.912 436.592 473.219
1200 0 74.2335 14.0233 1041 107.626 438.465 472.019
1201 0 78.1666 13.7783 1077 107.593 441.507 468.933
1202 1 43.0482 10.8948 469 107.535 443.38 489.139
1203 0 45.0919 10.778 486 106.074 444.23 490.64
1204 0 48.0574 13.1301 631 101.185 444.25 490.165
1205 0 51.0679 14.373 734 99.1362 444.846 489.042
1206 0 50.0495 11.8483 593 105.037 444.877 489.676
1207 0 55.0986 12.8679 709 102.556 444.35 487.886
1208 0 57.0566 13.2675 757 103.513 444.185 487.849
1209 0 60.0716 13.2675 797 102.532 442.937 486.433
1210 0 64.0329 13.087 838 101.006 441.055 487.094
1211 0 68.0695 13.3246 907 99.9074 439.632 485.142
1212 0 70.2113 14.1003 990 98.9535 438.466 484.445
1213 0 72.2046 13.0878 945 101.57 436.459 483.23
1214 1 39.0425 11.5259 450 98.34 435.784 499.918
1215 0 41.0383 12.0863 496 96.1411 434.812 497.036
1216 0 41.1509 12.0532 496 96.6754 433.96 495.536
1217 0 42.079 11.8349 498 98.8554 433.528 494.641
1218 0 43.0451 13.9156 599 95.4725 433.631 493.893
1219 0 47.0701 13.7667 648 96.3889 433.301 489.031
1220 0 46.0789 12.9994 599 101.299 433.075 484.778
1221 0 49.0664 14.083 691 98.3878 432.858 486.039
1222 0 51.0142 12.0359 614 100.518 433.331 483.034
1223 0 53.0577 14.3429 761 95.8134 434.463 482.604
1224 0 54.0915 12.3679 669 100.07 435.389 483.002
1225 0 55.061 12.3863 682 100.144 435.617 483.425
1226 0 60.0783 14.0816 846 93.7506 436.407 480.738
1227 0 61.085 13.8659 847 95.2527 440.027 480.965
1228 0 64.0491 14.1298 905 94.2442 441.536 481.292
1229 1 37.0312 11.8549 439 96.1002 443.597 495.879
1230 0 36.0477 11.8731 428 97.2009 443.619 496.147
1231 0 39.2305 11.8275 464 93.4095 444.295 497.414
1232 0 40.2383 11.5562 465 94.3763 443.305 497.002
1233 0 42.0883 13.4004 564 90.2447 444.133 498.5
1234 0 45.0946 12.9506 584 92.2671 443.002 499.476
1235 0 46.1155 13.5312 624 92.8782 442.348 498.875
1236 0 46.02 12.5163 576 97.0139 439.955 497.542
1237 0 46.0688 11.8953 548 99.7372 438.657 496.686
1238 0 48.0865 10.7931 519 101.672 437.457 496.358
1239 0 52.0722 11.5609 602 99.9252 435.776 494.324
1240 0 52.0871 10.7896 562 102.569 433.915 492.617
1241 0 56.0378 12.3488 692 99.9769 432.999 488.514
1242 0 59.1802 11.879 703 102.104 431.643 487.165
1243 0 61.1238 13.1373 803 101.12 430.986 484.732
1244 1 32.109 8.65802 278 108.176 429.993 497.068
1245 0 35.1637 10.7782 379 102.781 429.881 495.821
1246 0 36.1283 11.0163 398 103.291 429.641 493.736
1247 0 38.2683 12.4908 478 101.038 429.824 491.559
1248 0 38.1949 11.6246 444 103.315 428.921 488.827
1249 0 39.2259 11.472 450 101.782 431.082 489.647
1250 0 41.1174 11.8928 489 99.9632 432.121 491.446
1251 0 43.2922 12.2655 531 99.0923 432.638 489.501
1252 0 44.1293 11.9875 529 100.102 434.098 488.798
1253 0 46.1239 11.7943 544 100.744 434.844 488.983
1254 0 47.2581 12.8867 609 98.9984 437.281 489.197
1255 0 49.2845 11.3626 560 102.096 439.348 489.593
1256 0 47.3494 11.3201 536 93.9086 439.597 487.007
1257 0 52.266 11.6711 610 105.469 441.389 489.511
1258 0 56.2154 12.043 677 105.266 441.882 488.978
1259 0 56.1744 11.5355 648 105.718 442.156 489.644
1260 1 30.1433 9.05673 273 109.879 442.952 502.586
1261 0 31.1587 7.60623 237 113.616 441.878 503.262
1262 0 33.0333 11.11 367 107.586 440.594 502.856
1263 0 35.0432 9.38841 329 109.945 439.267 504.055
1264 0 39.102 13.273 519 102.019 436.25 503.064
1265 0 41.5818 12.0726 502 105.641 434.522 501.727
1266 0 42.2521 12.8751 544 99.2739 433.691 501.136
1267 0 43.32 12.7886 554 100.803 432.435 498.903
1268 0 43.3289 12.9475 561 101.706 431.308 498.266
1269 0 47.4815 13.0577 620 101.068 429.36 494.813
1270 0 48.286 13.2751 641 101.566 428.942 492.055
1271 0 50.2399 13.2962 668 102.19 429.623 490.557
1272 0 53.226 14.0908 750 100.373 429.755 489.116
1273 0 56.5125 14.1738 801 98.613 429.674 487.116
1274 0 55.4002 13.5559 751 103.059 429.654 482.778
1275 0 56.4296 12.6884 716 105.131 430.07 483.391
1276 0 58.3384 13.7302 801 104.203 430.534 481.722
1277 0 62.2985 12.4562 776 104.512 431.457 479.445
1278 0 61.3018 12.5934 772 131.877 432.453 479.517
1279 1 35.1058 10.682 375 104.917 434.371 493.237
1280 0 37.2222 11.2836 420 105.3 437.3 492.34
1281 0 37.1775 10.1405 377 107.788 439.761 493.7
1282 0 37.2162 11.8228 440 107.141 441.527 491.939
1283 0 39.2847 12.0403 473 106.687 443.144 493.526
1284 0 42.1718 12.7336 537 102.713 443.777 493.473
1285 0 43.1989 11.9216 515 104.033 444.847 494.95
1286 0 47.1942 13.0948 618 100.405 445.126 494.259
1287 0 49.0557 12.7406 625 101.826 444.85 493.442
1288 0 50.333 13.6292 686 99.895 443.109 494.582
1289 0 52.3797 13.6503 715 101.124 441.69 493.105
1290 0 55.1352 13.9657 770 101.223 439.558 492.139
1291 0 56.3666 13.6428 769 102.498 438.25 492.374
1292 0 59.0986 13.0798 773 102.933 437.296 491.37
1293 0 60.2402 13.0146 784 103.945 435.434 488.357
1294 0 64.3068 12.4404 800 103.308 433.85 488.195
1295 0 66.3494 11.6957 776 104.787 432.729 486.729
1296 0 69.4545 13.3325 926 103.184 431.769 481.374
1297 0 73.454 13.5187 993 105.07 431.376 478.444
1298 1 40.0561 10.9846 440 103.98 430.855 493.818
1299 0 40.1371 11.6102 466 104.305 430.732 491.562
1300 0 42.0758 11.099 467 104.056 431.105 489.411
1301 0 45.0879 13.3295 601 97.203 431.544 488.704
1302 0 45.0988 12.5946 568 100.296 430.549 486.533
1303 0 49.0778 12.144 596 103.228 430.946 485.128
1304 0 49.1988 13.2727 653 103.015 432.127 482.611
1305 0 51.0311 12.1103 618 105.189 433.88 482.683
1306 0 52.0855 14.0154 730 102.186 435.914 482.779
1307 0 53.0672 13.888 737 102.345 438.36 480.484
1308 0 56.0894 12.801 718 102.714 440.741 481.677
1309 0 56.0629 11.7903 661 105.781 442.766 482.918
1310 0 59.1353 13.4438 795 102.049 444.048 484.15
1311 0 63.1068 12.0906 763 104.308 444.434 482.444
1312 0 65.0865 12.5064 814 103.699 445.113 479.813
1313 0 66.0788 9.8216 649 110.222 443.949 483.481
1314 0 70.1236 13.6046 954 102.491 443.668 480.545
1315 0 73.2519 12.8324 940 103.69 442.672 477.797
1316 1 36.0284 11.2411 405 103.012 441.521 498.805
1317 0 39.0856 11.9993 469 100.842 440.267 498.516
1318 0 40.1106 10.9946 441 102.973 438.923 496.542
1319 0 44.0558 11.7578 518 100.28 437.342 495.185
1320 0 44.1471 13.4324 593 98.1804 436.03 492.305
1321 0 43.0695 11.0055 474 104.025 435.011 490.574
1322 0 50.0509 13.8859 695 96.0604 434.567 490.109
1323 0 50.1095 13.0315 653 98.6172 433.602 487.352
1324 0 51.1348 11.8119 604 100.513 432.942 485.502
1325 0 52.1707 12.1141 632 99.8908 432.755 481.943
1326 0 52.1186 11.2436 586 103.432 432.618 480.205
1327 0 55.1182 11.7747 649 101.243 432.51 478.32
1328 0 56.2218 10.4942 590 103.286 432.854 477.441
1329 0 59.1232 11.8397 700 100.97 431.954 474.559
1330 1 27.0371 8.17395 221 105.339 432.774 487.611
1331 0 35.1395 9.87492 347 98.5216 434.199 488.738
1332 0 34.1412 9.5193 325 99.6585 435.56 488.015
1333 0 38.0882 10.6595 406 97.0493 437.039 488.958
1334 0 41.1455 10.5965 436 96.4908 440.525 490.222
1335 0 41.1036 12.6023 518 95.1641 443.164 489.315
1336 0 41.1257 11.7931 485 98.0763 444.28 489.876
1337 0 45.1784 12.9265 584 95.6747 445.444 488.714
1338 0 47.0532 12.9003 607 95.6458 446.949 489.888
1339 0 47.0467 11.6905 550 99.5309 447.531 490.465
1340 0 51.0582 12.7306 650 97.6231 446.025 490.234
1341 0 51.0582 12.6914 648 118.139 445.023 490.177
1342 0 53.0914 11.7533 624 103.321 443.237 487.486
1343 0 59.2079 14.4069 853 97.3177 441.812 489.02
1344 0 59.06 12.936 764 102.67 440.399 488.281
1345 0 62.1501 12.502 777 104.761 438.489 487.072
1346 0 62.1929 12.5738 782 106.134 436.565 485.772
1347 0 69.2236 12.7991 886 103.131 434.426 483.541
1348 0 68.2243 11.9459 815 107.918 434.071 481.02
1349 0 73.1486 12.5908 921 106.377 433.509 479.389
1350 0 74.3956 13.025 969 107.174 433.346 473.91
1351 0 80.5053 13.378 1077 107.294 432.796 473.422
1352 1 44.2701 11.2717 499 107.868 432.872 489.477
1353 0 47.5005 11.4104 542 105.424 433.103 487.638
1354 0 46.2827 11.7106 542 105.268 432.557 485.459
1355 0 50.2533 14.0488 706 102.074 433.449 482.695
1356 0 53.3452 13.2158 705 101.813 433.721 483.548
1357 0 53.352 12.2207 652 106.598 434.502 479.98
1358 0 54.1302 11.1767 605 108.283 435.501 481.678
1359 0 58.3386 13.1645 768 103.074 436.241 479.969
1360 0 60.1123 12.9092 776 104.436 438.495 478.446
1361 0 63.2744 12.9594 820 103.616 440.822 480.455
1362 0 64.2543 12.9174 830 104.411 443.663 481.223
1363 0 68.1304 11.2431 766 107.296 446.06 478.601
1364 0 70.2347 13.2556 931 104.567 445.952 478.8
1365 1 38.0334 9.43907 359 105.944 446.983 495.769
1366 0 36.0743 9.48044 342 108.959 445.866 496.842
1367 0 40.1155 10.0709 404 105.96 446 498.371
1368 0 42.1749 11.476 484 103.965 444.876 495.626
1369 0 44.0519 12.0086 529 101.149 444.017 498.047
1370 0 44.1169 10.9482 483 104.696 440.934 497.861
1371 0 46.1536 10.0967 466 107.577 439.865 494.219
1372 0 48.2007 11.8048 569 104.812 437.743 494.111
1373 0 49.1185 12.5411 616 104.86 436.539 492.622
1374 0 53.3163 13.0354 695 105.722 435.151 490.734
1375 0 54.3259 10.7499 584 111.307 433.678 488.558
1376 0 55.4046 11.028 611 112.666 432.81 487.555
1377 0 54.4354 11.2794 614 123.664 430.803 487.572
1378 0 59.2546 11.9147 706 108.456 431.943 480.567
1379 0 58.293 9.8468 574 113.2 431.218 480.725
1380 0 62.3416 9.84896 614 111.145 432.197 478.674
1381 0 67.3373 11.8508 798 106.269 432.058 474.135
1382 0 70.2811 10.7568 756 109.345 432.791 472.328
1383 0 72.2364 12.819 926 106.91 433.048 471.206
1384 1 37.0769 10.3029 382 107.236 435.225 489.668
1385 0 40.098 11.6215 466 105.262 435.303 488.953
1386 0 39.0316 9.63323 376 110.441 436.883 487.965
1387 0 41.1671 9.23068 380 111.992 438.447 489.437
1388 0 42.0254 11.3503 477 108.151 440.834 490.535
1389 0 45.1617 12.732 575 109.151 441.358 488.539
1390 0 48.1485 12.9391 623 108.944 443.608 490.082
1391 0 50.1989 14.1238 709 108.807 443.643 489.91
1392 0 50.1008 12.2353 613 112.909 444.135 490.85
1393 0 52.1079 13.9518 727 110.341 443.525 489.619
1394 0 52.1139 12.3576 644 116.396 442.798 489.554
1395 1 31.0067 8.28853 257 114.957 442.91 505.436
1396 0 31.027 9.08887 282 117.936 441.124 504.27
1397 0 31.0386 7.95782 247 118.785 440.008 504.579
1398 0 38.0133 10.4437 397 110.627 438.504 505.421
1399 0 38.0208 11.257 428 112.346 437.269 503.224
1400 0 39.0466 10.91 426 114.65 435.523 501.434
1401 0 42.0377 12.6077 530 109.862 433.991 500.051
1402 0 43.0547 12.5422 540 107.589 433.141 498.45
1403 0 45.0208 13.3272 600 105.207 432.305 497.005
1404 0 45.0523 13.8062 622 106.881 431.871 495.613
1405 0 47.2142 12.4962 590 110.375 429.724 493.051
1406 0 49.1872 13.4791 663 106.799 430.412 490.588
1407 0 48.0767 12.7505 613 110.452 430.92 488.393
1408 0 51.1248 14.2201 727 106.667 430.963 488.521
1409 0 51.1456 13.354 683 110.332 430.618 487.144
1410 0 55.0867 14.9582 824 105.149 431.455 485.16
1411 0 56.0956 13.887 779 108.873 432.765 483.589
1412 0 57.1397 14.4908 828 107.708 433.952 484.252
1413 0 58.1546 13.3093 774 109.882 435.377 485.755
1414 0 60.1375 13.4691 810 110.019 437.114 483.931
1415 0 62.1414 12.5842 782 110.848 439.526 484.996
1416 1 37.1095 10.8328 402 107.378 442.139 497.56
1417 0 39.1042 11.8401 463 105.415 442.769 498.283
1418 0 39.029 12.0936 472 108.106 443.932 498.102
1419 0 42.0614 12.6957 534 106.004 444.406 499.251
1420 0 43.0978 13.1793 568 104.893 444.053 500.965
1421 0 43.2933 12.1959 528 107.155 442.915 499.818
1422 0 48.3001 14.7412 712 99.875 441.128 498.697
1423 0 47.5822 12.4206 591 107.986 439.839 500.008
1424 0 50.2636 13.0512 656 105.087 437.811 499.116
1425 0 51.3326 12.0976 621 107.718 435.729 497.111
1426 0 55.2922 12.8771 712 104.678 433.865 493.612
1427 0 55.2922 12.8771 712 130.404 431.848 493.636
1428 0 58.2508 13.5964 792 104.581 431.734 491.453
1429 0 61.4862 13.4827 829 105.542 430.815 489.111
1430 0 63.4515 14.0895 894 102.721 430.248 486.572
1431 1 34.1755 10.3583 354 103.822 431.09 498.542
1432 0 36.0514 9.65287 348 103.779 430.871 498.644
1433 0 38.1786 12.101 462 101.307 431.34 494.719
1434 0 39.1272 10.7853 422 103.763 431.464 494.637
1435 0 40.0888 11.5743 464 103.53 431.998 492.112
1436 0 41.0179 11.7266 481 106.019 431.99 490.89
1437 0 43.1201 12.871 555 104.193 432.323 490.84
1438 0 44.1782 12.3817 547 106.583 432.622 490.991
1439 0 44.2649 12.6737 561 107.964 433.595 488.134
1440 0 46.1576 13.0639 603 107.184 435.328 490.464
1441 0 46.2145 12.6584 585 109.554 437.217 489.747
1442 0 51.1962 12.5986 645 107.629 439.036 489.75
1443 0 50.1446 12.4041 622 112.338 441.635 488.934
1444 0 54.3078 13.221 718 109.804 443.29 490.766
1445 0 54.1282 13.9853 757 108.904 443.853 491.97
1446 0 58.2519 13.0125 758 110.342 443.978 492.195
1447 0 58.3197 12.0542 703 113.593 443.405 494.1
1448 0 63.2632 13.7679 871 109.907 441.848 490.005
1449 0 64.1737 12.4818 801 113.797 440.637 490.17
1450 0 67.2077 11.9778 805 114.554 438.272 489.509
1451 0 70.2484 13.2814 933 112.587 436.876 487.348
1452 0 74.267 13.236 983 111.845 435.96 486.247
1453 1 44.0344 12.195 537 106.905 434.905 502.54
1454 0 43.0348 11.1538 480 113.26 433.983 499.717
1455 0 45.084 13.5303 610 108.82 431.99 497.7
1456 0 47.0597 13.4723 634 108.044 431.23 494.743
1457 0 48.0249 13.7012 658 107.581 431.088 492.692
1458 0 52.0668 13.982 728 105.793 431.067 491.788
1459 0 52.0603 12.159 633 110.712 431.147 489.273
1460 0 51.1147 12.1491 621 112.148 429.718 488.412
1461 0 52.0449 12.1626 633 113.152 429.949 486.706
1462 0 58.0968 13.8906 807 107.488 429.568 484.297
1463 0 57.1229 13.2346 756 110.935 430.241 485.042
1464 0 60.1439 14.0663 846 109.674 430.848 483.407
1465 0 62.1511 12.5179 778 110.373 432.184 483.53
1466 0 65.0995 12.6883 826 110.153 433.258 480.057
1467 0 67.1283 13.1241 881 109.998 434.977 479.241
1468 0 71.1153 12.993 924 109.522 437.575 478.065
1469 0 73.105 13.2959 972 108.401 439.348 479.206
1470 0 77.1267 13.4454 1037 108.68 441.561 478.236
1471 1 42.0689 10.0787 424 111.106 443.623 496.2
1472 0 45.1649 12.089 546 106.462 443.41 498.053
1473 0 48.0839 11.9999 577 108.102 443.057 496.331
1474 0 49.0249 12.0347 590 105.741 442.008 496.749
1475 0 51.0684 11.7881 602 106.96 440.601 497.611
1476 0 53.0979 13.0325 692 106.123 439.16 497.951
1477 0 56.0812 13.1595 738 103.663 438.214 494.425
1478 0 59.1787 12.589 745 105.604 436.697 495.601
1479 0 59.0429 13.2277 781 105.206 435.432 491.536
1480 0 62.1693 11.3722 707 107.215 433.785 489.44
1481 0 66.1986 12.9912 860 106.121 433.148 487.926
1482 0 66.3051 12.4425 825 108.327 432.284 485.828
1483 1 36.1045 9.99875 361 103.648 431.219 501.102
1484 0 38.0773 10.0848 384 103.492 430.466 498.315
1485 0 40.1098 11.2691 452 102.358 430.049 495.692
1486 0 41.1033 11.5562 475 103.623 429.364 493.924
1487 0 42.2482 10.2726 434 106.062 429.161 492.118
1488 0 46.0852 12.0429 555 100.903 428.337 489.559
1489 0 44.1034 11.0649 488 104.898 429.809 489.615
1490 0 45.0574 11.3855 513 105.94 431.659 488.505
1491 0 47.0966 11.572 545 105.976 431.578 487.42
1492 0 51.1757 12.1933 624 104.181 432.035 487.394
1493 0 51.119 12.422 635 105.658 433.055 486.811
1494 0 52.2215 11.1065 580 107.078 434.229 488.981
1495 0 56.0765 12.9644 727 104.026 436.911 486.05
1496 0 57.2332 12.685 726 104.744 439.74 486.802
1497 0 59.1667 12.0676 714 106.571 441.286 485.689
1498 0 61.1783 11.8506 725 107.143 442.057 484.331
1499 0 63.2339 11.4337 723 107.946 442.909 486.555
1500 0 66.1666 12.5592 831 104.436 443.313 487.274
1501 1 40.0436 11.7622 471 101.072 443.442 502.234
1502 0 39.1185 10.3787 406 105.635 441.547 500.709
1503 0 41.2264 12.1767 502 99.9084 441.11 503.522
1504 0 44.0917 12.4513 549 103.149 438.767 501.089
1505 0 45.0735 12.3576 557 100.56 438.458 500.311
1506 0 46.1412 14.1739 654 97.4174 437.043 497.745
1507 0 47.1142 12.4166 585 101.576 435.402 497.901
1508 0 50.0623 13.4233 672 100.418 434.318 496.292
1509 0 51.1082 13.2464 677 100.603 432.851 494.92
1510 0 50.0942 12.9157 647 102.195 432.244 492.104
1511 0 53.2093 13.3623 711 102.271 431.661 490.255
1512 0 54.1817 12.4396 674 103.697 431.458 490.337
1513 0 56.3678 13.0748 737 101.433 431.275 488.807
1514 0 59.1182 13.2277 782 101.587 431.285 483.753
1515 0 59.2347 11.7161 694 105.403 431.496 480.537
1516 0 62.2245 12.8727 801 105.926 431.829 480.719
1517 0 64.3013 13.2346 851 104.572 431.583 479.333
1518 0 66.3484 12.4344 825 105.815 432.04 478.388
1519 0 70.1941 13.7191 963 101.352 433.302 476.958
1520 0 70.1722 13.0393 915 103.604 434.072 476.093
1521 1 36.0692 9.5095 343 103.411 435.277 495.437
1522 0 39.1126 11.224 439 103.096 437.46 493.804
1523 0 43.2123 12.8899 557 98.693 439.914 493.65
1524 0 43.0502 11.6143 500 102.558 441.536 493.846
1525 0 45.1096 11.7048 528 101.998 442.244 492.625
1526 0 47.1734 12.5282 591 102.88 442.926 493.917
1527 0 50.1794 13.1329 659 102.188 443.29 493.258
1528 0 53.2017 13.7965 734 100.342 442.514 492.965
1529 0 54.2424 12.8313 696 103.216 441.875 494.21
1530 0 55.0718 13.5823 748 102.07 440.795 493.845
1531 0 60.3046 14.8082 893 98.9059 439.482 493.622
1532 0 60.1243 14.786 889 100.357 437.724 491.352
1533 0 63.1938 13.15 831 102.909 436.496 492.486
1534 0 65.1894 12.6708 826 105.972 435.288 488.947
1535 0 70.2911 14.3404 1008 101.191 434.272 488.429
1536 0 68.21 14.2794 974 104.011 432.732 482.601
1537 0 74.253 13.7638 1022 103.381 431.854 482.094
1538 1 41.1756 10.1759 419 104.621 431.578 497.857
1539 0 40.1021 12.2687 492 102.661 431.205 495.878
1540 0 41.0913 11.7786 484 101.463 431.506 496.24
1541 0 44.1607 13.5641 599 100.868 430.967 491.431
1542 0 46.028 12.8183 590 103.251 431.061 489.078
1543 0 46.1199 13.2915 613 103.437 431.644 487.662
1544 0 48.2761 13.2364 639 103.773 431.7 486.926
1545 0 50.1295 12.5276 628 104.736 432.452 486.051
1546 0 53.15 13.9793 743 102.143 432.618 484.346
1547 0 53.1994 13.3084 708 105.321 433.456 484.58
1548 0 56.3092 15.1485 853 100.986 435.096 484.651
1549 0 59.2908 12.1435 720 105.761 436.801 483.996
1550 0 61.1505 13.5077 826 104.268 438.002 485.475
1551 0 65.3752 14.3479 938 103.647 439.773 482.907
1552 0 67.2614 12.9049 868 107.819 442.166 482.793
1553 0 69.2334 13.7073 949 106.04 442.362 482.648
1554 1 39.0646 12.0314 470 107.351 443.087 499.706
1555 0 40.1528 12.7264 511 110.172 442.781 499.207
1556 0 43.1329 12.7977 552 109.641 442.795 499.462
1557 0 44.0397 13.397 590 112.063 441.019 500.63
1558 0 45.2206 13.2241 598 113.881 439.742 498.532
1559 0 49.1255 13.6793 672 114.179 438.756 497.641
1560 0 53.1535 14.524 772 111.179 437.092 496.605
1561 0 52.1332 14.5781 760 115.274 435.734 495.337
1562 0 55.1851 15.1853 838 112.746 434.34 493.952
1563 0 57.3927 16.2216 931 111.208 432.85 490.797
1564 0 57.3927 16.2041 930 153.905 431.843 490.869
1565 0 64.1147 12.6492 811 120.559 431.771 486.811
1566 0 63.348 14.7282 933 113.38 430.971 484.767
1567 0 66.4537 14.3107 951 114.899 430.645 482.573
1568 0 66.3598 14.3159 950 117.185 430.123 482.313
1569 0 64.4906 11.5831 747 122.736 430.138 482.631
1570 0 70.3439 14.4291 1015 117.16 430.468 477.635
1571 0 73.2971 16.0034 1173 114.51 430.989 473.623
1572 0 76.3004 14.4167 1100 102.331 431.466 475.42
1573 0 77.4954 14.9944 1162 118.608 432.386 473.995
1574 0 81.4376 15.9754 1301 114.741 433.106 472.935
1575 0 80.5212 14.0336 1130 123.288 435.006 471.749
1576 0 81.655 14.1694 1157 125.223 437.045 472.369
1577 0 84.3781 14.5417 1227 124.88 438.914 473.465
1578 0 88.4015 15.5767 1377 119.314 440.82 472.703
1579 1 50.3407 10.9852 553 124.246 442.342 492.027
1580 0 50.3418 12.7528 642 125.008 441.651 490.678
1581 0 54.4023 13.4921 734 120.259 442.928 493.685
1582 0 55.1683 14.8274 818 118.729 442.841 494.134
1583 0 54.2819 13.5957 738 125.644 442.644 493.094
1584 0 55.1777 13.7374 758 124.443 442.098 492.983
1585 0 56.3346 14.1476 797 124.619 441.102 492.813
1586 0 56.3776 13.2677 748 126.324 440.299 494.912
1587 0 59.199 13.784 816 123.183 438.502 496.072
1588 0 57.1455 13.4919 771 126.654 437.786 494.73
1589 0 58.2462 14.5589 848 122.856 435.546 491.439
1590 0 60.099 13.8106 830 123.855 434.4 492.306
1591 0 59.2901 14.117 837 124.884 433.06 490.989
1592 0 59.1538 14.8427 878 123.317 432.195 489.696
1593 0 60.5028 14.958 905 122.498 431.219 487.169
1594 0 59.2016 13.699 811 125.658 430.7 486.878
1595 0 62.2003 14.0353 873 122.286 430.503 484.921
1596 0 62.3272 15.3866 959 119.235 429.925 483.49
1597 0 62.0813 15.3508 953 118.848 429.872 482.459
1598 0 61.211 15.6671 959 119.161 429.399 480.339
1599 0 61.2682 14.3468 879 120.308 430.934 481.935
1600 0 62.255 14.2157 885 121.174 432.151 479.95
1601 0 64.2688 14.2993 919 119.491 432.753 480.538
1602 0 65.4238 13.8176 904 120.496 434.808 480.058
1603 0 64.1968 14.3154 919 120.302 435.659 480.09
1604 0 65.2363 15.3289 1000 117.64 437.512 480.39
1605 0 63.158 14.63 924 118.898 439.041 482.442
1606 0 63.2922 14.5832 923 120.153 440.361 483.592
1607 0 63.2427 14.8001 936 120.569 441.438 484.014
1608 0 63.3299 14.5429 921 121.414 442.567 485.463
1609 0 65.3541 14.475 946 120.597 442.304 485.626
1610 0 66.1246 15.0171 993 119.163 441.756 488.286
1611 0 65.2307 15.2842 997 120.004 441.001 488.99
1612 0 64.524 14.1963 916 122.848 440.403 489.368
1613 0 67.2697 15.5642 1047 118.796 439.389 491.064
1614 0 65.285 15.9761 1043 120 438.441 490.447
1615 0 65.3971 13.9456 912 124.99 436.751 489.901
1616 0 65.3685 14.4259 943 123.088 434.843 489.316
1617 0 66.3561 14.3921 955 121.85 434.679 488.155
1618 0 67.3707 15.6745 1056 119.207 433.879 487.22
1619 0 66.4096 15.3291 1018 120.521 432.174 484.74
