time division length width area intensity CMx CMy
0 0 36.3789 14.0741 512 132.338 588.58 484.746
1 0 35.2411 14.0177 494 134.016 587.802 484.318
2 0 36.2862 13.3935 486 138.126 588.757 484.047
3 0 38.1032 15.1168 576 128.878 589.365 484.082
4 0 39.2097 14.6137 573 129.316 590.038 483.801
5 0 39.2185 15.4264 605 128.499 589.584 483.519
6 0 41.1536 14.2636 587 130.811 589.542 483.944
7 0 41.307 14.8401 613 128.362 589.648 481.7
8 0 42.1822 14.5796 615 131.15 590.506 482.002
9 0 43.297 15.2435 660 128.033 590.033 481.515
10 0 45.2893 14.4847 656 128.05 589.831 482.066
11 0 46.1907 15.8474 732 125.619 588.829 479.795
12 0 46.3052 15.5058 718 128.123 589.501 479.869
13 0 47.2129 14.424 681 129.623 588.483 480.029
14 0 48.2725 14.066 679 130.918 588.635 479.937
15 0 51.3691 16.0797 826 123.777 590.15 478.747
16 0 51.2349 15.2826 783 124.125 589.692 479.423
17 0 52.2911 15.5667 814 125.183 588.928 478.206
18 0 55.1543 16.5536 913 121.669 588.564 478.274
19 0 53.1982 14.3802 765 130.843 588.737 477.354
20 0 55.3511 15.8804 879 125.865 587.945 476.879
21 0 57.1867 14.5663 833 128.839 588.146 475.66
22 0 59.119 15.9678 944 123.844 588.673 475.792
23 0 60.1934 15.4336 929 126.196 588.645 473.525
24 0 62.187 14.6011 908 128.605 588.863 473.239
25 0 64.1127 15.9407 1022 125.92 588.869 471.041
26 0 67.1834 16.0903 1081 124.414 591.349 471.382
27 1 35.0822 12.599 442 132.023 592.538 486.154
28 0 35.0377 12.5579 440 132.386 592.773 485.8
29 0 38.0455 13.037 496 128.256 591.331 485.331
30 0 36.0492 12.1778 439 131.804 591.538 485.595
31 0 40.0585 13.2307 530 129.255 591.224 482.179
32 0 42.0407 13.8913 584 129.37 591.135 480.594
33 0 42.0251 14.7293 619 126.491 592 479.465
34 0 45.0799 14.5963 658 123.593 591.713 480.825
35 0 46.1156 16.0249 739 122.641 591.74 479.773
36 0 47.1571 15.7771 744 123.772 591.586 480.624
37 0 49.089 16.358 803 124.646 592.118 478.355
38 0 51.0696 15.9978 817 123.136 592.133 479.695
39 0 52.0811 15.5335 809 125.371 592.001 479.145
40 0 53.0816 16.0508 852 124.548 592.046 477.735
41 0 54.0849 16.8069 909 122.361 592.209 478.429
42 0 57.1664 15.8485 906 124.053 592.336 476.119
43 0 58.1285 15.8442 921 124.825 592.851 474.204
44 0 61.0539 15.2652 932 124.178 592.923 475.723
45 0 64.0766 16.2618 1042 119.568 593.615 475.385
46 0 63.1071 14.8795 939 125.093 594.652 472.71
47 0 68.2195 16.7547 1143 118.752 594.343 471.943
48 0 72.0768 17.8143 1284 115.101 594.146 472.74
49 0 72.1899 15.8886 1147 121.157 593.588 469.731
50 0 75.2127 15.9814 1202 118.349 594.027 469.494
51 1 39.0335 13.8599 541 117.155 594.414 487.024
52 0 39.0299 13.8612 541 116.194 594.686 487.312
53 0 42.1092 13.5837 572 115.514 594.82 486.063
54 0 41.0448 13.0589 536 117.09 592.961 486.416
55 0 43.0802 14.856 640 111.612 593.522 486.591
56 0 45.0861 16.4574 742 110.03 593.462 483.23
57 0 46.0886 14.3636 662 112.802 594.795 484.508
58 0 48.0535 15.8573 762 111.172 594.366 481.696
59 0 49.045 14.3745 705 113.424 594.87 480.36
60 0 49.1784 15.0676 741 111.922 594.331 480.202
61 0 52.1392 15.8806 828 108.006 593.818 479.679
62 0 53.2231 16.2711 866 107.574 593.946 477.415
63 0 55.2967 16.7822 928 107.678 594.693 476.474
64 0 58.1473 16.5442 962 106.253 594.453 476.462
65 0 59.1799 16.678 987 107.299 595.128 472.806
66 0 63.1226 17.1412 1082 102.409 595.758 472.485
67 0 63.1185 17.2216 1087 104.351 596.053 470.105
68 0 68.1731 15.6367 1066 106.862 595.921 470.507
69 0 68.2088 16.8453 1149 106.404 595.544 468.01
70 0 69.1748 15.6126 1080 109.627 595.661 467.648
71 0 75.1631 17.7747 1336 104.75 596.105 465.86
72 0 77.1924 17.0483 1316 106.847 593.703 465.036
73 0 81.2394 16.876 1371 107.398 594.789 464.117
74 1 41.2553 13.7437 567 109.046 595.45 481.653
75 0 42.1404 12.6482 533 110.379 595.675 482.568
76 0 45.1845 14.0977 637 106.617 594.333 481.531
77 0 46.2031 14.999 693 107.39 594.364 480.815
78 0 48.176 14.5923 703 106.023 594.663 480.986
79 0 48.3051 13.5389 654 107.986 595.639 481.142
80 0 51.0713 15.3119 782 105.582 595.37 477.6
81 0 52.1177 13.9684 728 106.894 595.361 477.31
82 0 55.099 14.9731 825 104.382 595.406 478.882
83 0 56.1868 13.6865 769 107.589 594.984 476.906
84 0 59.1705 14.8047 876 103.626 596.176 476.705
85 0 59.092 13.2674 784 107.676 595.487 475.5
86 0 61.1691 12.2774 751 109.313 596.277 474.254
87 0 65.2333 15.5289 1013 103.653 595.926 472.466
88 0 68.1044 15.256 1039 104.435 595.691 470.14
89 0 70.1623 13.1552 923 107.312 595.239 467.928
90 0 74.2278 15.6949 1165 101.641 595.482 468.46
91 0 76.2279 14.7321 1123 103.802 596.191 466.179
92 0 78.225 14.5989 1142 104.818 597.006 465.02
93 0 81.2733 14.7158 1196 105.741 596.167 464.712
94 1 40.1091 10.7457 431 105.675 597.225 483.87
95 0 45.1234 12.0337 543 102.906 597.308 482.263
96 0 43.1126 10.9713 473 104.22 596.78 482.243
97 0 45.0963 11.2204 506 103.818 597.19 482.583
98 0 48.1409 13.3982 645 100.276 597.508 481.034
99 0 50.1103 13.1709 660 101.982 597.512 479.876
100 0 53.1206 13.7423 730 100.166 598.088 479.889
101 0 52.1735 14.0301 732 101.663 597.977 479.638
102 0 53.2022 13.4581 716 104.031 596.772 478.225
103 0 56.1313 13.896 780 104.051 596.509 477.272
104 0 58.1329 15.2065 884 101.132 596.288 476.526
105 0 60.2596 13.8401 834 105.21 597.031 474.789
106 0 62.1832 15.3418 954 104.116 596.944 473.797
107 0 64.13 15.3438 984 104.207 597.367 472.908
108 0 66.2861 13.2909 881 107.842 596.796 472.337
109 0 69.1612 14.7481 1020 107.328 597.027 471.081
110 0 72.2222 15.7985 1141 105.408 597.275 470.341
111 0 75.1806 15.4295 1160 106.043 597.103 469.079
112 0 76.1687 14.4154 1098 110.525 596.786 465.67
113 0 79.2007 15.568 1233 108.59 596.62 466.415
114 0 81.3371 15.1714 1234 110.246 596.665 465.842
115 0 86.3237 14.8279 1280 110.345 596.461 464.877
116 0 89.3168 15.2491 1362 109.722 595.189 462.994
117 1 47.0925 10.7236 505 111.62 597.061 485.218
118 0 47.0952 9.66128 455 113.503 595.989 484.229
119 0 50.1233 11.9904 601 109.278 595.524 482.694
120 0 50.0612 11.2862 565 112.182 594.814 481.476
121 0 56.0733 13.1435 737 106.944 593.843 479.003
122 0 55.0952 13.1772 726 108.551 593.8 477.588
123 0 58.1114 14.6787 853 105.924 595.157 477.794
124 0 60.2026 14.9827 902 106.65 594.915 474.843
125 0 63.149 14.7904 934 106.27 595.042 476.377
126 0 65.2123 14.9205 973 105.984 595.894 474.906
127 0 66.3184 14.8677 986 109.07 595.644 473.151
128 0 69.1816 14.4114 997 111.343 596.114 470.952
129 0 69.2782 14.117 978 113.567 596.12 468.958
130 0 73.2015 15.833 1159 109.432 596.862 469.419
131 0 77.2629 14.4312 1115 113.771 597.192 467.609
132 0 78.3542 14.46 1133 114.919 596.023 466.984
133 0 82.1203 15.3068 1257 111.761 597.065 466.523
134 0 83.1548 15.4411 1284 112.802 597.336 463.711
135 0 85.1489 15.3143 1304 113.206 596.794 462.931
136 0 90.1377 15.6095 1407 113.126 596.547 460.923
137 0 93.3591 15.2208 1421 115.167 596.163 459.429
138 1 47.1203 10.1442 478 117.676 595.301 483.446
139 0 51.2154 11.9105 610 113.638 596.167 481.951
140 0 54.2352 11.4501 621 114.498 595.821 481.887
141 0 55.0836 12.2541 675 112.973 595.807 482.046
142 0 57.0443 13.358 762 110.927 595.521 479.831
143 0 59.1393 13.2061 781 110.654 595.95 479.416
144 0 61.1328 15.2618 933 106.827 594.757 478.926
145 0 63.1411 14.5072 916 108.282 595.75 476.667
146 0 64.2602 14.1145 907 110.706 594.901 474.905
147 0 68.1665 14.0391 957 109.532 595.898 474.07
148 0 69.2565 15.8108 1095 107.194 595.551 471.74
149 0 72.252 14.5186 1049 110.012 596.015 472.163
150 0 76.3911 14.6483 1119 108.326 595.43 472.125
151 0 78.3156 15.0034 1175 108.214 595.783 470.506
152 0 79.2575 14.2321 1128 111.746 595.139 468.09
153 0 81.2868 14.824 1205 111.89 595.227 464.9
154 0 85.578 14.8519 1271 111.172 594.725 466.489
155 0 86.513 15.0498 1302 113.19 594.25 462.22
156 0 89.4134 15.1879 1358 113.385 594.625 460.299
157 0 91.4036 14.0257 1282 116.383 594.823 456.821
158 0 97.5801 15.9971 1561 110.657 594.562 459.743
159 1 50.1585 11.1447 559 111.467 594.705 480.318
160 0 52.0223 12.2063 635 109.809 594.558 479.863
161 0 50.0162 11.6762 584 114.736 594.56 477.947
162 0 54.1853 14.0813 763 109.25 596.329 477.151
163 0 56.1991 14.1817 797 109.128 594.892 476.939
164 0 56.2001 13.9323 783 111.05 595.204 475.994
165 0 59.1738 14.4997 858 108.576 595.157 474.364
166 0 59.1841 13.9902 828 109.746 596.1 475.215
167 0 62.3261 15.2424 950 107.549 596.738 473.707
168 0 65.1181 14.3739 936 107.452 596.327 474.8
169 0 68.1896 14.5183 990 108.274 596.764 471.732
170 0 71.2655 14.2144 1013 108.769 596.687 471.732
171 0 72.1511 15.329 1106 107.084 596.094 471.122
172 0 74.1532 15.3062 1135 106.875 596.132 469.628
173 0 77.1275 15.7272 1213 105.478 595.517 469.051
174 1 38.1162 9.78588 373 112.737 596.357 488.646
175 0 40.0547 11.0599 443 112.027 596.673 486.519
176 0 42.0503 11.5338 485 109.416 596.155 488.124
177 0 42.0311 12.4432 523 109.084 595.803 486.09
178 0 44.069 12.3897 546 107.082 596.028 486.894
179 0 45.0839 12.4657 562 107.923 595.523 485.564
180 0 46.0214 13.1461 605 106.61 595.745 485.26
181 0 48.3235 13.9063 672 105.141 594.808 483.298
182 0 48.1942 13.8191 666 106.826 594.99 482.461
183 0 49.3979 13.7253 678 105.323 594.68 482.872
184 0 52.2148 13.3295 696 104.774 594.899 482.99
185 0 52.3283 14.8486 777 103.651 594.616 480.712
186 0 55.2139 15.449 853 101.239 594.431 480.838
187 0 56.1865 14.4519 812 104.172 593.41 479.156
188 0 56.082 14.4431 810 104.868 593.56 476.34
189 0 58.1076 14.301 831 104.641 593.77 475.462
190 0 63.1731 15.1805 959 101.699 594.233 474.757
191 0 63.1249 14.4 909 105.267 592.86 473.113
192 0 67.2136 15.2796 1027 102.022 592.287 473.094
193 0 67.2493 15.3459 1032 103.539 592.629 470.651
194 0 71.2191 15.1926 1082 103.156 593.418 469.101
195 0 73.1848 15.5497 1138 103.173 594.238 468.528
196 0 75.3391 13.2866 1001 108.151 593.797 468.164
197 0 80.3013 16.3634 1314 102.11 594.271 467.466
198 1 41.1465 12.6135 519 104.395 595.195 484.208
199 0 42.1461 12.4329 524 104.983 594.37 483.605
200 0 43.1417 12.6328 545 105.387 594.791 482.486
201 0 44.1575 13.1574 581 105.059 594.886 481.485
202 0 47.1424 12.7698 602 103.088 594.234 482.904
203 0 49.2068 13.8395 681 101.529 595.125 482.574
204 0 49.0828 14.2616 700 102.347 595.44 480.444
205 0 51.1737 14.6951 752 100.778 595.028 482.294
206 0 52.087 14.5334 757 101.641 595.58 481.244
207 0 51.1515 12.8638 658 104.982 595.556 481.597
208 0 55.1137 14.207 783 101.218 594.966 481.688
209 0 58.0968 14.975 870 99.3598 595.509 481.402
210 0 59.2463 14.6676 869 100.107 594.969 479.892
211 0 61.1863 14.1208 864 102.759 594.502 478.054
212 0 62.1643 14.2847 888 102.976 594.342 477.527
213 0 63.1135 14.4977 915 103.904 594.052 475.742
214 0 66.1344 14.1681 937 103.382 593.983 475.821
215 0 69.1865 14.3814 995 103.344 593.565 473.006
216 0 70.1326 14.4726 1015 104.291 592.838 471.484
217 0 72.106 14.2706 1029 104.204 593.238 471.599
218 0 75.0848 14.7034 1104 103.66 592.522 470.267
219 1 37.0695 9.98124 370 104.389 592.595 487.924
220 0 39.1223 10.9145 427 102.897 592.536 487.408
221 0 42.1291 12.6516 533 99.9794 592.927 485.619
222 0 41.134 12.593 518 100.967 593.274 484.747
223 0 41.132 12.156 500 102.956 593.006 483.742
224 0 41.132 12.1803 501 146.649 593.02 483.713
225 0 45.1459 12.6036 569 101.729 593.638 480.51
226 0 47.1316 12.5606 592 100.6 593.355 480.853
227 0 48.1149 12.1376 584 101.25 593.868 478.719
228 0 51.1918 14.807 758 96.3958 593.373 478.484
229 0 50.1577 14.0158 703 98.2902 594.1 478.055
230 0 53.2478 13.841 737 97.6526 594.881 477.611
231 0 55.2063 15.5055 856 94.2301 595.058 476.501
232 0 58.1576 13.4806 784 96.0982 595.309 476.769
233 0 60.1283 14.0366 844 95.4633 595.312 476.268
234 0 59.1098 14.2616 843 96.1886 596.255 474.168
235 0 62.0773 14.4014 894 96.1242 596.292 474.419
236 0 64.1295 14.2212 912 96.4068 595.959 472.375
237 0 66.1043 13.5997 899 97.1124 596.577 472.237
238 0 70.1302 14.8296 1040 93.7019 596.562 471.9
239 0 72.1394 14.0145 1011 96.1761 596.558 470.158
240 0 73.1568 12.7944 936 97.6592 596.203 469.594
241 0 76.1248 13.8194 1052 95.885 595.729 468.136
242 0 81.243 14.6474 1190 94.9933 595.035 466.175
243 1 41.0352 10.1133 415 94.212 596.099 486.012
244 0 45.0214 10.595 477 91.6143 596.105 485.488
245 0 45.1962 10.3327 467 91.5846 595.869 485.424
246 0 47.0723 11.2168 528 91.6136 595.373 481.958
247 0 50.0451 12.3289 617 88.1459 594.848 482.776
248 0 49.3112 12.1271 598 89.9431 593.339 480.681
249 0 51.1989 12.1096 620 88.6855 592.637 481.395
250 0 54.1445 12.6698 686 87.4446 593.101 479.332
251 0 56.2987 12.5225 705 87.5418 593.162 477.593
252 0 55.1499 12.3482 681 88.138 592.979 475.586
253 0 59.2926 12.2781 728 87.7706 593.302 475.702
254 0 61.0821 12.9334 790 86.2696 593.182 475.348
255 0 59.1995 11.2163 664 89.509 593.161 472.346
256 0 63.1942 11.7099 740 88.7959 592.668 469.618
257 1 31.1922 7.75836 242 85.5 594.116 489.186
258 0 31.1421 6.93594 216 84.0556 594.681 491.241
259 0 32.2437 8.86994 286 84.2098 594.794 487.374
260 0 35.1633 9.35634 329 84.5228 594.331 485.669
261 0 36.2212 10.5187 381 83.5433 594.869 486.297
262 0 37.1028 9.56801 355 85.5296 595.006 485.161
263 0 37.3184 10.0487 375 86.5147 594.789 483.792
264 0 42.1165 12.1568 512 82.6797 596.238 484.275
265 0 42.2354 12.9749 548 83.9069 595.252 485.12
266 0 42.3204 12.5944 533 84.4916 596.501 485.334
267 0 45.1749 12.5512 567 83.8201 596.778 487.16
268 0 45.2142 12.2749 555 86.7099 596.22 484.71
269 0 45.4365 12.2589 557 89.289 596.472 482.88
270 0 46.3454 11.8674 550 89.4927 596.245 484.795
271 0 48.4536 11.867 575 90.2817 596.124 483.603
272 0 50.1236 12.0303 603 88.524 596.015 486.766
273 0 49.2157 11.7239 577 90.6308 595.475 485.88
274 0 50.3005 9.72156 489 93.7137 596.149 486.593
275 0 52.3485 11.9774 627 91.9059 595.648 485.694
276 0 54.2903 11.7148 636 91.6871 595.038 483.937
277 0 55.3773 10.7084 593 94.7622 594.816 480.595
278 1 31.0244 7.31682 227 90.3877 595.974 496.974
279 0 32.0431 9.89291 317 85.3786 595.883 496.64
280 0 31.0885 10.1967 317 88.2934 594.953 495.145
281 0 31.0374 8.69918 270 89.9259 593.907 496.5
282 0 31.1176 10.0908 314 92.7452 593.494 494.035
283 0 35.0833 10.6318 373 92.0509 592 490.917
284 0 37.0372 11.6099 430 91.5674 591.763 489.956
285 0 37.2383 11.225 418 91.8134 591.89 488.33
286 0 40.2009 12.2137 491 89.6762 591.248 486.479
287 0 40.2049 11.7399 472 92.2458 591.576 485.451
288 0 40.2547 11.6011 467 93.2698 591.495 484.57
289 0 43.1838 10.93 472 94.2458 592.61 484.019
290 0 45.3324 12.0444 546 93.9029 592.582 482.205
291 0 47.4906 12.4025 589 93.8234 593.351 483.132
292 0 47.3553 13.3248 631 93.4945 593.269 481.848
293 0 49.2559 13.1558 648 86.3241 593.907 481.119
294 0 51.2766 12.9689 665 94.9955 594.277 480.522
295 0 52.4245 12.952 679 95.838 594.542 479.92
296 0 54.3527 11.591 630 99.1048 596.203 479.975
297 1 29.0606 9.60063 279 97.0466 598.061 492.892
298 0 28.0897 9.57645 269 98.2974 597.201 493.227
299 0 29.086 9.38594 273 99.1429 597.634 492.494
300 0 32.0324 12.1439 389 94.0694 598.455 492.347
301 0 31.0234 10.6371 330 96.2818 597.009 493.485
302 0 34.053 12.921 440 93.3705 598.293 491.139
303 0 34.4404 12.5434 432 95.4653 596.514 492.412
304 0 35.1718 12.1404 427 96.0656 595.628 493.267
305 0 35.3452 12.5052 442 96.5294 595.228 492.136
306 0 37.1966 12.9313 481 94.7152 596.087 492.936
307 0 39.3993 12.9698 511 95.0078 595.587 491.282
308 0 40.2463 14.2125 572 93.6399 594.46 490.934
309 0 42.3773 12.8842 546 95.6667 593.848 490.782
310 0 41.3194 12.5607 519 98.3256 593.644 490.671
311 0 41.6195 12.6383 526 99.1559 593.291 490.236
312 0 43.5051 12.0905 526 100.232 592.785 487.816
313 0 46.4533 13.971 649 94.9661 593.242 487.39
314 0 47.2404 14.0558 664 95.6837 593.693 486.408
315 0 49.4702 15.1 747 93.2356 592.878 485.553
316 0 49.3953 13.4831 666 97.4429 593.24 483.836
317 0 50.5721 13.0507 660 99.6136 592.698 482.192
318 0 52.321 14.8697 778 95.7738 592.593 481.933
319 0 52.3154 13.5524 709 99.3949 593.102 480.054
320 0 54.2688 14.2071 771 97.5798 593.119 479.447
321 0 57.2986 14.9393 856 95.3808 593.734 479.369
322 0 58.2545 16.7712 977 92.652 593.965 477.556
323 0 59.312 15.0391 892 96.7668 594.379 478.364
324 0 59.312 15.056 893 134.535 595.391 478.381
325 0 63.3533 13.8904 880 99.1818 595.922 475.753
326 1 34.1998 10.4386 357 102.787 596.93 489.451
327 0 36.1575 10.316 373 102.054 597.909 489.839
328 0 36.1095 11.9636 432 99.9884 598.273 489.722
329 0 37.0575 9.71464 360 103.239 597.864 490.547
330 0 37.2494 11.5706 431 102.035 598.471 488.357
331 0 41.0976 13.5288 556 97.2824 598.678 488.138
332 0 42.0254 12.5163 526 98.5 598.105 488.2
333 0 44.024 12.2433 539 99.4675 598.751 488.163
334 0 45.2748 14.0917 638 96.0486 597.777 486.647
335 0 45.4124 12.7719 580 100.572 595.94 486.086
336 0 47.3162 13.8219 654 101.968 596.034 486.225
337 0 49.2126 12.8016 630 104.216 595.398 487.079
338 0 50.2645 12.9515 651 104.229 594.958 486.888
339 0 51.2266 13.411 687 103.833 595.122 485.275
340 0 51.279 14.1578 726 103.43 594.532 485.339
341 0 54.2086 14.8132 803 101.702 594.012 483.45
342 0 56.2472 14.0629 791 102.451 593.642 482.295
343 0 56.2472 14.1696 797 157.698 592.612 482.213
344 0 59.2756 14.5591 863 101.559 591.842 479.123
345 0 62.2119 13.9523 868 102.69 592.188 477.317
346 0 66.1378 14.6512 969 100.417 591.592 477.22
347 0 68.2257 16.035 1094 98.1006 591.004 474.513
348 0 70.2048 15.2981 1074 99.3976 591.588 472.869
349 0 71.3112 15.0046 1070 99.885 591.93 471.207
350 1 40.074 12.7764 512 96.5371 591.592 487.137
351 0 36.0745 11.1713 403 99.9727 592.06 486.752
352 0 41.2782 11.9434 493 97.1156 592.272 486.211
353 0 43.3606 13.0072 564 94.6525 592.222 485.401
354 0 42.3757 11.516 488 98.7766 593.16 485.043
355 0 45.273 12.1264 549 98.0546 593.934 483.526
356 0 47.1483 12.6198 595 97.0908 595.299 482.908
357 0 50.0483 15.1454 758 91.6412 596.321 482.23
358 0 51.4217 14.4102 741 94.4305 596.026 480.74
359 0 52.2828 13.7713 720 95.9472 596.256 482.017
360 0 54.3155 13.9739 759 95.1542 597.107 480.913
361 0 55.176 13.611 751 96.253 597.172 480.624
362 0 57.3267 13.0655 749 97.3538 597.877 481.764
363 0 61.2091 14.7037 900 94.4022 597.68 480.839
364 0 62.4277 15.0094 937 94.2284 596.535 478.531
365 0 64.2064 15.7772 1013 94.4403 596.579 477.906
366 0 65.311 13.7343 897 98.6042 596.54 477.808
367 0 70.2786 16.3777 1151 93.8975 595.991 476.374
368 0 71.3824 14.9337 1066 98.2233 595.938 475.318
369 0 73.6073 14.5774 1073 99.7847 594.914 472.778
370 1 39.3114 12.0321 473 97.3806 594.93 491.182
371 0 40.1979 12.8862 518 95.7838 594.23 491.162
372 0 42.2603 12.1391 513 98.2164 594.251 489.739
373 0 45.1312 13.6269 615 95.9724 593.571 487.197
374 0 45.1666 11.9779 541 101.002 593.558 485.861
375 0 46.1496 13.7163 633 98.8689 592.438 485.382
376 0 50.0705 13.5809 680 93.6015 592.352 485.478
377 0 50.137 14.5202 728 95.0659 591.35 483.235
378 0 53.2379 16.0976 857 91.4376 591.144 482.407
379 0 53.1115 12.7468 677 99.8242 591.258 481.233
380 0 53.1842 12.7669 679 101.823 590.934 479.012
381 0 58.1834 13.1137 763 100.229 590.693 477.512
382 0 60.1749 14.5742 877 97.8723 590.241 477.659
383 0 60.1744 13.8098 831 101.193 591.144 476.44
384 0 60.1744 13.7932 830 159.393 591.157 476.493
385 0 64.128 13.9409 894 102.108 591.902 474.581
386 0 70.0691 16.5123 1157 95.9309 592.496 474.431
387 0 71.1746 14.7806 1052 99.8612 593.496 472.089
388 0 73.3409 14.0304 1029 101.96 594.83 470.878
389 0 76.2091 15.0245 1145 100.183 596.351 471.513
390 1 41.0711 11.7358 482 101.714 597.056 488.863
391 0 42.0789 10.314 434 104 598.113 487.809
392 0 47.0929 11.4242 538 100.901 598.145 488.262
393 0 45.1148 12.7453 575 100.868 598.461 488.087
394 0 49.097 12.8114 629 100.79 598.277 486.808
395 0 47.0849 13.1465 619 101.51 598.506 487.549
396 0 52.117 13.0859 682 100.883 598.497 487.177
397 0 52.1683 13.8973 725 100.234 597.328 487.12
398 0 53.1041 13.9914 743 101.576 596.592 486.657
399 0 55.2144 13.511 746 101.917 596.205 484.827
400 0 56.2188 13.6253 766 148.597 595.234 485.086
401 0 59.1276 14.8492 878 101.182 594.694 482.411
402 0 62.1919 14.7447 917 100.6 594.304 481.61
403 0 65.2335 15.1303 987 99.3546 593.646 479.073
404 0 66.1448 14.0298 928 101.777 592.901 478.439
405 0 66.1448 14.1054 933 145.089 592.926 478.41
406 0 71.1871 16.281 1159 98.9275 591.733 473.457
407 0 73.1548 15.4057 1127 101.174 590.962 471.501
408 1 36.0251 10.1041 364 104.393 592.838 488.915
409 0 37.0226 11.7226 434 103.35 592.279 487.154
410 0 40.0245 11.6928 468 103.797 591.532 487.308
411 0 41.1225 10.262 422 104.296 591.173 486.23
412 0 42.0774 11.5264 485 103.693 592.173 482.988
413 0 42.0362 11.7756 495 104.059 592.424 482.947
414 0 46.0126 14.0614 647 99.8841 593.587 480.688
415 0 45.0339 12.8126 577 102.34 595.166 482.593
416 0 48.2224 14.3087 690 100.004 594.371 479.914
417 0 47.1633 12.2765 579 104.556 596.261 479.746
418 0 48.3792 12.6707 613 104.86 597.183 478.698
419 0 50.1905 13.5484 680 103.69 597.702 479.519
420 0 52.1512 14.1512 738 103.351 597.752 478.931
421 0 54.1223 14.4857 784 103.096 597.834 478.402
422 0 56.1683 13.1569 739 105.207 598.287 478.398
423 0 57.2028 13.0238 745 107.27 598.518 477.124
424 0 61.2138 14.5555 891 103.623 597.868 477.49
425 0 62.1289 13.2949 826 106.414 598.1 476.052
426 0 64.1605 13.7 879 105.35 597.488 477.085
427 0 68.0992 14.2733 972 104.519 596.315 475.964
428 0 71.1722 14.1066 1004 103.804 596.98 475.314
429 0 74.18 15.5298 1152 101.484 595.865 472.449
430 1 39.1831 10.1575 398 104.246 596.55 492.008
431 0 40.1743 10.2553 412 149.265 595.636 492.337
432 0 44.2023 11.6962 517 100.431 594.696 490.253
433 0 45.1563 13.7965 623 98.9053 593.483 488.212
434 0 46.2906 11.7518 544 103.04 593.243 486.101
435 0 48.2424 13.9297 672 99 592.924 483.847
436 0 51.1677 13.5437 693 98.2929 592.517 482.661
437 0 54.2438 14.951 811 95.397 591.496 482.113
438 0 53.1114 13.7635 731 98.1642 592.082 482.752
439 0 54.2444 15.043 816 97.4448 591.673 479.737
440 0 55.1266 12.6073 695 102.453 591.345 477.659
441 0 59.2046 15.5562 921 97.9283 590.999 475.458
442 0 60.2856 13.3199 803 102.433 590.817 474.669
443 0 63.2294 15.167 959 99.44 591.736 472.925
444 0 64.1788 14.8491 953 102.127 592.57 471.748
445 0 69.1484 15.7198 1087 98.9871 593.455 473.548
446 0 69.1591 13.0713 904 106.459 593.91 471.407
447 0 72.167 13.9953 1010 105.594 595.174 469.721
448 0 76.1943 14.778 1126 103.613 595.945 469.991
449 0 79.1273 15.8984 1258 101.274 596.986 468.797
450 0 81.2104 15.1951 1234 103.514 596.989 468.635
451 1 45.0261 12.0819 544 102.526 599.296 486.358
452 0 44.0487 10.3522 456 105.289 599.888 487.95
453 0 46.0521 11.8778 547 105.59 599.581 485.148
454 0 48.1285 11.9264 574 103.275 599.467 485.62
455 0 48.0987 12.1833 586 105.766 598.077 484.137
456 0 51.2281 12.8445 658 103.72 597.533 484.913
457 0 54.3474 14.3889 782 101.091 597.948 483.6
458 0 55.453 13.3266 739 101.858 596.992 484.628
459 0 58.2022 14.5527 847 98.0803 596.55 484.436
460 0 60.392 14.8033 894 98.3143 596.253 483.252
461 0 62.193 15.9825 994 96.4537 595.015 482.727
462 0 63.1955 13.7352 868 101.699 593.72 478.963
463 0 66.2885 14.8895 987 98.7548 592.956 477.206
464 0 68.2293 14.2607 973 101.059 592.488 476.931
465 0 70.2396 14.1943 997 101.888 590.88 473.645
466 1 37.0792 10.7068 397 101.607 592.718 491.151
467 0 37.2151 11.635 433 101.905 592.54 489.587
468 0 39.1134 11.0959 434 100.926 593.012 488.129
469 0 41.1338 12.7389 524 98.9733 592.239 486.386
470 0 41.1863 13.6939 564 97.9326 591.069 484.738
471 0 42.1661 12.8539 542 98.9705 591.679 483.817
472 0 46.1228 14.4397 666 95.9099 592.282 482.32
473 0 44.3051 12.6171 559 101.984 592.705 482.22
474 0 47.3238 13.9465 660 99.7788 593.561 480.829
475 0 48.3834 12.4009 600 103.375 594.172 480.612
476 0 50.3797 14.0334 707 99.1895 595.614 479.562
477 0 54.3839 15.5377 845 91.9716 596.252 481.202
478 0 54.3077 14.9703 813 95.1255 596.701 479.712
479 0 57.2736 13.7585 788 97.4378 598.548 480.728
480 0 58.3419 14.3293 836 97.3409 598.986 479.865
481 0 63.2635 15.0008 949 95.7102 599.327 481.375
482 0 60.1557 12.4012 746 103.072 599.279 479.378
483 0 66.2695 16.1764 1072 95.9076 598.543 480.674
484 0 67.1526 13.4917 906 102.474 597.894 480.471
485 0 71.4422 14.9072 1065 100.31 597.488 477.256
486 0 73.4855 15.2139 1118 99.8336 597.208 476.456
487 0 77.228 14.8651 1148 100.551 596.465 476.302
488 0 82.4805 14.755 1217 99.6442 596.54 475.702
489 0 86.3781 16.3467 1412 96.9079 595.533 472.496
490 1 44.2238 13.2282 585 96.894 595.412 493.441
491 0 46.2981 13.3051 616 98.224 594.58 490.701
492 0 47.3828 14.8577 704 96.5895 593.72 488.778
493 0 47.131 13.1973 622 100.191 592.476 487.587
494 0 47.1233 12.8811 607 100.799 592.209 485.942
495 0 49.1895 13.9867 688 97.8765 591.224 484.964
496 0 51.075 13.2746 678 99.1608 591.03 484.324
497 0 53.1882 14.2889 760 97.5 590.446 481.978
498 0 55.1284 13.9493 769 97.1652 590.446 479.713
499 0 55.1872 13.6807 755 99.094 589.968 477.236
500 0 61.1383 14.459 884 95.6538 589.869 476.758
501 0 60.2243 14.3796 866 97.1524 590.868 476.027
502 0 64.1467 14.7942 949 96.9526 591.111 474.59
503 0 66.1436 13.8033 913 99.0241 592.007 473.244
504 0 66.2058 14.1075 934 99.1328 592.824 471.65
505 0 70.2784 13.6457 959 98.7967 593.527 472.141
506 0 74.1963 14.4347 1071 97.3221 594.56 470.189
507 1 38.0245 10.3354 393 98.4198 598.364 489.552
508 0 40.0663 10.882 436 98.695 600.369 488.986
509 0 43.1076 12.0165 518 94.1062 601.266 490.255
510 0 43.2064 12.9842 561 94.7398 601.513 487.882
511 0 47.0206 14.0364 660 92.3364 602.4 489.371
512 0 45.2957 13.8865 629 95.6725 601.502 489.189
513 0 48.1963 13.528 652 95.954 601.046 489.598
514 0 50.1854 14.1874 712 95.2416 600.098 490.709
515 0 49.2569 13.5616 668 99.4955 598.241 489.768
516 0 53.1114 14.366 763 99.6894 597.242 490.878
517 0 54.1365 14.3341 776 98.0116 596.369 491.37
518 0 56.1384 12.8789 723 100.974 595.983 488.636
519 0 58.2529 13.9221 811 100.618 594.181 485.106
520 0 63.1083 14.277 901 98.4284 593.326 486.698
521 0 63.2209 14.7894 935 100.01 591.791 483.959
522 0 65.2454 15.4954 1011 100.891 591.22 480.678
523 0 68.175 14.5948 995 102.843 590.129 481.011
524 0 70.2288 13.6411 958 106.951 589.502 478.129
525 0 74.1646 15.2364 1130 103.361 588.558 478.432
526 0 76.3034 16.4082 1252 103.299 587.886 476.236
527 0 79.3907 14.775 1173 106.476 587.48 475.322
528 1 39.0873 11.9988 469 106.467 586.861 491.358
529 0 42.0614 12.4104 522 106.743 586.544 490.257
530 0 42.035 12.5848 529 106.263 587.185 489.297
531 0 43.0161 13.2974 572 104.476 587.222 489.622
532 0 44.4363 12.5348 557 106.86 587.738 489.048
533 0 47.2691 13.9414 659 102.549 588.738 490.297
534 0 48.4994 13.1136 636 106.854 590.079 487.538
535 0 51.285 13.4152 688 104.888 591.916 488.459
536 0 52.2325 12.5209 654 106.381 594.261 487.55
537 0 55.1336 13.3312 735 105.993 595.218 487.763
538 0 56.132 14.6619 823 104.428 596.34 488.011
539 0 61.237 15.1379 927 102.709 597.119 490.01
540 0 61.1908 14.7571 903 106.56 598.094 489.336
541 0 64.3144 15.6419 1006 107.061 597.113 488.307
542 0 66.1169 13.6123 900 112.54 595.977 486.573
543 0 68.2172 14.058 959 113.386 593.762 484.893
544 1 37.359 12.072 451 106.694 593.109 503.432
545 0 36.2515 11.5857 420 109.952 591.669 503.01
546 0 38.0931 12.4957 476 107.374 589.981 502.784
547 0 39.1368 12.648 495 109.414 588.905 501.154
548 0 42.0169 13.1376 552 107.964 588.333 498.692
549 0 42.2304 13.1895 557 111.363 586.759 495.603
550 0 45.1182 14.6947 663 106.288 585.314 496.91
551 0 45.2358 12.9322 585 112.537 584.709 494.161
552 0 45.1809 12.616 570 113.028 584.074 492.444
553 0 48.0678 14.6668 705 108.599 582.454 489.274
554 0 49.488 14.0438 695 109.325 582.988 489.862
555 0 51.1543 14.3878 736 109.553 582.952 486.939
556 0 52.2555 14.0464 734 111.213 583.49 483.909
557 0 51.2886 13.8627 711 113.523 583.242 483.629
558 0 53.1342 13.927 740 113.368 583.792 483.035
559 0 55.2149 13.9817 772 113.251 584.869 481.453
560 0 57.2005 15.874 908 109.795 586.33 478.658
561 0 59.4026 14.5111 862 113.454 587.302 477.884
562 0 61.3919 14.7414 905 113.176 589.413 477.348
563 0 63.3002 14.8499 940 114.338 590.784 476.776
564 0 66.2538 14.6256 969 114.249 592.863 477.738
565 0 69.4393 14.5163 1008 113.81 595.604 476.928
566 1 32.1344 12.1987 392 116.347 597.559 493.735
567 0 36.1986 10.47 379 117.887 597.971 494.142
568 0 37.1711 11.8641 441 114.923 598.431 494.916
569 0 43.2878 13.0522 565 111.469 598.02 494.154
570 0 42.2182 12.1985 515 112.452 598.427 496.126
571 0 44.2542 11.9537 529 113.509 597.174 496.009
572 0 47.2601 14.2192 672 110.479 594.019 495.57
573 0 48.0452 14.6737 705 111.552 594.332 494.732
574 0 51.0819 14.6627 749 111.858 594.72 494.539
575 0 53.1191 14.3075 760 113.526 593.363 492.964
576 0 53.039 14.7816 784 114.622 592.668 492.088
577 0 56.0781 15.0504 844 113.146 591.06 491.467
578 0 58.1427 14.4988 843 114.484 590.04 488.575
579 0 59.1871 14.8512 879 114.529 588.454 487.792
580 0 59.1871 14.9188 883 155.172 586.455 487.744
581 0 66.3556 15.221 1010 113.032 587.311 482.382
582 0 68.253 14.71 1004 114.981 585.946 480.839
583 0 71.3308 14.2996 1020 114.381 585.978 479.367
584 0 73.28 14.6152 1071 114.591 585.933 477.323
585 1 38.2004 11.9632 457 114.694 585.39 492.888
586 0 41.2282 11.5212 475 109.646 586.023 494.225
587 0 39.2176 11.5254 452 113.5 586.794 490.912
588 0 41.3617 11.9192 493 112.085 587.617 489.996
589 0 43.3334 12.9923 563 108.767 588.259 488.115
590 0 45.2879 13.5798 615 108.446 588.766 487.364
591 0 44.3297 13.8733 615 109.81 589.006 485.302
592 0 47.4208 13.4329 637 109.449 591.121 486.728
593 0 49.2835 15.2181 750 105.824 593.704 486.7
594 0 50.298 13.917 700 110.656 595.579 486.071
595 0 51.2779 13.1051 672 110.18 596.725 488.22
596 0 53.2353 12.9238 688 111.407 597.388 488.001
597 0 55.224 14.414 796 108.751 597.217 487.531
598 0 57.2407 13.2773 760 109.953 598.471 489.559
599 0 61.2066 14.9167 913 105.659 597.212 488.836
600 0 63.1447 14.7122 929 107.166 595.432 488.56
601 0 67.1744 14.8866 1000 107.546 594.229 488.662
602 0 68.2564 14.2111 970 109.999 593.865 487.068
603 1 36.1619 10.8954 394 108.145 593.251 506.942
604 0 39.1131 11.7352 459 105.577 591.891 505.453
605 0 41.0671 11.7856 484 103.785 589.388 505.291
606 0 42.1002 12.8028 539 101.887 587.525 504.998
607 0 43.0342 13.6403 587 99.184 586.598 505.165
608 0 45.0329 13.6567 615 99.7089 584.855 503.785
609 0 46.0243 12.841 591 100.922 585.08 502.826
610 0 50.0676 14.2208 712 97.7893 584.291 501.327
611 0 52.0917 14.4169 751 97.1305 583.341 499.109
612 0 52.1057 12.9736 676 100.37 582.567 499.297
613 0 53.0444 13.4416 713 99.8962 582.339 497.872
614 0 55.0583 13.4948 743 99.7241 582.291 494.721
615 0 59.1646 13.5047 799 97.4919 582.232 490.438
616 0 61.0981 14.354 877 96.0137 581.285 488.218
617 0 62.271 13.2967 828 98.4456 581.356 486.75
618 0 66.4158 13.4155 891 98.1414 581.386 485.661
619 0 69.3158 13.9074 964 96.9834 582.023 482.246
620 0 71.2133 14.0002 997 96.8255 583.019 481.884
621 1 35.0645 9.01196 316 96.5918 585.358 503.301
622 0 37.2186 8.75907 326 96.865 585.718 502.672
623 0 40.2062 12.9085 519 92.8478 587.333 500.056
624 0 39.3035 10.8642 427 96.4333 589.775 501.316
625 0 44.2213 12.2565 542 93.0738 589.86 501.022
626 0 44.2223 13.1155 580 95.1448 590.495 498.843
627 0 45.0958 11.5975 523 98.5373 590.329 499.794
628 0 47.2512 13.1214 620 96.9871 590.176 499.802
629 0 51.2064 14.8224 759 94.2833 589.277 500.029
630 0 53.2571 14.3267 763 94.8637 588.638 502.44
631 0 54.2005 14.0036 759 97.6851 588.431 502.032
632 0 55.1632 13.3241 735 100.416 587.835 501.38
633 0 59.101 14.9236 882 98.4104 586.544 501.593
634 0 60.2277 14.8271 893 100.18 584.465 501.845
635 0 63.1876 14.544 919 101.738 583.682 499.598
636 0 64.223 14.2939 918 104.196 581.995 498.16
637 0 68.2252 14.9358 1019 103.574 580.708 494.224
638 0 71.1957 15.3661 1094 103.251 578.484 493.739
639 0 74.1816 16.891 1253 101.007 577.88 490.259
640 0 78.1924 16.1269 1261 102.11 577.408 489.448
641 0 78.2036 16.3292 1277 104.017 576.055 483.414
642 0 83.2652 15.961 1329 104.163 575.777 482.77
643 0 85.2014 15.4223 1314 106.139 576.555 478.926
644 1 45.1939 12.5238 566 104.765 577.11 499.625
645 0 48.1121 12.0552 580 105.316 578.019 500.134
646 0 49.1976 11.1591 549 108.525 578.858 497.621
647 0 51.2606 12.8949 661 105.269 580.555 496.896
648 0 52.0608 14.0797 733 102.591 582.312 496.007
649 0 53.0645 14.3222 760 103.68 582.912 496.245
650 0 56.2865 16.1317 908 99.478 583.938 495.637
651 0 58.3131 14.7308 859 102.165 585.823 494.854
652 0 61.3048 15.4963 950 98.8926 586.887 495.369
653 0 62.4176 15.3963 961 100.21 588.533 494.853
654 0 63.38 13.9634 885 103.947 588.842 493.982
655 0 68.2642 15.9527 1089 99.8329 590.304 495.098
656 0 69.1949 15.1312 1047 103.377 589.515 493.492
657 0 74.341 14.9043 1108 103.462 589.596 492.068
658 0 77.2147 15.0878 1165 103.8 589.153 491.179
659 1 44.0861 10.729 473 103.966 589.698 509.488
660 0 48.1723 12.9535 624 99.8045 588.497 507.7
661 0 47.3318 12.1272 574 103.263 586.89 505.132
662 0 49.208 12.4573 613 101.899 585.954 503.199
663 0 53.0977 13.5787 721 98.3786 584.642 501.394
664 0 55.181 12.758 704 99.2614 583.202 498.618
665 0 55.2451 14.1913 784 97.6658 582.281 495.89
666 0 57.2321 14.083 806 94.8251 580.844 495.799
667 0 60.4648 15.3478 928 93.3869 580.978 492.651
668 0 62.2014 13.6974 852 96.5024 581.309 490.477
669 0 63.1171 13.5779 857 95.2275 581.428 488.695
670 0 63.1171 13.4829 851 142.476 582.414 488.562
671 0 69.1175 16.7975 1161 91.2317 581.355 482.699
672 0 70.2327 14.5089 1019 96.1217 581.512 479.5
673 0 71.1067 15.9197 1132 94.5053 580.996 478.594
674 0 73.3378 13.7037 1005 99.2109 581.836 476.763
675 0 77.3069 15.6519 1210 95.7422 583.56 473.925
676 0 80.5842 14.7796 1191 96.4408 584.492 474.393
677 0 82.7095 14.69 1215 97.5696 585.661 469.731
678 0 85.3562 17.386 1484 92.5903 586.896 469.204
679 0 88.3599 15.0521 1330 97.2045 589.585 466.446
680 0 87.3413 14.5063 1267 99.3157 592.095 464.357
681 0 92.2458 15.0034 1384 98.9133 593.693 465.223
682 0 95.1846 14.7293 1402 99.2504 594.874 464.259
683 1 49.043 11.3574 557 100.404 596.898 488.384
684 0 50.1786 11.2 562 98.8488 596.806 490.391
685 0 54.2166 12.5976 683 97.5681 597.445 487.95
686 0 58.1476 14.8243 862 93.6926 595.893 487.564
687 0 58.1873 13.9893 814 97.2039 594.811 487.144
688 0 61.1586 12.3286 754 100.279 593.95 486.947
689 0 65.1872 14.7115 959 95.9239 592.06 486.844
690 0 67.2619 13.3954 901 99.0666 591.688 479.922
691 0 71.4744 13.2215 945 99.2772 589.966 480.694
692 0 75.3809 14.3538 1082 95.5702 589.078 477.225
693 0 83.2797 16.8829 1406 89.7966 587.793 476.796
694 1 41.2935 12.278 507 92.4734 586.497 492.822
695 0 43.2435 9.87431 427 96.1382 585.941 490.571
696 0 44.2056 11.9216 527 96.3416 585.75 486.605
697 0 48.2474 12.9126 623 93.1669 584.684 485.78
698 0 47.3477 12.6722 600 97.235 585.537 484.153
699 0 50.6733 13.7942 699 92.3948 585.092 484.877
700 0 51.2719 13.2041 677 94.5776 585.383 485.397
701 0 53.1923 13.1222 698 94.6017 586.315 483.801
702 0 54.2517 12.7369 691 96.0506 586.45 482.829
703 0 56.3668 13.5541 764 94.6505 586.559 479.886
704 0 60.2602 15.4497 931 90.6112 587.752 478.903
705 0 61.383 14.7924 908 92.9394 588.885 477.122
706 0 60.3956 13.9083 840 95.1012 590.193 476.451
707 0 66.4503 14.9285 992 92.5806 592.768 476.892
708 0 67.4946 13.4826 910 95.9528 595.024 475.606
709 0 70.392 13.1549 926 97.2214 597.503 474.584
710 0 73.6264 14.981 1103 94.4189 597.518 472.693
711 1 37.2788 11.0787 413 95.6586 598.937 493.133
712 0 41.2325 12.0051 495 91.8909 600.984 494.925
713 0 41.3537 11.2203 464 96.8793 600.782 493.078
714 0 43.3338 11.8845 515 95.1243 600.299 494.872
715 0 45.3294 11.9349 541 96.2699 600.042 494.368
716 0 48.2018 14.1074 680 92.7456 599.129 493.731
717 0 49.0841 14.1186 693 95.3232 597.267 492.693
718 0 50.3938 14.6843 740 95.0027 596.522 493.42
719 0 53.3498 14.583 778 95.2018 595.62 493.044
720 0 55.0767 13.9987 771 96.8288 594.143 490.962
721 0 57.3264 14.8971 854 94.6885 592.603 489.617
722 0 59.276 13.9179 825 96.943 590.491 485.762
723 0 61.4896 14.3439 882 95.9195 589.313 485.298
724 0 63.1222 13.7986 871 97.915 587.914 483.402
725 0 66.4044 14.5773 968 96.3337 586.467 480.318
726 0 70.3223 14.789 1040 95.7567 586.645 478.262
727 0 70.1452 16.0239 1124 94.3034 586.31 473.525
728 1 37.285 9.49445 354 97.9944 586.475 492.873
729 0 39.327 11.1628 439 96.0364 586.649 490.055
730 0 39.167 10.9276 428 98.4089 586.54 488.867
731 0 40.3771 11.9127 481 97.4345 586.264 486.983
732 0 44.3431 13.0122 577 95.487 586.692 485.355
733 0 45.4427 13.2254 601 95.1448 586.757 483.439
734 0 48.2115 15.3905 742 91.0539 588.849 484.648
735 0 49.3684 14.1589 699 93.6581 591.602 484.466
736 0 50.204 13.7838 692 94.7269 594.051 486.62
737 0 52.2813 14.0586 735 93.8939 594.807 487.407
738 0 57.4389 15.5992 896 90.3862 596.306 487.7
739 0 57.1693 15.2879 874 91.8844 597.717 488.249
740 0 60.4968 14.166 857 95.5169 597.867 487.419
741 0 62.3397 13.9398 869 96.6594 598.043 489.616
742 0 63.3936 13.85 878 98.2415 597.313 489.052
743 0 68.3422 14.603 998 96.9329 596.236 489.026
744 0 70.4129 14.5286 1023 97.5181 594.856 488.054
745 0 74.1976 16.4156 1218 94.8489 592.457 487.412
746 1 40.1012 10.4486 419 98.21 591.675 505.074
747 0 42.2502 10.7692 455 98.5055 589.611 502.29
748 0 46.2917 13.7606 637 93.3768 585.964 502.226
749 0 46.3378 12.9484 600 94.715 585.975 501.223
750 0 49.2731 13.5571 668 94.1647 585.184 499.57
751 0 49.1682 13.8097 679 95.6922 584.648 496.46
752 0 52.0994 14.4147 751 95.3249 582.32 493.118
753 0 55.2524 13.7732 761 95.5598 581.812 492.565
754 0 54.1133 14.9871 811 95.3305 582.147 490.57
755 0 56.0841 12.3921 695 100.965 581.876 488.606
756 0 60.2456 15.304 922 95.0033 582.29 487.11
757 0 60.3555 14.6963 887 97.2717 583.482 485.971
758 0 61.1643 13.9297 852 99.7782 582.851 483.116
759 0 65.2352 13.9649 911 99.4863 583.173 481.251
760 0 67.2197 14.8617 999 98.2803 584.551 480.347
761 0 70.301 14.9073 1048 99.1221 585.809 478.194
762 0 73.489 13.6619 1004 101.936 587.072 477.918
763 0 76.3335 13.441 1026 103.523 588.863 476.282
764 0 78.305 14.865 1164 101.58 589.807 475.13
765 1 42.0676 8.24863 347 103.911 592.063 496.406
766 0 43.0813 11.6988 504 101.7 594.627 494.889
767 0 44.0536 11.6449 513 102.947 596.357 495.517
768 0 47.1308 11.4575 540 102.963 596.556 494.959
769 0 50.1058 12.5534 629 102.237 596.852 492.943
770 0 50.2084 13.1452 660 99.75 596.37 494.985
771 0 52.22 12.3133 643 102.078 595.792 493.728
772 0 54.1757 12.0165 651 101.899 596.008 495.375
773 0 57.2214 15.7633 902 94.6619 593.5 492.532
774 0 60.2009 14.435 869 94.5017 592.474 492.51
775 0 65.2681 13.6514 891 88.9237 591.148 490.048
776 0 66.2169 15.1019 1000 86.065 589.325 488.366
777 0 71.2515 17.2488 1229 80.1611 587.949 489.579
778 0 72.2359 14.3281 1035 86.6638 586.773 484.952
779 0 75.1831 15.2827 1149 85.7859 584.954 481.001
780 0 79.3028 14.287 1133 85.9974 584.41 480.244
781 0 82.2226 14.1324 1162 85.9914 585.241 476.843
782 1 43.1875 11.9016 514 85.8658 585.3 494.037
783 0 46.011 11.8015 543 85.0847 585.317 492.379
784 0 46.0666 11.5485 532 86.6936 584.85 491.365
785 0 49.1065 12.6256 620 84.0774 584.587 490.282
786 0 51.0607 13.3566 682 84.2258 585.324 487.827
787 0 53.0688 14.5283 771 81.2477 586.074 487.232
788 0 55.2768 13.4776 745 82.0201 587.264 488.003
789 0 58.1324 14.8454 863 80.3094 588.489 486.812
790 0 60.2702 13.7216 827 81.7787 590.272 485.334
791 0 62.226 13.0813 814 83.0258 590.876 485.998
792 0 64.1902 13.9429 895 83.581 592.2 484.745
793 0 69.223 15.0961 1045 81.2278 593.002 484.594
794 0 72.1736 13.4814 973 83.8582 594.177 484.947
795 0 75.2785 13.4036 1009 83.9148 594.858 485.036
796 0 79.2546 11.5198 913 88.6145 595.124 483.463
797 0 82.2414 13.8252 1137 85.8171 594.323 480.837
798 1 42.0109 8.87865 373 86.1153 594.145 507.389
799 0 46.014 12.7353 586 85.1502 592.346 503.101
800 0 48.0399 11.8651 570 87.514 590.11 502.726
801 0 49.0767 12.5518 616 86.6006 589.148 500.289
802 0 50.2147 11.6898 587 89.0085 587.642 499.702
803 0 53.4021 13.0332 696 85.6782 586.032 497.322
804 0 55.2006 14.2209 785 84.293 584.566 495.78
805 0 58.5549 13.3208 780 84.6936 583.428 494.494
806 0 58.5549 13.2354 775 132.841 581.428 494.457
807 0 62.2634 14.3102 891 83.2649 581.383 490.015
808 0 66.3006 14.2533 945 85.109 580.825 487.188
809 0 69.3012 13.766 954 86.3532 580.886 484.092
810 0 70.2204 12.4181 872 89.2018 581.084 481.243
811 0 73.3402 13.1851 967 89.6484 581.539 479.311
812 0 75.2957 12.5107 942 92.4841 582.034 474.42
813 0 81.2448 14.4994 1178 87.6452 582.543 474.229
814 0 83.428 14.1679 1182 87.7318 583.198 472.477
815 1 44.1335 11.08 489 85.3415 585.368 492.926
816 0 45.1456 10.7652 486 84.5514 586.792 493.677
817 0 45.217 11.0578 500 87.034 587.356 491.6
818 0 47.3125 11.1598 528 86.6136 588.699 491.625
819 0 50.3983 12.2623 618 86.4854 590.647 488.584
820 0 52.191 13.623 711 84.8214 593.253 489.484
821 0 53.1464 13.5287 719 86.2782 593.395 489.149
822 0 55.1198 14.532 801 85.1823 594.257 489.698
823 0 58.099 12.823 745 87.894 594.361 491.16
824 0 60.2137 15.1128 910 84.856 594.744 489.664
825 0 64.0689 13.5947 871 87.6257 594.581 488.379
826 0 66.2744 13.9873 927 88.0388 593.871 486.328
827 0 69.2575 14.049 973 87.2456 592.792 487.52
828 0 75.2374 14.6204 1100 85.67 591.774 485.083
829 0 77.2124 13.4823 1041 88.3333 591.5 482.544
830 1 40.268 11.0261 444 88.6644 589.633 501.538
831 0 41.1486 10.7172 441 90.3787 588.181 498.066
832 0 42.1494 10.9847 463 87.6177 587.438 499.397
833 0 45.2487 11.5363 522 87.6858 586.962 496.36
834 0 46.2569 14.4843 670 84.3015 585.451 493.313
835 0 48.3531 13.2773 642 86.5716 585.452 493.216
836 0 50.1914 12.273 616 85.6932 585.573 491.304
837 0 50.2131 13.8211 694 84.4784 585.241 490.556
838 0 53.0986 15.1605 805 79.9267 586.15 487.147
839 0 55.0545 13.9135 766 83.0313 586.433 485.906
840 0 56.1634 11.8939 668 86.3787 587.461 486.043
841 0 59.1173 15.6299 924 80.6429 588.254 484.543
842 0 63.1322 14.6835 927 82.5049 589.613 484.888
843 0 65.0891 15.0102 977 84.3378 590.843 482.287
844 0 67.0692 16.2071 1087 82.2355 592.156 482.197
845 0 69.0893 13.3595 923 86.6641 593.858 481.637
846 0 72.0802 13.4988 973 87.8911 594.905 479.486
847 0 76.2136 13.4753 1027 87.9659 596.509 481.735
848 1 40.1072 11.8432 475 86.9537 597.478 501.128
849 0 42.1965 11.0199 465 88.1161 597.953 502.286
850 0 45.2003 13.7831 623 86.4976 597.222 500.571
851 0 45.0609 11.9838 540 90.1407 595.602 502.157
852 0 48.1907 13.5296 652 89.6978 595.354 501.871
853 0 49.3264 12.6099 622 89.7765 594.08 502.624
854 0 52.3348 13.9295 729 86.845 591.737 501.975
855 0 53.2018 13.6086 724 89.8052 590.284 499.844
856 0 55.2525 14.1713 783 87.6692 589.074 498.845
857 0 58.2414 14.3197 834 89.1355 586.609 495.169
858 0 62.2141 15.6235 972 84.8282 585.291 495.304
859 0 64.2536 14.4895 931 87.7025 583.688 492.353
860 0 66.27 13.9882 927 88.3711 582.478 490.35
861 0 68.2118 14.6895 1002 87.4102 581.935 487.814
862 0 69.2231 13.247 917 90.9149 582.122 485.541
863 0 73.2341 13.9826 1024 90.9502 582.138 481.99
864 1 37.0581 10.0653 373 90.7105 583.174 500.249
865 0 37.0297 10.6131 393 92.0076 583.735 499.013
866 0 42.2186 12.1037 511 88.7554 583.949 497.937
867 0 41.0481 12.3514 507 87.5621 584.118 495.755
868 0 43.1313 12.1721 525 85.7181 583.39 494.32
869 0 45.3155 13.9246 631 84.2409 584.672 493.843
870 0 45.3964 13.7015 622 86.6013 585.987 491.15
871 0 47.1746 13.1427 620 87.2 587.629 490.792
872 0 50.3039 13.6968 689 83.8331 589.203 491.183
873 0 51.2756 13.9248 714 84.444 591.262 492.626
874 0 54.283 13.5033 733 84.6262 591.799 491.342
875 0 54.3056 13.1294 713 84.3254 592.666 491.041
876 0 59.2522 14.7336 873 80.6289 593.42 491.143
877 0 60.2938 13.8488 835 82.1293 593.61 490.48
878 0 60.2938 13.882 837 140.872 593.612 490.412
879 0 66.2034 13.6549 904 82.5808 591.739 489.865
880 0 69.141 14.7959 1023 81.4917 591.469 487.895
881 0 71.1894 14.4684 1030 81.6398 590.196 488.739
882 1 36.0421 9.79411 353 83.0737 590.652 506.28
883 0 36.0239 9.0773 327 84.2538 590.141 504.875
884 0 41.0206 11.5308 473 80.2537 588.203 500.884
885 0 42.0723 11.0524 465 81.3763 586.609 497.615
886 0 43.1713 10.9332 472 80.697 585.286 496.701
887 0 44.1537 11.3467 501 80.018 584.621 494.353
888 0 46.25 12.173 563 79.6412 583.307 490.046
889 0 48.2984 12.4228 600 79.8567 583.027 488.932
890 0 51.1621 14.0338 718 78.2437 583.227 489.025
891 0 51.1663 16.8666 863 74.9166 583.41 486.557
892 0 54.0712 15.1652 820 77.3427 584.399 483.46
893 0 55.3674 14.6837 813 78.6704 584.374 482.68
894 0 56.1945 14.521 816 79.5735 584.132 482.104
895 0 57.1153 16.1778 924 78.0249 585.176 479.551
896 0 58.1528 13.6021 791 82.1492 586.855 478.604
897 0 61.4522 15.329 942 80.0839 587.657 478.521
898 0 62.1075 13.1385 816 84.1838 589.646 476.983
899 0 66.2928 15.7182 1042 80.2188 591.256 477.046
900 0 68.342 14.1348 966 82.5248 592.893 480.184
901 0 70.5399 14.3748 1014 83.1726 594.834 478.68
902 0 74.2825 15.8045 1174 80.592 597.073 479.748
903 1 40.4619 9.6387 390 85.0308 598.667 498.21
904 0 40.5256 11.3015 458 83.9148 599.216 497.614
905 0 44.3506 11.1385 494 86.1599 597.891 496.96
906 0 45.4287 11.4465 520 86.0404 596.048 499.187
907 0 47.2766 13.2201 625 82.9104 594.502 498.974
908 0 50.2747 14.0429 706 83.1856 592.763 499.644
909 0 51.2914 13.4136 688 85.0509 591.222 498.083
910 0 54.1951 13.7097 743 83.502 589.825 497.217
911 0 55.3389 14.7636 817 83.2362 588.402 493.863
912 0 58.5548 15.8484 928 82.7284 587.74 493.17
913 0 60.2838 14.9626 902 84.9468 586.161 491.53
914 0 63.3603 15.0252 952 86.6282 584.354 488.941
915 0 67.3949 14.7934 997 85.8897 583.443 486.691
916 0 68.3607 14.9209 1020 86.3588 582.008 484.521
917 0 72.3948 13.7579 996 88.9026 581.339 482.372
918 1 37.03 10.9641 406 88.7759 583.143 498.594
919 0 39.0721 10.647 416 88.5889 583.026 498.543
920 0 38.2111 10.8869 416 90.375 583.671 496.469
921 0 41.0545 11.5213 473 89.5729 583.512 495.702
922 0 42.1416 11.3664 479 89.7015 584.488 496.42
923 0 43.149 12.677 547 88.2852 584.11 494.537
924 0 46.1715 13.2116 610 87.3951 586.097 492.07
925 0 49.1812 13.6231 670 86.4776 588.122 494.252
926 0 48.3062 12.4829 603 90.4096 589.567 493.59
927 0 51.3002 13.0994 672 89 591.701 492.262
928 0 54.2873 12.5444 681 90.9853 593.708 494.467
929 0 55.045 13.8795 764 91.4097 596.09 493.616
930 0 57.1179 13.7435 785 93.3669 595.629 495.164
931 0 61.1007 13.2404 809 94.4005 595.98 494.653
932 0 64.07 15.2021 974 90.7495 595.554 494.385
933 0 67.1184 14.6458 983 92.5331 594.676 492.986
934 0 71.1205 14.7918 1052 91.5513 592.809 490.6
935 1 38.0332 11.8055 449 91.8842 591.494 509.73
936 0 40.013 10.6215 425 93.2635 589.661 507.348
937 0 39.1586 10.5213 412 97.7451 588.32 503.954
938 0 41.2445 11.1772 461 96.1996 586.371 503.221
939 0 44.241 12.1833 539 93.7273 585.182 502.657
940 0 46.3022 14.9669 693 89.7186 583.688 498.535
941 0 46.3988 13.7073 636 90.2123 583.25 496.981
942 0 48.2361 12.6461 610 94.5525 582.413 494.221
943 0 51.4483 13.7225 706 91.8456 582.183 491.805
944 0 52.4274 13.1992 692 92.8353 581.418 490.525
945 0 53.3664 13.7914 736 91.9253 581.11 487.526
946 0 55.3607 14.2159 787 91.2147 581.028 486.255
947 0 57.2445 13.1017 750 93.0533 581.96 484.76
948 0 58.1988 14.7769 860 90.2988 583.514 484.086
949 0 60.2636 13.7894 831 92.9735 583.395 481.513
950 0 62.2181 14.4974 902 92.7849 584.732 481.361
951 0 64.1644 14.9772 961 92.7752 585.706 481.181
952 0 66.3202 14.234 944 94.4513 588.533 480.925
953 0 67.2928 13.731 924 97.4838 590.595 479.364
954 0 72.284 14.2494 1030 95.6641 592.487 479.716
955 0 76.3208 15.2383 1163 94.7962 594.124 477.278
956 0 78.2755 16.1736 1266 93.1366 595.899 476.103
957 1 41.2291 11.0602 456 96.1009 598.024 497.388
958 0 43.139 11.0573 477 94.1468 598.876 499.08
959 0 44.1268 11.7389 518 95.7008 598.12 497.641
960 0 47.069 12.1949 574 94.1777 597.702 497.831
961 0 50.2749 14.5798 733 90.3233 597.136 498.411
962 0 54.1763 13.5853 736 90.9198 595.489 497.819
963 0 57.3266 14.1121 809 90.4079 593.9 496.164
964 0 57.2746 13.898 796 92.9523 592.069 495.903
965 0 60.2206 13.3343 803 93.0112 590.945 494.064
966 0 64.1661 14.6495 940 89.6947 589.431 494.272
967 0 65.2166 14.6589 956 91.8577 587.939 490.366
968 0 69.1668 15.3397 1061 91.0471 586.147 488.411
969 0 70.1918 13.7765 967 96.4964 586.238 485.187
970 0 73.1946 14.2224 1041 96.0423 584.768 481.988
971 0 73.3659 13.9983 1027 98.0282 585.204 478.596
972 0 79.4277 15.2969 1215 94.6543 584.84 476.562
973 0 79.3018 13.6819 1085 99.5521 584.922 472.613
974 1 42.208 9.64272 407 98.4963 585.091 492.951
975 0 44.2396 11.3699 503 96.1889 584.976 491.598
976 0 46.3178 12.1983 565 96.0159 586.432 490.071
977 0 48.1992 13.1123 632 94.5744 586.301 487.563
978 0 50.0469 13.2875 665 94.3278 588.197 487.6
979 0 53.0542 14.0799 747 92.4137 590.066 488.987
980 0 53.063 13.5499 719 95.4465 592.217 488.666
981 0 56.0469 13.1497 737 96.692 594.179 487.394
982 0 57.0844 12.3852 707 98.884 595.226 486.822
983 0 62.1293 14.8561 923 94.0022 597.791 488.09
984 0 63.3613 14.299 906 95.8797 599.157 488.842
985 0 65.0875 15.8248 1030 95.599 597.98 486.6
986 0 68.2099 14.1182 963 99.1724 597.707 488.152
987 1 37.3271 9.75163 364 101.503 597.624 505.038
988 0 38.4835 10.9138 420 102.738 596.8 502.619
989 0 40.5999 10.9606 445 101.746 596.396 503.052
990 0 44.6577 12.495 558 99.1434 594.077 501.738
991 0 43.5083 11.538 502 102.299 592.313 501.026
992 0 47.2257 13.8484 654 97.0734 590.586 500.526
993 0 47.2832 12.8164 606 101.317 588.833 497.721
994 0 50.3319 13.2123 665 98.8256 587.677 496.344
995 0 55.4396 14.8811 825 93.337 586.503 494.31
996 0 56.3391 13.2235 745 98.3799 584.757 491.238
997 0 58.3423 16.6089 969 91.9845 584.213 488.381
998 0 59.4179 14.0193 833 97.6074 585.067 485.193
999 0 62.3451 13.1205 818 97.9389 584.518 484.731
1000 0 63.1735 13.5816 858 98.127 584.043 483.221
1001 0 67.3415 14.8051 997 94.9107 584.947 478.594
1002 0 70.3964 15.498 1091 93.7984 585.47 476.526
1003 0 70.6732 13.994 989 99.4783 585.888 473.043
1004 0 75.6146 15.5261 1174 97.1422 587.078 473.07
1005 1 38.4252 11.0344 424 98.4174 589.026 493.516
1006 0 40.4384 10.312 417 100.144 589.921 492.537
1007 0 41.4562 11.8197 490 99.8102 591.529 490.58
1008 0 43.3834 13.738 596 95.5034 593.409 491.958
1009 0 44.4166 11.8649 527 101.907 595.131 492.48
1010 0 48.2701 13.6938 661 98.0696 597.298 492.946
1011 0 48.2008 14.2114 685 98.9912 598.207 493.234
1012 0 49.0871 13.8937 682 99.4853 600.542 494.089
1013 0 53.5428 13.4659 721 99.9154 600.08 494.852
1014 0 53.2881 12.6482 674 103.576 599.182 495.797
1015 0 58.1616 14.1674 824 99.9575 597.84 495.704
1016 0 60.2876 16.7696 1011 95.5579 597.121 493.921
1017 0 62.2132 15.1415 942 100.114 595.196 492.176
1018 0 64.1931 14.3473 921 102.624 593.479 491.785
1019 0 68.2815 15.6411 1068 100.599 591.966 488.983
1020 0 71.3316 15.3649 1096 101.78 590.619 487.677
1021 0 76.4098 15.2729 1167 100.855 588.772 485.806
1022 0 78.3966 15.1792 1190 102.172 587.308 483.806
1023 0 81.5362 15.5636 1269 101.866 587.06 477.188
1024 0 83.4576 14.7021 1227 105.663 585.155 476.819
1025 1 44.5384 12.2815 547 104.06 585.625 493.865
1026 0 47.4448 10.918 518 107.28 585.861 491.691
1027 0 47.5275 11.2356 534 105.373 586.442 492.528
1028 0 51.3124 12.8624 660 105.383 584.644 489.042
1029 0 52.0821 12.4995 651 107.155 584.601 487.657
1030 0 52.151 13.9403 727 107.098 584.6 485.953
1031 0 57.2875 14.5931 836 103.163 585.751 486.269
1032 0 57.2385 14.2037 813 105.194 586.64 482.979
1033 0 61.2545 14.3173 877 104.026 586.672 482.985
1034 0 62.239 13.7856 858 105.051 589.016 481.019
1035 0 65.1792 14.6979 958 103.222 590.979 480.6
1036 0 68.2167 14.4393 985 102.839 592.423 481.287
1037 0 71.2057 15.2656 1087 102.223 593.596 479.871
1038 0 77.2413 15.6652 1210 99.062 596.041 482.294
1039 1 41.2892 9.92996 410 104.117 597.441 499.637
1040 0 42.2262 9.75698 412 103.903 598.143 501.248
1041 0 47.3104 11.266 533 102.304 597.527 499.794
1042 0 47.2854 12.4774 590 102.495 596.441 499.017
1043 0 49.1687 11.3284 557 104.079 594.932 499.715
1044 0 53.2505 12.9952 692 99.9408 593.866 498.189
1045 0 54.0813 12.962 701 100.857 592.519 496.251
1046 0 56.1247 13.5413 760 99.8276 591.766 493.675
1047 0 61.1222 14.8555 908 95.9692 589.882 492.404
1048 0 62.251 14.1524 881 98.1646 587.731 491.215
1049 0 65.1714 14.4235 940 97.5447 586.289 488.596
1050 0 66.4027 13.4633 894 99.962 585.677 485.925
1051 0 71.2312 15.5269 1106 94.8291 584.769 482.412
1052 0 72.1998 14.3768 1038 97.4403 584.002 481.652
1053 0 75.2279 15.6591 1178 95.3667 584.593 478.391
1054 0 79.2422 14.4872 1148 97.4974 583.186 474.848
1055 0 80.1744 14.8177 1188 97.202 583.541 474.193
1056 0 84.3597 14.8768 1255 97.0868 583.651 470.919
1057 0 87.6325 14.7662 1294 98.4212 584.41 468.177
1058 0 87.2348 15.143 1321 98.5011 585.366 467.273
1059 1 47.3928 10.107 479 101.52 586.639 487.633
1060 0 50.2808 9.66572 486 99.356 587.512 488.907
1061 0 52.1684 10.0827 526 100.243 588.975 487.184
1062 0 53.2421 12.0018 639 99.529 590.133 484.005
1063 0 55.353 11.526 638 100.199 592.702 485.031
1064 0 57.5273 12.0291 692 99.5882 595.02 485.74
1065 0 58.1656 13.1005 762 100.055 595.898 483.054
1066 0 61.4206 14.2949 878 97.8121 596.927 484.739
1067 0 63.156 13.3162 841 100.741 597.146 485.121
1068 0 66.3033 14.4035 955 99.9403 597.02 484.223
1069 0 71.2301 14.5584 1037 99.5873 597.01 484.764
1070 0 71.2714 13.2732 946 106.307 596.521 482.827
1071 0 76.2771 15.8501 1209 101.743 596.073 483.227
1072 0 78.1342 14.4623 1130 107.034 594.264 480.773
1073 1 41.2496 10.3274 426 106.93 594.573 500.411
1074 0 45.2094 11.303 511 103.72 593.139 499.92
1075 0 45.134 12.0308 543 106.3 590.285 496.011
1076 0 48.2661 12.3897 598 106.182 589.727 494.027
1077 0 49.2246 11.9656 589 107.17 588.856 492.684
1078 0 52.2297 13.2109 690 105.639 587.096 489.681
1079 0 54.2187 15.1055 819 99.2222 586.126 487.683
1080 0 55.0315 13.1924 726 103.906 587.437 485.602
1081 0 56.0692 13.8044 774 102.566 587.07 484.14
1082 0 59.1466 12.9847 768 104 586.592 480.487
1083 0 61.1302 13.4958 825 103.915 586.816 479.532
1084 0 63.0912 14.5345 917 100.785 586.372 478.781
1085 0 67.0974 15.8724 1065 98.8385 586.405 475.277
1086 0 67.0519 13.9146 933 105.372 587.102 473.43
1087 0 70.2434 14.0369 986 104.331 587.741 473.718
1088 0 73.204 14.2478 1043 103.58 589.758 473.31
1089 0 76.177 14.1513 1078 104.549 591.615 471.486
1090 1 43.0678 9.91459 427 103.536 594.838 492.822
1091 0 45.0953 10.5776 477 103.843 596.855 491.763
1092 0 44.0233 10.2673 452 105.283 598.73 492.418
1093 0 47.0336 12.8206 603 100.629 599.914 492.967
1094 0 49.0243 13.3199 653 100.142 600.149 492.907
1095 0 54.0676 13.927 753 97.6733 600.904 492.932
1096 0 53.1471 13.1898 701 102.499 599.314 493.28
1097 0 55.2959 14.9559 827 100.031 598.185 492.312
1098 0 59.1058 14.1103 834 100.311 597.663 493.44
1099 0 61.1843 14.3828 880 102.003 596 491.291
1100 0 63.1768 14.9422 944 101.138 593.906 491.425
1101 0 67.1658 13.7719 925 102.584 593.027 488.841
1102 0 69.2344 15.2381 1055 100.8 591.464 485.43
1103 0 73.0979 14.8705 1087 100.218 590.124 483.704
1104 0 74.1867 14.0456 1042 101.059 589.071 481.548
1105 0 77.3215 13.9806 1081 100.982 588.17 476.611
1106 1 40.0383 10.415 417 97.0528 588.856 497.103
1107 0 42.0317 10.5635 444 98.6644 588.218 491.797
1108 0 44.1078 11.5399 509 95.1866 589.039 491.479
1109 0 45.0502 11.5649 521 95.8752 588.712 489.459
1110 0 47.0236 11.4836 540 94.413 588.932 488.4
1111 0 50.174 13.2937 667 91.7076 588.891 485.726
1112 0 48.0293 13.0129 625 94.9808 588.648 482.274
1113 0 53.0478 13.8743 736 91.7459 589.558 483.053
1114 0 55.0723 13.0011 716 93.2821 590.912 483.567
1115 0 55.1536 13.3989 739 93.111 591.422 484.756
1116 0 58.2576 13.3202 776 92.1353 592.985 482.443
1117 0 60.2977 13.964 842 92.5974 594.334 482.265
1118 0 63.1249 12.1822 769 95.3771 597.124 483.434
1119 0 63.0982 14.2952 902 93.6286 597.826 480.953
1120 0 67.2228 14.3701 966 93.3571 598.618 482.022
1121 0 67.2153 13.1518 884 96.4491 598.286 481.36
1122 0 71.3727 13.2824 948 96.5696 598.613 482.731
1123 0 78.322 14.0829 1103 94.99 598.527 481.931
1124 0 79.6239 13.4759 1073 97.8621 596.91 478.763
1125 1 41.4244 11.6598 483 93.9089 595.656 501.849
1126 0 43.3708 9.61476 417 96.8465 594.41 503.628
1127 0 45.3028 10.9265 495 97.1859 592.954 500.05
1128 0 46.2021 10.6705 493 98.0507 591.868 498.185
1129 0 50.3663 12.4885 629 95.1049 590.143 497.868
1130 0 51.3226 12.8014 657 97.1218 588.349 496.084
1131 0 53.3307 13.0694 697 97.1822 587.026 494.508
1132 0 55.0727 13.2552 730 98.2301 587.025 491.53
1133 0 58.1814 13.1829 767 97.382 586.458 489.477
1134 0 59.2454 13.6551 809 97.8158 586.519 486.806
1135 0 61.2038 13.4142 821 97.1827 586.281 484.839
1136 0 65.3208 13.9466 911 96.9199 586.528 481.993
1137 0 68.2219 15.0978 1030 93.9204 586.855 480.334
1138 0 69.1637 14.256 986 97.1694 586.691 478.706
1139 0 73.2454 14.4173 1056 95.9706 586.244 477.393
1140 0 75.2434 15.1508 1140 95.6316 587.445 475.313
1141 1 39.1918 11.431 448 97.2031 587.969 494.5
1142 0 41.1634 9.5716 394 99.6193 589.183 493.723
1143 0 42.1788 9.27006 391 98.2609 590.88 495.471
1144 0 46.1296 13.2453 611 92.3535 592.633 494.668
1145 0 44.2488 11.6161 514 97.0739 594.438 494.339
1146 0 45.1721 12.3085 556 97.3309 595.993 493.444
1147 0 50.2781 13.3259 670 93.7284 597.469 494.261
1148 0 50.2385 12.8189 644 97.4317 598.146 494.677
1149 0 53.174 15.3458 816 92.0172 597.898 494.218
1150 0 54.07 13.2051 714 97.9902 598.964 495.716
1151 0 58.0169 13.8925 806 96.598 597.824 495.139
1152 0 60.0618 14.0023 841 96.0963 596.902 493.336
1153 0 61.09 13.652 834 98.2206 595.025 492.35
1154 0 65.123 13.2979 866 99.3245 592.449 490.742
1155 0 67.0686 12.1368 814 99.7568 591.375 490.897
1156 0 71.1207 13.8778 987 95.2503 589.019 489.199
1157 0 74.2902 13.703 1018 96.3075 588.687 485.889
1158 0 77.2919 14.4258 1115 95.217 587.212 484.96
1159 1 36.0964 10.472 378 99.3042 587.392 500.071
1160 0 39.0962 10.6916 418 96.055 587.278 500.321
1161 0 42.2331 11.1761 472 97.8008 586.428 494.983
1162 0 44.1416 10.6022 468 97.6004 586.622 494.13
1163 0 44.137 12.2346 540 97.187 586.139 489.794
1164 0 46.1034 12.0598 556 95.5899 586.754 489.977
1165 0 49.0445 13.0494 640 92.0094 586.316 486.798
1166 0 50.037 12.5707 629 93.8506 586.744 484.723
1167 0 52.0942 13.322 694 91.5965 587.751 486.111
1168 0 53.2192 12.0445 641 94.6006 588.58 484.226
1169 0 56.3368 13.295 749 91.3017 588.112 482.996
1170 0 55.256 13.2293 731 93.725 589.601 482.083
1171 0 57.4555 14.3067 822 91.129 591.079 481.376
1172 0 61.2923 13.6722 838 91.5048 593.023 481.833
1173 0 64.3234 13.9452 897 91.068 594.658 482.487
1174 0 65.2439 13.3652 872 91.2489 596.63 482.294
1175 0 67.3219 15.3293 1032 88.5145 597.71 480.284
1176 0 71.3136 15.4529 1102 88.8485 599.58 480.297
1177 0 73.2505 13.5835 995 92.606 598.491 478.269
1178 0 76.2168 14.157 1079 92.7572 598.125 478.554
1179 0 79.1995 14.6213 1158 92.7755 598.409 478.049
1180 0 83.3154 13.767 1147 93.5641 597.216 478.538
1181 0 88.219 14.9854 1322 92.8109 596.204 476.693
1182 0 90.5824 14.9146 1351 93.6306 594.886 474.911
1183 0 96.3496 14.6342 1410 92.6305 593.801 474.345
1184 0 97.4183 14.6276 1425 93.9846 592.85 470.119
1185 0 100.431 15.0053 1507 93.3059 591.435 469.877
1186 0 106.551 15.2696 1627 92.4837 589.462 464.936
1187 0 109.586 14.062 1541 93.0045 588.332 464.222
1188 0 111.581 13.9451 1556 94.2545 587.382 457.311
1189 0 118.73 15.5563 1847 90.3514 586.265 454.66
1190 0 122.374 17.2668 2113 86.5731 586.271 449.987
1191 0 127.391 15.001 1911 90.7143 586.05 448.087
1192 0 130.241 15.6249 2035 91.2113 586.359 441.272
1193 1 75.1447 12.4959 939 91.9595 587.306 471.716
1194 0 79.1707 11.9994 950 91.6421 587.485 469.564
1195 0 78.0986 12.1257 947 93.6061 588.289 467.139
1196 0 84.3292 13.8742 1170 90.1991 587.713 466.318
1197 0 85.1657 13.9493 1188 92.452 587.972 464.969
1198 0 89.1923 12.3217 1099 94.4768 589.527 464.838
1199 0 93.232 14.3513 1338 91.4477 591.445 463.124
1200 0 96.0998 14.0479 1350 92.2237 593.712 461.044
1201 1 53.0384 10.351 549 94.459 597.219 484.415
1202 0 54.2239 11.4894 623 93.2921 597.605 484.443
1203 0 55.0675 9.95143 548 94.6843 597.757 487.307
1204 0 57.0936 12.8561 734 92.3106 599.15 483.674
1205 0 61.0602 12.9053 788 90.5698 600.3 486.108
1206 0 62.283 12.9409 806 92.9032 600.349 484.129
1207 0 67.1468 13.1056 880 93.4136 600.069 483.138
1208 0 71.3368 15.1254 1079 90.3086 599.858 482.588
1209 0 75.3057 14.1158 1063 92.3509 598.271 482.609
1210 0 77.2971 13.9591 1079 93.6997 595.968 481.75
1211 0 81.253 13.6118 1106 95.9792 595.402 479.61
1212 1 46.0861 10.8927 502 96.0279 594.777 498.418
1213 0 47.1105 10.6346 501 96.7964 593.371 497.058
1214 0 49.097 11.7726 578 95.4412 591.612 493.484
1215 0 50.0249 11.5543 578 96.583 590.398 491.199
1216 0 52.0333 12.9725 675 94.5882 589.638 488.04
1217 0 54.2948 14.3476 779 93.389 588.502 485.533
1218 0 56.2498 12.8356 722 94.8934 588.439 484.586
1219 0 58.2428 14.9718 872 91.1342 588.244 482.139
1220 0 60.2284 13.4654 811 94.2552 587.374 481.123
1221 0 63.2591 15.5709 985 90.3959 587.693 478.374
1222 0 63.2036 13.765 870 95.5368 587.566 475.962
1223 0 65.2542 14.8649 970 93.4062 587.895 475.752
1224 0 68.2882 14.0288 958 95.5271 588.895 475.212
1225 0 70.2769 13.5606 953 96.829 590.202 474.701
1226 0 73.4408 15.2504 1120 93.9848 592.507 472.904
1227 0 77.3084 15.5481 1202 93.6439 594.417 472.463
1228 0 79.2362 14.4505 1145 96.3799 595.411 471.261
1229 0 85.15 15.4551 1316 93.4407 596.983 472.931
1230 1 45.1327 13.2277 597 94.7286 597.96 492.31
1231 0 47.0203 12.4202 584 97.0548 598.781 494.045
1232 0 50.3693 13.1429 662 94.9139 599.518 495.02
1233 0 51.0961 13.4844 689 96.1176 599.354 494.277
1234 0 52.1374 14.2508 743 96.4805 598.559 493.369
1235 0 55.1971 15.2182 840 94.6369 596.24 491.92
1236 0 56.2958 14.3528 808 96.1225 596.043 493.498
1237 0 61.1842 13.9578 854 96.274 594.735 491.966
1238 0 63.3337 13.8157 875 96.1749 593.595 491.606
1239 0 66.2272 15.1297 1002 93.2645 592.059 490.46
1240 0 69.4066 14.3358 995 95.8412 590.531 487.066
1241 0 71.4221 13.4832 963 98.4008 589.276 484.719
1242 1 39.3496 10.394 409 96.7922 589.076 499.919
1243 0 40.2905 10.0023 403 98.5012 588.432 497.422
1244 0 42.266 11.1437 471 96.6242 587.635 494.677
1245 0 44.3999 12.9505 575 93.2609 587.445 492.863
1246 0 45.3232 12.2013 553 95.6112 586.588 491.698
1247 0 44.3334 12 532 98.3947 586.404 489.759
1248 0 47.2004 14.3643 678 93.5796 586.237 488.301
1249 0 49.3706 13.3885 661 96.2209 586.876 486.71
1250 0 51.1339 15.0976 772 93.5764 587.675 485.753
1251 0 53.2909 14.449 770 93.0948 588.497 486.306
1252 0 53.1088 13.35 709 96.6968 589.271 483.516
1253 0 57.1843 14.462 827 94.3216 590.145 483.859
1254 0 58.0856 15.6665 910 92.8165 591.862 482.516
1255 0 59.2051 15.269 904 94.5088 594.334 484.304
1256 0 62.3657 14.0783 878 97.7995 595.559 484.517
1257 0 64.6837 13.8056 893 100.131 596.801 484.68
1258 0 69.4326 14.9354 1037 97.8322 598.226 484.929
1259 0 71.6244 14.5062 1039 99.4273 598.42 483.356
1260 1 39.2069 9.15655 359 98.1198 598.568 503.343
1261 0 40.1409 10.7621 432 95.9653 597.438 503.095
1262 0 41.087 12.1206 498 94.3855 596.59 504.05
1263 0 45.1567 11.8698 536 95.1922 593.519 501.177
1264 0 46.2975 12.7437 590 95.622 590.764 501.037
1265 0 50.2923 12.2683 617 96.47 588.658 498.558
1266 0 51.1854 13.9884 716 93.8952 587.384 497.372
1267 0 53.1525 14.6748 780 92.5949 585.649 495.328
1268 0 54.08 13.1842 713 96.9762 584.986 492.693
1269 0 55.2294 12.2399 676 100.368 583.41 490.652
1270 0 58.2265 13.2586 772 96.8394 583.742 490.367
1271 0 59.2626 13.3474 791 97.823 583.556 486.501
1272 0 60.3659 12.5568 758 100.007 582.76 483.563
1273 0 63.3163 14.3407 908 95.4064 584.095 482.019
1274 0 63.1005 12.7891 807 100.384 584.711 478.83
1275 0 68.2361 13.7757 940 97.266 585.495 476.969
1276 0 71.3867 13.8961 992 95.5524 586.751 476.779
1277 0 73.4474 12.8527 944 97.7648 587.155 472.86
1278 1 37.2191 11.9831 446 95.6704 588.41 491.771
1279 0 41.0772 11.0767 455 95.3143 588.842 491.193
1280 0 41.1927 12.2837 506 94.1285 591.267 491.441
1281 0 44.1204 13.2365 584 93.0873 592.788 490.938
1282 0 44.0929 12.3149 543 94.663 596.761 491.466
1283 0 45.0827 13.3976 604 92.7434 598.048 493.318
1284 0 46.0488 12.6388 582 94.1873 599.38 491.486
1285 0 48.117 12.3657 595 94.516 599.839 491.469
1286 0 51.1375 13.4344 687 90.9549 600.291 492.424
1287 0 51.2467 12.996 666 90.7568 599.317 493.29
1288 0 54.2144 14.3689 779 87.5815 598.715 492.232
1289 0 58.1545 13.7736 801 86.3471 597.062 492.477
1290 0 57.2599 12.5568 719 89.306 595.691 491.904
1291 0 60.3445 13.8372 835 86.0659 593.335 491.292
1292 0 60.2461 12.7975 771 88.7834 593.027 488.276
1293 0 63.3692 13.5081 856 86.9077 590.582 486.959
1294 0 64.2538 14.4427 928 84.9203 588.235 484.51
1295 0 66.3717 13.6956 909 85.1914 586.977 482.475
1296 0 68.2572 12.9803 886 84.8273 586.973 480.362
1297 0 69.1631 14.2706 987 82.8045 586.654 476.202
1298 1 55.154 8.82983 487 85.5565 586.207 485.953
1299 0 51.1692 8.98979 460 85.4935 585.909 482.922
1300 0 59.4171 6.07569 361 84 585.867 485.565
1301 0 56.159 5.55565 312 83.5256 584.913 482.91
1302 0 56.3534 7.59492 428 80.5537 585.297 481.049
1303 0 60.2951 7.44671 449 80.1314 586.089 479.194
1304 0 62.2811 15.976 995 71.5457 586.439 471.472
1305 0 63.1247 15.4615 976 71.0646 587.638 471.837
1306 0 64.9304 12.9677 842 72.0713 590.631 476.392
1307 0 60.0678 7.47489 449 76.7461 591.878 474.236
1308 1 175.642 10.5669 1856 99.1266 594.851 369.466
1309 0 174.552 7.19556 1256 101.775 597.155 377.035
1310 1 120.173 7.99681 961 104.364 598.675 365.751
1311 0 130.603 11.3474 1482 92.5459 600.308 389.086
1312 0 137.442 11.9759 1646 92.0516 598.613 387.775
1313 0 140.524 12.4036 1743 91.891 598.953 384.614
1314 1 122.397 11.2585 1378 106.221 598.577 342.664
1315 0 118.094 10.3646 1224 102.579 597.743 350.335
1316 1 170.548 7.78082 1327 95.6096 597.056 378.381
1317 1 98.2174 15.6591 1538 97.2763 595.114 341.447
1318 1 52.0691 10.39 541 101.47 593.839 360.213
1319 0 55.1184 13.4075 739 95.8539 591.551 356.778
1320 0 59.1076 13.1117 775 97.4658 589.916 353.034
1321 0 62.1926 14.3586 893 94.6092 588.282 347.022
1322 0 66.0799 14.9667 989 92.9767 587.983 342.058
1323 0 69.1265 15.638 1081 92.8936 587.354 337.045
