time division length width area intensity CMx CMy
0 0 40.213 13.5528 545 116.459 210.002 480.295
1 0 41.2396 12.585 519 116.873 209.757 478.96
2 0 39.1494 12.414 486 121.259 211.154 480.451
3 0 41.0383 12.2568 503 119.97 212.239 479.803
4 0 41.0736 13.6341 560 116.907 212.154 480.83
5 0 43.0867 13.2291 570 113.961 211.281 478.189
6 0 44.1779 13.8531 612 114.1 210.966 480.191
7 0 46.1518 13.6506 630 113.486 211.903 479.676
8 0 45.2631 11.9965 543 119.311 212.026 476.926
9 0 46.213 15.4069 712 111.327 212.728 478.597
10 0 49.2978 14.7065 725 112.327 211.847 476.268
11 0 49.1543 14.8715 731 113.508 211.115 475.844
12 0 48.4517 13.1265 636 117.302 212.175 479.557
13 0 48.3826 13.0419 631 117.545 211.154 479.83
14 0 52.0971 13.9931 729 115.68 210.678 475.391
15 0 55.2656 14.8374 820 112.415 212.507 475.187
16 0 55.1359 14.9993 827 111.146 212.167 475.137
17 0 54.2063 13.8914 753 116.061 211.466 474.708
18 0 59.2577 15.1035 895 111.485 211.079 474.98
19 0 60.2252 14.9439 900 113.291 211.022 472.988
20 1 31.0261 10.7329 333 121.207 211.384 486.685
21 0 34.0611 11.2445 383 115.948 211.24 487.815
22 0 35.0522 11.0977 389 116.781 211.9 486.928
23 0 34.0812 12.0301 410 115.812 210.612 485.061
24 0 36.1891 13.2637 480 113.571 210.725 484.838
25 0 35.0746 12.8013 449 115.452 210.468 483.521
26 0 37.1253 13.0369 484 112.973 212.57 484.531
27 0 38.1225 13.6927 522 113.464 214.033 484.088
28 0 41.1099 13.0869 538 114.243 214.591 482.589
29 0 41.0829 14.9454 614 109.474 212.927 483.888
30 0 42.0872 14.0423 591 112.77 212.535 480.469
31 0 46.2877 13.6105 630 112.181 212.122 478.31
32 0 46.1028 14.793 682 111.421 211.858 477.359
33 0 45.2352 14.6788 664 111.907 213.658 477.973
34 0 48.1741 14.2815 688 110.962 213.395 478.065
35 0 49.1842 14.3339 705 111.696 213.674 477.42
36 0 51.183 14.6924 752 110.598 213.886 477.146
37 0 52.1188 14.4861 755 112.384 214.358 477.015
38 0 54.1129 16.5395 895 107.139 214.459 476.591
39 0 56.0929 16.4727 924 107.591 214.052 476.228
40 0 57.0459 14.3043 816 111.581 214.21 475.158
41 0 59.1651 17.054 1009 105.969 214.352 474.34
42 0 60.1133 15.2212 915 109.384 214.557 474.529
43 0 62.1298 15.6769 974 108.882 214.989 472.931
44 0 62.2071 14.5643 906 112.56 215.031 472.157
45 0 65.1635 15.8371 1032 107.207 215.639 473.96
46 0 68.2878 15.2882 1044 109.212 216.488 470.048
47 0 70.2498 16.1709 1136 107.517 216.308 470.672
48 0 71.1626 15.584 1109 110.073 216.042 469.856
49 0 74.087 16.6021 1230 108.268 215.356 468.51
50 0 76.2385 15.8581 1209 108.966 215.693 466.821
51 0 78.1975 15.6399 1223 110.34 215.794 465.659
52 0 81.3447 15.3175 1246 110.538 215.829 464.379
53 0 84.1855 16.1073 1356 107.268 215.878 466.085
54 1 43.1784 12.1589 525 108.446 213.897 483.265
55 0 43.1466 10.5223 454 111.17 214.33 483.925
56 0 45.0632 11.6725 526 110.644 214.627 482.719
57 0 46.0489 13.1816 607 109.598 216.376 482.15
58 0 47.0888 12.7844 602 110.007 216.384 481.819
59 0 51.1101 13.1872 674 106.945 216.806 479.605
60 0 51.0891 14.6215 747 106.23 216.312 478.791
61 0 52.0799 13.1145 683 108.843 215.57 476.936
62 0 53.222 15.689 835 102.707 215.757 477.435
63 0 56.1536 14.4247 810 105.667 216.819 475.744
64 0 58.0209 15.167 880 105.092 216.562 473.951
65 0 61.04 15.3014 934 104.162 217.416 472.729
66 0 62.121 14.9869 931 102.673 217.836 472.16
67 0 64.119 14.6446 939 104.294 218.293 471.157
68 0 66.1625 16.0363 1061 104.131 217.905 468.659
69 0 69.2256 15.9768 1106 104.743 217.518 468.362
70 0 70.1733 14.4642 1015 109.022 217.614 468.513
71 0 72.2057 13.9324 1006 110.112 217.921 469.166
72 0 75.2127 16.2074 1219 107.847 215.672 465.957
73 0 81.2004 15.9728 1297 107.28 216.699 465.514
74 0 80.1527 15.5578 1247 110.584 216.844 462.542
75 0 84.2791 17.4421 1470 104.927 217.071 463.591
76 0 87.3395 17.4262 1522 105.744 215.732 461.241
77 0 86.2639 14.9309 1288 113.981 215.745 460.349
78 0 93.1095 17.1518 1597 107.238 216.051 459.961
79 0 95.3323 15.3778 1466 111.249 216.935 459.244
80 1 50.3036 11.9673 602 109.505 216.731 481.287
81 0 54.1728 13.0877 709 105.034 216.615 481.219
82 0 56.2949 14.5128 817 104.198 216.627 480.424
83 0 57.2683 13.8471 793 106.951 215.999 476.828
84 0 60.1688 14.2765 859 104.718 217.269 477.659
85 0 60.0448 13.8896 834 107.116 217.32 475.838
86 0 64.1882 14.4263 926 105.57 217.984 475.336
87 0 66.1617 14.7366 975 106.348 217.73 473.57
88 0 68.1574 14.4518 985 107.37 217.555 471.781
89 0 71.2134 15.3061 1090 105.368 217.217 470.532
90 0 73.0961 15.1171 1105 105.621 217.478 470.417
91 0 76.0552 14.6867 1117 107.08 218.404 468.141
92 0 78.054 15.2971 1194 107.458 219.31 466.525
93 0 81.0479 14.8061 1200 110.307 218.528 464.098
94 0 84.0619 15.1793 1276 109.654 219.152 464.688
95 0 84.0749 14.2849 1201 112.913 219.218 462.246
96 0 89.0477 15.4861 1379 109.421 218.371 457.573
97 1 48.0754 11.2115 539 110.506 219.072 481.596
98 0 47.111 10.5708 498 112.671 219.315 481.084
99 0 51.2188 12.7492 653 108 218.458 480.73
100 0 53.1075 12.5594 667 108.992 219.039 478.684
101 0 52.1044 11.976 624 110.567 219.223 479.215
102 0 56.0707 14.1072 791 105.066 218.63 477.363
103 0 57.1478 13.3338 762 107.638 218.812 477.807
104 0 59.1198 14.0055 828 107.804 218.442 474.496
105 0 64.135 14.4539 927 105.53 219.273 472.861
106 0 65.1814 15.3264 999 104.876 219.201 473.361
107 0 66.2847 14.83 983 105.796 219.534 471.558
108 0 68.1795 14.5205 990 105.708 218.941 471.95
109 0 72.0875 14.0524 1013 107.45 219.305 469.485
110 0 73.0869 13.7234 1003 108.83 219.559 467.899
111 0 77.3388 14.3395 1109 106.098 219.406 467.996
112 0 77.1484 11.8862 917 111.788 219.205 466.671
113 0 82.2686 13.9057 1144 108.056 219.073 463.817
114 0 81.2448 13.1455 1068 110.066 219.058 463.145
115 0 86.1856 14.55 1254 106.55 219.007 462.588
116 0 89.3681 14.0654 1257 107.002 217.67 460.582
117 0 93.5023 13.4221 1255 107.112 218.788 461.153
118 0 95.1604 13.43 1278 105.807 217.63 460.423
119 1 49.1485 9.25766 455 103.363 216.952 483.33
120 0 52.1748 11.2698 588 100.735 216.378 481.767
121 0 54.0744 12.9081 698 98.957 216.52 480.13
122 0 54.1032 10.0734 545 103.407 216.158 477.8
123 0 57.0808 12.9465 739 100.097 216.871 477.434
124 0 61.0479 14.4968 885 97.2339 216.736 476.158
125 0 60.2039 11.378 685 106.593 216.362 473.448
126 0 64.3109 15.083 970 99.167 217.482 472.405
127 0 65.2918 13.0338 851 105.18 216.893 470.811
128 0 69.362 14.7199 1021 102.253 217.503 469.953
129 0 70.1995 13.1482 923 105.456 217.491 469.533
130 0 72.3715 14.6605 1061 103.058 218.17 467.942
131 0 74.2984 13.8765 1031 105.949 218.469 467.08
132 0 75.3064 13.0799 985 107.353 217.321 466.688
133 0 79.2513 13.7916 1093 104.869 219.098 466.275
134 0 83.3719 14.3813 1199 102.483 219.285 464.072
135 0 84.2524 13.6613 1151 104.91 218.718 462.4
136 0 90.2983 17.8076 1608 95.7233 218.62 461.684
137 1 46.3909 9.41995 437 103.419 218.178 484.176
138 0 48.2599 10.3399 499 101.838 217.908 483.854
139 0 48.278 11.4959 555 101.276 218.434 481.474
140 0 49.2251 11.9248 587 101.152 217.917 481.145
141 0 51.355 11.7807 605 100.729 218.312 480.686
142 0 53.2376 13.0735 696 97.4468 217.95 482.003
143 0 53.5004 12.8971 690 98.387 218.433 479.371
144 0 55.3846 13.0542 723 100.414 218.011 477.855
145 0 58.3814 13.2748 775 99.04 218.973 477.637
146 0 59.4161 14.9118 886 97.3217 218.086 475.232
147 0 61.3474 15.1922 932 96.2811 219 473.367
148 0 64.4543 15.1735 978 96.228 218.262 471.384
149 0 64.4426 13.5469 873 100.466 217.891 470.026
150 0 67.4281 13.5552 914 99.8698 217.324 470.563
151 0 70.6286 14.3426 1013 98.9862 217.633 468.376
152 0 73.6392 15.2772 1125 97.1147 217.255 469.386
153 0 73.3598 14.6402 1074 100.246 217.746 466.731
154 0 77.496 16.1299 1250 97.984 217.557 467.086
155 0 78.5977 15.6366 1229 100.037 217.169 466.474
156 0 82.635 15.6229 1291 100.309 217.548 464.287
157 0 82.6842 13.9809 1156 104.916 217.599 460.095
158 0 86.836 15.0974 1311 103.424 217.349 459.906
159 0 86.5455 13.9695 1209 106.356 217.936 458.301
160 1 48.2986 12.5055 604 103.184 217.978 479.053
161 0 49.3067 12.3918 611 103.661 218.319 479.753
162 0 51.3782 13.0406 670 103.046 218.361 478.318
163 0 53.224 12.1938 649 105.453 216.797 477.002
164 0 55.4449 14.3205 794 101.364 217.204 474.696
165 0 56.2352 13.2124 743 104.669 217.065 473.985
166 0 57.1479 13.7013 783 103.87 218.024 474.079
167 0 60.3719 14.9573 903 100.956 218.96 475.1
168 0 61.3436 13.6771 839 103.892 218.468 473.104
169 0 63.4707 14.5579 924 103.144 219.144 471.59
170 0 66.5062 15.1264 1006 100.691 219.091 472.209
171 0 68.5501 15.2006 1042 101.763 218.39 470.837
172 0 70.567 13.7458 970 104.121 218.418 472.077
173 0 73.4811 14.8882 1094 102.655 217.665 468.814
174 0 74.4012 12.1235 902 106.775 217.396 470.96
175 0 78.6856 14.0686 1107 103.863 217.793 468.649
176 0 79.5374 13.8174 1099 105.471 217.171 465.955
177 0 82.7423 12.9559 1072 106.098 216.695 467.178
178 0 86.3898 14.2031 1227 103.076 217.043 466.226
179 1 45.3538 11.73 532 102.367 217.241 481.838
180 0 49.2663 11.9148 587 99.7939 217.121 482.942
181 0 49.2129 12.8422 632 98.1946 216.301 482.196
182 0 52.1542 13.1149 684 97.2149 216.58 483.531
183 0 53.1106 12.1633 646 100.04 216.032 481.102
184 0 53.1352 12.4588 662 100.002 216.84 479.678
185 0 57.1186 13.6033 777 97.3411 216.797 478.828
186 0 58.0768 13.2239 768 99.9805 216.478 477.292
187 0 60.2011 14.6509 882 96.542 215.407 476.977
188 0 63.0723 14.0157 884 98.6007 215.756 474.488
189 0 63.0703 12.0025 757 102.7 216.012 472.774
190 0 66.1613 13.3008 880 100.509 216.578 471.524
191 0 65.1891 12.9316 843 102.279 215.19 470.97
192 0 67.0758 12.9555 869 102.101 214.573 469.493
193 0 71.1513 13.5626 965 101.301 214.798 466.955
194 0 73.1978 12.6097 923 102.132 215.324 467.219
195 0 76.195 14.0692 1072 100.338 216.241 464.866
196 0 80.2414 13.2226 1061 102.124 215.846 464.951
197 1 44.044 9.4224 415 102.104 216.73 482.766
198 0 46.0371 8.01528 369 103.393 217.314 482.488
199 0 48.0825 10.9395 526 102.346 216.637 480.068
200 0 49.054 10.4375 512 103.939 217.344 479.393
201 0 51.0797 10.3759 530 103.068 217.689 479.098
202 0 52.1292 10.8001 563 102.393 217.451 479.389
203 0 53.0892 11.3394 602 102.025 218.088 479.854
204 0 56.2462 13.0498 734 99.4455 218.386 478.326
205 0 55.0754 11.7112 645 100.38 217.509 479.24
206 0 57.0844 12.3501 705 98.7234 218.264 479.559
207 0 60.1542 14.0638 846 95.669 218.109 476.602
208 0 62.0861 12.9981 807 97.0669 217.511 477.183
209 0 64.0579 12.2545 785 99.5771 218.028 476.354
210 0 65.0382 12.3005 800 99.8925 217.595 475.261
211 0 69.1466 15.0405 1040 95.1 216.685 473.709
212 0 70.1114 14.1204 990 98.3172 216.619 472.025
213 0 74.2288 14.0781 1045 98.2498 216.487 470.235
214 0 75.1599 14.2629 1072 98.5373 216.579 469.056
215 0 76.1882 13.0335 993 102.603 216.243 467.696
216 0 78.0894 13.4589 1051 102.847 215.285 465.441
217 0 81.2457 13.1453 1068 103.496 215.748 463.988
218 0 85.1829 14.9913 1277 99.715 215.038 464.454
219 0 86.2231 13.9986 1207 102.258 215.328 462.511
220 0 89.2261 14.4577 1290 101.514 215.424 462.247
221 0 93.185 13.8434 1290 102.967 215.602 458.143
222 0 94.238 13.4765 1270 104.165 215.99 457.81
223 1 52.0331 10.3203 537 101.588 216.317 480.268
224 0 52.0262 8.7456 455 147.732 215.358 482.316
225 0 54.1088 11.8465 641 99.5725 216.931 479.164
226 0 55.0632 11.9499 658 101.087 216.866 477.179
227 0 56.074 11.3778 638 102.114 216.801 477.067
228 0 58.1261 12.8858 749 99.9012 215.503 474.166
229 0 59.1374 12.9021 763 97.4915 216.729 472.004
230 0 59.1967 14.6461 867 96.4279 217.604 470.776
231 0 61.427 11.6561 716 101.028 217.633 472.656
232 0 64.1461 13.0172 835 100.121 217.388 472.646
233 0 68.2328 13.9083 949 96.7977 217.667 472.106
234 0 69.2024 13.988 968 97.7169 217.886 469.389
235 0 70.2552 13.7926 969 99.6161 217.69 469.778
236 0 71.2371 14.4447 1029 100.107 217.488 469.256
237 0 74.195 13.6532 1013 103.513 218.103 466.381
238 0 78.147 16.3026 1274 97.7528 217.71 467.514
239 0 79.2084 12.5113 991 107.193 218.633 466.744
240 0 83.1819 14.5464 1210 103.072 218.169 467.674
241 0 84.0628 13.8349 1163 106.921 217.359 464.184
242 0 89.1605 13.7393 1225 107.711 216.94 463.482
243 0 90.2028 14.2678 1287 107.66 216.936 461.584
244 1 49.0436 9.90955 486 109.342 216.315 482.837
245 0 51.0523 11.7918 602 105.414 215.99 481.892
246 0 52.1209 11.2815 588 106.405 215.677 481.93
247 0 53.1337 12.2709 652 103.135 215.635 480.788
248 0 54.2982 11.9525 649 99.8875 216.501 476.586
249 0 56.1041 12.9759 728 102.522 214.773 478.341
250 0 57.1056 13.0635 746 103.322 215.137 476.165
251 0 58.3532 13.127 766 100.867 216.324 475.46
252 0 60.1847 12.8936 776 100.771 215.119 475.517
253 0 61.18 12.2916 752 103.093 215.384 474.382
254 0 63.2132 12.5923 796 101.802 215.186 473.828
255 0 66.152 13.469 891 99.587 215.733 473.366
256 0 68.0473 15.3864 1047 96.4002 216.191 472.087
257 0 70.0919 13.8675 972 100.566 216.162 469.765
258 0 72.07 13.4314 968 101.549 216.358 469.769
259 0 73.0847 13.4501 983 101.85 216.942 467.603
260 0 75.0842 16.0753 1207 97.5336 216.429 466.851
261 0 76.0868 13.3663 1017 103.586 217.186 465.672
262 0 79.0633 14.052 1111 101.433 217.422 465.842
263 0 84.0787 14.5578 1224 100.04 217.558 464.523
264 0 83.031 13.1276 1090 103.107 218.615 461.694
265 1 46.0302 11.5359 531 100.267 218.428 480.196
266 0 49.0308 9.97332 489 99.1227 219.609 482.783
267 0 49.0738 11.7374 576 97.9601 219.58 480.79
268 0 52.0274 11.321 589 98.1613 218.662 480.236
269 0 54.0323 12.0298 650 96.5892 219.095 479.885
270 0 56.1222 12.1699 683 95.9634 219.053 478.283
271 0 57.0822 12.1054 691 95.8423 219.693 477.41
272 0 59.079 13.812 816 92.6814 219.146 476.043
273 0 61.2597 13.0918 802 93.3292 218.911 476.638
274 0 61.0779 12.0829 738 95.6098 219.427 474.589
275 0 63.1699 12.126 766 94.7624 219.064 476.381
276 0 66.166 13.315 881 92.8297 218.319 473.966
277 0 68.0649 13.3255 907 91.6571 218.282 472.916
278 0 70.1076 12.4238 871 92.7497 217.086 474.07
279 0 74.1788 15.1391 1123 88.4141 216.417 469.049
280 0 73.1836 13.7326 1005 91.8328 216.128 466.339
281 0 78.2226 14.9062 1166 89.4048 215.964 467.458
282 0 79.2625 13.1967 1046 94.1405 215.692 464.738
283 0 83.1655 13.912 1157 92.701 215.127 465.341
284 0 85.2888 13.9057 1186 94.0076 214.581 463.4
285 0 88.2449 11.5814 1022 98.1556 214.524 461.675
286 1 49.089 10.5115 516 91.595 214.696 483.55
287 0 50.0735 12.6614 634 91.1845 214.789 478.606
288 0 50.1297 10.4329 523 94.2352 214.535 479.801
289 0 53.1697 12.9397 688 89.9549 215.337 478.391
290 0 52.1356 9.82054 512 95.9844 215.439 477.967
291 0 52.1707 11.7499 613 94.168 215.276 475.969
292 0 57.1395 14.1933 811 89.1837 215.308 474.247
293 0 58.2365 12.7411 742 82.6617 216.112 476.796
294 0 61.1236 14.6425 895 87.5888 216.278 475.155
295 0 62.1839 14.3767 894 87.67 216.544 474.975
296 0 65.1933 14.5874 951 87.3354 217.914 473.819
297 0 64.0633 13.393 858 90.176 219.193 472.197
298 0 68.0564 14.2676 971 88.6035 218.101 473.222
299 0 70.2689 13.9607 981 89.8991 218.218 470.651
300 1 38.0961 10.2635 391 87.3197 219.066 491.192
301 0 36.1241 11.2114 405 85.5111 217.442 492.504
302 0 37.1544 9.55473 355 89.6704 218.617 492.349
303 0 39.108 10.2025 399 90.6617 217.922 491.454
304 0 40.0426 11.7375 470 90.2957 216.9 490.474
305 0 41.0418 10.5746 434 89.7212 216.963 492.539
306 0 42.1484 10.0834 425 91.8306 217.402 491.205
307 0 43.1317 11.5228 497 90.3823 217.243 489.714
308 0 48.1105 13.5106 650 87.6646 216.131 488.648
309 0 48.1268 14.067 677 88.229 215.716 487.578
310 0 47.0515 12.8583 605 91.2463 215.861 488.464
311 0 49.0387 13.2956 652 92.7316 215.347 486.606
312 0 53.0729 13.1517 698 89.9456 215.179 487.226
313 0 52.0854 12.6715 660 92.1576 215.215 485.545
314 0 53.1164 12.3126 654 91.8073 215.628 486.04
315 0 53.1019 12.8997 685 92.4 214.642 483.693
316 0 53.0388 13.0471 692 93.4899 215.21 479.004
317 0 57.0489 13.8127 788 92.4048 214.718 478.062
318 0 59.1512 12.7977 757 94.3342 214.483 477.227
319 0 62.0802 14.4652 898 91.8229 214.988 475.286
320 0 63.0763 14.4111 909 92.5435 215.036 474.32
321 0 64.0444 13.1003 839 94.5709 215.719 474.88
322 0 67.0311 14.5007 972 91.8189 215.906 473.745
323 0 70.1019 14.2792 1001 93.3936 216.168 472.923
324 1 36.0364 12.0434 434 92.5899 216.94 487.396
325 0 36.0503 9.18161 331 95.3202 217.347 488.556
326 0 37.0597 10.8743 403 96.1737 217.191 486.985
327 0 38.1612 9.93155 379 97.0185 219.077 488.633
328 0 41.1094 13.6222 560 89.8232 219.657 487.355
329 0 43.1091 14.4517 623 88.9583 218.87 486.339
330 0 43.1655 12.927 558 91.681 219.548 486.989
331 0 42.2568 12.566 531 94.7194 219.701 486.478
332 0 44.1458 11.983 529 96.1134 219.495 487.662
333 0 46.0781 13.5205 623 93.3307 219.831 487.265
334 0 48.2193 13.3349 643 93.4463 219.208 486.504
335 0 51.1355 15.1362 774 89.3798 218.05 486.198
336 0 50.1975 12.9289 649 94.9399 218.142 486.136
337 0 52.1858 12.0531 629 96.0763 217.671 486.491
338 0 54.1656 13.2003 715 93.6713 217.087 487.322
339 0 55.1602 13.216 729 95.1015 217.181 482.551
340 0 58.1991 14.4676 842 92.9145 216.245 483.628
341 0 59.2165 14.1177 836 93.9868 215.941 482.691
342 0 62.2554 13.2679 826 96.6162 215.581 479.834
343 0 61.2442 13.7319 841 135.394 215.565 479.703
344 0 65.2126 13.755 897 97.4861 214.255 476.992
345 0 67.1846 14.3932 967 96.8769 214.404 473.558
346 0 70.1707 14.3935 1010 96.4436 213.967 472.848
347 0 72.1056 12.2598 884 100.09 213.595 472.701
348 0 75.2664 15.0665 1134 97.2804 213.946 467.736
349 0 78.2239 14.8804 1164 96.8995 214.47 466.99
350 1 42.033 10.0397 422 98.654 214.284 486.408
351 0 42.0312 9.49294 399 98.7569 214.501 486.188
352 0 45.0596 11.5847 522 97.592 214.766 482.592
353 0 48.119 10.7858 519 98.474 214.869 481.84
354 0 50.1205 13.0685 655 95.3832 215.834 481.632
355 0 51.0947 11.9778 612 96.6046 216.676 482.248
356 0 53.2296 12.587 670 96.2836 217.982 479.743
357 0 56.159 13.7467 772 92.2876 218.399 480.016
358 0 55.1426 13.0208 718 95.0627 218.007 479.471
359 0 58.0567 13.0562 758 95.7401 218.183 477.563
360 0 62.1827 13.7016 852 93.0587 218.286 476.836
361 0 64.3201 14.1169 908 92.0639 218.5 473.339
362 0 66.24 14.2361 943 93.7126 219.154 474.806
363 0 67.1154 15.6745 1052 92.5276 219.63 474.583
364 0 70.1036 13.965 979 94.9591 218.827 473.212
365 0 75.154 15.7543 1184 90.3961 218.536 475.35
366 0 76.117 13.7157 1044 95.1868 218.545 472.748
367 0 79.185 15.2302 1206 93.6575 218.241 470.629
368 0 81.1643 15.3393 1245 94.7189 218.082 468.103
369 1 42.0689 9.38937 395 98.838 216.223 490.286
370 0 43.1254 10.3883 448 97.5089 216.058 488.864
371 0 47.2118 10.3364 488 97.2951 215.162 486.887
372 0 48.1523 11.0483 532 97.2538 215.18 485.643
373 0 50.1218 11.8312 593 94.8516 214.376 484.12
374 0 52.0828 13.0753 681 93.5316 214.357 483.391
375 0 51.2505 12.4291 637 95.9215 213.487 483.056
376 0 54.1718 13.0695 708 93.3644 214.282 480.484
377 0 58.2464 14.7134 857 90.2836 213.34 479.329
378 0 57.2391 13.2427 758 93.6319 213.34 479.505
379 0 61.2131 13.1508 805 94.0758 213.159 477.806
380 0 61.3372 12.7818 784 95.8916 212.936 475.251
381 0 66.3215 14.7765 980 91.4714 212.721 475.613
382 0 66.1652 12.8164 848 97.204 212.406 473.705
383 0 66.1788 13.3578 884 95.1143 214.007 474.314
384 0 69.1402 12.3083 851 101.082 214.808 472.785
385 0 73.1836 14.2108 1040 97.6788 214.906 472.608
386 0 76.097 14.3238 1090 99.0734 215.641 468.942
387 0 78.0925 14.5084 1133 97.8817 216.65 468.831
388 1 43.0668 10.774 464 97.4181 217.185 488.088
389 0 45.057 10.631 479 98.4551 217.752 486.983
390 0 46.0929 10.9778 506 98.5316 218.134 487.814
391 0 47.0197 14.0792 662 94.1118 219.867 484.663
392 0 50.094 13.5346 678 95.6976 218.322 484.42
393 0 51.3543 13.6503 701 94.1498 220.175 485.619
394 0 53.2225 12.8517 684 96.9459 219.978 483.88
395 0 55.1723 14.4819 799 93.0976 220.17 483.981
396 0 54.2657 14.2263 772 95.7694 220.075 482.699
397 0 59.124 13.3956 792 97.0884 219.319 483.011
398 0 60.1915 15.8494 954 92.413 218.528 484.972
399 0 61.2564 13.8434 848 96.5071 218.2 482.499
400 0 60.2588 12.9442 780 155.097 218.133 481.586
401 0 67.2412 14.2324 957 96.7576 216.775 478.845
402 0 70.2387 14.5219 1020 96.4696 216.054 476.012
403 0 73.3964 14.0061 1028 97.0632 215.539 476.071
404 0 74.2316 13.889 1031 99.4074 214.618 471.8
405 1 39.1401 10.6285 416 100.079 214.115 489.704
406 0 41.182 11.0242 454 98.7908 213.379 488.33
407 0 41.2987 12.2764 507 99.9921 211.728 483.442
408 0 43.2875 11.7817 510 98.8882 212.924 484.029
409 0 44.0872 13.5867 599 97.7229 213.501 482.983
410 0 45.1115 12.9014 582 101.574 213.031 482.735
411 0 46.2619 13.1858 610 100.598 213.097 481.402
412 0 48.1196 12.7599 614 100.691 214.086 478.458
413 0 48.1473 11.7556 566 103.208 214.707 479.253
414 0 52.1501 14.1131 736 98.0639 214.978 478.202
415 0 54.1793 13.9352 755 98.6927 214.53 477.298
416 0 55.2565 14.858 821 98.3959 216.146 475.693
417 0 57.1291 14.476 827 98.6578 217.782 474.648
418 0 61.2929 14.1615 868 98.8986 218.925 475.622
419 0 60.1957 12.7085 765 103.28 219.48 476.867
420 0 64.1478 13.4533 863 102.737 219.555 475.665
421 0 64.292 13.2365 851 104.825 219.663 474.939
422 0 67.2701 15.0736 1014 101.862 220.017 473.559
423 0 68.2678 14.1502 966 104.747 220.461 474.871
424 0 73.218 15.6792 1148 102.258 219.573 472.416
425 0 75.6188 15.5649 1177 101.472 219.963 472.717
426 0 76.3526 13.3722 1021 106.484 219.334 471.575
427 1 41.1668 9.98378 411 107.075 218.294 489.696
428 0 44.5002 12.0449 536 102.789 217.976 486.55
429 0 45.363 10.6034 481 105.603 217.41 488.179
430 0 46.3169 10.6441 493 106.653 217.225 488.919
431 0 48.0752 12.8757 619 102.034 217.519 487.039
432 0 50.1918 13.2292 664 101.339 216.063 486.148
433 0 52.0281 12.8008 666 102.309 215.362 485.206
434 0 52.0868 12.8056 667 104.603 214.471 482.714
435 0 55.1488 12.5297 691 103.919 214.483 483.048
436 0 57.16 13.8209 790 101.932 213.994 480.143
437 0 59.2793 13.3099 789 102.823 213.186 480.157
438 0 59.3235 13.182 782 103.316 213.716 479.653
439 0 61.3518 13.0722 802 105.236 213.243 476.565
440 0 65.2107 14.5068 946 101.362 212.777 474.214
441 0 68.3311 15.381 1051 100.212 212.742 472.632
442 0 69.2584 13.9333 965 103.694 212.619 471.306
443 0 72.1543 13.873 1001 104.071 213.584 468.638
444 0 75.1611 14.9412 1123 101.498 214.438 469.016
445 0 78.1889 14.1964 1110 102.702 215.016 467.879
446 1 42.0769 10.5046 442 105.527 215.744 485.014
447 0 45.4088 11.0331 501 105.204 216.487 483.399
448 0 47.3772 12.1155 574 104.159 217.132 482.512
449 0 46.3497 10.9386 507 105.578 218.278 483.763
450 0 51.2541 13.4428 689 99.7547 218.515 483.636
451 0 51.1555 12.9214 661 101.147 220.685 484.679
452 0 55.1393 13.1485 725 100.072 221.153 482.538
453 0 55.1985 13.696 756 99.5159 220.288 482.48
454 0 56.209 13.4142 754 100.71 220.893 482.057
455 0 59.0542 13.6654 807 98.8067 220.116 483.952
456 0 61.1581 14.2745 873 99.0951 219.342 479.156
457 0 63.1727 13.471 851 100.169 219.853 480.025
458 0 67.171 14.3812 966 96.619 218.683 480.013
459 0 68.1409 15.644 1066 94.7645 218.244 476.78
460 0 70.1373 13.3738 938 99.7878 217.864 475.339
461 0 73.2051 13.7422 1006 100.829 217.058 474.154
462 0 76.1048 14.0596 1070 99.9514 215.751 472.202
463 0 79.1526 14.1752 1122 99.3226 214.934 470.54
464 0 81.1346 13.077 1061 102.191 214.259 469.182
465 0 83.126 13.8825 1154 101.312 212.518 466.854
466 0 85.2401 13.5734 1157 102.568 212.995 463.458
467 0 89.1898 13.1741 1175 102.746 212.423 464.226
468 0 92.0858 14.1173 1300 101.721 212.753 458.853
469 0 96.1512 14.654 1409 100.454 212.26 458.735
470 0 99.2857 13.6978 1360 102.685 211.707 455.34
471 0 101.23 12.7927 1295 106.385 212.497 453.114
472 0 105.534 14.0997 1488 104.041 213.198 450.028
473 0 109.284 14.9884 1638 101.563 214.388 451.738
474 1 58.2295 10.5273 613 104.506 216.086 476.463
475 0 64.2379 12.298 790 101.548 216.532 472.761
476 0 64.1845 12.542 805 100.989 218.05 472.102
477 0 67.168 12.3571 830 98.5277 218.734 471.664
478 0 69.1449 13.3343 922 97.4382 218.826 471.163
479 0 73.1271 12.827 938 94.5789 219.52 472.708
480 0 76.2096 13.0955 998 94.525 219.962 473.36
481 0 79.1566 14.2502 1128 94.0523 220.292 472.501
482 0 80.3086 14.1952 1140 96.8886 220.434 469.281
483 0 84.4013 13.1989 1114 98.6293 219.901 470.935
484 0 88.3594 13.2301 1169 99.2541 220.008 469.018
485 0 90.3955 13.4409 1215 103.128 219.158 467.326
486 0 95.3099 13.8705 1322 102.9 218.676 466.488
487 1 50.4597 12.287 620 99.6016 219.337 489.118
488 0 50.341 10.6672 537 102.765 219.484 489.48
489 0 53.2415 12.3776 659 100.167 217.926 488.997
490 0 54.1751 13.0318 706 101.241 216.813 487.116
491 0 56.0871 13.0511 732 101.811 215.769 485.585
492 0 58.2096 14.1729 825 101.004 215.265 482.2
493 0 58.137 12.6769 737 104.989 214.172 481.806
494 0 63.2456 14.6888 929 100.857 213.896 480.526
495 0 62.2612 13.4755 839 104.932 212.743 477.505
496 0 66.319 14.5056 962 101.8 212.665 475.938
497 0 68.3977 14.0209 959 102.843 212.215 472.708
498 0 69.2275 14.7051 1018 101.36 212.495 471.469
499 0 72.209 14.1395 1021 103.58 211.965 468.495
500 0 73.2666 13.253 971 106.466 211.769 466.2
501 0 78.3495 15.2394 1194 100.837 212.919 465.209
502 0 79.3893 13.1378 1043 106.17 213.11 461.703
503 1 43.2493 10.2429 443 103.185 212.937 479.393
504 0 42.2237 9.5681 404 102.545 214.344 482.116
505 0 45.2821 11.1965 507 102.536 215.247 480.195
506 0 47.3045 10.8446 513 102.442 216.306 480.209
507 0 47.1686 10.2823 485 105.936 219.493 476.396
508 0 50.1252 12.3491 619 98.5202 221.562 476.493
509 0 52.0658 12.4074 646 98.5433 223.449 479.026
510 0 55.1558 13.5253 746 99.9316 222.788 482.103
511 0 56.1866 12.4585 700 101.984 223.784 482.727
512 0 58.2344 13.377 779 100.463 223.49 483.747
513 0 61.1786 14.4168 882 97.1417 222.782 484.673
514 0 63.3603 15.1988 963 96.8744 221.71 482.084
515 0 66.2685 15.4825 1026 95.7934 220.059 481.682
516 0 67.3138 12.3897 834 103.529 219.046 481.935
517 0 70.2679 13.8897 976 96.8863 218.038 482.168
518 0 74.1916 15.3252 1137 93.5814 217.569 479.442
519 0 74.4584 13.9138 1036 96.221 216.068 479.604
520 1 42.037 10.4908 441 94.483 216.086 496.522
521 0 43.1313 10.3173 445 95.4494 214.739 495.317
522 0 46.1077 10.4321 481 98.9917 213.909 484.888
523 0 47.1373 10.9043 514 97.7296 212.87 484.111
524 0 49.0594 12.4135 609 97.1823 212.23 486.153
525 0 52.0195 14.5715 758 90.434 211.897 488.566
526 0 51.1599 11.9625 612 97.8922 209.67 485.709
527 0 52.1314 13.3892 698 95.4484 209.168 486.205
528 0 55.1128 14.0984 777 95.3205 208.408 484.595
529 0 55.1626 13.3424 736 98.2391 208.182 482.243
530 0 59.1956 13.6159 806 96.3697 208.409 481.092
531 0 60.1097 14.4236 867 96.5236 208.474 479.361
532 0 61.3639 13.9659 857 98.4609 208.74 478.659
533 0 65.1747 15.4508 1007 94.1926 209.626 480.089
534 0 67.1786 16.6571 1119 92.1072 211.403 478.239
535 0 70.2464 14.9474 1050 95.4324 213.114 477.611
536 0 71.2907 13.7045 977 98.654 215.493 475.412
537 0 74.1969 16.8336 1249 93.9936 216.454 475.594
538 0 75.2 13.9229 1047 100.824 217.605 477.592
539 0 82.2896 15.725 1294 97.2334 218.447 478.713
540 1 43.1199 11.6883 504 101.433 219.355 496.734
541 0 46.1242 12.0544 556 102.275 218.939 496.694
542 0 50.0857 12.7182 637 99.8462 218.914 496.931
543 0 50.1227 12.5492 629 101.766 216.229 495.979
544 0 51.2063 13.4749 690 103.5 215.426 496.159
545 0 54.2074 12.9503 702 104.509 213.869 495.702
546 0 54.1599 12.4446 674 106.681 212.16 491.815
547 0 56.193 12.6706 712 105.226 210.698 491.573
548 0 59.1671 13.3013 787 103.897 209.793 488.395
549 0 62.188 14.9547 930 99.8516 208.446 486.581
550 0 61.1596 14.2251 870 103.589 207.28 484.909
551 0 65.2481 13.441 877 103.216 206.859 484.084
552 0 70.1694 15.1633 1064 98.2293 206.143 480.307
553 0 70.2101 13.9296 978 102.636 204.562 475.614
554 0 72.2363 13.8435 1000 103.796 205.144 474.014
555 0 75.121 12.8193 963 104.78 205.15 473.176
556 0 79.3326 14.08 1117 101.491 205.509 470.32
557 0 81.2378 14.0452 1141 101.982 205.193 467.427
558 0 85.0617 15.1537 1289 100.064 205.479 465.298
559 1 43.1385 10.617 458 99.5895 206.915 486.358
560 0 45.2033 9.75592 441 98.7234 208.12 487.576
561 0 45.0767 10.0495 453 102.38 209.512 484.024
562 0 46.0886 10.9788 506 101.569 211.443 484.868
563 0 50.0879 13.2567 664 98.491 212.943 481.848
564 0 50.2214 12.3453 620 101.284 215.277 484.069
565 0 52.1414 13.3867 698 99.6619 217.927 483.116
566 0 53.1489 12.6249 671 101.249 219.803 484.878
567 0 57.1317 14.5103 829 97.7045 220.222 483.308
568 0 58.144 13.1226 763 102.218 220.46 483.421
569 0 60.0315 14.0593 844 100.929 219.941 483.38
570 0 65.372 15.5265 1015 96.4394 220.457 482.254
571 0 66.176 12.8445 850 102.608 219.331 482.004
572 0 70.2454 13.1539 924 102.686 216.202 482.002
573 0 74.2574 14.3689 1067 100.521 215.713 479.471
574 0 77.082 12.9343 997 103.06 215.763 480.241
575 1 41.1119 10.5079 432 101.773 213.935 498.007
576 0 43.1011 10.3014 444 101.851 212.977 497.101
577 0 45.1044 10.509 474 101.409 211.768 494.992
578 0 47.0819 12.0216 566 99.4028 210.804 491.334
579 0 47.0463 12.0094 565 99.5186 210.508 492.078
580 0 50.1339 11.5291 578 97.7232 209.26 489.197
581 0 51.2363 12.0618 618 98.8317 208.641 486.055
582 0 53.2327 12.3045 655 97.6428 207.534 484.823
583 0 54.2792 13.928 756 94.0436 207.578 483.429
584 0 57.227 13.9969 801 93.3608 207.654 481.571
585 0 58.1228 12.8693 748 95.7313 206.947 481.786
586 0 60.1679 13.8612 834 93.5132 207.24 479.076
587 0 63.2191 13.6668 864 93.4155 208.385 477.26
588 0 66.1684 14.7805 978 91.2802 209.167 477.15
589 0 65.2548 13.7461 897 94.1862 209.987 474.371
590 0 69.2128 14.1014 976 92.5512 210.323 474.171
591 0 71.2825 14.8283 1057 92.0501 210.507 471.246
592 0 71.0832 14.1806 1008 94.5496 212.615 471.818
593 0 75.2093 14.5328 1093 94.7264 215.146 473.16
594 0 78.2705 15.2676 1195 94.6477 217.126 470.045
595 0 79.1211 15.6216 1236 94.7419 218.176 469.665
596 0 85.34 13.288 1134 98.791 218.783 472.175
597 0 86.2241 14.8334 1279 98.8116 218.378 467.583
598 0 88.2495 13.2919 1173 102.422 219.771 469.361
599 0 94.3088 14.6328 1380 99.1232 218.45 468.217
600 0 97.3897 14.1185 1375 100.46 216.615 469.505
601 0 100.315 14.3946 1444 102.555 215.459 464.971
602 1 51.122 12.0105 614 100.033 215.303 493.884
603 0 54.2479 10.8207 587 100.121 213.337 494.601
604 0 55.1838 11.1446 615 98.1073 211.998 495.834
605 0 60.2968 12.1565 733 96.9577 209.839 492.529
606 0 63.3966 13.7862 874 94.1762 208.415 493.025
607 0 65.2044 14.2015 926 94.4039 207.297 491.186
608 0 68.2259 13.7778 940 95.6255 205.606 489.194
609 0 71.3898 13.5874 970 93.9753 205.726 491.372
610 0 73.3208 14.1433 1037 94.92 204.773 487.399
611 0 74.4294 14.591 1086 95.5267 203.826 485.005
612 0 79.5671 14.3527 1142 95.2933 203.1 484.251
613 0 81.5762 14.8695 1213 95.6117 202.746 480.35
614 0 87.4607 15.184 1328 93.6039 202.763 477.005
615 0 89.3107 14.5335 1298 94.1525 202.799 475.042
616 0 90.3387 14.1578 1279 95.3299 201.958 471.97
617 0 94.5214 15.2452 1441 93.2894 202.668 470.368
618 0 97.3174 14.8072 1441 94.4434 202.644 468.182
619 0 101.533 14.5175 1474 94.0075 203.29 465.661
620 0 105.233 15.784 1661 91.7784 204.338 462.614
621 0 106.29 15.1002 1605 94.3757 205.496 460.297
622 1 57.0963 10.1408 579 92.753 205.579 489.463
623 0 59.1074 13.264 784 87.6824 208.536 489.781
624 0 61.2091 12.9392 792 88.5859 211.217 489.664
625 0 64.1642 12.1563 780 90.6564 211.04 488.77
626 0 66.0779 12.455 823 91.0851 212.301 486.462
627 0 71.1715 12.3786 881 91.6776 211.944 486.595
628 0 73.1353 14.7808 1081 89.6254 211.813 484.555
629 0 74.1359 13.6776 1014 93.0799 211.066 487.65
630 0 76.2528 12.8651 981 96.3792 210.325 486.314
631 0 80.2399 14.9925 1203 93.7714 210.481 485.264
632 0 85.1299 14.2018 1209 94.3499 209.941 485.358
633 0 87.2734 14.1051 1231 95.5971 208.69 483.951
634 1 48.0149 9.72615 467 96.7602 207.465 504.867
635 0 49.0637 9.43672 463 95.0389 206.521 506.514
636 0 54.0533 10.1196 547 92.3327 205.091 504.139
637 0 53.0815 10.0788 535 92.5402 203.927 502.731
638 0 56.1376 12.1309 681 91.1645 199.806 498.195
639 0 58.1477 12.1071 704 91.2926 199.474 496.982
640 0 59.1328 12.1253 717 91.2204 198.891 494.307
641 0 61.055 14.2822 872 87.6927 198.026 491.458
642 0 64.1215 12.4763 800 90.4762 198.006 489.609
643 0 62.2008 10.5947 659 94.9545 198.725 488.813
644 0 64.1559 11.9708 768 93.655 198.902 485.861
645 0 70.1345 14.0444 985 89.9716 199.895 486.478
646 0 70.1851 13.0512 916 93.4345 200.904 485.94
647 0 70.2013 11.8944 835 96.8707 202.119 483.511
648 0 75.1344 13.6289 1024 94.5918 204.035 481.676
649 0 76.2407 11.831 902 98.9346 204.489 482.973
650 0 80.1103 13.394 1073 97.1286 206.002 480.867
651 0 83.1028 11.5881 963 101.376 207.683 479.858
652 0 88.1058 14.9933 1321 94.785 209.143 479.397
653 1 45.0272 7.66203 345 99.6725 209.641 501.71
654 0 45.0443 9.70157 437 97.7254 210.808 501.032
655 0 48.1943 10.3747 500 97.906 211.39 500.054
656 0 50.1904 11.5161 578 96.9048 211.014 500.059
657 0 51.3472 11.8799 610 96.7164 211.169 499.79
658 0 52.204 12.1255 633 97.5545 210.836 500.093
659 0 53.172 13.7478 731 95.9576 210.36 500.651
660 0 56.1221 12.9183 725 97.8855 209.206 499.087
661 0 55.062 11.1874 616 103.157 207.987 499.396
662 0 59.0655 12.9517 765 100.125 208.354 498.162
663 0 61.1441 13.5745 830 100.013 206.984 495.074
664 0 64.0681 13.7666 882 99.5601 205.439 491.146
665 0 66.0995 12.8745 851 102.132 204.539 490.624
666 0 68.1358 12.5778 857 101.176 203.123 490.049
667 0 69.2099 13.0039 900 102.597 202.669 487.251
668 0 71.1567 13.14 935 104.652 203.187 483.953
669 0 75.1184 13.8847 1043 101.483 203.435 483.581
670 0 79.1045 14.917 1180 99.9576 202.717 480.92
671 0 80.1968 14.9632 1200 102.543 203.295 478.145
672 0 80.2179 13.401 1075 108.033 203.511 474.354
673 0 81.1546 13.5051 1096 109.53 203.19 472.908
674 0 86.3169 14.3309 1237 107.751 204.209 471.369
675 0 87.2087 13.955 1217 109.514 206.182 468.023
676 0 92.2482 14.5911 1346 107.836 207.13 467.179
677 1 49.1376 10.318 507 105.572 209.509 491.536
678 0 47.0749 10.9825 517 107.663 210.435 488.513
679 0 51.0155 11.5455 589 106.385 212.973 488.879
680 0 53.049 12.4036 658 104.657 215.243 488.833
681 0 53.1172 13.6114 723 101.542 216.488 488.921
682 0 56.0318 13.4388 753 100.935 217.503 488.02
683 0 56.0987 11.3372 636 105.682 218.819 488.357
684 0 60.0675 13.052 784 102.046 218.74 488.781
685 0 64.1144 13.9126 892 99.7119 219.228 488.713
686 0 64.0904 12.1859 781 104.951 217.469 488.589
687 0 68.2707 14.2374 972 101.436 216.288 487.754
688 0 71.1337 13.4676 958 103.721 215.318 486.516
689 0 75.3393 15.2775 1151 99.603 213.381 486.033
690 0 76.2125 14.0659 1072 102.309 213.055 485.002
691 0 79.2819 13.1051 1039 105.747 211.35 480.075
692 0 81.4406 13.1752 1073 105.525 210.62 478.076
693 1 42.0838 10.3128 434 104.286 209.535 497.115
694 0 46.0658 11.5704 533 102.088 208.146 494.784
695 0 48.1777 11.333 546 101.969 207.7 492.229
696 0 49.0933 11.3457 557 103.575 207.359 489.54
697 0 49.1782 11.8549 583 101.883 206.456 486.871
698 0 49.1149 11.3407 557 102.693 207.066 485.747
699 0 51.0607 12.2991 628 99.1178 207.772 485.376
700 0 53.0832 12.7724 678 98.1681 207.91 482.922
701 0 54.0216 12.5875 680 97.2221 208.659 482.054
702 0 58.0392 12.302 714 97.6891 208.888 481.158
703 0 59.4447 14.8373 882 93.2098 208.902 475.816
704 0 60.1463 12.3532 743 98.5559 209.487 475.226
705 0 64.2041 14.7343 946 93.6332 210.68 476.186
706 0 65.1946 12.6698 826 99.316 211.847 474.893
707 0 66.2368 13.2857 880 99.9125 214.497 472.992
708 0 68.2291 13.2055 901 100.11 216.941 474.408
709 0 72.2053 13.8217 998 98.996 219.417 473.012
710 0 74.246 14.3307 1064 98.8036 219.224 473.245
711 0 78.1354 14.1293 1104 99.4303 221.409 471.699
712 1 40.0913 10.7505 431 99.8144 223.55 492.661
713 0 44.1627 10.3481 457 101.357 222.713 492.195
714 0 46.1167 10.8204 499 99.4048 221.934 493.567
715 0 47.1427 12.0485 568 98.7676 221.352 493.396
716 0 50.2832 12.6285 635 99.1543 220.909 492.808
717 0 51.0205 13.328 680 98.1956 219.962 491.821
718 0 53.0251 12.8241 680 100.135 219.421 491.856
719 0 57.038 14.5517 830 94.8639 218.572 491.306
720 0 59.0948 13.0638 772 97.9663 216.957 489.356
721 0 60.0873 14.2459 856 96.9416 215.197 486.335
722 0 64.0896 13.9336 893 97.0112 213.29 484.132
723 0 66.1835 15.0642 997 94.33 211.937 482.981
724 0 70.0555 15.0167 1052 94.174 210.699 482.442
725 0 70.1524 13.9838 981 97.055 209.232 478.568
726 0 75.1916 16.7306 1258 92.3052 209.364 475.461
727 0 75.2216 14.331 1078 97.7978 209.196 473.159
728 0 78.2924 13.82 1082 99.427 208.546 470.898
729 0 81.1192 14.0904 1143 98.5573 208.614 471.85
730 0 84.384 13.3675 1128 101.207 208.168 467.689
731 0 86.4413 14.2756 1234 99.7504 208.211 465.92
732 0 93.3106 17.3292 1617 92.9159 208.946 464.994
733 1 50.3488 11.8771 598 99.1338 209.378 483.527
734 0 51.3014 10.8964 559 100.329 211.136 484.726
735 0 55.1891 11.1435 615 99.1805 213.462 484.728
736 0 58.1701 13.2714 772 96.6969 216.51 482.943
737 0 59.3577 14.1009 837 95.6452 217.508 484.251
738 0 63.3103 14.5316 920 95.5413 218.99 483.261
739 0 63.342 13.3876 848 98.0932 220.212 484.271
740 0 66.2504 13.6301 903 97.5238 220.522 484.517
741 0 69.2878 12.6285 875 100.272 220.584 483.687
742 0 73.1251 13.7025 1002 98.1637 219.999 484.11
743 0 76.3046 13.4854 1029 99.1662 218.822 482.262
744 0 80.2844 14.4237 1158 96.5501 217.51 483.571
745 1 47.063 9.96536 469 95.7441 216.085 503.838
746 0 47.1473 10.6687 503 97.4672 215.268 499.972
747 0 47.2219 10.1648 480 97.7708 211.642 499.531
748 0 49.2375 11.5156 567 96.2804 207.97 498.993
749 0 53.0402 11.5573 613 95.0245 208.806 495.94
750 0 55.1242 13.6419 752 92.242 207.177 494.116
751 0 55.0673 12.748 702 95.3504 206.224 491.45
752 0 58.2108 12.2142 711 95.3713 204.083 489.556
753 0 62.2058 13.7447 855 91.7474 203.818 487.051
754 0 63.1929 12.5489 793 94.3859 204.033 484.912
755 0 66.1694 14.5233 961 90.666 204.445 483.161
756 0 68.2367 14.5523 993 90.3505 204.052 479.516
757 0 71.1726 14.2752 1016 90.0374 205.478 478.795
758 0 74.1603 14.8193 1099 89.3294 205.12 476.141
759 0 76.3662 15.1245 1155 89.5074 205.326 473.962
760 0 79.644 15.4186 1228 88.1889 206.75 471.897
761 0 82.1846 14.3214 1177 92.124 207.809 469.805
762 1 45.0647 12.6929 572 87.6853 208.958 491.769
763 0 44.1028 11.6999 516 90.281 210.169 488.469
764 0 46.0894 10.2193 471 92.3036 211.811 491.724
765 0 49.2329 12.1464 598 91.2442 213.395 490.217
766 0 51.265 12.6402 648 90.2654 216.069 490.261
767 0 53.2597 12.9554 690 89.1826 217.957 490.417
768 0 53.0187 13.4481 713 88.9439 219.482 492.693
769 0 56.3134 12.7678 719 89.9249 219.63 488.125
770 0 59.2743 13.8509 821 89.2448 217.945 489.262
771 0 61.184 14.7261 901 88.6171 217.556 488.776
772 0 66.2095 14.8619 984 88.248 217.336 489.216
773 0 66.1324 14.9549 989 89.0971 215.104 487.88
774 0 70.1252 14.5597 1021 87.6121 214.113 488.624
775 0 72.198 14.017 1012 83.0711 213.013 485.623
776 0 73.1771 14.1848 1038 82.2669 212.14 485.039
777 0 75.0502 14.1505 1062 83.29 210.298 481.378
778 0 80.1034 14.1442 1133 82.9126 209.078 480.005
779 0 82.164 15.8342 1301 80.9846 207.596 476.822
780 0 84.2431 13.6154 1147 84.3051 206.67 473.988
781 0 87.1437 12.7835 1114 85.9102 207.633 471.832
782 0 92.1702 16.3068 1503 79.9148 206.497 468.861
783 1 45.2794 10.7996 489 78.3783 206.112 495.333
784 0 48.2582 11.5213 556 79.4406 205.446 489.933
785 0 51.2141 12.7894 655 76.0489 205.556 490.705
786 0 51.1462 12.9628 663 77.2715 206.195 486.888
787 0 52.1758 12.8029 668 76.1302 207.207 487.689
788 0 52.3537 12.3391 646 77.0232 208.514 488.681
789 0 52.2479 10.7564 562 80.427 209.851 487.883
790 0 57.2283 14.1189 808 75.1708 211.765 488.13
791 0 57.2913 12.8466 736 78.7921 211.961 484.874
792 0 60.3376 12.977 783 79.6169 213.563 486.271
793 0 62.2207 13.3718 832 79.5601 214.43 488.982
794 0 65.1022 15.8827 1034 76.2689 215.525 487.561
795 0 67.1391 13.2263 888 79.9065 215.988 487.517
796 0 70.1967 11.7242 823 83.271 216.058 488.672
797 1 40.0353 8.79224 352 80.8239 216.312 506.491
798 0 41.1401 10.0632 414 82.1812 215.143 505.7
799 0 41.1875 10.3429 426 83.0117 213.592 505.57
800 0 43.2506 11.2137 485 82.6619 211.637 506.816
801 0 44.3055 12.7524 565 80.6018 210.435 504.837
802 0 44.0663 12.572 554 82.8014 209.431 503.22
803 0 46.1344 11.7916 544 83.5588 207.344 503.105
804 0 47.2055 13.1552 621 83.2077 205.992 499.62
805 0 49.2509 13.5632 668 82.7829 204.865 498.579
806 0 51.27 14.5114 744 81.6546 203.418 495.421
807 0 53.1802 14.4039 766 82.3277 202.867 492.5
808 0 55.211 16.9712 937 81.4141 202.485 490.699
809 0 55.2845 13.2768 734 88.1662 202.546 487.634
810 0 56.2289 12.5914 708 89.428 202.924 485.88
811 0 61.3889 14.9375 917 85.181 203.635 485.01
812 0 62.3467 13.3287 831 89.2479 204.403 484.032
813 0 63.1858 12.4078 784 91.7321 204.899 481.82
814 0 65.2344 13.5358 883 90.2741 205.819 478.923
815 0 66.2154 13.0634 865 92.0856 206.667 479.785
816 0 71.2519 14.2733 1017 89.6008 208.526 479.346
817 0 75.1083 15.0849 1133 89.8235 209.864 477.632
818 0 74.2901 13.2723 986 95.6785 211.223 475.296
819 0 79.2275 14.0608 1114 95.2325 213.587 474.896
820 0 83.3739 14.0692 1173 95.821 214.791 474.922
821 1 43.1394 12.8884 556 95.7968 214.333 492.117
822 0 48.1553 13.1657 634 93.9022 215.475 495.352
823 0 49.1415 13.9393 685 94.0073 215.664 495.93
824 0 53.1587 14.7107 782 92.6356 216.345 493.294
825 0 53.1732 13.6347 725 95.6524 216.196 490.597
826 0 58.2055 14.0708 819 93.514 215.827 491.295
827 0 61.1764 13.1096 802 94.793 214.86 489.903
828 0 65.1258 14.5718 949 92.1444 213.597 488.885
829 0 67.1598 13.9071 934 93.8662 213.257 487.883
830 1 34.0707 10.2727 350 96.6543 212.849 502.871
831 0 38.1358 12.0884 461 93.1453 211.544 500.308
832 0 38.0536 12.0094 457 94.2035 210.7 499.372
833 0 41.0954 12.7995 526 92.6559 210.47 497.502
834 0 40.1891 12.2421 492 96.7988 207.982 497.096
835 0 43.2579 13.5467 586 94.442 207.855 494.032
836 0 43.1167 13.2431 571 95.4641 207.609 491.797
837 0 46.2778 14.0024 648 89.8843 207.154 493.576
838 0 46.0986 14.7727 681 88.2658 206.96 490.244
839 0 49.1345 13.9617 686 89.7799 207.404 490.057
840 0 48.1862 11.8706 572 95.0717 208.031 490.045
841 0 49.1355 12.2111 600 95.4883 208.637 489.537
842 0 53.1016 14.6135 776 92.5271 209.854 486.593
843 0 53.1115 13.4811 716 95.7612 211.373 486.205
844 0 54.1035 13.4742 729 96.2867 212.605 487.333
845 0 57.1863 13.9369 797 95.8381 214.775 488.218
846 0 60.1525 14.696 884 95.767 216.518 486.581
847 0 62.1192 13.9409 866 98.3718 218.348 488.409
848 0 66.1523 14.7841 978 97.7065 219.231 485.979
849 1 37.1955 10.4045 387 100.199 220.297 503.881
850 0 35.2109 11.2181 395 103.408 219.838 503.797
851 0 39.1525 10.7784 422 104.749 218.429 504.002
852 0 40.2395 11.3819 458 105.937 217.679 504.511
853 0 46.2309 13.5191 625 101.518 215.906 504.096
854 0 47.2466 14.0327 663 100.679 213.457 502.953
855 0 49.1423 14.0815 692 101.955 212.12 501.262
856 0 50.2444 13.5139 679 101.795 210.714 501.726
857 0 50.1645 13.4557 675 105.084 208.203 498.815
858 0 54.1017 15.933 862 97.4084 206.883 497.148
859 0 57.2174 14.8032 847 100.247 205.198 494.76
860 0 58.1257 14.5891 848 101.436 204.037 493.555
861 0 60.2605 14.205 856 101.467 203.762 491.586
862 0 62.2444 13.9932 871 102.149 203.825 489.418
863 0 64.1111 14.7556 946 100.277 204.026 487.443
864 0 68.1341 14.0018 954 101.498 203.688 485.961
865 0 70.1851 15.6301 1097 100.448 204.246 483.135
866 1 37.1396 12.3318 458 102.648 205.253 498.587
867 0 39.108 11.66 456 98.7171 205.632 498.408
868 0 41.2674 13.3277 550 95.7709 204.818 496.182
869 0 42.1845 12.2083 515 99.8951 205.948 494.942
870 0 43.1141 12.177 525 99.939 207.907 494.185
871 0 45.1352 13.515 610 96.559 209.464 494.092
872 0 49.1287 14.7368 724 94.0594 210.691 492.934
873 0 48.211 14.7684 712 97.2669 212.72 492.163
874 0 51.2096 14.8996 763 94.0341 213.509 494.856
875 0 51.0884 13.5647 693 97.7475 214.18 492.615
876 0 55.1778 16.1478 891 92.4916 215.139 491.941
877 0 57.2296 15.8484 907 92.4454 215.557 492.133
878 0 60.2271 14.628 881 97.2713 215.641 490.531
879 0 60.1041 14.9075 896 97.6183 213.858 489.318
880 0 66.286 15.5538 1031 95.323 213.58 489.033
881 0 69.4715 14.999 1042 96.0835 212.429 489.468
882 0 73.311 14.9773 1098 95.622 211.665 487.564
883 0 76.2071 15.8647 1209 94.1356 211.117 483.801
884 1 41.1437 11.715 482 96.6037 209.627 500.062
885 0 41.1518 10.9837 452 95.1173 208.681 498.591
886 0 45.14 11.9406 539 92.4063 207.644 497.009
887 0 46.1341 13.5475 625 89.7056 207.381 493.342
888 0 47.0542 12.3049 579 91.8135 206.853 492.656
889 0 51.0831 15.2888 781 86.8835 206.132 489.041
890 0 52.1046 12.7436 664 92.2907 206.294 487.824
891 0 54.0698 13.3161 720 91.2972 206.306 486.196
892 0 56.1398 15.408 865 86.4913 205.31 484.068
893 0 58.2209 16.008 932 85.3841 205.497 481.076
894 0 57.1211 13.4451 768 91.3698 205.423 480.073
895 0 60.1406 13.6181 819 90.3553 206.451 478.333
896 0 63.1809 14.6405 925 87.8119 208.134 477.639
897 0 64.2912 14.5121 933 88.4202 209.473 478.118
898 0 68.2878 17.1626 1172 83.9736 211.177 475.046
899 0 72.1974 16.8704 1218 83.0427 212.741 478.097
900 1 38.1071 10.8379 413 86.9153 215.167 495.966
901 0 40.1055 9.72434 390 89.0949 217.097 496.413
902 0 40.2526 12.0241 484 87.2872 218.872 496.151
903 0 41.1052 12.2126 502 88.8227 219.799 495.749
904 0 43.1713 11.5586 499 88.0361 220.16 498.319
905 0 47.1975 14.8101 699 84.7296 219.069 496.989
906 0 47.0937 12.9741 611 90.2717 217.781 497.995
907 0 49.2663 13.7011 675 89.083 215.967 498.181
908 0 52.2038 14.0603 734 91.1921 214.057 496.85
909 0 52.1644 13.2082 689 92.2714 212.698 497.588
910 0 57.3175 14.5331 833 88.2773 211.391 496.736
911 0 58.1524 14.2041 826 89.7264 210.815 495.726
912 0 60.0476 15.7375 945 90.1979 210.097 492.721
913 0 62.276 13.8256 861 94.8932 208.395 491.199
914 0 64.0922 15.8054 1013 93.5805 206.541 489.561
915 0 66.0847 14.6781 970 95.7691 205.652 487.5
916 0 67.198 13.4528 904 98.6792 204.196 486.199
917 0 71.1277 14.7903 1052 97.9905 203.528 482.042
918 0 73.1982 14.6315 1071 100.096 204.481 480.95
919 0 75.292 15.1942 1144 100.12 204.604 479.236
920 0 77.2439 15.0044 1159 101.088 205.122 479.339
921 0 81.2694 14.495 1178 102.647 205.077 476.846
922 0 83.24 15.209 1266 102.29 206.191 474.212
923 0 86.2218 15.1122 1303 102.648 206.433 472.787
924 1 46.2139 12.1825 563 100.702 208.27 494.723
925 0 51.1042 13.2866 679 97.3019 210.362 493.409
926 0 51.0619 13.8459 707 97.9477 211.931 492.065
927 0 50.1067 12.5532 629 101.161 214.334 493.24
928 0 54.0791 15.1445 819 96.6081 215.853 494.574
929 0 60.0608 14.452 868 97.1797 217.482 494.706
930 0 61.1499 13.3606 817 102.218 217.084 493.36
931 0 63.1139 14.0223 885 101.499 217.516 493.768
932 0 67.1205 15.2561 1024 98.8447 216.844 491.638
933 0 70.0471 15.3754 1077 99.7512 216.18 491.092
934 0 72.0925 12.9833 936 103.755 214.17 490.593
935 0 79.0908 14.9196 1180 100.966 212.583 490.057
936 1 41.069 12.5886 517 99.4023 210.209 506.797
937 0 42.1287 11.0139 464 102.545 208.72 507.093
938 0 44.1253 13.0991 578 102.308 206.766 501.926
939 0 44.1095 13.4665 594 102.493 205.801 501.857
940 0 46.0626 13.3948 617 102.569 205.332 500.211
941 0 47.0223 13.7382 646 102.769 204.805 497.461
942 0 49.0331 13.9906 686 103.748 204.238 493.542
943 0 51.1495 13.9786 715 103.203 203.877 491.778
944 0 52.1907 14.0638 734 103.58 203.027 489.623
945 0 57.2406 16.2123 928 97.6099 202.846 487.32
946 0 58.114 14.7125 855 101.908 202.65 485.301
947 0 59.1262 14.5113 858 102.364 203.527 482.677
948 0 60.1604 13.3144 801 105.182 205.129 483.089
949 0 65.1398 15.0599 981 102.243 205.316 478.768
950 0 67.1563 14.5928 980 103.898 206.455 479.411
951 1 35.0867 12.0844 424 102.387 207.399 496.443
952 0 36.0817 12.4163 448 103.239 210.306 495.835
953 0 37.0657 13.6515 506 101.182 212.534 496.243
954 0 39.1127 13.0137 509 104.185 214.308 496.403
955 0 42.042 14.4141 606 100.815 215.774 495.449
956 0 43.06 14.4449 622 101.031 217.781 497.235
957 0 44.0868 13.859 611 102.668 218.331 497.859
958 0 46.0707 14.0653 648 102.816 219.392 497.654
959 0 47.152 14.8456 700 102.729 218.731 498.834
960 0 50.0944 14.8719 745 101.863 218.493 499.533
961 0 52.0757 15.5159 808 103.011 218.139 497.51
962 0 55.064 14.7828 814 103.91 216.655 498.386
963 0 55.1404 14.3633 792 107.051 215.496 497.4
964 0 60.32 15.136 913 103.917 213.613 496.631
965 0 62.1618 14.9127 927 104.92 212.466 494.22
966 0 65.155 15.4555 1007 104.453 210.863 493.009
967 0 66.3277 15.152 1005 107.073 209.799 489.904
968 0 70.1358 16.0118 1123 105.252 208.004 489.032
969 0 73.2868 16.183 1186 106.814 208.003 486.033
970 0 77.423 15.6155 1209 108.896 206.695 483.045
971 0 84.3758 17.3983 1468 102.517 207.167 474.073
972 1 41.191 13.9108 573 111.74 206.853 494.476
973 0 41.4125 14.3194 593 113.334 206.899 490.921
974 0 44.2149 14.7462 652 113.891 206.483 489.607
975 0 46.2042 14.8688 687 113.086 207.231 491.265
976 0 47.226 13.9753 660 116.232 208.305 490.397
977 0 49.1997 15.2033 748 113.019 208.307 489.261
978 0 53.365 16.79 896 108.048 210.147 488.045
979 0 56.4313 16.3207 921 108.776 211.561 488.128
980 0 57.1621 16.6894 954 109.933 213.896 487.246
981 0 58.3885 17.3493 1013 109.182 215.961 486.319
982 0 61.4287 16.4093 1008 111.021 217.259 485.39
983 0 64.418 16.8276 1084 109.344 219.483 485.511
984 0 67.6007 16.346 1105 108.99 221.187 487.3
985 0 70.4935 15.9589 1125 110.798 220.163 486.404
986 0 70.336 16.5491 1164 110.822 219.949 487.615
987 0 76.5888 16.8693 1292 110.423 219.217 485.899
988 0 80.5482 17.5423 1413 108.4 218.495 483.988
989 0 82.4784 17.6167 1453 109.364 217.86 482.963
990 0 87.5236 15.87 1389 111.025 215.931 483.046
991 1 43.6523 13.5617 592 112.345 214.627 505.492
992 0 41.3718 13.705 567 112.614 213.282 504.877
993 0 45.4691 14.7573 671 108.416 211.852 503.104
994 0 48.4404 15.7719 764 106.614 210.442 499.605
995 0 51.5827 15.1795 783 106.72 209.194 497.709
996 0 53.3701 16.7697 895 104.264 207.488 495.24
997 0 54.3146 17.3434 942 103.52 206.687 492.102
998 0 57.6948 16.7606 967 103.021 206.836 490.357
999 0 58.4486 16.6471 973 104.031 207.053 488.012
1000 0 62.5464 18.2744 1143 100.262 206.395 484.849
1001 0 65.6166 17.267 1133 102.114 207.265 482.84
1002 0 66.3506 17.8446 1184 101.845 207.566 480.734
1003 0 70.7844 17.3484 1228 102.332 208.261 480.822
1004 0 71.897 16.5654 1191 105.822 209.383 479.399
1005 0 75.986 16.9637 1289 104.804 210.147 479.682
1006 0 78.5008 18.9043 1484 101.061 211.29 476.516
1007 0 81.7469 17.701 1447 103.07 213.261 475.919
1008 1 40.6165 14.3538 583 107.549 215.611 496.007
1009 0 42.603 14.4121 614 107.827 218.15 496.979
1010 0 44.4204 15.3983 684 107.246 220.249 496.633
1011 0 46.5102 15.115 703 108.905 220.681 496.464
1012 0 48.3304 16.3044 788 107.533 222.209 495.864
1013 0 50.4384 15.3256 773 109.312 222.088 497.339
1014 0 53.4141 16.0632 858 109.53 221.698 496.441
1015 0 57.2926 15.6739 898 110.405 220.471 495.602
1016 0 59.4238 16.4076 975 109.73 219.629 496.644
1017 0 64.2271 17.5004 1124 107.056 217.734 495.319
1018 0 63.5959 15.8815 1010 114.947 215.984 491.426
1019 0 69.4642 16.5121 1147 112.272 214.329 490.738
1020 0 69.4463 17.0204 1182 114.194 213.049 488.357
1021 0 74.5103 17.4607 1301 113.42 211.129 485.945
1022 1 40.2414 12.8475 517 113.634 210.72 502.824
1023 0 41.3067 13.5571 560 112.082 209.712 500.734
1024 0 43.0741 13.6741 589 114.414 207.171 497.686
1025 0 44.3902 12.9533 575 117.059 206.678 495.76
1026 0 45.3513 13.627 618 117.296 206.066 492.728
1027 0 48.2918 15.1993 734 113.153 206.55 491.708
1028 0 48.2886 14.8275 716 115.155 205.369 490.772
1029 0 50.3352 14.4034 725 116.952 205.986 488.28
1030 0 52.189 14.6583 765 117.746 205.878 485.544
1031 0 52.2244 14.3037 747 119.531 206.451 484.938
1032 0 55.1485 14.1074 778 119.026 207.41 484.622
1033 0 59.2555 15.2897 906 116.323 207.525 483.404
1034 0 61.2523 14.2199 871 117.324 209.945 483.627
1035 0 64.0936 15.0873 967 116.969 212.091 482.805
1036 1 35.0093 8.99761 315 112.321 213.47 501.136
1037 0 38.1696 11.4489 437 110.336 215.323 500.263
1038 0 37.2081 12.4167 462 110.916 218.24 499.814
1039 0 40.2468 13.2681 534 107.732 219.313 500.581
1040 0 40.0772 12.4759 500 109.39 219.944 502.538
1041 0 44.3392 12.8555 570 108.661 219.265 501.404
1042 0 47.1509 12.5766 593 107.899 218.69 502.793
1043 0 47.2899 12.4551 589 111.166 217.316 502.319
1044 0 49.1345 12.7202 625 110.682 216.334 501.192
1045 0 52.3118 13.3813 700 108.159 214.354 499.517
1046 0 56.2444 12.2857 691 108.515 213.954 498.786
1047 0 56.2088 13.2364 744 108.407 211.863 496.371
1048 0 59.1279 13.0734 773 110.102 209.761 493.093
1049 1 35.0582 10.4968 368 104.177 209.133 507.307
1050 0 33.0281 10.0823 333 108.306 208.727 504.634
1051 0 35.0603 11.2378 394 105.835 207.614 501.371
1052 0 36.1291 10.3794 375 108.675 206.859 500.005
1053 0 38.0215 13.4661 512 101.416 207.377 498.885
1054 0 38.1304 11.4082 435 106.113 205.975 497.43
1055 0 40.1125 13.1381 527 101.787 206.287 493.734
1056 0 39.0728 11.8241 462 105.968 206.318 492.457
1057 0 42.2274 12.0538 509 108.617 207.179 490.796
1058 0 42.1349 11.6768 492 108.929 208.272 489.992
1059 0 44.0966 12.1551 536 108.588 209.58 489.552
1060 0 47.1686 12.0419 568 104.773 209.988 491.199
1061 0 48.0958 11.9969 577 107.003 211.404 488.461
1062 0 50.1262 13.3064 667 102.868 212.706 487.33
1063 0 50.0679 11.764 589 105.436 215.348 488.292
1064 0 54.0927 12.608 682 102.852 217.399 487.471
1065 0 54.1049 11.145 603 106.814 218.425 487.436
1066 0 56.0924 11.9802 672 106.185 219.165 489.009
1067 0 59.1484 12.5278 741 105.352 219.329 487.794
1068 0 62.1629 10.8425 674 108.283 218.792 488.669
1069 1 34.0797 10.7102 365 105.351 218.501 501.164
1070 0 37.4435 10.6828 400 104.315 218.565 501.628
1071 0 39.324 12.1554 478 103.584 218.1 501.822
1072 0 39.3758 11.9363 470 107.445 216.238 499.472
1073 0 43.2385 11.9569 517 106.147 215.896 500.313
1074 0 44.2296 12.3673 547 106.117 214.241 498.815
1075 0 45.2001 12.3009 556 107.07 211.585 497.149
1076 0 48.2757 12.3665 597 106.993 211.286 494.308
1077 0 50.2778 11.9934 603 107.227 210.383 492.862
1078 0 51.0399 12.9115 659 106.469 209.982 491.554
1079 0 53.1051 14.1794 753 103.669 208.644 489.555
1080 0 55.1335 13.9842 771 104.51 208.905 485.418
1081 0 55.0716 13.2736 731 107.952 208.679 484.546
1082 0 58.1167 13.9891 813 106.568 208.028 482.203
1083 0 59.181 15.1738 898 105.692 208.223 479.982
1084 0 61.2704 12.9916 796 109.651 207.879 478.726
1085 0 65.1636 15.791 1029 103.254 207.988 477.489
1086 0 67.1627 14.7701 992 105.492 208.416 476.728
1087 0 67.5281 13.076 883 111.099 209.492 475.512
1088 1 35.0778 10.3769 364 109.297 211.341 494.56
1089 0 37.0997 10.3235 383 109.295 213.196 494.319
1090 0 39.1607 12.3593 484 104.147 216.126 495.56
1091 0 38.0578 12.954 493 106.58 217.536 495.982
1092 0 41.0552 11.8377 486 109.393 220.021 495.984
1093 0 42.1525 13.2614 559 106.161 220.599 497.428
1094 0 40.1259 11.1649 448 114.31 220.922 497.011
1095 0 46.2156 14.8651 687 103.354 221.981 498.07
1096 0 48.1776 13.5333 652 107.138 221.454 498.67
1097 0 46.2586 13.5326 626 111.586 220.276 497.786
1098 0 50.2769 13.5649 682 109.66 219.782 498.191
1099 0 52.2104 13.369 698 111.744 218.178 498.546
1100 0 54.1947 14.614 792 109.052 215.967 496.479
1101 0 55.2699 14.4925 801 109.775 215.105 494.757
1102 0 57.1892 14.5657 833 110.957 213.6 492.762
1103 0 59.2565 14.7832 876 109.487 212.168 491.64
1104 0 60.2136 14.2659 859 111.087 210.935 488.204
1105 0 62.2062 13.1177 816 113.119 210.281 485.327
1106 0 62.3571 13.9519 870 111.761 209.599 484.316
1107 0 65.3285 13.6541 892 112.046 209.247 481.531
1108 1 35.0587 12.3792 434 111.797 210.959 494.959
1109 0 35.1115 11.2499 395 113.557 210.656 493.41
1110 0 38.0769 11.9233 454 111.621 210.837 492.498
1111 0 38.1281 12.7203 485 107.779 210.99 493.639
1112 0 41.1287 12.084 497 110.064 210.209 490.622
1113 0 43.3049 13.7629 596 108.174 210.621 490.174
1114 0 44.2991 14.4698 641 108.12 211.685 489.507
1115 0 44.3561 13.3465 592 110.907 212.522 491.218
1116 0 46.0448 14.3339 660 105.982 215.202 489.55
1117 0 46.0326 14.077 648 110.15 216.731 488.247
1118 0 48.0406 13.8633 666 110.505 219.692 489.73
1119 0 50.0467 14.7662 739 107.606 220.576 490.907
1120 0 51.0984 14.2079 726 109.657 221.284 491.686
1121 0 54.1474 14.2389 771 109.061 220.944 491.923
1122 0 57.0393 13.0787 746 111.57 221.267 492.619
1123 0 61.0819 14.8817 909 107.202 221.125 490.864
1124 0 64.1851 14.0219 900 109.089 219.609 491.307
1125 0 64.1491 14.5442 933 109.419 217.852 490.003
1126 0 69.1603 14.0688 973 109.607 216.408 488.631
1127 0 72.1682 13.9119 1004 109.103 215.453 488.374
1128 0 74.3089 14.1437 1051 109.403 214.276 482.676
1129 1 39.1792 11.307 443 110.903 212.655 500.707
1130 0 44.1006 12.154 536 107.953 210.722 499.332
1131 0 44.1756 11.1374 492 112.197 209.726 496.341
1132 0 47.1826 13.7127 647 107.53 208.508 493.566
1133 0 48.2116 12.9844 626 108.882 208.05 491.665
1134 0 51.22 13.6861 701 106.728 208.225 490.408
1135 0 54.2376 14.1968 770 105.483 208.131 487.794
1136 0 55.1554 13.6342 752 107.305 208.555 485.989
1137 0 56.2092 14.5884 820 104.923 208.735 483.056
1138 0 59.2436 14.9046 883 103.827 208.707 482.627
1139 0 62.155 14.496 901 103.798 208.257 481.173
1140 0 64.2341 15.4747 994 102.964 209.505 479.95
1141 0 67.1378 14.5224 975 105.135 209.694 479.321
1142 0 69.1914 13.6578 945 106.124 210.905 479.248
1143 0 71.1831 15.116 1076 105.089 212.237 476.522
1144 0 75.2676 15.1194 1138 104.446 214.52 477.085
1145 0 78.1503 14.7024 1149 104.342 216.699 478.946
1146 1 43.1618 10.7966 466 104.21 219.142 497.693
1147 0 42.0245 11.0174 463 105.788 220.62 498.009
1148 0 46.1099 12.2533 565 105.018 221.363 497.673
1149 0 47.0631 11.6652 549 104.25 220.86 498.778
1150 0 48.2563 13.9256 672 102.463 220.193 495.906
1151 0 52.316 13.5331 708 102.761 219.109 496.249
1152 0 54.0441 13.8961 751 103.726 218.712 496.165
1153 0 58.1029 14.2334 827 102.822 216.932 495.121
1154 0 59.0931 14.3672 849 104.126 214.291 493.417
1155 0 64.0981 14.821 950 100.972 213.045 493.216
1156 0 65.2083 13.8633 904 104.81 210.905 488.906
1157 0 69.236 14.4867 1003 103.28 210.587 487.037
1158 0 72.2304 14.9106 1077 103.01 209.429 485.833
1159 0 75.2119 15.7156 1182 101.428 208.959 481.757
1160 0 79.2609 15.4931 1228 101.929 208.279 479.628
1161 0 83.2804 15.2617 1271 102.166 207.302 477.819
1162 0 86.2498 13.6696 1179 106.232 207.171 474.872
1163 1 45.1935 11.1299 503 104.875 207.437 490.511
1164 0 49.2024 12.8855 634 98.6278 207.784 491.882
1165 0 50.1521 11.4452 574 101.756 207.714 489.321
1166 0 52.1374 12.8123 668 99.6198 208.066 486.599
1167 0 52.2085 12.8332 670 100.388 208.822 484.543
1168 0 52.0794 11.9433 622 101.998 209.641 484.9
1169 0 56.2426 13.3173 749 97.7103 210.294 483.045
1170 0 59.2228 13.0862 775 98.1264 211.759 482.774
1171 0 60.1757 14.0422 845 98.0331 212.98 480.193
1172 0 62.2449 14.3144 891 98.0976 214.962 479.874
1173 0 66.1573 13.3772 885 99.6328 216.522 481.502
1174 0 69.14 13.5233 935 98.3262 218.378 480.418
1175 0 72.2215 12.7386 920 100.111 219.405 481.034
1176 0 74.1598 12.4191 921 102.515 221.296 481.807
1177 0 77.147 13.8437 1068 102.4 220.232 478.102
1178 0 81.1082 14.2772 1158 102.934 219.836 478.213
1179 0 84.1381 14.1791 1193 104.117 220.127 478.402
1180 1 48.1709 11.5215 555 103.303 219.461 498.045
1181 0 47.1334 11.7963 556 106.531 218.588 498.144
1182 0 45.1059 9.8435 444 113.372 217.304 493.401
1183 0 51.1967 10.9187 559 109.002 216.077 492.884
1184 0 53.0939 11.8281 628 105.861 215.056 488.312
1185 0 58.14 13.5191 786 101.894 213.539 487.322
1186 0 60.1603 13.4807 811 103.667 212.344 485.036
1187 0 62.3828 13.2889 829 105.951 211.373 485.575
1188 0 63.1791 13.248 837 106.713 210.247 482.92
1189 0 67.2427 15.0797 1014 101.965 209.162 479.761
1190 0 69.1835 13.7605 952 105.162 208.981 476.245
1191 0 73.2858 15.7875 1157 101.546 208.47 471.471
1192 0 75.2716 14.2418 1072 105.982 208.744 469.694
1193 0 76.2819 14.6693 1119 107.864 209.222 466.612
1194 0 78.2429 14.8768 1164 107.505 209.191 465.685
1195 0 79.1986 13.422 1063 112.124 210.146 464.517
1196 0 84.362 13.5488 1143 110.727 209.948 464.234
1197 0 88.4095 15.4056 1362 108.529 210.196 461.855
1198 0 92.4826 15.0947 1396 108.706 211.6 462.736
1199 0 95.2971 15.6563 1492 107.308 213.599 462.322
1200 1 53.1575 12.3783 658 106.453 216.663 484.486
1201 0 55.1167 11.5573 637 109.76 219.355 483.959
1202 0 55.1557 12.3831 683 110.757 220.256 482.75
1203 0 58.1674 13.1173 763 108.214 220.68 484.168
1204 0 60.1514 13.466 810 109.2 222.222 483.669
1205 0 62.1354 13.3418 829 108.228 222.748 481.363
1206 0 65.2811 13.9703 912 107.499 222.4 483.109
1207 0 71.3147 15.4807 1104 103.566 222.005 483.832
1208 0 72.3635 14.0817 1019 108.435 221.727 482.723
1209 0 75.2892 13.4017 1009 111.618 219.722 479.498
1210 0 80.361 15.169 1219 106.779 217.751 479.851
1211 0 84.319 16.2122 1367 105.283 216.922 478.956
1212 0 87.3452 14.998 1310 109.13 215.242 475.168
1213 0 88.2645 14.3772 1269 111.818 213.787 473.309
1214 0 94.3933 14.7892 1396 110.837 212.379 472.493
1215 0 97.2703 15.606 1518 109.335 211.124 469.403
1216 0 102.255 16.6153 1699 107.717 210.531 464.826
1217 1 56.1041 11.7817 661 113.893 211.233 486.755
1218 0 61.0953 14.4528 883 104.528 211.06 485.332
1219 0 62.3592 14.6249 912 104.428 209.986 482.125
1220 0 65.3319 15.4748 1011 104.021 209.326 478.46
1221 0 66.1611 15.7041 1039 103.042 210.374 477.494
1222 0 69.1386 14.3769 994 106.285 210.229 475.584
1223 0 71.1484 13.6194 969 108.536 210.772 474.178
1224 0 75.3182 14.379 1083 106.161 211.626 473.638
1225 0 78.2033 13.7334 1074 107.289 212.728 473.698
1226 0 82.1747 15.0776 1239 104.697 215.144 471.987
1227 1 44.1208 10.9699 484 105.638 217.333 492.145
1228 0 43.0929 12.6239 544 103.142 218.467 492.75
1229 0 46.1004 12.1257 559 103.742 220.231 493.961
1230 0 48.1051 13.4497 647 101.51 220.787 493.717
1231 0 48.1699 13.1617 634 105.282 221.666 493.3
1232 0 50.1088 13.2711 665 106.89 222.22 492.937
1233 0 52.1906 12.9717 677 107.597 220.903 492.634
1234 0 55.1498 13.69 755 105.334 220.097 494.193
1235 0 59.1241 14.4442 854 103.402 218.026 492.384
1236 0 61.1077 15.4972 947 100.888 217.545 489.992
1237 0 64.1168 13.9277 893 104.436 215.839 490.923
1238 0 69.1719 15.4687 1070 99.6981 214.869 490.819
1239 0 70.249 13.2102 928 105.815 213.176 486.894
1240 0 73.1109 14.5669 1065 102.686 211.747 485.507
1241 0 75.3882 14.3789 1084 104.302 210.513 481.945
1242 1 41.3449 11.9483 494 104.563 209.909 496.696
1243 0 41.3157 11.3032 467 103.066 209.503 497.662
1244 0 44.1474 10.8953 481 104.087 208.882 495.091
1245 0 45.2341 11.3189 512 103.826 208.412 491.938
1246 0 49.3114 12.8165 632 102.611 207.848 488.449
1247 0 49.2127 12.1513 598 104.007 208.244 487.067
1248 0 52.2717 13.5829 710 101.993 207.814 484.83
1249 0 54.2664 13.36 725 101.623 208.189 483.943
1250 0 56.2436 14.0816 792 100.398 209.538 484.207
1251 0 57.1624 12.8756 736 101.785 210.361 482.755
1252 0 59.1882 13.7865 816 100.569 211.35 481.659
1253 0 62.2453 13.495 840 100.376 211.865 481.705
1254 0 65.1079 14.668 955 97.888 213.549 481.346
1255 0 67.3223 13.2645 893 101.381 216.029 481.534
1256 0 70.2698 14.7859 1039 100.169 216.967 479.479
1257 0 71.2046 13.3278 949 105.45 218.41 479.013
1258 0 76.1618 13.5107 1029 104.467 219.785 481.421
1259 0 81.3674 15.8663 1291 99.818 219.75 479.047
1260 0 84.3099 14.5772 1229 104.709 218.917 477.055
1261 0 91.2799 15.6113 1425 102.032 217.935 477.412
1262 0 92.2816 13.578 1253 107.66 216.96 471.792
1263 1 50.1786 11.1402 559 107.542 215.78 496.496
1264 0 53.0719 10.4952 557 109.986 213.686 495.451
1265 0 56.1628 12.7309 715 107.366 211.569 493.713
1266 0 58.2164 13.6388 794 106.579 210.071 490.003
1267 0 62.212 13.9684 869 105.858 207.791 486.769
1268 0 63.173 12.7744 807 109.24 207.053 485.493
1269 0 68.2909 14.2479 973 105.683 205.561 485.05
1270 0 70.2118 15.8093 1110 104.202 205.71 479.933
1271 0 73.3148 13.4761 988 109.138 205.479 477.412
1272 0 76.3214 14.4782 1105 107.304 204.631 475.716
1273 0 74.4306 13.8921 1034 110.728 205.932 472.041
1274 0 80.3343 14.4894 1164 109.145 206.651 470.158
1275 0 84.3829 14.7542 1245 108.851 207.216 467.171
1276 0 87.3383 14.5412 1270 108.418 208.468 466.512
1277 0 91.2842 15.9283 1454 105.705 208.937 463.636
1278 0 93.2964 16.1421 1506 107.213 209.974 460.238
1279 1 50.3076 11.2707 567 110.564 210.871 485.452
1280 0 52.2211 12.6003 658 107.576 213.319 485.234
1281 0 55.2334 13.1442 726 108.251 215.277 483.31
1282 0 58.2393 13.9081 810 104.491 218.17 484.506
1283 0 57.1542 13.4723 770 108.466 219.688 482.494
1284 0 62.0234 13.7529 853 102.892 221.433 485.826
1285 0 64.1241 14.6123 937 102.388 222.057 483.943
1286 0 66.1002 13.1316 868 104.586 222.391 484.759
1287 0 70.0606 14.4732 1014 101.304 221.347 482.944
1288 0 75.1324 16.0783 1208 97.3717 220.685 481.531
1289 0 78.379 13.8685 1087 101.138 218.878 480.878
1290 0 82.2123 16.129 1326 98.0392 217.531 478.329
1291 0 85.1754 14.6991 1252 99.7907 215.197 476.884
1292 0 89.3239 15.08 1347 97.7364 214.922 476.739
1293 1 46.3005 9.13597 423 99.8274 213.421 497.877
1294 0 49.1658 11.7358 577 98.0156 210.381 492.818
1295 0 52.1256 12.0862 630 95.2651 209.225 492.798
1296 0 53.1977 11.3727 605 95.5587 209.466 489.622
1297 0 56.1647 12.0182 675 93.0622 209.185 486.308
1298 0 59.1397 13.8824 821 89.3764 208.961 485.331
1299 0 61.3137 15.1842 931 88.2213 208.088 480.594
1300 0 63.1332 13.4002 846 91.4574 207.787 477.762
1301 0 65.1696 12.782 833 92.3025 206.818 476.396
1302 0 68.2482 13.7439 938 90.9723 207.131 475.237
1303 0 71.1964 13.5962 968 91.4163 207.821 474.454
1304 0 72.2054 14.3203 1034 91.5251 208.611 473.031
1305 0 76.2112 16.7954 1280 87.6023 209.812 472.616
1306 0 76.2594 14.4376 1101 94.1299 212.371 469.843
1307 0 82.1657 14.775 1214 92.3707 213.703 469.453
1308 1 41.2146 9.24429 381 95.3438 218.05 490.47
1309 0 45.3147 11.6077 526 94.9202 219.804 486.736
1310 0 47.2044 11.1854 528 93.3807 221.428 490.259
1311 0 48.1784 12.8066 617 93.8006 223.123 488.28
1312 0 50.1838 13.0122 653 93.3216 221.662 489.835
1313 0 53.0491 13.3084 706 94.3456 221.986 489.176
1314 0 57.3923 13.4339 771 93.9001 222.04 488.59
1315 0 60.1662 14.0112 843 93.0949 221.025 489.439
1316 0 62.1635 14.1884 882 93.7846 220.143 488.433
1317 0 65.2074 13.8175 901 95.3307 218.468 486.857
1318 0 67.2808 12.7823 860 97.6767 217.31 486.01
1319 0 71.3351 14.8174 1057 94.2971 214.828 484.341
1320 1 37.1547 10.6581 396 95.6995 213.3 499.982
1321 0 37.0725 10.1962 378 99.4339 211.659 497.058
1322 0 40.1353 10.0659 404 100.334 211.488 494.493
1323 0 39.2537 11.2601 442 96.6063 209.912 493.188
1324 0 43.3722 12.0123 521 93.856 209.438 491.639
1325 0 44.2342 12.0269 532 93.5263 210.63 489.617
1326 0 46.0793 12.6304 582 97.5155 210.517 486.986
1327 0 49.1272 12.4982 614 97.8469 210.292 485.806
1328 0 47.1352 12.2202 576 100.175 210.976 485.116
1329 0 50.1239 12.8681 645 98.7798 209.499 483.245
1330 0 51.1422 13.3354 682 97.5689 210.592 483.276
1331 0 54.1925 13.5074 732 97.1025 212.363 481.143
1332 0 56.0962 14.7247 826 95.0278 212.823 480.378
1333 0 57.1327 12.8998 737 98.7748 214.672 479.753
1334 0 60.1603 13.0319 784 99.0804 216.837 479.334
1335 0 61.4203 13.7902 847 98.307 219.999 481.006
1336 0 65.1304 14.8778 969 97.3106 222.064 479.423
1337 0 68.2123 14.5282 991 99.3653 223.254 479.128
1338 0 69.1978 14.7837 1023 99.8035 223.657 477.607
1339 0 72.2438 13.9389 1007 102.126 224.249 476.895
1340 0 77.3952 13.8251 1070 102.551 223.278 477.764
1341 1 42.3071 8.98195 380 105.374 222.179 496.697
1342 0 43.3913 10.3016 447 104.125 221.19 496.682
1343 0 44.2968 11.5133 510 104.69 219.257 493.524
1344 0 49.3929 12.5524 620 100.368 216.968 495.348
1345 0 51.3001 12.7485 654 100.414 215.535 493.298
1346 0 52.0466 12.1814 634 100.314 214.008 493.94
1347 0 54.2878 11.7522 638 100.909 213.886 492.265
1348 0 58.1736 12.3767 720 98.6417 212.664 489.981
1349 0 61.2879 13.3632 819 96.2369 211.598 486.717
1350 0 63.3386 14.2567 903 95.0498 210.862 483.528
1351 0 65.222 12.9404 844 98.154 209.533 481.434
1352 0 66.3184 12.9074 856 99.1414 208.946 478.907
1353 0 68.2336 13.2633 905 98.7226 209.695 476.41
1354 0 73.2135 13.4811 987 98.387 209.966 474.431
1355 0 73.2838 12.8814 944 100.903 210.228 471.381
1356 0 79.2333 13.5802 1076 99.0139 210.144 469.74
1357 1 40.0568 9.01221 361 98.4681 213.194 490.731
1358 0 44.0582 10.7812 475 95.499 213.935 490.381
1359 0 43.0358 10.1776 438 99.153 214.705 490.623
1360 0 44.0506 10.2382 451 100.792 217.233 489.574
1361 0 48.0922 12.3097 592 97.0507 219.329 489.179
1362 0 49.0481 13.0892 642 96.9533 221.168 488.618
1363 0 51.3589 13.318 684 96.6155 221.864 490.637
1364 0 51.2595 13.4804 691 98.7091 222.476 490.187
1365 0 55.1621 13.8864 766 98.1749 222.881 490.546
1366 0 55.1621 13.9589 770 144.868 222.895 490.673
1367 0 60.1776 12.8121 771 102.837 222.532 492.208
1368 0 64.0842 14.3873 922 100.783 221.68 491.11
1369 0 65.1476 13.738 895 103.431 221.29 490.137
1370 0 67.1669 12.9826 872 106.814 219.86 489.452
1371 0 73.1734 13.8985 1017 104.181 217.524 487.447
1372 0 75.2554 14.2315 1071 105.23 215.301 487.172
1373 1 39.0449 12.4728 487 105.747 214.088 502.427
1374 0 43.0543 11.079 477 108.128 212.675 501.312
1375 0 45.0444 12.1658 548 106.808 211.887 497.502
1376 0 43.0546 11.5899 499 109.275 209.956 496.824
1377 0 47.0247 13.7587 647 102.096 209.17 493.41
1378 0 48.0595 12.9631 623 102.928 209.628 491.735
1379 0 50.0842 13.4973 676 102.646 209.728 488.92
1380 0 52.2437 14.8343 775 99.249 208.723 487.966
1381 0 53.0934 14.5404 772 101.193 209.168 486.922
1382 0 52.2512 13.9327 728 105.501 209.474 484.085
1383 0 55.2171 14.3615 793 104.319 210.13 483.975
1384 0 57.1719 14.3077 818 104.539 210.709 483.762
1385 0 61.1242 13.8243 845 103.814 211.08 483.992
1386 0 63.096 14.7078 928 102.716 212.616 481.732
1387 0 65.1905 14.3733 937 106.342 214.118 481.388
1388 0 69.2203 16.6714 1154 100.76 216.927 479.904
1389 0 71.1606 14.671 1044 105.973 218.626 480.147
1390 1 36.2576 10.5357 382 109.56 220.615 498.861
1391 0 39.0866 11.2315 439 107.515 221.711 500.535
1392 0 40.1347 11.9099 478 107.642 222.126 500.839
1393 0 42.0891 11.642 490 108.567 221.92 501.092
1394 0 46.2137 13.4808 623 104.286 220.567 501.138
1395 0 47.0353 12.7564 600 107.495 219.965 501.288
1396 0 49.046 13.4771 661 108.024 217.986 499.891
1397 0 53.0574 14.3053 759 105.069 216.75 500.25
1398 0 52.0805 13.9784 728 108.266 215.011 497.996
1399 0 55.0653 13.8563 763 109.442 213.73 496.876
1400 0 56.02 14.4234 808 109.642 212.403 495.623
1401 0 59.1058 14.8378 877 106.745 211.283 492.452
1402 0 62.1033 14.5403 903 106.183 210.642 490.502
1403 0 65.0817 14.597 950 105.766 210.172 487.818
1404 0 66.0726 14.8473 981 105.642 209.63 485.812
1405 0 68.0759 14.6748 999 106.516 209.074 482.101
1406 1 37.0571 12.3863 459 103.444 209.865 498.741
1407 0 37.1839 9.97743 371 108.544 209.561 497.054
1408 0 38.1018 12.2304 466 106.71 208.558 493.901
1409 0 40.15 10.8593 436 107.984 209.016 493.016
1410 0 40.1766 12.0717 485 108.093 209.633 490.021
1411 0 44.0774 12.9091 569 105.172 210.671 489.822
1412 0 48.0756 13.8532 666 101.647 212.269 490.3
1413 0 48.2676 14.689 709 100.862 212.873 488.19
1414 0 51.1967 15.0205 769 98.8843 215.329 489.616
1415 0 54.2001 14.7601 800 99.3325 216.842 488.13
1416 0 56.156 15.4035 865 97.9133 218.605 488.049
1417 0 55.1962 14.6206 807 101.717 219.307 491.191
1418 0 58.2374 13.3591 778 103.799 220.56 490.819
1419 0 62.2426 14.9737 932 99.9968 220.409 491.638
1420 0 64.1164 14.7076 943 101.115 220.683 490.824
1421 0 68.1629 15.2869 1042 99.62 219.744 489.618
1422 0 71.3571 14.7708 1054 101.666 218.306 487.261
1423 0 74.1822 15.435 1145 100.762 216.679 486.74
1424 0 76.1914 14.0567 1071 103.442 215.373 487.479
1425 0 81.2016 14.2238 1155 102.803 214.482 482.848
1426 0 86.1597 16.2257 1398 97.1967 212.133 479.28
1427 1 46.2263 10.7298 496 103.599 210.75 498.681
1428 0 48.2705 11.4148 551 100.964 208.298 497.991
1429 0 48.3052 12.3796 598 101.134 208.129 494.911
1430 0 49.1463 11.8625 583 101.192 208.211 493.768
1431 0 52.1136 12.9717 676 99.784 208.351 490.328
1432 0 54.0801 12.5555 679 100.27 208.842 488.892
1433 0 56.2159 14.391 809 97.6193 208.184 485.918
1434 0 59.1769 14.5496 861 96.0767 208.358 483.159
1435 0 59.0887 13.6405 806 98.1464 208.896 480.572
1436 0 62.0927 12.9323 803 98.3462 208.955 480.553
1437 0 64.1008 13.3384 855 98.1754 210.101 480.558
1438 0 66.2675 13.8379 917 97.0851 211.171 476.926
1439 0 70.1731 14.2505 1000 96.483 211.807 478.069
1440 0 71.2527 14.203 1012 98.1403 213.719 475.705
1441 0 75.1301 14.9873 1126 96.0488 215.29 474.721
1442 0 80.2937 15.406 1237 94.9208 217.23 474.991
1443 0 82.156 14.4846 1190 97.2807 219.34 474.489
1444 1 46.0612 12.5702 579 98.6114 220.071 493.069
1445 0 51.2295 13.3126 682 94.6569 220.23 494.311
1446 0 52.0974 14.4345 752 94.5027 219.503 496.344
1447 0 55.2014 13.6953 756 98.0436 220.102 495.512
1448 0 58.1032 13.8375 804 97.1045 220.007 495.588
1449 0 60.1577 14.2293 856 97.2465 218.662 494.602
1450 0 64.0686 13.626 873 97.9519 217.118 493.509
1451 0 66.0619 15.0465 994 96.9879 215.714 490.248
1452 0 70.1805 14.0637 987 97.9483 214.346 490.504
1453 0 71.1142 12.6276 898 100.248 212.395 488.702
1454 0 76.061 14.4621 1100 97.9473 209.952 485.373
1455 0 79.1451 15.579 1233 96.2684 210.66 483.886
1456 0 79.107 13.2732 1050 101.899 209.566 480.852
1457 0 83.0976 14.0076 1164 101.692 208.803 476.837
1458 0 90.1093 15.9251 1435 96.6091 208.625 475.356
1459 0 92.1388 15.4441 1423 97.3198 208.681 472.448
1460 0 95.2012 14.149 1347 100.3 208.362 468.466
1461 0 98.1614 14.4762 1421 100.424 209.089 465.362
1462 1 51.0776 11.7273 599 98.5459 209.706 490.11
1463 0 52.2287 13.2686 693 96.5252 209.743 488.424
1464 0 53.1973 12.0683 642 99.053 210.498 487.237
1465 0 56.2827 12.5616 707 97.7072 211.202 486.81
1466 0 58.1138 14.2995 831 94.4886 211.521 485.416
1467 0 60.1815 12.8112 771 97.9326 214.147 484.335
1468 0 60.1566 12.9329 778 97.7866 216.127 485.139
1469 0 64.1172 13.3506 856 96.7535 217.232 484.738
1470 0 65.1828 13.838 902 97.3614 219.646 485.223
1471 0 70.237 14.8213 1041 95.3458 220.571 484.234
1472 0 73.3546 15.8 1159 94.3072 219.514 484.43
1473 0 76.2965 14.6271 1116 96.2876 219.289 486.729
1474 0 79.3301 14.9628 1187 97.9554 219.091 483.966
1475 0 82.3832 14.5297 1197 100.526 218.47 481.62
1476 0 84.4776 15.3177 1294 101.175 217.587 482.859
1477 0 90.2635 15.2997 1381 99.9797 216.242 482.418
1478 0 92.3406 15.1613 1400 103.203 215.551 478.026
1479 0 96.4495 14.8057 1428 104.258 214.205 476.051
1480 0 99.6427 15.1642 1511 104.788 211.891 472.426
1481 0 102.56 14.7719 1515 106.317 210.371 468.995
1482 0 105.544 14.7901 1561 107.528 209.132 465.202
1483 0 111.42 16.3346 1820 104.46 208.382 462.525
1484 0 116.54 16.844 1963 103.957 208.151 458.904
1485 0 120.515 16.0312 1932 105.871 207.291 456.896
1486 0 125.467 17.128 2149 104.096 206.164 453.348
1487 0 130.45 17.2633 2252 103.784 206.638 451.091
1488 0 131.45 16.1963 2129 107.472 207.475 447.061
1489 0 136.362 15.9136 2170 108.465 208.081 445.266
1490 0 142.445 16.617 2367 107.161 208.504 440.771
1491 0 146.405 16.8505 2467 107.638 208.92 440.623
1492 0 152.299 18.4506 2810 104.03 210.593 441.539
1493 0 156.374 16.9338 2648 107.663 211.376 440.529
1494 0 162.343 18.8797 3065 104.099 212.854 437.73
1495 0 167.347 17.3173 2898 108.999 214.724 433.524
1496 0 172.264 18.2917 3151 107.234 217.86 428.882
1497 0 182.382 19.0315 3471 105.309 218.6 429.023
1498 0 187.369 17.0413 3193 110.43 218.97 423.534
1499 0 196.237 17.9171 3516 107.926 219.746 423.394
1500 0 204.382 17.4673 3570 109.697 220.611 419.452
1501 0 214.266 18.3044 3922 108.264 220.406 416.168
1502 0 224.344 17.5177 3930 110.441 219.359 413.133
1503 0 231.461 16.6378 3851 113.295 218.038 405.022
1504 0 241.481 17.9724 4340 111.108 216.734 403.062
1505 0 249.348 17.261 4304 113.627 214.926 394.531
1506 0 258.522 17.1397 4431 114.457 213.888 389.287
1507 0 268.84 17.9103 4815 113.629 211.881 383.719
1508 0 277.617 18.1401 5036 113.382 210.681 376.557
1509 0 287.671 18.2918 5262 113.041 209.345 370.355
1510 0 292.443 19.1182 5591 111.208 209.074 364.533
1511 0 302.299 19.7222 5962 110.455 207.534 358.054
1512 0 311.422 19.5715 6095 110.571 208.212 353.069
1513 0 321.581 19.2704 6197 111.995 207.408 351.301
1514 0 332.916 18.5182 6165 113.274 207.67 343.358
1515 0 343.831 18.4509 6344 114.456 207.538 335.905
1516 0 352.757 18.208 6423 114.865 208.067 331.292
1517 0 98.2847 11.5481 1135 108.719 209.071 463.822
1518 0 99.3705 13.1629 1308 105.479 209.8 461.406
1519 0 102.291 12.3765 1266 106.716 210.191 460.808
1520 0 107.234 14.2679 1530 102.512 211.309 462.388
1521 0 109.222 14.3561 1568 104.091 212.565 457.356
1522 0 113.234 14.024 1588 104.715 215.622 456.814
1523 0 116.47 13.3253 1552 107.976 217.261 453.774
1524 0 120.234 13.7315 1651 106.573 218.838 456.502
1525 0 124.386 13.3938 1666 109.062 219.352 453.205
1526 0 128.46 14.8528 1908 107.118 220.233 453.684
1527 0 131.465 14.2167 1869 109.684 220.648 450.55
1528 0 135.372 15.4241 2088 107.693 220.33 451.373
1529 0 139.415 13.9655 1947 111.644 220.442 451.659
1530 0 143.503 15.7488 2260 108.997 218.771 450.25
1531 0 144.504 16.3387 2361 107.661 217.325 442.986
1532 0 149.467 18.1713 2716 103.67 215.904 442.538
1533 0 153.504 17.1526 2633 106.638 214.654 438.581
1534 0 156.567 16.683 2612 109.136 212.896 440.387
1535 0 159.52 17.7345 2829 107.863 211.517 439.755
1536 0 162.408 17.2651 2804 109.52 210.261 437.668
1537 0 163.511 16.9347 2769 113.505 208.757 433.241
1538 0 167.429 18.2286 3052 109.797 209.279 431.856
1539 0 170.519 19.2236 3278 107.707 208.547 428.651
1540 0 171.311 16.8816 2892 114.554 208.141 427.908
1541 0 175.563 18.3809 3227 111.169 207.83 424.416
1542 0 176.58 17.669 3120 113.64 208.9 421.753
1543 0 179.73 18.3275 3294 112.083 208.867 416.158
1544 0 182.617 18.1802 3320 112.504 209.59 415.01
1545 0 182.45 17.2924 3155 116.37 209.587 412.267
1546 0 185.436 18.6318 3455 112.631 209.977 411.733
1547 0 188.563 19.113 3604 112.164 210.266 410.151
1548 0 188.527 18.1194 3416 113.117 211.645 409.953
1549 0 192.853 18.9627 3657 110.692 213.854 414.857
1550 0 193.452 19.2399 3722 110.941 215.153 414.173
1551 0 194.444 17.3366 3371 116.385 216.43 413.929
1552 0 196.646 17.89 3518 114.86 218.069 418.552
1553 0 198.45 19.6372 3897 110.269 218.983 418.142
1554 0 198.467 17.5647 3486 115.657 219.887 415.478
1555 0 201.523 18.8167 3792 112.061 219.214 418.008
1556 0 202.338 17.9057 3623 115.259 218.824 418.449
1557 0 201.375 17.2266 3469 118.294 217.511 416.897
1558 0 207.42 20.2825 4207 111.711 215.652 420.679
1559 0 209.296 20.0673 4200 112.629 214.932 415.174
1560 0 207.418 18.2964 3795 118.016 214.134 416.279
1561 0 207.454 18.298 3796 117.8 212.563 416.916
1562 0 209.346 19.1502 4009 115.375 210.681 416.603
1563 0 208.348 17.9411 3738 118.317 209.64 415.272
1564 0 208.358 17.0428 3551 120.84 209.122 411.181
1565 0 211.457 19.7676 4180 113.007 208.483 413.467
1566 0 209.288 17.7745 3720 118.104 207.479 410.959
1567 0 210.275 20.711 4355 110.976 207.066 405.781
1568 0 210.181 17.9607 3775 117.576 207.023 407.909
1569 0 211.289 19.5136 4123 112.668 206.178 406.929
1570 0 209.342 17.875 3742 113.837 206.444 403.835
1571 0 209.444 23.486 4919 94.1679 207.427 403.338
1572 0 207.337 18.9353 3926 112.099 207.734 405.038
1573 0 210.431 19.0134 4001 113.146 208.958 405.566
