time division length width area intensity CMx CMy
0 0 31.1932 13.208 412 116.092 439.316 502.153
1 0 31.1456 11.077 345 122.843 440.188 502.487
2 0 33.2279 12.3992 412 118.944 441.335 501.779
3 0 33.1114 11.6274 385 120.075 441.616 501.13
4 0 32.1278 12.3569 397 120.713 441.589 501.907
5 0 34.1777 12.6984 434 119.482 440.703 502.053
6 0 34.2178 11.3099 387 123.437 440.672 502.773
7 0 35.1236 11.9008 418 122.813 440.94 499.911
8 0 36.1175 12.3209 445 121.393 440.382 501.263
9 0 37.104 11.8586 440 122.714 440.777 499.202
10 0 37.1043 11.3733 422 126.581 440.415 499.223
11 0 38.1829 13.2258 505 121.921 440.499 498.519
12 0 39.1116 12.7328 498 123.281 441.363 499.155
13 0 40.0822 14.1459 567 118.026 441.328 499.041
14 0 39.2468 13.224 519 123.449 441.611 499.574
15 0 42.1924 13.4147 566 120.693 440.482 498.099
16 0 42.1841 12.6351 533 122.144 440.726 498.383
17 0 44.1894 13.3516 590 121.069 440.554 496.407
18 0 47.16 13.5496 639 120.64 440.696 497.127
19 0 47.2932 14.4418 683 118.003 441.067 497.174
20 0 47.1855 14.4536 682 119.012 440.522 496.277
21 0 48.2155 12.5686 606 124.281 441.294 494.896
22 0 50.2133 13.6816 687 120.348 442.846 494.164
23 0 52.2571 14.4286 754 119.098 442.538 494.219
24 0 55.1997 14.6921 811 116.785 443.026 493.985
25 0 55.2316 15.6432 864 114.725 443.042 492.479
26 0 55.2978 13.7799 762 121.362 443.909 492.438
27 0 56.2962 14.1928 799 119.527 444.234 492.557
28 0 60.1612 14.6939 884 116.785 444.304 490.466
29 0 59.1557 15.062 891 116.164 443.162 489.333
30 1 30.0366 11.0199 331 122.976 443.946 502.731
31 0 33.05 11.0741 366 116.098 444.022 503.781
32 0 32.1068 10.0913 324 121.849 443.565 501.818
33 0 36.0887 12.497 451 113.2 444.124 500.967
34 0 35.0135 11.9382 418 115.263 444.232 501.371
35 0 36.0135 12.7452 459 114.551 443.937 499.392
36 0 38.0357 13.5399 515 112.264 444.299 499.713
37 0 39.0152 13.1487 513 112.632 444.417 499.234
38 0 42.0187 13.5892 571 111.273 444.145 497.189
39 0 44.2151 14.3616 635 107.687 444.134 498.712
40 0 43.0785 13.5334 583 111.444 444.527 496.372
41 0 46.1548 14.7114 679 107.172 444.652 496.848
42 0 48.2319 14.223 686 107.716 444.848 496.064
43 0 49.1067 13.7252 674 108.484 444.826 496.309
44 0 49.2005 14.5121 714 107.272 444.811 497.55
45 0 50.2634 14.6429 736 108.508 445.126 496.541
46 0 52.2282 15.3174 800 106.268 445.591 496.255
47 0 55.1168 14.7868 815 107.677 445.883 494.521
48 0 57.1435 14.2448 814 109.025 445.735 495.056
49 0 57.1389 13.2309 756 112.582 445.46 493.775
50 0 60.131 14.801 890 107.775 444.528 491.146
51 0 64.1526 14.7305 945 107.709 445.398 490.951
52 0 65.2212 15.9457 1040 105.969 445.159 489.206
53 0 66.1099 13.7347 908 110.878 445.341 489.586
54 0 71.2092 16.2619 1158 104.676 445.628 488.552
55 0 73.1771 16.0159 1172 105.495 445.85 487.786
56 0 76.2785 14.8797 1135 108.546 445.625 486.235
57 1 42.0613 12.2678 516 106.826 446.68 503.417
58 0 44.0708 12.7295 561 108.41 445.572 500.916
59 0 44.0752 12.5467 553 109.969 445.87 499.83
60 0 42.0582 11.6267 489 112.317 446.266 499.681
61 0 48.1891 13.9866 674 104.877 446.231 497.806
62 0 46.092 12.692 585 107.294 446.287 498.496
63 0 49.0535 14.4332 708 105.637 447.093 496.208
64 0 51.0624 14.5116 741 105.157 446.394 496.109
65 0 52.1482 13.7301 716 107.679 446.521 493.656
66 0 53.0927 13.7307 729 106.078 446.562 494.396
67 0 55.1475 14.1983 783 105.296 446.739 493.341
68 0 56.2598 13.5799 764 107.781 446.446 492.432
69 0 59.0794 14.1674 837 107.585 445.442 490.618
70 0 60.1519 13.4327 808 109.335 445.787 489.438
71 0 61.0593 12.5779 768 111.424 446.471 488.951
72 0 65.1315 12.8202 835 109.765 444.646 487.01
73 0 67.2263 14.2504 958 107.535 445.712 486.579
74 1 34.2912 10.6441 365 106.184 445.647 502.373
75 0 37.1807 11.5113 428 101.166 446.766 503.173
76 0 38.2235 11.0403 422 102.533 447.225 503.291
77 0 41.1807 10.7817 444 100.815 447.66 502.426
78 0 39.1453 9.29868 364 103.984 447.843 503.571
79 0 42.2038 12.0368 508 99.6476 448.447 501.39
80 0 42.1651 10.696 451 103.439 448.663 501.306
81 0 45.1105 12.7908 577 98.2062 447.432 500.418
82 0 44.3545 12.4001 550 101.635 446.993 500.051
83 0 46.2075 13.0715 604 100.399 447.922 498.036
84 0 48.1833 12.0789 582 101.45 448.196 498.911
85 0 47.106 12.6735 597 101.665 447.71 497.787
86 0 47.2332 11.8984 562 104.98 446.868 497.208
87 0 53.1187 12.8015 680 100.632 446.846 497.806
88 0 53.16 13.2242 703 102.711 446.587 494.747
89 0 54.1486 13.5184 732 101.658 446.512 494.53
90 0 55.165 12.9793 716 103.722 447.128 492.943
91 0 57.3546 13.3729 767 101.902 447.09 492.721
92 0 56.3848 12.326 695 142.029 446.99 491.542
93 0 61.1466 14.3589 878 100.621 446.641 488.138
94 0 64.1474 13.8275 887 101.225 447.481 487.375
95 0 66.2764 12.7496 845 102.362 447.735 487.894
96 1 35.0892 9.00561 316 100.652 448.614 502.035
97 0 36.0898 11.0558 399 96.8095 448.797 502.842
98 0 38.1803 8.3289 318 100.843 448.657 502.497
99 0 38.2391 10.4082 398 99.902 447.847 500.952
100 0 40.2555 12.2965 495 96.4465 447.507 500.105
101 0 40.2332 11.5328 464 97.8082 447.774 500.082
102 0 43.1025 12.3659 533 96.7036 447.632 499.083
103 0 45.0715 14.3106 645 92.4698 448.943 499.349
104 0 44.2618 12.5842 557 96.3662 449.298 500.025
105 0 44.3076 11.375 504 100.724 448.827 498.436
106 0 45.1429 10.2563 463 103.136 448.985 499.393
107 0 48.1636 12.8728 620 97.8516 447.885 496.318
108 0 50.2142 12.3869 622 99.045 447.596 496.807
109 0 51.2859 11.9136 611 102.007 448.182 495.547
110 0 51.138 10.4814 536 104.841 447.489 496.218
111 0 54.2338 12.5752 682 100.519 447.468 494.453
112 0 54.3102 12.2997 668 101.531 448.042 494.94
113 0 58.2053 13.5383 788 99.3921 448.176 492.702
114 0 59.2231 13.2043 782 100.771 448.444 492.593
115 0 64.2078 13.5653 871 99.008 449.673 491.186
116 0 63.279 12.3264 780 101.478 448.942 492.231
117 0 65.1664 12.5985 821 102.374 448.97 489.837
118 0 67.1574 11.957 803 102.229 448.167 489.066
119 0 71.2024 15.2382 1085 96.071 448.196 486.683
120 0 71.1958 13.6946 975 100.212 449.365 486.097
121 0 75.2105 15.2106 1144 97.1364 447.472 485.491
122 0 75.1574 13.8775 1043 100.713 447.299 483.727
123 1 41.1059 10.1932 419 99.537 449.365 502.148
124 0 42.0246 10.1369 426 101.397 448.908 501.106
125 0 45.0635 10.8292 488 100.402 448.459 500.221
126 0 43.0402 11.0362 475 102.539 448.333 499.162
127 0 44.0693 11.6635 514 103.099 448.054 498.924
128 0 48.0638 12.1297 583 102.302 448.077 498.444
129 0 46.1641 13.4737 622 103.863 447.685 496.003
130 0 46.1984 12.4463 575 107.894 447.979 494.322
131 0 50.2821 11.1372 560 109.327 448.97 495.805
132 0 49.223 11.905 586 109.633 448.236 494.782
133 0 53.2414 13.1664 701 105.327 448.526 494.424
134 0 53.2499 13.1643 701 105.068 448.795 494.762
135 0 54.3296 12.2953 668 107.349 449.323 493.537
136 0 57.2436 13.4163 768 105.872 448.648 492.246
137 0 59.1842 12.6047 746 107.66 448.656 492.761
138 0 59.219 13.3403 790 106.209 448.444 493.557
139 0 60.2048 13.5039 813 107.633 448.355 491.263
140 0 63.1598 13.7271 867 106.93 448.136 491.736
141 0 62.2318 11.9874 746 111.302 448.881 493.151
142 0 66.137 12.9731 858 109.589 448.767 492.093
143 0 67.1765 14.127 949 107.119 449.546 491.648
144 0 69.2075 13.4956 934 108.571 448.763 492.448
145 0 70.235 13.8392 972 108.904 449.075 490.799
146 0 72.2577 13.701 990 111.004 448.714 488.715
147 0 73.2445 12.8883 944 113.696 447.807 487.597
148 0 75.2839 12.5791 947 113.505 447.356 488.641
149 0 77.2162 13.2097 1020 115.781 447.059 485.682
150 0 78.3255 13.4311 1052 114.043 447.174 487.98
151 0 79.4595 13.0003 1033 119.02 446.675 484.189
152 1 40.0145 11.9457 478 108.142 447.51 505.471
153 0 40.0442 10.2886 412 111.301 447.121 504.126
154 0 43.199 12.8938 557 106.46 446.864 503.239
155 0 43.3221 11.8185 512 111.029 446.291 503.023
156 0 42.3643 12.7466 540 113.256 446.285 500.448
157 0 42.6447 11.1385 475 114.057 446.499 502.364
158 0 43.9536 12.809 563 111.723 446.661 501.414
159 0 42.2936 11.4438 484 112.004 447.399 502.729
160 0 46.6897 12.0369 562 110.724 447.432 501.174
161 0 49.3966 10.3246 510 114.061 447.588 501.865
162 0 48.4955 10.1453 492 115.907 447.955 500.652
163 0 51.6363 12.7623 659 112.602 448.027 498.958
164 0 48.6348 9.39657 457 118.088 449.451 497.829
165 0 55.437 12.4826 692 112.678 449.036 495.746
166 0 57.3851 11.6406 668 109.909 450.463 499.442
167 0 59.6185 11.9548 641 115.47 450.02 496.983
168 0 62.687 12.8481 1602 127.552 448.954 466.816
169 0 64.574 15.4013 2011 124.453 448.887 460.294
170 1 37.2175 11.0163 410 101.237 449.039 506.627
171 0 36.2199 8.80732 319 105.878 449.502 506.401
172 0 39.2674 11.7909 463 100.51 449.682 505.672
173 0 38.0442 11.0923 422 103.938 449.744 503.941
174 0 40.0602 11.982 480 102.088 449.256 504.898
175 0 42.1336 12.6265 532 102.421 448.932 503.602
176 0 44.0409 12.2386 539 102.909 448.686 503.278
177 0 44.054 11.5313 508 104.008 448.325 504.218
178 0 46.056 12.1591 560 103.488 448.946 502.571
179 0 45.0605 11.6066 523 106.088 448.046 501.296
180 0 48.1497 11.0696 533 106.265 447.437 500.398
181 0 51.1023 13.6589 698 100.398 446.58 498.491
182 0 52.1247 12.1248 632 104.891 446.429 498.109
183 0 53.1046 12.2965 653 103.191 445.554 499.27
184 0 54.1871 12.5491 680 105.024 445.603 494.668
185 0 56.101 11.8893 667 106.474 445.549 495.379
186 0 58.0203 13.1161 761 104.678 445.418 494.357
187 0 60.2669 13.2909 801 103.826 445.223 495.072
188 0 61.2122 13.298 814 103.801 445.382 493.758
189 0 62.3315 12.6902 791 106.029 445.284 491.707
190 0 63.2604 12.1087 766 108.401 445.52 489.638
191 0 68.3705 14.1874 970 103.972 446.264 488.028
192 0 69.2664 13.8018 956 106.211 445.893 486.383
193 1 37.1381 11.1207 413 103.62 446.179 503.174
194 0 39.1379 9.45375 370 105.67 446.562 502.762
195 0 40.1526 11.6057 466 104.865 447.871 501.049
196 0 42.1875 11.7096 494 105.31 447.065 499.595
197 0 44.1607 11.6393 514 107.508 446.92 499.539
198 0 44.1085 12.2879 542 107.887 447.919 499.03
199 0 47.0696 13.4694 634 105.874 447.09 497.978
200 0 48.247 12.1251 585 109.284 447.248 496.658
201 0 49.2436 12.7123 626 107.904 446.772 498.094
202 0 51.4312 11.9383 614 108.293 447.303 498.853
203 0 51.3837 13.0586 671 108.706 447.016 497.765
204 0 52.3107 12.2919 643 111.348 447.561 497.157
205 0 55.2059 13.984 772 108.644 447.53 495.679
206 0 57.3312 12.9947 745 110.035 447.438 495.872
207 0 59.2545 13.4336 796 108.97 447.284 494.972
208 0 60.1659 12.9143 777 108.628 446.557 495.517
209 0 62.2833 12.5234 780 110.919 447.017 493.464
210 1 32.0238 9.05577 290 104.472 447.462 510.379
211 0 34.0746 10.1542 346 107.679 446.569 508.223
212 0 34.104 10.4387 356 106.449 446.121 508.211
213 0 38.1688 10.768 411 104.674 445.613 507.019
214 0 37.0998 10.0539 373 107.45 445.78 506.046
215 0 41.14 11.1813 460 103.752 445.115 505.026
216 0 41.1395 13.4178 552 101.333 444.81 501.774
217 0 41.1651 12.3648 509 103.554 444.86 502.077
218 0 43.1577 12.9757 560 102.021 443.68 501.714
219 0 45.119 12.9879 586 102.239 444.09 500.804
220 0 45.1549 11.7152 529 105.747 444.272 500.151
221 0 48.1162 13.4882 649 102.27 444.857 497.438
222 0 50.1532 11.8637 595 104.6 444.455 499.523
223 0 50.1253 13.0673 655 104.507 443.976 496.441
224 0 50.2712 12.1938 613 106.646 444.429 494.863
225 0 55.1783 14.4985 800 100.662 444.498 495.238
226 0 56.1313 12.9518 727 107.226 444.142 492.27
227 0 58.1602 13.8927 808 105.634 444.42 492.21
228 0 60.181 13.4428 809 106.868 444.618 491.733
229 0 60.1461 12.7855 769 109.315 444.623 490.299
230 0 62.2766 13.8896 865 107.215 445.35 489.684
231 0 65.3679 14.7014 961 104.425 445.801 489.583
232 0 66.2261 13.7106 908 106.781 446.379 487.75
233 0 68.1823 13.5812 926 107.905 446.82 488.06
234 0 71.2352 13.4063 955 108.642 447.266 486.909
235 0 74.2346 15.1816 1127 105.648 447.289 485.553
236 1 41.0612 11.2028 460 108.774 447.891 503.487
237 0 42.0803 10.6939 450 108.64 447.678 504.273
238 0 44.0169 11.9954 528 108.311 447.053 502.54
239 0 46.0613 11.4196 526 111.325 447.548 502.051
240 0 46.0773 11.6326 536 111.688 447.22 502.493
241 0 48.0452 13.5497 651 110.65 446.508 501.161
242 0 49.0453 13.6201 668 111.626 446.118 499.915
243 0 52.0756 13.4804 702 112.53 446.044 498.424
244 0 54.0821 14.0527 760 110.307 446.212 497.057
245 0 55.0882 13.5964 749 111.274 445.996 496.828
246 0 58.1311 13.3663 777 110.514 445.354 495.592
247 0 59.2075 13.3936 793 110.668 445.475 495.491
248 0 61.1046 15.138 925 107.438 444.39 494.197
249 0 65.131 15.2769 995 98.2804 443.98 493.32
250 0 65.1889 15.2787 996 106.423 443.969 489.867
251 0 67.1031 13.8146 927 110.214 444.22 490.04
252 0 67.1031 13.8593 930 156.651 444.227 490.022
253 0 70.1018 14.051 985 109.823 443.818 489.827
254 0 73.1782 13.7883 1009 110.329 443.748 487.148
255 0 75.1594 13.5578 1019 110.521 444.248 484.791
256 0 78.103 14.0328 1096 108.839 444.402 484.523
257 0 80.0954 14.7075 1178 108.025 444.187 480.666
258 0 82.3291 14.4785 1192 107.141 445.156 480.856
259 0 86.2298 14.0323 1210 106.935 445.43 478.548
260 0 88.1993 14.83 1308 105.703 445.207 476.818
261 1 49.2074 12.5388 617 101.279 445.658 498.653
262 0 49.0708 11.1675 548 106.292 446.151 496.71
263 0 52.1239 11.0506 576 105.332 445.523 497.41
264 0 53.1662 10.834 576 106.182 447.036 494.212
265 0 55.1914 12.2664 677 104.945 446.532 495.106
266 0 57.0662 13.6859 781 103.124 448.095 492.466
267 0 60.0696 14.1669 851 101.281 448.428 494.29
268 0 61.0246 14.1418 863 102.628 448.979 491.149
269 0 63.1859 13.4682 851 104.046 448.978 490.837
270 0 65.0791 12.7537 830 104.975 448.761 492.254
271 0 69.0769 13.7962 953 103.514 448.53 490.694
272 0 71.2009 15.7863 1124 101.279 448.207 488.611
273 0 74.2999 15.2221 1131 101.911 448.37 489.392
274 0 76.2337 13.6291 1039 104.997 448.561 487.874
275 0 79.4449 13.7831 1095 106.089 448.469 484.72
276 0 83.2866 16.2091 1350 100.366 447.892 484.184
277 1 45.182 12.1287 548 102.334 448.569 502.533
278 0 46.0729 10.9826 506 103.097 447.879 502.694
279 0 48.045 11.3227 544 103.509 447.09 500.123
280 0 49.0267 12.687 622 100.331 446.558 501.175
281 0 51.1433 12.7289 651 98.616 446.223 499.783
282 0 52.0174 13.4378 699 98.6738 446.05 496.499
283 0 54.2163 13.7597 746 96.6381 445.291 497.658
284 0 54.1351 12.9676 702 100.661 445.138 495.036
285 0 56.0591 12.3798 694 100.53 445.713 494.664
286 0 59.2261 13.4569 797 98.7089 445.674 493.189
287 0 60.0351 12.6593 760 99.8605 445.897 492.15
288 0 64.1852 14.1154 906 95.3488 445.072 489.659
289 0 64.1431 12.7371 817 98.0955 445.847 488.976
290 0 67.0955 14.6061 980 94.5714 445.991 487.14
291 0 68.2274 12.1505 829 99.9505 446.482 485.244
292 0 72.1873 13.2433 956 96.9916 446.649 484.728
293 0 73.1428 13.0567 955 97.8073 447.335 483.037
294 0 75.1908 12.8473 966 99.1998 448.249 480.9
295 0 78.1939 12.6992 993 98.8046 448.295 481.225
296 0 83.2837 14.3245 1193 95.7988 449.624 480.184
297 1 41.1103 10.2651 422 93.5924 450.787 503.04
298 0 41.2796 9.18129 379 97.219 449.873 502.19
299 0 44.1746 10.8886 481 94.7651 450.318 501.056
300 0 46.0831 12.3906 571 92.0876 449.933 499.898
301 0 46.1013 11.9519 551 92.2523 448.768 501.454
302 0 49.1443 13.0025 639 91.6995 448.418 500.839
303 0 50.1681 11.9996 602 94.49 449.372 499.836
304 0 51.0633 13.023 665 94.191 447.036 499.666
305 0 54.0867 14.5692 788 90.9721 447.345 499.581
306 0 53.0673 13.0024 690 95.1594 447.464 499.233
307 0 56.1209 12.5444 704 94.7528 446.801 499.599
308 0 57.0928 13.9597 797 93.1882 446.237 497.077
309 0 59.1806 12.9941 769 95.0715 446.348 495.442
310 0 62.1804 13.1231 816 95.5331 446.175 493.127
311 0 62.1919 13.0564 812 97.0837 444.654 494.713
312 0 66.1409 14.9227 987 93.2857 444.467 491.56
313 0 68.2345 15.1683 1035 92.742 444.42 491.159
314 0 68.3314 13.8004 943 96.8091 444.264 489.235
315 0 72.3121 13.3173 963 98.3655 443.389 487.953
316 0 74.1901 13.6002 1009 98.7215 443.263 485.311
317 0 77.4211 14.7118 1139 97.8464 443.731 485.687
318 1 37.1325 9.7758 363 104.033 444.402 503.036
319 0 42.1971 11.2804 476 100.578 444.429 501.567
320 0 42.3215 11.389 482 101.622 444.938 501.137
321 0 44.293 11.311 501 101.741 445.693 501.742
322 0 47.5183 12.3531 587 87.9966 446.407 499.998
323 0 47.246 13.7155 648 101.236 445.858 498.861
324 0 47.1667 14.4806 683 99.612 446.745 497.791
325 0 51.2337 14.5217 744 99.793 446.612 497.642
326 0 52.5166 12.5865 661 103.104 447.526 497.657
327 0 54.2318 13.8295 750 101.189 447.556 495.731
328 0 54.1134 12.326 667 104.64 448.237 496.282
329 0 56.1508 13.8199 776 100.981 448.129 495.483
330 0 60.281 14.1504 853 98.2321 448.652 497.24
331 0 61.046 13.5308 826 102.077 448.546 494.534
332 0 63.2729 14.7931 936 99.7724 448.483 493.671
333 0 66.2635 13.5218 896 101.465 448.169 494.306
334 0 68.3532 14.3666 982 100.757 448.681 491.758
335 0 69.387 13.994 971 102.122 449.413 490.257
336 0 72.2372 13.7602 994 102.325 449.428 491.666
337 0 75.2276 14.0241 1055 102.984 448.51 489.217
338 0 77.2305 13.272 1025 104.427 448.192 488.394
339 0 79.5044 12.7666 1015 105.953 447.475 487.904
340 1 39.0514 9.73076 380 104.753 448.068 507.105
341 0 44.106 11.5177 508 102.12 446.343 504.927
342 0 44.1584 11.5041 508 104.187 444.939 502.547
343 0 46.2168 13.4583 622 99.8408 444.505 502.732
344 0 46.2885 13.3727 619 101.674 444.517 499.737
345 0 49.2087 14.0829 693 100.512 444.697 498.202
346 0 52.0676 13.0792 681 101.385 444.244 498.079
347 0 55.1789 14.2446 786 98.5623 444.944 496.518
348 0 54.2064 15.3487 832 98.0577 443.703 494.754
349 0 56.2041 13.9136 782 101.349 443.636 493.834
350 0 56.0645 14.519 814 101.446 443.741 492.44
351 0 59.0735 14.1857 838 101.379 444.246 490.152
352 0 63.3901 14.182 899 100.697 444.036 489.356
353 0 65.2663 16.1645 1055 97.454 444.03 489
354 0 66.2099 15.9493 1056 99.1487 444.797 486.33
355 0 69.2985 15.2961 1060 100.338 445.175 488.327
356 0 67.1736 13.5768 912 105.887 446.763 486.451
357 0 72.2127 15.1082 1091 101.404 446.957 484.72
358 0 75.2641 15.3592 1156 101.574 447.538 485.085
359 0 76.3721 14.6519 1119 103.775 448.207 483.543
360 0 78.1845 13.8902 1086 105.473 448.917 483.794
361 0 81.1765 14.5609 1182 105.412 448.448 482.113
362 0 85.2406 13.984 1192 105.638 449.044 482.845
363 0 89.3041 15.352 1371 102.999 448.874 481.595
364 1 48.2199 13.2103 637 100.829 448.717 501.083
365 0 51.133 13.6898 700 101.583 448.801 499.69
366 0 52.1804 12.7059 663 102.754 449.199 500.077
367 0 52.1505 13.3843 698 102.91 449.053 500.693
368 0 54.1209 13.5068 731 104.183 448.617 500.077
369 0 56.268 15.0707 848 101.245 448.278 499.468
370 0 58.1638 13.6683 795 104.878 447.235 496.564
371 0 61.0669 12.8875 787 106.992 446.672 494.788
372 0 63.1075 14.5624 919 105.155 446.585 492.768
373 0 65.0762 14.0297 913 105.577 445.749 492.166
374 0 69.2052 14.7243 1019 104.822 445.59 490.714
375 0 72.1228 14.3921 1038 107.266 444.759 488.683
376 0 74.1545 14.5507 1079 105.429 445.114 487.626
377 1 39.0176 10.6618 416 103.966 444.606 505.841
378 0 40.0365 10.4655 419 108.864 443.809 502.482
379 0 41.0484 10.6216 436 105.344 442.124 505.039
380 0 42.0254 11.3741 478 108.155 441.814 502.036
381 0 43.1264 12.4286 536 105.89 442.946 502.125
382 0 43.1579 12.0256 519 106.318 444.524 500.451
383 0 46.1254 12.5528 579 103.855 444.634 501.245
384 0 47.1669 12.9964 613 103.945 445.589 499.819
385 0 48.1367 13.5863 654 104.888 446.618 498.353
386 0 51.1834 14.321 733 102.473 446.679 497.596
387 0 51.1721 12.6631 648 106.307 446.997 495.864
388 0 53.1397 13.0411 693 105.323 447.681 496.987
389 0 54.1991 12.1404 658 108.57 448.346 496.775
390 0 58.1997 12.6805 738 107.088 448.173 497.015
391 0 59.1592 13.8947 822 105.17 448.925 496.147
392 0 62.0668 14.9194 926 103.314 448.672 494.753
393 0 62.0668 14.8711 923 147.827 448.661 494.685
394 0 66.0783 14.7098 972 105.135 449.035 493.531
395 0 70.2002 15.3418 1077 103.402 449.213 495.992
396 0 71.1473 14.6597 1043 105.981 449.224 493.326
397 1 36.0198 10.6886 385 107.582 448.881 510.47
398 0 36.0304 11.3515 409 105.589 449.061 512.465
399 0 40.0546 11.2596 451 107.182 448.827 508.372
400 0 38.0261 9.36198 356 114.073 448.43 505.067
401 0 43.0372 11.8502 510 106.853 448.91 506.91
402 0 43.0723 12.0031 517 108.126 447.926 505.913
403 0 46.1223 14.2447 657 102.775 446.688 505.396
404 0 44.1677 11.9318 527 110.495 445.898 502.882
405 0 45.1574 12.091 546 111.194 445.223 503.059
406 0 49.2752 13.1709 649 105.966 445.134 502.954
407 0 49.1742 13.2793 653 107.908 444.859 499.923
408 0 48.1439 13.2312 637 109.675 444.826 499.316
409 0 52.3666 12.8326 672 109.787 444.586 497.69
410 0 53.2534 12.0743 643 112.801 444.271 497.81
411 0 54.2111 12.4882 677 111.688 443.805 495.357
412 0 57.2281 13.2278 757 109.971 444.178 494.485
413 0 59.163 12.643 748 110.426 444.571 492.951
414 0 60.2331 12.0864 728 111.312 445.413 492.544
415 0 62.1532 13.8529 861 108.93 446.682 491.333
416 0 66.2492 13.57 899 107.768 446.294 490.648
417 0 67.2327 12.4196 835 109.673 447.691 491.207
418 0 70.1491 12.3879 869 110.532 448.367 488.451
419 0 70.2091 13.3459 937 109.641 449.762 487.609
420 1 38.0412 12.1184 461 104.718 451.297 504.766
421 0 40.1416 10.8366 435 105.069 451.106 504.802
422 0 41.0289 11.6259 477 103.725 451.801 505.136
423 0 42.054 11.4139 480 103.002 451.646 506.546
424 0 44.2311 11.6434 515 103.031 451.128 505.965
425 0 41.3164 10.8432 448 105.79 450.52 505.661
426 0 46.184 11.8656 548 102.438 449.783 505.794
427 0 48.3426 11.8529 573 102.768 448.831 503.192
428 0 52.2337 12.6738 662 97.4577 448.769 504.822
429 0 52.3135 12.4442 651 99.2197 448.648 502.714
430 0 54.1851 13.6015 737 97.3012 447.498 501.483
431 0 58.1894 12.5796 732 98.0464 446.738 499.743
432 0 58.3011 11.9723 698 99.7393 446.649 498.864
433 0 61.179 12.8149 784 97.7105 445.439 497.879
434 0 62.0333 13.3477 828 99.9348 445.68 492.874
435 0 66.2318 14.5851 966 97.3934 445.68 492.614
436 0 67.4323 13.5543 914 100.168 445.537 490.852
437 0 71.1912 14.4119 1026 98.2602 444.087 490.482
438 0 73.1611 14.2699 1044 99.7471 444.557 488.944
439 0 74.2747 13.4366 998 102.754 443.97 485.273
440 0 78.1984 15.0387 1176 99.1412 443.355 484.271
441 0 78.4619 12.9872 1019 105.041 443.319 481.992
442 1 43.2991 10.0695 436 104.755 443.606 499.881
443 0 42.2087 11.7038 494 104.308 444.719 497.16
444 0 46.369 10.8478 503 104.493 445.33 497.414
445 0 49.2964 13.2464 653 99.0459 445.83 497.57
446 0 50.1453 13.0022 652 100.169 447.466 496.178
447 0 53.0993 14.2186 755 97.8106 448.212 495.693
448 0 51.0888 13.271 678 99.7522 449.152 497.398
449 0 53.1264 13.5338 719 99.3199 450.056 496.097
450 0 58.1204 13.5925 790 96.7443 450.527 497.222
451 0 58.2053 14.1224 822 97.7993 450.998 497.291
452 0 59.2406 13.0654 774 100.226 451.292 495.748
453 0 64.1252 14.0818 903 98.0664 450.729 493.6
454 0 65.1044 14.7148 958 97.2213 450.224 494.987
455 0 67.2321 13.5352 910 100.48 449.816 494.078
456 0 72.1828 13.0086 939 100.955 448.57 493.455
457 0 73.1394 13.8639 1014 100.76 449.286 491.675
458 1 37.0881 9.08647 337 102.855 449.534 510.638
459 0 38.025 9.57266 364 100.668 449.146 510.857
460 0 42.0657 10.9115 459 99.8105 448.251 509.495
461 0 43.0147 10.2756 442 102.514 447.697 507.923
462 0 45.0232 12.1271 546 98.9615 446.866 507.458
463 0 46.065 11.8962 548 100.723 446.139 504.903
464 0 46.0921 12.5184 577 99.383 445.887 504.373
465 0 48.2509 12.3314 595 101.808 445.393 501.866
466 0 51.2495 13.0733 670 100.187 443.915 500.973
467 0 50.1368 11.7479 589 109.309 443.825 499.98
468 0 54.1602 14.1617 767 98.987 443.318 497.673
469 0 55.1806 13.0299 719 102.822 443.107 496.128
470 0 58.2313 14.7343 858 98.6399 443.781 495.158
471 0 57.2025 13.1463 752 103.828 443.852 492.737
472 0 61.1569 14.9452 914 97.8939 444.316 493.011
473 0 61.1794 13.4849 825 102.36 444.688 487.845
474 0 64.2499 13.5876 873 101.076 445.412 490.443
475 0 67.2296 13.5952 914 101.07 445.964 488.13
476 0 70.2291 14.054 987 99.4792 447.109 489.27
477 0 72.2078 14.0013 1011 98.6231 448.003 485.778
478 0 75.179 14.9244 1122 96.0704 450.35 487.922
479 0 78.2593 14.2731 1117 97.9767 452.031 488.093
480 0 81.1785 14.2402 1156 99.7024 452.084 486.041
481 0 85.234 15.3108 1305 97.508 452.603 486.031
482 0 85.2806 14.2705 1217 100.314 452.855 485.453
483 1 46.0284 10.4284 480 101.662 452.858 505.315
484 0 49.0291 12.666 621 95.9517 452.528 506.024
485 0 48.0356 11.0751 532 101.472 451.242 503.84
486 0 54.0584 13.1339 710 95.5352 449.445 504.43
487 0 53.1875 13.0858 696 97.0963 448.829 505.266
488 0 56.2611 15.8902 894 91.783 448.614 503.312
489 0 57.2377 12.1423 695 98.554 447.954 502.717
490 0 59.2471 13.469 798 96.8697 446.47 499.773
491 0 60.2414 12.3835 746 98.2466 445.429 498.744
492 0 64.2463 13.1681 846 96.8534 445.098 496.544
493 0 65.3346 12.9793 848 97.895 444.475 494.438
494 0 70.274 13.86 974 95.9733 443.946 491.472
495 0 70.2703 13.3485 938 97.4531 443.277 489.139
496 0 73.4099 14.1398 1038 96.0424 443.382 489.464
497 0 76.4309 14.5883 1115 96.3982 442.838 486.243
498 1 41.3061 9.19961 380 96.2395 443.095 505.168
499 0 42.2211 10.9424 462 97.0087 442.937 501.5
500 0 44.1862 11.3384 501 97.6806 442.353 499.858
501 0 44.249 11.0285 488 99.1824 442.648 498.619
502 0 47.2709 10.8312 512 98.7773 443.738 498.514
503 0 48.2654 11.5611 558 99.5179 444.228 497.303
504 0 51.13 12.0673 617 98.9222 446.045 497.026
505 0 51.2333 13.0579 669 97.3169 446.976 497.203
506 0 53.2466 12.8647 685 98.3577 449.279 495.182
507 0 58.2296 14.46 842 95.2399 451.255 497.133
508 0 59.2405 14.1288 837 97.9474 452.649 495.634
509 0 59.3239 12.457 739 103.598 452.563 494.012
510 0 61.2578 12.5209 767 102.718 453.22 496.134
511 0 63.206 12.2615 775 102.726 453.432 496.84
512 0 66.2722 13.3087 882 102.011 453.189 495.788
513 0 68.205 13.7087 935 101.898 451.987 493.844
514 1 39.0872 10.8475 424 100.792 452.948 512.613
515 0 38.0242 9.96735 379 103.277 452.509 512.749
516 0 39.0705 10.6218 415 104.528 451.292 513.501
517 0 38.0834 10.7133 408 103.89 449.289 512.836
518 0 44.1855 11.9496 528 99.9242 448.032 512.15
519 0 44.0737 12.706 560 99.6054 446.918 509.918
520 0 46.1729 12.1933 563 98.833 444.343 509.115
521 0 47.1194 14.007 660 95.6091 443.026 508.371
522 0 47.1849 13.0126 614 99.1922 442.174 508.542
523 0 51.185 12.8749 659 98.1791 441.387 506.196
524 0 51.1145 13.3035 680 101.91 440.44 503.528
525 0 53.1646 13.5805 722 101.234 439.003 503.222
526 0 54.2639 14.282 775 100.265 438.142 501.585
527 0 55.284 14.2175 786 100.971 438.216 501.263
528 0 58.2859 13.2622 773 102.272 437.612 500.401
529 0 58.1755 14.3875 837 101.677 437.462 497.915
530 0 60.2161 13.684 824 102.41 438.171 497.445
531 0 61.1466 13.2959 813 103.855 438.897 496.343
532 0 63.158 13.6483 862 102.208 440.042 496.651
533 0 65.2445 13.3651 872 102.859 442.612 496.07
534 0 68.2398 14.493 989 100.953 443.947 493.638
535 0 70.2571 16.098 1131 97.0875 445.552 494.738
536 0 71.1376 14.3103 1018 102.219 447.219 491.71
537 1 36.1599 10.0941 365 102.499 448.466 513.266
538 0 38.2019 11.1513 426 101.15 450.383 512.568
539 0 38.2144 10.4149 398 103.095 450.606 515.661
540 0 43.1801 12.4594 538 100.16 450.974 514.379
541 0 44.121 12.783 564 101.365 450.184 513.629
542 0 46.3321 12.0651 559 102.447 447.174 514.322
543 0 48.2209 14.8898 718 97.9708 447.279 513.163
544 0 48.1666 14.4083 694 100.268 445.256 511.383
545 0 47.1214 12.245 577 106.648 443.655 512.354
546 0 53.1413 15.3553 816 97.902 442.547 510.587
547 0 53.1277 13.7405 730 101.753 441.199 509.134
548 0 56.2297 14.0317 789 99.3574 440.164 507.888
549 0 56.141 12.3795 695 103.083 438.502 505.839
550 0 60.2068 15.6461 942 96.0541 438.12 503.209
551 0 61.275 14.182 869 99.4787 437.719 501.522
552 0 63.4326 14.5666 924 99.3225 437.411 497.294
553 0 63.4022 12.9806 823 103.375 437.147 494.267
554 0 70.3727 15.6879 1104 96.8632 436.718 493.865
555 0 69.3154 13.1861 914 103.766 436.22 489.633
556 1 36.1962 8.39868 304 104.135 437.628 507.655
557 0 39.1616 10.6482 417 103.408 437.609 504.897
558 0 40.2279 10.7388 432 99.8935 438.014 506.072
559 0 41.0455 10.7929 443 103.907 438.151 503.7
560 0 44.0694 12.0265 530 101.758 439.172 502.168
561 0 44.1195 12.2622 541 102.364 440.375 501.799
562 0 47.15 14.0191 661 100.346 441.835 500.673
563 0 48.1406 14.3953 693 101.573 443.654 499.903
564 0 48.147 13.4795 649 105.353 444.81 500.043
565 0 51.1141 13.4014 685 104.041 447.71 500.412
566 0 53.1767 13.8782 738 104.459 449.186 501.146
567 0 54.112 15.4679 837 100.965 449.815 501.539
568 0 57.2368 13.7324 786 104.995 449.749 501.529
569 0 60.1387 14.7326 886 103.112 449.806 501.447
570 0 60.0694 15.2324 915 103.499 450.011 501.955
571 0 65.1455 14.2911 931 103.404 449.252 503.148
572 0 66.1219 14.6094 966 104.904 448.414 503.583
573 0 70.0867 17.1644 1203 99.7739 447.993 502.695
574 0 70.1371 15.2416 1069 106.58 447.236 501.444
575 0 73.1187 14.497 1060 110.406 445.39 499.889
576 0 76.1363 15.6036 1188 108.97 443.886 498.265
577 0 79.1651 16.3077 1291 108.461 441.931 494.929
578 1 42.0371 11.2282 472 114.015 441.085 512.612
579 0 43.0524 11.5673 498 112.994 439.803 512.384
580 0 44.0518 12.3945 546 112.916 439.577 511.625
581 0 45.0509 13.962 629 110.087 439.324 508.638
582 0 47.018 14.0159 659 109.962 438.146 507.064
583 0 47.0746 13.7866 649 112.305 437.957 503.057
584 0 49.1616 13.5878 668 112.463 437.88 502.835
585 0 50.2456 13.1952 663 112.994 437.557 503.044
586 0 52.193 14.0632 734 112.579 437.616 501.401
587 0 54.0908 13.7177 742 112.997 438.147 499.974
588 0 56.2012 14.9463 840 111.921 438.852 498.569
589 0 58.1265 13.9523 811 114.504 439.683 496.301
590 0 58.112 13.0094 756 117.378 441.306 496.378
591 0 60.3204 14.8706 897 115.77 441.635 493.32
592 0 64.2478 13.8526 890 115.952 444.421 494.9
593 0 66.1759 13.4943 893 119.512 446.754 494.722
594 0 69.1299 14.3643 993 118.317 448.218 494.517
595 0 73.1051 14.0209 1025 117.92 449.811 493.392
596 1 39.1242 9.81489 384 118.068 451.091 512.648
597 0 40.0696 11.1806 448 119.312 451.511 512.627
598 0 41.0457 10.9634 450 120.867 451.736 512.413
599 0 44.1071 12.4243 548 115.803 451.387 513.765
600 0 45.1549 14.4392 652 112.695 449.035 514.373
601 0 48.1596 13.2684 639 115.964 448.275 514.606
602 0 48.1847 12.9917 626 118.173 446.318 515.399
603 0 52.0841 13.6702 712 114.742 445.052 515.395
604 0 52.1915 13.1056 684 115.753 442.716 514.882
605 0 56.1234 13.6129 764 112.62 441.664 515.607
606 0 59.0777 14.7264 870 111.232 441.226 513.577
607 0 59.1295 13.6818 809 115.56 440.488 512.005
608 0 62.2551 14.2157 885 113.581 438.511 511.436
609 0 67.1239 15.4788 1039 111.054 437.747 509.142
610 0 69.2718 14.2338 986 114.977 436.499 507.986
611 0 71.2619 13.5276 964 116.743 435.722 506.849
612 0 74.3035 15.1002 1122 115.579 434.1 502.466
613 0 77.2328 12.0545 931 121.879 433.757 501.422
614 1 42.3562 11.6394 493 111.041 433.876 518.921
615 0 45.2276 11.9175 539 109.301 434.002 515.92
616 0 44.0399 11.0354 486 112.481 433.638 515.984
617 0 46.0814 11.5665 533 112.709 434.886 514.373
618 0 47.1202 12.2665 578 113.765 435.474 511.317
619 0 50.0949 12.8756 645 112.082 436.332 510.501
620 0 51.2746 11.9162 611 114.694 437.087 508.921
621 0 56.1678 14.0472 789 108.417 438.591 510.378
622 0 55.1391 13.0942 722 112.806 439.244 507.062
623 0 59.194 13.5656 803 110.843 440.796 507.431
624 0 61.3131 14.271 875 108.6 442.714 506.179
625 0 64.2785 13.4104 862 109.543 442.828 506.262
626 0 66.175 12.7087 841 111.537 443.197 505.265
627 0 69.1901 12.8487 889 111.764 442.916 502.651
628 1 41.09 10.2701 422 107.069 443.389 521.434
629 0 42.0151 10.401 437 106.293 440.332 523.947
630 0 44.0373 11.2632 496 106.444 439.798 522.542
631 0 43.047 10.5001 452 108.122 439.281 523.75
632 0 46.0461 12.4875 575 103.311 438.37 522.398
633 0 48.0415 12.5725 604 104.351 437.288 522.884
634 0 48.009 12.5602 603 105.454 437.317 522.444
635 0 50.221 13.1021 658 103.956 436.392 520.641
636 0 50.23 13.04 655 104.327 434.269 520.197
637 0 53.1544 12.7929 680 103.688 433.26 516.709
638 0 54.1147 12.4365 673 104.333 431.802 515.768
639 0 58.195 13.0252 758 101.423 430.858 513.621
640 0 59.2463 13.1147 777 100.924 429.992 512.147
641 0 62.1681 14.0104 871 98.5465 429.246 509.334
642 0 64.222 13.2353 850 99.7129 428.775 506.036
643 0 64.037 11.6807 748 102.741 430.914 505.418
644 0 67.0387 11.8887 797 101.931 430.939 503.509
645 0 69.0623 12.5684 868 100.863 430.738 501.448
646 1 36.0485 10.9852 396 96.654 431.965 519.071
647 0 39.043 9.3999 367 96.5668 433.267 519.052
648 0 41.0637 11.6161 477 94.6122 434.094 516.463
649 0 41.0142 9.63081 395 98.0557 435.028 517.015
650 0 44.0234 11.8573 522 94.3103 437.059 514.046
651 0 47.0705 12.0245 566 92.0919 438.557 516.929
652 0 47.2034 11.2916 533 95.5666 440.227 513.876
653 0 49.168 12.3047 605 92.7802 441.759 514.896
654 0 52.1046 12.6476 659 91.3596 441.775 514.408
655 0 51.1047 11.5645 591 94.6751 441.827 515.792
656 0 54.219 13.6484 740 91.0243 442.081 513.511
657 0 57.1483 13.2287 756 91.6587 441.919 512.276
658 0 59.2818 13.8322 820 91.072 442.489 512.801
659 0 62.1754 13.3493 830 92.1566 442.264 513.569
660 0 66.1639 13.8897 919 91.2535 440.472 512.039
661 0 65.3146 12.2484 800 95.7038 440.012 510.076
662 0 70.1327 13.1893 925 94.7395 438.301 506.766
663 0 72.3434 12.9798 939 94.7849 436.441 504.658
664 1 38.1855 9.74192 372 92.9704 436.011 523.656
665 0 40.2762 11.2225 452 92.2876 434.991 520.418
666 0 43.1315 12.0561 520 89.3077 434.196 518.523
667 0 42.1968 11.6834 493 92.7343 433.998 514.89
668 0 45.1481 12.9795 586 89.3294 433.35 514.43
669 0 44.254 11.7277 519 89.8131 432.711 513.468
670 0 46.143 12.3096 568 89.044 431.715 510.787
671 0 47.1873 11.8888 561 91.3084 432.273 509.756
672 0 49.1981 13.5574 667 89.4288 432.832 507.712
673 0 49.2129 12.639 622 93.2942 434.161 504.768
674 0 53.3117 16.0565 856 86.3855 435.044 503.343
675 0 52.1099 14.527 757 91.3672 436.005 501.664
676 0 54.235 12.9437 702 93.0214 437.038 503.409
677 0 56.1111 14.3644 806 91.9206 438.225 499.938
678 0 58.1612 14.5458 846 91.4527 439.278 500.961
679 0 59.1534 13.1691 779 96.3119 441.655 498.625
680 0 63.1339 14.7623 932 92.1685 443.205 500.767
681 0 65.202 14.9689 976 93.5051 445.045 499.73
682 0 68.254 14.5779 995 94.2422 446.573 500.006
683 0 68.1215 15.3402 1045 95.7464 447.596 498.666
684 1 37.0645 12.7615 473 94.3806 449.013 516.858
685 0 37.021 10.3725 384 100.25 449.193 517.898
686 0 39.0413 10.7835 421 102.01 448.841 517.648
687 0 40.0119 11.0467 442 104.864 447.973 516.337
688 0 42.0153 12.6621 532 101.244 446.947 516.444
689 0 45.0566 14.4707 652 98.8696 445.891 516.982
690 0 48.036 13.5315 650 99.6046 444.714 515.646
691 0 47.1666 13.5265 638 102.221 443.63 513.133
692 0 50.2363 14.3721 722 100.073 442.068 510.562
693 0 52.0645 14.5589 758 100.384 441.351 508.823
694 0 54.2842 13.7609 747 101.743 439.096 506.68
695 0 56.227 12.9653 729 103.505 438.059 503.307
696 0 55.2464 13.5937 751 103.762 436.758 500.209
697 0 58.1356 13.4513 782 103.942 436.751 499.423
698 0 62.2027 14.8386 923 99.1062 437.93 498.484
699 0 62.1926 14.3908 895 100.377 437.718 496.513
700 0 66.2203 14.18 939 100.338 438.154 494.031
701 0 68.2099 15.5109 1058 98.3563 439.201 491.971
702 0 69.1714 14.1243 977 101.417 440.008 490.34
703 0 72.2229 14.926 1078 99.2468 440.57 487.054
704 0 74.3548 15.1974 1130 98.523 441.393 488.383
705 1 38.0418 11.4348 435 102.271 444.623 503.839
706 0 40.137 11.3362 455 99.7868 444.29 505.103
707 0 42.0925 12.0211 506 100.126 446.03 504.3
708 0 43.1412 10.8017 466 103.708 447.813 504.352
709 0 47.0554 11.6246 547 100.625 449.987 504.503
710 0 47.1025 12.4197 585 100.643 450.667 503.952
711 0 50.1353 13.1644 660 99.847 452.658 504.753
712 0 50.1303 12.9662 650 101.206 454.129 504.457
713 0 53.0487 14.4961 769 98.3186 454.464 503.494
714 0 55.1133 14.0438 774 99.739 454.603 503.77
715 0 56.0244 14.1546 793 99.7919 452.952 504.464
716 0 59.0614 14.1378 835 100.017 451.841 503.551
717 0 62.1456 12.8408 798 101.406 449.848 502.868
718 0 67.0845 14.0271 941 98.5186 448.931 502.676
719 0 69.072 13.8841 959 99.268 448.264 499.914
720 0 73.0731 14.8071 1082 97.3697 446.782 499.213
721 0 76.0766 14.8929 1133 96.1042 445.187 497.936
722 0 79.1346 14.747 1167 97.1045 442.98 493.31
723 0 83.1022 15.2583 1268 95.4527 441.868 490.592
724 1 45.1971 12.6335 571 95.7986 441.18 507.932
725 0 43.0585 10.3348 445 100.099 440.357 507.398
726 0 48.1769 13.5957 655 94.4779 440.863 505.74
727 0 51.1161 13.7921 705 94.2128 440.261 502.557
728 0 51.0411 11.9316 609 98.2545 439.824 500.898
729 0 54.0786 14.1831 767 93.3168 439.338 497.978
730 0 56.1918 14.1658 796 94.4284 438.616 495.452
731 0 58.0696 13.3633 776 95.1559 438.429 496.067
732 0 60.124 14.6863 883 93.8505 439.211 494.176
733 0 62.1407 13.1798 819 96.0452 441.802 494.492
734 0 65.2566 13.9143 908 95.3227 442.031 492.941
735 0 67.2085 14.4624 972 94.6111 443.387 493.114
736 0 70.1984 15.1428 1063 94.5174 445.917 491.881
737 0 74.1942 14.3408 1064 95.9774 446.763 492.33
738 0 75.3299 13.5803 1023 98.9736 448.379 489.794
739 0 79.3234 13.9429 1106 98.8146 449.272 489.618
740 0 83.3033 15.1255 1260 96.5159 449.513 490.886
741 0 87.2187 15.2605 1331 97.7453 449.781 491.21
742 1 46.051 10.1409 467 101.931 448.39 513.418
743 0 49.0502 10.4383 512 102.49 446.689 514.543
744 0 51.2423 11.6115 595 101.266 445.81 513.576
745 0 55.1781 13.3386 736 97.8696 445.736 513.927
746 0 56.2255 13.4281 755 98.8742 444.75 512.673
747 0 57.2317 13.4541 770 98.7065 442.688 511.555
748 0 61.2469 15.0865 924 96.4773 441.563 507.951
749 0 64.1773 14.6469 940 97.8777 439.739 506.681
750 0 64.0785 12.0009 769 103.871 438.386 505.247
751 0 68.0769 14.4689 985 99.73 437.55 503.236
752 0 72.1266 14.5023 1046 99.4732 435.127 501.711
753 0 75.0542 14.7493 1107 99.1771 433.506 498.449
754 0 76.0893 13.6813 1041 102.285 433.861 498.01
755 1 41.0782 11.9771 492 100.691 434.539 512.283
756 0 43.0576 11.4033 491 99.4888 433.845 513.177
757 0 44.0344 11.2185 494 102.095 434.358 509.98
758 0 45.1151 12.7452 575 101.739 434.374 505.861
759 0 48.0849 12.7691 614 100.327 435.254 504.849
760 0 49.115 12.8067 629 101.138 436.307 502.825
761 0 48.1448 12.9194 622 102.408 437.402 503.616
762 0 53.0453 15.2134 807 96.4263 439.221 503.033
763 0 53.012 13.0914 694 101.873 441.362 501.037
764 0 56.0952 13.6019 763 100.041 442.725 502.245
765 0 58.1442 13.9309 810 100.5 444.519 502.298
766 0 59.1799 13.9743 827 100.543 446.189 502.838
767 0 63.1019 14.2785 901 99.2775 447.77 502.405
768 0 65.132 14.4783 943 100.346 446.952 500.932
769 0 67.1164 13.6479 916 103.044 447.102 501.558
770 0 69.1014 13.9505 964 104.752 445.786 497.803
771 1 38.1223 10.4663 399 101.987 444.782 517.459
772 0 40.0326 10.9661 439 101.69 444.686 518.768
773 0 43.0376 11.9895 516 98.4864 442.99 517.399
774 0 43.1059 12.0633 520 98.8808 442.017 516.54
775 0 44.1086 13.6935 604 90.0447 440.733 515.171
776 0 46.116 12.6203 582 89.0894 439.019 515.216
777 0 49.1015 13.3193 654 87.6315 438.445 513.598
778 0 50.0331 13.8908 695 87.0374 437.41 511.86
779 0 50.2353 11.2073 563 92.032 436.186 509.504
780 0 55.0992 12.4684 687 88.6128 435.523 507.68
781 0 56.0954 14.3862 807 86.0496 434.651 505.197
782 0 57.0794 14.0331 801 87.201 434.228 504.959
783 0 58.1098 13.5261 786 88.3053 434.774 500.419
784 0 61.0603 13.6914 836 89.0156 434.92 499.071
785 0 63.0666 13.4302 847 87.8194 435.013 498.882
786 0 66.1013 12.6624 837 89.3154 435.93 497.51
787 0 68.3104 13.8046 943 88.1262 437.3 494.837
788 0 71.17 15.737 1120 85.2679 437.917 494.946
789 0 76.0616 14.7512 1122 86.5526 438.822 492.152
790 1 40.0435 10.3388 414 88.7391 441.254 512.126
791 0 42.0257 12.6113 530 86.2887 442.632 510.828
792 0 44.0223 11.0399 486 86.9506 444.679 513.235
793 0 47.0523 13.5169 636 84.1431 446.502 513.003
794 0 50.0533 12.8663 644 85.7981 447.348 513.099
795 0 50.0763 12.2413 613 88.8858 447.206 513.954
796 0 52.0878 13.6884 713 88.5947 447.533 513.073
797 0 56.1144 13.615 764 87.0654 445.982 514.123
798 0 58.1099 13.027 757 89.7345 445.263 513.309
799 0 60.08 14.98 900 88.2156 443.814 512.441
800 0 63.0661 13.5096 852 91.5599 441.741 511.765
801 0 66.1247 12.3101 814 91.4226 440.219 511.295
802 0 70.1396 14.4569 1014 88.4231 438.416 509.15
803 0 73.166 13.5719 993 90.1188 436.563 507.452
804 0 79.2759 15.7173 1246 87.0185 435.401 505.998
805 1 42.1308 11.2982 476 92.5273 433.964 519.824
806 0 42.0811 12.571 529 91.6352 432.887 517.149
807 0 44.2143 12.5977 557 92.8384 432.338 515.285
808 0 48.1641 14.2222 685 92.2394 431.698 511.677
809 0 48.2232 13.7278 662 93.6692 431.408 510.13
810 0 50.0986 14.4116 722 92.9834 432.108 507.866
811 0 53.1186 15.7196 835 90.6347 432.668 504.695
812 0 54.1365 14.3341 776 94.3595 432.51 503.64
813 0 57.1632 15.2371 871 91.5626 434.09 502.448
814 0 58.2202 13.9299 811 93.8224 435.731 502.189
815 0 59.1203 14.7834 874 93.8799 436.124 500.154
816 0 62.2326 13.6745 851 95.671 437.188 500.711
817 0 64.227 14.5733 936 95.9968 439.515 497.688
818 0 68.3171 14.6962 1004 95.3815 441.71 497.368
819 0 70.186 15.9006 1116 94.5314 443.603 496.261
820 1 38.0947 11.9177 454 96.3744 444.278 512.976
821 0 39.2557 12.3039 483 98.1574 444.679 513.563
822 0 40.1028 12.6425 507 98.0966 445.888 515.197
823 0 43.0734 12.8153 552 99.7409 446.712 514.658
824 0 45.1648 15.1224 683 94.612 446.224 515.208
825 0 47.1276 15.405 726 98.4821 446.295 512.959
826 0 49.5286 13.2853 658 101.983 446.234 514.269
827 0 52.1038 15.0469 784 98.8125 444.193 513.245
828 0 53.2421 15.1947 809 100.236 442.277 512.954
829 0 54.1457 13.5745 735 106.01 441.199 510.282
830 0 58.2635 15.4299 899 99.6541 439.671 507.962
831 0 61.2807 14.8987 913 101.217 438.555 506.119
832 0 60.188 14.4713 871 103.621 437.918 504.388
833 0 65.2107 15.657 1021 100.479 437.055 501.882
834 0 68.3215 15.5734 1064 99.579 436.792 500.352
835 0 71.2136 14.7725 1052 99.5989 436.525 498.304
836 1 36.2901 11.2152 407 99.8305 436.459 514.467
837 0 36.121 11.5999 419 98.0143 436.002 513.84
838 0 39.306 12.568 494 95.1984 437.075 512.51
839 0 39.1894 13.0903 513 97.0975 437.404 509.322
840 0 42.0361 14.4162 606 94.5891 437.55 507.467
841 0 43.2155 13.6525 590 96.9949 438.105 508.71
842 0 44.3664 13.8168 613 97.571 438.953 507.269
843 0 47.2454 14.9433 706 95.4929 441.164 506.629
844 0 47.1799 13.4167 633 99.0742 441.915 508.433
845 0 50.1393 17.232 864 91.934 443.728 507.397
846 0 50.1433 13.3019 667 100.288 445.471 509.636
847 0 52.1244 13.8898 724 100.86 446.751 509.43
848 0 56.0819 15.6557 878 97.631 446.917 509.595
849 0 57.3808 15.0747 865 101.451 447.63 508.565
850 0 60.1832 16.7987 1011 98.2008 447.381 510.696
851 0 62.1048 14.5721 905 105.569 447.941 510.044
852 0 63.2436 15.211 962 105.069 447.383 509.443
853 0 70.1967 15.4851 1087 103.952 445.471 509.302
854 0 73.1136 15.5101 1134 103.968 443.203 506.403
855 0 74.1323 15.877 1177 106.191 441.955 507.094
856 1 39.1469 10.6522 417 108.518 440.77 522.748
857 0 41.0244 11.7735 483 108.923 438.143 521.062
858 0 42.0469 12.4623 524 106.809 437.307 520.273
859 0 44.1048 12.4703 550 108.695 435.545 517.175
860 0 45.2679 12.8789 583 108.437 434.208 516.569
861 0 45.0592 13.9594 629 100.488 433.816 514.733
862 0 45.0483 15.0949 680 107.932 433.088 513.324
863 0 47.1547 13.3179 628 112.718 432.783 511.916
864 0 46.098 13.9052 641 113.736 432.934 510.796
865 0 49.1599 14.2596 701 112.367 433.371 509.685
866 0 50.0811 15.1155 757 109.835 434.036 508.147
867 0 53.231 15.2543 812 104.296 434.187 506.493
868 0 54.0576 12.9676 701 108.157 435.147 505.849
869 0 53.1576 13.9585 742 108.243 436.854 503.585
870 0 58.1473 14.8072 861 104.458 437.605 505.134
871 0 59.0896 13.9618 825 107.821 438.754 502.234
872 0 63.1252 15.0336 949 105.669 441.109 502.275
873 0 63.1081 14.0711 888 108.605 442.39 504.492
874 0 65.2157 13.5244 882 109.93 442.802 503.397
875 1 36.2102 10.7981 391 106.35 443.685 518.831
876 0 35.1104 11.649 409 106.753 444.55 519.531
877 0 37.1026 12.398 460 107.176 444.843 519.141
878 0 35.1234 11.9294 419 110.902 443.933 520.802
879 0 39.0465 13.8041 539 106.362 444.618 519.827
880 0 40.0384 12.1134 485 110.159 444.27 521.142
881 0 39.0332 12.041 470 110.13 442.97 521.394
882 0 37.0275 12.2341 453 111.071 440.885 520.344
883 0 39.0731 13.462 526 108.167 439.53 518.53
884 0 40.0385 13.6369 546 103.861 437.225 518.125
885 0 40.0632 12.6051 505 103.198 435.667 515.562
886 0 39.1909 12.3243 483 102.72 434.489 514.983
887 0 40.0286 13.2156 529 100.597 434.227 513.701
888 0 41.0619 13.5893 558 98.3298 433.647 512.355
889 0 41.073 13.8291 568 99.0035 433.011 511.074
890 0 41.04 14.0595 577 98.2392 433.43 509.946
891 0 42.0849 12.855 541 100.231 434.085 508.754
892 0 41.1061 12.7961 526 97.9867 435.038 508.54
893 0 42.092 15.7037 661 92.643 435.596 507.121
894 0 40.1796 11.8468 476 101.17 436.277 506.193
895 0 41.0979 12.5554 516 98.3915 437.415 504.934
896 0 42.0364 13.8452 582 95.6907 438.237 504.072
897 0 42.0954 14.2058 598 95.515 440.426 504.503
898 0 42.2132 13.7398 580 95.1655 441.162 505.719
899 0 44.1722 16.2093 716 90.7598 442.676 506.265
900 0 42.0802 12.8564 541 96.0055 444.959 509.172
901 0 42.1599 14.2078 599 94.5843 446.898 509.227
902 0 43.3184 13.4354 582 94.8024 448.907 510.321
903 0 44.1969 13.5304 598 94.4248 449.604 513.242
904 0 44.1806 15.414 681 93.138 450.056 512.667
