time division length width area intensity CMx CMy
0 0 47.081 13.4449 633 134.164 204.684 467.348
1 0 51.0938 15.4617 790 130.822 204.028 464.385
2 0 53.1275 18.4838 982 128.307 203.833 466.996
3 0 51.0797 13.3908 684 139.902 203.352 465.716
4 0 55.0424 15.588 858 132.573 202.012 464.438
5 0 58.1234 18.1854 1057 125.43 200.805 465.87
6 0 59.1996 17.1623 1016 128.728 200.525 462.457
7 0 60.0565 14.1866 852 134.187 199.383 463.856
8 0 62.2755 13.9541 869 134.076 199.201 463.324
9 0 63.1207 13.894 877 135.499 197.818 464.192
10 0 65.1869 12.3798 807 134.166 197.844 464.741
11 0 66.1525 14.0282 928 134.477 197.328 461.609
12 0 68.1768 13.4797 919 131.701 197.197 459.81
13 0 73.1236 16.7525 1225 126.927 195.812 453.322
14 0 75.3236 16.4357 1238 126.887 196.164 451.624
15 0 77.1774 16.2872 1257 129.844 196.045 448.945
16 0 80.1849 15.0402 1206 129.925 195.662 452.597
17 0 83.2205 17.5438 1460 126.654 195.66 444.561
18 1 42.0483 11.3203 476 133.216 195.729 466.256
19 0 45.0967 11.6638 526 132.736 195.42 464.447
20 0 44.1132 13.4427 593 128.341 194.75 459.218
21 0 48.0969 13.9718 672 128.562 195.85 458.009
22 0 48.0922 13.9524 671 131.151 196.858 457.967
23 0 48.09 14.0154 674 130.568 197.831 457.899
24 0 52.1723 14.6246 763 125.889 199.528 455.284
25 0 55.152 15.3213 845 124.258 200.95 452.391
26 0 55.1852 13.3913 739 128.624 201.71 451.855
27 0 58.2115 14.3099 833 124.666 201.498 452.923
28 0 62.2117 13.7595 856 124.755 201.71 450.504
29 0 61.1176 13.4495 822 126.217 202.383 447.343
30 0 65.1479 16.1325 1051 121.099 201.852 449.074
31 0 66.1391 15.286 1011 119.347 203.379 449.886
32 0 73.1174 16.8496 1232 117.381 204.962 445.396
33 0 74.2103 16.6554 1236 116.391 205.71 441.678
34 0 73.3715 13.0296 956 123.933 207.028 444.681
35 0 78.1131 15.9896 1249 116.669 207.255 443.901
36 0 85.199 14.9767 1276 117.768 207.882 443.17
37 1 44.1038 11.6543 514 115.356 207.998 466.804
38 0 45.0782 12.3119 555 118.007 207.951 461.616
39 0 49.0386 15.3552 753 108.695 207.305 464.627
40 0 47.2313 10.4803 495 113.228 207.133 469.956
41 0 50.1637 11.4625 575 111.79 206.883 465.955
42 0 51.1273 13.0654 668 109.365 205.704 467.54
43 0 53.2445 12.1703 648 111.182 205.66 466.241
44 0 61.2978 18.5488 1137 102.796 206.407 464.174
45 0 60.037 15.8402 951 106.131 205.079 464.259
46 0 60.0921 12.8469 772 121.677 204.105 466.497
47 0 61.1293 11.5329 705 122.959 204.109 466.308
48 0 65.2906 15.9135 1039 117.677 203.333 465.799
49 0 68.228 12.0478 822 119.993 203.708 462.923
50 0 70.1259 14.2601 1000 120.114 202.474 459.972
51 0 73.1444 16.1598 1182 119.849 202.262 457.694
52 0 73.1444 16.1598 1182 136.321 202.272 457.744
53 0 79.2835 15.0473 1193 120.858 200.966 456.211
54 0 83.0967 14.8381 1233 123.09 200.124 452.115
55 0 84.1909 13.2793 1118 127.276 198.86 447.832
56 0 90.295 14.4969 1309 125.781 199.138 448.334
57 0 92.2773 14.5865 1346 127.251 198.571 446.787
58 1 48.2802 13.8359 668 123.28 197.163 467.006
59 0 49.0855 12.6921 623 123.849 198.25 469.162
60 0 49.1028 12.3211 605 118.987 197.359 468.769
61 0 51.0901 13.9557 713 118.648 197.076 463.627
62 0 53.063 10.9681 582 121.89 197.754 465.729
63 0 54.0794 13.9979 757 119.856 197.625 460.168
64 0 58.4557 13.7882 806 117.249 196.711 460.163
65 0 58.1714 14.7151 856 117.1 197.354 454.903
66 0 61.2094 13.9848 856 118.047 197.699 457.111
67 0 62.2112 13.3738 832 118.433 197.154 456.388
68 0 67.037 15.0812 1011 115.197 197.798 454.129
69 0 67.1291 10.7405 721 124.75 197.391 449.38
70 0 72.2277 13.582 981 119.193 197.895 446.179
71 0 71.1748 13.1788 938 122.735 199.233 449.965
72 0 75.2546 14.9492 1125 120.028 200.421 445.341
73 0 79.5221 14.9518 1189 119.905 201.159 446.727
74 0 82.2761 16.1772 1331 118.823 200.63 441.684
75 0 84.2506 12.7952 1078 124.706 201.049 442.485
76 0 86.1432 13.1177 1130 125.678 201.958 437.693
77 0 91.0945 13.5244 1232 122.585 204.274 441.42
78 1 47.2747 11.5707 547 121.689 205.311 459.718
79 0 52.1671 13.1692 687 117.183 205.881 461.105
80 0 52.1166 12.568 655 116.444 203.911 464.94
81 0 53.0429 11.3682 603 119.048 204.937 465.789
82 0 56.1259 13.0243 731 117.187 204.516 462.821
83 0 59.067 14.0688 831 115.587 206.138 460.844
84 0 60.3055 13.5643 818 115.451 205.538 462.878
85 0 63.1901 13.8155 873 116.223 203.355 461.134
86 0 63.2733 14.2556 902 117.378 203.513 462.984
87 0 65.168 13.258 864 119.728 203.642 463.372
88 0 68.1713 13.202 900 119.539 203.359 462.486
89 0 71.4414 14.6414 1046 119.748 203.561 462.583
90 0 74.1053 12.8466 952 123.659 202.752 459.801
91 0 75.1582 13.9705 1050 122.937 202.569 461.901
92 0 76.2959 12.7268 971 125.211 201.323 462.5
93 0 82.3551 13.5511 1116 123.813 201.075 459.667
94 0 86.244 14.5054 1251 121.981 200.263 458.416
95 0 87.2619 16.3874 1430 118.494 199.103 456.56
96 0 91.3611 15.6303 1428 120.04 199.359 456.729
97 1 49.169 11.9994 590 121.505 199.034 476.385
98 0 48.2092 11.5538 557 124.564 198.589 472.838
99 0 50.1401 16.0949 807 117.636 197.834 470.144
100 0 49.0797 13.6105 668 117.5 196.479 473.455
101 0 51.2188 15.9317 816 113.876 196.692 471.691
102 0 53.1568 13.8458 736 118.177 195.751 467.154
103 0 55.065 15.8903 875 115.778 196.088 465.865
104 0 55.0847 15.1948 837 117.582 196.135 464.307
105 0 56.1259 12.953 727 122.216 195.184 463.979
106 0 58.0786 12.3109 715 119.445 195.046 466.601
107 0 61.2076 13.3317 816 119.526 195.091 460.582
108 0 63.2768 14.9028 943 117.426 194.936 459.037
109 0 64.3131 15.3312 986 118.934 195.264 454.093
110 0 69.1129 17.2761 1194 114.752 195.497 452.477
111 0 69.1166 14.9747 1035 118.646 195.734 453.995
112 0 73.2466 17.4069 1275 117.22 197.642 450.966
113 0 75.155 14.5566 1094 122.652 196.6 447.005
114 0 77.078 13.402 1033 124.807 196.699 448.3
115 1 37.0769 13.4046 497 118.529 198.851 468.227
116 0 39.074 11.9517 467 120.064 199.203 466.608
117 0 40.1739 11.0271 443 120.488 198.941 466.515
118 0 41.0473 12.644 519 121.262 199.869 463.06
119 0 42.3404 10.4628 443 126.165 201.029 461.783
120 0 44.0825 11.1836 493 124.207 201.779 463.647
121 0 46.1257 13.0513 602 120.37 202.826 465.992
122 0 47.0596 12.346 581 120.702 202.921 464.618
123 0 49.0786 13.6923 672 119.211 203.74 464.935
124 0 51.1504 14.1934 726 119.927 202.574 462.154
125 0 50.2096 12.4876 627 123.246 202.278 464.081
126 0 55.1765 16.2026 894 117.218 203.047 462.608
127 0 49.1457 10.3977 511 129.599 202.16 464.176
128 0 55.1226 13.1525 725 123.323 203.458 464.474
129 0 58.21 16.9215 985 117.06 201.94 466.002
130 0 60.1549 15.0279 904 120.626 202.19 465.176
131 0 59.2016 13.9692 827 123.733 200.879 462.44
132 0 64.2308 15.8335 1017 119.372 200.966 466.523
133 0 66.3319 14.744 978 121.447 200.133 464.035
134 0 70.1247 15.7719 1106 121.617 200.313 463.069
135 0 69.2193 13.6667 946 125.077 199.922 466.088
136 0 71.1845 13.3596 951 124.678 199.178 468.625
137 0 75.141 13.4281 1009 125.804 199.303 459.99
138 0 76.204 14.7761 1126 124.079 197.275 458.017
139 0 79.3401 16.7002 1325 120.143 198.377 457.083
140 0 81.2165 15.1447 1230 120.17 196.534 463.049
141 0 84.1622 13.6403 1148 125.51 196.584 455.079
142 0 87.3565 16.6788 1457 119.98 196.41 455.257
143 0 86.2292 12.9538 1117 126.311 195.133 453.613
144 0 90.4648 14.6576 1326 124.596 194.906 445.957
145 0 91.7278 12.6243 1158 128.009 192.927 441.685
146 0 96.5228 14.8255 1431 122.274 192.741 445.707
147 0 99.4899 16.3333 1625 120.194 193.047 443.855
148 0 104.583 13.0327 1363 125.053 193.073 442.043
149 0 109.719 17.3899 1908 117.873 192.867 440.009
150 0 110.773 16.9085 1873 120.87 193.433 436.475
151 0 113.294 12.4455 1410 126.009 193.114 439.563
152 0 118.498 14.3716 1703 124.759 194.093 430.17
153 0 121.471 15.3041 1859 123.942 194.803 423.041
154 0 126.559 16.3955 2075 121.73 194.629 424.123
155 0 127.369 14.509 1848 126.169 194.921 416.876
156 0 132.353 17.0982 2263 119.902 194.981 420.069
157 0 137.576 14.4865 1993 124.036 194.85 415.115
158 0 144.874 15.372 2227 120.789 195.247 413.826
159 1 75.3899 10.7972 814 117.388 197.403 452.131
160 0 80.1866 13.3563 1071 115.103 197.449 447.041
161 0 81.5485 16.6404 1357 113.558 198.117 444.139
162 0 84.6341 13.6942 1159 117.393 198.55 443.543
163 0 88.4837 15.1214 1338 113.22 199.862 443.876
164 0 90.2628 21.8916 1976 105.515 200.161 440.495
165 0 91.4787 14.0579 1286 116.829 201.191 437.659
166 0 95.7723 14.8164 1419 117.184 201.283 437.753
167 0 99.5687 17.0335 1696 115.008 202.499 434.806
168 0 101.397 12.3771 1255 119.563 202.195 437.826
169 0 100.456 12.4731 1253 120.346 201.84 439.966
170 0 110.695 14.8336 1642 118.951 201.978 432.175
171 0 115.718 15.797 1828 116.635 202.169 430.382
172 0 117.644 14.1104 1660 118.89 201.893 435.22
173 0 121.493 16.4454 1998 116.916 201.494 428.571
174 0 123.495 13.7009 1692 121.544 200.9 433.444
175 0 130.549 16.8979 2206 115.96 200.627 430.008
176 0 134.831 14.2029 1915 121.989 200.613 423.737
177 0 140.649 13.8572 1949 121.647 200.345 428.029
178 0 143.949 18.2634 2629 117.016 199.583 420.066
179 0 149.708 14.5283 2175 123.441 199.604 422.354
180 0 152.773 14.6034 2231 121.049 198.395 423.719
181 0 159.146 16.1298 2567 119.115 197.607 412.385
182 0 163.909 15.7953 2589 120.249 197.345 413.975
183 1 90.3909 14.3488 1297 115.593 195.556 448.732
184 0 93.4114 13.0712 1221 115.894 194.733 451.839
185 0 94.4441 11.6471 1100 119.119 194.877 447.719
186 0 99.4475 14.1582 1408 115.396 194.979 444.795
187 0 106.37 13.2368 1408 116.011 193.168 444.16
188 0 102.299 11.5739 1184 142.354 191.122 440.595
189 0 111.719 13.0505 1458 118.522 192.266 434.898
190 0 116.344 12.7811 1487 119.773 192.49 431.283
191 0 122.578 14.8395 1819 115.932 192.436 432.336
192 0 125.893 13.2017 1662 121.017 192.845 423.358
193 1 55.3103 9.20263 509 118.132 193.444 461.638
194 0 59.3173 14.5826 865 109.399 192.516 459.377
195 0 59.1165 11.9425 706 106.167 191.873 458.632
196 0 61.1362 11.5316 705 107.374 192.027 454.452
197 0 63.2758 12.9433 819 104.712 192.288 454.048
198 0 63.2282 10.2011 645 110.833 193.439 450.598
199 0 69.3129 12.6095 874 109.267 194.352 452.474
200 0 69.3796 9.9597 691 114.174 195.004 450.453
201 0 69.3046 10.4178 722 114.181 194.965 448.579
202 0 73.3177 9.6566 708 113.29 195.66 447.958
203 0 78.3437 15.9936 1253 105.52 196.568 442.272
204 0 80.4544 14.2317 1145 107.01 196.516 445.961
205 0 87.4647 14.4515 1264 107.109 198.026 443.069
206 0 85.3044 11.4179 974 113.976 198.908 440.303
207 0 87.4918 11.121 973 117.326 199.127 439.385
208 0 91.5202 12.795 1171 116.478 200.4 437.579
209 0 96.4771 13.4747 1300 114.203 199.03 441.117
210 0 96.2713 12.9114 1243 117.075 199.681 438.555
211 0 98.8275 12.6584 1251 119.654 200.703 425.523
212 0 103.594 14.3637 1488 116.44 201.093 435.45
213 0 103.441 9.87999 1022 125.784 200.339 433.148
214 0 110.66 13.5369 1498 118.032 200.512 431.262
215 0 110.826 11.4504 1269 122.878 200.819 435.083
216 0 113.689 12.0505 1370 123.699 201.289 428.296
217 0 114.35 11.115 1271 125.38 200.312 429.49
218 0 117.627 13.0498 1535 123.704 199.893 425.264
219 0 122.612 15.4145 1890 120.736 199.962 424.162
220 0 127.399 15.2827 1947 120.096 198.854 426.794
221 0 133.308 13.7802 1837 121.275 197.711 428.892
222 1 78.3367 11.0293 864 118.356 198.561 459.302
223 0 79.3192 10.0102 794 121.768 198.233 457.123
224 0 83.2427 11.1001 924 122.12 193.417 457.086
225 0 87.2522 12.4123 1083 118.715 193.031 458.644
226 0 89.0859 12.4711 1111 121.186 192.77 455.16
227 0 97.2531 11.5061 1119 122.157 191.522 450.508
228 0 94.2224 10.316 972 124.309 191.133 448.327
229 0 98.1561 12.0522 1183 121.545 190.053 445.713
230 0 101.132 14.7134 1488 116.207 190.898 446.069
231 0 107.332 13.5188 1451 117.956 189.114 443.079
232 1 56.0411 10.5101 589 115.966 192.503 467.949
233 0 58.0593 14.3818 835 109.812 193.037 468.182
234 0 59.1482 10.9894 650 115.609 192.689 466.642
235 0 61.0918 14.601 892 106.497 192.119 464.341
236 0 60.0559 9.4079 565 114.834 191.835 463.519
237 0 65.1858 17.0743 1113 100.925 190.358 463.217
238 0 64.1785 14.6622 941 106.35 189.287 455.518
239 0 66.0917 12.1649 804 109.228 188.009 455.609
240 0 66.1768 11.9982 794 109.136 190.026 459.213
241 0 71.3238 14.7356 1051 109.645 189.238 456.593
242 0 75.3589 14.0926 1062 112.153 191.257 448.287
243 0 77.3983 13.8892 1075 111.749 192.428 449.892
244 0 79.487 12.9204 1027 113.524 191.427 445.388
245 0 78.3593 15.9394 1249 108.061 192.78 450.187
246 0 82.5185 12.3003 1015 115.057 192.913 445.246
247 0 83.4152 11.3409 946 117.366 194.216 440.082
248 0 89.3364 13.8018 1233 113.7 193.471 439.851
249 1 49.1433 14.5086 713 104.864 193.229 461.825
250 0 46.671 8.87061 414 112.599 196.891 459.558
251 0 47.4769 11.3108 537 109.048 197.255 457.333
252 0 53.0808 13.941 740 108.17 195.289 459.641
253 0 53.0202 12.5612 666 111.595 195.761 464.039
254 0 55.1449 11.5333 636 112.726 196.97 463.725
255 0 54.1647 11.8897 644 115.871 198.054 461.54
256 0 55.1559 11.0233 608 116.536 197.067 461.281
257 0 58.1791 14.0428 817 112.384 197.908 463.064
258 0 58.0684 11.7964 685 115.707 197.785 467.102
259 0 60.0957 11.9975 721 116.054 197.079 464.434
260 0 62.207 13.5194 841 114.379 198.56 467.762
261 0 64.1308 13.3165 854 114.693 197.566 465.507
262 0 65.0837 16.9935 1106 110.499 196.852 464.836
263 0 65.09 15.3019 996 113.401 196.275 465.976
264 0 68.0652 16.543 1126 111.853 197.127 464.417
265 0 69.1352 13.611 941 116.419 196.343 465.411
266 0 68.1626 11.1645 761 115.277 198.397 467.527
267 0 70.1888 13.193 926 112.726 197.221 468.494
268 0 72.1168 15.2253 1098 113.362 195.638 459.857
269 0 76.2841 13.0958 999 117.208 195.381 459.488
270 0 78.1424 12.4516 973 117.734 194.304 460.577
271 0 82.2074 17.5653 1444 111.385 193.929 456.781
272 0 85.3761 15.4727 1321 114.902 193.775 456.519
273 0 86.394 20.013 1729 108.976 192.287 456.231
274 1 44.3446 9.26832 411 122.805 192.701 474.294
275 0 45.1325 9.57181 432 123.507 191.928 470.512
276 0 47.0841 13.8901 654 112.766 191.658 470.849
277 0 47.1822 9.5163 449 122.207 192.314 469.486
278 0 50.5808 13.1077 663 119.443 190.32 462.89
279 0 55.199 14.022 774 114.944 191.749 464.218
280 0 53.21 13.3246 709 115.708 189.973 465.59
281 0 56.065 17.1052 959 110.306 190.35 463.142
282 0 54.1588 13.645 739 117.578 190.058 459.686
283 0 60.1786 11.9312 718 116.263 191.685 459.283
284 0 61.0287 15.8778 969 112.112 191.733 457.821
285 0 62.1253 13.505 839 117.355 192.292 450.877
286 0 62.182 17.5774 1093 109.756 192.077 457.029
287 0 66.2056 14.0471 930 114.349 193.177 453.896
288 0 70.1968 13.4337 943 113.871 192.316 450.416
289 0 73.5067 15.6856 1153 111.916 193.402 444.674
290 0 75.1421 15.81 1188 113.301 194.447 449.272
291 0 77.2498 17.4887 1351 111.315 195.731 444.819
292 0 79.2825 14.1267 1120 115.622 196.027 444.028
293 0 83.2393 16.0741 1338 114.833 198.578 443.945
294 0 86.2372 13.2657 1144 119.257 199.711 442.531
295 1 47.0459 13.7313 646 115.916 198.907 461.39
296 0 48.0696 12.0034 577 119.34 198.702 461.924
297 0 51.2227 14.3882 737 115.011 200.159 462.806
298 0 52.1456 15.0924 787 114.144 200.586 462.32
299 0 50.1969 13.5865 682 119.891 201.716 457.723
300 0 55.4962 14.2172 789 116.792 201.859 461.006
301 0 55.3642 12.7519 706 118.391 202.037 463.751
302 0 54.2993 13.5729 737 112.908 199.354 466.592
303 0 57.2881 14.0692 806 111.828 199.262 463.687
304 0 59.2813 16.8013 996 106.784 199.177 465.916
305 0 61.2056 15.0313 920 110.884 198.68 461.934
306 0 63.2843 13.8581 877 112.246 198.223 463.553
307 0 65.1324 15.9061 1036 108.636 198.429 465.527
308 0 68.191 11.3211 772 115.238 197.396 463.912
309 0 70.3257 16.3951 1153 109.016 197.435 462.027
310 0 72.2442 14.3126 1034 113.185 197.797 460.992
311 0 76.1782 14.1379 1077 116.391 199.683 460.145
312 0 77.1703 16.3275 1260 113.69 197.152 457.344
313 0 80.3665 16.5741 1332 112.7 196.611 457.633
314 0 81.194 17.0333 1383 112.189 195.635 456.785
315 0 84.1836 13.2686 1117 117.301 194.838 449.555
316 0 88.3442 17.047 1506 110.992 194.473 450.433
317 0 91.2087 12.4659 1137 117.784 194.428 449.5
318 0 95.3316 19.0913 1820 107.687 192.454 446.6
319 1 49.0941 8.98275 441 112.313 190.912 472.449
320 0 50.3117 12.0847 608 113.163 191.508 464.508
321 0 52.0932 7.71694 402 114.774 191.398 467.104
322 0 54.1954 12.4549 675 109.286 192.484 462.807
323 0 52.158 11.6377 607 108.817 191.231 463.025
324 0 56.2422 12.0194 676 107.238 191.527 459.092
325 0 60.3134 12.3521 745 106.179 192.048 456.062
326 0 63.418 13.7816 874 104.222 191.153 455.2
327 0 64.4454 23.0738 1487 94.3524 191.88 453.394
328 0 65.2175 11.4693 748 107.416 193.103 449.445
329 0 65.0698 9.85097 641 109.097 192.871 450.086
330 0 75.4635 14.7356 1112 106.468 194.628 446.993
331 0 73.3069 13.232 970 109.458 194.114 445.454
332 0 78.383 14.6205 1146 107.638 196.514 441.095
333 0 78.2447 11.349 888 111.073 196.691 444.643
334 0 84.3469 14.9146 1258 105.893 197.743 444.184
335 0 89.4464 13.2146 1182 110.187 198.391 438.629
336 0 87.4937 13.5553 1186 110.53 199.78 436.4
337 0 91.6217 15.1602 1389 108.113 199.867 436.324
338 0 92.4236 14.769 1365 109.303 200.404 436.029
339 0 100.602 17.6736 1778 101.59 201.498 437.856
340 0 101.361 13.6937 1388 107.505 202.701 433.567
341 0 106.277 13.1731 1400 108.264 202.124 434.671
342 1 54.1167 17.3699 940 99.4106 200.739 454.818
343 0 55.0652 13.148 724 102.764 201.717 459.642
344 0 56.1925 13.6851 769 101.337 201.192 463.062
345 0 58.1194 13.2142 768 102.812 203.275 458.592
346 0 60.1741 11.3504 683 104.007 202.403 461.116
347 0 64.1824 10.8441 696 104.024 203.116 459.509
348 0 63.4094 9.71465 616 106.61 202.331 457.076
349 0 68.3655 13.6911 936 101.268 202.308 461.374
350 0 68.2869 10.6316 726 106.559 201.942 459.556
351 0 73.2712 11.3551 832 105.726 201.576 453.136
352 0 72.3309 12.429 899 103.505 200.174 461.075
353 0 77.307 15.9494 1233 102.538 199.808 456.66
354 0 78.2066 15.459 1209 103.337 199.119 457.701
355 0 81.1235 10.5272 854 107.34 198.843 457.687
356 0 92.4944 13.017 1204 102.705 198.983 459.39
357 0 87.1696 12.9862 1132 107.829 197.746 445.453
358 0 91.5894 15.2856 1400 103.294 198.667 452.259
359 0 94.4914 15.176 1434 105.876 198.492 445.591
360 0 96.6064 13.6637 1320 107.794 198.423 444.064
361 0 99.4827 13.5099 1344 107.014 197.263 445.477
362 1 52.1082 12.7043 662 105.384 198.077 465.003
363 0 51.0464 8.11027 414 109.232 196.198 463.481
364 0 53.1029 10.3196 548 106.633 195.748 464.495
365 0 58.0811 15.1168 878 99.9488 196.915 463.929
366 0 60.2235 13.3171 802 102.883 196.567 461.309
367 0 62.1942 14.5512 905 102.987 196.379 455.413
368 0 61.2141 14.7678 904 103.632 195.946 455.238
369 0 64.1516 12.6263 810 105.064 195.412 453.519
370 0 68.2497 12.2491 836 104.809 195.817 456.358
371 0 71.2112 11.9223 849 106.346 196.786 449.499
372 0 70.177 14.6202 1026 104.618 196.941 443.957
373 1 146.43 19.9686 2924 105.187 196.991 408.937
374 0 154.691 17.2861 2674 107.912 198.553 403.364
375 1 78.288 11.5982 908 109.565 198.526 443.465
376 0 80.3652 12.6547 1017 109.159 198.288 443.189
377 0 85.3032 13.2351 1129 110.062 199.831 440.189
378 0 87.4996 14.9829 1311 109.092 199.952 437.143
379 0 90.3587 15.4274 1394 109.977 201.016 434.478
380 0 93.4125 15.2977 1429 112.237 201.604 432.661
381 0 94.4046 12.0863 1141 116.767 202.078 432.546
382 0 98.6954 14.0939 1391 113.944 202.397 434.756
383 0 101.655 12.0408 1224 118.684 203.537 430.789
384 0 107.577 12.67 1363 116.671 203.315 433.593
385 0 109.588 17.4015 1907 108.315 203.915 432.951
386 1 61.2179 15.5183 950 106.061 204.039 458.385
387 0 62.2562 18.3757 1144 105.116 204.439 453.879
388 0 63.082 13.2367 835 108.792 206.067 455.159
389 0 69.3827 19.169 1330 104.568 203.883 456.503
390 0 66.0499 17.6382 1165 107.02 203.411 457.033
391 0 68.1693 12.1169 826 114.631 203.781 457.196
392 0 73.1152 15.7833 1154 109.249 203.917 453.346
393 0 74.1895 12.7781 948 114.665 202.13 451.552
394 0 76.3113 13.0387 995 113.279 202.082 455.661
395 0 80.2069 14.0262 1125 111.073 201.516 452.586
396 0 82.1824 13.3605 1098 113.635 202.017 454.747
397 0 82.1519 12.0265 988 115.813 202.783 451.72
398 0 88.2882 16.4688 1454 108.342 200.3 454.117
399 0 89.3309 11.6645 1042 113.652 200.509 454.878
400 0 92.3247 13.7016 1265 111.626 199.923 454.281
401 0 96.4686 13.7765 1329 112.883 198.154 449.454
402 1 51.5454 12.746 657 111.651 198.126 465.849
403 0 51.3062 10.7979 554 115.874 197.937 467.935
404 0 51.2704 11.6051 595 114.842 198.269 468.23
405 0 54.0581 13.393 724 115.006 197.207 466.068
406 0 56.1012 13.9213 781 106.268 195.881 465.186
407 0 57.0736 10.1098 577 113.286 195.503 462.458
408 0 58.122 9.49726 552 113.303 195.915 464.355
409 0 61.2033 14.7051 900 107.477 196.443 455.123
410 0 64.0822 15.7922 1012 109.312 194.509 455.619
411 0 66.1883 12.7817 846 113.421 195.258 455.319
412 0 66.1212 13.5963 899 112.152 195.348 455.968
413 0 72.1686 18.1381 1309 104.494 195.147 455.655
414 0 72.2395 10.9912 794 117.491 195.657 448.332
415 0 77.1189 14.9509 1153 109.803 196.456 449.533
416 0 77.1491 16.0468 1238 108.831 197.192 446.93
417 0 78.1062 13.1232 1025 114.529 195.996 443.409
418 0 84.129 15.3217 1289 110.313 196.718 443.174
419 0 89.2513 16.5936 1481 108.51 197.728 436.739
420 0 89.1407 14.9988 1337 111.565 198.151 437.614
421 0 92.4313 12.8961 1192 114.924 199.033 433.445
422 0 94.3978 11.8011 1114 116.182 199.214 431.738
423 1 49.0221 12.321 604 108.429 199.919 457.57
424 0 49.0562 12.0066 589 108.684 198.319 454.005
425 0 51.4304 11.1413 573 112.033 202.977 450.429
426 0 53.0834 13.978 742 102.148 202.806 460.625
427 0 54.1032 13.0676 707 104.885 202.784 453.379
428 0 55.3166 10.8105 598 107.074 203.176 458.122
429 0 57.1631 10.2339 585 108.47 205.383 454.884
430 0 61.0989 13.9119 850 101.941 205.754 458.791
431 0 62.1037 14.0571 873 103.604 204.407 457.307
432 0 62.1037 14.1054 876 119.438 203.409 457.275
433 0 66.1679 12.5892 833 103.495 204.126 457.641
434 0 68.2011 9.72125 663 108.13 205.299 452.225
435 0 72.1347 13.4748 972 105.772 204.512 455.956
436 0 76.1245 12.1643 926 109.124 204.814 450.928
437 0 76.3195 11.5829 884 108.949 204.206 457.968
438 0 79.2217 12.6985 1006 108.024 204.357 450.071
439 0 81.1215 9.12212 740 111.257 203.369 446.62
440 1 40.1773 10.5283 423 106.957 203.05 473.317
441 0 43.3141 15.5146 672 99.1414 200.738 472.022
442 0 42.2625 12.1857 515 103.854 199.25 469.204
443 0 42.1393 13.1943 556 100.565 201.799 475.117
444 0 42.0606 12.1729 512 102.967 200.58 470.328
445 0 48.1319 16.7872 808 95.948 199.304 467.564
446 0 45.0283 9.74943 439 106.2 199.401 467.173
447 0 53.2462 5.08956 271 110.531 199.661 474.421
448 0 51.2368 9.71958 498 105.016 199.39 468.392
449 0 51.2357 12.1595 623 103.804 198.291 465.209
450 0 52.3393 10.9287 572 106.434 197.246 464.469
451 0 56.2125 12.2215 687 103.476 197.159 462.715
452 1 121.479 15.3195 1861 105.098 196.478 432.19
453 1 58.13 11.3195 658 103.682 196.471 464.106
454 0 64.2898 13.6102 875 101.258 196.578 458.499
455 0 64.1986 12.6794 814 102.796 196.345 454.972
456 0 65.363 14.3353 937 100.049 196.12 458.606
457 0 68.3346 18.8045 1285 95.8241 195.982 449.753
458 0 71.2067 18.4533 1314 95.4688 195.687 450.685
459 0 74.4096 16.678 1241 95.7478 195.821 450.56
460 0 76.3714 15.0318 1148 103.126 197.044 448.845
461 0 78.6494 17.3428 1364 101.743 197.004 446.68
462 0 81.5254 16.5838 1352 102.696 197.667 445.096
463 0 84.7881 18.7172 1587 97.2111 197.778 443.77
464 0 85.4792 13.2079 1129 102.548 198.112 439.215
465 0 88.2482 13.8473 1222 99.9394 198.42 447.149
466 0 88.7476 10.4453 927 105.033 199.451 443.725
467 0 93.5175 10.2868 962 106.161 199.498 439.149
468 1 49.504 13.3524 661 99.351 199.991 457.058
469 0 51.13 9.81812 502 101.753 201.371 464.584
470 0 54.1837 10.3537 561 101.756 200.984 461.692
471 0 57.2116 11.9556 684 101.442 201.902 460.823
472 0 57.08 9.63559 550 103.422 202.589 463.86
473 0 58.1038 13.1145 762 101.215 201.955 458.925
474 0 61.4598 13.0166 800 102.091 202.275 462.605
475 0 63.3038 14.4699 916 99.452 201.517 464.192
476 0 64.2169 10.8071 694 106.269 201.921 461.454
477 0 67.2663 12.116 815 104.175 201.585 462.106
478 0 72.3179 14.3118 1035 101.593 200.585 461.792
479 0 75.4986 14.9672 1130 101.32 199.977 460.929
480 0 73.2189 12.2373 896 105.214 199.41 465.206
481 0 77.3018 15.2002 1175 101.934 198.106 461.325
482 0 81.4344 14.5639 1186 103.695 198.557 458.486
483 0 84.4238 13.7402 1160 105.633 197.68 458.784
484 1 47.1557 12.9783 612 103.596 198.471 480.162
485 0 48.2432 13.0796 631 105.252 196.249 479.675
486 0 48.1449 13.2309 637 108.832 194.703 475.59
487 0 48.2436 12.6027 608 108.842 193.914 472.64
488 0 52.139 11.3351 591 112.998 196.289 474.073
489 0 54.047 14.4689 782 108.237 195.834 472.207
490 0 56.2327 12.3416 694 110.872 195.706 474.546
491 0 57.1906 11.995 686 111.077 194.357 475.669
492 0 58.1996 13.8489 806 109.459 193.891 471.186
493 0 61.1482 16.5663 1013 105.097 193.206 469.049
494 0 59.2868 14.3034 848 110.259 192.971 468.736
495 0 62.1827 12.608 784 112.897 192.087 465.917
496 0 65.3009 13.5833 887 110.401 191.398 465.068
497 0 66.2962 14.1336 937 109.302 191.035 464.848
498 0 70.373 18.3735 1293 102.896 189.559 463.629
499 0 69.29 14.5042 1005 110.828 190.735 456.877
500 0 69.1473 12.2347 846 114.301 191.401 456.782
501 0 75.5703 15.8925 1201 109.15 192.45 451.344
502 0 79.2613 19.3411 1533 103.74 192.806 454.98
503 0 80.3172 13.6334 1095 113.549 193.422 449.351
504 0 81.4542 12.7188 1036 114.607 193.334 447.19
505 0 84.273 14.4412 1217 111.313 194.309 448.242
506 0 89.3311 17.5974 1572 105.715 194.983 444.852
507 0 92.3698 15.557 1437 105.178 195.451 445.708
508 0 93.2471 15.2284 1420 108.447 197.313 437
509 0 97.2571 15.3099 1489 106.013 197.226 442.688
510 1 50.1046 6.54631 328 112.015 195.226 465.579
511 0 54.2668 11.3882 618 104.489 196.196 463.725
512 0 55.1262 13.4056 739 105.551 199.195 458.85
513 0 57.2259 14.801 847 102.018 200.728 465.262
514 0 61.1767 16.0846 984 102.487 200.746 457.821
515 0 60.0714 15.4982 931 104.745 201.679 464.159
516 0 62.1659 13.7213 853 107.288 202.018 461.199
517 0 65.4117 19.4461 1272 98.8349 201.29 464.471
518 0 68.3972 19.4452 1330 99.1248 201.711 460.99
519 0 70.3028 11.1233 782 107.762 202.637 467.785
520 0 73.4732 11.7049 860 109.124 200.915 465.09
521 0 73.376 9.11743 669 113.377 200.822 464.323
522 0 80.2524 17.9434 1440 102.085 199.319 460.278
523 0 79.1907 13.4864 1068 108.589 199.31 462.327
524 0 82.4268 14.3643 1184 108.78 199.046 456.834
525 0 82.2648 10.8795 895 115.123 198.457 458.708
526 0 91.2855 15.7856 1441 105.652 198.325 460.283
527 0 93.4099 13.5318 1264 110.84 197.282 456.998
528 0 95.316 13.6913 1305 111.497 197.158 459.418
529 1 51.1391 11.9087 609 112.47 198.033 474.734
530 0 53.1046 10.6959 568 114.65 197.026 475.826
531 0 55.1684 13.6672 754 110.236 195.239 474.78
532 0 56.0521 12.8809 722 111.929 193.173 473.327
533 0 60.4926 12.8115 775 111.008 194.16 470.125
534 0 61.2256 13.5074 827 110.7 192.872 470.111
535 0 62.0961 12.996 807 110.653 191.965 471.727
536 0 63.064 15.841 999 105.744 191.951 470.092
537 0 69.2205 21.352 1478 99.1604 192.89 465.459
538 0 67.1239 11.3521 762 114.925 192.777 466.853
539 0 69.0953 11.6216 803 114.377 193.126 463.376
540 0 71.1274 12.6252 898 113.738 191.689 461.011
541 0 74.2169 14.5924 1083 110.263 191.372 459.188
542 0 78.1006 13.3546 1043 112.354 191.893 453.999
543 0 82.1179 15.9527 1310 108.424 192.305 451.769
544 1 163.667 13.8146 2261 114.039 191.234 417.671
545 0 168.044 17.5669 2952 109.152 192.423 408.478
546 0 172.701 15.0317 2596 112.826 192.736 404.067
547 1 93.2929 17.4933 1632 102.519 193.718 452.197
548 1 47.2324 14.2275 672 104.6 194.829 468.213
549 0 49.1594 14.3004 703 104.161 195.661 464.457
550 0 51.1009 13.0135 665 105.505 194.875 464.507
551 0 53.273 13.8344 737 106.776 192.885 464.905
552 0 51.1735 15.6917 803 101.692 195.163 464.167
553 0 52.1216 13.9865 729 104.08 196.119 465.667
554 0 56.0612 13.9312 781 103.137 197.328 466.287
555 0 54.0646 10.099 546 110.366 197.201 463.132
556 0 59.1663 10.9522 648 106.75 199.83 463.474
557 0 64.1154 17.9988 1154 98.344 200.109 457.509
558 0 64.2315 12.3771 795 104.514 201.21 466.875
559 0 64.1437 15.7459 1010 101.576 199.838 462.409
560 0 70.1482 10.8912 764 106.171 199.636 467.012
561 0 72.068 11.5308 831 106.995 198.864 462.835
562 0 73.1674 14.1183 1033 106.962 201.289 464.507
563 0 76.074 15.3666 1169 106.322 199.783 460.154
564 0 75.2075 12.1265 912 106.522 198.947 467.58
565 0 78.1754 11.8707 928 108.898 199.815 459.985
566 0 80.104 14.4063 1154 104.666 198.929 459.117
567 0 90.3036 18.3714 1659 96.4262 199.101 462.631
568 0 89.1571 12.0125 1071 105.414 198.983 462.01
569 0 91.2675 11.8005 1077 105.059 198.322 464.151
570 0 94.1893 16.6473 1568 100.889 198.016 457.773
571 0 96.1226 12.4841 1200 106.782 197.678 455.468
572 0 103.363 17.5981 1819 99.7235 196.835 447.435
573 0 104.458 10.588 1106 107.386 196.185 452.987
574 0 106.397 11.3255 1205 106.846 195.727 449.229
575 0 111.156 13.5575 1507 102.987 194.309 444.506
576 0 117.215 12.4472 1459 102.51 193.572 449.432
577 0 120.411 10.896 1312 105.409 193.634 444.762
578 0 121.012 11.065 1339 106.937 192.655 444.113
579 0 129.011 13.6345 1759 103.252 192.506 436.007
580 0 130.558 11.3666 1484 105.206 191.828 431.699
581 1 72.3872 15.3066 1108 100.767 192.365 460.903
582 0 72.2307 14.5644 1052 103.088 192.147 459.399
583 0 76.2558 16.9167 1290 99.8333 191.833 456.049
584 0 78.3003 13.9335 1091 104.443 191.633 453.213
585 0 81.3576 14.6145 1189 103.182 192.112 455.749
586 0 82.2838 11.278 928 108.46 193.108 454.642
587 0 85.2406 12.2242 1042 108.177 193.005 448.336
588 0 90.4273 15.7696 1426 103.259 192.115 450.639
589 0 92.284 15.073 1391 105.588 191.045 442.144
590 0 95.4066 15.1771 1448 105.355 191.703 442.875
591 1 49.1561 16.2543 799 99.0688 191.663 468.313
592 0 48.028 9.0364 434 107.532 192.025 469.023
593 0 49.1217 11.8481 582 108.07 193.622 463.299
594 0 54.0922 13.9761 756 104.444 194.36 461.337
595 0 56.1375 17.3503 974 100.127 194.934 462.861
596 0 58.116 13.2838 772 105.297 195.016 465.69
597 0 58.1251 13.9011 808 105.499 196.225 463.113
598 0 59.0839 12.0845 714 107.819 197.276 461.105
599 0 61.1539 14.8478 908 103.959 197.414 460.195
600 0 65.1739 16.0187 1044 102.213 198.115 458.184
601 0 67.1699 15.1854 1020 102.111 197.732 462.634
602 0 68.1772 14.2863 974 103.992 197.939 461.036
603 0 71.1286 14.0169 997 103.153 197.481 461.545
604 0 73.0662 16.314 1192 101.015 198.381 458.393
605 0 76.0926 16.6771 1269 99.9385 198.035 461.413
606 0 76.2366 14.8616 1133 101.982 197.722 462.178
607 0 79.1071 17.9124 1417 99.6083 197.452 457.459
608 0 84.1623 14.6384 1232 103.204 196.201 456.742
609 0 85.2505 12.8093 1092 105.557 196.82 458.104
610 0 89.1321 12.5544 1119 105.438 196.933 459.708
611 0 91.2516 12.5696 1147 105.656 196.21 461.554
612 0 93.3456 17.4406 1628 100.222 196.664 453.577
613 1 51.6683 13.3738 691 99.0695 195.861 483.841
614 0 49.1225 12.7844 628 103.174 195.653 479.358
615 0 51.3443 19.5153 1002 94.5369 196.141 477.977
616 0 53.408 12.2454 654 103.249 195.375 474.94
617 0 54.1583 12.722 689 103.353 191.682 475.263
618 0 55.1074 14.5171 800 101.382 193.674 472.455
619 0 58.1816 10.3469 602 106.38 192.684 472.558
620 0 59.1222 14.377 850 101.251 191.572 471.086
621 0 59.1886 12.4855 739 103.77 191.037 470.888
622 0 63.1951 16.0614 1015 99.3153 190.928 465.141
623 0 64.1165 12.4461 798 103.609 190.662 466.343
624 0 65.109 11.1352 725 106.305 190.623 462.156
625 0 68.3442 13.7246 938 103.005 190.077 463.189
626 0 70.2089 17.3625 1219 99.0418 189.664 459.074
627 0 72.1841 13.05 942 104.981 188.197 458.086
628 0 75.0712 21.1932 1591 94.8844 189.231 460.603
629 0 77.3312 14.8194 1146 102.941 189.955 455.004
630 0 80.1708 19.8451 1591 95.4042 190.637 454.095
631 0 82.2029 16.1308 1326 100.71 190.821 451.97
632 0 85.2011 16.8073 1432 100.068 191.379 447.922
633 0 85.2011 16.7721 1429 122.707 192.346 447.657
634 0 88.3132 12.852 1135 106.419 192.259 443.834
635 0 91.2094 11.4243 1042 107.731 193.927 446.612
636 1 47.126 9.61252 453 110.528 193.759 465.294
637 0 51.2534 12.3114 631 108.867 194.491 462.674
638 0 53.3228 16.147 861 102.321 197.228 466.594
639 0 54.0858 13.9408 754 101.252 196.523 461.412
640 0 53.0987 11.3185 601 103.895 197.295 465.642
641 0 56.1158 14.2028 797 100.336 196.486 468.108
642 0 59.1212 15.409 911 99.9627 197.035 465.404
643 0 59.0653 11.3772 672 104.888 198.167 462.097
644 0 63.2841 15.1381 958 98.644 198.759 465.639
645 0 65.2598 13.8064 901 100.62 199.499 463.617
646 0 71.1457 16.4592 1171 97.4774 198.892 459.965
647 0 73.2661 15.7099 1151 102.836 197.797 458.811
648 0 78.1555 15.3028 1196 102.433 197.131 460.792
649 0 79.1946 17.5643 1391 99.7282 198.466 462.702
650 0 79.1141 13.6259 1078 101.663 198.176 464.895
651 1 40.0579 13.1559 527 104.38 197.727 482.355
652 0 43.0906 14.0866 607 102.221 198.181 480.287
653 0 45.2838 17.843 808 95.7859 197.999 483.37
654 0 44.3848 13.1126 582 106.488 197.242 483.12
655 0 48.2302 13.6844 660 106.7 196.917 481.389
656 0 48.1914 11.7241 565 111.504 196.126 479.825
657 0 50.3669 14.1561 713 107.208 194.927 479.429
658 0 54.4482 18.9721 1033 99.2894 195.128 480.714
659 0 54.3315 13.3624 726 109.211 194.313 477.682
660 0 58.3196 20.5763 1200 99.0142 194.448 471.379
661 0 56.2649 12.7788 719 112.252 193.104 474.747
662 0 59.0451 14.6837 867 108.407 195.007 475.347
663 0 60.0743 12.4679 749 112.709 194.68 471.81
664 0 63.2451 13.9932 885 104.924 193.893 463.98
665 0 65.2709 15.9795 1043 103.206 192.24 467.393
666 0 65.1597 15.4236 1005 105.3 192.738 465.047
667 0 67.0731 15.4309 1035 105.73 191.942 464.103
668 0 70.2526 14.7468 1036 106.573 191.578 462.282
669 0 74.2952 13.1099 974 110.595 190.259 460.759
670 0 76.227 16.3328 1245 106.74 191.446 457.876
671 0 75.2168 12.4706 938 113.479 192.083 458.336
672 0 77.3818 21.6201 1673 102.437 191.566 455.317
673 0 78.1774 15.1194 1182 110.898 192.534 451.293
674 0 81.2965 13.8136 1123 113.67 192.72 452.803
675 0 86.3962 14.9891 1295 109.579 192.553 453.217
676 0 88.3754 15.6152 1380 110.056 193.756 452.012
677 1 40.1681 11.7506 472 119.506 196.422 467.881
678 0 41.4357 15.518 643 113.529 196.93 467.773
679 0 44.2409 14.8957 659 114.583 196.98 468.938
680 0 42.261 14.7417 623 117.64 197.982 465.339
681 0 46.2438 21.4515 992 106.975 197.307 467.287
682 0 47.3446 17.0875 809 113.103 198.498 468.629
683 0 47.3406 14.5118 687 120.213 199.84 470.787
684 0 48.1323 18.8439 907 113.126 199.877 470.168
685 0 51.3707 15.2227 782 119.403 200.486 468.986
686 0 51.2863 15.4622 793 120.788 199.578 469.245
687 0 54.3891 16.1613 879 119.618 200.115 466.786
688 0 55.1801 16.3102 900 119.032 199.819 470.199
689 0 58.5378 14.5547 852 123.863 199.669 466.248
690 0 61.3012 16.3945 1005 119.031 200.196 470.376
691 0 62.2 15.1286 941 123.638 200.255 468.925
692 0 65.3499 16.4193 1073 122.177 199.266 468.238
693 0 69.4071 16.6698 1157 119.335 199.165 470.975
694 0 69.405 18.2119 1264 119.167 198.843 467.619
695 0 74.4608 17.2171 1282 119.473 198.565 467.558
696 0 73.4176 15.7455 1156 123.848 198.263 468.655
697 0 75.4726 15.8071 1193 124.447 198.903 466.922
698 0 81.5881 19.5126 1592 116.741 198.219 466.251
699 0 87.7062 15.2669 1339 121.881 197.585 462.603
700 0 86.2077 22.5734 1946 110.708 196.812 458.157
701 0 90.8195 22.0547 2003 111.369 195.97 463.394
702 1 41.5165 15.8009 656 124.433 195.8 484.534
703 0 44.2186 17.8658 790 121.509 195.608 482.77
704 0 44.5927 15.2715 681 128.104 195.786 481.28
705 0 45.4429 16.2182 737 126.346 195.136 479.82
706 0 47.1721 16.8532 795 124.925 194.433 479.914
707 0 47.3574 18.2654 865 123.906 193.877 476.836
708 0 50.3637 16.6191 837 126.18 193.536 476.575
709 0 53.5476 16.6394 891 125.587 193.284 474.599
710 0 52.2384 19.6407 1026 122.023 192.629 472.681
711 0 56.3826 16.9733 957 124.882 193.426 471.705
712 0 58.8281 24.9711 1469 111.449 191.935 470.466
713 0 59.3061 16.9797 1007 126.325 193.148 468.337
714 0 60.3007 15.8041 953 128.905 191.816 465.242
715 0 60.4915 16.928 1024 127.513 192.06 462.993
716 0 64.44 17.6288 1136 124.863 192.774 463.959
717 0 64.3438 15.4327 993 130.541 193.639 463.564
718 0 70.3976 18.083 1273 123.804 193.053 462.001
719 0 71.471 16.4682 1177 127.139 194.024 459.41
720 0 71.1989 17.4581 1243 127.088 193.337 459.235
721 0 75.4991 16.7684 1266 127.179 194.763 458.303
722 0 77.3824 17.7301 1372 124.756 195.312 455.108
723 0 79.4164 16.7598 1331 126.824 196.636 455.809
724 1 36.1746 11.0851 401 135.402 197.863 475.414
725 0 40.4575 14.6821 594 128.032 197.837 475.579
726 0 39.1932 13.8289 542 132.059 198.133 472.232
727 0 41.2882 14.2171 587 131.177 199.136 473.116
728 0 43.1764 12.53 541 134.464 199.431 473.904
729 0 44.2382 17.7449 785 124.517 199.801 473.592
730 0 47.1782 16.0667 758 127.901 201.03 472.674
731 0 47.3726 16.4019 777 129.264 200.335 472.557
732 0 49.3357 14.1277 697 131.908 200.445 475.848
733 0 49.3088 14.5816 719 133.414 199.702 475.223
734 0 53.1064 16.8529 895 124.913 199.693 478.451
735 0 52.1737 16.3301 852 131.725 199.617 473.795
736 0 56.1797 15.041 845 130.041 198.675 475.582
737 0 55.0687 15.5079 854 132.885 199.488 474.698
738 0 57.2806 16.2883 933 131.707 198.868 473.339
739 0 60.257 15.6828 945 131.158 198.833 474.581
740 0 64.1512 19.797 1270 123.541 198.145 472.404
741 0 64.2005 16.9158 1086 130.041 198.556 472.652
742 0 64.1417 16.5727 1063 132.178 197.722 467.757
743 0 69.1973 18.6713 1292 125.832 197.95 471.33
744 0 71.249 16.4634 1173 130.793 197.59 469.568
745 0 71.0952 16.3021 1159 133.148 196.15 465.76
746 0 76.1082 15.1495 1153 132.553 196.195 467.168
747 0 77.2709 16.3322 1262 131.978 195.888 464.376
748 0 80.1882 17.01 1364 130.265 195.649 460.298
749 0 84.205 15.771 1328 132.791 195.196 458.755
750 0 86.4094 17.0352 1472 129.586 194.346 457.235
751 1 44.0975 14.3092 631 128.916 195.399 476.216
752 0 44.1201 15.3671 678 124.935 194.819 474.864
753 0 45.1527 12.5795 568 133.002 194.588 470.495
754 0 48.0491 13.7568 661 129.673 194.992 469.023
755 0 48.1281 13.6926 659 130.583 195.564 468.833
756 0 50.0827 13.6774 685 131.022 194.853 467.204
757 0 51.2264 15.2656 782 128.958 193.974 465.797
758 0 52.3311 16.0134 838 127.542 193.907 464.371
759 0 56.3598 15.1881 856 127.918 194.393 462.174
760 0 56.5274 14.347 811 130.195 195.039 459.993
761 0 55.504 11.7829 654 136.08 194.815 458.63
762 1 35.1934 12.1045 426 125.624 197.031 469.977
763 0 36.1025 12.2706 443 121.959 196.569 470.837
764 0 37.3184 12.4871 466 121.665 196.53 472.341
765 0 37.2048 12.4446 463 123.162 197.676 467.287
766 0 41.4457 12.643 524 120.032 197.309 468.712
767 0 41.3638 14.1186 584 118.945 198.111 468.091
768 0 40.1096 12.1916 489 123.37 198.401 466.378
769 0 43.4205 8.82072 383 127.319 198.146 470.01
770 0 46.3021 8.37976 388 125.361 199.309 470.647
771 0 47.333 11.493 544 122.665 199.252 466.818
772 0 49.3838 10.388 513 123.142 199.435 467.828
773 0 47.1107 9.36092 441 124.61 198.955 467.948
774 0 50.1501 11.9641 600 119.127 199.993 470.247
775 0 54.0792 12.9255 699 117.389 200.298 468.948
776 0 55.1999 11.6305 642 118.363 200.491 470.064
777 0 56.1302 8.33776 468 123.782 201.021 470.436
778 0 60.302 9.13734 551 120.368 200.111 472.02
779 0 63.5409 11.8664 754 118.538 200.349 469.592
780 1 102.564 12.9382 1327 135.511 200.816 440.13
781 0 106.844 15.8829 1697 130.917 200.479 441.137
782 1 66.2609 11.1831 741 117.829 200.974 470.849
783 0 66.2744 11.7692 780 120.395 200.995 467.428
784 0 70.379 10.5571 743 122.6 199.277 467.008
785 0 69.5935 10.3889 723 123.921 198.822 463.017
786 1 39.3625 11.5592 455 119.888 198.996 482.262
787 0 38.3935 9.45473 363 122.623 197.89 483.096
788 0 40.3366 12.8171 517 119.052 198.279 479.298
789 0 40.2715 8.3682 337 128.217 197.211 478.457
790 0 42.1224 11.2054 472 112.858 197.07 480.898
791 0 39.063 8.57588 335 119.576 195.119 476.845
792 0 42.0728 12.3358 519 114.304 194.723 477.185
793 1 153.265 17.46 2676 127.904 194.148 422.312
794 0 156.255 16.2043 2532 131.016 194.508 412.141
795 0 163.448 15.6441 2557 130.504 194.628 406.409
796 0 168.105 15.0798 2535 131.004 192.855 397.913
797 1 100.777 10.9449 1103 118.707 193.219 445.793
798 0 104.516 11.2901 1180 119.51 193.115 441.108
799 0 103.478 11.2004 1159 119.061 192.726 440.338
800 0 105.956 12.6751 1343 113.757 194.319 448.788
801 0 112.892 14.6689 1656 114.199 193.95 435.461
802 1 54.2789 9.28538 504 118.829 194.222 459.891
803 0 58.2618 11.105 647 117.482 195.005 460.801
804 0 60.3204 12.2678 740 118.68 194.899 458.162
805 0 64.2899 14.8546 955 114.279 195.926 458.287
806 0 66.4557 14.551 967 116.543 196.149 456.668
807 0 67.3308 13.5302 911 119.35 197.874 455.735
808 0 68.5756 13.6492 936 118.253 197.238 455.974
809 0 67.409 10.9629 739 124.76 197.947 455.181
810 0 73.4748 10.0851 741 124.555 198.758 455.826
811 0 73.4246 9.84684 723 126.272 198.371 452.849
812 0 74.3709 10.8779 809 124.494 198.69 453.812
813 0 78.2787 11.2547 881 124.569 199.487 453.089
814 0 81.4596 11.6131 946 125.248 199.651 451.833
815 0 84.5878 12.3658 1046 125.224 200.652 451.51
816 0 84.3037 11.3993 961 131.935 200.015 453.126
817 0 87.5424 12.2455 1072 127.73 201.32 457.211
818 0 87.2581 13.7752 1202 124.28 200.77 457.512
819 0 88.3797 15.3429 1356 124.299 201.003 456.074
820 0 90.8943 11.0678 1006 132.839 200.469 451.236
821 1 192.904 13.6856 2640 133.125 200.507 400.067
822 0 198.016 15.6199 3093 130.447 200.949 403.121
823 0 198.303 13.6458 2706 133.707 200.112 412.303
824 1 51.9723 11.7178 609 128.509 198.452 474.831
825 0 54.9014 12.058 662 127.604 198.127 474.915
826 0 55.6943 12.7661 711 126.664 197.255 471.776
827 0 55.4423 7.97225 442 134.952 198.353 471.097
828 0 59.9752 11.188 671 131.392 197.146 469.177
829 0 63.1035 13.0579 824 125.625 196.483 470.096
830 0 64.1048 10.4204 668 132.967 195.506 465.762
831 0 65.1099 10.4132 678 132.954 196.211 466.72
832 0 67.1702 11.6867 785 132.215 195.404 465.078
833 1 167.028 13.5786 2268 139.193 195.852 414.957
834 0 167.18 13.6141 2276 140.42 195.638 419.468
835 1 41.5508 7.89395 328 119.912 194.299 475.265
836 0 45.3643 9.58903 435 116.68 192.752 473.483
837 0 46.5326 12.4214 578 113.007 194.209 472.867
838 0 49.6772 11.3734 565 115.044 194.347 473.301
839 0 47.2239 10.0373 474 123.949 194.414 466.606
840 0 50.5698 11.8055 597 118.903 194.054 466.92
841 0 52.4083 11.2005 587 117.496 193.405 467.935
842 0 53.6747 11.3089 607 118.868 193.035 465.056
843 0 53.848 11.5325 621 119.464 193.783 459.187
844 0 55.8369 10.9068 609 125.107 193.993 457.189
845 0 55.0329 7.68631 423 125.787 195 462.574
846 0 58.1261 10.4944 610 120.125 194.705 459.639
847 0 58.8856 9.44204 556 120.462 195.509 458.392
848 0 59.6382 8.70247 519 118.611 196.056 460.518
849 0 60.9583 11.0075 671 117.738 195.085 456.852
850 0 61.7121 10.7758 665 117.57 195.798 454.802
851 0 67.2807 15.205 1023 112.093 196.333 448.769
852 0 68.5351 11.5999 795 115.862 196.336 453.658
853 0 68.8946 9.02828 622 119.338 197.516 453.151
854 0 69.8836 12.2633 857 117.532 198.093 450.295
855 0 72.0853 11.8471 854 118.895 199.254 448.382
856 0 76.7509 16.1171 1237 110.838 199.256 450.767
857 0 77.9441 9.63511 751 120.517 200.197 449.166
858 1 38.4659 10.6588 410 114.517 199.437 470.485
859 0 41.7253 10.9046 455 114.365 200.879 470.24
860 0 39.436 8.34263 329 119.03 201.027 473.733
861 0 40.1701 12.0239 483 115.52 201.944 471.553
862 0 45.3056 11.588 525 118.408 201.415 472.964
863 0 46.1638 12.369 571 120.926 201.007 474.172
864 0 46.0099 11.9105 548 122.622 199.283 471.42
865 0 47.0873 12.3175 580 121.336 200.166 474.859
866 0 50.0696 13.7608 689 118.44 197.917 471.554
867 0 50.2239 15.3513 771 116.114 200.326 470.001
868 0 49.3261 11.0692 546 125.035 199.262 471.604
869 0 52.0805 11.8854 619 122.317 198.04 475.464
870 0 53.1786 16.2283 863 114.079 198.604 474.867
871 0 53.3057 13.5445 722 116.94 198.022 478.15
872 0 54.2899 11.7149 636 124.031 197.983 472.318
873 0 56.3104 13.319 750 122.264 196.836 468.528
874 0 58.1903 15.3977 896 118.107 196.554 471.282
875 0 59.2258 12.427 736 122.562 195.677 469.884
876 0 61.2625 14.2012 870 120.797 195.043 466.348
877 0 62.2368 11.633 724 126.137 194.852 466.515
878 0 64.2883 14.5905 938 119.104 194.744 465.64
879 0 67.1653 13.8464 930 120.984 195.263 463.145
880 0 68.1671 13.2909 906 122.321 195.057 460.946
881 0 71.1696 14.1352 1006 120.798 194.858 460.68
882 0 71.2207 12.1594 866 125.158 195.47 453.471
883 0 75.2694 13.4317 1011 122.591 195.271 455.899
884 0 79.1785 15.3198 1213 119.547 195.372 451.098
885 0 81.3224 13.9691 1136 120.423 195.281 455.097
886 0 82.3936 10.6926 881 125.947 194.453 452.463
887 1 45.0587 13.6267 614 118.554 193.686 467.278
888 0 45.0125 11.7301 528 121.292 193.996 466.858
889 0 49.2476 16.1226 794 113.472 196.125 463.992
890 0 49.4313 14.0599 695 120.77 196.694 456.891
891 0 52.4804 13.0144 683 122.111 196.753 457.608
892 0 52.1901 12.6461 660 124.311 197.295 457.076
893 0 55.4292 14.4148 799 119.268 197.981 455.079
894 0 55.1545 14.4503 797 121.355 197.354 444.498
895 0 56.2769 11.4256 643 126.812 198.409 447.767
896 0 56.2453 12.9255 727 125.283 199.128 449.22
897 0 61.3305 15.18 931 119.672 199.425 451.716
898 0 63.1946 14.9696 946 119.27 199.49 455.263
899 0 63.0719 14.1902 895 122.372 198.741 458.258
900 0 66.061 15.6673 1035 114.375 200.257 461.328
901 0 66.064 13.9107 919 119.781 200.441 458.922
902 0 72.0859 14.4411 1041 119.245 199.137 459.151
903 0 74.0797 16.8872 1251 115.549 200.022 459.202
904 0 76.1411 17.3888 1324 113.974 200.021 455.259
905 0 79.1536 15.7415 1246 118.263 200.461 452.913
906 0 81.1425 14.4068 1169 121.248 199.859 451.558
907 0 84.2965 17.5215 1477 114.462 199.723 454.16
908 0 85.074 13.212 1124 120.767 199.325 456.98
909 1 44.0776 10.0278 442 124.837 199.023 476.059
910 0 46.1201 12.1205 559 119.333 199.517 475.123
911 0 48.1342 12.5275 603 116.655 200.051 476.793
912 0 49.1286 17.0776 839 107.497 200.521 479.771
913 0 52.0949 18.4471 961 107.918 198.787 475.472
914 0 53.0801 13.1499 698 119.347 197.556 474.248
915 0 54.0511 12.2477 662 121.455 196.974 474.106
916 0 56.1538 12.1274 681 120.438 194.49 472.884
917 0 57.1263 13.3389 762 118.202 194.218 471.22
918 0 58.1237 10.1852 592 123.184 194.106 472.269
919 0 64.1874 14.3486 921 112.412 194.152 466.559
920 0 73.3525 16.8638 1237 105.15 193.593 461.213
921 1 112.18 6.41827 720 118.407 194.212 466.186
922 0 106.176 10.8876 1156 108.276 193.936 459.764
923 0 107.834 17.2858 1864 96.1014 193.258 445.23
924 0 107.272 12.3144 1321 106.454 193.372 456.954
925 0 111.604 11.8634 1324 106.829 193.808 451.898
926 0 107.862 20.2202 2181 94.3787 193.204 437.935
927 0 105.384 13.3796 1410 107.324 193.904 447.344
928 0 96.3722 19.1549 1846 101.77 193.29 446.998
929 1 42.1498 9.32388 393 114.181 194.112 474.036
930 0 41.1546 9.88954 407 116.521 194.87 469.55
931 0 46.2344 15.2051 703 105.549 194.36 465.321
932 0 47.0357 15.1587 713 108.926 194.244 466.948
933 0 48.1416 11.5908 558 115.084 195.106 464.857
934 0 54.3356 15.2018 826 105.189 196.126 460.051
935 0 61.1533 20.0153 1224 96.8284 196.598 459.519
936 0 62.221 16.6825 1038 100.838 197.772 458.305
937 0 63.3155 18.8895 1196 98.6154 198.681 453.686
938 0 59.1392 18.4142 1089 102.278 199.308 453.546
939 0 61.1774 16.7709 1026 105.953 199.644 453.394
940 0 64.5963 17.7719 1148 103.757 198.501 453.348
941 0 60.0883 13.6133 818 113.139 198.962 455.02
942 0 62.1715 14.9747 931 111.056 199.329 458.213
943 0 64.2265 12.7829 821 115.278 198.526 457.637
944 0 65.2514 11.4327 746 117.362 201.06 457.523
945 0 68.2429 13.8329 944 113.91 200.782 457.438
946 0 71.2698 15.1256 1078 111.077 200.309 455.964
947 0 72.2542 12.9681 937 113.927 200.074 458.689
948 0 76.2295 13.4856 1028 111.921 200.625 455.855
949 0 79.1361 14.4688 1145 111.955 200.732 455.882
950 0 83.3028 16.1819 1348 107.407 200.898 459.318
951 0 85.1513 14.163 1206 110.323 200.61 458.204
952 1 46.0974 11.9312 550 111 200.318 474.438
953 0 48.2085 11.6577 562 111.121 199.934 471.383
954 0 50.1303 13.046 654 110.853 197.893 452.876
955 0 48.3034 12.0902 584 114.546 197.339 449.375
956 0 54.6584 15.1852 830 106.561 198.357 462.914
957 0 54.1795 13.9721 757 109.091 197.857 470.106
958 0 54.2222 13.6291 739 109.034 196.534 473.713
959 0 56.0501 10.7582 603 113.355 194.682 470.924
960 0 58.1272 12.3006 715 111.678 195.614 472.157
961 0 59.1767 11.7614 696 113.315 194.496 467.132
962 0 60.2789 13.7859 831 110.678 194.755 467.348
963 0 63.1686 13.8043 872 110.401 194.846 465.084
964 0 64.1819 17.6374 1132 104.921 194.851 465.152
965 0 66.0988 13.6311 901 110.909 194.37 461.966
966 0 67.1343 12.2441 822 112.606 193.265 459.659
967 0 70.2753 12.6502 889 111.883 194.054 453.03
968 0 73.2748 13.4562 986 111.048 192.259 447.436
969 0 75.4432 12.8706 971 112.007 192.547 451.313
970 0 75.2313 13.4917 1015 108.653 192.335 452.357
971 1 40.132 13.4556 540 103.904 194.509 472.313
972 0 42.0988 12.827 540 102.552 194.3 472.15
973 0 44.4095 12.1596 540 105.859 192.791 464.452
974 0 41.5878 9.73842 405 114.758 193.793 461.469
975 0 46.1957 13.5294 625 107.872 193.957 465.277
976 0 45.1094 11.1507 503 114.68 194.895 463.618
977 0 47.2567 12.9506 612 110.645 194.359 462.792
978 0 55.1138 19.6503 1083 97.3583 195.192 453.719
979 0 55.0355 19.66 1082 99.1349 195.519 454.881
980 0 52.2283 13.2495 692 112.337 197.986 459.906
981 0 54.3064 17.8248 968 105.539 197.241 462.039
982 0 56.1976 16.1573 908 108.235 198.373 458.741
983 0 58.2716 16.7491 976 107.738 197.682 457.543
984 0 58.1014 13.115 762 114.528 199.047 458.741
985 0 60.1224 17.298 1040 108.244 199.597 458.291
986 0 65.0921 19.2957 1256 103.653 200.142 459.595
987 0 65.2005 13.8189 901 112.615 200.953 457.842
988 0 67.1011 16.6316 1116 109.603 200.116 457.181
989 0 70.192 15.7568 1106 108.63 199.722 459.386
990 0 72.1947 13.0481 942 114.222 200.357 457.59
991 0 75.1673 12.6385 950 115.258 201.331 455.414
992 1 37.1341 11.1757 415 110.13 201.829 478.605
993 0 42.0973 11.8535 499 113.585 201.236 476.034
994 0 41.0782 12.5857 517 113.29 200.01 475.296
995 0 42.0603 12.6485 532 112.855 199.22 474.912
996 0 43.2745 10.237 443 117.476 201.415 474.777
997 0 45.0759 11.8467 534 111.912 199.978 474.408
998 0 52.0939 23.8032 1240 94.3669 198.654 477.47
999 0 47.1004 12.3778 583 112.262 199.667 477.093
1000 0 49.0816 15.301 751 105.045 197.895 476.601
1001 0 50.072 13.1411 658 108.04 197.654 473.622
1002 0 55.2342 16.9641 937 101.764 195.292 476.249
1003 0 53.1686 13.9556 742 108.027 195.706 471.443
1004 0 55.1295 13.7132 756 110.37 195.409 471.649
1005 0 57.1375 14.8239 847 105.929 194.822 470.569
1006 0 60.1996 13.5881 818 108.361 194.831 469.768
1007 0 62.3203 15.0352 937 105.377 194.068 468.258
1008 0 64.1045 12.6512 811 112.803 193.45 466.668
1009 0 64.1686 12.7165 816 113.983 193.452 460.575
1010 0 67.2014 13.8539 931 108.896 193.132 465.361
1011 0 66.0678 11.246 743 115.214 192.602 460.834
1012 0 71.2095 15.1665 1080 111.706 193.506 458.842
1013 0 73.1818 13.8286 1012 115.212 193.187 457.249
1014 0 74.1129 13.7628 1020 116.266 193.825 455.039
1015 1 41.0551 12.5685 516 113.395 192.411 473.769
1016 0 45.4021 12.5765 571 110.412 194.002 469.729
1017 0 45.08 12.5998 568 113.847 193.671 469.394
1018 0 44.1459 12.0509 532 116.562 195.607 457.962
1019 0 48.2116 13.9178 671 111.776 196.028 455.927
1020 0 48.0327 12.9495 622 116.698 194.624 456.5
1021 0 56.1089 17.1274 961 102.858 195.671 455.681
1022 1 71.699 18.9821 1361 94.5834 195.697 451.346
1023 0 64.188 21.2501 1364 95.8974 195.865 452.007
1024 0 65.6147 19.1573 1257 99.4853 196.065 455.89
1025 0 64.249 16.5139 1061 104.662 197.557 457.886
1026 0 65.1075 25.0202 1629 95.1645 197.6 454.099
1027 0 63.1461 23.2477 1468 99.404 198.388 458.401
1028 0 61.1814 13.4518 823 115.808 198.714 459.339
1029 0 63.1206 13.9733 882 115.857 199.467 457.316
1030 0 69.1889 21.5352 1490 101.42 199.856 456.613
1031 0 67.1827 15.7034 1055 112.924 200.731 454.08
1032 0 65.1049 14.8069 964 117.604 200.145 459.523
1033 0 64.2133 11.1192 714 120.954 199.892 462.125
1034 0 67.0775 12.985 871 115.701 200.195 461.959
1035 0 71.0948 14.7549 1049 117.962 200.591 460.617
1036 0 73.0733 15.0534 1100 117.369 199.359 461.517
1037 0 74.1044 16.2878 1207 116.75 200.263 460.4
1038 0 76.1051 14.5851 1110 119.639 199.324 461.432
1039 1 153.096 9.23605 1414 129.491 199.636 434.15
1040 0 151.522 6.1773 936 128.549 198.99 450.524
1041 0 151.29 10.5757 1600 124.767 198.736 436.561
1042 0 149.38 12.1167 1810 121.499 198.815 438.991
1043 0 150.219 11.2103 1684 124.939 198.217 438.291
1044 0 156.5 10.9904 1720 124.13 196.813 438.212
1045 1 104.161 19.5466 2036 108.36 195.968 449.334
1046 0 105.236 15.6886 1651 114.916 195.251 446.294
1047 0 110.463 17.0555 1884 112.417 194.362 444.704
1048 0 108.242 16.0012 1732 115.824 193.818 445.842
1049 0 107.244 12.7933 1372 121.566 193.44 448.036
1050 0 111.215 19.2869 2145 111.087 192.553 443.264
1051 0 119.116 15.9341 1898 114.546 193.515 439.39
1052 0 117.133 12.5242 1467 120.562 193.219 431.16
1053 0 121.303 15.4984 1880 116.253 193.26 425.527
1054 0 126.267 16.0137 2022 114.458 192.718 421.634
1055 0 129.353 13.3743 1730 118.931 192.542 420.578
1056 1 65.0922 12.7511 830 116.808 193.758 458.548
1057 0 68.1934 11.79 804 115.856 193.295 460.924
1058 0 70.2484 12.043 846 117.084 193.665 446.551
1059 0 75.1767 14.3129 1076 111.549 194.029 440.151
1060 0 77.2226 15.3582 1186 113.046 193.258 428.523
1061 0 79.2352 14.0468 1113 114.174 193.518 426.654
1062 0 84.2589 18.9891 1600 105.713 194.651 424.128
1063 0 85.1719 14.9462 1273 114.942 195.114 421.082
1064 0 86.2068 14.79 1275 115.494 196.048 422.874
1065 0 91.1648 16.5963 1513 112.239 195.956 421.535
1066 0 94.1668 16.3221 1537 112.128 196.792 423.799
1067 0 98.1396 22.5699 2215 103.172 196.754 431.96
1068 0 100.258 12.797 1283 116.415 197.952 444.26
1069 0 100.312 14.0362 1408 116.344 198.697 437.092
1070 0 107.474 17.6694 1899 109.951 199.001 438.473
1071 0 107.474 17.5577 1887 126.252 200.971 438.49
1072 0 110.4 13.8315 1527 114.816 200.035 433.949
1073 0 117.183 18.2877 2143 108.314 200.997 428.206
1074 0 121.308 14.187 1721 113.677 201.593 435.313
1075 0 123.25 14.5152 1789 114.11 201.271 430.335
1076 0 126.319 13.5846 1716 115.368 201.323 426.889
1077 0 130.547 14.9448 1951 114.366 200.714 431.592
1078 0 136.6 14.385 1965 115.218 201.11 430.094
1079 0 142.416 15.6654 2231 110.587 200.947 421.061
1080 1 81.5388 14.8273 1209 114.175 200.229 460.279
1081 0 83.5092 14.0583 1174 116.187 200.071 458.195
1082 0 86.3509 12.924 1116 117.625 199.055 458.256
1083 0 88.5544 12.6702 1122 116.569 199.773 460.158
1084 0 96.3089 16.0733 1548 111.118 197.657 443.877
1085 0 96.3043 13.1458 1266 117.06 197.592 440.295
1086 0 102.84 14.0801 1448 114.793 196.99 443.254
1087 0 105.304 14.1116 1486 115.492 196.398 445.737
1088 1 57.3068 15.862 909 109.149 195.325 470.674
1089 0 58.4715 16.2301 949 107.998 195.314 474.382
1090 0 57.1687 12.8917 737 114.544 194.82 475.308
1091 0 60.1999 14.5017 873 113.207 195.299 470.867
1092 0 60.1424 13.0357 784 116.364 194.848 469.994
1093 0 62.1323 11.7813 732 118.624 193.874 471.447
1094 0 65.1703 13.902 906 114.711 193.736 466.041
1095 0 68.2135 15.3489 1047 111.545 192.495 465.226
1096 0 69.2376 18.0249 1248 107.704 192.326 461.288
1097 0 70.2447 11.8443 832 117.667 193.05 455.761
1098 0 74.1236 14.7591 1094 112.435 194.197 461.782
1099 0 78.1232 17.69 1382 107.469 193.504 459.682
1100 1 39.026 11.8383 462 114.758 193.903 475.21
1101 0 42.2719 11.8519 501 113.639 193.936 474.93
1102 0 44.3384 12.8557 570 112.488 193.042 471.64
1103 0 45.4682 12.6902 577 114.496 192.771 465.114
1104 0 46.1509 9.8373 454 120.418 193.963 457.608
1105 0 47.1775 12.4848 589 115.891 194.153 457.416
1106 0 47.139 14.7012 693 113.687 194.506 452.905
1107 0 51.2455 13.7183 703 113.363 194.589 452.239
1108 0 53.0871 15.1638 805 111.775 195.653 449.784
1109 0 52.0351 11.5691 602 118.458 195.297 451.463
1110 0 56.117 16.3587 918 111.276 195.861 452.134
1111 0 58.2313 13.7383 800 114.691 197.418 460.214
1112 0 58.0812 15.0479 874 114.203 197.723 460.819
1113 0 61.2486 19.3964 1188 106.404 197.859 463.575
1114 0 61.1656 15.6624 958 112.938 197.576 461.937
1115 0 64.1779 14.2728 916 115.263 198.512 459.725
1116 0 66.1691 15.2035 1006 113.816 199.281 458.725
1117 0 69.2184 14.6348 1013 113.536 198.584 459.151
1118 0 71.1831 16.4084 1168 111.398 199.76 458.222
1119 0 72.195 13.5882 981 115.692 198.969 457.574
1120 0 75.1231 13.7508 1033 115.742 198.62 459.208
1121 0 77.1993 14.7799 1141 114.024 198.95 458.164
1122 0 79.2073 14.5567 1153 116.016 198.519 456.028
1123 0 82.2554 13.4338 1105 117.158 199.195 452.256
1124 0 82.2554 13.3122 1095 136.556 200.179 452.359
1125 0 88.4612 20.834 1843 105.538 198.829 456.921
1126 1 45.288 16.1191 730 111.888 198.921 474.248
1127 0 47.0971 13.6739 644 117.818 198.134 467.519
1128 0 49.176 11.5503 568 121.449 196.294 469.213
1129 0 49.0976 13.7481 675 116.948 195.462 477.447
1130 0 51.0487 14.3197 731 114.506 195.512 480.917
1131 0 58.1513 14.9954 872 112 194.915 476.798
1132 0 55.0843 17.6275 971 111.616 194.207 475.839
1133 0 55.0945 14.702 810 114.053 194.309 476.558
1134 0 59.1807 17.7254 1049 111.042 193.03 477.054
1135 0 60.1783 15.2381 917 116.889 193.16 472.703
1136 0 63.1427 15.853 1001 115.265 191.762 470.882
1137 0 64.1799 14.7398 946 116.86 191.703 469.339
1138 0 65.1841 15.8321 1032 115.311 191.715 470.271
1139 0 67.0863 15.9794 1072 113.912 190.688 469.654
1140 0 70.112 14.377 1008 118.77 191.057 464.675
1141 0 75.2823 14.4257 1086 117.753 191.694 462.238
1142 0 74.1826 14.2891 1060 120.061 190.659 458.877
1143 0 78.1684 15.1212 1182 118.157 190.71 458.405
1144 1 42.0818 14.5431 612 118.6 189.694 475.074
1145 0 46.0424 11.9672 551 120.906 189.574 473.214
1146 0 43.0355 12.7104 547 123.11 190.751 470.687
1147 0 48.0893 13.3086 640 119.156 193.397 468.792
1148 0 46.1193 14.4625 667 118.595 193.765 464.273
1149 0 55.3488 16.3147 903 112.532 193.528 463.663
1150 0 55.2628 17.9868 994 110.657 193.409 464.681
1151 0 56.308 17.3332 976 112.623 194.38 460.41
1152 0 59.1553 18.2232 1078 111.085 195.313 459.469
1153 0 56.3291 14.7704 832 119.838 195.3 462.98
1154 0 56.1392 17.136 962 115.515 196.07 464.869
1155 0 59.3921 14.8336 881 119.591 195.824 461.109
1156 0 60.2026 13.7536 828 122.388 196.379 461.249
1157 0 68.5441 13.7868 945 120.821 197.618 451.529
1158 0 69.238 17.2304 1193 114.35 197.442 435.277
1159 0 71.4285 17.262 1233 115.445 198.286 428.835
1160 0 69.2453 15.0768 1044 120.824 198.798 433.506
1161 0 72.501 13.3929 971 123.462 200.001 435.243
1162 0 74.5838 18.0736 1348 116.653 199.317 434.129
1163 0 72.5478 12.2264 887 155.513 198.087 431.973
1164 0 80.3352 17.3896 1397 115.985 199.286 438.641
1165 0 84.6391 14.3314 1213 121.647 200.539 439.223
1166 0 86.5731 16.9106 1464 118.033 200.716 436.607
1167 1 42.3962 12.4068 526 122.671 199.055 458.681
1168 0 43.3979 12.6043 547 119.735 199.084 460.441
1169 0 48.1107 14.6121 703 114.203 198.128 460.284
1170 0 52.3498 12.8176 671 113.805 198.145 469.781
1171 0 49.0727 11.5135 565 122.35 198.724 480.161
1172 0 52.1965 14.5795 761 117.989 196.807 479.714
1173 0 57.2932 16.8955 968 110.688 196.34 475.895
1174 0 54.186 13.3614 724 119.499 196.348 475.965
1175 0 58.1646 13.9948 814 117.378 194.714 475.588
1176 0 61.3168 13.6667 838 118.222 194.323 459.23
1177 0 63.1676 14.7702 933 116.372 193.968 462.286
1178 0 65.4186 16.4938 1079 111.428 193.842 472.223
1179 0 65.2392 11.9713 781 119.447 192.886 467.631
1180 0 68.4383 13.9688 956 117.007 192.451 463.041
1181 0 70.4183 14.0305 988 117.3 191.91 451.861
1182 0 71.334 14.1027 1006 117.81 191.49 450.594
1183 0 75.5695 14.0797 1064 117.482 191.505 451.75
1184 0 75.2776 13.7225 1033 118.996 192.24 456.88
1185 0 77.1299 13.8597 1069 117.239 191.905 456.469
1186 0 83.4304 19.3335 1613 109.139 192.201 447.774
1187 1 41.5023 14.4329 599 110.294 192.873 468.841
1188 0 44.1276 11.1042 490 115.859 190.945 461.386
1189 0 47.0554 13.2397 623 111.384 190.745 459.819
1190 0 46.0952 10.3698 478 116.301 191.613 455.458
1191 0 49.1617 12.0419 592 117.208 194.525 458.206
1192 0 49.2786 12.5206 617 117.629 193.391 463
1193 0 53.2665 14.4368 769 110.029 193.947 465.39
1194 0 54.2683 15.3865 835 108.975 195.006 465.686
1195 0 56.1191 11.1727 627 114.654 194.789 463.869
1196 0 59.1653 12.744 754 111.719 196.107 462.638
1197 0 59.1653 12.7947 757 141.011 197.083 462.758
1198 0 65.2793 15.4413 1008 106.968 196.405 460.045
1199 0 64.2181 11.7412 754 111.643 197.671 465.329
1200 0 67.296 12.7348 857 111.106 197.589 457.754
1201 1 79.4862 14.1408 1124 105.368 198.813 454.694
1202 0 77.2078 19.4151 1499 99.5437 198.85 450.071
1203 0 78.3502 15.7626 1235 105.506 200.017 453.411
1204 0 77.2328 13.8024 1066 108.289 200.618 458.275
1205 0 82.5777 13.2724 1096 106.495 200.092 462.995
1206 0 83.2407 14.38 1197 107.561 200.1 454.608
1207 0 91.6124 19.8336 1817 97.8883 199.27 444.806
1208 0 91.5209 13.4177 1228 107.578 200.346 450.414
1209 1 45.2429 11.6703 528 109.674 200.028 471.062
1210 0 49.1298 16.4259 807 102.077 199.421 472.907
1211 0 49.3958 12.6326 624 108.069 198.516 474.777
1212 0 49.3941 11.965 591 114.088 197.513 461.146
1213 0 51.5765 12.4087 640 112.456 197.694 464.381
1214 0 54.4584 13.5333 737 109.643 196.51 472.654
1215 0 56.2751 13.5584 763 110.44 196.275 476.657
1216 0 54.4445 11.4979 626 114.591 195.976 473.161
1217 0 59.327 14.7656 876 107.997 195.362 474.457
1218 0 60.2121 15.1797 914 107.772 193.479 471.907
1219 0 63.3752 11.6134 736 112.947 194.091 470.355
1220 0 64.2297 11.9415 767 112.017 193.591 469.009
1221 0 69.483 13.7156 953 109.476 192.727 469.179
1222 0 70.3259 10.9348 769 113.22 193.486 461.296
1223 0 72.373 13.085 947 111.068 191.997 455.823
1224 0 76.5117 15.7492 1205 106.071 192.084 461.833
1225 0 76.3504 14.2632 1089 108.788 191.63 461.463
1226 0 79.3082 12.4956 991 111.14 192.836 464.321
1227 0 82.4325 14.982 1235 107.698 192.109 459.331
1228 0 85.4539 14.581 1246 109.55 192.673 456.392
1229 0 88.1736 12.6001 1111 111.905 192.203 453.409
1230 1 49.0851 8.4547 415 112.118 192.072 473.822
1231 0 51.1667 13.4072 686 108.56 192.713 467.927
1232 0 52.3553 11.7658 616 110.601 191.013 464.479
1233 0 52.345 11.1376 583 111.31 193.535 467.6
1234 0 56.2617 11.9797 674 112.401 193.712 461.721
1235 0 56.0601 16.3753 918 105.444 192.156 463.132
1236 0 59.2057 11.6881 692 112.533 192.689 462.725
1237 0 61.1755 15.2185 931 102.162 194.524 460.919
1238 0 62.1517 11.9063 740 112.276 194.836 455.336
1239 0 64.3515 14.7471 949 108.474 196.717 450.62
1240 0 66.0791 12.7877 845 111.91 195.458 454.238
1241 0 67.1234 14.302 960 104.756 197.129 456.921
1242 0 71.0782 12.2682 872 111.877 196.751 453.63
1243 0 74.1978 11.7658 873 112.806 197.708 451.54
1244 0 77.2425 14.1244 1091 109.909 198.599 438.587
1245 0 79.1321 14.975 1185 109.686 200.565 427.486
1246 0 79.062 11.6617 922 115.53 199.484 428.315
1247 0 82.1854 12.557 1032 114.348 200.422 427.892
1248 0 87.121 15.6564 1364 109.064 200.26 429.743
1249 1 43.2144 13.0512 564 110.635 199.184 450.527
1250 0 47.3062 10.4849 496 113.365 198.933 454.054
1251 0 48.3431 14.9556 723 105.228 198.237 461.169
1252 0 49.3844 14.5188 717 107.219 199.268 455.756
1253 0 49.4688 12.4321 615 112.561 198.006 458.928
1254 0 51.3103 15.4745 794 109.81 198.059 462.434
1255 0 54.2164 19.0902 1035 103.512 197.933 463.372
1256 0 56.2292 12.4313 699 114.936 197.791 468.74
1257 0 57.1045 15.3053 874 109.196 198.035 473.791
1258 0 59.2385 12.5763 745 114.511 196.694 463.532
1259 0 58.3153 13.427 783 115.608 196.596 461.049
1260 0 61.1338 12.857 786 116.59 195.093 465.954
1261 0 62.3656 13.02 812 115.504 193.78 468.262
1262 0 64.2791 14.5926 938 113.329 193.562 471.132
1263 0 65.2061 15.0446 981 114.273 193.633 468.971
1264 0 67.1146 15.2575 1024 112.59 193.598 468.889
1265 0 67.1324 12.7658 857 112.944 193.027 467.385
1266 0 71.1172 13.8644 986 115.419 193.019 465.493
1267 0 72.4554 11.3035 819 119.972 193.816 458.972
1268 0 75.2046 13.5763 1021 115.947 191.998 456.916
1269 0 81.1752 15.214 1235 112.771 191.614 457.99
1270 0 81.3774 13.3944 1090 115.215 192.203 458.601
1271 0 82.1811 10.7324 882 115.986 193.175 459.227
1272 0 86.1876 13.3082 1147 115.677 192.045 452.296
1273 0 89.1773 13.7367 1225 116.296 191.309 449.678
1274 0 93.2782 14.5372 1356 114.088 191.423 451.32
1275 0 98.1455 14.3766 1411 112.564 192.15 448.475
1276 0 98.107 12.1602 1193 115.417 192.645 445.246
1277 1 52.0288 10.7633 560 111.671 193.388 468.079
1278 0 55.1612 12.9258 713 109.701 192.488 464.996
1279 0 56.151 13.339 749 108.324 193.995 461.318
1280 0 57.1262 12.9013 737 114.065 194.57 461.308
1281 0 58.1624 12.0353 700 115.394 195.69 458.85
1282 0 59.082 12.3896 732 115.171 196.359 459.977
1283 0 61.2476 13.7312 841 112.973 196.757 457.032
1284 0 64.1164 12.2278 784 109.376 196.579 459.548
1285 0 64.3101 13.7148 882 108.068 197.04 458.265
1286 0 64.1636 11.7512 754 110.434 197.702 461.007
1287 0 70.068 14.9854 1050 104.763 197.596 462.14
1288 0 77.3013 16.0929 1244 105.051 198.191 451.402
1289 1 157.306 11.7796 1853 116.394 198.227 416.535
1290 1 87.3986 17.9294 1567 100.496 198.14 441.018
1291 0 97.9463 21.3484 2091 95.012 198.396 437.411
1292 0 91.2998 17.3166 1581 103.707 199.073 432.56
1293 0 87.1406 16.0316 1397 107.228 198.979 429.924
1294 0 90.202 14.7336 1329 109.5 199.114 430.818
1295 1 47.1152 13.1168 618 108.662 199.113 455.361
1296 0 47.1312 14.8734 701 105.448 198.538 457.462
1297 0 48.5346 13.8458 672 106.592 198.378 461.484
1298 0 51.2986 16.1603 829 103.749 198.201 460.634
1299 0 51.3701 11.8551 609 110.872 198.563 464.741
1300 0 52.1598 13.6887 714 107.419 198.433 479.183
1301 1 69.7055 12.9832 905 102.147 195.749 474.65
1302 0 69.6324 14.3611 1000 99.927 195.129 472.997
1303 0 63.0981 21.6171 1364 93.7155 194.804 473.348
1304 0 65.1204 13.022 848 104.88 193.989 469.417
1305 0 61.1354 15.3103 936 104.957 193.488 470.969
1306 0 62.1377 13.5505 842 106.865 193.317 470.151
1307 0 67.0645 17.3266 1162 100.936 192.554 466.985
1308 0 71.0436 12.3304 876 107.979 188.412 459.933
1309 0 74.0645 15.095 1118 104.955 191.387 459.537
1310 0 76.1719 16.9091 1288 102.119 191.656 457.79
1311 0 87.4407 19.3388 1691 96.0509 190.815 452.082
1312 0 90.2778 26.3077 2375 91.4602 191.016 449.622
1313 0 96.1557 19.6348 1888 95.8369 190.368 446.726
1314 0 94.2007 20.9553 1974 95.3424 190.063 441.594
1315 0 94.1484 18.3115 1724 99.8962 190.617 443.189
1316 1 48.0914 15.325 737 100.982 190.605 466.488
1317 0 48.1532 17.8804 861 97.511 191.014 470.058
1318 0 50.3633 14.0777 709 104.738 191.66 463.722
1319 0 53.2379 11.5707 616 107.273 192.042 463.813
1320 0 54.1644 13.699 742 104.565 193.864 463.007
1321 0 53.0589 13.4002 711 107.45 194.549 458.902
1322 0 55.0981 14.2292 784 103.256 194.105 458.818
1323 0 65.3271 15.0473 983 101.804 195.253 457.45
1324 0 72.9858 21.9632 1603 91.1921 194.278 451.138
1325 0 73.4064 15.639 1148 99.6289 195.633 454.453
1326 0 69.2015 17.7742 1230 98.7732 196.741 449.247
1327 0 68.257 16.4818 1125 103.148 196.46 452.74
1328 0 72.2187 22.6257 1634 94.8703 197.356 455.223
1329 0 71.2202 18.1409 1292 118.798 198.841 452.126
1330 1 85.3307 17.8951 1527 98.1113 198.601 451.493
1331 0 76.3301 16.8217 1284 104.408 198.985 451.266
1332 0 79.1591 15.1088 1196 106.587 199.261 453.851
1333 0 80.4326 15.6404 1258 104.918 200.461 458.824
1334 0 83.1175 14.7983 1230 107.741 199.195 455.894
1335 0 85.1853 13.77 1173 110.464 199.246 453.647
1336 1 49.1889 14.5358 715 102.105 199.517 479.267
1337 0 47.1108 11.3562 535 110.196 199.107 472.103
1338 0 50.1517 15.832 794 102.001 196.785 473.855
1339 0 51.2503 12.1755 624 111.242 196.569 471.301
1340 0 52.2102 11.9708 625 111.698 198.366 475.086
1341 0 59.1141 19.5554 1156 97.2932 197.322 468.351
1342 0 59.0783 19.2795 1139 99.9851 196.474 475.428
1343 0 55.136 11.0273 608 111.627 196.735 477.702
1344 0 61.1141 16.0519 981 106.97 194.938 471.283
1345 0 67.4139 18.6905 1260 101.001 194.653 469.71
1346 0 69.2908 19.4254 1346 100.007 193.559 463.945
1347 0 71.2424 18.0089 1283 102.917 192.97 466.338
1348 0 68.5719 16.4353 1127 107.621 193.827 468.819
1349 0 70.1954 13.961 980 112.104 192.696 467.376
1350 0 72.1672 13.3579 964 113.141 192.716 464.767
1351 0 76.3994 13.2854 1015 113.794 192.156 458.315
1352 0 78.2986 14.3042 1120 113.562 191.639 447.628
1353 0 79.4091 15.1116 1200 111.244 191.006 455.524
1354 0 84.4123 18.0305 1522 106.436 191.919 457.291
1355 0 90.6489 25.3616 2299 97.0352 190.707 441.699
1356 1 45.386 11.259 511 114.859 190.472 455.237
1357 0 45.2588 12.1744 551 113.664 192.254 446.559
1358 0 48.0484 12.529 602 113.739 191.837 446.626
1359 0 51.1892 14.085 721 110.268 191.757 452.144
1360 0 51.5315 11.818 609 113.787 190.962 459.995
1361 0 52.4027 13.4535 705 111.939 192.092 467.482
1362 0 52.208 13.4462 702 112.762 193.56 465.651
1363 0 57.0704 15.805 902 108.673 193.227 458.979
1364 0 58.03 13.4069 778 113.224 192.955 460.602
1365 0 57.2931 12.375 709 116.425 194.97 458.897
1366 0 59.2715 11.9956 711 117.38 194.779 456.876
1367 0 70.3817 18.1865 1280 101.852 195.123 457.966
1368 0 70.1752 15.6608 1099 106.561 195.464 453.743
1369 0 71.3652 23.1485 1652 97.5381 195.855 455.157
1370 0 66.4587 15.7391 1046 111.315 197.459 456.111
1371 0 72.3282 14.4204 1043 111.195 197.672 453.726
1372 0 73.222 14.5311 1064 111.471 197.971 452.098
1373 0 81.3659 19.4676 1584 101.635 198.781 451.546
1374 0 81.3006 16.4697 1339 107.461 198.57 445.285
1375 0 83.3037 15.0894 1257 108.914 200.241 455.905
1376 1 39.0303 10.5303 411 114.854 197.287 473.577
1377 0 44.1933 13.2599 586 106.918 200.191 464.922
1378 0 46.314 11.8107 547 109.927 199.918 458.36
1379 0 46.0909 11.4339 527 112.653 198.861 455.057
1380 0 47.3044 11.3943 539 114.078 197.9 457.304
1381 0 50.2289 16.7234 840 105.263 197.225 460.287
1382 0 50.2344 13.8152 694 110.001 196.974 462.411
1383 0 53.1101 11.5421 613 112.915 198.086 473.467
1384 0 58.2218 15.4925 902 104.203 197.526 473.601
1385 0 61.36 18.2692 1121 99.7565 196.228 470.715
1386 0 57.1093 11.8369 676 114.074 196.417 474.976
1387 0 58.2132 14.172 825 110.084 195.196 475.067
1388 0 59.2792 13.9341 826 110.726 194.281 473.386
1389 0 63.2594 15.0966 955 109.313 194.708 471.756
1390 0 66.2363 15.2333 1009 109.2 194.076 469.615
1391 0 66.2127 13.9399 923 111.39 193.573 470.238
1392 0 70.3445 13.7609 968 111.525 193.229 468.269
1393 0 72.329 15.2498 1103 109.578 191.839 465.033
1394 0 76.2981 15.1773 1158 110.31 192.647 459.933
1395 0 77.4991 13.884 1076 112.968 192.507 452.2
1396 1 39.2093 11.3239 444 113.565 192.831 474.369
1397 0 40.2244 10.6403 428 114.89 193.558 478.252
1398 0 41.2845 12.2806 507 114.018 192.454 476.219
1399 0 44.2609 13.7367 608 110.102 192.12 475.056
1400 0 52.4152 21.7685 1141 94.8712 192.164 467.845
1401 0 48.2717 14.7084 710 109.076 193.394 471.22
1402 0 46.293 10.4984 486 118.772 193.366 471.593
1403 0 47.427 12.6089 598 116.878 193.358 466.916
1404 0 49.3955 11.661 576 117.378 192.991 465.962
1405 0 50.0968 14.6516 734 110.883 193.18 466.862
1406 0 51.1558 12.7845 654 115.787 193.534 462.379
1407 0 54.2312 16.6878 905 109.007 194.23 463.997
1408 0 57.4823 12.0559 693 115.355 193.707 463.03
1409 0 56.2774 12.9004 726 118.288 193.796 461.982
1410 0 55.3978 9.91014 549 123.851 195.342 465.364
1411 0 58.3188 11.4886 670 121.879 195.409 460.321
1412 0 60.2957 14.5616 878 113.478 197.075 460.751
1413 0 62.3941 12.7416 795 120.243 196.213 458.345
1414 0 64.2749 12.7421 819 116.311 198.201 462.701
1415 0 66.2886 14.2257 943 114.42 198.683 459.32
1416 0 70.3389 14.5439 1023 115.114 200.739 449.838
1417 0 73.2735 14.8485 1088 112.788 199.07 458.462
1418 1 37.0636 11.5477 428 111.348 198.016 479.787
1419 0 39.2022 11.1218 436 116.071 199.606 472.633
1420 0 40.2541 15.278 615 107.429 196.576 477.2
1421 0 40.0863 10.8017 433 117.4 197.111 479.624
1422 0 43.1143 14.0093 604 111.54 199.856 468.396
1423 0 41.1637 11.1749 460 119.193 198.809 464.552
1424 0 44.2281 12.3225 545 116.217 197.954 468.842
1425 0 44.229 12.8649 569 116.202 197.807 479.095
1426 0 42.1733 9.36611 395 123.228 197.352 480.484
1427 0 48.213 13.0878 631 114.372 197.723 480.157
1428 0 52.2214 14.1896 741 111.298 196.385 482.482
1429 0 48.0925 12.6215 607 111.675 194.969 483.598
1430 0 52.1284 11.6443 607 117.567 195.16 480.878
1431 0 53.3812 11.2024 598 117.671 194.017 478.028
1432 0 56.0687 14.3752 806 112.368 192.588 475.718
1433 0 61.108 14.9735 915 109.823 192.674 472.901
1434 0 58.0564 12.9702 753 116 190.946 472.49
1435 0 61.1347 14.1 862 113.736 191.678 468.072
1436 0 69.363 16.7092 1159 105.586 190.858 462.513
1437 0 71.0914 19.7492 1404 101.4 191.244 465.711
1438 0 71.1561 14.686 1045 109.872 190.948 464.493
1439 0 67.0808 13.4167 900 111.681 191.277 466.852
1440 0 70.1521 17.6046 1235 105.223 191.283 465.087
1441 0 75.2046 14.9592 1125 110.897 190.694 455.03
1442 1 41.1063 9.31731 383 117.133 191.029 477.765
1443 0 39.1935 13.3951 525 115.112 191.61 473.04
1444 0 41.1313 14.8792 612 111.554 191.211 472.52
1445 0 42.1211 13.1288 553 113.526 192.224 471.68
1446 0 44.3849 12.3015 546 113.996 191.89 468.108
1447 0 46.246 17.9259 829 105.691 192.869 455.078
1448 0 47.2278 14.2501 673 112.425 192.544 451.49
1449 0 47.1041 12.8014 603 115.307 193.821 449.998
1450 0 50.1326 14.8007 742 110.426 194.966 450.158
1451 0 49.128 12.9051 634 114.035 193.702 439.057
1452 0 51.3244 14.0479 721 112.272 195.807 436.705
1453 0 52.0708 13.3472 695 113.925 195.386 438.594
1454 0 54.079 12.7961 692 114.829 195.763 439.668
1455 0 56.2222 13.0731 735 113.706 196.348 424.303
1456 0 58.1431 15.3415 892 110.479 197.36 423.101
1457 0 58.1317 14.2779 830 111.594 197.313 421.175
1458 0 61.0992 13.6499 834 112.982 197.689 422.193
1459 0 63.1974 17.4533 1103 107.085 198.796 423.733
1460 0 66.2477 19.4573 1289 103.593 198.394 426.04
1461 0 67.0954 16.32 1095 109.029 198.282 422.89
1462 0 71.1995 24.326 1732 96.5912 198.125 427.225
1463 0 74.2916 17.0813 1269 106.92 197.493 421.264
1464 0 74.1433 15.6049 1157 108.525 198.26 425.823
1465 0 74.144 14.5123 1076 112.384 198.435 426.239
1466 0 79.1381 15.8836 1257 109.357 198.367 436.278
1467 0 81.3247 15.0877 1227 110.286 197.679 442.368
1468 0 83.3605 17.7062 1476 105.299 197.722 455.108
1469 0 87.5512 13.3636 1170 112.07 197.291 437.219
1470 0 88.3345 12.747 1126 112.712 197.407 439.026
1471 0 91.2738 14.2976 1305 110.394 197.021 441.257
1472 0 93.8012 13.7738 1292 110.916 196.791 443.502
1473 1 48.3585 11.1046 537 108.542 195.209 469.678
1474 0 52.0751 12.5396 653 106.577 194.712 474.384
1475 0 53.1718 12.5066 665 107.817 194.598 469.674
1476 0 54.2841 14.6083 793 102.962 193.781 465.989
1477 0 56.3617 13.4311 757 106.334 192.448 472.823
1478 0 58.1338 12.7292 740 107.169 192.158 469.196
1479 0 65.1737 15.0828 983 101.443 191.627 464.289
1480 0 67.4465 18.296 1234 96.4611 190.635 461.957
1481 0 68.7314 19.147 1316 95.6816 190.334 459.843
1482 0 67.1726 14.1873 953 103.311 190.743 462.701
1483 0 70.2047 14.7568 1036 102.094 190.794 458.617
1484 0 73.3132 9.80724 719 106.755 190.405 460.092
1485 0 73.4134 10.6656 783 106.916 190.488 454.669
1486 0 79.2978 15.0824 1196 100.749 191.193 453.454
1487 0 81.4151 12.5652 1023 102.865 189.709 450.798
1488 0 82.2526 12.7656 1050 102.725 190.406 450.796
1489 1 44.1505 12.6159 557 98.7702 191.079 470.903
1490 0 44.0251 11.3571 500 99.318 190.782 469.286
1491 0 45.0771 14.4419 651 96.9754 191.57 466.501
1492 0 47.1814 11.8479 559 101.397 192.084 463.184
1493 0 49.3037 9.3705 462 104.792 191.723 463.552
1494 0 51.3533 12.3848 636 101.965 194.233 468.918
1495 0 51.2317 12.4532 638 106.025 194.611 461.082
1496 0 54.2799 14.4621 785 102.896 195.418 461.157
1497 0 55.4427 13.7439 762 104.31 195.95 462.19
1498 0 55.2642 13.4083 741 104.44 196.916 463.364
1499 0 57.3149 12.4226 712 105.456 198.051 464.147
1500 0 61.3674 12.5311 769 104.182 195.982 460.973
1501 0 63.2767 13.038 825 104.989 198.681 460.473
1502 0 67.1996 14.0775 946 103.701 198.235 456.885
1503 0 66.1429 11.6112 768 107.868 198.04 455.714
1504 0 71.2352 14.9926 1068 102.773 197.953 456.84
1505 0 72.3009 13.6236 985 105.055 197.928 458.556
1506 0 75.4167 10.316 778 108.955 198.461 459.631
1507 0 77.2442 13.0625 1009 105.691 197.474 456.168
1508 0 84.1904 17.4604 1470 98.966 198.106 458.248
1509 0 91.3383 21.2178 1938 92.582 196.498 450.782
1510 0 92.2687 25.4474 2348 90.1286 196.578 455.268
1511 0 91.4001 13.5995 1243 105.463 196.933 452.726
1512 1 45.1329 12.5629 567 102.393 196.226 480.242
1513 0 47.2237 11.0961 524 101.448 195.166 479.899
1514 0 48.108 8.93822 430 102.193 195.2 484.723
1515 0 51.1877 12.503 640 106.583 195.975 479.189
1516 0 50.1036 11.3365 568 110.813 195.019 476.129
1517 0 52.0643 12.6382 658 107.187 194.567 477.173
1518 0 54.1732 15.3581 832 102.322 194.597 471.941
1519 0 56.2697 13.5419 762 104.551 193.782 473.669
1520 0 59.3188 15.8972 943 103.759 192.194 468.667
1521 0 61.446 15.3468 943 104.767 192.151 467.254
1522 0 64.367 19.6219 1263 97.639 191.493 470.644
1523 0 63.2707 9.45146 598 103.963 192.125 470.768
1524 0 65.2789 14.9972 979 98.1358 192.267 468.281
1525 0 67.2251 12.2871 826 100.777 191.914 466.124
1526 0 70.4399 13.075 921 108.77 192.394 461.622
1527 0 73.5764 19.5851 1441 100.555 190.92 461.813
1528 0 76.189 13.2303 1008 105.572 190.922 458.953
1529 0 78.5403 14.5658 1144 103.495 190.854 457.219
1530 1 42.2618 14.0789 595 107.032 191.153 467.99
1531 0 45.1426 18.4305 832 97.6322 191.422 473.904
1532 0 46.0632 12.5263 577 108.929 193.198 468.589
1533 0 46.6186 13.5783 633 108.39 192.227 465.562
1534 0 49.1306 11.4796 564 108.89 193.197 469.562
1535 0 51.2312 19.8902 1019 98.95 193.42 465.493
1536 0 48.1488 13.7698 663 110.09 195.184 461.67
1537 0 51.4456 12.5569 646 111.749 194.175 461.107
1538 0 53.4564 13.5437 724 109.713 195.105 461.109
1539 0 57.4649 14.461 831 107.471 196.285 462.68
1540 0 57.4157 13.8986 798 110.342 195.604 461.208
1541 0 58.4247 12.1866 712 111.302 196.412 463.006
1542 0 60.3881 14.6221 883 110.873 196.478 456.693
1543 0 62.4977 17.6646 1104 105.491 196.453 462.864
1544 0 63.319 14.7665 935 111.176 198.148 457.219
1545 0 65.3494 12.701 830 114.131 198.348 460.587
1546 0 67.26 17.5141 1178 105.123 197.941 459.173
1547 0 70.1932 13.0639 917 110.761 198.461 460.955
1548 0 75.2689 13.7374 1034 109.112 198.853 462.208
1549 0 76.5378 15.3519 1175 111.34 197.951 460.546
1550 0 77.4881 15.7056 1217 112.03 198.579 459.288
1551 0 77.2672 13.408 1036 112.029 197.654 461.996
1552 0 84.4629 17.9369 1515 104.358 198.182 463.743
1553 0 84.5119 15.9267 1346 112.096 197.591 458.017
1554 0 86.6069 17.3196 1500 107.358 196.875 462.864
1555 0 88.8828 16.0211 1424 112.44 195.565 457.64
1556 0 89.776 15.1154 1357 115.601 195.404 450.299
1557 0 89.776 15.1154 1357 149.498 194.404 450.299
1558 0 97.5898 14.7147 1436 116.094 194.16 448.322
1559 0 99.9909 16.6815 1668 112.978 193.592 447.255
1560 0 103.614 14.5347 1506 115.688 192.39 448.367
1561 1 54.5174 15.9215 868 110.196 192.669 466.887
1562 0 58.5139 15.0904 883 110.698 192.254 468.394
1563 0 59.3871 13.0331 774 118.35 192.171 467.761
1564 0 62.3848 17.1676 1071 108.5 192.559 469.832
1565 0 62.311 12.55 782 119.52 190.692 466.299
1566 0 65.536 15.2741 1001 115.513 191.115 461.1
1567 0 65.1507 14.689 957 117.313 190.269 456.765
1568 0 65.1507 14.7197 959 152.203 190.252 456.795
1569 0 70.3715 12.8887 907 113.334 189.767 464.798
1570 0 73.5525 17.6201 1296 111.026 190.184 459.977
1571 0 75.2904 17.9704 1353 109.336 190.614 457.381
1572 0 76.5105 15.658 1198 116.129 190.174 452.307
1573 0 85.1051 18.6123 1584 108.672 190.244 452.052
1574 0 83.5116 14.5968 1219 113.993 190.603 451.26
1575 0 88.3517 15.7552 1392 109.581 192.024 451.09
1576 0 88.7437 15.0997 1340 115.671 192.034 440.276
1577 0 92.5394 12.6433 1170 116.024 192.127 441.654
1578 0 95.7837 14.2717 1367 113.998 192.822 443.277
1579 0 97.5646 12.3918 1209 116.93 193.749 440.624
1580 1 50.8213 13.9312 708 109.16 194.277 460.062
1581 0 52.6257 15.5057 816 106.912 194.553 461.653
1582 0 57.4018 15.557 893 114.103 195.494 460.637
1583 0 56.1901 12.173 684 116.787 196.058 462.493
1584 0 58.4686 15.9744 934 110.861 196.767 461.207
1585 0 59.2976 12.1253 719 115.887 197.154 462.202
1586 0 64.3051 14.058 904 112.658 197.525 460.148
1587 0 65.2949 15.0241 981 115.07 197.571 460.704
1588 0 66.4236 14.1516 940 116.254 197.795 461.334
1589 0 68.5106 14.4649 991 116.304 197.829 461.53
1590 0 70.8182 14.6431 1037 115.26 198.109 462.376
1591 0 72.2224 14.3723 1038 117.171 198.28 455.739
1592 0 78.3941 16.213 1271 109.223 197.806 457.982
1593 0 80.5677 15.9369 1284 112.379 197.409 452.774
1594 0 82.7344 13.5736 1123 116.531 197.709 456.32
1595 0 82.1492 12.4286 1021 114.072 197.244 457.973
1596 0 88.2742 15.7011 1386 107.548 196.662 462.727
1597 0 92.4825 19.3766 1792 106.019 196.01 456.2
1598 1 47.516 9.97558 474 116.669 195.551 473.679
1599 0 46.8624 10.9043 511 117.043 195.448 474.865
1600 0 47.3268 12.1496 575 114.494 195.35 474.047
1601 0 50.4671 15.7925 797 109.258 194.093 474.038
1602 0 52.2315 13.7656 719 111.887 195.406 478.113
1603 0 53.4392 15.5691 832 109.292 194.311 478.466
1604 0 55.1281 13.7135 756 112.204 193.878 472.317
1605 0 59.1248 11.8901 703 113.496 193.001 470.518
1606 0 60.2727 13.9532 841 109.089 191.901 471.913
1607 0 61.2817 12.0428 738 111.921 192.237 470.362
1608 0 63.7738 13.4068 855 115.384 191.625 463.311
1609 0 65.6395 13.2999 873 114.953 191.496 466.646
1610 0 68.3209 12.0168 821 109.418 191.143 467.298
1611 0 70.4444 14.4369 1017 104.595 191.293 468.022
1612 0 75.3582 14.5041 1093 104.825 190.787 460.698
1613 0 75.8574 15.2655 1158 109.619 190.603 452.587
1614 0 78.9482 13.3632 1055 110.297 190.201 455.102
1615 0 82.5559 14.8748 1228 104.296 189.2 452.737
1616 0 84.7207 14.0461 1190 106.482 189.734 446.74
1617 0 85.4953 13.3692 1143 109.76 190.298 442.691
1618 0 88.8157 14.1979 1261 109.339 190.596 438.979
1619 0 91.9598 11.8313 1088 112.526 191.186 442.296
1620 0 94.0841 12.2975 1157 113.339 191.99 437.329
1621 1 48.8933 11.024 539 111.106 192.273 460.538
1622 0 49.7498 13.6483 679 109.152 192.642 462.901
1623 0 53.1249 13.12 697 106.504 194.775 460.504
1624 0 53.0891 13.1665 699 107.578 195.381 462.063
1625 0 56.5401 10.7888 610 110.557 195.725 460.167
1626 0 56.1351 14.3226 804 105.677 195.557 459.703
1627 0 57.1362 9.17108 524 111.248 196.302 459.901
1628 0 60.3508 13.6204 822 107.314 198.23 453.395
1629 0 65.3457 15.8082 1033 102.749 198.705 452.453
1630 0 65.2348 11.6502 760 107.85 198.637 455.276
1631 0 64.2203 13.6561 877 105.123 198.983 458.667
1632 0 66.1904 11.059 732 108.48 199.033 458.881
1633 0 69.733 10.2534 715 111.403 199.214 449.259
1634 0 70.3653 11.8098 831 109.403 199.396 450.507
1635 0 72.1941 9.86231 712 111.465 198.744 457.097
1636 0 77.1773 11.9336 921 107.604 198.367 459.629
1637 0 80.2009 10.1246 812 111.329 197.945 453.69
1638 0 86.3493 14.534 1255 104.648 197.9 454.551
1639 0 85.5906 11.0292 944 110.927 197.617 449.811
1640 1 44.2875 9.9125 439 106.344 197.501 476.301
1641 0 47.6437 10.9773 523 105.478 196.971 476.623
1642 0 49.0871 11.0824 544 104.987 194.408 481.551
1643 0 47.2232 10.588 500 109.746 195.574 480.168
1644 0 50.4729 13.3537 674 104.746 194.596 478.886
1645 0 52.1482 13.6917 714 104.913 193.79 478.797
1646 0 52.2452 13.7429 718 104.586 193.599 476.613
1647 0 55.2224 15.3199 846 101.358 192.175 476.669
1648 0 57.2651 11.5253 660 106.509 192.598 473.706
1649 0 59.4302 12.9564 770 105.231 192.005 468.478
1650 0 59.3086 14.2981 848 102.795 191.397 468.916
1651 0 62.353 12.1726 759 104.676 192.078 466.83
1652 0 68.6412 13.301 913 101.415 191.692 468.751
1653 1 77.4705 25.5968 1983 88.8316 190.081 455.474
1654 0 85.227 20.3222 1732 91.6582 189.293 447.621
1655 0 81.7312 25.6818 2099 89.4164 188.803 440.527
1656 0 82.4803 17.8346 1471 99.38 190.062 441.213
1657 0 86.7708 27.2557 2365 89.4423 189.819 438.016
1658 1 39.4525 11.0766 437 107.449 190.995 460.03
1659 0 39.6523 17.7291 703 99.0754 190.963 465.35
1660 0 38.5871 11.2473 434 110.327 190.565 461.433
1661 0 43.7951 14.0198 614 104.984 191.629 463.104
1662 0 43.207 11.8036 510 109.192 191.308 457.251
1663 0 44.3272 12.3175 546 111.136 192.526 442.053
1664 0 47.3639 12.8368 608 109.457 191.895 448.132
1665 0 48.5153 13.7895 669 109.238 193.64 459.018
1666 0 48.5153 13.7276 666 138.182 196.638 458.953
1667 0 50.2859 12.0113 604 108.705 194.995 465.293
1668 0 56.3022 12.9125 727 107.398 195.902 459.563
1669 0 62.7813 27.1896 1707 87.8348 194.622 455.926
1670 0 75.0415 17.4437 1309 93.4843 195.189 447.468
1671 0 69.4094 23.4262 1626 89.5793 195.312 449.001
1672 0 69.3283 25.1557 1744 89.7833 195.936 459.743
1673 0 67.372 15.2734 1029 103.196 197.506 455.94
1674 0 69.7271 24.6532 1719 92.0739 196.399 453.538
1675 0 67.289 15.5746 1048 104.962 196.969 459.422
1676 0 68.404 14.6483 1002 107.298 198.287 457.589
1677 0 69.5363 16.3368 1136 105.749 196.96 461.465
1678 0 69.8954 12.1467 849 112.736 197.144 459.684
1679 0 72.6095 16.1825 1175 107.479 198.473 460.602
1680 0 74.7889 14.0128 1048 111.576 196.812 455.957
1681 0 77.6926 12.691 986 111.721 195.767 459.797
1682 1 43.4442 10.1279 440 113.543 195.723 478.098
1683 0 44.3399 10.6901 474 112.54 194.297 476.975
1684 0 45.4696 13.6355 620 109.356 195.6 478.311
1685 0 45.1755 12.7503 576 112.854 194.247 476.286
1686 0 47.2908 11.2284 531 115.49 192.863 474.727
1687 0 47.0699 11.3236 533 115.655 193.006 481.311
1688 0 48.0564 12.7558 613 110.995 192.636 479.091
1689 0 51.0791 12.5883 643 114.336 192.51 474.488
1690 0 50.0449 11.5097 576 114.783 191.411 473.849
1691 0 53.0442 14.3088 759 110.034 191.527 474.497
1692 0 56.1056 13.4568 755 112.25 191.503 473.217
1693 0 57.0873 13.5407 773 113.824 191.01 470.351
1694 0 57.1152 12.3085 703 114.33 189.838 472.644
1695 0 60.3206 13.1962 796 114.186 190.889 466.902
1696 0 62.1575 13.5301 841 112.43 190.521 468.243
1697 0 67.046 16.7646 1124 106.441 190.654 465.393
1698 0 67.072 14.4621 970 110.343 189.787 463.735
1699 0 69.1502 14.0274 970 112.921 189.806 461.656
1700 0 73.2966 12.7291 933 113.964 190.61 458.017
1701 0 75.1883 14.324 1077 110.053 190.305 460.653
1702 0 71.3454 9.2788 662 119.205 190.139 456.201
1703 1 42.3424 10.1081 428 114.164 192.584 464.107
1704 0 45.3517 13.1197 595 107.908 190.855 467.434
1705 0 44.4696 12.8402 571 105.31 192.606 461.303
1706 0 48.5 15.3196 743 104.192 193.296 457.781
1707 0 48.1364 10.9896 529 112.484 193.8 457.86
1708 0 51.0618 13.1018 669 107.997 195.144 460.342
1709 0 51.142 11.6343 595 110.971 196.303 459.709
1710 0 53.3796 11.5025 614 111.285 194.306 462.782
1711 0 56.3849 14.738 831 106.61 195.617 455.549
1712 0 56.5406 11.6023 656 110.95 195.691 459.572
1713 0 57.534 12.7403 733 108.503 195.652 463.888
1714 0 59.3412 14.779 877 107.609 196.993 462.359
1715 0 61.1221 12.974 793 110.578 196.803 459.886
1716 0 63.4506 12.8762 817 110.345 197.526 462.006
1717 0 65.3967 13.5634 887 109.383 197.744 461.368
1718 0 66.4334 15.9408 1059 105.907 197.337 458.856
1719 0 67.3107 13.8759 934 109.961 197.558 458.646
1720 0 69.3438 13.2095 916 110.021 197.034 462.463
1721 0 78.3083 14.0343 1099 107.217 198.035 455.189
1722 0 81.6922 15.0198 1227 105.579 197.991 456.256
1723 0 76.5086 13.6847 1047 110.483 197.323 459.984
1724 0 79.5671 12.7942 1018 112.881 195.955 456.188
1725 1 42.3927 7.5013 318 117.393 194.582 475.642
1726 0 43.2545 10.0799 436 113.342 196.821 462.576
1727 0 44.2522 13.3327 590 108.827 196.014 470.493
1728 0 46.5427 11.237 523 110.885 193.706 473.434
1729 0 50.8368 13.1204 667 106.456 195.657 473.008
1730 0 50.3374 14.224 716 109.001 193.133 463.927
1731 0 49.3979 12.045 595 115.279 192.955 452.988
1732 0 50.1434 10.2905 516 118.002 193.165 458.283
1733 0 54.6578 11.8373 647 113.839 193.131 461.66
1734 0 55.4253 14.939 828 109.649 192.754 461.813
1735 0 57.2661 14.4588 828 111.605 192.078 467.925
1736 0 56.4304 14.0881 795 110.564 190.98 470.445
1737 0 55.3369 12.7401 705 114.078 191.074 470.929
1738 0 60.4077 13.8724 838 112.307 191.143 467.328
1739 0 61.1859 16.0168 980 107.869 190.963 469.048
1740 0 64.1425 16.4789 1057 107.51 191.523 456.308
1741 0 67.372 14.5016 977 111.129 190.508 449.404
1742 0 67.5397 14.2731 964 111.306 190.398 459.15
1743 0 69.5546 12.2206 850 114.255 189.547 456.7
1744 0 70.2455 14.0934 990 112.263 191.52 454.748
1745 0 75.2201 14.0654 1058 111.278 191.936 449.544
1746 0 77.2351 15.0061 1159 110.134 191.823 444.855
1747 0 79.3211 12.8213 1017 114.928 191.447 429.994
1748 0 83.4649 13.2511 1106 113.712 192.848 432.038
1749 0 83.2482 12.9492 1078 113.91 193.14 439.454
1750 0 87.1891 13.5797 1184 109.905 193.717 442.902
1751 0 93.0841 12.6552 1178 109.88 194.052 439.754
1752 0 95.1251 13.6557 1299 107.82 194.624 440.21
1753 0 98.1081 15.6256 1533 105.452 194.156 433.025
1754 1 52.2021 12.1834 636 105.689 195.484 459.325
1755 0 52.1633 11.0039 574 106.08 195.817 462.249
1756 0 55.2851 12.1371 671 111.639 196.52 456.553
1757 0 57.113 12.0638 689 111.247 196.327 459.974
1758 0 58.0524 11.7652 683 112.167 196.365 457.98
1759 0 60.3871 12.2212 738 111.205 198.354 458.053
1760 0 64.38 13.5601 873 108.506 197.236 449.944
1761 0 66.6989 15.5775 1039 105.619 197.681 454.012
1762 0 66.2465 12.3025 815 110.703 199.023 453.995
1763 0 69.4574 14.0086 973 108.384 199.195 458.631
1764 0 69.5632 12.2047 849 112.187 199.591 454.656
1765 0 75.3316 14.6419 1103 106.869 198.999 458.847
1766 0 75.8287 13.3591 1013 110.12 198.919 457.04
1767 0 79.4357 11.267 895 108.963 197.917 459.363
1768 0 83.6557 15.265 1277 106.609 197.07 453.253
1769 0 86.3591 14.0576 1214 104.718 197.132 455.72
1770 0 89.3718 14.4117 1288 104.928 195.732 453.569
1771 0 92.4668 15.2271 1408 103.901 194.997 455.281
1772 0 95.7355 12.6181 1208 107.796 195.408 454.108
1773 1 47.3114 9.9976 473 109.186 194.292 475.268
1774 0 51.1347 13.1809 674 103.286 194.525 474.337
1775 0 51.1347 13.2591 678 122.109 193.512 474.361
1776 0 57.0677 13.1598 751 100.752 191.597 474.045
1777 0 57.1604 17.2322 985 96.2629 192.04 471.989
1778 0 59.0324 11.5868 684 102.81 191.186 469.148
1779 0 52.0634 11.4476 596 109.656 192.196 460.396
1780 1 65.1567 16.9131 1102 99.3811 191.886 466.067
1781 0 66.2546 13.7198 909 103.178 191.675 465.477
1782 0 64.081 10.8144 693 102.902 190.967 461.494
1783 0 68.2013 13.1229 895 100.649 191.079 462.44
1784 0 70.1413 11.5339 809 104.058 190.446 458.388
1785 0 82.4243 16.3423 1347 97.8196 190.88 454.184
1786 0 84.1754 18.996 1599 94.9988 190.842 451.901
1787 0 78.1844 11.8054 923 108.342 190.189 449.816
1788 0 82.3383 13.0195 1072 103.105 190.918 452.379
1789 0 86.1821 16.6972 1439 101.724 191.992 448.342
1790 0 87.3708 13.7804 1204 106.361 191.556 441.596
1791 1 45.5389 8.98133 409 111.469 193.171 460.895
1792 0 50.1531 12.5416 629 104.467 191.83 464.618
1793 0 51.6196 14.7037 759 101.274 193.663 461.585
1794 0 51.0899 10.8828 556 106.799 193.245 465.477
1795 0 53.0752 14.5266 771 103.34 193.488 462.134
1796 0 55.1037 12.7396 702 105.292 193.741 463.33
1797 0 57.1199 13.673 781 104.494 193.81 462.659
1798 0 56.1042 10.4983 589 109.849 194.484 462.177
1799 0 60.1497 10.6069 638 110.47 195.298 457.426
1800 0 60.1345 9.86123 593 111.492 195.664 458.759
1801 0 62.0599 14.7438 915 104.914 195.674 456.952
1802 0 65.2246 14.9023 972 103.867 196.799 456.564
1803 0 67.1905 12.0106 807 108.083 197.338 457.019
1804 0 68.0605 11.8718 808 109.225 197.981 459.031
1805 0 66.1848 7.72081 511 115.624 197.849 456.536
1806 0 72.2283 10.6468 769 109.811 198.268 454.144
1807 0 79.5586 13.1224 1044 105.011 199.644 454.753
1808 0 77.2097 8.9108 688 112.183 198.262 450.385
1809 0 81.3464 12.0472 980 106.769 197.407 457.754
1810 0 86.246 11.56 997 107.678 196.737 455.054
1811 0 88.244 11.7742 1039 107.106 196.734 454.516
1812 0 94.5201 13.1401 1242 104.809 197.738 450.849
1813 1 48.0295 12.763 613 102.222 197.176 476.812
1814 0 49.2634 14.0063 690 101.9 194.578 469.507
1815 0 53.2543 11.492 612 105.637 195.175 462.461
1816 0 51.4889 9.40009 484 109.2 193.326 471.271
1817 0 55.1334 12.6965 700 104.55 193.153 473.216
1818 0 58.3722 13.1741 769 102.957 194.326 471.769
1819 0 60.0603 12.7372 765 104.089 194.033 469.795
1820 0 58.1354 7.65455 445 111.602 191.982 472.404
1821 0 62.2393 13.4963 840 104.036 191.267 470.033
1822 0 65.1722 15.4667 1008 100.437 191.502 466.092
1823 0 64.1139 12.0411 772 106.411 190.933 462.719
1824 0 67.1104 14.0068 940 104.393 190.636 462.218
1825 0 70.0728 9.73274 682 109.474 190.133 460.633
1826 0 70.0935 14.1383 991 105.271 189.617 458.053
1827 0 70.1087 12.8087 898 107.547 189.584 454.504
1828 0 75.1538 12.5875 946 107.362 190.474 454.223
1829 0 79.1838 13.8791 1099 105.399 190.736 451.814
1830 0 85.3639 15.7795 1347 101.212 191.163 456.185
1831 0 81.2106 12.1166 984 107.732 191.385 450.54
1832 0 83.3638 9.76443 814 112.666 191.858 445.816
1833 1 175.521 16.0209 2812 106.73 191.361 401.294
1834 1 92.3107 13.7579 1270 108.072 191.472 435.575
1835 0 95.2906 16.6648 1588 103.989 191.965 429.777
1836 0 97.4557 13.4831 1314 108.409 192.798 434.911
1837 0 98.4208 13.5744 1336 108.561 193.531 439.094
1838 0 100.596 11.8493 1192 111.072 193.885 437.35
1839 0 109.493 14.2292 1558 106.884 195.998 424.92
1840 1 55.3168 11.9132 659 107.42 196.595 448.22
1841 0 57.2656 12.1888 698 107.007 196.871 457.844
1842 0 60.2339 13.1653 793 104.086 197.972 460.711
1843 0 63.1067 11.9797 756 106.876 198.791 458.648
1844 0 63.195 10.3648 655 109.637 199.266 457.982
1845 0 65.254 12.9188 843 106.361 199.13 459.256
1846 0 67.4394 13.1822 889 106.596 198.453 455.519
1847 0 69.1512 12.6101 872 107.182 198.021 457.778
1848 0 74.3942 13.8048 1027 104.511 198.753 459.013
1849 0 75.2069 13.4961 1015 105.061 198.963 454.734
1850 0 78.4026 12.7929 1003 108.267 198.166 447.014
1851 0 81.3683 13.9489 1135 105.14 198.21 454.544
1852 0 82.2115 10.9839 903 109.814 198.141 460.118
1853 0 87.4543 14.5905 1276 104.396 197.214 455.672
1854 0 90.4057 17.2666 1561 101.937 196.34 440.368
1855 0 93.52 11.3024 1057 110.024 196.262 445.564
1856 1 48.2119 11.885 573 107.37 196.422 464.12
1857 0 53.1212 12.8197 681 104.448 196.254 464.48
1858 0 52.2556 10.5443 551 106.637 197.236 480.125
1859 0 57.1145 16.8784 964 97.4212 194.423 470.974
1860 0 59.5354 14.4788 862 100.116 192.64 477.658
1861 0 61.2064 14.6063 894 102.255 191.588 471.329
1862 0 60.2401 10.7902 650 107.94 191.722 474.965
1863 0 59.1408 12.3772 732 107.546 191.299 471.995
1864 0 61.2445 13.7155 840 105.907 191.343 467.571
1865 0 66.1003 13.5854 898 105.337 191.222 465.948
1866 0 67.1923 12.6056 847 107.308 191.111 464.247
1867 0 69.1143 12.4866 863 106.841 190.968 463.972
1868 0 70.1528 16.5353 1160 101.696 189.582 461.908
1869 0 72.1132 12.0228 867 107.668 189.824 463.246
1870 0 71.1627 10.1739 724 111.174 189.76 459.459
1871 0 76.1861 15.449 1177 102.596 190.012 460.303
1872 0 76.2013 12.5588 957 107.88 189.627 456.861
1873 0 79.1566 17.6865 1400 101.024 190.25 453.221
1874 0 87.4517 20.72 1812 95.7136 189.807 448.282
1875 0 87.1194 15.7829 1375 102.959 190.174 448.103
1876 0 89.1487 17.6671 1575 100.479 190.523 444.498
1877 0 92.2566 17.7548 1638 100.723 191.076 440.842
1878 0 94.2169 14.8169 1396 104.229 191.306 438.752
1879 1 47.0823 15.7809 743 100.236 191.849 462.436
1880 0 46.1183 12.2511 565 105.522 192.365 462.727
1881 0 50.0741 11.7426 588 106.607 193.696 462.527
1882 0 52.0961 11.0181 574 107.106 194.361 456.812
1883 0 54.4763 14.6302 797 102.577 194.832 458.473
1884 0 51.0788 14.6049 746 99.1153 196.554 464.106
1885 0 56.0921 11.4633 643 105.254 196.493 461.642
1886 0 59.19 14.2423 843 103.39 197.51 460.291
1887 0 59.1866 12.4521 737 106.148 198.235 461.886
1888 0 61.1483 13.41 820 106.118 198.001 458.959
1889 0 62.1535 12.3565 768 104.165 197.689 460.256
1890 0 66.1302 15.2275 1007 104.043 198.419 455.482
1891 0 67.2275 13.2238 889 105.994 197.582 459.703
1892 0 72.1396 14.8739 1073 104.078 200.003 450.249
1893 0 74.3211 13.2937 988 107.131 198.856 450.505
1894 0 74.3211 13.2668 986 143.687 197.842 450.544
1895 0 79.3325 13.8657 1100 105.33 198.298 462.676
1896 0 82.0864 14.168 1163 106.091 198.363 450.722
1897 0 88.2016 16.9385 1494 101.24 198.284 456.457
1898 0 94.1944 18.4087 1734 99.1892 198.645 447.326
1899 1 49.1699 14.5007 713 103.48 197.959 454.844
1900 0 48.0393 11.9902 576 107.575 196.885 456.332
1901 0 52.1261 10.9926 573 110.22 196.309 460.028
1902 0 51.0475 12.0672 616 105.531 193.774 463.034
1903 0 54.3251 14.8918 809 104.032 193.843 477.084
1904 0 55.1641 12.8163 707 108.624 192.911 473.46
1905 0 57.1477 11.2515 643 110.499 193.337 472.328
1906 0 60.2779 16.1751 975 103.256 192.363 471.178
1907 0 61.2057 14.9496 915 104.385 191.43 472.636
1908 0 64.2546 14.4737 930 106.573 190.992 469.39
1909 0 63.2055 13.2583 838 108.59 190.344 467.494
1910 0 68.2761 14.1777 968 106.126 190.341 466.828
1911 0 70.2222 16.4051 1152 103.894 190.205 460.565
1912 0 70.2308 15.6911 1102 106.249 190.557 461.793
1913 0 73.3085 14.7323 1080 107.137 190.251 460.692
1914 0 78.3918 16.6216 1303 103.723 189.944 456.486
1915 0 76.0589 11.7672 895 113.147 189.726 457.59
1916 1 41.0608 9.86342 405 111.252 190.032 474.751
1917 0 42.0521 14.3869 605 106.61 190.975 462.929
1918 0 45.0976 13.1271 592 109.441 191.027 457.623
1919 0 45.2987 14.4375 654 108.997 192.249 456.289
1920 0 46.1333 11.5968 535 113.45 192.292 461.409
1921 0 49.4668 14.0094 693 109.075 193.208 464.531
1922 0 49.4849 13.5597 671 111.083 193.544 462.437
1923 0 52.2014 16.513 862 106.943 194.544 452.168
1924 0 53.2979 15.085 804 109.587 194.536 453.376
1925 0 56.0614 14.3057 802 109.405 197.054 463.68
1926 0 57.2135 15.0839 863 110.504 196.885 460.669
1927 0 58.2333 14.9399 870 111.015 196.441 458.964
1928 0 61.2004 13.3332 816 112.815 196.858 458.42
1929 0 69.3344 19.6151 1360 99.0838 196.631 455.212
1930 0 69.1732 24.0555 1664 95.1941 196.055 451.359
1931 0 69.1739 18.3884 1272 103.452 197.336 453.77
1932 0 68.2905 15.4341 1054 109.463 198.144 458.456
1933 0 71.1804 16.3669 1165 108.539 198.605 458.014
1934 0 73.3088 14.3912 1055 110.39 198.513 461.927
1935 0 80.2647 13.7919 1107 111.245 198.836 454.435
1936 0 80.2084 14.2005 1139 113.603 198.852 434.158
1937 0 82.2503 13.9817 1150 114.62 199.183 446.868
1938 0 88.558 15.2781 1353 109.993 198.904 460.614
1939 0 91.3487 17.1431 1566 108.734 197.748 442.496
1940 0 92.2694 15.975 1474 111.682 198.291 440.259
1941 1 46.0736 11.0041 507 117.404 195.982 471.576
1942 0 47.2143 10.6535 503 119.147 196.829 475.777
1943 0 52.2238 14.3038 747 112.556 195.475 474.898
1944 0 50.4194 10.73 541 118.244 195.641 474.458
1945 0 56.3044 13.7822 776 112.688 194.412 469.608
1946 0 59.2889 16.2088 961 108.003 193.845 467.945
1947 0 57.2373 13.5401 775 114.419 193.719 474.708
1948 0 61.27 14.5585 892 111.546 192.612 470.88
1949 0 67.4448 14.397 971 109.87 191.662 466.48
1950 0 68.5336 16.1818 1109 107.07 191.671 466.088
1951 0 67.2904 15.1879 1022 110.807 191.132 464.2
1952 1 80.7362 24.6606 1991 92.4003 189.896 455.575
1953 0 79.477 20.962 1666 97.4004 190.012 452.547
1954 0 83.355 17.8754 1490 101.821 190.6 460.026
1955 0 84.4085 15.7922 1333 106.037 189.887 456.516
1956 0 83.5133 18.3683 1534 102.752 189.86 454.075
1957 0 84.3758 21.7361 1834 98.7704 189.292 456.202
1958 0 85.3955 15.8908 1357 107.688 189.285 450.957
1959 0 86.5632 13.5161 1170 111.053 190.223 451.997
1960 0 89.4158 15.1092 1351 110.135 189.894 443.148
1961 0 92.5802 13.3506 1236 111.694 191.475 446.56
1962 0 93.5317 13.311 1245 112.369 190.924 442.265
1963 1 48.2216 13.3135 642 108.248 191.878 465.514
1964 0 51.1909 15.2371 780 105.033 192.608 462.07
1965 0 55.0738 12.7828 704 107.274 192.845 464.173
1966 0 55.1516 13.9434 769 109.282 192.189 444.589
1967 0 56.4632 14.6998 830 108.141 192.789 459.604
1968 0 57.0648 14.1068 805 109.345 192.97 460.27
1969 0 60.2032 16.3945 987 105.428 194.317 457.381
1970 0 63.1248 14.3208 904 107.186 195.212 459.997
1971 0 64.07 13.0014 833 110.365 197.002 455.963
1972 0 67.2565 12.549 844 111.249 196.384 450.833
1973 0 69.106 14.0509 971 108.58 197.008 454.384
1974 0 70.1372 15.2416 1069 107.242 197.566 454.105
1975 0 73.2278 14.8441 1087 107.622 197.444 453.693
1976 0 75.1555 14.1573 1064 108.303 198.575 451.648
1977 0 76.2199 12.4902 952 110.705 198.931 453.165
1978 0 81.2974 12.5342 1019 110.287 199.258 456.404
1979 0 86.3276 13.7847 1190 107.969 198.961 453.397
1980 0 86.1442 11.3414 977 111.642 197.827 454.562
1981 0 93.1562 14.9426 1392 104.309 197.973 450.455
1982 0 95.2282 13.3574 1272 108.047 197.579 451.596
1983 1 48.0556 11.0497 531 110.06 197.874 473.301
1984 0 52.2365 16.6167 868 101.382 196.688 471.441
1985 0 52.3642 12.795 670 108.301 196.648 470.552
1986 0 54.1351 12.7274 689 107.254 195.907 475.978
1987 0 59.1794 13.7886 816 105.765 195.74 471.999
1988 0 59.2162 12.3277 730 108.901 194.218 471.836
1989 0 62.098 17.1181 1063 101.791 193.886 468.189
1990 0 65.194 14.5412 948 105.222 193.398 470.283
1991 0 66.0962 13.9342 921 106.849 193.526 464.141
1992 0 67.1079 11.8466 795 110.948 193.678 465.465
1993 0 71.1678 13.7 975 107.917 192.102 463.304
1994 0 72.1394 13.7373 991 107.913 191.957 463.144
1995 0 77.0824 14.2834 1101 105.791 192.045 464.332
1996 0 78.1895 17.1123 1338 102.329 190.909 462.25
1997 0 80.249 14.0438 1127 107.276 190.012 460.915
1998 0 80.3685 14.222 1143 108.43 189.138 456.095
1999 0 86.4318 16.8109 1453 104.06 189.292 451.777
2000 0 88.2766 15.5987 1377 104.86 189.604 455.717
2001 0 90.3202 13.8839 1254 108.119 189.809 451.583
2002 1 48.2443 10.965 529 109.042 191.072 471.423
2003 0 51.1779 13.1893 675 105.437 191.187 470.028
2004 0 50.0696 12.3029 616 108.11 191.44 464.295
2005 0 54.0517 12.229 661 106.69 192.389 465.362
2006 0 57.1139 14.3923 822 106.406 192.596 462.141
2007 0 58.237 12.9299 753 109.227 192.772 461.555
2008 0 62.36 15.7473 982 103.768 192.188 457.964
2009 0 62.3738 18.4693 1152 101.581 192.787 456.04
2010 0 63.2536 14.0703 890 108.992 194.287 459.124
2011 0 64.1851 16.1876 1039 106.529 195.187 455.496
2012 0 64.3879 11.8966 766 113.573 195.478 456.928
2013 0 69.4076 13.3271 925 111.123 195.803 456.783
2014 0 71.1591 14.3481 1021 109.597 195.818 454.969
2015 0 70.2068 11.8934 835 113.377 195.983 453.455
2016 0 77.2864 15.1903 1174 108.71 197.632 452.349
2017 0 77.4524 12.3431 956 114.353 198.905 450.467
2018 0 83.2516 13.7655 1146 111.846 198.516 451.49
2019 0 84.2143 12.112 1020 113.709 198.546 452.865
2020 0 91.3437 16.1368 1474 107.431 198.863 447.642
2021 0 93.3489 14.0548 1312 110.56 198.2 451.686
2022 1 49.1839 13.9883 688 102.658 198.422 476.834
2023 0 53.5235 13.6576 731 103.536 196.876 469.903
2024 0 53.5149 11.4734 614 107.751 196.322 469.824
2025 0 55.4296 13.657 757 106.84 196.867 474.801
2026 0 53.1365 10.9906 584 117.991 196.568 471.897
2027 0 55.0848 13.3612 736 114.353 196.746 473.079
2028 0 59.1619 13.7081 811 114.129 195.725 471.961
2029 0 57.2373 12.4394 712 117.779 196.093 472.351
2030 0 61.1803 14.2203 870 114.125 195.878 473.02
2031 0 64.1341 16.7617 1075 110.127 194.759 470.406
2032 0 65.2806 12.5458 819 117.158 194.231 469.074
2033 0 69.4052 11.7859 818 118.021 192.789 466.517
2034 0 70.2925 13.017 915 116.423 192.256 466.374
2035 0 73.1727 12.2997 900 118.861 191.741 465.546
2036 0 78.4199 15.8633 1244 109.912 191.477 460.084
2037 0 81.3934 20.4562 1665 103.059 191.179 460.882
2038 0 79.2262 14.5533 1153 114.514 190.935 458.261
2039 0 82.348 13.3701 1101 114.774 190.467 461.29
2040 0 82.3269 12.7176 1047 118.057 190.641 456.242
2041 0 89.4317 17.2758 1545 109.375 189.657 453.612
2042 1 45.1763 10.7136 484 117.486 191.304 473.853
2043 0 50.0782 12.6402 633 113.107 190.548 472.319
2044 0 49.1718 14.9273 734 110.563 190.23 470.89
2045 0 51.0953 13.6803 699 111.632 190.279 470.011
2046 0 52.234 14.9902 783 109.793 190.605 467.803
2047 0 55.2284 14.7207 813 110.44 191.373 466.255
2048 0 56.2539 13.2613 746 113.064 191.346 465.241
2049 0 53.3305 10.8568 579 119.613 191.263 460.772
2050 0 59.4023 11.9187 708 114.72 191.867 462.869
2051 0 59.2385 14.3825 852 111.153 193.08 458.65
2052 0 62.2899 15.6044 972 109.155 194.177 457.616
2053 0 68.453 19.1518 1311 100.371 193.978 450.395
2054 0 68.4557 15.09 1033 108.72 194.946 452.701
2055 0 69.4672 14.6544 1018 110.125 195.006 455.311
2056 0 71.5016 15.678 1121 108.925 196.163 451.55
2057 0 72.5253 15.7462 1142 109.795 196.783 452.756
2058 0 74.4376 16.7791 1249 108.034 197.307 444.667
2059 0 75.4034 15.9011 1199 110.388 197.029 445.423
2060 0 77.5501 13.9136 1079 113.952 197.116 450.878
2061 0 81.5001 16.773 1367 108.535 196.999 449.219
2062 0 87.012 15.5381 1352 109.791 197.454 451.227
2063 0 84.7173 15.2861 1295 112.157 197.713 444.311
2064 0 91.6842 16.1096 1477 108.725 197.953 451.473
2065 0 91.9184 15.5464 1429 112.045 197.979 447.237
2066 0 97.895 14.3215 1402 113.621 197.041 443.561
2067 0 99.7394 15.8714 1583 111.499 197.515 441.742
2068 0 102.704 18.0422 1853 108.382 196.392 441.312
2069 0 107.849 16.3654 1765 109.941 196.781 443.06
2070 0 109.619 15.3988 1688 112.243 196.302 442.158
2071 0 114.09 12.8758 1469 116.228 195.889 437.813
2072 0 116.855 17.4061 2034 108.209 195.27 439.889
2073 1 61.4461 13.6705 840 108.905 193.008 469.851
2074 0 61.4175 10.9741 674 114.444 192.773 468.665
2075 0 65.2936 14.4884 946 109.017 192.188 463.976
2076 0 67.1372 11.3797 764 107.01 192.501 467.74
2077 0 72.4705 14.6404 1061 103.519 191.928 464.746
2078 0 74.2316 14.1853 1053 103.823 191.836 463.681
2079 0 75.1838 13.7131 1031 104.994 191.113 465.616
2080 0 78.2364 12.5261 980 106.371 190.985 459.601
2081 0 79.5686 15.1567 1206 106.561 189.803 452.883
2082 0 80.5661 13.1445 1059 146.179 189.764 454.502
2083 0 82.4467 12.8932 1063 108.394 189.069 457.048
2084 0 89.3238 15.0128 1341 105.638 190.291 445.48
2085 0 90.9345 13.9221 1266 107.063 190.389 447.265
2086 0 93.5427 12.8284 1200 105.469 190.606 449.286
2087 0 95.5466 15.7619 1506 100.324 190.378 447.477
2088 0 100.308 14.316 1436 102.348 190.113 445.591
2089 0 101.579 16.4109 1667 100.486 190.583 434.822
2090 1 51.2558 11.2182 575 101.057 191.59 465.005
2091 0 56.5262 14.8604 840 102.329 191.1 457.376
2092 0 56.1504 9.95541 559 109.127 192.565 458.417
2093 0 58.3001 13.3448 778 105.898 193.492 458.715
2094 0 60.0881 14.2624 857 103.508 194.194 459.373
2095 0 60.0673 11.8367 711 108.194 193.745 458.513
2096 0 62.0633 11.3594 705 108.637 195.095 458.875
2097 0 65.3139 11.9576 781 108.478 195.778 454.881
2098 0 67.2225 12.5107 841 107.038 195.473 455.479
2099 0 69.5493 14.177 986 104.021 195.366 454.82
2100 0 73.27 13.8665 1016 105.267 195.567 448.782
2101 0 74.2123 13.3266 989 105.991 196.333 449.897
2102 0 75.2189 11.2738 848 108.718 198.221 451.371
2103 0 75.2189 11.3402 853 148.754 199.204 451.361
2104 0 82.1894 16.6688 1370 100.447 197.859 450.676
2105 1 47.1899 11.5491 545 106.13 198.198 469.712
2106 0 46.0219 12.2116 562 104.842 198.89 470.244
2107 0 48.0934 13.2866 639 103.628 198.942 470.075
2108 0 48.052 12.2992 591 104.245 198.357 471.11
2109 0 52.3087 13.4777 705 100.84 196.077 473.468
2110 0 52.5072 11.9222 626 105.457 196.54 465.059
2111 0 54.0719 14.8691 804 99.8284 197.427 473.209
2112 0 56.3158 14.3654 809 102.768 196.482 473.019
2113 0 58.2508 13.0299 759 104.028 195.465 475.841
2114 0 57.221 8.84291 506 110.711 194.87 471.947
2115 0 62.1461 14.128 878 102.556 193.454 473.878
2116 0 62.2568 13.2194 823 105.162 192.396 470.87
2117 0 65.1569 14.4574 942 97.2654 190.513 475.669
2118 0 66.1927 10.4392 691 103.431 189.653 472.709
2119 0 69.2496 14.3828 996 102.677 191.231 467.808
2120 0 74.2571 18.611 1382 96.5883 190.102 462.184
2121 0 74.1292 17.537 1300 98.7046 190.388 460.845
2122 0 82.5828 22.6076 1867 89.9893 189.634 451.773
2123 0 81.1697 15.8064 1283 100.037 190.009 457.746
2124 0 84.248 19.039 1604 96.8155 188.52 457.855
2125 0 82.2017 14.0751 1157 104.353 189.29 455.334
2126 0 86.1867 13.2967 1146 104.716 188.388 456.38
2127 0 86.2045 15.1616 1307 103.77 189.034 448.178
2128 0 89.131 14.5292 1295 104.942 188.737 448.731
2129 0 92.26 13.2885 1226 104.998 188.489 450.928
2130 0 96.1454 14.5821 1402 103.584 188.927 450.262
2131 0 95.1386 17.4903 1664 100.147 189.67 447.133
2132 1 53.324 14.7588 787 100.911 190.294 455.304
2133 0 52.143 17.452 910 97.8242 190.421 452.101
2134 0 54.3019 16.4267 892 98.9383 190.187 463.012
2135 0 55.1373 13.6024 750 104.365 191.495 462.644
2136 0 56.0922 14.8506 833 100.552 191.648 462.51
2137 0 64.2034 23.9862 1540 90.8591 192.894 456.726
2138 0 69.1174 17.6945 1223 96.3843 194.343 456.87
2139 0 70.0738 20.2501 1419 94.1515 194.621 453.358
2140 0 70.1344 16.7535 1175 99.4485 195.605 457.911
2141 0 68.1008 16.7252 1139 100.5 194.384 454.312
2142 0 70.1657 16.461 1155 100.111 194.416 455.554
2143 0 73.1094 14.4031 1053 104.369 195.041 453.383
2144 0 78.3061 16.742 1311 99.9519 195.081 453.601
2145 0 82.4023 18.1184 1493 97.0623 196.387 445.593
2146 0 83.2112 18.8196 1566 97.355 197.568 441.905
2147 0 84.1288 13.5625 1141 105.667 197.242 441.394
2148 0 87.1254 13.1879 1149 105.975 196.86 454.674
2149 1 45.0682 11.2718 508 105.602 196.884 472.413
2150 0 44.0823 10.9114 481 109.17 195.906 471.364
2151 0 48.1307 10.2429 493 108.531 195.525 473.375
2152 0 49.0966 14.6446 719 103.175 195.659 473.677
2153 0 48.0848 12.3324 593 107.831 196.597 474.007
2154 0 53.147 18.7029 994 96.7093 195.594 474.832
2155 0 55.2983 13.2915 735 105.03 194.593 474.029
2156 0 59.2511 14.3288 849 102.981 193.272 474.655
2157 0 59.132 13.546 801 105.451 192.859 473.02
2158 0 59.2424 10.9212 647 110.564 192.204 470.818
2159 0 64.2962 15.3975 990 102.362 191.113 473.504
2160 0 67.2562 13.3817 900 104.1 191.176 472.037
2161 0 68.1543 13.8656 945 100.319 190.358 467.764
2162 0 66.136 11.9602 791 108.982 190.247 462.365
2163 0 72.469 16.0483 1163 103.721 191.504 457.16
2164 0 72.3357 14.8751 1076 106.578 189.759 462.757
2165 0 77.155 12.4425 960 107.621 189.514 459.692
2166 0 82.5392 20.1965 1667 96.6269 189.47 454.86
2167 0 85.5994 14.3809 1231 106.347 189.198 448.675
2168 0 86.6967 13.207 1145 108.407 188.334 454.224
2169 1 45.4673 10.9309 497 110.074 188.115 467.95
2170 0 48.4305 10.7783 522 106.628 188.983 465.383
2171 0 50.3444 14.5994 735 101.335 188.767 464.01
2172 0 50.4167 10.1157 510 109.576 188.125 468.21
2173 0 55.3064 13.9948 774 103.774 187.381 468.5
2174 0 54.1045 14.2687 772 106.24 187.868 463.68
2175 0 56.4592 15.7282 888 103.102 189.779 457.909
2176 0 59.38 14.3651 853 105.885 189.756 449.159
2177 0 59.0896 13.0141 769 107.922 191.684 444.346
2178 0 60.2392 14.7744 890 106.349 191.227 442.496
2179 0 62.2369 12.7416 793 108.256 191.692 448.313
2180 0 64.2146 13.1278 843 109.052 190.985 446.709
2181 0 66.2926 14.3455 951 106.573 191.898 452.223
2182 0 69.416 15.9473 1107 103.985 192.115 453.668
2183 0 70.3865 13.1275 924 108.916 192.517 452.61
2184 0 74.7401 19.6013 1465 99.7058 194.666 447.238
2185 0 73.337 13.6084 998 108.216 195.383 448.352
2186 0 77.7617 13.2199 1028 110.237 195.468 445.761
2187 0 80.5144 16.0096 1289 105.366 195.635 446.495
2188 0 82.3031 13.6325 1122 109.644 196.127 443.393
2189 0 87.9332 14.2608 1254 107.246 197.207 446.185
2190 1 46.3779 12.7863 593 105.469 198.373 464.681
2191 0 45.4085 9.31543 423 106.277 197.364 462.392
2192 0 46.2416 8.32583 385 105.634 196.187 461.538
2193 0 50.1557 11.8032 592 107.91 196.015 468.698
2194 0 52.0266 12.2053 635 101.827 196.517 470.888
2195 0 53.125 11.8965 632 103.527 196.18 470.881
2196 0 54.0683 11.8739 642 103.693 195.338 470.917
2197 0 54.1356 9.49468 514 106.13 194.582 470.471
2198 0 56.0795 8.48795 476 108.649 195.08 469.197
2199 0 61.3749 11.9593 734 108.901 194.394 468.143
2200 0 63.227 13.0798 827 107.087 194.183 467.857
2201 0 66.297 13.9222 923 104.984 191.765 465.642
2202 0 68.119 11.3184 771 106.332 191.065 465.982
2203 0 70.1232 11.9219 836 105.201 189.807 461.457
2204 0 71.2545 10.8625 774 108.788 191.384 463.087
2205 0 73.3268 8.35984 613 110.369 190.971 465.085
2206 0 74.1745 11.5404 856 106.231 190.943 458.451
2207 1 40.3078 10.8912 439 104.597 190.818 476.633
2208 0 41.086 10.0277 412 105.626 190.248 475.41
2209 0 40.2853 9.55684 385 107.01 190.208 475.831
2210 0 44.1058 10.6789 471 104.361 190.155 471.057
2211 0 46.1376 13.6982 632 101.233 188.348 473.312
2212 0 45.2511 10.9169 494 105.613 188.783 468.095
2213 0 46.3609 11.0869 514 106.239 188.981 467.422
2214 0 45.1486 13.2673 599 103.988 188.297 469.785
2215 0 47.2521 10.4969 496 105.99 189.069 467.774
2216 0 50.1347 11.7085 587 105.486 188.806 462.47
2217 0 53.2891 13.1359 700 104.341 189.686 463.419
2218 0 58.2282 13.9623 813 100.843 189.341 462.118
2219 0 53.1077 10.0362 533 110.011 190.064 460.602
2220 0 55.4539 11.6313 645 105.095 189.431 459.775
2221 0 54.1215 11.0492 598 106.93 189.548 462.174
2222 0 60.3747 18.7164 1130 97.5991 191.296 458.061
2223 0 61.2233 14.1613 867 104.352 192.143 456.423
2224 0 64.211 12.1163 778 108.031 192.211 456.612
2225 0 65.3421 15.855 1036 100.908 190.937 456.221
2226 0 66.3509 12.886 855 104.901 191.823 455.666
2227 0 70.5885 15.8949 1122 102.24 193.379 454.264
2228 0 70.3664 12.9323 910 106.942 194.378 453.954
2229 0 71.3793 13.7014 978 106.46 194.029 449.441
2230 0 78.4501 14.3531 1126 104.785 195.059 452.293
2231 0 79.3911 14.8631 1180 103.956 195.004 453.483
2232 0 80.2631 11.1384 894 109.251 195.364 453.588
2233 0 84.4074 13.0202 1099 106.449 196.272 452.827
2234 0 86.1442 13.3497 1150 106.037 196.346 452.696
2235 1 49.3522 12.0765 596 104.188 197.82 473.052
2236 0 49.1667 12.1017 595 106.798 198.108 473.645
2237 0 52.2447 15.1594 792 100.074 197.302 475.303
2238 0 50.1742 11.5398 579 107.211 197.815 472.952
2239 0 52.2921 11.321 592 108.304 194.715 473.41
2240 0 56.3408 11.4659 646 106.495 194.475 475.505
2241 0 57.1957 12.6758 725 103.538 194.356 477.283
2242 0 61.2284 13.0168 797 105.346 194.327 473.428
2243 0 61.3249 13.2246 811 106.776 192.608 469.638
2244 0 60.2776 10.2526 618 108.995 192.799 468.934
2245 0 64.3112 11.5999 746 107.067 191.188 469.787
2246 0 69.2173 12.3091 852 105.62 191.344 468.567
2247 0 75.2653 23.5168 1770 90.0695 190.868 469.675
2248 0 71.2162 10.8262 771 108.427 189.759 464.782
2249 0 75.3085 13.8497 1043 103.628 188.68 465.145
2250 0 81.1643 14.2181 1154 97.8778 188.893 463.569
2251 0 81.1521 12.6799 1029 104.408 188.794 461
2252 0 85.276 13.6146 1161 103.683 189.334 451.941
2253 0 87.1183 13.4874 1175 101.863 188.429 458.964
2254 0 91.2275 14.6666 1338 101.575 188.791 453.854
2255 1 50.1782 8.35025 419 104.277 189.112 474.315
2256 0 50.449 9.01902 455 104.657 188.947 470.536
2257 0 51.5037 11.9603 616 99.2435 189.654 469.253
2258 0 50.1254 13.9051 697 99.0674 188.964 466.347
2259 0 50.1941 9.1445 459 104.747 189.534 465.529
2260 0 53.1431 10.8763 578 108.573 190.68 462.009
2261 0 56.1981 15.7657 886 101.352 190.129 460.869
2262 0 57.1282 13.4084 766 104.632 190.918 459.137
2263 0 60.1215 14.7036 884 101.273 191.119 459.318
2264 0 61.1443 12.3478 755 105.22 192.136 454.674
2265 0 63.0737 11.7482 741 106.132 192.968 456.53
2266 0 65.8561 12.1477 800 109.82 193.325 453.64
2267 0 66.9732 12.7812 856 108.861 194.192 449.424
2268 0 66.3336 15.1658 1006 106.885 194 450.303
2269 0 69.1321 14.3349 991 102.605 194.587 452.224
2270 0 71.7138 13.2889 953 106.303 195.851 444.236
2271 0 74.6511 12.3374 921 106.562 196.336 447.572
2272 0 79.7355 16.028 1278 99.9225 197.492 447.531
2273 0 82.4576 15.4867 1277 100.785 198.399 446.354
2274 0 81.4267 11.5196 938 106.583 198.592 446.504
2275 0 88.5462 14.0379 1243 102.347 198.483 446.825
2276 1 42.3894 11.8426 502 103.608 198.002 463.819
2277 0 46.6775 11.2045 523 102.346 198.256 469.937
2278 0 51.4504 13.3332 686 104.529 197.292 466.445
2279 0 52.4577 12.2766 644 106.208 197.486 467.528
2280 0 52.1915 15.5389 811 102.226 195.798 471.435
2281 0 53.1594 15.5382 826 102.506 196.458 473.896
2282 0 56.3091 14.2606 803 102.611 194.403 474.198
2283 0 60.089 14.3454 862 100.834 195.044 474.875
2284 0 60.1974 13.5886 818 103.348 194.649 470.093
2285 0 56.2611 10.7712 606 107.594 193.888 470.563
2286 0 63.3626 12.9572 821 103.675 193.822 469.804
2287 0 70.4256 13.5462 954 100.139 193.284 465.386
2288 0 73.3437 16.8385 1235 93.7279 191.846 461.649
2289 0 78.2326 16.5276 1293 93.3627 191.817 460.522
2290 0 72.2458 15.2258 1100 96.7509 190.724 463.12
2291 0 73.2394 15.1421 1109 97.6276 190.894 463.217
2292 0 74.3342 14.0178 1042 99.3321 189.677 458.892
2293 0 77.2697 15.4135 1191 97.2217 189.975 454.87
2294 0 86.3501 20.8801 1803 89.64 189.818 458.161
2295 0 82.4549 15.8632 1308 96.2477 189.856 455.518
2296 0 91.4655 15.9842 1462 94.8345 189.631 449.412
2297 0 95.4589 16.9811 1621 92.7656 190.22 440.434
2298 1 47.0946 9.83127 463 97.5464 190.868 473.3
2299 0 47.0412 11.3517 534 95.3464 190.358 472.773
2300 0 50.0463 14.2268 712 94.4354 190.73 465.527
2301 0 49.0953 13.2803 652 95.7623 189.58 465.716
2302 0 51.03 12.6788 647 98.3385 190.377 461.093
2303 0 55.2348 13.0715 722 93.277 189.975 459.296
2304 0 56.4474 12.6844 716 98.0531 189.697 454.92
2305 0 58.4154 14.0545 821 95.4397 190.012 456.111
2306 0 60.239 16.4677 992 93.4556 190.559 444.902
2307 0 62.3488 13.6811 853 96.7233 191.426 446.382
2308 0 62.2342 11.4407 712 99.8076 191.527 454.535
2309 0 64.0907 10.5632 677 101.185 192.951 452.719
2310 0 72.1681 16.7664 1210 91.4521 193.245 454.57
2311 0 71.071 14.7036 1045 94.6966 193.927 449.498
2312 0 78.6027 18.2818 1437 88.6667 195.025 443.198
2313 0 73.3815 15.9577 1171 93.8369 195.537 447.57
2314 0 74.2727 10.8384 805 99.7727 196.33 449.646
2315 0 76.1739 14.375 1095 97.0164 196.814 440.132
2316 0 82.1456 16.8603 1385 93.8946 196.214 441.484
2317 0 84.3867 15.4408 1303 95.9893 196.82 436.653
2318 0 86.421 12.4391 1075 99.8065 196.515 433.289
2319 1 47.3523 11.4461 542 96.3875 195.247 460.426
2320 0 50.1632 9.9874 501 99.1697 196.295 468.455
2321 0 52.2798 11.7828 616 96.8588 195.719 466.304
2322 0 51.2524 11.0629 567 99.1764 194.838 464.259
2323 0 55.412 12.8492 712 100.409 195.749 458.819
2324 0 59.1617 13.9786 827 98.1778 197.43 466.873
2325 0 64.0856 13.716 879 97.8874 196.521 468.67
2326 0 63.0626 17.0783 1077 95.3788 195.985 465.75
2327 0 67.0442 13.603 912 100.049 194.896 465.534
2328 0 69.152 12.74 881 100.65 194.011 463.209
2329 0 71.2117 12.2733 874 102.043 193.356 465.24
2330 0 75.3082 12.6945 956 102.378 192.73 460.636
2331 0 78.2216 16.824 1316 97.0737 192.706 459.467
2332 0 81.1829 14.1286 1147 100.289 191.563 460.003
2333 0 82.0742 11.5871 951 104.566 190.562 455.801
2334 0 87.1715 15.349 1338 99.1667 191.403 444.468
2335 0 89.3154 13.5027 1206 102.76 189.06 448.953
2336 1 50.1777 11.9376 599 100.891 190.554 469.965
2337 0 50.2271 11.4281 574 101.943 190.463 470.085
2338 0 55.1719 12.0532 665 97.0752 190.46 467.598
2339 0 56.0418 14.739 826 99.017 188.483 465.308
2340 0 59.1176 15.9343 942 95.2654 188.325 469.531
2341 0 57.1158 13.3588 763 98.2556 189.355 460.756
2342 0 59.0785 12.4411 735 102.697 188.539 463.695
2343 0 59.1456 11.869 702 102.92 189.04 460.001
2344 0 60.1718 11.4505 689 104.196 189.776 460.636
2345 0 63.1123 13.1195 828 102.28 190.682 455.798
2346 0 66.2113 13.6079 901 103.279 191.176 454.337
2347 0 70.2431 13.5387 951 101.434 191.823 457.461
2348 0 70.2826 13.4599 946 102.023 190.701 455.521
2349 0 73.2308 13.1639 964 105.412 192.333 448.54
2350 0 77.3846 15.4553 1196 99.7993 192.154 455.107
2351 0 77.316 14.6929 1136 101.637 194.022 453.916
2352 0 77.3902 12.5727 973 109.267 194.718 443.5
2353 0 80.6377 13.6041 1097 107.627 195.843 447.609
2354 0 84.42 14.9964 1266 105.032 195.407 444.912
2355 0 87.7358 14.612 1282 107.134 196.174 442.136
2356 0 90.4839 15.3618 1390 106.935 196.33 442.404
2357 1 50.1913 11.0178 553 109.204 197.767 465.741
2358 0 51.1996 12.0509 617 109.451 197.331 461.812
2359 0 53.5788 10.7692 577 111.653 196.548 456.707
2360 0 57.3102 12.4411 713 109.645 197.36 462.638
2361 0 59.28 12.9386 767 109.645 197.587 468.104
2362 0 61.1511 16.0586 982 105.613 196.552 466.689
2363 0 60.2651 12.5778 758 113.393 197.208 464.446
2364 0 63.1908 14.3059 904 108.091 195.924 466.832
2365 0 63.2226 10.8347 685 116.073 196.721 468.556
2366 0 67.1286 12.7516 856 111.984 195.779 468.283
2367 0 71.4291 14.6719 1048 109.749 195.2 463.245
2368 0 74.2341 12.8782 956 112.95 194.481 465.404
2369 0 75.2426 12.6125 949 112.73 193.49 463.185
2370 0 79.1947 13.5236 1071 112.472 191.648 460.696
2371 0 82.1427 14.8522 1220 109.968 190.343 458.186
2372 0 83.4066 14.0157 1169 112.455 189.666 453.79
2373 0 91.5198 15.778 1444 106.206 188.669 454.494
2374 0 93.7803 13.3397 1251 110.341 189.437 451.628
2375 0 96.3521 14.9763 1443 109.498 187.33 440.492
2376 1 52.5706 10.3099 542 114.622 186.804 463.991
2377 0 53.5192 14.4434 773 108.401 186.661 465.671
2378 0 57.4481 12.7942 735 109.461 186.531 468.05
2379 0 57.2392 12.2469 701 113.502 186.669 467.906
2380 0 59.412 11.7821 700 113.717 185.807 464.913
2381 0 62.395 14.9852 935 106.756 185.258 465.094
2382 0 64.3517 15.5396 1000 105.765 185.608 462.557
2383 0 67.3537 10.9868 740 112.326 185.912 457.104
2384 0 69.2845 13.5673 940 109.235 186.497 459.069
2385 0 69.31 14.0672 975 109.071 187.101 454.236
2386 0 72.2111 13.8067 997 109.362 187.121 452.689
2387 0 76.2792 14.7878 1128 106.968 187.84 451.741
2388 0 76.2938 13.8806 1059 109.33 188.603 450.688
2389 0 80.2663 17.1429 1376 103.707 187.581 450.567
2390 0 83.405 18.5361 1546 102.131 188.264 443.554
2391 0 85.5857 12.4086 1062 111.763 189.326 445.873
2392 0 87.2757 12.7756 1115 110.925 190.147 446.669
2393 0 90.2941 12.4814 1127 111.701 189.273 441.867
2394 1 47.1337 13.4723 635 105.737 190.625 465.461
2395 0 50.0139 11.9967 600 107.742 192.403 465.615
2396 0 51.0906 12.3506 631 109.583 193.664 462.726
2397 0 52.1666 16.5623 864 103.413 193.83 461.427
2398 0 55.0461 12.8438 707 104.117 195.257 466.047
2399 0 54.0292 11.4383 618 109.087 195.27 463.249
2400 0 59.2664 14.3083 848 107.963 196.243 460.817
2401 0 58.12 10.8396 630 114.548 196.716 463.257
2402 0 64.074 15.5601 997 104.602 196.134 465.775
2403 0 65.1248 13.3743 871 109.309 196.479 465.169
2404 0 67.1873 13.574 912 109.317 195.524 465.487
2405 0 69.1437 15.2147 1052 106.932 195.597 462.751
2406 0 73.1112 16.7416 1224 103.35 194.01 465.51
2407 0 74.0373 14.101 1044 106.023 194.515 464.009
2408 0 79.2092 14.6321 1159 106.664 194.698 463.335
2409 0 82.3095 15.7333 1295 104.981 193.36 462.507
2410 0 85.413 14.4006 1230 106.73 192.716 454.099
2411 0 93.7368 19.1067 1791 97.6008 191.229 452.496
2412 0 94.2058 12.8442 1210 108.394 191.507 456.85
2413 0 97.3198 18.2697 1778 100.536 190.315 455.804
2414 0 98.2333 12.3176 1210 109.864 189.959 449.364
2415 1 51.053 8.42262 430 112.221 189.598 475.151
2416 0 54.3775 15.0246 817 102.417 189.154 473.169
2417 0 55.1193 13.0081 717 101.59 188.501 471.127
2418 0 56.2002 8.89676 500 104.418 187.482 472.808
2419 0 61.6072 13.44 828 105.207 187.68 466.226
2420 0 60.2562 14.6043 880 104.995 187.93 466.701
2421 0 64.2911 16.6897 1073 100.338 187.944 466.718
2422 0 66.4414 14.6896 976 103.932 187.352 462.142
2423 0 66.3437 12.6613 840 108.29 187.398 461.77
2424 0 68.2589 14.1227 964 105.574 187.636 461.804
2425 0 70.3726 13.4285 945 107.768 187.65 456.684
2426 0 71.3541 13.7624 982 107.666 187.504 452.846
2427 0 74.3651 13.8371 1029 107.745 188.019 453.326
2428 0 81.9635 18.0568 1480 99.1291 187.751 448.522
2429 0 80.4599 14.6781 1181 105.576 189.356 445.892
2430 0 82.3763 18.5612 1529 100.298 188.951 449.44
2431 0 82.5168 15.2575 1259 105.057 189.589 438.003
2432 0 87.7384 16.0021 1404 103.426 190.551 436.652
2433 0 87.6517 13.0403 1143 109.379 191.869 433.368
2434 0 88.571 12.521 1109 109.478 192.738 434.924
2435 0 91.6426 14.5238 1331 106.928 192.739 438.856
2436 0 96.6955 13.3408 1290 106.801 192.45 440.988
2437 0 99.8649 15.0303 1501 105.667 193.497 433.427
2438 1 53.7068 14.0764 756 101.074 193.735 462.807
2439 0 57.1531 14.2424 814 100.742 194.446 463.682
2440 0 58.4361 12.7319 744 108.022 193.177 456.891
2441 0 60.1804 12.8447 773 108.488 195.859 457.77
2442 0 61.1726 13.0287 797 109.321 194.691 452.109
2443 0 65.4568 17.7063 1159 102.19 194.078 449.449
2444 0 67.4815 12.7294 859 110.482 193.398 449.74
2445 0 71.7027 16.0106 1148 104.66 194.016 452.697
2446 0 71.631 17.5762 1259 104.805 193.902 454.392
2447 0 76.3954 16.768 1281 105.632 194.017 445.199
2448 0 75.6104 13.5431 1024 112.93 194.095 440.05
2449 0 82.8011 17.8621 1479 105.302 193.972 440.197
2450 0 82.4748 12.9494 1068 114.996 192.51 443.724
2451 0 86.5182 13.3845 1158 114.098 192.31 456.51
2452 1 47.4534 12.349 586 111.734 189.886 474.234
2453 0 47.5204 11.1741 531 116.614 189.689 471.17
2454 0 49.4433 14.1172 698 111.454 189.069 471.01
2455 0 53.1841 13.9703 743 105.397 188.941 477.416
2456 0 53.2148 13.7556 732 113.883 187.645 472.874
2457 0 56.1304 17.976 1009 104.177 188.425 466.826
2458 0 58.1802 12.7363 741 112.426 189.022 471.478
2459 0 59.119 12.6186 746 115.418 188.552 460.823
2460 0 61.0507 12.2521 748 115.07 187.66 467.086
2461 0 61.3762 14.1749 870 113.323 187.562 465.525
2462 0 66.2961 13.0626 866 111.895 187.306 467.484
2463 0 67.2037 14.9248 1003 111.179 186.672 463.077
2464 0 70.3978 13.2248 931 113.764 186.894 463.491
2465 0 70.2193 12.6461 888 112.949 185.946 458.609
2466 0 71.2877 12.4566 888 114.789 186.412 459.382
2467 0 76.3142 14.2307 1086 111.529 187.006 455.319
2468 0 78.2187 15.3544 1201 109.908 187.031 452.988
2469 0 80.2878 18.4586 1482 105.283 187.424 451.269
2470 0 83.1344 15.0239 1249 110.472 188.327 449.049
2471 0 87.166 13.5144 1178 111.66 189.778 447.455
2472 0 89.1768 15.1497 1351 109.66 190.08 435.554
2473 1 51.1245 13.6138 696 108.274 190.131 449.869
2474 0 49.2792 13.5757 669 108.99 190.9 453.399
2475 0 52.2724 11.7462 614 111.487 191.156 455.301
2476 0 53.2929 13.454 717 108.036 191.877 456.738
2477 0 52.1054 15.0656 785 105.632 189.818 463.394
2478 0 57.1204 14.7408 842 105.455 192.55 464.866
2479 0 57.2305 14.1533 810 109.491 192.328 454.399
2480 0 59.1421 12.5291 741 111.893 193.796 461.076
2481 0 60.3106 16.7135 1008 105.242 193.133 460.484
2482 0 58.1827 11.017 641 115.2 193.899 458.413
2483 0 65.3686 14.1658 926 108.787 193.438 451.376
2484 0 65.1811 12.1508 792 114.133 195.145 452.063
2485 0 66.1392 15.3011 1012 109.179 194.457 461.643
2486 0 73.236 14.0095 1026 110.084 195.005 459.68
2487 0 77.3182 13.438 1039 111.603 195.186 453.391
2488 0 74.3677 11.5373 858 116.168 194.223 457.826
2489 0 81.1503 14.4916 1176 109.307 193.663 458.845
2490 0 86.1425 17.0415 1468 104.657 193.561 456.832
2491 0 90.37 15.2816 1381 108.403 193.019 443.387
2492 0 89.7078 13.3768 1200 114.819 192.468 432.602
2493 0 93.5866 18.3573 1718 106.001 191.64 437.49
2494 0 93.3316 11.4324 1067 118.714 191.26 427.106
2495 0 100.621 17.9188 1803 106.6 190.398 431.857
2496 0 103.476 14.2738 1477 111.451 190.152 440.04
2497 0 106.587 14.589 1555 111.625 188.333 443.584
2498 1 61.1416 10.811 661 110.144 188.458 471.573
2499 0 61.3247 11.3168 694 108.614 187.952 472.458
2500 0 64.6404 12.6856 820 115.298 187 462.709
2501 0 66.3574 14.7082 976 114.24 186.307 457.49
2502 0 69.7013 14.806 1032 112.555 185.824 455.078
2503 0 71.5842 14.668 1050 113.424 186.366 461.525
2504 0 71.4314 17.9053 1279 108.531 185.737 460.306
2505 0 76.1311 13.6475 1039 109.391 186.139 458.872
2506 0 76.3403 15.6798 1197 112.141 186.192 444.957
2507 0 81.5558 15.8542 1293 111.464 186.288 445.803
2508 0 81.6703 14.5218 1186 115.202 186.342 446.294
2509 0 82.5726 13.8666 1145 112.009 187.294 445.748
2510 0 86.7006 13.7946 1196 113.61 187.437 442.827
2511 0 89.4795 13.7685 1232 113.682 188.494 442.673
2512 0 89.5794 13.3848 1199 115.523 188.545 436.474
2513 0 94.9106 15.8149 1501 111.903 189.662 434.63
2514 0 96.7108 17.2163 1665 108.422 190.04 439.662
2515 0 99.6986 15.5168 1547 115.473 190.268 429.941
2516 0 107.571 17.0678 1836 109.534 191.014 436.062
2517 0 108.763 15.2533 1659 114.371 191.095 428.206
2518 0 110.591 14.1512 1565 116.75 191.127 426.239
2519 1 58.2681 9.49062 553 117.685 191.179 455.349
2520 0 62.1844 10.7744 670 111.584 193.013 452.237
2521 0 66.1009 12.0119 794 110.708 192.913 452.059
2522 0 69.346 13.0361 904 114.183 195.293 444.853
2523 0 72.4203 16.7771 1215 106.806 194.006 453.76
2524 0 73.4581 15.451 1135 109.14 194.96 450.456
2525 0 78.1948 15.909 1244 105.281 194.086 455.088
2526 0 78.5495 12.629 992 112.059 194.793 444.555
2527 0 82.7041 15.6341 1293 107.363 194.587 443.589
2528 0 85.6179 13.1982 1130 111.985 194.187 452.961
2529 0 90.6613 16.148 1464 106.112 194.258 449.471
2530 0 91.5419 13.3272 1220 109.036 193.654 449.451
2531 0 96.5995 13.851 1338 110.221 193.281 448.703
2532 0 100.709 16.8704 1699 106.44 192.164 444.655
2533 0 103.748 13.6099 1412 111.44 192.266 445.243
2534 0 106.587 12.9471 1380 112.168 191.321 444.189
2535 0 108.348 14.0658 1524 110.552 191.837 444.555
2536 0 115.44 13.7215 1584 111.109 190.035 442.816
2537 0 115.71 13.1622 1523 113.101 189.555 436.136
2538 0 123.589 14.0951 1742 110.203 189.766 438.172
2539 0 126.64 17.5932 2228 104.608 189.154 434.858
2540 0 130.531 15.322 2000 107.926 188.298 431.812
2541 0 133.587 14.1631 1892 106.292 189.048 428.188
2542 0 141.455 14.2165 2011 105.671 188.904 428.637
2543 1 82.4099 10.8482 894 105.243 188.617 459.016
2544 0 88.2441 11.8988 1050 106.979 188.837 451.374
2545 0 92.2038 16.3117 1504 99.4069 187.177 445.999
2546 0 95.2804 16.845 1605 100.31 186.267 450.801
2547 0 97.2259 14.204 1381 105.276 186.404 444.087
2548 0 101.305 13.6617 1384 105.644 186.847 441.691
2549 0 104.236 14.0163 1461 105.216 186.844 442.337
2550 0 106.227 14.2055 1509 105.359 187.397 438.981
2551 0 113.37 15.4009 1746 102.851 187.191 431.718
2552 0 114.342 13.4334 1536 106.982 188.449 429.408
2553 0 118.514 15.2472 1807 102.08 187.017 435.671
2554 0 122.421 12.9144 1581 106.447 188.061 429.995
2555 0 125.32 15.9751 2002 102.585 189.056 420.008
2556 0 127.294 12.5694 1600 106.954 190.079 424.916
2557 0 131.21 15.6772 2057 103.356 190.444 416.519
2558 0 136.252 12.7484 1737 108.279 191.418 419.869
2559 0 140.253 14.7875 2074 103.484 191.531 414.41
2560 0 149.412 14.5838 2179 103.641 192.591 417.584
2561 1 77.1432 8.47774 654 108.852 192.304 450.307
2562 0 82.253 12.5467 1032 98.5378 194.082 454.992
2563 0 87.4417 14.2381 1245 100.152 194.796 441.881
2564 0 87.275 12.2716 1071 104.68 194.961 444.072
2565 0 94.4048 13.0078 1228 102.817 195.158 446.112
2566 0 96.3255 14.5652 1403 101.124 194.747 444.541
2567 0 100.776 14.5273 1464 101.008 194.808 443.312
2568 0 102.48 13.7197 1406 102.651 194.48 439.678
2569 0 107.693 13.4642 1450 102.453 194.788 435.799
2570 0 113.863 14.2013 1617 102.572 193.788 424.386
2571 0 117.539 13.2381 1556 103.206 194.08 443.32
2572 0 120.373 17.8529 2149 95.9349 193.294 440.701
2573 0 123.211 14.8201 1826 101.938 192.157 440.274
2574 1 59.2586 10.8676 644 97.6398 191.297 471.623
2575 0 61.5033 16.5194 1016 90.5197 191.722 465.435
2576 0 63.4803 10.8695 690 100.678 190.314 469.055
2577 0 63.1702 12.9491 818 98.8582 191.3 470.412
2578 0 69.2288 13.5493 938 97.3529 190.182 465.633
2579 0 77.2271 15.8235 1222 90.9771 190.328 463.969
2580 0 78.2538 14.0824 1102 94.2314 190.113 460.961
2581 0 77.1865 16.8423 1300 91.9692 188.999 463.431
2582 0 76.2359 13.7337 1047 97.0229 189.201 461.646
2583 0 77.1765 13.8902 1072 96.903 189.294 459.66
2584 0 79.2604 13.4872 1069 98.2825 187.134 456.66
2585 0 84.4819 15.021 1269 96.0489 186.155 451.827
2586 0 87.2651 17.613 1537 91.7938 187.048 457.368
2587 0 89.1586 13.4367 1198 98.525 186.348 451.453
2588 0 89.2921 10.8632 970 102.675 186.835 447.65
2589 0 95.2284 14.1554 1348 96.1395 186.491 450.967
2590 0 99.381 15.6469 1555 94.9974 186.988 441.944
2591 1 47.1975 8.03008 379 101.058 187.937 470.179
2592 0 51.032 11.9533 610 96.9443 188.567 467.21
2593 0 53.1185 12.4627 662 96.2855 189.618 466.781
2594 0 53.1103 12.0127 638 97.594 187.663 466.362
2595 0 53.0433 11.7828 625 99.8704 186.818 461.754
2596 0 56.1598 16.275 914 94.0667 187.801 464.31
2597 0 60.075 14.898 895 95.5028 188.313 461.497
2598 0 58.23 8.82706 514 104.551 189.685 461.94
2599 0 67.1936 24.6303 1655 83.4779 191.337 457.271
2600 0 66.3012 17.6317 1169 91.6681 191.097 457.76
2601 0 66.1734 14.326 948 96.9546 193.2 461.406
2602 0 67.1997 15.3423 1031 92.8875 192.153 460.252
2603 0 73.3992 14.5506 1068 96.7434 192.126 456.074
2604 0 74.3814 15.2995 1138 97.2935 193.576 455.463
2605 0 73.2557 13.3232 976 100.769 193.164 459.335
2606 0 77.221 14.1153 1090 99.2963 192.739 456.44
2607 0 80.2259 16.6031 1332 94.8041 192.755 457.547
2608 0 84.2625 16.6148 1400 97.2807 193.051 450.056
2609 0 87.244 17.1015 1492 97.6796 193.739 442.42
2610 0 88.24 11.82 1043 106.166 193.881 444.503
2611 0 90.2293 14.4077 1300 104.488 193.102 437.007
2612 0 95.3552 16.685 1591 99.8429 192.667 439.194
2613 0 100.274 17.7413 1779 98.2816 192.27 440.791
2614 0 102.362 15.3475 1571 101.451 192.762 443.059
2615 0 106.329 13.477 1433 103.641 191.943 451.56
2616 0 107.388 14.6664 1575 101.474 191.738 449.924
2617 0 113.547 14.1439 1606 102.185 190.123 443.083
2618 1 70.122 12.5496 880 100.84 190.681 462.802
2619 0 69.1896 11.837 819 100.452 190.024 463.556
2620 0 72.2483 14.1041 1019 102.906 188.734 464.495
2621 0 72.2226 12.3507 892 104.858 188.249 465.352
2622 0 80.1534 14.4473 1158 99.3178 189.598 465.619
2623 0 80.1331 12.5291 1004 102.903 190.116 459.102
2624 0 85.3084 16.6103 1417 97.4989 189.473 454.428
2625 0 88.3595 17.2704 1526 95.7936 189.039 457.656
2626 0 92.495 18.8118 1740 93.931 188.314 448.889
2627 0 92.1126 14.9817 1380 99.7652 187.767 449.005
2628 0 95.2389 12.7994 1219 102.084 188.226 446.695
2629 0 99.4045 16.2467 1615 97.2601 188.491 444.401
2630 0 103.228 13.1941 1362 101.573 188.671 442.091
2631 0 107.467 17.6147 1893 94.8611 189.117 442.332
2632 0 110.492 15.7569 1741 97.3067 189.227 441.173
2633 1 62.4603 10.9189 682 99.7845 189.465 464.262
2634 0 63.6114 13.4724 857 97.9732 188.323 459.413
2635 0 60.4397 10.8703 657 103.909 188.489 458.075
2636 0 66.4371 17.4601 1160 93.5983 188.317 456.193
2637 0 67.3226 11.3038 761 100.41 190.219 463.248
2638 0 70.5422 13.4813 951 99.4564 190.139 455.656
2639 0 74.5796 10.8207 807 102.193 191.157 455.939
2640 0 76.2236 15.8088 1205 95.551 190.747 450.622
2641 0 80.5391 15.8184 1274 93.9137 192.176 456.049
2642 1 100.689 21.6309 2178 86.4174 192.425 444.101
2643 1 51.2214 7.65306 392 100.13 197.62 463.827
2644 0 59.4134 10.9403 650 88.2569 197.098 470.834
2645 0 54.5604 8.9992 491 92.0061 194.88 465.544
2646 0 58.7121 16.351 960 86.1042 195.069 462.862
2647 0 58.3643 12.3877 723 96.0221 196.205 464.162
2648 0 62.7045 17.128 1074 90.325 195.77 468.899
2649 0 66.3127 20.5541 1363 87.0132 195.051 463.76
2650 0 65.747 8.65438 569 99.6749 194.03 466.167
2651 0 68.0814 12.9257 880 94.1898 193.726 469.405
2652 0 70.9152 16.9498 1202 89.5541 191.417 467.591
2653 0 72.7802 16.2132 1180 91.8864 191.059 457.797
2654 0 75.8777 17.6336 1338 89.7422 189.587 462.185
2655 0 75.7012 12.6418 957 95.6395 188.606 459.484
2656 0 86.8356 22.1338 1922 83.1857 187.691 446.635
2657 0 86.0152 20.9847 1805 85.1717 186.963 448.815
2658 0 91.1141 25.0126 2279 82.301 185.723 446.734
2659 0 92.4747 22.7089 2100 84.3681 185.88 446.625
2660 0 91.9276 19.2978 1774 87.1934 185.915 445.266
2661 0 96.6299 17.7274 1713 88.3357 185.888 447.528
2662 0 99.547 17.7504 1767 88.8059 186.003 446.679
2663 0 97.858 15.2772 1495 91.5512 185.699 449.004
2664 0 101.894 22.8179 2325 86.6473 185.435 441.623
2665 0 102.776 13.8845 1427 96.0505 185.025 437.7
2666 0 108.65 23.8288 2589 87.0861 184.268 436.904
2667 0 107.79 20.5214 2212 90.8205 184.983 438.251
2668 0 113.173 16.2759 1842 93.6167 185.245 436.003
2669 0 113.875 15.517 1767 94.9819 186.16 431.1
2670 0 118.776 17.3436 2060 93.1582 186.231 432.099
2671 0 119.856 16.5199 1980 94.7525 187.292 426.943
2672 0 129.465 15.3401 1986 95.3661 187.322 428.667
2673 1 67.382 11.5313 777 99.1364 188.331 452.922
2674 0 69.2137 11.2839 781 98.6095 189.513 455.204
2675 0 73.4832 18.6709 1372 92.8936 189.504 452.403
2676 0 83.7847 23.0233 1929 86.7937 189.941 450.046
2677 0 83.4781 22.0058 1837 87.7997 189.878 450.624
2678 0 81.3514 17.0003 1383 94.551 192.22 444.557
2679 0 84.7046 18.0156 1526 92.7916 191.856 443.459
2680 0 83.5082 14.8129 1237 98.9418 192.666 422.563
2681 0 86.4718 14.9413 1292 98.6842 193.115 420.502
2682 0 90.5224 16.9903 1538 95.9954 193.551 423.962
2683 0 95.6077 22.1216 2115 90.4955 193.394 423.706
2684 0 94.7501 15.9156 1508 97.4436 193.415 422.042
2685 0 98.5028 16.3041 1606 96.9471 193.76 421.414
2686 0 102.583 15.8213 1623 96.0505 193.215 424.16
2687 0 104.618 20.0634 2099 92.3397 193.08 431.335
2688 0 105.497 15.7256 1659 96.7571 192.979 439.299
2689 0 110.562 14.7971 1636 97.4376 193.588 440.884
2690 0 117.804 14.5326 1712 93.1717 193.945 444.373
2691 0 122.812 17.425 2140 90.6411 192.692 433.582
2692 0 122.676 14.7054 1804 97.1042 192.095 435.634
2693 1 67.1327 11.2762 757 96.255 191.845 451.159
2694 0 69.3143 11.3829 789 97.0038 191.44 467.466
2695 0 73.2541 21.091 1545 86.3638 190.914 472.206
2696 0 75.6828 15.2875 1157 92.0069 191.866 463.164
2697 0 75.2983 13.2141 995 95.2513 191.47 461.289
2698 0 78.4331 14.9554 1173 93.8926 190.214 460.487
2699 0 85.2254 18.1401 1546 85.9903 190.955 464.382
2700 0 87.5256 16.2924 1426 87.0687 189.01 461.305
2701 0 87.4882 10.6071 928 95.4494 189.022 449.997
2702 0 91.3603 15.1707 1386 90.3622 188.63 445.773
2703 0 97.0428 14.8594 1442 83.8807 187.413 443.544
2704 0 94.591 18.617 1761 80.1005 186.488 453.084
2705 0 97.5979 24.2013 2362 78.3946 186 447.643
2706 0 98.7146 15.8133 1561 85.8251 185.701 442.987
2707 0 102.893 13.6744 1407 87.6716 185.902 436.957
2708 0 107.615 15.0723 1622 86 185.736 437.818
2709 0 109.919 15.5479 1709 84.8397 185.664 436.392
2710 0 113.709 11.6702 1327 86.9397 186.295 433.529
2711 0 118.604 16.0956 1909 83.0718 187.212 434.881
2712 0 122.571 15.2483 1869 84.3462 187.398 426.845
2713 1 69.6623 17.2547 1202 84.3702 187.012 454.528
2714 0 72.6095 12.9046 937 89.4024 187.045 453.02
2715 0 76.3618 16.5004 1260 83.9444 188.391 449.529
2716 0 79.2021 11.4391 906 87.5618 189.04 451.077
2717 0 80.0362 18.5666 1486 84.9906 188.406 444.273
2718 0 83.2143 20.8979 1739 84.1403 188.289 438.826
2719 0 83.8433 18.2006 1526 86.6678 188.78 438.114
2720 0 87.8027 12.437 1092 90.2079 189.953 443.258
2721 0 90.7626 18.4327 1673 84.6312 190.938 442.771
2722 0 89.6785 11.6416 1044 91.6054 191.312 436.907
2723 0 95.7261 14.2908 1368 86.9773 192.597 446.727
2724 0 101.893 15.8892 1619 85.7288 193.159 444.484
2725 0 98.628 11.4673 1131 91.9912 192.691 434.857
2726 0 106.757 14.6688 1566 86.9713 193.535 445.626
2727 0 104.658 9.74602 1020 93.9314 193.205 437.127
2728 0 111.807 18.7466 2096 85.8602 192.791 433.719
2729 0 110.834 12.1894 1351 92.6714 193.768 429.737
2730 0 113.596 12.6677 1439 92.5629 194.076 430.571
2731 0 119.815 16.9428 2030 86.9044 193.794 443.209
2732 0 124.02 14.4251 1789 89.4176 193.871 440.312
2733 0 126.028 16.4646 2075 88.8954 192.586 434.934
2734 0 132.55 14.2738 1892 88.3605 192.397 441.431
2735 0 134.85 12.1913 1644 92.0341 191.94 430.842
2736 0 143.845 15.3012 2201 89.4353 192.325 433.295
2737 1 76.3066 11.231 857 91.5659 192.174 458.991
2738 0 86.8825 15.872 1379 85.7498 192.006 457.877
2739 0 85.2495 17.8183 1519 85.5681 191.3 456.58
2740 0 84.7766 12.1732 1032 90.7568 190.711 450.228
2741 0 93.6292 17.4198 1631 84.3795 189.743 457.853
2742 0 92.846 15.628 1451 86.3336 189.416 456.425
2743 0 95.7462 15.75 1508 87.4788 189.444 448.491
2744 0 96.6642 8.35883 808 94.1807 188.005 448.769
2745 0 98.6888 13.7908 1361 90.2359 188.591 441.827
2746 0 108.006 16.1842 1748 86.1379 187.918 450.312
2747 0 105.75 12.643 1337 91.0389 186.901 441.998
2748 1 55.4035 12.8151 710 84.6254 186.768 469.692
2749 0 59.6625 13.2412 790 85.2722 185.928 466.032
2750 0 57.3253 6.34972 364 89.294 187.016 471.385
2751 0 61.2489 15.9186 975 86.5887 184.499 461.647
2752 0 68.6404 16.6083 1140 81.7974 186.004 469.811
2753 0 67.2754 15.7859 1062 90.5085 186.085 460.296
2754 0 68.6152 11.2803 774 94.1641 186.625 455.647
2755 0 74.5442 15.5478 1159 94.6031 187.614 450.33
2756 0 74.6932 15.2624 1140 95.7096 188.043 458.725
2757 0 75.0289 16.2737 1221 96.4283 188.621 452.411
2758 0 78.256 13.0852 1024 101.612 189.139 436.995
2759 0 77.7284 12.2349 951 102.142 190.003 438.784
2760 0 82.8486 13.6152 1128 101.322 189.995 440.488
2761 0 85.915 21.1255 1815 91.3862 190.631 449.488
2762 0 85.8081 14.1245 1212 99.4076 191.799 445.618
2763 0 91.9259 15.9259 1464 95.5526 192.918 446.291
2764 0 92.6903 13.1729 1221 98.3907 194.14 438.76
2765 0 94.7268 15.1488 1435 95.9136 194.744 443.789
2766 0 96.6163 8.73558 844 102.451 195.347 444.601
2767 0 99.6899 12.9602 1292 98.921 195.01 440.2
2768 0 101.606 13.7788 1400 99.1407 195.206 438.684
2769 0 105.656 14.358 1517 98.3197 195.648 435.165
2770 0 108.665 10.7302 1166 101.228 195.533 442.092
2771 0 114.579 16.8355 1929 93.775 195.13 444.849
2772 0 115.243 11.6276 1340 101.355 195.092 435.702
2773 0 122.722 16.5659 2033 95.2981 195.141 430.135
2774 1 67.298 13.2693 893 94.6394 195.411 458.879
2775 0 71.8134 14.1756 1018 99.612 194.368 456.017
2776 0 74.5194 14.3721 1071 99.8553 193.95 451.977
2777 0 74.645 13.236 988 101.542 193.622 448.436
2778 0 79.561 14.5674 1159 98.6954 193.884 446.298
2779 0 79.6134 12.5356 998 102.124 194.105 444.19
2780 0 81.6785 13.9082 1136 100.202 193.846 449.917
2781 0 85.4673 12.7768 1092 101.445 192.639 446.599
2782 0 90.3266 18.7652 1695 94.1558 193.181 433.155
2783 0 88.634 11.869 1052 103.757 193.395 433.42
2784 0 92.3607 14.2701 1318 99.8657 192.281 433.819
2785 0 97.3754 20.8882 2034 92.0113 192.366 439.416
2786 0 99.48 15.3297 1525 97.2118 190.763 444.57
2787 1 55.3571 13.7652 762 97.4698 191.537 466.571
2788 0 59.1174 12.7543 754 98.248 189.548 467.935
2789 0 61.3258 11.7732 722 99.1731 190.213 463.85
2790 0 62.2682 12.3819 771 96.0532 190.424 464.451
2791 0 60.2176 12.6043 759 95.8116 187.98 468.582
2792 0 69.8437 14.919 1042 93.1584 188.029 466.827
2793 0 66.1793 14.9594 990 94.6869 188.267 462.364
2794 0 70.4095 22.2839 1569 87.2345 188.551 461.246
2795 0 74.1479 22.6979 1683 86.2204 188.532 456.495
2796 0 78.6101 20.4935 1611 87.0826 188.333 446.862
2797 0 80.2395 19.4044 1557 88.6268 188.748 450.28
2798 0 83.4029 20.5748 1716 87.9021 188.64 447.263
2799 0 85.3721 17.863 1525 91.1849 189.322 449.414
2800 0 84.6878 19.9911 1693 89.9468 189.506 447.386
2801 0 86.4726 13.9004 1202 96.3577 190.215 445.988
2802 0 92.2916 20.1969 1864 89.5708 191.014 445.38
2803 0 92.3102 15.6321 1443 94.106 191.203 444.177
2804 0 95.4695 13.0827 1249 97.5997 191.504 440.123
2805 0 101.382 18.2675 1852 92.155 193.356 436.818
2806 0 99.3095 13.322 1323 99.0854 193.802 433.581
2807 0 106.818 17.394 1858 94.2212 194.901 429.974
2808 0 109.566 15.817 1733 95.7853 195.746 434.166
2809 0 112.853 13.6017 1535 98.6143 195.064 431.808
2810 0 115.469 14.229 1643 97.4504 195.922 432.292
2811 1 63.4426 19.4979 1237 89.3355 195.846 453.362
2812 0 66.2252 8.69759 576 99.7014 196.453 457.316
2813 0 69.1708 12.9679 897 92.6789 195.744 460.201
2814 0 68.2588 12.98 886 97.307 195.175 455.827
2815 0 71.2417 11.0048 784 99.4375 195.047 455.779
2816 0 76.3331 21.6551 1653 87.2263 194.299 454.924
2817 0 76.1653 14.1797 1080 95.5278 195.052 459.283
2818 0 80.3596 15.692 1261 94.4473 195.17 456.845
2819 0 79.3771 11.9052 945 97.4529 194.853 449.866
2820 0 86.3259 12.8583 1110 95.3541 194.451 442.373
2821 0 88.7211 13.4805 1196 96.689 194.095 448.445
2822 0 92.5657 14.3466 1328 95.5708 193.932 450.642
2823 0 95.2767 12.6369 1204 97.0897 193.915 441.508
2824 0 96.7089 13.2563 1282 97.4813 194.208 448.537
2825 0 103.543 16.7757 1737 93.3581 194.185 437.602
2826 0 104.68 18.2747 1913 92.0491 192.428 434.101
2827 0 104.509 17.2425 1802 91.6215 191.614 443.301
2828 0 111.537 12.3726 1380 99.4261 191.92 435.805
2829 0 111.602 17.4817 1951 95.1727 191.383 435.433
2830 0 115.57 14.1992 1641 97.7447 191.046 441.223
2831 0 124.206 17.8011 2211 90.3415 191.666 444.487
2832 0 122.749 21.3363 2619 89.0607 191.078 428.444
2833 0 126.646 15.4999 1963 93.2878 189.62 428.054
2834 0 129.777 12.8682 1670 95.0138 189.429 424.914
2835 1 201.615 15.6833 3162 93.5901 189.072 397.437
2836 1 75.5404 16.6931 1261 86.1737 189.522 458.455
2837 0 79.267 15.0756 1195 91.7933 189.833 445.774
2838 0 79.5484 14.7206 1171 93.2682 189.708 441.652
2839 0 84.4628 15.8886 1342 90.9128 189.215 438.992
2840 0 85.7972 14.3594 1232 94.1031 188.404 430.137
2841 0 87.9826 13.9914 1231 93.8846 188.926 435.76
2842 0 94.1552 21.4539 2020 85.8837 189.281 439.879
2843 0 94.0992 14.3147 1347 91.8159 190.13 440.713
2844 0 98.8505 16.6109 1642 89.7485 190.189 436.84
2845 0 99.8898 14.0054 1399 91.3081 191.084 431.502
2846 0 104.749 16.0861 1685 88.7187 191.834 436.25
2847 0 111.198 18.6335 2072 85.6684 192.715 434.513
2848 0 108.569 13.1437 1427 91.6699 193.309 430.73
2849 0 111.659 11.2485 1256 93.121 194.309 430.631
2850 0 116.827 14.1405 1652 91.0218 194.329 415.605
2851 0 119.8 12.2538 1468 92.5613 195.412 425.664
2852 0 120.738 11.9101 1438 93.1398 195.913 423.29
2853 0 129.91 14.8487 1929 90.4111 196.081 419.114
2854 0 131.592 10.715 1410 93.7461 196.208 422.408
2855 0 139.055 13.5486 1884 92.0143 196.453 425.629
2856 0 140.661 12.0147 1690 94.4657 196.186 416.751
2857 0 145.689 20.6742 3012 85.7122 196.51 423.182
2858 0 149.586 12.9424 1936 94.3084 196.544 414.554
2859 0 157.502 18.1903 2865 87.3103 196.684 423.311
2860 0 163.116 17.6868 2885 87.9199 197.523 423.225
2861 0 164.582 18.8295 3099 87.8264 196.723 416.608
2862 1 94.4312 18.0343 1703 87.0088 196.5 441.49
2863 0 99.3201 19.855 1972 85.89 196.577 438.39
2864 0 104.565 10.1946 1066 96.0638 196.809 431.523
2865 0 105.327 14.7066 1549 92.0355 195.941 429.491
2866 0 106.423 12.5725 1338 95.4469 195.773 422.32
2867 0 110.528 14.2679 1577 93.5504 195.164 418.761
2868 0 111.457 12.507 1394 96.8931 194.507 427.48
2869 1 217.989 15.2301 3320 96.4937 192.739 383.447
2870 0 224.719 13.8128 3104 94.4639 192.335 394.248
2871 1 129.617 16.842 2183 89.0252 192.046 434.223
2872 0 133.572 23.3207 3115 85.0668 192.166 431.152
2873 0 141.003 17.489 2466 87.8309 192.723 425.095
2874 0 144.574 22.1893 3208 83.543 192.044 422.392
2875 0 147.374 14.392 2121 91.6808 191.431 405.373
2876 1 89.3487 17.1015 1528 85.2912 191.512 451.656
2877 0 88.2367 16.5804 1463 88.1264 191.478 439.843
2878 0 90.2905 13.4233 1212 90.5338 191.009 446.04
2879 0 94.4278 16.097 1520 88.6066 190.751 442.466
2880 0 95.1787 12.4923 1189 92.9874 190.235 439.722
2881 0 97.2574 6.91978 673 98.7221 189.618 446.841
2882 0 103.451 16.1043 1666 89.0396 189.167 442.783
2883 0 102.235 13.3223 1362 90.8054 188.621 445.611
2884 0 111.492 17.2748 1926 89.716 189.739 437.286
2885 1 61.2609 9.40241 576 95.7639 191.267 457.436
2886 0 62.2919 9.72839 606 95.6815 190.262 449.558
2887 0 65.2321 13.6742 892 90.1794 188.956 453.631
2888 0 66.3131 14.4768 960 91.0781 191.274 452.993
2889 0 71.1845 11.7441 836 92.5311 192.141 453.395
2890 0 72.2911 12.837 928 92.0905 193.626 453.207
2891 0 70.4228 10.2382 721 96.1151 193.931 441.857
2892 0 77.2825 13.056 1009 91.5223 195.02 446.572
2893 0 76.5326 15.6012 1194 90.5553 194.979 440.077
2894 0 80.5084 16.8678 1358 88.2032 194.497 443.079
2895 0 80.3798 13.4362 1080 92.8574 195.584 441.135
2896 0 83.3684 14.3699 1198 92.7304 195.219 428.29
2897 0 85.316 13.0222 1111 94.4932 195.696 428.726
2898 0 89.3793 16.0104 1431 89.8162 197.092 423.23
2899 0 89.1812 11.7738 1050 95.3438 197.15 416.884
2900 0 92.2924 12.2004 1126 95.1767 196.691 415.118
2901 0 97.2234 15.8295 1539 90.6797 197.546 421.522
2902 0 97.5294 13.1242 1280 93.8461 196.806 422.447
2903 0 101.374 12.6463 1282 94.5413 197.197 427.512
2904 0 104.351 13.1096 1368 94.4591 196.882 418.63
2905 0 107.393 20.7277 2226 86.823 196.092 422.603
2906 0 110.701 13.6222 1508 93.7308 196.897 422.241
2907 0 113.333 13.9148 1577 92.591 196.054 430.923
2908 0 112.365 12.2369 1375 96.3593 195.313 434.092
2909 0 117.5 14.9618 1758 92.5802 195.297 429.233
2910 0 123.383 13.5837 1676 94.1408 194.992 434.528
2911 0 125.579 11.1245 1397 95.8024 193.916 430.744
2912 0 130.491 15.4724 2019 91.1516 193.688 416.853
2913 0 130.487 15.105 1971 90.5074 193.258 420.841
2914 1 75.1323 11.9789 900 89.67 192.563 441.663
2915 0 81.4093 14.7158 1198 84.9658 192.016 449.488
2916 0 87.3639 14.6285 1278 88.9491 190.045 447.8
2917 0 87.4167 17.3994 1521 86.5825 190.996 448.115
2918 0 87.4091 15.8908 1389 88.7315 190.723 449.824
2919 0 93.2134 19.2462 1794 84.1678 190.027 450.321
2920 0 96.5099 16.2781 1571 87.1598 189.257 432.259
2921 0 99.3558 15.8421 1574 87.6881 189.367 438.184
2922 0 103.337 13.1318 1357 89.2159 188.636 432.598
2923 0 109.651 20.0455 2198 83.1156 187.948 436.719
2924 0 106.627 13.1955 1407 89.2367 188.567 433.436
2925 0 116.603 20.1539 2350 82.6915 187.864 435.721
2926 0 114.078 18.2069 2077 84.949 189.073 428.605
2927 0 118.497 15.2578 1808 87 188.022 424.754
2928 0 119.19 14.5901 1739 85.6406 189.704 420.857
2929 1 67.1857 6.63832 446 92.1682 187.614 450.504
2930 0 68.4384 9.54143 653 89.9081 190.058 441.959
2931 0 69.3814 9.46939 657 90.8995 190.834 442.702
2932 0 75.4711 16.3771 1236 83.4199 191.867 445.15
2933 0 76.3552 12.874 983 86.5738 191.654 447.295
2934 0 78.2198 14.7533 1154 83.9939 192.48 440.073
2935 0 73.2326 13.1635 964 86.4492 192.553 448.923
2936 0 81.2198 13.1372 1067 88.6917 192.328 430.678
2937 0 85.1608 12.494 1064 89.4765 192.698 419.419
2938 0 86.3898 10.1169 874 91.9565 192.862 422.452
2939 0 91.5412 25.5077 2335 79.5388 194.284 427.033
2940 0 91.3029 14.4026 1315 89.149 195.296 432.674
2941 0 95.2057 12.0371 1146 90.8456 196.792 442.774
2942 0 97.2152 18.1042 1760 83.8733 196.057 443.627
2943 0 98.2323 14.0789 1383 87.6891 196.183 443.261
2944 0 100.636 16.0579 1616 86.1949 196.889 445.477
2945 0 103.427 14.358 1485 90.3293 197.99 442.853
2946 0 112.543 14.6433 1648 89.3695 197.66 441.776
2947 1 64.361 12.1036 779 90.7933 197.258 461.746
2948 0 69.5212 13.8519 963 85.9377 197.596 468.225
2949 0 72.5283 13.3052 965 87.8311 196.617 466.934
2950 0 76.2245 13.3422 1017 89.1701 196.056 462.09
2951 0 75.1395 11.8579 891 91.8709 195.405 458.908
2952 0 78.3055 20.9308 1639 83.6638 195.404 457.658
2953 0 79.1736 11.5443 914 92.2484 194.875 457.354
2954 0 84.3383 18.1294 1529 86.3074 195.16 456.755
2955 1 143.495 12.8855 1849 92.689 194.59 432.629
2956 1 90.3608 13.5789 1227 88.6006 194.171 461.345
2957 0 90.2899 12.6703 1144 90.8427 191.819 450.152
2958 0 93.2716 16.1786 1509 88.558 191.973 445.437
2959 0 97.529 16.2516 1585 88.4826 190.95 445.033
2960 0 96.3726 20.9603 2020 84.9762 191.147 438.486
2961 0 104.583 13.5203 1414 91.5764 191.235 445.17
2962 0 106.529 16.0332 1708 89.5978 191.999 437.097
2963 0 110.748 16.1267 1786 88.8729 190.516 446.415
2964 0 110.6 12.7667 1412 93.7004 191.698 433.322
2965 0 111.853 12.1766 1362 93.4009 190.248 430.653
2966 1 62.3085 12.7591 795 87.4239 190.131 453.068
2967 0 60.2856 3.98105 240 96.8375 190.908 447.696
2968 0 71.0765 10.7912 767 91.558 189.97 459.953
2969 0 72.1446 11.0473 797 89.8946 189.557 457.425
2970 0 75.4276 14.7161 1110 87.1261 189.635 450.398
2971 0 77.4589 13.5685 1051 92.1722 189.869 447.763
2972 0 82.4951 16.5464 1365 88.6469 188.948 448.686
2973 0 81.3847 13.3809 1089 92.7989 189.146 446.961
2974 0 86.3434 19.0982 1649 86.2911 190.975 452.309
2975 0 87.1568 16.7399 1459 85.2748 191.212 452.811
2976 0 91.1905 11.3608 1036 90.2645 191.466 448.628
2977 0 95.6983 16.1549 1546 89.7988 191.479 439.685
2978 0 96.1794 14.213 1367 93.6035 192.762 440.244
2979 0 99.1737 15.0846 1496 92.0301 192.463 444.355
2980 0 101.33 14.7143 1491 92.2287 192.311 444.969
2981 0 105.195 15.1243 1591 93.0113 193.317 439.551
2982 0 108.398 17.1682 1861 92.2128 193.838 437.884
2983 0 111.433 14.5379 1620 95.3518 196.09 421.946
2984 0 113.765 10.8293 1232 100.158 195.192 420.112
2985 0 123.45 19.1819 2368 90.057 196.154 424.372
2986 0 122.588 14.1857 1739 94.7085 196.804 427.095
2987 1 69.1983 11.5899 802 96.7045 196.007 460.567
2988 0 71.2157 11.1773 796 96.9183 195.667 461.152
2989 0 72.4824 10.8716 788 98.9404 197.015 458.478
2990 0 75.4563 11.4636 865 97.8566 196.798 454.697
2991 0 78.5611 14.6765 1153 94.0191 196.484 448.97
2992 0 78.4127 12.753 1000 96.793 195.372 453.151
2993 0 84.3785 15.0275 1268 93.8013 195.778 458.259
2994 0 88.4644 17.1142 1514 91.716 196.423 454.307
2995 0 86.3228 15.025 1297 94.6862 196.672 452.492
2996 0 93.3568 18.5632 1733 89.768 196.432 454.308
2997 0 93.2204 14.9967 1398 93.9914 195.169 435.05
2998 0 96.123 14.7207 1415 94.5979 195.08 426.936
2999 0 102.356 15.9444 1632 92.4375 194.661 430.27
3000 0 101.277 15.1663 1536 94.1497 194.449 435.145
3001 0 106.572 12.8739 1372 96.1356 193.156 432.872
3002 0 108.374 13.8133 1497 95.9392 192.485 434.009
3003 1 59.1691 12.253 725 95.4566 191.088 467.414
3004 0 62.106 15.2964 950 90.7895 191.097 476.085
3005 0 62.2157 11.5726 720 94.6972 190.844 471.956
3006 0 67.1268 11.6496 782 91.0102 188.552 467.963
3007 0 66.3738 13.8157 917 92.3457 189.689 467.107
3008 0 70.2073 17.7617 1247 88.8829 189.763 467.395
3009 0 68.1997 10.8065 737 97.616 189.246 464.079
3010 0 73.4913 10.9945 808 97.3478 189.908 461.55
3011 0 74.1708 23.3785 1734 85.654 188.843 462.298
3012 0 80.6579 16.0803 1297 91.512 188.722 460.608
3013 0 76.2685 13.6623 1042 95.1939 188.295 456.035
3014 0 83.3288 12.9607 1080 94.5398 188.68 453.363
3015 0 86.2383 18.762 1618 88.1916 189.135 456.801
3016 0 85.3042 16.9628 1447 90.933 189.387 453.842
3017 0 89.2441 13.4014 1196 94.2057 189.298 454.655
3018 0 89.3293 16.7246 1494 93.3648 190.016 449.021
3019 0 92.2373 14.2242 1312 96.3308 190.546 446.183
3020 0 100.751 21.8658 2203 87.9646 190.37 433.756
3021 0 98.3839 10.2964 1013 101.015 192.43 445.475
3022 0 101.453 17.7521 1801 93.7224 192.149 442.729
3023 0 103.649 17.0383 1766 96.0838 192.806 439.281
3024 0 106.386 12.6426 1345 100.77 192.699 430.484
3025 0 109.562 14.2841 1565 97.6128 193.869 426.667
3026 0 112.435 13.0564 1468 100.753 194.45 423.852
3027 0 118.843 13.4883 1603 100.177 195.595 430.631
3028 0 120.728 12.6648 1529 100.159 195.018 431.727
3029 1 65.7277 10.5739 695 100.37 196.05 456.312
3030 0 65.4501 13.3231 872 97.5218 195.291 458.474
3031 0 69.3797 12.6118 875 97.488 196.472 461.634
3032 0 70.3572 19.3299 1360 91.4507 195.616 465.064
3033 0 74.1841 10.7705 799 100.611 196.272 463.88
3034 1 88.5514 27.3852 2425 80.9588 194.929 454.646
3035 0 89.4278 21.0449 1882 86.5547 194.507 461.248
3036 0 83.5274 14.7377 1231 96.5207 194.525 452.285
3037 0 86.2197 21.3176 1838 88.5071 194.482 448.007
3038 0 85.3799 19.3137 1649 92.6283 194.167 442.996
3039 0 87.5783 14.9352 1308 98.0092 194.698 440.645
3040 0 87.4126 13.4077 1172 97.8626 194.09 448.919
3041 0 92.389 12.2634 1133 98.9418 193.108 448.831
3042 0 96.253 13.745 1323 98.1716 192.844 441.936
3043 0 97.5531 13.3466 1302 99.8671 192.006 435.624
3044 0 97.4207 16.8855 1645 96.3702 191.232 439.193
3045 0 102.649 14.837 1523 98.2777 190.336 430.866
3046 0 104.32 15.9892 1668 96.6829 190.155 434.224
3047 0 109.637 21.0058 2303 91.7807 189.327 427.749
3048 0 110.623 13.65 1510 100.77 189.235 423.817
3049 0 115.61 13.338 1542 100.426 188.899 437.927
3050 1 67.3503 14.4914 976 95.4959 187.613 464.759
3051 0 70.6436 12.8249 906 95.713 186.868 463.352
3052 0 73.2746 12.8148 939 96.8935 186.666 463.321
3053 0 79.4146 14.2165 1129 96.9495 187.531 448.055
3054 0 80.6365 15.6381 1261 94.9699 186.676 436.093
3055 0 82.5253 20.3938 1683 90.9406 186.954 433.318
3056 0 81.4057 16.2028 1319 96.3594 187.256 432.488
3057 0 85.3702 13.6465 1165 98.5013 186.91 423.658
3058 0 88.5166 15.6242 1383 97.0535 187.296 423.436
3059 0 91.4131 16.6716 1524 95.4304 187.306 423.035
3060 0 94.5142 16.3468 1545 96.2893 188.433 421.405
3061 0 96.6108 16.406 1585 96.6278 188.854 418.676
3062 0 100.604 17.1861 1729 96.0509 188.464 422.792
3063 0 104.359 21.062 2198 90.3772 189.01 431.468
3064 0 103.937 15.1341 1573 99.4126 190.305 422.195
3065 0 110.06 14.5284 1599 99.7786 190.946 424.892
3066 0 112.487 16.2419 1827 98.1314 191.958 421.109
3067 0 116.434 17.452 2032 96.3169 192.272 428.317
3068 0 122.808 19.4532 2389 93.4768 192.778 435.293
3069 1 217.848 16.0708 3501 100.147 192.559 394.035
3070 1 258.99 22.8503 5918 89.3175 192.402 386.145
3071 1 244.07 13.4306 3278 103.6 193.662 369.959
3072 1 75.3691 17.5934 1326 93.945 193.854 441.79
3073 0 78.3229 17.5683 1376 94.6541 194.472 444.371
3074 0 77.21 12.4854 964 100.358 193.962 454.043
3075 0 85.3084 18.8844 1611 92.8324 194.722 456.989
3076 0 86.1432 13.8026 1189 97.5988 194.397 452.631
3077 0 89.3787 16.9056 1511 94.6539 193.228 451.74
3078 0 92.5847 15.3265 1419 96.0176 193.846 451.759
3079 0 95.6644 14.07 1346 96.1597 193.645 452.677
3080 0 97.4914 14.1756 1382 93.1389 194.229 459.334
3081 0 100.349 12.7754 1282 95.4189 193.712 455.397
3082 0 100.312 10.4474 1048 98.4485 194.104 453.175
3083 0 111.402 22.7555 2535 86.5531 193.316 448.962
3084 1 59.3362 18.5047 1098 85.8443 192.529 477.287
3085 0 59.1117 19.1671 1133 86.4131 191.839 476.035
3086 0 61.1828 14.4485 884 91.0996 191.602 469.757
3087 0 61.1211 12.8597 786 94.0598 191.489 467.086
3088 0 63.1156 14.2596 900 96.4244 191.024 462.704
3089 0 61.3553 11.6697 716 99.3114 190.369 467.892
3090 0 66.4008 8.87038 589 98.91 190.156 472.411
3091 0 71.4959 15.3296 1096 92.9197 188.815 468.346
3092 0 71.2472 13.9795 996 93.9137 187.423 467.512
3093 0 72.4423 12.4375 901 95.4328 187.032 455.817
3094 0 74.3529 15.413 1146 92.7391 186.55 460.853
3095 0 80.2452 16.5244 1326 90.9035 185.698 451.876
3096 0 80.8119 17.2623 1395 90.3849 185.715 449.664
3097 0 84.4737 18.8816 1595 88.9329 184.802 450.943
3098 0 82.5129 15.1613 1251 93.9784 185.524 446.377
3099 0 88.7594 17.1024 1518 90.469 185.487 441.937
3100 0 89.5623 19.2715 1726 89.3841 185.509 443.497
3101 0 91.8446 15.4936 1423 92.9986 186.918 447.734
3102 0 92.2709 14.349 1324 94.1579 187.49 447.625
3103 0 96.9385 14.3906 1395 95.228 187.881 441.112
3104 0 99.7325 25.5884 2552 85.6783 187.471 436.737
3105 0 99.7188 14.4306 1439 96.328 189.29 430.108
3106 0 103.915 15.0412 1563 94.874 189.214 441.889
3107 0 106.558 15.6065 1663 95.2255 190.222 436.265
3108 0 109.095 13.2179 1442 97.8322 190.815 432.331
3109 0 117.343 17.828 2092 90.5641 190.571 441.117
3110 0 119.731 16.9464 2029 93.002 191.245 427.252
3111 0 121.038 11.9549 1447 98.6745 191.972 429.773
3112 1 69.0669 16.0135 1106 91.5335 191.785 456.407
3113 0 72.1332 12.6849 915 94.0361 192.991 454.644
3114 0 74.9192 11.6125 870 94.2218 192.563 457.839
3115 0 74.8309 14.8869 1114 91.9704 193.118 452.412
3116 0 80.7094 11.9193 962 94.7734 192.389 454.778
3117 0 85.0561 13.3794 1138 92.8392 192.444 454.38
3118 0 83.8896 10.335 867 95.4568 192.631 455.639
3119 0 89.7659 22.826 2049 84.2186 192.462 454.535
3120 0 91.9223 24.9776 2296 82.9416 192.058 456.35
3121 0 95.9798 15.8783 1524 90.8379 192.516 453.15
3122 0 97.2293 17.7107 1722 88.4884 192.189 456.597
3123 0 97.7263 12.7499 1246 95.0112 192.646 447.778
3124 0 100.848 15.3697 1550 92.8452 191.92 448.706
3125 0 106.18 16.3497 1736 91.6204 191.447 447.488
3126 0 108.596 13.9416 1514 94.8137 192.344 448.944
3127 0 111.065 16.2427 1804 92.7173 190.46 448.613
3128 0 117.137 13.8642 1624 95.2851 190.551 445.918
3129 0 119.004 13.3945 1594 96.1004 190.016 445.563
3130 0 122.21 21.1031 2579 89.3738 189.428 442.696
3131 0 128.372 14.7539 1894 94.2054 188.797 441.785
3132 0 131.682 14.6565 1930 94.9347 188.287 434.474
3133 0 138.315 17.2071 2380 92.4983 188.567 432.165
3134 0 142.655 16.3542 2333 90.9404 186.864 442.636
3135 0 151.043 16.1941 2446 92.9252 186.642 427.678
3136 0 151.625 12.2275 1854 98.719 187.057 421.158
3137 0 158.078 14.4232 2280 96.2035 186.243 421.128
3138 0 163.235 16.5957 2709 94.3872 185.361 420.403
3139 1 87.0946 16.6026 1446 90.6452 185.79 458.636
3140 0 91.4097 14.0685 1286 94.1065 186.277 455.391
3141 0 92.9044 16.7161 1553 92.8094 186.43 445.182
3142 0 94.0002 20.4255 1920 89.0109 185.593 451.881
3143 0 97.0088 14.9059 1446 94.325 187.019 448.261
3144 0 96.8305 11.9177 1154 98.1664 186.633 440.975
3145 0 101.053 11.6474 1177 99.1011 187.241 439.961
3146 0 104.785 21.5107 2254 88.5941 186.442 442.441
3147 0 103.692 15.7293 1631 95.1931 188.224 428.636
3148 0 108.553 14.9512 1623 97.4923 188.507 432.101
3149 0 111.798 16.7802 1876 94.8369 188.894 434.593
3150 0 116.416 18.1847 2117 92.4672 189.052 433.21
3151 0 121.562 13.0961 1592 97.218 189.987 429.538
3152 0 133.873 21.8416 2924 88.4579 189.731 428.585
3153 0 131.787 15.8969 2095 94.2735 191.609 433.108
3154 0 136.808 14.8895 2037 96.6033 191.378 419.469
3155 1 81.5937 12.7583 1041 94.5322 192.89 450.127
3156 0 87.6433 16.4302 1440 89.6646 192.879 454.028
3157 0 86.6204 14.8002 1282 93.9805 192.998 447.074
3158 0 85.3815 12.6842 1083 94.7378 193.202 452.588
3159 0 90.5434 16.1138 1459 92.0062 193.312 446.519
3160 0 94.736 15.3057 1450 92.1641 194.281 453.028
3161 0 97.4339 15.8569 1545 93.0136 193.644 445.335
3162 0 103.436 14.6758 1518 94.6818 194.435 445.346
3163 0 100.644 11.5655 1164 98.9253 194.28 443.795
3164 0 103.33 12.3198 1273 98.8696 193.456 441.491
3165 0 111.551 13.1958 1472 97.3193 192.954 446.688
3166 0 112.5 14.48 1629 97.1449 192.87 444.044
3167 0 111.624 15.2297 1700 96.7465 192.512 442.772
3168 0 120.393 13.8131 1663 98.4847 192.082 439.207
3169 0 125.39 16.9231 2122 95.3728 191.671 440.787
3170 1 71.2881 12.9054 920 98.1533 191.999 462.984
3171 0 72.2807 12.3131 890 97.0607 191.375 464.702
3172 0 77.4112 14.972 1159 94.3865 190.45 461.846
3173 0 81.6507 16.5216 1349 94.748 188.372 464.946
3174 0 82.3429 17.5607 1446 93.722 188.214 461.895
3175 0 84.4927 11.9892 1013 98.7453 187.821 460.815
3176 0 90.3763 12.1935 1102 97.2332 187.735 462.624
3177 0 93.6135 17.6684 1654 91.9142 185.602 457.228
3178 0 96.7064 15.5212 1501 94.0733 186.322 457.837
3179 0 100.553 19.9099 2002 89.3127 185.412 440.822
3180 0 106.817 15.0725 1610 91.8932 185.783 454.051
3181 0 107.909 17.4962 1888 90.3257 185.754 447.951
3182 0 110.774 20.0227 2218 88.5789 185.209 443.279
3183 0 112.672 20.7151 2334 87.5557 185.297 447.576
3184 0 114.494 17.8787 2047 90.9262 184.535 437.972
3185 0 117.873 11.5039 1356 96.5627 185.172 443.72
3186 0 126.334 20.6595 2610 87.749 185.748 438.228
3187 0 124.258 15.4436 1919 93.8009 186.9 428.99
3188 0 127.336 11.4971 1464 97.11 187.572 426.63
3189 0 133.365 11.7722 1570 97.1548 187.812 429.048
3190 0 140.795 18.36 2585 91.576 187.853 416.251
3191 0 142.827 14.5281 2075 95.7696 188.471 422.62
3192 1 81.3392 10.8927 886 95.4131 189.536 448.707
3193 0 84.3419 15.0696 1271 91.3761 190.179 440.381
3194 0 91.5187 20.7936 1903 86.4735 190.045 437.418
3195 0 91.2854 16.8592 1539 91.9831 190.957 436.749
3196 0 94.3955 14.2274 1343 94.8481 191.488 437.88
3197 0 96.2429 15.8038 1521 92.879 191.998 432.765
3198 0 99.4513 14.4895 1441 96.2942 192.797 425.651
3199 0 100.485 19.9035 2000 91.214 192.87 424.75
3200 0 104.778 16.0339 1680 95.3583 193.627 421.854
3201 0 106.546 12.1262 1292 100.426 193.334 427.968
3202 0 112.673 21.7798 2454 88.9458 192.525 445.919
3203 0 112.597 14.2899 1609 98.4966 192.833 437.582
3204 0 116.609 21.9023 2554 90.6292 191.919 423.244
3205 0 121.641 17.7983 2165 94.8947 192.434 430.782
3206 1 66.7609 13.0915 874 95.7609 191.478 465.985
3207 0 70.6747 10.9374 773 97.5834 192.114 462.756
3208 0 68.5497 13.1729 903 96.3754 190.832 462.874
3209 0 73.4478 10.8376 796 98.2312 191.048 463.129
3210 0 77.6572 13.0445 1013 97.6229 189.657 452.114
3211 0 78.3288 14.1455 1108 96.7536 190.442 439.809
3212 0 83.4777 12.8178 1070 96.4813 190.232 446.148
3213 0 85.8369 16.4149 1409 93.7168 190.726 444.59
3214 0 90.3642 13.346 1206 96.6973 189.922 446.753
3215 0 89.4038 13.1874 1179 97.7634 189.271 444.732
3216 0 94.5035 15.3539 1451 94.9986 189.113 440.117
3217 0 91.252 12.8874 1176 99.7611 188.353 434.419
3218 0 97.4398 13.6905 1334 97.8538 187.981 440.019
3219 0 101.507 13.3489 1355 97.7432 187.306 440.262
3220 0 106.835 20.9389 2237 90.1542 187.446 441.48
3221 0 106.769 16.7932 1793 94.937 187.05 442.323
3222 0 109.57 11.7459 1287 101.654 185.891 435.81
3223 0 116.737 17.2096 2009 92.5769 186.046 433.097
3224 0 114.43 14.8912 1704 95.5059 186.919 430.746
3225 1 179.721 19.5303 3510 91.0071 185.179 418.532
3226 1 123.383 14.2321 1756 96.1549 186.116 431.079
3227 0 125.394 13.0708 1639 96.4002 185.771 435.81
3228 0 134.506 21.4489 2885 89.7442 185.472 429.271
3229 0 131.556 13.6672 1798 98.6407 186.503 422.679
3230 1 73.1424 9.73444 712 101.038 188.088 447.933
3231 0 79.1388 16.2373 1285 94.5556 187.1 456.25
3232 0 77.328 11.9103 921 103.853 187.47 442.08
3233 0 82.2184 15.7751 1297 98.9106 187.681 441.319
3234 0 83.1848 14.5219 1208 100.731 186.435 447.046
3235 0 88.3505 21.8448 1930 92.5218 188.079 451.038
3236 0 88.2516 11.6598 1029 104.426 187.965 448.652
3237 0 95.675 15.3018 1464 99.6086 188.858 446.413
3238 0 94.2653 14.1197 1331 102.192 189.926 443.74
3239 0 101.476 19.9554 2025 94.0578 190.278 451.379
3240 0 101.509 13.4865 1369 102.898 190.868 444.479
3241 0 103.323 16.8502 1741 99.0546 191.609 441.028
3242 0 106.361 19.1612 2038 96.8489 192.887 445.04
3243 0 109.483 16.0665 1759 101.391 193.009 441.578
3244 0 109.208 13.8177 1509 103.824 193.085 438.734
3245 0 120.547 22.6966 2736 92.6853 193.325 444.371
3246 0 119.228 15.2984 1824 100.038 193.269 437.274
3247 0 124.381 17.1168 2129 96.6407 193.005 443.047
3248 0 124.381 17.2293 2143 135.744 192.003 443.116
3249 0 130.4 13.3512 1741 102.63 194.369 429.805
3250 0 138.392 12.5441 1736 103.368 193.399 430.55
3251 0 143.596 17.222 2473 96.0849 192.617 412.738
3252 1 82.283 16.5891 1365 94.6952 193 456.886
3253 0 86.1973 16.0446 1383 93.6515 191.695 455.641
3254 0 86.4273 12.2878 1062 97.0819 191.997 457.607
3255 0 91.5143 17.0356 1559 92.4708 192.139 454.738
3256 0 91.5111 11.0915 1015 98.7271 191.687 450.494
3257 0 93.3715 11.7595 1098 98.1913 191.921 448.025
3258 0 100.89 16.3248 1647 92.6412 190.217 446.866
3259 0 101.458 16.8247 1707 92.2361 190.429 444.425
3260 0 106.311 15.4359 1641 92.2279 190.349 450.025
3261 0 107.856 13.6756 1475 94.9925 189.742 442.193
3262 0 112.578 17.0726 1922 92.1811 189.394 438.764
3263 0 118.788 14.7489 1752 94.1478 189.097 435.039
3264 0 121.78 17.9258 2183 90.7801 187.61 434.323
3265 0 126.677 23.7849 3013 84.8865 187.292 440.567
3266 1 70.9584 15.0934 1071 90.2316 187.902 459.423
3267 0 72.7009 16.0933 1170 89.8581 186.526 457.259
3268 0 76.0832 16.5477 1259 91.7141 187.348 452.458
3269 0 75.3754 17.0082 1282 90.0803 187.473 457.516
3270 0 80.0321 10.9956 880 95.5466 187.485 450.573
3271 0 83.5905 17.9685 1502 89.757 187.541 449.704
3272 0 83.7661 16.6058 1391 91.0108 186.658 448.828
3273 0 86.7494 16.0116 1389 92.4089 187.929 442.269
3274 0 89.655 14.6673 1315 93.9186 188.256 439.214
3275 0 90.43 13.9224 1259 94.5346 188.354 442.203
3276 0 95.9739 14.4102 1383 93.7332 188.636 440.912
3277 0 99.1578 13.0802 1297 95.8759 189.369 438.23
3278 0 103.202 18.6915 1929 90.4386 189.215 434.148
3279 0 105.503 16.5209 1743 91.9891 190.3 434.693
3280 0 106.668 11.7186 1250 97.3144 190.83 432.181
3281 0 111.325 18.3876 2047 90.9052 191.767 431.916
3282 0 112.217 17.5553 1970 92.7782 191.981 420.111
3283 0 118.15 13.9907 1653 95.7695 192.577 427.179
3284 0 120.724 11.3068 1365 98.5751 193.7 417.637
3285 0 127.936 15.3983 1970 94.1203 194.524 424.57
3286 0 128.728 11.8001 1519 98.7999 193.27 422.197
3287 1 75.4182 13.3522 1007 97.6365 193.369 443.699
3288 0 78.6996 16.2771 1281 94.4364 193.222 446.034
3289 0 77.5907 13.1459 1020 98.6294 193.747 441.157
3290 0 85.4072 13.1956 1127 96.9157 193.103 446.249
3291 0 88.6014 14.5709 1291 95.5778 193.874 452.435
3292 0 88.5566 13.1103 1161 98.6563 194.4 444.621
3293 0 91.3753 24.6456 2252 86.9907 193.65 443.208
3294 0 94.7558 17.6876 1676 94.0638 194.286 441.166
3295 0 99.4513 16.9229 1683 95.1123 194.005 439.335
3296 0 100.512 12.9736 1304 100.519 194.337 435.8
3297 0 107.797 18.1637 1958 93.0751 193.105 441.685
3298 0 108.75 20.3862 2217 92.3857 192.791 437.756
3299 0 113.555 17.8063 2022 94.362 192.64 439.298
3300 0 115.636 18.1518 2099 94.8742 192.154 432.907
3301 0 117.976 16.5797 1956 96.091 190.808 435.589
3302 0 123.563 14.4379 1784 97.4972 190.17 431.794
3303 0 125.676 15.8582 1993 96.0968 190.155 428.689
3304 0 132.499 17.9775 2382 94.4332 189.878 420.95
3305 0 138.858 17.896 2485 93.4382 189.916 430.059
3306 0 141.788 16.7574 2376 95.2559 189.456 424.351
3307 1 78.3864 11.5199 903 97.3787 190.05 453.291
3308 0 83.3458 15.7416 1312 93.9329 189.168 453.098
3309 0 85.2715 13.416 1144 95.861 189.554 453.02
3310 0 93.2367 17.225 1606 90.3406 189.7 441.554
3311 0 95.6669 20.3101 1943 87.9213 188.729 440.138
3312 0 98.4683 21.3876 2106 87.7583 187.953 439.386
3313 0 95.3574 17.985 1715 94.1889 188.587 433.617
3314 0 101.697 18.6435 1896 92.4657 188.44 437.307
3315 0 104.31 16.7002 1742 95.1946 188.606 426.105
3316 0 105.43 16.6651 1757 95.8532 189.615 429.694
3317 0 107.656 16.2184 1746 94.8602 190.256 436.491
3318 0 115.518 15.7724 1822 96.0768 189.479 429.265
3319 0 115.662 14.136 1635 98.1089 190.894 420.235
3320 0 119.479 15.1826 1814 96.9035 190.869 417.407
3321 0 121.518 14.5328 1766 97.8618 190.947 418.849
3322 0 133.343 19.0861 2545 91.7273 191.606 421.557
3323 0 136.592 14.4152 1969 97.132 193.091 413.609
3324 0 142.432 16.2463 2314 94.4136 193.089 417.919
3325 1 82.4939 18.0862 1492 89.1521 192.538 431.09
3326 0 84.4482 9.75746 824 98.8896 193.37 430.539
3327 0 88.2329 12.6483 1116 94.8719 193.771 425.704
3328 0 93.2185 17.754 1655 89.1172 194.156 430.138
3329 0 96.2626 16.4134 1580 90.743 193.512 422.48
3330 0 97.3217 13.0803 1273 95.0919 194.02 418.805
3331 0 98.1835 10.9489 1075 98.6781 195.46 413.029
3332 0 104.356 16.6449 1737 90.8935 193.838 426.696
3333 0 105.248 14.195 1494 95.504 195.432 428.41
3334 0 104.454 12.9435 1352 98.5089 194.601 432.342
3335 0 112.357 15.0324 1689 96.1249 195.347 423.545
3336 0 112.349 11.6957 1314 100.365 194.744 431.254
3337 0 119.425 17.4586 2085 94.8029 195.299 426.757
3338 0 125.21 13.3855 1676 97.895 195.412 431.029
3339 0 129.462 17.1788 2224 94.9092 194.792 430.87
3340 0 133.408 16.8655 2250 94.3027 193.42 431.415
3341 0 137.749 15.7025 2163 96.8465 194.164 421.493
3342 0 142.529 17.0562 2431 94.7018 193.873 415.667
3343 0 148.487 14.7487 2190 97.3178 194.282 418.614
3344 1 82.2732 12.2276 1006 96.7237 194.473 447.252
3345 0 83.3758 9.81101 818 94.912 193.534 451.466
3346 0 90.2258 14.375 1297 91.6091 193.796 451.805
3347 0 95.2442 15.917 1516 92.5138 192.174 445.06
3348 0 94.173 13.0398 1228 95.4731 191.768 448.464
3349 0 99.4058 13.46 1338 95.077 192.636 444.195
3350 0 101.589 14.7063 1494 94.9926 192.661 433.002
3351 0 104.534 14.8372 1551 94.7357 192.498 431.388
3352 0 108.329 12.342 1337 98.1668 191.364 430.124
3353 0 110.426 14.7792 1632 95.9252 191.339 429.36
3354 0 116.39 14.7436 1716 94.9149 191.631 430.897
3355 0 119.264 11.747 1401 98.8515 191.318 433.155
3356 0 121.79 13.9092 1694 97.9664 190.155 424.418
3357 0 123.282 14.2519 1757 97.6824 190.503 424.635
3358 0 127.449 12.0362 1534 99.6591 191.28 424.033
3359 0 136.971 13.5868 1861 98.5132 190.635 416.915
3360 0 139.892 15.755 2204 96.1724 191.124 412.043
3361 0 143.372 11.8293 1696 100.649 190.753 410.41
3362 0 149.628 12.4175 1858 100.283 190.893 405.551
3363 0 152.602 11.5726 1766 100.891 191.723 401.638
3364 1 84.5629 12.4877 1056 93.3078 192.413 447.21
3365 0 86.4882 14.4991 1254 95.1531 193.262 435.124
3366 0 91.4377 13.1346 1201 97.6828 194.145 433.64
3367 0 92.5082 19.9766 1848 90.5157 194.158 441.559
3368 0 95.3694 12.8448 1225 98.1804 194.847 440.694
3369 0 95.3789 15.2445 1454 95.3748 194.898 440.376
3370 0 100.473 14.3322 1440 98.6583 195.71 427.565
3371 0 106.331 15.2824 1625 96.6191 194.89 425.707
3372 0 106.278 12.138 1290 101.718 196.078 422.795
3373 0 110.467 16.6837 1843 95.9376 196.422 424.793
3374 0 113.387 13.5377 1535 98.8658 195.934 427.579
3375 0 114.441 14.1295 1617 97.8027 195.174 432.96
3376 0 119.788 13.4154 1607 98.9571 196.108 433.255
3377 0 121.209 11.8226 1433 100.426 195.458 422.256
3378 0 127.634 18.8979 2412 92.1032 196.089 419.305
3379 0 130.593 17.8723 2334 93.0617 195.87 414.506
3380 0 136.451 15.9764 2180 95.0945 195.484 417.262
3381 0 138.034 12.352 1705 99.8111 195.437 410.933
3382 0 143.847 13.2433 1905 98.5423 194.443 413.586
3383 0 145.888 13.2978 1940 98.6345 194.29 419.494
3384 0 149.661 19.9852 2991 89.8549 194.247 426.127
3385 0 155.887 16.3836 2554 94.2815 193.324 418.714
3386 0 156.899 10.5864 1661 101.593 192.732 407.718
3387 0 164.099 17.7637 2915 92.7098 193.21 408.916
3388 0 168.09 14.0996 2370 96.3696 191.405 407.484
3389 0 174.588 20.3966 3561 90.1581 191.486 391.632
3390 0 182.376 18.0177 3286 91.7818 191.379 400.396
3391 0 185.145 25.6016 4740 86.5432 190.416 393.242
3392 0 191.408 13.7455 2631 96.8529 191.072 390.023
3393 0 197.038 23.8786 4705 86.5847 190.48 400.512
3394 0 199.27 16.6959 3327 93.8467 190.22 387.944
3395 0 203.857 17.9636 3662 93.3839 190.511 382.134
3396 0 210.792 23.9904 5057 89.0182 190.724 386.613
3397 0 216.464 20.0126 4332 92.5674 190.127 376.821
3398 0 220.984 17.7434 3921 94.7276 190.937 373.736
3399 0 231.013 20.527 4742 92.1369 190.805 362.482
3400 0 235.039 13.2701 3119 100.219 191.343 355.995
3401 0 243.821 15.737 3837 96.4694 190.795 359.226
3402 1 273.218 10.5813 2891 97.7167 191.185 378.671
3403 0 271.918 13.5004 3671 98.2648 191.212 348.877
3404 0 277.167 23.0367 6385 88.7283 191.27 331.12
3405 1 230.639 15.0061 3461 92.6917 192.084 392.299
3406 0 226.404 11.7975 2671 97.7514 192.428 384.013
3407 0 227.813 19.3756 4414 92.4343 192.57 368.843
3408 0 236.095 17.8784 4221 94.4383 192.307 350.934
3409 0 241.894 17.9913 4352 93.4805 193.093 364.27
3410 0 247.233 15.8555 3920 96.4301 193.178 357.823
3411 0 342.154 28.9344 9900 85.1696 191.832 315.025
3412 0 347.146 24.6813 8568 89.1364 192.733 310.904
3413 0 359.346 24.1689 8685 89.4448 193.683 275.808
3415 0 296.231 23.0766 6836 91.3499 196.019 328.016
3416 0 301.168 18.6208 5608 96.329 196.784 329.318
3417 0 302.983 14.6048 4425 99.4404 196.446 340.354
3418 1 233.744 14.379 3361 99.4472 197.445 362.818
3419 0 239.744 14.4071 3454 99.4922 196.738 358.429
3420 0 248.901 17.1474 4268 95.9206 196.373 361.542
3421 1 260.034 15.3596 3994 97.5068 196.997 361.164
3422 0 269.342 14.528 3913 98.8405 196.165 348.805
3423 1 280.05 16.0971 4508 95.7782 195.682 359.545
3424 0 291.257 18.7223 5453 94.0908 196.266 348.422
3425 0 300.782 14.9211 4488 99.6943 196.171 325.474
3426 0 298.95 10.3964 3108 103.543 195.879 338.948
3427 0 302.253 11.3283 3424 101.597 196.018 346.577
3428 1 79.2544 8.55473 678 97.0487 197.155 439.043
3429 0 88.2722 15.2596 1347 87.4618 196.109 448.597
3430 0 89.1997 8.89016 793 97.1223 195.686 432.56
3431 0 93.2883 17.0332 1589 87.5066 192.757 446.536
3432 0 97.282 14.0622 1368 91.1667 192.774 443.251
3433 0 97.393 14.1078 1374 93.0917 191.211 445.496
3434 0 100.322 11.802 1184 94.989 192.026 442.926
3435 0 101.236 14.807 1499 92.3462 191.704 442.6
3436 0 106.207 18.7181 1988 87.174 191.061 448.889
3437 0 107.271 15.363 1648 91.4533 191.485 442.019
3438 0 111.526 15.2071 1696 92.5713 190.051 436.742
3439 0 114.311 14.0931 1611 94.3867 190.081 435.835
3440 0 117.35 13.2339 1553 96.4945 190.258 429.364
3441 0 123.295 15.0857 1860 94.0183 189.991 433.538
3442 0 126.464 12.8179 1621 95.1999 189.866 433.331
3443 0 128.252 14.838 1903 94.1324 190.172 427.401
3444 0 133.684 17.3244 2316 90.6805 190.713 421.281
3445 0 133.612 13.5242 1807 99.9568 191.545 414.829
3446 0 135.499 13.7861 1868 98.8978 191.657 408.777
3447 0 141.463 21.723 3073 90.2642 191.268 416.664
3448 0 147.585 19.6429 2899 92.1911 190.781 415.661
3449 0 145.531 12.8426 1869 99.5452 191.688 402.209
3450 0 153.395 14.0161 2150 96.9921 191.805 412.962
3451 0 159.667 16.835 2688 95.6376 192.289 405.41
3452 0 162.726 16.8873 2748 96.3857 193.002 391.664
3453 1 103.625 14.5717 1510 91.6086 192.896 409.586
3454 0 102.343 10.8068 1106 97.3653 193.95 406.209
3455 0 107.609 14.0323 1510 95.7622 193.109 400.242
3456 0 106.636 13.7289 1464 96.1004 194.485 400.936
3457 0 110.551 14.889 1646 93.938 195.429 403.282
3458 0 112.429 14.5692 1638 94.4774 195.822 402.979
3459 0 111.385 15.9177 1773 92.7197 196.125 406.813
3460 0 116.482 12.3539 1439 98.171 196.303 402.686
3461 0 123.709 16.1347 1996 92.6929 196.336 410.406
3462 0 123.748 20.0489 2481 90.3579 195.75 407.185
3463 0 129.554 12.5584 1627 94.9748 195.369 413.747
3464 0 133.568 15.932 2128 91.8487 195.293 412.437
3465 0 135.699 13.8911 1885 94.8064 195.437 408.425
3466 0 142.972 17.6678 2526 90.9481 194.759 413.641
3467 0 144.557 13.9668 2019 95.1996 194.471 413.068
3468 0 148.708 15.8431 2356 92.0594 194.425 422.234
3469 0 154.789 13.0307 2017 96.6544 195.165 404.911
3470 0 157.083 10.3194 1621 99.3936 193.801 414.774
3471 0 167.029 16.5002 2756 91.8077 194.111 416.598
3472 0 174.338 14.9996 2615 93.1935 194.133 407.595
3473 0 173.881 13.4748 2343 94.9684 193.107 410.841
3474 0 180.074 15.7046 2828 94.5675 192.244 394.702
3475 0 184.782 11.4459 2115 98.2132 191.7 404.049
3476 0 188.971 18.0027 3402 91.1578 190.867 403.605
3477 0 199.248 20.5423 4093 88.3398 190.473 403.338
3478 0 202.132 13.8177 2793 95.9395 190.02 389.453
3479 0 210.361 14.0616 2958 95.3438 188.889 391.911
3480 0 211.152 10.9826 2319 100.283 189.093 373.244
3481 0 220.399 11.3567 2503 99.9944 189.192 373.233
3482 0 223.127 15.5965 3480 95.5569 188.705 379.003
3483 0 232.246 14.7215 3419 96.1223 187.672 366.751
3484 0 237.506 15.0565 3576 95.3988 189.052 378.184
3485 0 238.973 15.4034 3681 95.2244 189.258 374.98
3486 1 336.841 13.0685 4402 100.345 189.201 337.794
3487 0 332.723 6.07713 2022 105.71 189.779 355.914
3488 0 337.165 7.27241 2452 106.406 189.542 332.487
3489 0 336.263 7.61012 2559 106.342 190.368 331.415
3490 0 341.193 13.869 4732 99.5218 190.143 331.198
3491 0 305.162 20.6415 6299 90.0621 191.063 333.593
3492 1 235.729 14.3088 3373 96.161 190.669 365.199
3493 0 242.829 14.1211 3429 94.9557 190.66 378.161
3494 0 250.94 21.0329 5278 90.044 190.423 356.137
3495 0 258.23 14.6458 3782 95.7697 191.763 360.063
3496 0 267.08 14.2167 3797 96.0408 191.581 351.448
3497 0 272.803 12.2433 3340 98.756 191.675 347.276
3498 0 272.803 12.2689 3347 153.952 192.688 346.997
3499 1 350.11 13.6186 4768 98.8488 192.926 320.829
3500 1 313.131 20.3748 6380 90.5276 193.655 311.53
3501 0 314.207 23.7901 7475 88.2768 194.256 320.353
3502 0 317.211 14.8986 4726 97.7084 193.656 327.336
3503 0 323.062 16.7305 5405 96.7933 193.792 313.485
3504 0 335.368 25.7836 8647 87.088 194.211 317.18
3505 0 348.151 21.3384 7429 91.7175 194.521 307.219
3506 0 363.978 23.2322 8456 88.994 194.725 299.899
3507 0 373.197 25.5816 9547 87.3938 194.556 296.605
3508 0 368.217 9.42379 3470 97.8014 194.676 363.029
3509 0 370.62 6.13028 2272 102.741 193.998 364.655
3510 0 374.468 6.82836 2557 102.592 193.88 361.114
3511 0 376.343 8.8244 3321 98.9356 193.563 362.219
3512 0 357.392 19.5499 6987 92.6458 193.672 283.807
3514 0 372.522 23.9315 8915 88.0139 192.262 279.219
