time division length width area intensity CMx CMy
0 0 66.1545 15.0557 996 129.702 815.817 458.357
1 0 66.0295 14.3875 950 131.831 815.213 458.473
2 0 70.0908 15.9936 1121 132.254 815.136 457.967
3 0 70.1877 16.926 1188 132.197 814.714 454.647
4 0 70.1877 16.8121 1180 132.325 814.694 454.67
5 0 76.1427 15.7468 1199 132.411 811.936 455.954
6 0 76.1329 15.7225 1197 135.296 808.941 455.909
7 1 39.1168 14.1883 555 137.279 810.378 469.553
8 0 43.1695 12.393 535 136.278 809.828 472.067
9 0 47.1789 12.3148 581 135.294 808.651 472.924
10 0 46.0701 12.8717 593 135.629 808.518 469.219
11 0 46.046 12.8567 592 137.274 808.351 469.348
12 0 48.0411 13.655 656 131.887 808.055 468.178
13 0 50.0538 14.4245 722 133.08 807.159 464.938
14 0 53.0982 15.5561 826 128.852 807.202 463.378
15 0 53.1136 14.5914 775 134.07 806.951 461.09
16 0 55.1276 14.3485 791 134.364 806.655 460.737
17 0 57.1991 17.815 1019 126.663 806.783 456.054
18 0 57.0986 15.1843 867 131.595 806.845 458.29
19 0 61.0765 15.9308 973 127.915 806.606 458.454
20 0 61.0765 15.9308 973 130.975 806.606 458.451
21 0 64.0859 17.4922 1121 124.84 807.035 450.065
22 0 66.2433 14.4618 958 127.687 806.659 451.289
23 0 66.236 14.4785 959 139.258 806.649 451.289
24 0 73.1044 16.2097 1185 127.427 810.334 448.864
25 0 72.2981 13.721 992 133.65 812.176 442.307
26 0 76.1504 16.3098 1242 127.737 812.727 443.427
27 0 79.1957 16.7054 1323 126.4 812.429 444.133
28 0 82.1159 15.4659 1270 129.119 812.691 436.798
29 0 83.1781 16.3144 1357 126.052 813.345 436.771
30 0 86.224 14.6131 1260 129.29 812.739 436.209
31 0 92.3179 19.5628 1806 116.111 814.434 433.766
32 0 93.3024 15.2622 1424 126.069 815.784 433.048
33 0 94.1161 13.2496 1247 127.254 816.392 432.977
34 0 99.3227 16.2299 1612 123.528 817.797 432.095
35 0 104.3 14.8897 1553 121.514 817.932 434.067
36 0 106.336 13.7583 1463 126.995 818.208 431.78
37 1 58.0418 15.7645 915 119.128 817.752 455.214
38 0 58.1203 13.1624 765 123.463 817.692 453.129
39 0 61.2763 15.0629 923 115.661 817.84 456.31
40 0 64.2062 13.9239 894 118.374 818.188 458.051
41 0 65.1111 15.4966 1009 114.012 817.849 458.61
42 0 70.1097 14.1207 990 117.17 816.652 453.34
43 0 70.1785 15.6458 1098 116.008 816.698 455.129
44 0 75.2328 14.5282 1093 120.193 816.589 454.306
45 0 75.1916 11.8231 889 120.985 816.006 451.938
46 0 79.1922 14.509 1149 130.406 815.023 452.622
47 0 84.3308 15.4985 1307 127.161 814.936 451.584
48 0 83.2425 13.4667 1121 133.184 814.209 452.163
49 0 83.2425 13.5388 1127 142.148 813.208 452.264
50 0 92.2772 14.6732 1354 127.983 813.13 449.722
51 0 96.2251 17.1369 1649 126.292 812.896 443.124
52 0 95.2831 17.2853 1647 138.99 812.917 442.978
53 0 101.224 14.8581 1504 129.965 812.017 439.189
54 1 53.1117 11.184 594 125.909 811.793 469.545
55 0 55.1077 9.92602 547 127.523 810.452 467.095
56 0 56.094 13.6735 767 121.92 810.2 466.022
57 0 58.2129 11.7672 685 124.298 808.667 463.301
58 0 60.1464 11.5385 694 124.435 807.987 460.826
59 0 64.1842 13.1808 846 121.444 809.294 459.749
60 0 67.1237 14.9724 1005 118.187 808.286 455.655
61 0 68.3325 13.0977 895 120.044 808.075 457.352
62 0 70.1049 14.0646 986 119.271 808.875 451.273
63 0 75.1189 13.259 996 118.799 808.626 452.576
64 0 74.2624 12.9002 958 121.618 808.136 446.915
65 0 82.3744 14.9075 1228 116.253 808.303 446.467
66 0 81.1105 12.1809 988 121.866 808.93 444.55
67 0 85.4258 14.4453 1234 118.361 808.294 442.181
68 0 85.3887 14.4516 1234 139.155 807.276 442.078
69 0 90.1081 12.9733 1169 121.708 808.633 435.035
70 0 94.28 13.8417 1305 118.221 808.919 437.035
71 0 96.2406 11.3466 1092 124.072 810.171 430.267
72 0 97.1358 11.3655 1104 125.315 811.221 432.178
73 1 53.196 12.2942 654 115.101 812.22 456.031
74 0 52.1717 8.68286 453 119.276 812.962 456.51
75 0 54.2766 10.0596 546 118.855 813.038 454.949
76 0 60.1128 12.3934 745 114.021 812.981 454.258
77 0 60.1273 12.3904 745 115.603 813.937 452.754
78 0 63.295 12.3548 782 114.159 814.407 453.671
79 0 67.0853 14.4443 969 110.481 815.345 456.589
80 0 67.0853 14.325 961 119.014 815.309 456.51
81 0 70.1306 13.3608 937 114.501 815.798 455.002
82 0 68.2279 9.60018 655 122.354 815.279 451.174
83 0 76.1477 14.0779 1072 116.456 816.568 451.401
84 0 76.0804 14.2875 1087 117.619 816.052 449.403
85 0 82.2159 14.5592 1197 116.492 814.663 447.312
86 0 81.196 13.2149 1073 119.144 814.437 451.504
87 0 84.3746 13.3334 1125 119.418 814.492 451.662
88 0 86.2378 12.5235 1080 121.215 814.029 450.706
89 0 90.2431 12.9761 1171 120.699 814.038 451.381
90 0 91.1136 11.6448 1061 124.69 813.684 445.27
91 0 94.5444 14.5011 1371 118.899 813.853 449.362
92 0 96.0954 15.3493 1475 117.789 812.2 448.533
93 0 101.464 10.7427 1090 125.294 812.023 445.715
94 0 103.377 12.4883 1291 123.747 811.143 441.689
95 0 107.38 10.8307 1163 125.353 810.012 434.976
96 0 110.366 11.8696 1310 124.125 810.348 432.731
97 0 115.399 16.5686 1912 116.393 809.269 434.841
98 0 120.516 15.0022 1808 118.387 809.337 435.424
99 0 123.625 14.8513 1836 118.371 808.538 431.93
100 0 127.493 16.0715 2049 117.438 807.832 424.965
101 0 132.422 14.9371 1978 118.022 807.769 425.734
102 0 138.551 15.1135 2094 117.98 806.936 423.656
103 1 71.3149 12.6341 901 112.946 807.023 452.125
104 0 71.2 8.69382 619 119.554 807.309 449.658
105 0 77.2726 16.3577 1264 109.869 805.843 451.445
106 0 77.2637 12.8391 992 115.77 804.952 447.288
107 0 81.2989 13.2966 1081 114.715 805.519 450.947
108 0 83.2252 13.1571 1095 118.11 804.721 446.597
109 0 86.1816 13.1699 1135 115.838 805.485 442.383
110 0 88.1593 12.1371 1070 115.882 805.852 444.363
111 0 93.1959 15.5693 1451 112.832 806.375 437.581
112 0 94.3151 14.3243 1351 115.924 808.238 435.788
113 0 98.4666 12.8978 1270 117.843 808.461 432.083
114 0 101.338 14.4368 1463 116.422 807.916 433.99
115 0 104.367 13.74 1434 117.139 809.147 434.773
116 0 103.269 10.9714 1133 122.018 810.192 431.84
117 0 109.283 14.0644 1537 118.8 810.016 424.007
118 0 117.482 17.075 2006 111.841 810.585 428.569
119 0 120.431 16.4409 1980 115.613 811.121 421.227
120 1 62.2639 11.5155 717 116.112 812.822 447.545
121 0 65.187 15.1257 986 111.21 813.631 449.41
122 0 66.0743 12.4859 825 113.613 814.372 447.702
123 0 70.1166 12.1797 854 113.025 815.159 452.248
124 0 72.2523 12.8716 930 116.338 813.769 445.258
125 0 75.2455 10.6983 805 118.713 813.74 448.22
126 0 77.2556 17.3062 1337 110.124 814.706 449.062
127 0 81.1489 12.9515 1051 116.508 813.911 447.956
128 0 82.4626 12.1146 999 119.346 814.779 444.856
129 0 83.5567 12.4586 1041 119.97 813.366 446.544
130 0 86.3426 12.5662 1085 120.328 813.769 448.064
131 0 89.3442 15.0318 1343 116.73 812.516 447.773
132 0 93.4762 10.3021 963 125.366 812.294 447.698
133 0 97.2544 12.7089 1236 122.659 811.287 442.867
134 1 55.4504 13.7781 764 116.416 811.364 466.62
135 0 57.2066 12.7083 727 117.911 809.989 465.03
136 0 58.3273 9.84101 574 123.514 808.65 466.537
137 0 59.2405 12.4408 737 115.585 810.129 464.817
138 0 61.1675 14.7954 905 111.699 807.977 464.73
139 0 62.3899 12.7905 798 115.759 808.471 465.812
140 0 66.1878 14.6099 967 112.119 806.909 463.799
141 0 67.2256 13.0456 877 115.205 807.157 460.812
142 0 70.1651 15.3353 1076 112.268 806.815 457.77
143 0 73.4278 13.6188 1000 119.196 804.782 459.731
144 0 73.2958 15.9491 1169 117.146 804.753 456.336
145 0 76.3902 14.5699 1113 119.492 802.945 452.477
146 0 78.1688 13.6499 1067 120.297 802.704 452.314
147 0 83.2426 14.9202 1242 117.182 802.949 453.085
148 0 82.2051 13.1987 1085 121.437 803.138 448.151
149 0 86.2004 15.6612 1350 113.668 803.033 447.267
150 0 87.3637 14.3538 1254 118.413 803.961 440.279
151 0 94.428 14.6884 1387 115.071 804.335 443.185
152 1 47.1486 10.7744 508 117.11 805.455 464.116
153 0 49.1104 12.1766 598 115.184 807.117 458.543
154 0 54.114 12.3074 666 112.429 807 460.875
155 0 52.199 12.2608 640 114.747 807.055 456.42
156 0 56.1286 12.4179 697 113.013 805.9 456.469
157 0 58.1917 14.4007 838 110.512 805.265 452.342
158 0 56.0556 11.2745 632 115.747 805.877 452.786
159 0 57.1121 10.9959 628 116.717 807.096 451.556
160 0 59.1065 14.8546 878 109.235 807.197 456.293
161 0 61.1189 12.7947 782 115.959 808.591 454.859
162 0 64.193 14.6433 940 112.009 809.895 452.656
163 0 64.1521 10.0854 647 119.493 811.232 451.711
164 0 69.1466 13.0014 899 115.186 811.804 447.575
165 0 72.3917 13.0678 946 114.961 810.369 447.033
166 0 72.2972 11.5081 832 119.891 810.083 448.1
167 0 75.3254 14.0059 1055 115.73 811.451 447.874
168 0 79.4543 16.1854 1286 111.593 811.485 445.179
169 0 79.4654 11.3257 900 120.843 810.957 445.657
170 0 85.2478 14.7804 1260 115.393 811.321 446.225
171 0 88.1352 13.9331 1228 116.279 811.303 445.25
172 0 92.3699 14.6368 1352 114.379 811.052 448.519
173 0 94.2309 13.9657 1316 117.714 810.707 442.964
174 1 49.2489 9.96978 491 120.719 809.44 465.379
175 0 53.3186 11.872 633 116.603 811.536 468.03
176 0 54.3373 12.9561 704 115.589 810.574 466.592
177 0 55.0552 13.8043 760 114.789 811.896 467.191
178 0 59.0744 14.9303 882 111.22 811.339 467.397
179 0 59.1108 13.9738 826 113.874 811.37 467.455
180 0 62.0732 15.9328 989 111.084 810.155 462.108
181 0 65.1326 12.9735 845 114.476 809.897 462.589
182 0 65.1507 14.1825 924 112.936 809.336 461.15
183 0 65.2427 12.4305 811 114.577 807.845 463.808
184 0 64.0748 11.4866 736 116.216 807.128 461.202
185 0 68.0683 12.2083 831 114.338 806.969 460.213
186 0 73.0664 13.2756 970 112.61 806.827 455.343
187 0 76.1758 13.2851 1012 113.055 805.331 454.674
188 0 76.1758 13.2851 1012 120.679 803.331 454.648
189 0 76.192 13.2954 1013 120.204 801.308 454.422
190 0 85.1992 13.5799 1157 113.092 804.501 453.146
191 0 85.2658 12.7132 1084 116.677 804.457 449.791
192 0 88.2358 13.7359 1212 116.016 804.044 445.46
193 0 90.2073 13.4911 1217 115.888 804.208 448.104
194 0 96.0984 13.1636 1265 117.099 803.164 442.818
195 0 99.2269 15.8828 1576 111.461 803.111 442.444
196 0 104.324 13.9085 1451 114.705 803.704 434.247
197 0 106.379 15.9148 1693 112.077 803.705 433.678
198 1 57.1388 11.6383 665 113.789 803.868 457.501
199 0 59.3992 16.8521 1001 106.961 805.678 457.111
200 0 57.1529 10.4807 599 112.721 806.05 455.427
201 0 58.0543 11.8854 690 110.535 806.071 451.845
202 0 61.1531 15.9109 973 105.188 806.52 451.817
203 0 67.1647 13.2063 887 124.114 807.682 452.083
204 0 64.2827 13.4873 867 108.14 807.802 447.524
205 0 70.1967 14.5733 1023 104.627 809.456 453.495
206 0 75.2267 20.8171 1566 97.2937 809.678 447.288
207 0 70.4383 12.55 884 109.838 811.069 449.335
208 0 75.3291 15.0407 1133 111.217 811.096 448.174
209 0 79.4102 14.6581 1164 111.656 810.468 446.008
210 0 83.4814 18.6988 1561 104.793 811.596 445.972
211 0 83.3718 12.5582 1047 116.287 812.055 443.182
212 0 87.4611 13.4345 1175 112.206 812.424 448.864
213 0 89.376 12.9901 1161 114.655 812.13 446.499
214 0 93.3287 11.6363 1086 116.119 811.383 443.743
215 1 50.0884 9.72282 487 115.643 812.485 466.788
216 0 52.0369 8.26337 430 118.437 813.686 466.323
217 0 54.1843 10.7596 583 114.448 812.391 466.69
218 0 54.0666 11.8003 638 108.426 809.87 467.754
219 0 59.2134 12.1932 722 106.903 810.615 468.842
220 0 55.2242 11.3718 628 109.723 808.19 468.08
221 0 61.2817 13.6256 835 106.036 808.914 466.147
222 0 62.1432 13.0505 811 107.419 807.875 465.803
223 0 62.1432 13.0183 809 126.85 806.881 465.993
224 0 71.2325 12.2837 875 112.909 808.054 463.267
225 0 71.2325 12.3399 879 128.548 808.068 463.276
226 0 71.1081 14.935 1062 110.363 806.351 459.973
227 0 73.0677 15.6704 1145 109.803 805.241 459.161
228 0 75.2306 12.1227 912 115.297 804.74 459.094
229 0 78.2785 12.7366 997 114.554 804.209 456.811
230 0 81.352 20.4912 1667 102.835 803.707 453.35
231 0 82.2171 16.274 1338 107.562 803.219 455.423
232 0 83.1844 13.6083 1132 111.612 803.791 453.654
233 0 85.3843 11.7469 1003 115.415 803.923 450.287
234 0 89.2106 14.6844 1310 112.127 802.295 447.073
235 0 89.1952 11.884 1060 116.128 802.642 446.774
236 0 93.2482 13.1799 1229 113.321 802.116 446.003
237 0 96.2594 15.4063 1483 110.287 800.858 436.073
238 0 101.223 16.0734 1627 108.392 801.476 437.288
239 1 49.1507 9.86762 485 112.536 801.981 461.111
240 0 53.1655 15.8749 844 104.923 801.853 457.81
241 0 53.4581 12.3461 660 111.053 800.248 456.448
242 0 53.4581 12.4396 665 126.907 799.215 456.317
243 0 57.2151 15.1708 868 107.476 805.34 453.666
244 0 59.024 12.8253 757 109.732 804.376 453.691
245 0 62.0823 12.4512 773 109.564 805.73 454.471
246 0 62.1417 11.3611 706 112.908 806.211 449.875
247 0 67.1516 13.7599 924 108.492 807.122 450.305
248 0 67.0364 12.5603 842 111.616 806.656 448.368
249 0 68.0634 9.59399 653 117.697 807.447 442.732
250 0 70.1658 14.9646 1050 108.486 808.378 449.608
251 0 71.1567 15.7399 1120 107.504 808.655 447.936
252 0 72.2006 12.2852 887 114.719 809.304 446.878
253 0 74.1483 13.5809 1007 112.963 810.085 446.259
254 0 79.1038 13.6403 1079 112.432 810.322 445.585
255 0 79.1743 12.8956 1021 114.988 811.379 445.536
256 0 80.2915 12.8407 1031 115.083 810.774 446.316
257 0 85.1106 13.7116 1167 114.351 811.934 446.446
258 0 87.1232 13.544 1180 115.233 811.82 447.239
259 0 87.0548 12.1877 1061 117.102 811.042 447.434
260 0 91.239 13.4372 1226 117.079 811.418 443.572
261 0 93.208 13.6362 1271 116.914 810.698 443.983
262 0 97.2715 12.5114 1217 118.847 809.892 438.417
263 0 101.209 13.7932 1396 116.635 809.324 440.573
264 1 50.0805 9.66443 484 117.238 810.033 469.535
265 0 55.1662 16.5319 912 105.366 809.004 466.544
266 0 58.2865 20.7252 1208 98.4776 807.827 470.721
267 0 57.1866 15.021 859 105.927 805.679 467.899
268 0 58.2285 11.867 691 110.265 804.269 466.405
269 0 61.1276 15.6067 954 105.395 804.192 462.753
270 0 63.2837 12.1358 768 109.857 803.785 463.025
271 0 64.2606 12.496 803 109.235 802.812 462.266
272 0 68.2513 13.5089 922 107.418 802.8 462.459
273 0 69.1592 12.7098 879 109.73 801.621 458.077
274 0 71.0538 11.6813 830 112.014 801.942 456.607
275 0 73.2282 13.3692 979 109.089 800.873 455.697
276 0 73.0664 14.5347 1062 107.352 800.508 450.901
277 0 79.5224 17.4039 1384 102.299 800.806 455.41
278 0 81.3539 11.8249 962 112.728 800.599 446.894
279 0 84.108 16.5502 1392 105.27 800.534 445.256
280 0 86.1329 14.8375 1278 108.739 799.927 443.12
281 0 86.2082 11.449 987 115.461 799.995 439.897
282 0 93.3603 10.9576 1023 114.795 799.596 443.08
283 1 47.1013 11.125 524 112.237 799.55 460.912
284 0 49.0739 10.7389 527 108.38 802.232 455.398
285 0 50.2321 12.2432 615 110.273 802.304 453.963
286 0 51.3858 12.1824 626 109.772 801.506 455.139
287 0 53.135 11.5178 612 109.74 802.479 456.243
288 0 56.2216 12.2017 686 109.375 802.102 451.587
289 0 59.1965 14.5786 863 105.415 803.109 451.122
290 0 59.3157 11.4641 680 111.504 803.726 451.413
291 0 60.1101 12.9096 776 109.88 805.15 447.921
292 0 66.2535 14.4143 955 106.309 805.693 449.396
293 0 62.2172 12.0224 748 113.17 807.299 445.52
294 0 67.134 13.1081 880 111.567 808.593 444.349
295 0 68.1882 16.8944 1152 106.225 809.277 446.845
296 0 68.1778 16.853 1149 113.302 809.252 446.937
297 0 75.2349 15.6178 1175 108.3 809.877 444.576
298 0 74.1896 10.9719 814 116.133 810.512 442.385
299 0 77.2021 12.5256 967 113.874 809.756 448.23
300 0 82.3086 13.5709 1117 112.885 810.436 445.35
301 0 84.3175 12.7257 1073 114.874 810.627 444.774
302 0 86.3725 13.9165 1202 112.519 809.792 443.212
303 0 91.1652 12.7132 1159 113.62 809.67 444.142
304 1 47.0998 9.95759 469 115.697 809.051 462.746
305 0 50.08 11.5815 580 109.59 810.8 466.474
306 0 50.0862 12.4785 625 109.253 810.538 466.219
307 0 49.0765 8.33392 409 116.892 810.049 468.061
308 0 51.178 11.3916 583 111.518 809.233 466.575
309 0 55.158 12.4914 689 109.949 809.563 467.881
310 0 55.1923 11.7045 646 111.161 809.743 468.692
311 0 58.0982 12.7026 738 110.152 810.182 466.879
312 0 59.0594 11.6832 690 111.977 809.08 463.987
313 0 62.1656 13.7857 857 107.648 808.316 465.725
314 0 61.0984 10.033 613 114.61 807.224 461.413
315 0 66.183 15.3967 1019 106.302 806.405 456.416
316 0 68.2242 15.6689 1069 105.386 806.248 458.625
317 0 69.1627 12.1742 842 111.449 806.833 455.297
318 0 71.1584 15.613 1111 106.824 804.555 453.776
319 0 72.1544 12.986 937 110.751 803.877 449.495
320 0 76.1311 13.0039 990 109.809 804.286 449.613
321 0 79.0853 12.8216 1014 109.625 804.364 450.195
322 0 81.1766 11.0007 893 112.076 804.916 448.105
323 0 87.2343 15.4756 1350 105.473 803.553 445.121
324 0 86.3183 11.5734 999 110.968 801.905 445.446
325 0 90.1296 13.9133 1254 108.172 803.057 442.425
326 1 50.0853 11.3007 566 109.76 800.866 460.049
327 0 51.1775 11.1377 570 110.365 801.618 456.365
328 0 55.1029 13.2116 728 110.141 802.15 452.076
329 0 54.1416 14.4436 782 106.958 802.252 455.326
330 0 53.1101 10.2429 544 114.064 806.302 452.375
331 0 57.1444 9.92223 567 113.628 806.339 448.16
332 0 59.3403 13.1277 779 109.148 808.257 450.182
333 0 59.2002 10.2533 607 113.872 808.109 452.796
334 0 63.1404 14.3331 905 109.286 809.196 446.03
335 0 66.2094 12.5662 832 111.113 809.661 448.984
336 0 68.2225 12.5179 854 110.45 811.064 447.786
337 0 72.081 13.9426 1005 109.947 810.974 444.546
338 0 70.113 10.2977 722 116.843 811.679 442.68
339 0 75.11 12.0091 902 112.035 812.346 446.076
340 0 78.1293 13.8488 1082 110.823 813.383 440.056
341 0 80.2393 13.6467 1095 111.532 813.634 441.837
342 0 85.1129 14.2517 1213 111.342 813.064 437.328
343 0 88.4895 13.7756 1219 112.161 814.113 436.912
344 0 89.519 10.3553 927 117.111 813.717 440.844
345 0 91.3129 11.7946 1077 115.736 815.11 440.864
346 0 96.1504 13.3125 1280 113.445 814.326 436.397
347 0 101.217 12.004 1215 113.969 814.554 439.566
348 1 52.1177 8.15462 425 117.652 814.546 455.527
349 0 53.3528 11.6395 621 110.918 813.517 455.345
350 0 54.3619 10.9636 596 108.762 812.46 456.757
351 0 58.2735 14.6379 853 103.64 812.103 452.441
352 0 59.249 10.5318 624 109.771 810.774 453.53
353 0 62.1623 8.86389 551 113.269 810.55 450.02
354 0 60.3657 9.88972 597 112.449 810.06 450.121
355 0 68.2254 12.2682 837 107.996 809.47 450.52
356 0 69.229 9.9958 692 111.204 809.225 449.66
357 0 71.2131 10.1947 726 111.569 808.22 446.731
358 0 76.3137 14.7811 1128 105.202 808.655 449.418
359 0 78.2679 14.3226 1121 106.169 808.699 451.799
360 0 79.2034 12.6131 999 109.324 808.671 448.146
361 0 79.2011 13.3079 1054 110.397 808.014 440.388
362 0 87.2758 13.2797 1159 108.877 808.903 443.157
363 0 89.1855 14.3185 1277 108.091 807.772 438.678
364 0 93.2083 15.7819 1471 106.727 807.643 433.506
365 0 94.2398 14.41 1358 109.362 807.216 435.676
366 0 97.2839 15.8094 1538 109.672 806.558 433.766
367 0 102.131 13.0029 1328 113.218 806.812 432.361
368 1 56.1655 13.4602 756 103.922 807.275 453.356
369 0 58.1424 15.8232 920 108.452 804.315 451.691
370 0 60.3461 15.4111 930 105.761 804.774 454.561
371 0 60.3656 10.4198 629 113.019 804.801 454.447
372 0 63.1251 14.2732 901 108.435 806.171 452.146
373 0 66.0652 14.516 959 108.341 806.585 447.049
374 0 64.2331 12.6414 812 111.833 806.74 441.031
375 0 68.1608 11.7956 804 111.897 807.106 443.4
376 0 71.2082 14.5348 1035 108.626 807.337 441.289
377 0 74.1769 14.6137 1084 108.771 808.374 441.172
378 0 77.2449 16.1176 1245 106.978 808.629 438.084
379 0 79.4015 18.715 1486 104.159 810.536 439.596
380 0 81.1619 15.1426 1229 109.469 811.637 439.632
381 0 82.0711 11.9896 984 114.834 811.426 435.906
382 0 88.4559 19.4334 1719 103.717 812.266 430.71
383 0 90.1769 14.1056 1272 110.836 813.243 433.454
384 0 91.184 12.7654 1164 112.271 813.068 441.156
385 0 95.1742 13.2284 1259 111.386 813.989 436.073
386 1 50.1637 10.2863 516 113.099 813.112 455.69
387 0 54.4367 9.38706 511 114.417 814.239 457.162
388 0 53.2344 12.2102 650 106.623 813.483 459.551
389 0 56.3104 10.7085 603 109.937 813.373 458.143
390 0 59.1774 17.5743 1040 99.7442 813.377 457.734
391 0 58.2735 11.3602 662 108.379 813.059 460.48
392 0 62.5263 12.8426 803 107.699 813.638 454.192
393 0 63.0838 9.82819 620 111.792 812.076 457.894
394 0 64.2418 12.6864 815 107.973 812.195 459.253
395 0 64.2418 12.5775 808 133.519 812.157 459.29
396 0 70.236 16.4873 1158 103.003 811.885 455.47
397 0 69.3431 9.6621 670 112.33 812 455.255
398 0 73.3035 14.9925 1099 105.822 810.385 453.226
399 0 78.1761 13.0347 1019 107.454 810.213 455.12
400 0 78.2474 10.4285 816 111.444 809.842 456.946
401 0 79.5651 12.0656 960 110.161 808.782 451.531
402 0 83.3947 11.0079 918 112.393 807.976 448.831
403 1 45.1297 11.1457 503 108.859 808.984 466.986
404 0 47.1304 11.9244 562 107.824 808.852 467.879
405 0 46.1447 7.93157 366 107.178 806.951 463.667
406 0 51.1661 14.1695 725 101.921 807.745 463.192
407 0 51.0962 14.8543 759 101.063 805.736 466.171
408 0 54.1512 13.9055 753 101.866 806.042 466.201
409 0 53.05 11.951 634 105.724 807.374 460.815
410 0 52.1438 12.2354 638 107.522 805.445 459.613
411 0 59.1339 14.3403 848 102.566 806.96 458.64
412 0 59.1652 13.7243 812 104.341 807.166 458.408
413 0 61.3069 12.0378 738 107.161 806.953 454.205
414 0 62.0444 13.99 868 104.558 806.948 452.753
415 0 62.1103 11.8016 733 107.951 808.074 450.883
416 0 69.1448 13.8984 961 104.849 808.996 445.119
417 0 68.149 14.571 993 103.937 808.583 442.869
418 0 70.2015 12.0795 848 107.669 809.033 443.516
419 0 72.1968 11.3578 820 108.427 810.065 441.879
420 0 72.3593 11.3047 818 109.589 810.984 440.586
421 0 78.0995 11.639 909 107.926 812.085 438.638
422 0 78.204 10.0506 786 110.158 812.17 437.071
423 0 84.223 12.1819 1026 105.998 813.384 437.771
424 0 85.133 13.661 1163 105.96 813.001 434.621
425 1 45.0706 9.45185 426 110.878 814.803 455.366
426 0 47.05 14.1552 666 103.896 814.902 453.404
427 0 48.1524 11.609 559 107.308 814.798 454.898
428 0 49.1697 10.84 533 108.677 813.111 457.131
429 0 53.1182 13.4229 713 102.606 812.698 455.175
430 0 51.0948 9.80531 501 107.259 812.798 459.307
431 0 54.2766 12.6758 688 104.282 812.573 458.455
432 0 54.2766 12.5837 683 119.016 811.608 458.543
433 0 58.3202 10.6824 623 106.66 813.355 455.865
434 0 59.1792 13.4169 794 103.162 813.213 456.825
435 0 63.2129 10.5042 664 107.142 812.136 457.5
436 0 62.2153 12.6657 788 105.43 812.362 459.775
437 0 66.2508 13.464 892 104.351 812.197 456.426
438 0 67.1504 10.7222 720 108.342 811.804 459.725
439 0 69.1166 19.0981 1320 98.7871 811.683 455.001
440 0 73.1314 12.6895 928 106.619 812.138 455.174
441 0 74.2851 13.6501 1014 106.481 810.847 452.958
442 0 74.4881 11.2501 838 110.665 810.147 447.377
443 0 79.1694 13.0227 1031 107.111 810.175 454.298
444 0 83.2558 10.8941 907 109.721 809.072 449.634
445 0 85.1206 16.1771 1377 102.054 807.71 454.416
446 0 88.1863 12.9612 1143 107.361 807.587 448.811
447 0 90.168 14.8833 1342 105.307 808.282 448.688
448 1 50.1255 10.9326 548 108.509 806.721 467.099
449 0 52.0989 15.0483 784 104.483 806.056 463.199
450 0 53.0946 13.3535 709 110.221 804.87 461.401
451 0 57.2581 14.4608 828 103.702 805.731 464.086
452 0 56.233 14.8845 837 105.067 806.135 458.211
453 0 58.3069 14.7153 858 105.571 805.444 459.357
454 0 58.1752 12.2217 711 109.336 805.359 456.814
455 0 63.2237 24.1523 1527 93.3484 805.217 457.865
456 0 64.1801 15.4877 994 102.91 805.092 455.032
457 0 64.1801 13.0414 837 106.063 805.124 453.141
458 0 69.2887 14.7932 1025 102.866 805.197 452.402
459 0 71.33 11.4959 820 106.556 804.912 449.638
460 0 72.2296 13.3879 967 106.361 806.082 448.424
461 0 77.2626 15.0137 1160 103.926 806.528 446.694
462 0 77.2592 16.6323 1285 102.37 807.427 446.875
463 0 81.2126 18.0514 1466 100.564 807.982 443.375
464 0 80.2426 15.5154 1245 103.407 808.478 439.546
465 0 82.2929 12.893 1061 106.571 808.57 440.998
466 0 88.394 14.2657 1261 104.93 809.884 439.959
467 0 90.6187 16.4867 1494 102.45 810.161 440.128
468 0 92.2728 13.9803 1290 105.598 810.804 437.84
469 0 96.6244 15.3688 1485 105.221 811.316 432.357
470 0 99.495 14.6037 1453 105.176 810.046 439.527
471 1 52.3682 13.7679 721 102.94 810.115 460.67
472 0 51.4099 13.0325 670 104.597 810.61 463.203
473 0 51.2106 13.1613 674 107.045 810.371 460.987
474 0 53.1788 10.6245 565 111.607 810.699 462.71
475 0 58.2961 13.8431 807 104.587 809.853 465.57
476 0 58.311 13.1707 768 107.467 810.494 463.776
477 0 62.2065 11.6708 726 108.749 809.963 463.873
478 0 63.3241 18.1921 1152 100.891 809.408 465.69
479 0 64.126 10.5729 678 111.501 808.866 466.041
480 0 66.1786 8.99082 595 114.139 808.356 465.128
481 0 72.2516 15.626 1129 103.386 807.555 462.748
482 0 76.148 13.5657 1033 106.451 807.799 461.107
483 0 79.1829 15.3569 1216 104.129 807.443 463.293
484 0 80.248 11.1405 894 111.238 806.963 459.765
485 0 81.2008 10.1107 821 112.762 805.251 459.836
486 0 85.222 12.4616 1062 110.92 804.924 456.489
487 0 88.2044 16.201 1429 104.859 804.619 460.498
488 0 93.3294 16.7471 1563 105.587 804.853 451.908
489 0 95.4342 12.3541 1179 113.302 804.751 442.29
490 0 98.2833 14.1835 1394 109.494 804.079 450.349
491 0 101.429 14.1675 1437 108.936 802.831 452.154
492 0 101.429 14.1774 1438 133.028 801.807 452.26
493 0 106.43 9.62131 1024 117.26 802.388 442.607
494 1 61.2794 12.3696 758 108.369 800.872 468.284
495 0 62.2666 10.2463 638 114.602 803.226 463.68
496 0 66.0507 11.5215 761 111.351 803.032 464.355
497 0 69.1715 14.2111 983 112.082 802.916 460.402
498 0 70.269 13.9749 982 113.264 802.597 456.063
499 0 73.0941 15.9794 1168 110.402 803.389 454.971
500 0 73.3789 11.4883 843 118.73 804.109 452.886
501 0 78.0728 15.9466 1245 112.2 804.525 445.957
502 0 80.1451 12.6396 1013 116.75 805.243 450.526
503 0 82.1417 12.9411 1063 119.11 805.663 442.804
504 0 86.2312 12.2577 1057 117.197 805.819 445.128
505 0 88.2636 14.2074 1254 114.726 806.448 436.726
506 0 92.1678 13.2584 1222 116.872 807.335 436.651
507 0 98.4536 14.7176 1449 112.606 807.536 434.224
508 0 98.2973 12.4317 1222 116.933 809.465 433.301
509 0 101.22 13.0706 1323 114.478 809.641 434.141
510 1 53.087 11.8861 631 111.347 808.059 460.157
511 0 53.0806 12.1702 646 110.495 808.878 460.906
512 0 59.3757 15.764 936 106.661 808.985 459.004
513 0 57.1578 13.7689 787 111.731 808.197 456.816
514 0 58.3742 12.3342 720 115.101 809.09 458.444
515 0 59.5956 12.3835 738 115.734 810.069 458.927
516 0 59.4098 9.59438 570 120.995 810.57 457.956
517 0 64.5311 12.0097 775 116.768 810.19 458.735
518 0 68.6047 14.4742 993 113.202 810.796 456.975
519 0 66.2991 12.0062 796 117.513 810.597 459.962
520 0 73.4145 16.0867 1181 109.854 809.405 459.367
521 0 73.3736 14.7464 1082 112.79 808.975 458.61
522 0 74.3031 12.624 938 115.933 808.273 460.339
523 0 76.538 12.2946 941 117.092 808.212 458.102
524 0 79.3308 13.3744 1061 115.085 807.966 459.49
525 0 79.3308 13.4878 1070 143.785 808.983 459.497
526 0 85.3575 14.6677 1252 112.457 807.736 457.587
527 0 87.3474 13.5894 1187 115.62 806.534 456.681
528 0 85.1581 13.0228 1109 117.14 806.084 457.924
529 0 91.3682 19.3722 1770 106.47 805.905 457.618
530 0 94.2498 14.695 1385 113.731 805.089 455.416
531 0 96.5049 12.59 1215 117.282 804.988 454.544
532 0 97.3144 15.0954 1469 111.855 804.381 443.596
533 0 100.359 14.4182 1447 112.56 803.816 440.062
534 0 104.482 13.6387 1425 113.248 803.059 441.247
535 0 107.399 15.0932 1621 112.874 802.189 436.345
536 1 59.2665 11.8785 704 105.868 801.969 463.838
537 0 57.4158 12.1744 699 106.747 802.562 460.066
538 0 60.1851 10.4012 626 108.764 802.28 458.058
539 0 62.1451 10.5077 653 108.443 803.032 461.619
540 0 65.5303 11.2925 740 106.768 801.397 456.338
541 0 63.1976 11.3454 717 107.495 801.114 457.378
542 0 66.2319 8.03238 532 110.904 800.63 455.63
543 0 69.2136 12.1652 842 107.166 801.224 450.844
544 0 73.2454 15.1545 1110 104.912 801.868 452.243
545 0 76.0857 13.3796 1018 107.16 803.618 454.389
546 0 78.3599 13.6932 1073 105.949 803.503 456.856
547 0 79.389 18.6424 1480 100.482 804.28 454.533
548 0 83.5348 13.5153 1129 108.507 803.929 448.184
549 0 87.1905 13.7859 1202 110.667 804.925 446.361
550 0 88.2115 13.6944 1208 111.927 804.771 446.568
551 0 91.4336 12.7743 1168 116.912 805.188 440.225
552 0 95.3237 13.0398 1243 111.701 806.232 446.119
553 0 98.2499 12.2545 1204 115.683 806.666 436.056
554 0 103.277 15.0179 1551 107.244 807.901 444.775
555 1 57.4612 13.5396 778 105.893 806.796 459.728
556 0 56.3304 12.7285 717 107.397 808.064 457.886
557 0 59.1705 13.8245 818 106.421 810.111 460.61
558 0 61.5048 11.7552 723 107.492 810.905 467.42
559 0 64.3824 12.1306 781 107.796 810.758 462.516
560 0 63.4681 13.7392 872 105.493 810.297 462.347
561 0 67.2728 11.7135 788 108.261 809.386 464.346
562 0 75.2606 18.2831 1376 97.5189 809.93 469.009
563 0 71.354 12.3189 879 108.223 809.304 464.666
564 0 76.29 14.9037 1137 104.525 809.617 462.319
565 0 75.2881 12.14 914 109.062 809.598 462.398
566 0 82.3903 16.4097 1352 102.118 809.18 461.802
567 0 84.2553 11.3939 960 109.279 808.948 460.965
568 0 88.2077 15.2254 1343 104.475 808.245 462.448
569 0 87.1919 13.6366 1189 108.418 807.283 456.222
570 0 91.2191 14.4378 1317 107.121 807.376 459.954
571 0 95.3969 15.315 1461 105.784 806.577 458.452
572 0 94.6221 13.4007 1268 110.102 805.697 450.817
573 0 102.872 14.3674 1478 106.487 804.82 453.057
574 1 47.6907 11.931 569 109.051 804.22 473.74
575 0 50.6367 13.7845 698 104.092 802.847 473.665
576 0 55.0214 14.9396 822 102.897 802.526 469.787
577 0 49.3805 11.4418 565 111.122 802.131 468.515
578 0 54.4613 12.4125 676 108.791 801.121 468.817
579 0 55.1276 9.32382 514 115.3 800.864 471.138
580 0 58.252 14.5231 846 108.084 800.563 467.121
581 0 58.252 14.5746 849 138.139 800.597 467.196
582 0 62.31 14.3476 894 109.155 800.332 465.352
583 0 65.215 17.082 1114 105.413 800.706 461.158
584 0 66.3353 13.6428 905 110.621 800.243 461.181
585 0 70.0973 12.5825 882 110.83 800.404 458.813
586 0 69.3605 13.0189 903 114.6 802.668 455.041
587 0 72.4602 16.4366 1191 108.399 803.246 455.008
588 0 77.6713 17.7028 1375 106.303 803.622 449.5
589 0 77.7543 13.0025 1011 114.273 803.114 452.34
590 0 78.7092 13.2386 1042 114.674 803.475 448.909
591 0 82.5361 17.0592 1408 107.622 804.673 451.242
592 0 85.8553 11.6941 1004 114.664 805.1 450.671
593 0 89.5075 18.0655 1617 106.536 806.047 446.076
594 0 89.3458 15.3337 1370 109.093 806.273 440.79
595 0 92.5124 15.0358 1391 108.576 806.008 439.733
596 0 95.2504 13.9107 1325 110.9 805.575 440.947
597 0 97.4941 16.4523 1604 106.181 807.046 442.325
598 0 101.625 14.9668 1521 108.781 807.976 438.956
599 0 104.412 15.822 1652 108.587 808.188 435.858
600 0 106.743 13.0969 1398 113.021 808.84 432.645
601 0 111.034 13.6534 1516 112.981 808.559 430.398
602 0 115.135 13.4103 1544 112.511 808.861 433.422
603 0 122.864 14.9352 1835 108.976 808.316 434.687
604 1 59.6347 10.9668 654 109.625 809.301 458.318
605 0 61.5553 12.5741 774 113.576 810.164 458.563
606 0 64.3126 16.1399 1038 108.939 810.988 462.031
607 0 67.1574 18.062 1213 106.17 811.006 462.825
608 0 69.1308 15.9553 1103 109.368 810.058 462.377
609 0 70.4538 12.3201 868 115.628 810.82 462.302
610 0 72.4596 12.2827 890 115.038 810.714 465.676
611 0 75.2354 14.8999 1121 111.443 809.839 463.273
612 0 78.7696 12.2001 961 114.173 809.963 465.903
613 0 79.2685 13.4984 1070 114.289 809.399 457.31
614 0 83.5795 16.4394 1374 108.973 809.219 459.066
615 0 86.4598 14.2957 1236 111.24 808.32 459.113
616 1 46.2632 8.84073 409 113.966 807.103 480.064
617 0 49.3072 10.4244 514 113.718 806.123 474.619
618 0 51.5498 12.3958 639 108.252 806.401 476.027
619 0 49.4723 12.2695 607 109.998 804.372 470.465
620 0 52.1878 12.4359 649 110.054 804.656 473.35
621 0 55.4753 13.3573 741 107.211 804.027 474.193
622 0 55.4753 13.3212 739 132.624 804.027 474.218
623 0 55.2246 10.4482 577 115.217 803.997 467.085
624 0 56.4353 13.4313 758 109.628 803.509 466.409
625 0 61.4227 18.1529 1115 103.119 802.776 465.344
626 0 61.2518 14.5792 893 108.927 802.362 461.651
627 0 63.4765 11.6579 740 113.505 801.801 460.799
628 0 66.3435 14.0029 929 109.649 802.787 460.646
629 0 66.2607 11.4095 756 113.546 803.446 458.652
630 0 68.2891 12.7546 871 111.176 803.706 456.518
631 0 72.2786 14.8038 1070 108.472 803.754 456.349
632 0 73.2736 14.671 1075 108.26 804.378 456.447
633 0 73.2736 14.6983 1077 143.318 805.39 456.538
634 0 77.2347 13.4395 1038 112.936 805.056 449.33
635 0 81.5104 13.6547 1113 112.069 806.502 445.473
636 0 85.3188 13.7836 1176 112.652 807.433 444.47
637 0 88.2027 19.9314 1758 104.25 807.401 439.981
638 0 88.2915 14.4295 1274 112.582 808.84 443.134
639 0 93.3621 13.9243 1300 111.673 808.991 439.422
640 0 96.4177 15.7544 1519 108.907 809.299 439.805
641 0 98.3483 12.8523 1264 112.965 809.297 442.028
642 1 54.1114 9.66524 523 111.685 810.166 466.53
643 0 58.1151 12.9226 751 107.85 811.106 462.201
644 0 56.0269 12.9759 727 106.872 811.373 463.22
645 0 61.216 15.1594 928 102.556 812.163 463.584
646 0 60.1429 12.6033 758 106.34 811.439 463.545
647 0 65.1136 14.4363 940 103.573 811.639 464.666
648 0 66.0561 15.5625 1028 101.855 810.744 466.385
649 0 66.2599 12.1189 803 108.359 811.679 464.436
650 0 69.2472 13.6179 943 105.87 810.91 465.216
651 0 73.2483 14.0481 1029 105.714 810.762 463.638
652 0 73.236 10.9236 800 110.23 810.748 463.971
653 0 75.0536 12.4711 936 107.78 810.591 458.093
654 0 79.299 18.8779 1497 99.8317 809.465 459.993
655 0 81.3596 13.7783 1121 106.098 809.736 460.194
656 0 85.1118 20.6199 1755 97.7538 808.947 461.419
657 0 87.117 13.4646 1173 108.325 807.987 460.189
658 0 91.1011 16.9482 1544 103.133 807.611 456.436
659 0 93.2568 15.4305 1439 104.99 807.249 458.669
660 0 93.1347 13.7435 1280 109.592 807.456 450.291
661 0 97.3154 13.7594 1339 109.954 806.392 447.178
662 0 101.2 15.3359 1552 108.338 805.851 444.368
663 0 103.204 14.3017 1476 110.389 805.562 446.733
664 1 60.1131 18.199 1094 99.6782 805.231 470.851
665 0 59.1142 13.4993 798 108.043 804.782 466.852
666 0 59.1142 13.5839 803 143.466 804.776 466.796
667 0 62.0792 13.4345 834 109.519 803.4 462.1
668 0 64.2059 14.2977 918 107.117 803.475 467.22
669 0 64.1918 11.1541 716 114.047 802.628 458.531
670 0 66.3054 13.106 869 111.183 803.809 459.736
671 0 70.5439 13.6936 966 110.317 804.228 456.851
672 0 71.2554 15.0725 1074 109.497 804.097 453.446
673 0 74.4459 17.2877 1287 105.911 804.242 455.584
674 0 75.4468 15.0172 1133 110.27 804.641 452.349
675 0 79.1123 12.2358 968 115.269 804.548 450.436
676 0 82.375 13.4143 1105 113.597 805.999 451.309
677 0 84.3639 14.5678 1229 113.653 807.443 446.984
678 0 88.4185 16.2183 1434 110.197 807.52 446.427
679 0 92.4626 16.7527 1549 109.972 807.902 444.775
680 0 95.7029 13.4479 1287 114.938 808.934 442.796
681 0 96.58 17.5813 1698 105.886 807.454 446.414
682 0 99.6603 12.4824 1244 116.077 809.294 437.921
683 0 102.692 11.8802 1220 118.212 810.466 436.848
684 0 103.601 11.5925 1201 116.908 811.084 437.607
685 0 109.975 16.7765 1845 109.346 810.966 434.735
686 1 56.2646 14.2185 800 106.898 810.412 461.212
687 0 57.7492 12.2426 707 106.491 810.581 459.809
688 0 60.1877 13.408 807 105.77 808.667 458.379
689 0 59.1693 12.2361 724 109.047 808.414 456.04
690 0 61.2122 12.8079 784 108.179 809.124 454.494
691 0 65.2904 11.0889 724 110.36 809.534 453.052
692 0 68.2359 11.7387 801 108.64 808.685 460.574
693 0 67.2019 11.0414 742 109.065 808.102 459.43
694 0 71.2652 10.7346 765 110.545 808.204 455.366
695 0 76.389 11.4938 878 108.133 808.158 457.852
696 0 78.8109 13.0058 1025 106.621 808.061 456.854
697 0 80.2195 11.5932 930 108.143 808.686 459.552
698 0 80.2195 11.5932 930 126.313 809.67 459.519
699 0 87.408 13.7516 1202 102.984 807.87 457.773
700 0 86.2546 14.5963 1259 103.083 806.813 454.057
701 0 89.2447 15.3847 1373 102.177 806.018 449.946
702 0 89.2447 15.4855 1382 116.641 805.06 450.018
703 0 96.3281 13.2775 1279 103.759 805.699 450.916
704 0 96.2854 14.4882 1395 107.952 806.824 452.065
705 0 100.225 12.2225 1225 110.984 805.97 448.213
706 0 107.372 11.5952 1245 107.284 805.422 460.211
707 0 108.397 12.8233 1390 109.679 804.698 446.002
708 1 60.1704 13.6778 823 105.501 803.979 470.171
709 0 60.0956 12.6632 761 107.396 804.34 465.773
710 0 63.2282 14.3607 908 103.894 803.642 466.927
711 0 65.107 13.0247 848 107.693 805.238 460.401
712 0 68.084 14.2912 973 105.972 803.955 460.335
713 0 69.057 13.2644 916 108.269 805.151 457.425
714 0 70.0889 12.8266 899 107.741 803.775 456.705
715 0 72.1343 15.485 1117 104.139 803.834 453.816
716 0 76.1601 12.4475 948 107.499 804.502 454.989
717 0 78.0487 14.6831 1146 105.326 805.327 451.403
718 0 83.1205 13.5947 1130 104.222 804.936 449.443
719 0 83.3925 14.6416 1221 104.06 805.852 447.744
720 0 85.4511 13.259 1133 107.303 805.207 445.816
721 0 87.1796 13.8909 1211 106.116 806.52 442.432
722 0 90.2872 14.1327 1276 105.298 806.934 441.525
723 1 45.0979 10.5105 474 110.762 808.989 463.989
724 0 46.0762 12.7181 586 107.618 808.756 465.648
725 0 46.1297 12.0746 557 109.77 806.163 466.84
726 0 50.1546 14.0366 704 106.727 806.665 466.239
727 0 55.5489 13.0876 727 108.501 809.36 460.048
728 0 56.2409 12.9265 727 108.143 808.132 466.206
729 0 55.0945 12.6328 696 110.319 808.218 461.996
730 0 55.3111 11.0828 613 113.842 809.623 466.891
731 0 59.232 14.975 887 107.065 809.489 466.134
732 0 61.0898 18.0881 1105 103.018 809.479 465.833
733 0 61.264 14.1845 869 109.877 808.522 465.254
734 0 64.104 14.8353 951 106.886 808.667 469.36
735 0 68.1796 16.3832 1117 105.44 808.698 465.896
736 0 69.3888 19.3259 1341 101.727 807.726 465.041
737 0 71.242 14.0928 1004 110.297 808.359 463.4
738 0 72.0822 13.2349 954 111.189 807.836 466.485
739 0 76.1344 12.5042 952 112.597 807.9 466.192
740 0 79.4949 14.9192 1186 109.895 807.421 463.114
741 0 81.2436 15.2012 1235 110.006 807.776 460.079
742 0 83.2894 12.7147 1059 114.361 807.057 460.233
743 0 83.4947 10.5755 883 118.734 806.949 457.696
744 1 44.4021 11.1031 493 112.817 807.872 479.892
745 0 47.386 10.826 513 114.752 807.345 474.345
746 0 48.4513 13.1885 639 112.471 806.864 470.983
747 0 48.3596 12.3243 596 114.112 806.361 469.492
748 0 50.3181 12.5601 632 107.472 805.321 465.972
749 0 50.153 11.9833 601 109.431 804.642 465.759
750 0 51.3092 14.2275 730 106.029 803.832 463.54
751 0 55.1705 14.7543 814 104.821 804.418 464.441
752 0 55.5188 14.2474 791 105.803 803.525 460.885
753 0 58.3022 16.4488 959 102.359 803.397 461.513
754 0 59.1191 12.9231 764 108.19 803.771 456.192
755 0 60.279 13.5868 819 107.37 804.256 455.734
756 0 66.3178 17.0844 1133 101.831 803.778 454.682
757 0 63.129 12.0072 758 110.873 804.041 456.377
758 0 66.2252 11.2948 748 112.861 803.671 452.85
759 0 66.1448 12.8959 853 112.029 804.238 449.454
760 0 70.1427 11.6905 820 111.47 804.968 451.935
761 0 71.2046 12.7379 907 111.278 804.641 448.504
762 0 75.1238 13.9769 1050 108.806 806.504 447.423
763 0 76.0895 11.5522 879 112.522 805.985 446.465
764 0 79.1249 12.3728 979 111.79 806.244 442.784
765 0 82.2293 12.4773 1026 111.853 807.729 443.074
766 0 83.1825 13.0196 1083 108.669 808.961 440.673
767 0 88.1767 13.8359 1220 106.434 809.468 444.748
768 0 91.3265 11.3768 1039 109.034 809.946 444.455
769 0 93.4752 12.9018 1206 108.769 809.905 439.985
770 1 52.1478 13.6152 710 101.592 811.337 461.404
771 0 52.3789 8.76307 459 111.586 811.723 463.861
772 0 55.2156 11.3193 625 104.299 809.952 463.541
773 0 55.362 12.4815 691 102.794 809.786 461.857
774 0 58.1277 16.1885 941 96.9734 810.424 463.718
775 0 59.0644 12.5795 743 102.086 810.639 464.653
776 0 61.1929 12.2727 751 102.313 810.692 467.575
777 0 63.219 11.1992 708 104.688 810.987 464.366
778 0 67.0523 14.6006 979 100.137 810.41 459.926
779 0 71.0852 11.0149 783 104.368 811.458 463.323
780 0 73.2301 13.6146 997 101.218 812.039 461.761
781 0 72.1293 14.1135 1018 101.639 811.363 460.561
782 0 76.2517 13.1669 1004 103.059 811.962 457.285
783 0 77.1058 10.5569 814 107.592 811.98 462.925
784 0 80.1797 13.0831 1049 104.303 810.238 463.373
785 0 83.1748 15.5696 1295 102.665 809.649 459.011
786 1 45.0958 12.9502 584 105.57 808.988 479.803
787 0 46.0762 12.284 566 106.708 806.443 477.2
788 0 46.1288 14.3511 662 105.27 806.965 474.95
789 0 50.0607 12.7046 636 106.451 805.346 473.794
790 0 51.051 10.0292 512 107.012 805.832 478.209
791 0 50.0509 11.8479 593 107.841 805.283 471.693
792 0 50.332 14.9011 750 104.123 805.149 472.423
793 0 57.2609 7.57935 434 110.318 803.721 475.546
794 0 56.114 14.0072 786 103.258 804.291 470.055
795 0 60.1324 14.7508 887 101.63 804.855 464.273
796 0 60.2644 16.0626 968 99.9266 802.898 463.686
797 0 64.1726 14.8038 950 101.588 803.021 460.781
798 0 63.2311 13.9963 885 101.863 803.111 463.92
799 0 65.0976 11.813 769 105.454 802.84 459.403
800 0 69.2632 8.89362 616 104.619 804.174 466.558
801 0 71.2117 16.0507 1143 100.3 804.504 453.516
802 0 73.0955 14.4332 1055 102.976 804.933 455.039
803 0 77.1865 12.2819 948 108.22 805.833 451.661
804 1 37.1654 10.2246 380 111.253 805.5 468.892
805 0 38.3133 12.7632 489 107.975 807.262 465.286
806 0 44.3851 12.2789 545 108.369 807.776 464.943
807 0 43.1716 15.172 655 106.666 809.511 461.884
808 0 44.1091 12.1517 536 109.881 809.478 462.588
809 0 43.0406 8.96827 386 109.06 809.842 466.098
810 0 49.363 12.1549 600 106.44 810.122 464.037
811 0 47.2317 12.9997 614 106.959 809.609 462.635
812 0 50.0828 14.0367 703 105.862 810.215 461.734
813 0 50.2831 12.3103 619 109.62 810.682 462.653
814 0 53.2191 14.5812 776 109.353 809.732 465.4
815 0 53.2709 15.0739 803 110.579 810.491 465.567
816 0 55.2461 13.5937 751 114.955 809.561 464.896
817 0 55.2461 13.5937 751 139.025 808.581 464.876
818 0 58.259 12.6676 738 116.149 810.577 464.404
819 0 62.3243 13.51 842 115.806 810.9 463.203
820 0 62.3927 14.008 874 115.002 810.122 466.561
821 0 67.3305 17.3473 1168 109.085 810.665 466.72
822 0 67.31 16.372 1102 114.612 812.056 461.818
823 0 70.0956 14.4517 1013 118.722 811.211 462.177
824 0 72.3278 12.2498 886 123.354 810.336 464.033
825 0 74.1229 16.5536 1227 116.39 810.032 460.97
826 1 36.2349 13.992 507 121.014 808.82 478.266
827 0 40.0979 12.1203 486 122.368 810.276 478.502
828 0 36.033 11.7947 425 125.431 808.894 478.896
829 0 41.1817 14.9581 616 117.518 808.448 477.106
830 0 43.0572 13.935 600 118.43 807.257 475.82
831 0 43.0712 15.8807 684 112.996 807.459 477.13
832 0 45.0767 14.9523 674 113.54 806.185 477.056
833 0 47.1116 15.1767 715 112.397 805.104 476.269
834 0 47.1116 15.1767 715 136.173 804.14 476.296
835 0 52.2078 16.8749 881 105.68 804.068 475.738
836 0 51.1697 14.4226 738 113.325 801.936 465.962
837 0 51.1697 14.4422 739 130.651 798.928 465.936
838 0 54.1784 15.2644 827 111.343 804.232 467.148
839 0 54.2506 12.6082 684 115.977 805.202 464.931
840 0 59.2437 18.061 1070 106.645 804.776 460.783
841 0 59.2171 15.1308 896 112.031 803.709 458.058
842 0 62.3232 15.6924 978 115.077 803.026 457.225
843 0 68.2382 19.007 1297 106.297 804.436 458.606
844 0 67.6557 13.9382 943 117.027 804.217 454.893
845 0 69.3348 15.5333 1077 114.193 804.644 452.279
846 0 71.2078 17.147 1221 111.139 804.484 449.817
847 0 74.4651 14.9197 1111 114.509 805.428 447.626
848 0 76.2976 14.5483 1110 115.021 805.897 445.514
849 0 83.3018 18.9192 1576 107.978 805.519 446.994
850 1 40.1372 13.2047 530 117.398 806.072 465.608
851 0 40.3285 13.1917 532 120.4 806.778 464.357
852 0 42.2804 12.3934 524 121.55 806.584 464.842
853 0 44.2742 15.7428 697 117.679 807.79 461.696
854 0 45.4349 12.6775 576 122.568 807.955 464.719
855 0 50.2339 14.5917 733 118.516 809.008 464.12
856 0 50.3106 14.8677 748 120.171 808.93 462.582
857 0 51.287 18.5817 953 114.092 809.992 460.602
858 0 54.4984 13.3215 726 123.501 809.968 458.369
859 0 56.4836 16.4649 930 117.673 810.598 460.623
860 0 58.283 17.1062 997 115.818 810.299 462.436
861 0 59.409 13.7521 817 124.475 810.685 458.376
862 0 61.7581 13.8767 857 124.501 809.643 459.277
863 0 66.3718 18.9538 1258 116.134 808.955 458.242
864 0 67.7674 15.4499 1047 121.898 809.204 461.653
865 0 70.7488 18.1487 1284 117.646 809.616 461.066
866 0 71.6248 14.7435 1056 124.36 807.937 460.631
867 0 73.3507 17.1505 1258 119.126 808.813 463.745
868 0 78.4147 19.3586 1518 114.825 807.659 458.613
869 0 83.3958 16.8474 1405 118.589 807.44 458.483
870 0 81.188 14.6081 1186 123.724 807.18 457.536
871 0 85.4144 16.9409 1447 117.621 807.502 459.426
872 0 84.6185 15.1385 1281 122.806 807.45 452.283
873 1 45.4059 12.5314 569 126.417 805.424 471.763
874 0 47.1196 13.158 620 125.555 805.494 472.495
875 0 49.1596 13.507 664 123.962 804.977 470.461
876 0 48.3107 14.117 682 125.301 804.188 468.13
877 0 50.1986 16.0164 804 120.311 804.409 466.024
878 0 56.2722 15.9582 898 116.974 804.473 467.561
879 0 54.1293 16.867 913 117.977 804.975 466.195
880 0 55.0805 13.798 760 124.164 804.784 464.721
881 0 58.114 13.6972 796 123.44 804.727 463.795
882 0 58.1668 14.149 823 124.373 804.896 458.504
883 0 60.3161 13.7774 831 125.342 804.722 456.363
884 0 64.2157 14.3111 919 123.353 804.737 454.86
885 0 67.2172 13.8209 929 122.764 804.92 456.77
886 0 70.135 16.4967 1157 117.939 804.359 454.156
887 0 72.1518 14.7051 1061 122.474 804.502 447.786
888 0 75.1146 16.1087 1210 119.273 805.149 447.247
889 0 76.3194 11.1767 853 128.489 805.313 444.87
890 0 80.2222 14.8961 1195 122.169 805.84 442.83
891 1 46.1942 9.82808 454 118.987 806.388 463.339
892 0 44.0551 10.328 455 121.218 807.088 461.259
893 0 44.0628 8.14746 359 124.565 807.967 461.404
894 0 49.2148 13.2074 650 113.175 808.106 462.402
895 0 50.1899 14.3256 719 113.095 809.352 461.043
896 0 50.4188 13.6854 690 115.507 809.796 461.565
897 0 53.1694 15.5164 825 113.159 810.468 461.013
898 0 52.2101 11.8368 618 119.443 810.079 461.905
899 0 54.2205 13.2422 718 116.979 810.634 462.085
900 0 56.2593 12.3002 692 118.655 811.627 459.753
901 0 57.2169 12.1468 695 119.637 811.669 461.879
902 0 59.2224 10.5703 626 121.449 810.404 463.353
903 0 60.1925 13.1578 792 119.91 811.237 461.446
904 0 65.3555 12.6692 828 118.879 811.437 459.285
905 0 65.2491 13.0423 851 119.942 811.664 457.727
906 0 68.2867 12.4329 849 120.577 810.714 460.541
907 0 71.2361 13.1394 936 119.526 811.032 459.266
908 0 73.3832 12.7277 934 119.624 810.658 458.657
909 0 76.2888 13.5013 1030 118.545 810.236 459.791
910 0 81.2464 13.3668 1086 117.73 810.494 457.078
911 0 81.302 12.6073 1025 118.327 810.334 460.284
912 0 86.2597 13.6333 1176 115.898 810.39 460.855
913 1 44.1663 8.92083 394 117.99 807.868 476.213
914 0 46.0472 9.57713 441 115.331 807.932 479.224
915 0 48.0107 10.1852 489 115.135 807.753 478.037
916 0 48.0654 12.0877 581 112.594 806.625 476.255
917 0 48.0341 9.40998 452 117.611 806.192 476.004
918 0 55.2989 12.4053 686 109.768 806.038 477.596
919 0 52.072 9.52527 496 117.435 805.46 472.78
920 0 56.1246 15.9823 897 105.648 805.163 472.802
921 0 56.0956 9.10945 511 115.607 805.149 470.135
922 0 56.2059 10.6572 599 114.514 804.861 469.132
923 0 57.1242 8.80537 503 113.905 804.187 472.732
924 0 60.1822 8.10871 488 117.225 803.82 463.705
925 0 64.1271 9.16929 588 114.855 804.568 464.128
926 0 68.1916 11.9663 816 112.022 803.979 455.968
927 0 67.1678 5.59792 376 118.598 803.79 467.364
928 0 72.3695 9.99039 723 114.116 803.173 456.084
929 0 72.2596 7.83287 566 115.436 803.406 457.463
930 0 75.1221 7.26817 546 115.996 804.271 456.903
931 0 78.4044 12.2697 962 110.8 804.387 447.447
932 1 41.0574 10.7654 442 112.468 804.934 468.527
933 0 43.0385 11.4549 493 110.919 805.848 468.227
934 0 45.0865 9.60377 433 112.806 806.838 463.139
935 0 45.1003 10.1108 456 114.226 807.333 461.923
936 0 45.2063 10.9277 494 113.287 808.621 463.146
937 0 46.1534 10.1184 467 114.842 808.994 463.081
938 0 46.087 9.1566 422 116.209 809.27 464.014
939 0 50.1447 11.2475 564 113.817 809.539 461.569
940 0 50.076 4.2735 214 122.598 808.874 468.813
941 1 105.628 11.3701 1201 119.153 809.481 435.336
942 1 58.5697 13.5053 791 110.076 810.274 457.377
943 0 61.2781 13.2347 811 109.801 809.846 461.589
944 0 61.0563 12.9716 792 111.861 811.984 456.54
945 0 64.3529 13.3949 862 109.904 812.582 456.295
946 0 68.2997 13.4701 920 110.471 812.484 453.647
947 0 70.1752 16.8721 1184 105.02 811.89 456.512
948 0 70.1752 16.8578 1183 112.885 811.926 456.527
949 0 73.3483 11.0023 807 111.471 812.164 456.072
950 0 71.4442 10.6657 762 114.633 811.887 451.755
951 0 78.5606 12.4617 979 111.169 812.191 453.942
952 0 80.3827 13.0998 1053 111.368 812.299 453.846
953 0 84.2839 12.0901 1019 114.26 811.916 454.617
954 0 86.4014 12.5808 1087 114.611 810.095 453.48
955 0 91.206 13.4202 1224 113.953 809.434 452.369
956 1 44.0753 10.0283 442 117.419 810.274 477.027
957 0 43.1444 11.6354 502 115.47 809.06 475.386
958 0 47.2152 8.64128 408 120.14 808.074 477.777
959 0 46.2076 9.02448 417 118.842 806.763 477.225
960 0 51.0863 12.195 623 113.714 808.193 473.321
961 0 52.0941 10.9417 570 115.702 807.744 472.896
962 0 53.2211 10.4658 557 120.7 806.826 471.925
963 0 55.0621 11.8593 653 122.021 807.421 468.92
964 0 58.178 14.7478 858 116.875 807.928 466.212
965 0 62.1169 14.5693 905 115.131 807.581 466.585
966 0 61.1508 14.1781 867 117.158 806.626 465.336
967 0 63.055 14.6539 924 118.039 806.674 463
968 0 64.093 13.5584 869 120.288 806.236 461.681
969 0 65.2058 12.7903 834 123.764 805.709 457.342
970 0 70.1988 14.5729 1023 117.86 805.775 459.718
971 0 74.1619 13.5245 1003 120.213 806.043 456.894
972 0 72.0738 15.9281 1148 118.924 806.66 450.017
973 0 76.1724 15.9113 1212 117.71 806.113 450.074
974 0 77.1036 17.5219 1351 116.5 807.39 449.904
975 0 80.0664 15.2249 1219 121.72 807.473 445.938
976 0 83.1766 14.9802 1246 123.19 808.331 445.789
977 0 85.1377 16.0681 1368 121.535 807.922 444.473
978 0 89.0658 20.5354 1829 114.002 808.537 438.94
979 0 88.0786 15.7587 1388 124.177 809.012 440.852
980 0 94.2236 16.4184 1547 121.87 809.867 438.632
981 0 93.2352 14.5653 1358 128.395 809.228 439.837
982 0 99.2313 15.4185 1530 126.503 810.606 437.829
983 0 104.27 17.2534 1799 121.605 810.448 434.842
984 0 104.169 17.2411 1796 123.029 811.414 433.585
985 0 104.401 14.4444 1508 129.629 811.982 433.486
986 0 105.505 12.4449 1313 133.99 812.649 428.922
987 0 112.571 13.1295 1478 130.656 813.492 430.449
988 1 57.1574 9.84999 563 132.139 813.195 457.472
989 0 61.0676 12.6417 772 122.44 813.373 458.063
990 0 65.1469 14.9969 977 115.354 813.199 461.837
991 0 66.0494 12.4755 824 122.455 814.39 456.295
992 0 71.3376 14.7888 1055 118.72 814.322 455.06
993 0 76.138 16.6146 1265 115.895 813.858 454.94
994 0 75.1288 13.3105 1000 124.094 812.191 450.908
995 0 77.2701 13.3428 1031 123.788 812.496 453.032
996 0 81.4994 14.6504 1194 119.188 812.399 454.941
997 0 83.3394 15.9108 1326 113.538 811.973 452.034
998 0 83.3939 12.0392 1004 122.977 811.098 452.016
999 0 90.1941 16.0653 1449 112.449 811.211 450.752
1000 0 96.7704 17.0507 1650 107.432 809.847 454.952
1001 0 96.4548 18.5475 1789 107.22 809.221 447.945
1002 0 97.3762 15.9382 1552 112.392 807.821 442.025
1003 0 100.52 13.6192 1369 115.119 806.991 446.328
1004 0 102.636 13.8158 1418 115.583 805.192 450.289
1005 1 56.1239 11.2608 632 115.445 803.791 469.095
1006 0 56.482 11.5081 650 116.665 804.742 466.352
1007 0 55.2062 9.23808 510 113.131 805.476 461.143
1008 0 62.3221 11.3282 706 111.688 805.017 460.503
1009 0 65.2279 14.9016 972 103.062 804.746 460.778
1010 0 63.2218 10.4553 661 110.929 805.57 465.998
1011 0 67.1325 11.1273 747 110.09 805.376 459.232
1012 0 69.3634 8.37617 581 114.015 805.189 452.94
1013 0 72.3725 11.0816 802 110.04 804.525 449.924
1014 0 76.2733 13.1632 1004 107.113 805.323 454.663
1015 0 78.1939 14.1955 1110 106.491 804.723 450.1
1016 0 80.259 16.6087 1333 102.429 805.157 448.672
1017 0 80.4662 10.1533 817 113.124 805.865 445.71
1018 0 84.3089 13.0591 1101 108.813 806.669 442.672
1019 0 87.3421 11.6897 1021 110.26 807.262 443.427
1020 0 90.2272 11.9476 1078 110.8 806.587 439.015
1021 0 91.1411 12.3325 1124 110.476 807.158 435.325
1022 0 97.2877 13.2288 1287 108.245 807.774 435.351
1023 1 51.1326 11.5777 592 106.924 808.968 458.807
1024 0 53.1819 10.7932 574 107.138 809.359 460.415
1025 0 56.0961 11.9081 668 105.975 810.313 462.334
1026 0 55.2374 11.3691 628 108.414 809.572 455.271
1027 0 55.2164 12.6774 700 110.189 809.277 451.849
1028 0 54.1909 12.9357 701 107.01 810.842 450.153
1029 0 62.2332 10.6856 665 108.893 811.496 454.898
1030 0 62.1404 10.3314 642 109.026 811.408 453.55
1031 0 65.221 12.7413 831 107.98 812.767 457.617
1032 0 68.229 14.8324 1012 105.018 812.857 456.313
1033 0 70.2152 14.3986 1011 104.913 812.074 456.361
1034 0 70.3264 9.9678 701 111.371 812.147 459.596
1035 0 74.3377 13.2638 986 107.591 812.557 460.691
1036 0 76.24 12.4213 947 110.215 811.38 456.08
1037 0 78.3063 15.3372 1201 106.01 812.098 460.61
1038 0 80.347 15.6447 1257 106.097 810.821 458.292
1039 0 83.3332 11.268 939 111.061 810.973 460.099
1040 0 87.6222 12.2458 1073 110.541 810.615 454.572
1041 0 90.4145 15.5727 1408 105.687 809.876 457.103
1042 0 92.4424 12.451 1151 110.598 809.99 454.89
1043 0 95.4937 12.0217 1148 111.95 809.383 453.671
1044 0 98.3963 15.4172 1517 107.455 807.773 450.921
1045 1 53.446 11.7128 626 109.233 806.094 473.88
1046 0 48.6508 9.53735 464 118.125 806.8 468.399
1047 0 52.5045 12.1133 636 113.704 805.263 469.709
1048 0 56.2362 10.8471 610 113.582 804.377 469.603
1049 0 57.5455 10.4787 603 112.799 803.965 469.934
1050 0 60.3689 13.3181 804 109.352 802.787 468.621
1051 0 62.4625 13.7042 856 109.224 804.325 464.35
1052 0 62.4625 13.8003 862 134.089 806.35 464.394
1053 0 63.2079 14.745 932 108.629 803.166 462.964
1054 0 63.2079 14.6342 925 129.616 800.172 462.939
1055 0 70.2128 13.0745 918 109.905 803.107 459.371
1056 0 71.4886 14.0722 1006 107.849 802.955 462.447
1057 0 74.35 15.844 1178 108.157 803.222 455.237
1058 0 75.3219 12.9312 974 113.578 803.66 449.824
1059 0 80.2307 14.209 1140 111.111 803.645 452.409
1060 0 82.5406 14.6473 1209 111.505 803.677 446.069
1061 0 86.2765 14.1174 1218 112.056 803.888 444.236
1062 0 89.4862 15.1755 1358 111.034 804.241 441.253
1063 0 90.3949 14.6247 1322 112.756 804.222 441.229
1064 0 93.3722 14.0299 1310 114.986 805.381 438.907
1065 1 48.4135 11.0713 536 113.743 804.996 461.379
1066 0 50.4406 15.4439 779 108.38 806.326 457.686
1067 0 49.6416 11.724 582 114.146 806.048 458.909
1068 0 51.3658 14.1923 729 109.926 807.012 462.373
1069 0 52.1514 13.1923 688 112.33 807.757 460.571
1070 0 52.3218 12.1556 636 114.858 809.162 460.642
1071 0 58.1659 15.2839 889 108.49 809.883 460.493
1072 0 56.0583 14.0211 786 112.181 809.541 463.195
1073 0 59.0517 11.4137 674 114.562 810.432 467.169
1074 0 61.1514 17.5793 1075 106.056 810.702 462.573
1075 0 64.3361 15.932 1025 108.281 810.446 459.439
1076 0 66.3069 14.6139 969 109.484 810.119 459.538
1077 0 66.1842 14.6259 968 112.294 810.26 459.938
1078 0 68.2818 13.7518 939 114.281 810.591 458.726
1079 0 70.2167 13.8286 971 113.154 810.651 457.687
1080 0 73.4008 14.4549 1061 112.946 809.932 459.771
1081 0 77.2946 15.1369 1170 110.758 809.83 458.257
1082 0 80.4356 16.8831 1358 109.008 808.95 458.359
1083 0 84.6824 12.8598 1089 113.798 809.078 458.817
1084 0 86.2106 14.917 1286 111.492 808.167 454.701
1085 0 86.2825 11.8796 1025 116.344 807.94 455.76
1086 0 92.3391 15.9196 1470 109.666 807.567 451.42
1087 0 94.2867 17.065 1609 108.263 807.072 451.109
1088 0 99.7692 14.5636 1453 111.183 805.823 455.116
1089 1 52.121 14.5815 760 112.304 804.91 472.683
1090 0 55.1147 13.4447 741 111.606 805.121 475.69
1091 0 57.12 12.1674 695 119.764 804.518 469.255
1092 0 59.1353 11.4314 676 120.632 803.815 468.605
1093 0 61.136 14.1651 866 117.03 803.055 465.266
1094 0 62.101 13.623 846 116.363 802.985 467.702
1095 0 66.0959 14.3428 948 115.718 802.634 464.918
1096 0 66.1148 13.5976 899 117.912 802.655 462.152
1097 0 69.2186 18.0876 1252 107.508 803.351 463.528
1098 0 72.1156 13.2565 956 115.843 803.458 456.637
1099 0 72.0857 12.8736 928 117.496 802.917 459.617
1100 0 75.1518 15.9943 1202 112.763 802.598 456.482
1101 0 79.1997 14.7728 1170 115.345 802.652 452.509
1102 0 81.27 13.6828 1112 118.26 802.857 451.247
1103 0 85.1834 16.8343 1434 113.182 803.149 448.651
1104 0 91.2793 15.6005 1424 114.383 803.743 449.273
1105 0 93.2002 16.6523 1552 113.398 803.996 444.82
1106 0 94.1352 15.8283 1490 115.125 804.716 442.909
1107 0 98.1573 14.9352 1466 115.544 804.949 439.272
1108 1 49.0926 10.6533 523 117.574 805.157 466.239
1109 0 52.0867 10.6169 553 117.524 804.358 466.474
1110 0 55.0848 14.2689 786 111.943 805.532 464.779
1111 0 58.3134 13.6847 798 114.885 806.93 460.951
1112 0 58.419 10.8013 631 118.887 806.941 462.369
1113 0 60.237 14.1109 850 114.362 807.755 459.854
1114 0 63.0812 11.7151 739 117.75 807.34 460.091
1115 0 65.2139 12.528 817 116.425 808.17 455.023
1116 0 69.2364 13.5478 938 112.323 808.603 458.535
1117 0 71.1521 14.9539 1064 111.172 808.336 454.602
1118 0 71.1521 14.7993 1053 139.44 807.33 454.609
1119 0 77.3518 14.35 1110 111.165 808.618 453.047
1120 0 78.2396 13.9188 1089 112.371 808.861 455.11
1121 0 81.4746 14.2498 1161 110.773 808.677 455.295
1122 0 82.3074 10.7159 882 115.855 808.764 455.992
1123 0 88.3341 16.0301 1416 107.804 809.545 455.872
1124 0 87.3197 12.1049 1057 142.233 809.68 450.184
1125 0 93.2166 13.4955 1258 113.253 809.125 451.388
1126 0 98.2687 17.4216 1712 106.682 809.137 455.1
1127 0 98.5171 15.2461 1502 112.561 809.021 448.878
1128 0 104.484 14.3946 1504 112.715 807.776 445.297
1129 0 104.484 14.3659 1501 132.141 805.776 445.504
1130 0 109.614 13.2009 1447 116.178 806.466 441.848
1131 1 61.3104 13.1462 806 108.171 806.846 469.764
1132 0 61.3104 13.2441 812 124.223 805.835 469.668
1133 0 64.2991 12.1775 783 110.587 805.411 461.751
1134 0 65.1638 10.3125 672 111.494 804.429 464.167
1135 0 66.1626 10.4742 693 113.55 803.364 465.561
1136 0 71.231 14.9233 1063 105.59 802.135 463.196
1137 0 70.2694 12.2386 860 109.281 801.97 462.645
1138 0 73.3599 13.4951 990 108.133 801.459 458.606
1139 0 77.3363 13.021 1007 108.023 800.838 457.849
1140 0 78.254 10.6576 834 112.2 801.235 451.832
1141 0 81.2928 13.3468 1085 108.524 801.136 449.695
1142 0 81.298 9.79113 796 113.658 800.709 445.501
1143 0 89.3956 13.3564 1194 107.096 800.668 448.648
1144 0 92.7509 12.3233 1143 109.331 800.714 445.442
1145 0 93.3623 12.489 1166 109.224 800.704 444.534
1146 0 98.5726 15.1462 1493 107.027 802.07 436.417
1147 0 99.3222 10.4307 1036 113.753 802.496 435.642
1148 0 104.21 14.1541 1475 106.606 804.078 438.047
1149 0 108.486 12.7298 1381 107.274 804.831 431.455
1150 0 111.491 13.8218 1541 105.582 804.956 431.445
1151 0 114.502 12.3928 1419 107.68 805.75 432.522
1152 0 115.719 13.7316 1589 108.725 806.452 421.823
1153 1 61.3742 10.0368 616 107.289 806.904 451.726
1154 0 60.18 11.3991 686 106.389 807.669 451.843
1155 0 63.4613 11.4716 728 107.639 806.455 444.166
1156 0 67.22 12.3326 829 106.172 807.419 446.314
1157 0 68.5234 11.5143 789 107.712 807.554 446.118
1158 0 70.2126 9.74184 684 110.069 808.177 448.216
1159 0 75.2858 13.203 994 105.827 808.882 444.952
1160 0 74.3158 12.4603 926 108.306 809.325 443.755
1161 0 76.3016 10.5764 807 112.145 810.2 443.642
1162 0 77.3707 10.2881 796 111.879 810.018 446.35
1163 0 78.319 11.9256 934 109.822 811.418 449.176
1164 0 84.3202 10.721 904 109.716 810.64 448.543
1165 0 85.3604 11.3987 973 110.24 811.728 449.158
1166 0 90.361 13.8777 1254 106.933 811.919 443.703
1167 0 92.3695 12.3634 1142 109.946 810.218 442.353
1168 0 94.5209 11.9445 1129 110.976 810.13 443.047
1169 0 101.397 12.1502 1232 109.971 809.992 445.885
1170 0 103.711 12.7566 1323 109.835 809.37 445.999
1171 0 109.384 14.3348 1568 110.007 809.211 442.64
1172 0 108.483 13.3016 1443 111.936 807.466 443.927
1173 0 115.354 16.5058 1904 106.63 807.669 445.316
1174 0 115.289 13.3144 1535 113.575 807.472 437.608
1175 0 119.508 15.0785 1802 110.645 805.774 439.342
1176 0 122.579 12.6205 1547 115.193 805.715 429.216
1177 0 128.21 12.2377 1569 115.026 805.523 431.374
1178 0 135.489 16.4146 2224 107.734 805.217 431.779
1179 1 72.413 11.6416 843 107.594 804.442 457.694
1180 0 74.1859 12.8865 956 105.543 803.81 460.718
1181 0 75.2772 10.6008 798 109.178 803.325 455.157
1182 0 80.2023 14.1392 1134 104.413 803.202 453.073
1183 0 80.1675 13.5217 1084 106.782 802.826 453.465
1184 0 85.2791 13.5789 1158 107.502 803 449.779
1185 0 86.2493 15.2117 1312 104.811 802.955 452.935
1186 0 87.154 10.5101 916 112.731 804.139 444.924
1187 0 91.3255 14.3881 1314 106.607 804.631 445.164
1188 0 93.4077 10.3846 970 112.672 802.803 442.265
1189 0 97.3852 14.304 1393 107.719 802.998 436.85
1190 0 101.62 15.5579 1581 105.712 804.245 432.817
1191 0 102.425 14.0786 1442 109.432 805.405 431.372
1192 0 107.498 14.8468 1596 108.442 804.06 430.68
1193 0 110.373 13.6628 1508 109.928 804.811 428.08
1194 1 58.124 12.5593 730 105.014 805.336 460.732
1195 0 61.5199 10.2243 629 107.719 803.065 457.793
1196 0 64.2553 11.2987 726 105.194 804.432 455.704
1197 0 64.2212 12.0988 777 104.302 805.167 452.964
1198 0 69.2371 18.9638 1313 95.134 804.858 455.671
1199 0 67.314 12.4045 835 104.116 805.905 456.502
1200 0 72.387 13.262 960 101.997 805.872 452.86
1201 0 74.2343 11.4637 851 105.052 807.972 450.617
1202 0 76.4161 12.6413 966 103.95 808.568 449.15
1203 0 76.4247 10.0622 769 108.252 809.892 447.282
1204 0 79.2142 13.4446 1065 103.695 808.881 451.899
1205 0 83.3023 11.1041 925 106.098 808.636 452.732
1206 0 84.3042 15.7525 1328 101.047 809.271 447.828
1207 0 84.283 11.2597 949 107.711 808.273 450.144
1208 0 90.1468 16.5397 1491 100.125 809.012 450.507
1209 0 92.1849 16.7381 1543 100.158 808.349 453.082
1210 0 95.3698 12.2785 1171 106.757 809.184 443.612
1211 0 99.2264 12.7688 1267 105.368 808.368 449.496
1212 0 101.245 15.981 1618 102.787 808.222 446.487
1213 0 106.322 12.4151 1320 106.38 808.104 449.653
1214 1 58.1501 10.7824 627 104.817 806.561 473.581
1215 0 57.3397 9.57451 549 108.568 805.55 471.058
1216 0 62.4535 15.7077 981 99.6493 804.947 473.073
1217 0 64.1327 12.7548 818 104.484 804.397 470.271
1218 0 68.2798 11.2918 771 105.447 802.694 469.49
1219 0 65.2535 11.8001 770 106.309 803.053 468.547
1220 0 70.4212 10.1248 713 107.945 802.98 462.851
1221 0 74.2215 13.8504 1028 101.171 801.818 468.949
1222 0 73.2144 10.3532 758 106.526 802.479 463.695
1223 0 75.1881 15.5344 1168 98.8913 801.372 463.503
1224 0 79.246 17.2375 1366 97.9502 801.854 458.326
1225 0 81.3178 12.6786 1031 103.766 800.963 453.786
1226 0 83.2968 16.1231 1343 99.6441 802.186 456.756
1227 0 85.2337 13.6214 1161 102.848 801.677 452.741
1228 0 91.394 15.3949 1407 100.841 802.133 450.679
1229 0 92.3402 15.5079 1432 101.177 802.028 449.07
1230 0 93.4256 13.476 1259 103.333 801.587 446.484
1231 0 96.2742 13.6797 1317 104.254 802.124 439.528
1232 0 100.307 13.0299 1307 104.868 801.468 442.748
1233 0 103.608 13.7441 1424 104.206 802.716 440.939
1234 0 102.358 11.0397 1130 110.293 802.898 435.602
1235 0 108.297 14.5434 1575 105.22 803.149 435.003
1236 0 113.732 15.7211 1788 103.003 802.702 437.284
1237 1 61.087 12.5395 766 101.145 803.392 459.68
1238 0 64.611 12.6449 817 101.999 806.375 452.542
1239 0 64.396 11.1032 715 102.716 808.087 450.365
1240 0 67.2585 12.7716 859 101.973 808.421 447.866
1241 0 68.1707 11.8086 805 101.835 808.937 448.058
1242 0 73.2197 12.1689 891 100.818 809.795 451.584
1243 0 79.3502 14.9338 1185 96.3857 810.251 448.875
1244 0 77.2028 13.6265 1052 100.099 810.195 444.013
1245 0 79.3027 12.2947 975 102.301 811.867 445.831
1246 0 82.6281 15.479 1279 98.1603 810.726 442.093
1247 0 89.513 14.4895 1297 98.2999 811.49 446.49
1248 0 89.1478 15.5584 1387 98.4052 811.056 446.156
1249 0 90.3316 10.6939 966 104.76 811.202 449.186
1250 0 96.5946 13.3651 1291 100.084 810.876 451.775
1251 0 97.2521 12.8223 1247 101.789 809.885 448.432
1252 1 53.2927 9.96384 531 101.889 810.19 467.748
1253 0 53.1901 8.34741 444 105.374 807.932 462.446
1254 0 57.3074 11.2202 643 98.5879 809.885 466.053
1255 0 57.3024 11.3957 653 99.3384 808.628 463.012
1256 0 60.6246 9.45161 573 102.391 808.709 467.197
1257 0 59.2635 9.75306 578 103.604 808.317 466.652
1258 0 66.443 11.4384 760 98.1079 807.08 472.236
1259 0 69.5478 13.9329 969 97.9278 807.297 464.497
1260 0 68.2671 10.8984 744 101.895 806.187 470.679
1261 0 73.3297 13.5961 997 98.6078 804.955 465.409
1262 0 75.2453 13.7816 1037 100.176 804.622 465.453
1263 0 77.4905 12.5822 975 100.395 804.02 458.427
1264 0 79.313 11.0575 877 104.364 803.436 458.415
1265 0 81.2764 10.7288 872 103.382 803.02 455.709
1266 0 84.2478 14.6117 1231 99.9578 803.568 457.098
1267 0 89.1144 14.0269 1250 100.204 805.01 450.129
1268 0 93.2686 16.7152 1559 95.8679 803.288 445.264
1269 1 49.2229 10.2594 505 98.7663 804.707 472.184
1270 0 49.2368 9.68787 477 102.474 804.331 468.736
1271 0 49.1231 13.3338 655 99.5496 804.818 466.568
1272 0 51.1645 10.9842 562 102.786 804.237 470.19
1273 0 52.1833 14.4682 755 99.2927 804.585 468.311
1274 0 54.0614 10.858 587 103.649 804.589 466.054
1275 0 56.0658 15.6245 876 95.7968 804.558 461.518
1276 0 56.1221 11.3859 639 101.585 805.191 461.141
1277 0 56.1671 13.175 740 98.9459 805.773 460.704
1278 0 59.0906 13.657 807 98.7212 804.712 457.968
1279 0 62.0495 16.503 1024 95.2969 805.846 456.08
1280 0 62.1064 12.8972 801 101.375 806.88 457.311
1281 0 66.2594 15.0922 1000 97.775 808.246 455.764
1282 0 66.2594 15.0318 996 122.165 810.226 455.681
1283 0 68.1995 13.3139 908 100.336 808.184 452.377
1284 0 71.2892 12.2739 875 101.323 808.485 453
1285 0 71.2606 14.2295 1014 99.4073 808.488 451.72
1286 0 71.3841 11.4591 818 103.933 809.196 452.48
1287 0 75.3053 13.9432 1050 100.895 809.265 449.937
1288 0 77.2171 12.9505 1000 101.906 810.052 452.002
1289 0 80.1292 13.9899 1121 101.787 809.908 448.351
1290 0 81.308 11.069 900 106.333 809.866 449.648
1291 0 84.3169 11.5991 978 104.848 810.753 451.802
1292 0 85.2063 9.17773 782 109.419 810.775 450.02
1293 0 90.433 10.7041 968 107.388 810.604 445.871
1294 1 51.2492 13.0344 668 100.786 811.76 473.811
1295 0 54.2538 11.2619 611 103.694 811.615 467.288
1296 0 55.5239 8.91508 495 105.071 809.701 462.467
1297 0 56.4115 11.3275 639 102.757 809.892 465.746
1298 0 57.2347 11.8285 677 103.368 809.145 464.966
1299 0 60.1412 13.169 792 100.961 809.788 469.117
1300 0 61.1628 13.2924 813 101.731 809.359 469.287
1301 0 65.2827 15.1189 987 99.4286 807.975 468.424
1302 0 65.0627 17.5369 1141 97.5644 807.446 465.161
1303 0 68.7707 13.7559 946 102.478 806.781 461.704
1304 0 73.3448 14.2478 1045 100.689 806.249 464.276
1305 0 72.1565 11.1563 805 106.601 805.704 464.284
1306 0 74.3512 14.6198 1087 103.203 805.033 457.537
1307 0 76.2377 14.2187 1084 103.86 804.498 458.232
1308 0 83.1386 11.0057 915 108.917 800.49 454.703
1309 1 44.1907 8.87064 392 109.153 804.533 471.357
1310 0 45.0559 11.1861 504 105.562 804.369 468.823
1311 0 47.0506 9.90423 466 102.648 803.028 472.451
1312 0 49.488 11.9019 589 105.606 801.876 464.467
1313 0 45.029 8.83874 398 116.894 799.99 457.822
1314 0 49.1102 11.4844 564 110.961 800.046 461.908
1315 0 50.1231 10.8932 546 112.515 800.528 459.167
1316 0 54.0999 13.6414 738 108.351 800.968 455.44
1317 0 48.0992 9.7299 468 117.863 800.844 451.778
1318 0 53.1318 11.1421 592 112.701 801.365 456.801
1319 0 57.1261 14.2492 814 108.348 802 453.177
1320 0 60.258 14.5043 874 108.041 802.545 452.577
1321 0 61.1528 15.2569 933 107.869 803.458 449.324
1322 0 58.0666 12.5029 726 113.974 803.438 446.069
1323 0 62.1696 11.7903 733 114.097 804.723 446.349
1324 0 63.1115 10.9647 692 114.145 804.409 448.964
1325 0 66.1538 16.2198 1073 106.42 805.433 446.542
1326 0 68.0482 15.7682 1073 107.46 806.635 446.713
1327 0 69.14 15.6349 1081 108.545 806.017 446.616
1328 0 74.1671 14.5617 1080 109.077 807.402 444.389
1329 0 74.1671 14.5617 1080 134.357 809.382 444.495
1330 0 75.227 11.8973 895 111.283 808.922 443.634
1331 0 79.0953 14.3877 1138 107.834 809.289 447.642
1332 0 82.1326 11.0066 904 112.277 809.218 448.583
1333 0 84.2293 15.2204 1282 107.972 810.487 446.866
1334 0 87.3496 13.9096 1215 111.071 808.864 448.493
1335 0 91.2387 17.5693 1603 107.312 810.216 440.818
1336 0 90.1107 13.1727 1187 114.821 809.885 445.805
1337 1 47.1994 10.5722 499 111.695 809.948 463.744
1338 0 50.0722 9.74594 488 113.426 809.057 463.83
1339 0 55.1701 11.6549 643 107.257 808.572 470.185
1340 0 54.1035 11.1823 605 109.658 808.898 466.762
1341 0 55.2971 16.113 891 102.882 808.016 465.586
1342 0 56.1094 10.7647 604 111.144 807.72 460.876
1343 0 59.2858 13.865 822 106.729 807.001 463.904
1344 0 59.1676 14.535 860 106.829 806.312 461.721
1345 0 63.2225 13.2231 836 107.963 805.158 464.267
1346 0 66.2061 15.2705 1011 105.397 803.672 463.885
1347 0 67.2993 15.4831 1042 105.879 803.327 458.782
1348 0 71.364 18.3566 1310 101.602 803.745 459.234
1349 0 73.4985 14.9119 1096 106.058 802.884 459.422
1350 0 75.3168 13.4233 1011 107.848 802.806 457.543
1351 0 75.1909 15.6535 1177 107.551 802.178 455.773
1352 0 78.1972 19.1695 1499 102.918 802.396 450.624
1353 0 78.2639 11.5251 902 113.139 801.71 453.102
1354 0 84.3711 20.078 1694 101.34 801.769 452.394
1355 1 47.3538 14.1488 670 106.149 801.142 470.451
1356 0 48.1208 12.0738 581 107.587 801.334 471.639
1357 0 48.1653 10.4847 505 112.089 801.174 462.378
1358 0 51.1936 11.6616 597 109.709 801.325 458.256
1359 0 51.2276 13.3717 685 108.946 801.766 464.561
1360 0 53.1696 12.1686 647 110.127 801.22 460.628
1361 0 53.1795 11.7526 625 111.342 802.424 461.091
1362 0 56.2376 12.0204 676 110.432 803.595 461.966
1363 0 57.3744 14.3095 821 107.808 804.369 459.301
1364 0 58.1122 12.8889 749 110.901 804.482 455.885
1365 0 62.2974 13.6603 851 108.949 805.462 455.363
1366 0 63.3866 12.1003 767 111.395 805.302 454.064
1367 0 66.1915 14.3976 953 107.45 806.424 452.816
1368 0 68.2663 12.7589 871 109.301 806.898 450.214
1369 0 70.231 12.5158 879 109.538 807.821 451.518
1370 0 73.1782 10.9595 802 112.011 808.685 446.433
1371 0 76.5513 12.8672 985 109.434 809.485 442.28
1372 0 81.5012 13.5703 1106 108.725 809.74 441.905
1373 0 82.5522 12.3437 1019 110.51 810.527 442.004
1374 1 42.487 9.24989 393 110.397 809.412 461.888
1375 0 46.3796 13.5404 628 103.963 810.529 464.389
1376 0 46.3936 9.24697 429 122.529 811.748 467.804
1377 0 50.2714 13.8846 698 103.701 810.937 467.838
1378 0 54.4178 14.5724 793 101.091 810.99 469.787
1379 0 53.2432 13.5229 720 104.315 810.265 467.849
1380 0 52.2929 11.9519 625 107.477 809.478 469.794
1381 0 55.2777 12.7719 706 106.375 809.271 471.245
1382 0 55.3223 9.70676 537 110.227 809.227 471.145
1383 0 59.3969 12.9973 772 105.497 809.267 466.022
1384 0 59.3969 12.8795 765 113.366 810.297 466.058
1385 0 64.1487 12.5646 806 106.751 807.677 469.184
1386 0 67.2684 13.3346 897 106.014 807.307 471.094
1387 0 67.1236 14.0934 946 105.945 806.415 462.737
1388 0 66.2501 9.44905 626 113.522 804.871 464.478
1389 0 72.2778 14.555 1052 106.466 805.454 463.048
1390 0 75.2834 14.213 1070 108.894 804.8 461.091
1391 0 77.3196 14.6535 1133 107.99 804.054 461.334
1392 0 79.3022 12.3956 983 111.013 803.812 461.577
1393 0 83.3031 15.8938 1324 104.414 802.609 463.089
1394 0 85.4936 16.1883 1384 106.32 802.71 454.952
1395 0 89.4235 12.3457 1104 112.33 802.277 449.712
1396 1 45.3289 13.4351 609 108.762 802.085 469.095
1397 0 45.3289 13.4572 610 120.833 802.093 469.01
1398 0 48.3811 15.0265 727 109.692 802.34 464.513
1399 0 52.3785 15.8653 831 108.859 802.626 462.218
1400 0 53.2508 15.6993 836 108.969 802.419 463.545
1401 0 53.1526 13.9786 743 114.07 802.557 462.229
1402 0 54.3532 12.0508 655 116.406 802.701 461.887
1403 0 56.3269 15.6408 881 111.1 802.886 458.692
1404 0 58.4298 16.4471 961 108.817 802.708 452.442
1405 0 61.315 15.086 925 110.412 803.445 454.711
1406 0 60.3347 14.1875 856 112.335 803.818 453.804
1407 0 63.2553 19.9983 1265 102.85 804.149 453.565
1408 0 65.2844 17.1404 1119 106.393 804.265 452.557
1409 0 68.1966 18.1534 1238 106.292 805.477 447.614
1410 0 68.2322 14.1869 968 112.183 807.325 446.249
1411 0 72.151 13.8321 998 112.706 806.875 447.603
1412 0 75.2966 17.783 1339 106.841 807.813 448.058
1413 0 80.2059 19.6619 1577 104.564 807.07 443.933
1414 0 82.3099 15.6846 1291 110.26 808.738 442.98
1415 0 82.3697 15.916 1311 110.365 809.142 444.714
1416 0 84.2721 14.2277 1199 113.222 809.857 439.042
1417 1 44.0802 12.931 570 115.174 809.281 461.586
1418 0 46.1633 11.5676 534 115.272 809.23 465.232
1419 0 47.0461 10.4366 491 120.224 808.986 461.654
1420 0 48.1638 9.86218 475 120.644 807.918 461.796
1421 0 52.1396 16.149 842 110.113 809.056 463.352
1422 0 54.2161 14.5344 788 109.596 809.5 464.079
1423 0 56.1111 14.4 808 112.145 809.244 467.085
1424 0 57.2946 13.9455 799 112.914 808.182 466.412
1425 0 56.3934 12.3951 699 117.382 807.64 463.618
1426 0 62.3715 15.8726 990 109.67 807.509 465.583
1427 0 64.2333 14.3072 919 112.476 807.637 463.658
1428 0 66.5226 14.792 984 111.836 806.372 464.412
1429 0 66.1621 12.4543 824 116.136 805.809 464.64
1430 0 70.1935 13.8189 970 112.585 804.829 465.59
1431 0 73.2726 17.0732 1251 108.56 805.221 458.636
1432 0 76.5125 15.1609 1160 111.109 804.158 457.072
1433 0 79.3478 13.8252 1097 113.474 804.021 456.273
1434 0 81.1158 14.4608 1173 113.237 803.003 455.55
1435 0 85.5839 15.587 1334 110.886 803.479 454.525
1436 0 83.2174 13.3746 1113 116.978 802.615 448.701
1437 0 83.2174 13.4107 1116 159.503 801.618 448.68
1438 0 92.1844 18.886 1741 105.66 802.099 455.764
1439 0 94.3856 11.8874 1122 119.291 801.856 446.231
1440 0 98.3807 15.8059 1555 112.961 801.864 443.161
1441 0 104.401 16.2259 1694 112.645 802.107 435.894
1442 0 103.467 14.0528 1454 118.14 801.864 437.49
1443 0 108.312 16.0186 1735 114.903 802.442 435.029
1444 1 59.2355 14.704 871 116.145 801.703 456.263
1445 0 58.1577 14.2544 829 118.311 802.106 454.134
1446 0 62.2232 16.6337 1035 113.234 802.286 453.664
1447 0 62.2232 16.6497 1036 155.093 802.287 453.787
1448 0 67.1093 14.454 970 117.24 801.905 453.415
1449 0 68.1351 16.5847 1130 114.935 803.727 445.766
1450 0 72.362 14.1787 1026 117.959 805.041 442.787
1451 0 72.3676 15.8358 1146 115.59 804.357 443.202
1452 0 75.2842 15.4349 1162 116.182 806.406 441.607
1453 0 78.6304 16.444 1293 114.627 805.941 441.371
1454 0 82.3533 14.2435 1173 117.925 806.435 442.193
1455 0 84.2487 14.113 1189 118.528 806.74 437.932
1456 0 87.2501 14.659 1279 118.18 807.713 436.778
1457 0 87.1663 16.0957 1403 115.141 807.89 440.302
1458 0 92.3323 14.4262 1332 118.312 808.013 433.559
1459 1 51.1392 12.6909 649 116.837 808.535 459.621
1460 0 53.1831 13.0493 694 115.399 808.009 458.803
1461 0 53.1147 12.9719 689 116.241 808.221 459.109
1462 0 58.1376 15.3773 894 115.107 808.128 462.442
1463 0 60.4154 14.4334 872 116.289 807.818 464.265
1464 0 59.3776 12.0584 716 120.589 808.161 463.332
1465 0 65.2779 15.457 1009 114.049 808.473 465.394
1466 0 64.2954 11.2605 724 122.558 808.416 463.011
1467 0 69.71 15.0337 1048 115.303 807.576 460.68
1468 0 72.5791 14.6323 1062 115.139 807.783 461.44
1469 0 73.5224 12.9484 952 117.439 807.417 462.557
1470 0 76.1299 15.6969 1195 114.092 807.449 460.522
1471 0 76.3037 14.3374 1094 114.37 806.871 461.897
1472 0 81.4715 17.4417 1421 108.924 806.804 459.878
1473 0 81.4958 13.694 1116 115.03 805.174 457.017
1474 0 88.5955 15.3732 1362 110.924 803.996 456.365
1475 1 46.2925 10.5201 487 116.3 803.068 475.932
1476 0 46.1443 12.8293 592 113.718 803.041 473.505
1477 0 46.4984 10.7531 500 119.186 802.656 472.184
1478 0 50.2353 11.8841 597 116.07 801.802 471.219
1479 0 50.4748 11.9267 602 116.618 801.809 470.925
1480 0 54.498 14.6244 797 111.931 801.502 470.927
1481 0 54.4966 11.0282 601 117.479 801.035 470.032
1482 0 54.4966 11.0099 600 140.628 800.995 470.05
1483 0 62.187 15.775 981 108.377 801.604 465.342
1484 0 61.2072 14.5408 890 111.122 801.191 462.871
1485 0 63.1648 14.4542 913 111.598 801.33 460.005
1486 0 64.3438 14.2671 918 112.998 802.194 457.07
1487 0 66.1875 13.6128 901 110.462 800.889 458.958
1488 0 67.1863 12.696 853 111.933 800.829 454.12
1489 0 72.3969 14.6001 1057 108.043 801.216 451.201
1490 0 74.302 17.1732 1276 105.005 802.35 437.922
1491 0 74.2669 12.886 957 111.657 803.447 436.381
1492 0 82.2471 17.3623 1428 104.279 803.472 437.095
1493 0 81.4275 13.4967 1099 111.874 803.658 436.295
1494 0 82.2722 14.1239 1162 112.356 804.117 438.662
1495 0 86.5768 15.8934 1376 109.15 804.093 440.44
1496 1 48.6008 11.0903 539 113.353 805.844 464.223
1497 0 45.3246 11.9141 540 115.952 806.578 460.696
1498 0 50.2455 13.8918 698 112.324 806.842 460.597
1499 0 50.45 12.3885 625 115.094 807.998 463.36
1500 0 55.34 16.0463 888 108.937 807.749 456.654
1501 0 54.3313 12.9391 703 118.216 809.536 454.802
1502 0 55.4816 15.014 833 113.872 808.832 459.094
1503 0 57.1334 15 857 114.369 809.103 464.611
1504 0 59.5032 14.5707 867 117.039 809.013 461.146
1505 0 61.4217 12.8293 788 120.575 808.702 461.028
1506 0 64.1396 13.2056 847 120.299 809.083 461.125
1507 0 64.1396 13.1432 843 139.187 810.106 461.085
1508 0 65.4051 13.9897 915 121.02 807.861 465.096
1509 0 69.5504 13.2566 922 120.189 806.456 464.623
1510 0 72.4757 13.1078 950 121.907 806.942 461.993
1511 0 75.3988 13.8331 1043 121.035 806.232 462.672
1512 0 75.4761 14.3622 1084 122.292 806.353 460.74
1513 0 78.6247 13.291 1045 123.208 806.26 461.248
1514 0 83.4666 13.5863 1134 121.971 804.878 463.462
1515 1 44.1389 14.3864 635 121.477 804.52 478.792
1516 0 46.3557 13.2238 613 122.785 803.684 478.635
1517 0 47.1643 14.9478 705 120.471 803.163 479.918
1518 0 49.2804 15.1785 748 121.5 803.425 476.119
1519 0 49.1033 13.6447 670 126.712 802.318 472.04
1520 0 51.5664 12.5469 647 128.699 801.957 470.172
1521 0 53.5632 14.6369 784 125.366 801.765 469.46
1522 0 57.1768 15.4608 884 123.876 801.431 468.063
1523 0 59.2454 19.5121 1156 113.332 801.471 469.862
1524 0 58.6018 14.3511 841 124.039 801.901 465.038
1525 0 61.8717 18.0697 1118 115.133 801.397 467.909
1526 0 63.9973 17.0163 1089 121.466 801.977 463.162
1527 0 64.5841 14.4308 932 128.087 800.899 459.997
1528 0 67.8596 17.0941 1160 120.586 800.966 460.532
1529 0 70.8068 13.8264 979 127.687 801.087 457.406
1530 0 68.8091 14.126 972 131.615 801.031 452.747
1531 0 72.9772 15.4843 1130 127.805 801.134 454.28
1532 0 74.7062 14.2291 1063 130.446 802.499 450.927
1533 0 76.6984 15.8152 1213 128.597 801.824 447.557
1534 0 78.785 15.9675 1258 128.642 802.785 446.805
1535 0 82.644 14.3144 1183 131.256 803.463 445.565
1536 0 83.8409 14.9808 1256 131.295 804.712 439.529
1537 0 83.8409 15.0165 1259 158.382 805.719 439.493
1538 0 89.7401 15.6006 1400 130.154 805.255 437.477
1539 1 48.2366 12.1692 587 133.083 806.727 454.245
1540 0 50.4329 15.1687 765 125.587 806.244 459.171
1541 0 52.1208 12.0873 630 131.283 805.775 458.429
1542 0 54.1639 14.3269 776 127.392 806.795 455.651
1543 0 56.1636 12.5704 706 131.657 806.799 458.119
1544 0 58.357 12.6806 740 128.086 807.847 455.861
1545 0 61.3459 13.4646 826 126.493 808.212 458.935
1546 0 62.1845 16.3546 1017 121.487 808.344 459.597
1547 0 64.1694 11.7034 751 128.117 809.071 462.101
1548 0 67.2186 13.285 893 125.577 809.647 461.045
1549 0 69.05 12.7299 879 126.592 808.718 463.63
1550 0 71.2783 16.0077 1141 122.655 809.659 458.483
1551 0 74.201 13.0322 967 125.635 808.224 459.528
1552 0 78.183 14.5556 1138 123.366 809.198 457.344
1553 0 81.2866 13.3109 1082 125.93 808.606 458.968
1554 0 82.3475 13.9773 1151 125.356 807.742 457.194
1555 0 87.8958 12.4579 1095 127.366 806.714 458.099
1556 0 87.8958 12.4352 1093 140.139 805.723 458.023
1557 0 92.1608 10.8615 1001 130.085 806.781 456.728
1558 0 96.2021 14.2305 1369 125.489 805.594 452.178
1559 0 98.1066 14.3823 1411 125.239 804.958 449.636
1560 0 101.268 12.0176 1217 127.039 803.502 449.97
1561 0 103.496 12.3 1273 126.721 803.552 447.585
1562 0 109.601 13.6495 1496 123.609 802.983 448.445
1563 0 115.312 15.3323 1768 123.003 803.196 441.739
1564 0 117.403 13.4664 1581 126.228 802.541 438.88
1565 1 64.2215 12.3479 793 126.951 802.927 463.465
1566 0 68.3298 12.8055 875 126.738 803.109 462.317
1567 0 69.204 12.8461 889 124.137 802.434 462.578
1568 0 69.191 12.863 890 130.594 802.452 462.56
1569 0 75.3554 10.7225 808 125.802 801.392 457.526
1570 0 76.4624 11.9274 912 124.864 802.033 454.887
1571 0 79.1834 11.5302 913 123.881 802.426 455.179
1572 0 82.1863 12.8854 1059 123.012 802.062 448.62
1573 0 83.3226 12.8656 1072 122.734 802.363 446.137
1574 0 86.3473 10.3304 892 125.976 802.391 447.683
1575 0 89.1711 10.3733 925 126.267 803.822 440.466
1576 0 95.4521 9.96311 951 124.971 803.381 446.624
1577 1 47.0807 9.85542 464 121.401 803.274 461.705
1578 0 50.4161 12.3572 623 117.583 804.146 466.05
1579 0 57.2372 9.66155 553 121.045 805.112 461.646
1580 0 55.4052 12.7966 709 118.244 805.879 457.573
1581 0 57.3365 11.2319 644 120.474 806.116 462.019
1582 0 57.287 11.7653 674 123.711 806.699 461.801
1583 0 59.3939 13.4189 797 122.429 807.07 457.955
1584 0 63.2534 12.2365 774 122.543 807.824 460.023
1585 0 62.1734 16.1805 1006 116.491 808.324 460.348
1586 0 65.2274 11.4829 749 124.75 808.804 457.545
1587 0 69.216 13.8552 959 122.786 808.593 457.225
1588 0 68.5165 10.45 716 128.432 809.053 454.779
1589 0 72.2375 12.8327 927 124.854 808.674 455.488
1590 0 75.3292 11.2572 848 126.553 809.127 457.415
1591 0 78.5801 13.5149 1062 122.619 808.947 456.855
1592 0 83.5026 16.2989 1361 115.463 808.289 441.644
1593 0 84.563 17.4426 1475 114.708 807.845 440.673
1594 0 87.2081 11.8338 1032 123.81 807.474 450.047
1595 0 90.6686 14.0953 1278 119.219 807.224 451.967
1596 0 94.7431 15.2834 1448 117.742 806.613 451.087
1597 0 96.3561 17.1655 1654 115.864 806.487 451.302
1598 0 98.6255 15.7768 1556 118.269 806.145 452.488
1599 1 52.3144 10.3413 541 124.349 805.806 471.429
1600 0 54.6042 10.3838 567 123.732 805.517 474.074
1601 0 56.4869 12.2152 690 120.364 803.586 473.723
1602 0 57.4367 11.282 648 124.918 804.335 469.347
1603 0 60.1471 15.6949 944 116.589 803.058 470.121
1604 0 62.0663 14.6134 907 117.666 802.745 472.235
1605 0 64.1127 13.1799 845 120.564 802.305 469.615
1606 0 66.2239 14.5265 962 118.07 801.239 467.78
1607 0 64.1827 12.9942 834 122.651 801.36 465.868
1608 0 70.1378 15.1559 1063 117.718 800.836 462.833
1609 0 72.2442 18.2714 1320 113.074 801.257 461.832
1610 0 73.1884 16.3414 1196 113.731 800.998 461.949
1611 0 75.2997 18.2736 1376 110.256 800.998 462.394
1612 0 79.1944 17.7033 1402 110.22 800.682 460.603
1613 0 80.1798 13.2577 1063 120.5 800.221 455.564
1614 0 84.331 14.6565 1236 117.711 800.128 454.259
1615 0 89.2114 21.152 1887 105.37 799.454 453.779
1616 0 91.3384 14.1561 1293 115.638 799.956 451.581
1617 0 91.2745 13.0814 1194 120.598 800.553 440.145
1618 0 94.2295 16.1414 1521 116.112 800.813 440.381
1619 0 98.5074 15.5115 1528 118.874 801.575 440.823
1620 0 99.3834 14.2982 1421 121.928 802.118 437.157
1621 0 99.3834 14.3887 1430 154.548 802.118 437.13
1622 1 60.2561 14.6043 880 115.074 803.172 458.805
1623 0 62.4884 12.8824 805 117.569 804.789 453.976
1624 0 59.1732 11.6607 690 116.219 805.309 450.617
1625 0 63.1648 13.6152 860 110.938 805.141 455.054
1626 0 65.1162 17.5072 1140 107.513 804.984 451.763
1627 0 68.0995 13.6124 927 111.272 805.193 451.898
1628 0 72.1733 15.4766 1117 109.073 806.257 449.564
1629 0 71.0871 11.9853 852 115.13 806.72 444.146
1630 0 76.1872 13.1649 1003 112.385 807.154 447.471
1631 0 79.1813 16.9863 1345 106.413 808.379 448.149
1632 0 79.1188 12.8667 1018 113.449 808.114 448.656
1633 0 84.0801 13.2493 1114 112.089 807.849 442.649
1634 0 87.0759 14.4012 1254 109.532 808.165 450.455
1635 0 89.0936 13.0649 1164 113.21 807.674 447.966
1636 1 46.1202 9.99563 461 110.228 807.56 468.256
1637 0 46.0334 8.6459 398 114.832 809.033 469.234
1638 0 46.0334 8.60245 396 141.773 809.066 469.27
1639 0 51.116 11.4641 586 105.935 808.536 473.048
1640 0 54.0846 12.0367 651 104.198 807.662 474.673
1641 0 54.145 15.7725 854 102.037 807.608 468.439
1642 0 56.1372 12.4516 699 106.821 805.687 472.423
1643 0 56.2855 14.16 797 105.194 806.011 472.099
1644 0 56.2613 12.7619 718 119.851 805.052 473.351
1645 0 60.3025 13.2333 798 107.251 804.407 467.222
1646 0 60.298 11.3602 685 110.029 804.073 466.394
1647 0 66.3088 12.2759 814 106.06 802.753 469.451
1648 0 65.1757 12.3666 806 108.584 803.22 461.728
1649 0 69.4002 12.3343 856 107.161 802.926 461.68
1650 0 71.3684 10.0745 719 107.903 801.908 464.391
1651 0 71.2725 12.0243 857 108.394 802.737 456.746
1652 0 76.4469 11.4066 872 106.474 802.436 458.083
1653 0 76.3274 12.3678 944 107.368 801.78 454.42
1654 0 81.5461 14.9731 1221 104.785 800.928 445.689
1655 0 81.4585 9.96827 812 112.001 802.395 441.703
1656 0 87.1642 16.3485 1425 103.241 801.418 444.732
1657 0 89.4517 12.7778 1143 107.969 802.198 440.009
1658 0 93.3896 14.3271 1338 105.442 802.223 434.604
1659 0 95.125 12.5309 1192 107.84 802.137 441.75
1660 1 55.2613 13.21 730 105.778 800.838 458.888
1661 0 55.4346 14.8103 821 108.588 802.105 455.033
1662 0 56.4393 12.0306 679 111.753 801.461 458.433
1663 0 62.1998 13.955 868 108.47 801.647 452.713
1664 0 62.0834 16.4134 1019 105.282 801.026 449.842
1665 0 62.0957 13.7691 855 110.227 803.435 452.662
1666 0 62.0957 13.8335 859 135.711 805.423 452.459
1667 0 66.1584 16.2489 1075 106.312 803.93 446.784
1668 0 70.148 15.2249 1068 106.339 805.002 447.893
1669 0 73.1828 15.3178 1121 105.985 804.922 446.673
1670 0 74.1414 16.0234 1188 105.556 805.495 441.014
1671 0 78.1658 15.9789 1249 105.288 806.141 440.05
1672 0 78.0691 13.8083 1078 109.007 806.452 443.55
1673 0 82.1037 12.1066 994 111.125 807.239 442.704
1674 0 85.211 13.9888 1192 109.523 806.956 434.98
1675 0 90.1638 15.006 1353 106.761 807.772 442.091
1676 1 172.567 14.18 2447 112.083 809 409.425
1677 1 98.3763 17.8295 1754 104.225 808.737 435.863
1678 1 53.1085 11.4106 606 112.02 807.642 462.29
1679 0 54.1841 13.0296 706 110.965 808.082 461.727
1680 0 55.0608 14.1117 777 110.346 806.57 467.356
1681 0 58.1328 17.9245 1042 104.929 805.87 461.557
1682 0 61.1595 14.2087 869 110.922 806.247 461.641
1683 0 62.1445 17.057 1060 105.873 805.242 465.414
1684 0 65.2754 14.6303 955 109.866 805.954 466.983
1685 0 63.134 9.66199 610 119.018 805.174 464.092
1686 0 71.1476 18.553 1320 104.681 804.207 462.98
1687 0 66.0644 10.626 702 119.467 803.53 463.751
1688 0 72.0489 11.3812 820 117.434 802.317 461.071
1689 0 74.2188 12.6922 942 115.36 801.645 459.559
1690 0 74.1017 13.6299 1010 114.533 801.405 455.757
1691 0 81.1945 14.2744 1159 112.103 801.39 456.599
1692 0 85.1775 17.2816 1472 107.643 801.359 455.925
1693 0 84.112 14.0884 1185 113.982 800.759 452.354
1694 0 89.1744 16.4285 1465 110.573 799.672 450.009
1695 0 93.1293 16.3321 1521 110.634 800.93 450.778
1696 0 97.4015 14.9074 1452 113.811 800.402 445.14
1697 0 98.2619 16.2321 1595 112.702 800.55 443.307
1698 1 53.2331 11.7596 626 117.911 799.388 462.754
1699 0 53.2443 8.11355 432 119.678 800.458 456.775
1700 0 56.2799 13.6105 766 107.107 801.461 458.251
1701 0 61.3663 11.798 724 109.856 801.642 457.536
1702 0 61.2668 15.0816 924 106.287 801.55 451.957
1703 0 61.3527 11.1487 684 111.586 802.057 454.564
1704 0 63.2144 8.58981 543 113.667 801.459 454.258
1705 0 64.6152 11.9012 769 112.921 802.874 449.212
1706 0 68.5594 15.6361 1072 108.186 802.954 444.856
1707 0 69.7675 12.4987 872 114.308 803.771 442.149
1708 0 70.6058 12.3644 873 114.448 804.57 441.78
1709 0 78.4798 14.8191 1163 109.932 805.688 440.281
1710 0 79.4018 12.5312 995 114.32 805.67 438.045
1711 0 82.8287 13.9444 1155 111.711 806.506 442.038
1712 0 85.4848 12.4116 1061 114.288 807.249 434.06
1713 0 85.5274 13.3174 1139 113.73 806.933 438.968
1714 0 90.4556 15.7094 1421 110.378 808.346 439.822
1715 0 95.3464 14.3477 1368 111.983 808.272 435.99
1716 0 96.3875 15.6867 1512 110.558 808.727 433.329
1717 0 101.728 15.5119 1578 110.84 809.035 436.268
1718 0 102.547 12.6869 1301 115.533 808.64 434.59
1719 1 57.276 9.89944 567 116.102 808.742 460.508
1720 0 61.3077 11.1895 686 112.671 808.366 457.891
1721 0 64.0967 13.8697 889 108.056 808.403 457.701
1722 0 64.3202 11.3184 728 112.806 808.9 449.603
1723 0 68.1485 15.5396 1059 106.965 809.657 456.695
1724 0 72.1991 15.8451 1144 108.909 806.443 456.406
1725 0 72.3426 16.3389 1182 108.678 806.436 456.46
1726 0 75.2212 16.95 1275 108.456 807.114 457.663
1727 0 78.4217 14.4985 1137 111.563 805.444 455.237
1728 0 78.5856 12.4832 981 116.279 805.104 455.308
1729 0 82.2419 15.8557 1304 109.451 805.342 460.697
1730 0 86.4775 14.8709 1286 112.525 803.118 451.729
1731 0 87.3188 13.8687 1211 113.988 803.075 452.112
1732 0 93.3711 15.7222 1468 110.46 801.773 452.281
1733 0 93.2436 14.0278 1308 115.124 801.909 445.098
1734 0 97.3126 16.5343 1609 111.457 801.439 443.303
1735 0 99.2995 13.2931 1320 116.562 802.064 445.752
1736 0 103.227 13.6689 1411 115.29 801.275 444.735
1737 0 106.32 15.2088 1617 113.608 801.309 442.915
1738 0 109.369 19.8228 2168 106.921 801.288 436.328
1739 0 113.381 17.6396 2000 109.946 801.014 439.576
1740 0 114.53 15.9347 1825 113.47 800.859 435.548
1741 0 118.646 16.5871 1968 112.065 799.809 437.398
1742 0 122.646 18.1743 2229 110.599 799.489 433.446
1743 0 126.417 16.6592 2106 113.072 799.962 428.183
1744 1 71.0599 11.9336 848 115.202 800.59 457.752
1745 0 73.0669 15.8211 1156 110.425 801.651 453.522
1746 0 79.3711 13.6322 1082 112.804 802.751 448.709
1747 0 78.1419 13.6291 1065 111.329 800.773 444.642
1748 0 79.1537 13.278 1051 112.496 802.012 440.851
1749 0 85.2268 11.8625 1011 112.966 802.344 436.485
1750 0 86.1824 12.4852 1076 112.126 802.907 436.377
1751 0 91.1124 17.7693 1619 103.754 803.171 438.318
1752 0 92.3713 16.2063 1497 106.255 803.766 435.659
1753 0 94.1621 14.2733 1344 110.789 804.237 426.372
1754 0 99.1987 14.3651 1425 110.175 805.193 428.518
1755 0 98.2352 8.67306 852 118.819 806.244 403.027
1756 0 104.188 12.3623 1288 114.918 806.443 404.816
1757 0 110.156 13.6806 1507 111.978 807.1 407.939
1758 0 115.259 16.3285 1882 106.6 808.394 414.609
1759 0 121.298 11.1956 1358 111.959 809.772 421.8
1760 0 118.244 15.5441 1838 106.758 809.261 425.051
1761 1 66.0521 13.0049 859 102.816 808.815 457.644
1762 0 68.1256 9.08616 619 107.225 808.7 454.368
1763 0 68.3367 9.04346 618 107.537 809.608 452.958
1764 0 74.1739 13.6571 1013 101.312 809.129 453.429
1765 0 75.3272 11.8019 889 103.813 808.339 452.81
1766 0 80.1735 12.922 1036 103.352 808.714 448.84
1767 0 80.1533 12.1767 976 102.965 807.967 452.323
1768 0 82.1316 11.8955 977 103.918 807.762 450.269
1769 0 88.2758 12.5969 1112 101.403 807.55 451.658
1770 0 90.4379 17.6143 1593 96.1381 806.384 451.886
1771 0 96.248 16.7276 1610 97.4019 806.406 449.228
1772 0 98.2063 13.604 1336 101.365 806.161 447.275
1773 0 100.232 13.0098 1304 102.352 805.392 444.822
1774 0 102.347 8.95975 917 107.619 804.948 442.43
1775 0 105.271 18.0866 1904 96.9874 803.487 434.945
1776 0 110.32 12.2099 1347 103.6 803.272 439.507
1777 0 117.51 19.3856 2278 94.968 803.364 438.471
1778 0 117.256 14.4044 1689 101.435 802.49 433.599
1779 1 62.252 9.5258 593 105.314 802.133 455.754
1780 0 65.2134 11.746 766 101.42 802.634 459.658
1781 0 69.2135 13.0321 902 98.9512 802.687 454.714
1782 0 70.2607 14.0192 985 96.9858 802.597 456.506
1783 0 75.1937 12.9532 974 97.8429 802.839 456.81
1784 0 78.4584 10.7955 847 101.836 801.557 453.58
1785 0 79.4016 13.2491 1052 99.8546 802.541 452.318
1786 0 80.2266 12.9633 1040 99.9096 802.731 449.334
1787 0 83.2147 8.90467 741 106.1 802.382 447.869
1788 0 85.2551 11.0609 943 104.234 802.964 442.866
1789 0 89.2492 12.1122 1081 103.673 803.625 441.587
1790 0 92.5088 12.561 1162 103.578 802.812 437.221
1791 0 98.5007 12.2436 1206 103.376 803.985 443.203
1792 1 51.1001 12.7201 650 105.048 805.208 455.571
1793 0 54.1426 12.2085 661 105.598 805.9 455.272
1794 0 56.168 12.4092 697 102.92 804.128 451.252
1795 0 57.3812 13.1576 755 102.4 804.978 456.201
1796 0 59.4105 11.0755 658 106.134 805.4 449.596
1797 0 61.0706 13.1978 806 104.052 805.476 452.016
1798 0 64.3589 15.196 978 103.314 805.136 457.682
1799 0 65.2279 10.0724 657 109.251 807.157 452.396
1800 0 67.2742 13.7348 924 105.925 807.203 447.503
1801 0 67.131 13.0789 878 108.013 807.171 450.314
1802 0 70.2175 13.1734 925 106.948 808.608 449.703
1803 0 74.1634 12.2972 912 109.598 808.736 448.972
1804 0 77.1081 13.4097 1034 111.942 807.783 453.934
1805 0 77.4641 10.8179 838 115.415 807.698 456.796
1806 0 83.4096 16.6408 1388 105.818 808.326 458.213
1807 0 86.1982 16.4389 1417 106.342 808.176 458.138
1808 0 90.56 17.3807 1574 105.433 808.159 454.197
1809 0 89.3457 13.7108 1225 111.347 807.203 453.544
1810 0 93.4509 18.0202 1684 104.609 807.041 457.131
1811 0 98.4698 18.95 1866 103.111 806.627 455.457
1812 0 100.432 13.8601 1392 111.257 807.378 452.375
1813 0 104.417 17.3918 1816 106.137 806.569 452.964
1814 1 56.2736 12.7413 717 114.961 805.471 472.025
1815 0 58.6561 13.9116 816 113.866 805.506 467.81
1816 0 62.4272 13.0712 816 113.825 806.277 467.114
1817 0 66.612 17.3242 1154 107.983 805.735 464.328
1818 0 66.4456 14.1469 940 114.868 805.664 463.671
1819 0 66.3864 16.0876 1068 112.38 805.213 459.879
1820 0 67.354 14.8024 997 114.394 804.529 460.425
1821 0 70.311 13.3123 936 115.677 803.973 454.25
1822 0 71.4312 15.2034 1086 110.785 804.405 458.731
1823 0 73.2221 13.3839 980 113.137 803.941 457.659
1824 0 75.1511 14.7836 1111 111.62 803.698 454.922
1825 0 78.4597 15.9445 1251 109.467 803.071 453.774
1826 0 81.2516 15.0643 1224 110.58 802.422 453.859
1827 0 83.5799 17.576 1469 107.531 802.51 451.314
1828 0 88.4848 14.5675 1289 110.271 803.298 452.052
1829 0 89.5464 14.9308 1337 111.627 803.371 446.013
1830 0 93.0131 13.4497 1251 113.79 802.57 446.902
1831 0 95.6306 16.6056 1588 107.72 802.856 449.579
1832 1 50.6863 15.1126 766 109.604 803.3 463.278
1833 0 53.4553 14.5729 779 110.443 803.105 462.27
1834 0 54.4728 12.9055 703 114.132 803.764 463.245
1835 0 57.379 13.6461 783 113.455 803.931 461.631
1836 0 59.3686 16.2375 964 109.827 804.704 457.122
1837 0 60.2974 19.8019 1194 103.992 805.497 459.883
1838 0 61.4811 14.0043 861 114.792 806.758 458.279
1839 0 65.7271 14.332 942 112.955 807.698 455.722
1840 0 61.2969 13.0349 799 118.777 808.035 452.1
1841 0 67.2565 16.2364 1092 112.557 808.797 454.006
1842 0 67.2321 13.2228 889 116.844 809.045 451.12
1843 0 72.4464 15.1974 1101 113.08 809.897 452.584
1844 0 72.4464 15.2665 1106 144.717 809.905 452.692
1845 0 75.2338 15.618 1175 113.489 811.142 454.534
1846 0 75.2162 12.0187 904 121.408 810.332 450.778
1847 0 80.3678 14.3714 1155 117.329 810.43 447.939
1848 0 85.382 16.7248 1428 113.458 810.641 448.534
1849 0 89.2778 17.72 1582 110.46 810.576 453.673
1850 0 89.3816 15.2492 1363 116.423 810.043 449.634
1851 0 92.1418 16.0296 1477 115.593 810.294 448.62
1852 0 95.2123 13.9688 1330 118.679 810.563 454.503
1853 0 98.1941 16.9562 1665 114.628 809.663 448.852
1854 0 99.1595 14.0077 1389 120.563 809.542 447.486
1855 0 106.271 15.2534 1621 117.084 809.861 450.221
1856 1 58.1398 14.9639 870 117.629 809.009 469.167
1857 0 59.0334 12.9418 764 118.465 808.233 474.047
1858 0 62.1095 13.7821 856 118.887 808.104 470.609
1859 0 64.0854 13.9657 895 117.975 806.932 471.183
1860 0 68.1428 19.7086 1343 109.007 805.04 465.203
1861 0 67.1645 13.9508 937 120.6 804.364 461.989
1862 0 74.2255 15.4799 1149 115.752 804.365 462.117
1863 0 76.2596 14.3457 1094 118.28 803.948 460.372
1864 0 79.1139 15.484 1225 116.673 804.119 458.091
1865 0 79.2831 13.786 1093 120.898 804.014 454.674
1866 0 83.2816 15.3335 1277 117.928 803.893 453.103
1867 0 88.2017 15.0224 1325 116.669 803.804 453.494
1868 0 89.2558 17.6795 1578 111.515 802.468 456.34
1869 0 90.091 16.8163 1515 115.616 802.842 452.07
1870 0 91.1328 13.431 1224 121.753 802.881 447.016
1871 0 94.2537 16.8375 1587 116.727 803.209 443.335
1872 0 97.1928 16.3387 1588 116.82 802.528 445.156
1873 0 99.4145 16.1043 1601 118.653 803.002 437.586
1874 0 100.274 14.5601 1460 122.309 802.698 436.033
1875 0 103.35 14.7073 1520 122.265 802.908 435.289
1876 0 107.155 14.829 1589 122.085 803.286 430.125
1877 0 113.546 13.6421 1549 123.236 803.946 430.347
1878 0 117.319 14.8995 1748 120.325 804.155 428.31
1879 0 118.211 15.4638 1828 120.118 804.719 423.506
1880 0 127.359 15.7429 2005 117.181 804.918 425.061
1881 0 128.204 15.3349 1966 118.978 805.727 418.521
1882 0 129.331 16.5235 2137 117.404 805.726 409.689
1883 1 72.2762 11.0963 802 121.613 806.704 442.332
1884 0 73.1502 9.28227 679 119.968 808.125 446.289
1885 0 76.3668 11.471 876 121.046 808.074 436.434
1886 0 79.2343 11.1189 881 120.31 808.445 438.751
1887 0 82.2024 13.1261 1079 116.462 808.399 432.098
1888 0 85.3514 12.0795 1031 117.226 807.812 434.92
1889 0 86.3392 12.891 1113 116.778 808.088 429.281
1890 0 90.2448 12.3774 1117 120.417 808.28 426.674
1891 0 94.1886 14.3967 1356 116.335 808.567 427.359
1892 0 93.1981 10.4938 978 124.516 810.076 427.921
1893 0 98.1847 14.4829 1422 116.726 808.773 427.714
1894 0 105.118 14.2127 1494 114.377 809.072 433.667
1895 0 107.31 13.1395 1410 118.329 808.338 427.236
1896 0 115.142 11.3078 1302 120.541 807.706 429.827
1897 0 118.227 13.9054 1644 117.546 807.742 427.646
1898 0 123.163 13.7542 1694 119.203 808.244 425.733
1899 0 126.507 14.4735 1831 116.859 807.956 424.046
1900 0 136.425 12.2704 1674 119.958 806.834 430.361
1901 1 80.1428 10.8931 873 112.149 805.958 457.789
1902 0 83.1714 16.3638 1361 102.824 804.276 459.743
1903 0 87.233 14.2377 1242 109.82 804.334 458.97
1904 0 87.4518 14.0992 1233 113.393 803.722 448.349
1905 0 91.3563 11.7124 1070 114.808 803.759 453.118
1906 0 95.2924 12.8342 1223 112.63 803.02 452.35
1907 0 99.4716 12.0838 1202 114.704 802.078 447.415
1908 0 102.321 13.0765 1338 114.194 801.451 444.932
1909 0 103.369 11.5025 1189 116.276 800.576 440.644
1910 0 103.563 9.23112 956 120.399 800.595 435.425
1911 0 111.586 12.7973 1428 113.952 800.527 433.605
1912 0 110.451 11.616 1283 116.478 800.552 432.461
1913 0 118.38 13.4398 1591 110.08 799.967 439.409
1914 0 121.402 12.8004 1554 112.512 799.897 427.571
1915 0 123.468 12.9264 1596 110.312 799.414 433.583
1916 0 128.244 11.252 1443 113.648 800.199 422.665
1917 0 128.332 9.57671 1229 114.675 799.386 423.21
1918 0 129.29 14.162 1831 109.431 801.677 424.4
1919 1 140.834 10.381 1462 115.378 802.958 410.727
1920 0 143.628 12.038 1729 112.531 802.995 407.094
1921 0 148.434 12.6993 1885 109.137 803.279 414.788
1922 0 153.469 7.87128 1208 117.078 803.829 406.303
1923 0 154.744 6.38475 988 121.567 805.385 397.679
1924 0 166.832 10.5376 1758 115.913 805.705 396.259
1925 0 170.581 10.6401 1815 116.701 806.929 393.738
1926 0 172.832 11.2305 1941 118.484 806.238 404.57
1927 0 179.916 11.2163 2018 119.921 806.224 392.694
1928 0 185.181 12.9549 2399 117.39 806.862 386.081
1929 1 264.099 11.9273 3150 122.991 806.85 349.462
1930 1 197.04 10.541 2077 121.249 807.373 381.647
1931 1 110.203 12.6584 1395 106.153 807.204 437.571
1932 0 116.206 10.0855 1172 112.79 807.581 424.27
1933 0 116.206 10.1113 1175 125.636 808.595 424.336
1934 0 121.25 11.8021 1431 109.006 807.956 425.043
1935 0 125.202 9.53655 1194 110.786 808.786 427.885
1936 1 72.1813 11.6651 842 100.138 808.546 462.048
1937 0 73.2675 10.1819 746 104.009 808.736 454.145
1938 0 77.1668 11.5983 895 102.61 808.056 457.302
1939 0 80.1425 17.0072 1363 98.1152 806.941 462.211
1940 0 77.1155 8.35111 644 115.079 806.519 455.62
1941 0 82.3072 11.1047 914 110.672 805.631 453.996
1942 0 84.2304 13.4393 1132 108.729 805.322 452.536
1943 0 88.2885 14.6792 1296 105.7 804.809 457.44
1944 0 90.2273 14.0423 1267 107.676 804.138 452.309
1945 0 86.1921 8.77111 756 117.709 803.6 449.43
1946 0 95.445 13.4528 1284 109.252 802.465 449.936
1947 0 95.2218 11.5205 1097 112.218 802.846 455.552
1948 0 97.1016 15.2212 1478 107.16 801.408 447.469
1949 0 102.217 14.7725 1510 107.41 800.633 445.074
1950 0 101.366 15.2615 1547 106.425 801.727 442.208
1951 0 104.488 10.3935 1086 113.513 801.216 431.028
1952 0 108.414 10.3953 1127 113.411 801.201 432.573
1953 1 56.1308 9.28189 521 104.493 799.286 462.324
1954 0 59.0284 10.4187 615 102.989 800.208 461.928
1955 0 62.0457 10.9274 678 106.428 798.263 465.699
1956 0 64.177 10.7671 691 109.174 798.281 463.423
1957 0 61.3091 9.90065 607 112.88 797.771 461.249
1958 0 66.2986 12.8208 850 106.94 797.724 457.511
1959 0 66.3328 12.573 834 108.156 798.775 457.929
1960 0 66.2477 12.5136 829 108.671 798.79 455.228
1961 0 68.1785 12.7899 872 108.636 800.281 450.734
1962 0 69.0915 9.0894 628 114.807 799.583 448.377
1963 0 71.1469 13.7743 980 107.896 800.408 452.367
1964 0 75.1497 12.4019 932 109.43 800.929 451.711
1965 0 76.0972 14.718 1120 106.541 800.788 449.162
1966 0 78.5041 14.3814 1129 108.252 801.755 443.608
1967 0 84.1614 17.5496 1477 102.551 802.519 449.047
1968 0 82.1221 12.3718 1016 111.456 803.026 445.363
1969 0 82.2168 13.0387 1072 112.317 803.791 439.223
1970 0 87.1774 13.2374 1154 110.915 804.405 442.944
1971 0 91.0807 15.349 1398 107.813 805.343 440.437
1972 0 92.3873 15.0995 1395 108.979 805.701 437.151
1973 0 95.2077 11.8268 1126 114.147 806.827 431.847
1974 0 95.4648 11.6378 1111 111.94 807.232 430.047
1975 0 102.322 17.1029 1750 102.698 807.129 431.166
1976 0 105.439 11.3999 1202 110.674 808.105 431.329
1977 1 56.4172 10.121 571 102.098 808.492 455.627
1978 0 60.3515 11.4496 691 102.863 810.059 453.682
1979 0 59.4553 10.0075 595 106.203 810.84 450.176
1980 0 63.379 13.0958 830 101.47 809.255 457.352
1981 0 60.3505 8.26836 499 108.116 809.675 453.483
1982 0 69.3784 11.4301 793 101.823 808.377 457.71
1983 0 70.6084 10.4095 735 102.867 807.895 457.068
1984 0 75.3822 12.1779 918 101.552 807.293 453.718
1985 0 75.5765 10.453 790 104.057 807.351 453.547
1986 0 76.3561 7.70076 588 108.06 806.396 452.054
1987 0 82.3182 7.94478 654 107.067 805.772 450.09
1988 0 85.2336 11.8146 1007 101.821 803.848 450.885
1989 0 90.3765 13.3774 1209 99.7601 803.98 448.218
1990 0 93.3152 14.9922 1399 97.5776 803.011 451.589
1991 0 95.4509 17.7054 1690 94.897 802.83 451.351
1992 1 49.2233 11.1532 549 102.27 801.235 472.854
1993 0 51.5338 13.2728 684 99.7208 800.404 467.098
1994 0 51.5656 13.2259 682 99.5308 800.327 467.699
1995 0 51.1461 9.59996 491 106.434 799.868 468.363
1996 0 52.0882 11.2117 584 101.728 798.979 473.098
1997 0 58.2711 11.5323 672 101.469 798.862 462.433
1998 0 56.141 11.2217 630 103.065 798.117 466.2
1999 0 62.0734 13.5968 844 98.0355 798.3 461.434
2000 0 64.1977 23.3498 1499 86.4703 798.547 456.903
2001 0 64.231 25.6574 1648 84.963 799.112 462.6
2002 0 69.104 27.9145 1929 82.7087 798.854 455.263
2003 0 72.2593 18.489 1336 90.8817 798.991 453.597
2004 0 69.2244 15.9048 1101 95.1753 799.917 455.997
2005 0 68.1307 14.663 999 98.7868 800.281 455.47
2006 0 77.582 19.966 1549 90.7082 801.078 447.972
2007 0 70.192 12.8647 903 102.027 800.697 453.996
2008 0 72.0959 13.9259 1004 101.575 801.502 448.305
2009 0 77.2174 15.4369 1192 99.6267 802.183 447.711
2010 0 75.239 11.6828 879 106.433 803.007 447.777
2011 0 81.2361 13.4546 1093 103.478 804.222 448.224
2012 1 41.0999 10.3163 424 108.16 802.95 464.92
2013 0 45.1292 11.1015 501 107.838 803.609 463.583
2014 0 43.0646 11.8427 510 106.975 804.229 463.137
2015 0 45.3031 15.8929 720 96.0347 806.358 459.662
2016 0 46.2793 12.7919 592 99.027 806.959 464.302
2017 0 46.3659 15.96 740 95.7703 808.332 463.974
2018 0 50.1812 14.886 747 101.843 807.17 466.802
2019 0 51.1615 14.9722 766 102.82 806.859 465.552
2020 0 52.0276 11.1095 578 108.758 807.593 467.4
2021 0 53.137 11.875 631 107.236 807.105 469.93
2022 0 52.0748 9.19832 479 110.384 807.253 473.595
2023 0 55.0368 9.59358 528 109.991 806.847 472.773
2024 0 57.1274 13.6362 779 104.547 806.63 472.515
2025 0 61.2381 12.3616 757 107.297 806.215 470.93
2026 0 61.2892 12.7755 783 108.577 806.833 467.199
2027 0 64.1414 12.9246 829 108.831 806.519 465.706
2028 0 68.2051 13.1515 897 107.441 805.259 468.441
2029 0 68.0343 14.1693 964 106.643 805.526 468.261
2030 0 73.3113 16.1503 1184 102.805 805.21 469.463
2031 0 74.2412 12.9039 958 108.276 804.006 466.445
2032 0 76.2569 12.5759 959 108.456 803.569 464.198
2033 0 79.2786 13.7238 1088 106.011 802.331 463.93
2034 0 81.2025 14.47 1175 106.785 801.94 457.259
2035 0 83.2584 12.8155 1067 109.116 801.232 461.159
2036 0 86.3954 12.1997 1054 108.73 801.057 458.573
2037 0 88.4455 13.025 1152 109.216 800.646 453.561
2038 1 47.1096 14.6679 691 104.728 800.123 472.289
2039 0 47.5939 13.0689 622 106.995 800.251 472.143
2040 0 51.4497 14.4996 746 101.684 802.193 469.106
2041 0 50.2395 16.5209 830 101.723 802.268 467.166
2042 0 52.2297 14.2256 743 104.69 802.68 464.805
2043 0 52.1728 14.9503 780 104.538 801.899 461.612
2044 0 55.1596 15.0835 832 103.683 801.863 464.081
2045 0 53.1423 13.5674 721 106.92 801.369 457.265
2046 0 57.0942 11.9276 681 108.203 802.526 461.181
2047 0 58.2447 12.9626 755 106.591 803.343 459.376
2048 0 60.1934 16.148 972 103.046 802.926 456.108
2049 0 61.0428 12.8271 783 107.866 803.48 451.049
2050 0 64.1927 15.2354 978 105.283 804.086 447.346
2051 0 70.3803 20.5313 1445 96.6104 804.435 445.149
2052 0 69.1063 14.0074 968 107.312 805.95 446.026
2053 0 70.0628 14.016 982 106.659 806.407 448.209
2054 0 71.1174 13.8925 988 108.345 807.326 447.783
2055 0 71.1174 13.9066 989 129.623 809.332 447.748
2056 0 79.236 14.4631 1146 107.541 807.893 439.865
2057 0 79.2939 14.9696 1187 107.707 808.277 449.714
2058 0 80.4435 11.1134 894 113.61 809.178 446.603
2059 0 86.3284 11.4447 988 112.656 808.958 449.22
2060 0 88.2763 10.9316 965 114.794 808.582 445.353
2061 1 47.3198 11.7076 554 109.46 806.464 468.67
2062 0 46.3466 11.1119 515 114.198 807.175 464.017
2063 0 51.4173 12.311 633 111.003 807.607 462.161
2064 0 51.3293 13.3452 685 108.942 807.58 466.711
2065 0 55.1433 12.3315 680 103.332 807.544 463.569
2066 0 57.1357 13.0041 743 102.97 806.868 463.596
2067 0 55.1937 13.6066 751 103.342 807.67 462.514
2068 0 59.1247 12.499 739 105.081 806.491 461.889
2069 0 62.1571 12.9832 807 105.038 808.016 459.048
2070 0 66.3315 15.2718 1013 100.899 807.47 465.495
2071 0 69.2667 16.8191 1165 98.1803 807.325 466.957
2072 0 72.1443 13.7641 993 103.507 806.707 460.721
2073 0 72.2169 10.6069 766 106.792 804.809 465.816
2074 0 75.2203 11.7256 882 107.988 804.425 458.031
2075 0 80.2036 15.1116 1212 103.023 803.098 457.841
2076 0 82.2697 13.2248 1088 105.04 803.005 451.4
2077 1 44.1122 11.5388 509 103.825 803.446 472.173
2078 0 41.0713 12.5635 516 104.519 803.128 470.56
2079 0 46.0441 11.8799 547 104.991 802.846 472.729
2080 0 47.148 12.7471 601 106.324 802.797 467.609
2081 0 47.1013 13.6302 642 103.439 801.142 465.399
2082 0 47.1013 13.524 637 114.055 800.168 465.446
2083 0 50.0723 11.8629 594 107.837 800.377 462.944
2084 0 50.1898 12.4726 626 106.855 800.799 459.856
2085 0 54.2278 13.5724 736 105.243 801.004 459.361
2086 0 55.2894 13.366 739 105.47 801.317 460.076
2087 0 55.1229 11.9914 661 107.536 800.862 455.793
2088 0 54.0516 9.62043 520 110.64 800.854 455.698
2089 0 60.2167 14.481 872 102.984 800.805 454.55
2090 0 61.1474 13.6392 834 104.013 801.403 452.02
2091 0 64.2424 15.2392 979 103.772 801.64 450.815
2092 0 64.074 11.8301 758 108.484 803.277 448.778
2093 0 67.3737 12.0819 814 108.297 802.7 446.407
2094 0 69.1655 16.4388 1137 102.59 803.62 443.456
2095 0 69.382 11.7177 813 109.127 803.042 446.502
2096 0 76.1603 14.1806 1080 104.83 804.668 444.995
2097 0 78.3357 14.323 1122 106.187 805.348 440.496
2098 0 81.3455 13.3382 1085 106.796 805.354 444.539
2099 0 85.4593 15.6566 1338 102.835 805.328 442.663
2100 0 84.3658 11.6635 984 110.003 806.361 439.883
2101 0 84.3658 11.5568 975 141.433 808.347 439.83
2102 1 42.1331 10.1108 426 110.592 807.962 459.04
2103 0 42.1331 10.2058 430 137.235 806.963 459.07
2104 0 46.0925 10.6525 491 109.501 808.747 457.998
2105 0 47.0896 10.1296 477 114.327 806.616 459.308
2106 0 52.0691 11.2543 586 113.372 807.058 461.608
2107 0 52.0866 10.7129 558 119.875 806.651 466.64
2108 0 56.096 11.302 634 118.954 806.038 466.144
2109 0 59.1453 17.9896 1064 108.724 805.634 462.126
2110 0 60.1163 13.5903 817 116.781 805.561 464.027
2111 0 64.1265 15.4694 992 113.051 805.33 467.538
2112 0 67.0933 18.0197 1209 108.964 805.477 467.557
2113 0 68.0877 16.3613 1114 112.735 804.405 467.851
2114 0 70.0579 14.5166 1017 116.617 803.832 463.66
2115 0 70.0799 12.3716 867 121.692 802.473 462.854
2116 0 76.0682 16.6824 1269 113.895 801.639 460.926
2117 0 78.0923 15.6994 1226 114.261 800.529 462.506
2118 0 82.1887 15.5374 1277 113.601 799.606 457.974
2119 1 41.1373 11.6682 480 117.204 799.669 478.373
2120 0 43.0944 12.5538 541 116.181 798.516 476.983
2121 0 43.1129 12.6644 546 107.244 799.487 475.875
2122 0 41.0649 13.6126 559 110.249 800.664 467.402
2123 0 44.0317 13.2632 584 111.443 801.974 468.637
2124 0 46.0572 12.4845 575 114 801.501 468.108
2125 0 47.2108 12.4972 590 112.553 800.524 469.903
2126 0 47.1858 12.419 586 115.565 799.804 466.447
2127 0 52.0541 14.1584 737 111.665 798.951 469.616
2128 0 54.1675 14.3075 775 110.872 798.099 466.045
2129 0 53.284 13.9066 741 111.941 798.19 463.173
2130 0 56.369 13.3229 751 112.782 798.306 463.828
2131 0 56.2764 12.7584 718 114.047 798.472 459.9
2132 0 58.1672 16.5213 961 107.538 799.794 455.511
2133 0 61.0855 14.1441 864 110.684 800.281 456.102
2134 0 63.1723 16.0039 1011 107.617 800.428 457.974
2135 0 64.2768 16.8179 1081 106.64 800.496 455.31
2136 0 63.1588 12.3815 782 115.228 801.815 453.179
2137 0 68.209 12.7842 872 113.993 802.422 452.967
2138 0 70.1711 15.6902 1101 109.621 803.798 449.483
2139 0 71.2824 14.7582 1052 110.789 803.551 452.146
2140 0 74.0686 15.4316 1143 111.046 804.39 448.717
2141 0 77.1363 14.9994 1157 110.964 804.438 446.87
2142 0 79.1269 15.2034 1203 111.157 805.091 448.608
2143 0 82.2241 14.8253 1219 111.986 805.03 446.568
2144 0 84.1108 15.1229 1272 111.373 805.389 446.145
2145 0 87.286 14.3436 1252 111.793 806.101 444.775
2146 0 89.1729 14.9148 1330 111.365 807.077 445.012
2147 0 92.1671 15.8082 1457 110.507 806.97 444.964
2148 1 50.0893 10.5212 527 116.501 807.545 464.626
2149 0 54.0824 12.2961 665 112.626 806.949 466.681
2150 0 54.1964 14.4659 784 110.851 806.3 466.878
2151 0 59.0436 12.7364 752 110.743 805.84 465.887
2152 0 60.1799 13.1605 792 109.119 804.944 464.529
2153 0 61.2815 13.3809 820 108.291 806.007 463.077
2154 0 65.1352 12.4664 812 108.534 805.35 458.493
2155 0 66.2422 14.6734 972 107.252 804.204 461.723
2156 0 71.2119 13.7758 981 107.672 803.663 461.295
2157 0 74.2217 13.4058 995 108.354 803.098 459.979
2158 0 77.3148 13.7878 1066 107.553 802.194 460.205
2159 0 78.2314 14.3676 1124 107.182 800.786 461.999
2160 0 82.2042 12.5298 1030 109.102 801.035 458.443
2161 0 85.2527 11.636 992 109.166 800.24 458.612
2162 0 89.164 14.0079 1249 106.947 800.243 452.777
2163 0 92.2549 14.5792 1345 104.9 800.368 453.821
2164 1 45.0926 12.308 555 108.587 798.859 471.762
2165 0 46.1014 11.5181 531 108.94 798.333 471.808
2166 0 51.1177 14.6133 747 101.896 798.456 472.059
2167 0 50.1044 13.5916 681 105.414 797.952 467.999
2168 0 53.2147 17.9274 954 98.7631 797.358 469.842
2169 0 52.0715 11.273 587 110.169 797.697 465.813
2170 0 57.0634 13.0732 746 104.492 797.847 465.905
2171 0 58.0732 16.0487 932 100.647 797.912 465.144
2172 0 60.1996 14.1861 854 104.04 797.708 460.317
2173 0 61.143 13.035 797 106.576 797.536 458.503
2174 0 64.0989 14.2904 916 102.364 798.314 463.038
2175 0 67.1187 14.5265 975 103.876 798.917 458.142
2176 0 66.1982 11.5411 764 108.991 798.753 455.361
2177 0 73.1705 17.2884 1265 99.5549 799.995 453.566
2178 0 72.1156 13.7002 988 105.481 799.484 451.518
2179 0 75.2156 15.4755 1164 103.153 801.411 449.718
2180 0 80.1438 13.5007 1082 104.03 800.432 451.967
2181 0 80.1438 13.6006 1090 133.114 799.435 451.982
2182 0 84.5317 13.5334 1144 106.395 802.152 444.664
2183 1 43.0352 9.9221 427 108.307 802.454 464.45
2184 0 47.0145 12.4217 584 103.8 803.664 464.389
2185 0 46.1597 12.2401 565 104.913 804.161 462.912
2186 0 48.2443 14.2193 686 101.488 804.813 458.325
2187 0 46.3643 15.9605 740 102.701 805.984 461.264
2188 0 49.2808 13.7985 680 105.004 806.175 460.493
2189 0 50.385 10.2808 518 109.129 806.99 462.745
2190 0 53.3079 14.4069 768 104.372 808.051 462.964
2191 0 53.1822 12.3914 659 106.524 807.862 464.361
2192 0 57.1584 15.8157 904 102.271 806.123 460.671
2193 0 58.1393 12.5733 731 107.077 806.506 464.501
2194 0 64.0424 15.6927 1005 100.827 806.355 464.772
2195 0 62.346 14.3233 893 105.625 805.67 460.271
2196 0 67.295 14.7708 994 103.124 804.75 465.81
2197 0 69.3078 13.3751 927 107.493 804.139 463.763
2198 0 71.1592 13.9687 994 105.731 804.665 463.633
2199 0 74.2236 14.6719 1089 105.995 803.265 464.509
2200 0 77.2984 12.1089 936 110.468 803.135 461.503
2201 0 79.3627 12.3232 978 111.101 801.23 459.74
2202 0 82.4658 15.2427 1257 106.817 801.677 456.784
2203 0 82.4658 15.1699 1251 134.366 802.68 456.752
2204 0 88.5829 15.4545 1369 106.963 800.491 456.658
2205 1 46.1252 11.0352 509 109.695 799.75 474.89
2206 0 48.4124 11.7738 570 108.561 799.979 472.586
2207 0 49.4139 10.8876 538 109.796 800.426 469.256
2208 0 47.3722 7.49385 355 105.411 799.642 468.938
2209 0 51.2084 10.4866 537 102.67 799.322 467.905
2210 0 53.3192 11.0092 587 102.022 798.966 464.029
2211 0 54.1692 12.1102 656 102.338 799.055 461.401
2212 0 58.2697 12.6652 738 100.867 799.443 460.974
2213 0 56.232 9.95874 560 105.243 799.291 456.709
2214 0 56.0625 13.4136 752 101.971 799.101 458.282
2215 0 59.0901 9.17243 542 107.338 800.397 453.998
2216 0 64.2175 18.2661 1173 94.4697 799.467 456.24
2217 0 62.1325 9.43146 586 108.212 800.556 452.988
2218 0 66.1811 12.36 818 103.375 800.176 448.68
2219 0 70.1521 18.9018 1326 95.0935 801.11 449.29
2220 0 72.2462 11.5715 836 103.743 801.275 448.224
2221 0 74.2503 12.4579 925 103.928 801.442 445.345
2222 0 76.2217 14.1298 1077 101.92 802.35 446.165
2223 0 77.1567 15.5139 1197 100.294 803.821 444.81
2224 0 81.2068 14.8017 1202 101.602 803.593 440.329
2225 0 85.2021 13.779 1174 101.435 803.272 445.552
2226 1 48.0604 12.7756 614 106.176 803.138 464.948
2227 0 46.2347 10.4251 482 105.998 803.317 461.604
2228 0 47.1033 10.7636 507 105.609 806.3 458.481
2229 0 49.1987 10.5084 517 106.774 805.621 459.994
2230 0 51.0985 13.8947 710 101.559 807.061 458.828
2231 0 52.1714 10.0055 522 107.126 806.956 458.835
2232 0 55.1918 10.2551 566 104.788 808.044 461.507
2233 0 57.171 8.27343 473 107.717 808.584 461.867
2234 0 59.4049 13.3659 794 102.82 808.078 458.986
2235 0 62.1347 10.4933 652 106.224 807.85 458.801
2236 0 62.1731 11.1141 691 105.742 807.854 458.217
2237 0 66.1588 13.9966 926 100.363 807.48 463.648
2238 0 66.1588 13.9059 920 109.359 806.484 463.763
2239 0 70.1288 11.7641 825 105.72 806.535 458.296
2240 0 72.4795 10.4857 760 107.738 806.21 453.068
2241 0 76.1954 13.7672 1049 102.749 806.588 459.379
2242 0 78.3132 12.1563 952 106.971 806.373 458.838
2243 0 79.2248 10.7542 852 110.311 805.061 455.081
2244 0 82.2551 10.0662 828 110.967 805.188 454.897
2245 0 87.1507 13.8381 1206 106.317 803.695 454.012
2246 0 89.1038 11.683 1041 109.632 803.956 453.94
2247 0 93.186 13.5535 1263 108.163 802.986 446.203
2248 0 96.1507 12.47 1199 108.781 802.158 446.515
2249 1 48.1603 12.1469 585 107.513 801.415 467.66
2250 0 53.3212 13.5031 720 104.881 800.361 464.971
2251 0 50.1439 12.504 627 103.914 798.464 463.665
2252 0 55.2527 11.2936 624 104.832 798.782 463.66
2253 0 56.3276 12.1077 682 103.987 797.947 462.525
2254 0 56.3276 12.1965 687 132.322 796.936 462.579
2255 0 59.3523 13.7821 818 102.913 797.96 460.627
2256 0 60.3417 12.4624 752 104.25 797.942 459.08
2257 0 62.2617 12.865 801 103.75 798.893 458.368
2258 0 66.2301 14.4647 958 102.648 799.063 454.672
2259 0 66.0544 16.3048 1077 100.179 798.89 455.526
2260 0 71.1418 13.9299 991 103.625 800.463 451.654
2261 0 71.1245 12.4992 889 106.207 800.137 452.184
2262 0 72.1205 14.1846 1023 105.921 800.889 444.673
2263 0 76.1566 12.0016 914 108.456 800.656 449.618
2264 0 78.1413 14.0259 1096 107.333 801.925 441.596
2265 0 81.2786 13.5952 1105 107.748 802.624 445.447
2266 0 85.3044 16.9276 1444 101.574 802.857 448.818
2267 0 83.4451 11.7562 981 113.323 803.893 440.182
2268 1 46.0265 11.124 512 108.367 804.953 461.68
2269 0 47.0992 13.376 630 105.368 803.932 461.122
2270 0 53.0369 16.9882 901 100.063 807.048 457.556
2271 0 50.1606 12.0812 606 108.782 806.909 457.241
2272 0 52.1823 13.4528 702 105.648 807.885 459.246
2273 0 54.3356 11.1529 606 108.3 808.901 462.137
2274 0 57.2145 16.2896 932 102.589 808.99 459.571
2275 0 58.105 14.1984 825 106.381 808.577 457.492
2276 0 61.1351 14.607 893 105.813 808.32 453.866
2277 0 61.1147 13.352 816 108.531 808.468 456.61
2278 0 63.0759 13.5551 855 109.415 807.834 455.898
2279 0 68.2259 13.5139 922 107.78 808.115 459.465
2280 0 67.1446 12.6146 847 110.923 807.509 456.707
2281 0 74.21 15.0654 1118 106.635 808.084 459.433
2282 0 74.293 13.2314 983 110.417 805.879 454.403
2283 0 79.1897 13.9286 1103 108.536 806.559 457.612
2284 0 82.1443 14.4867 1190 107.966 805.936 453.734
2285 0 84.1996 13.6936 1153 109.12 804.899 451.797
2286 0 88.3821 13.6227 1204 109.954 804.206 450.339
2287 1 45.0293 11.3926 513 106.641 804.131 474.663
2288 0 49.1404 12.6169 620 102.123 802.536 473.271
2289 0 49.2234 14.2006 699 102.607 802.519 469.302
2290 0 51.0512 12.5756 642 103.687 800.941 468.526
2291 0 53.2483 10.4229 555 106.575 801.296 465.998
2292 0 55.1647 12.3992 684 104.003 800.404 467.075
2293 0 56.0576 13.7359 770 102.469 800.63 465.106
2294 0 57.2618 15.1584 868 100.107 800.429 464.479
2295 0 58.075 12.6216 733 105.087 800.572 459.059
2296 0 61.06 12.0046 733 105.555 800.321 457.948
2297 0 63.0466 13.3235 840 103.774 800.958 455.214
2298 0 66.1457 14.3471 949 101.53 800.852 458.044
2299 0 67.295 11.2044 754 106.788 800.374 453.707
2300 0 69.3301 11.8275 820 106.006 800.91 451.333
2301 0 71.0761 13.8162 982 103.405 799.625 453.154
2302 0 73.1639 12.7522 933 105.364 800.542 452.251
2303 0 73.2852 14.8461 1088 103.168 800.336 444.563
2304 0 74.2504 14.6262 1086 105.717 801.33 445.167
2305 0 77.1724 13.4115 1035 107.919 802.725 440.775
2306 0 82.0884 14.058 1154 106.096 802.674 442.857
2307 0 84.2445 14.4342 1216 105.387 803.345 444.083
2308 0 85.194 14.6254 1246 106.912 803.112 440.524
2309 0 90.0743 13.4 1207 108.099 804.688 439.177
2310 0 89.2725 14.0133 1251 108.054 804.887 441.486
2311 1 50.0276 11.8734 594 106.934 805.705 456.367
2312 0 50.218 9.63797 484 112.023 807.663 455.219
2313 0 52.0835 12.5568 654 108.22 807.416 454.339
2314 0 53.1814 10.1351 539 112.887 807.631 454.564
2315 0 55.1556 13.1446 725 108.044 808.559 451.69
2316 0 59.342 13.3969 795 107.284 807.728 454.206
2317 0 61.1219 14.2338 870 107.251 809.054 452.348
2318 0 62.1023 10.998 683 112.451 808.792 453.507
2319 0 63.1921 11.3463 717 112.428 808.34 452.167
2320 0 66.1066 11.2697 745 112.152 808.362 454.958
2321 0 69.1497 12.3066 851 110.421 808.322 455.494
2322 0 73.5603 15.8509 1166 105.719 807.099 454.112
2323 0 75.3327 12.5178 943 110.766 807.128 453.327
2324 0 80.6201 14.7358 1188 107.166 806.856 453.353
2325 0 83.2044 14.7588 1228 107.759 806.012 451.084
2326 0 85.1102 16.6255 1415 105.474 805.059 449.486
2327 0 89.2977 11.8928 1062 112.093 804.212 448.38
2328 0 91.1979 13.3994 1222 110.232 803.109 448.329
2329 0 95.4023 11.6035 1107 112.233 802.354 450.282
2330 0 100.44 11.8678 1192 112.692 801.587 447.844
2331 1 50.0871 13.3767 670 108.067 801.215 467.787
2332 0 55.166 12.8521 709 108.281 801.98 465.855
2333 0 56.3006 12.5398 706 109.146 800.435 465.574
2334 0 58.1356 15.4123 896 104.723 800.941 460.972
2335 0 59.1192 13.0922 774 108.749 798.911 457.965
2336 0 60.1893 13.8729 835 107.528 799.133 458.315
2337 0 62.0608 11.3115 702 110.113 800.434 457.531
2338 0 66.0662 15.4239 1019 103.751 800.771 454.449
2339 0 70.0543 13.5324 948 106.188 800.528 450.498
2340 0 71.2052 14.6899 1046 104.908 800.3 451.306
2341 0 72.233 11.0476 798 109.222 800.284 451.675
2342 0 76.1156 15.4502 1176 104.581 800.41 446.265
2343 0 79.3292 16.2866 1292 102.766 800.057 442.78
2344 0 82.2762 15.1806 1249 104.535 800.42 442.206
2345 0 84.0996 13.3651 1124 107.208 801.201 439.782
2346 0 84.168 15.4334 1299 104.597 802.015 433.591
2347 0 86.1985 9.71015 837 113.07 802.287 437.251
2348 1 44.114 10.3142 455 109.796 801.732 458.037
2349 0 46.0899 11.8681 547 108.033 803.585 457.592
2350 0 46.1098 8.15444 376 113.388 803.452 456.553
2351 0 49.2587 13.2768 654 105.956 803.742 455.154
2352 0 54.4043 14.4474 786 102.655 803.963 455.24
2353 0 52.2408 10.9876 574 109.547 805.237 453.739
2354 0 53.1846 9.51404 506 111.298 804.844 455.589
2355 0 56.3251 11.913 671 108.498 806.022 454.268
2356 0 60.3287 12.1501 733 107.87 805.91 455.044
2357 0 62.263 13.4108 835 105.822 807.19 455.423
2358 0 66.267 14.3058 948 102.652 807.311 453.813
2359 0 66.267 14.2605 945 124.424 807.324 453.738
2360 0 69.2717 12.8335 889 107.116 806.891 451.439
2361 0 73.2527 11.9586 876 108.789 807.185 451.637
2362 0 73.1837 12.8854 943 108.258 805.986 454.836
2363 0 78.2804 10.7307 840 112.061 806.567 451.026
2364 0 82.2015 12.883 1059 108.958 805.743 452.199
2365 0 86.4847 11.6205 1005 111.392 806.152 451.514
2366 0 87.2606 13.1102 1144 109.864 805.51 447.114
2367 1 46.1947 7.31686 338 112.228 805.456 472.033
2368 0 48.1737 11.251 542 107.197 804.583 471.627
2369 0 49.0612 8.31615 408 111.618 803.093 468.363
2370 0 52.2327 11.1807 584 109.668 801.051 467.522
2371 0 56.0812 11.8043 662 114.891 798.94 471.835
2372 0 60.1093 13.7084 824 109.862 797.841 470.326
2373 0 61.1755 13.0117 796 112.34 797.546 465.155
2374 0 60.0684 13.2183 794 113.228 798.128 463.718
2375 0 63.1016 14.8015 934 110.369 796.34 462.741
2376 0 65.0411 12.4075 807 113.378 795.91 462.54
2377 0 69.2162 13.6384 944 111.385 796.18 459.062
2378 0 73.1286 13.1276 960 111.314 796.176 459.936
2379 0 74.3365 13.977 1039 111.248 795.614 456.718
2380 0 79.1216 16.2914 1289 107.255 795.532 452.877
2381 0 77.1207 14.5357 1121 134.128 794.561 450.742
2382 0 80.2174 12.8526 1031 112.59 795.221 453.683
2383 0 85.2802 14.8452 1266 109.967 795.313 449.529
2384 0 86.295 12.1328 1047 115.937 795.81 447.887
2385 0 90.2685 13.4709 1216 113.146 796.111 448.894
2386 1 48.1758 11.375 548 114.624 796.058 462.464
2387 0 48.1811 9.77562 471 117.013 796.263 464.626
2388 0 50.2129 10.9733 551 118.089 798.319 460.555
2389 0 52.4579 14.2019 745 111.78 797.977 458.169
2390 0 52.4579 14.2781 749 140.51 796.993 458.128
2391 0 57.3092 14.0117 803 113.989 798.853 453.695
2392 0 59.2244 14.2002 841 113.624 799.455 454.084
2393 0 60.1774 13.6098 819 113.81 798.463 456.884
2394 0 62.2462 14.2338 886 114.967 800.81 451.649
2395 0 64.0654 13.3926 858 116.016 800.121 453.465
2396 0 64.0395 14.3817 921 115.154 801.461 455.818
2397 0 69.0471 16.916 1168 110.286 801.878 454.004
2398 0 69.0471 16.945 1170 133.638 802.896 454.039
2399 0 74.0997 13.6978 1015 117.382 803.675 452.627
2400 0 74.0997 13.7113 1016 149.535 803.663 452.564
2401 0 78.1682 13.8675 1084 119.537 804.618 450.587
2402 0 81.2223 14.331 1164 118.159 804.437 452.696
2403 0 86.4035 15.2424 1317 116.893 804.803 449.609
2404 1 46.0821 13.8232 637 115.013 803.338 472.895
2405 0 51.3467 11.7437 603 117.645 803.65 471.222
2406 0 54.3464 11.9787 651 116.892 802.33 471.326
2407 0 54.2749 13.9475 757 115.601 802.835 469.057
2408 0 57.1181 14.4262 824 112.965 802.16 474.765
2409 0 57.1149 12.2035 697 119.215 801.11 471.273
2410 0 60.0803 14.0978 847 115.583 800.293 469.277
2411 0 63.1353 14.4927 915 113.872 799.372 469.575
2412 0 66.1632 14.2526 943 115.098 799.346 464.635
2413 0 69.1018 13.5163 934 115.706 798.418 465.817
2414 0 72.0774 15.1781 1094 111.196 797.808 467.069
2415 0 72.1037 14.5346 1048 114.128 797.392 459.933
2416 0 76.1052 13.8098 1051 113.528 797.477 463.617
2417 0 78.0673 14.7309 1150 113.67 796.619 458.198
2418 0 79.1078 17.0653 1350 109.404 796.55 454.97
2419 0 80.1033 11.585 928 119.92 796.089 452.25
2420 0 86.0706 16.3354 1406 111.474 796.638 449.786
2421 0 88.1098 16.2298 1430 111.564 796.762 450.461
2422 0 92.1763 15.3402 1414 112.749 796.061 447.579
2423 0 92.2159 13.7612 1269 116.546 796.162 448.644
2424 1 51.0652 12.3959 633 116.79 796.128 463.817
2425 0 52.0529 12.1607 633 117.684 796.093 462.355
2426 0 53.2155 11.0118 586 113.865 797.322 458.55
2427 0 56.1468 17.5255 984 105.044 798.829 457.86
2428 0 56.0904 12.7651 716 112.411 798.309 458.228
2429 0 60.5601 13.4577 815 109.252 799.285 454.897
2430 0 60.2233 13.2507 798 110.287 799.193 454.19
2431 0 60.5546 12.2864 744 111.509 800.034 452.815
2432 0 62.103 13.6708 849 111.686 800.456 449.961
2433 0 66.0809 15.5567 1028 108.683 801.461 451.503
2434 0 68.2313 14.7 1003 109.287 802.021 451.164
2435 0 70.0951 12.911 905 112.778 802.378 451.25
2436 0 73.2981 14.4751 1061 109.93 802.581 450.255
2437 0 74.1858 13.291 986 112.512 803.516 448.086
2438 0 78.1392 17.9296 1401 103.819 804.123 453.841
2439 0 81.1977 15.3206 1244 108.57 804.472 450.037
2440 0 86.8411 12.6208 1096 110.57 804.162 452.745
2441 0 86.0814 13.7428 1183 112.401 805.188 448.266
2442 0 88.1245 11.7788 1038 114.136 804.514 451.173
2443 0 94.3522 14.626 1380 110.426 804.675 448.08
2444 0 97.1404 11.8797 1154 115.457 803.422 448.345
2445 0 99.4041 13.7721 1369 114.014 804.178 435.932
2446 0 103.67 13.5237 1402 114.371 804.407 435.407
2447 1 52.3584 9.24399 484 116.347 805.019 463.231
2448 0 58.2605 10.7963 629 114.11 804.215 460.679
2449 0 59.0631 11.4454 676 110.232 804.672 464.417
2450 0 60.077 13.4993 811 108.009 803.033 463.879
2451 0 64.1725 13.6507 876 107.763 803.099 462.624
2452 0 65.2271 15.4844 1010 106.044 801.604 461.534
2453 0 68.1056 11.7465 800 111.464 801.028 458.055
2454 0 73.4721 15.2167 1118 104.547 799.802 461.707
2455 0 73.3819 17.2658 1267 103.131 799.318 454.534
2456 0 76.2778 14.0277 1070 108.997 798.942 455.049
2457 0 78.4164 12.8672 1009 110.915 799.056 453.282
2458 0 82.5614 17.599 1453 104.2 798.526 452.884
2459 0 83.5085 12.849 1073 111.08 797.561 451.488
2460 0 87.8272 15.5533 1366 107.832 797.519 449.138
2461 0 89.8151 17.2131 1546 107.311 798.626 445.204
2462 0 90.3803 14.9148 1348 111.791 798.529 444.105
2463 0 94.6151 16.3399 1546 109.254 797.549 445.919
2464 0 93.4086 13.7461 1284 117.066 798.151 445.221
2465 0 98.431 17.6469 1737 110.925 797.835 441.324
2466 0 100.62 14.3312 1442 119.068 797.549 439.402
2467 0 104.484 15.6771 1638 116.845 798.082 434.377
2468 0 107.349 12.9205 1387 120.681 797.965 425.851
2469 0 111.631 14.6107 1631 118.21 798.286 426.357
2470 1 60.1447 12.9687 780 116.885 799.173 451.619
2471 0 63.3715 13.8232 876 114.72 799.659 451.508
2472 0 67.1524 12.345 829 115.964 800.023 449.431
2473 0 69.1902 12.9643 897 115.669 800.589 447.056
2474 0 71.3621 13.4525 960 114.473 801.024 446.778
2475 0 75.2524 14.3916 1083 113.747 801.152 441.143
2476 0 77.5543 14.1578 1098 113.99 802.365 442.504
2477 0 78.5232 15.3203 1203 112.718 801.74 438.306
2478 0 83.3752 14.4048 1201 114.016 803.146 439.867
2479 0 86.2691 14.4895 1250 113.354 803.349 442.998
2480 0 86.2727 14.0253 1210 116.23 804.798 435.246
2481 0 90.0793 16.3745 1475 111.657 805.251 434.39
2482 0 93.0727 11.1633 1039 119.752 806.038 437.369
2483 0 96.315 12.9782 1250 116.341 804.72 436.72
2484 0 99.3482 12.6223 1254 117.854 805.7 437.791
2485 0 105.291 11.682 1230 119.521 805.368 430.285
2486 0 105.291 11.7484 1237 152.981 804.376 430.316
2487 1 59.078 9.88523 584 115.755 804.053 461.361
2488 0 63.1024 10.9663 692 117.064 802.919 469.848
2489 0 67.0771 14.625 981 111.398 802.619 466.566
2490 0 69.2302 13.9535 966 113.055 802.13 463.154
2491 0 72.1584 15.4798 1117 110.554 801.577 468.04
2492 0 76.37 14.8619 1135 112.178 801.293 461.652
2493 0 76.0957 13.9955 1065 114.934 800.694 460.516
2494 0 81.5637 16.1959 1321 110.683 800.933 459.678
2495 0 83.359 13.7718 1148 115.371 799.519 454.624
2496 0 87.5898 14.1112 1236 113.369 799.447 455.378
2497 0 91.3998 12.8118 1171 114.904 797.488 453.706
2498 1 49.1493 13.0419 641 110.722 797.485 474.953
2499 0 51.2507 13.9901 717 108.851 796.81 473.665
2500 0 52.4584 11.552 606 114.479 796.186 472.802
2501 0 53.1078 13.6515 725 110.309 796.208 474.141
2502 0 56.3759 15.2547 860 109.215 795.762 468.222
2503 0 58.3742 12.3856 723 113.472 795.35 462.834
2504 0 59.1024 14.974 885 109.271 795.228 465.34
2505 0 59.0912 12.8446 759 112.096 795.553 464.161
2506 0 63.3986 13.8016 875 110.667 795.815 460.441
2507 0 61.1436 12.9858 794 114.534 795.932 456.835
2508 0 64.1511 16.5702 1063 107.462 796.184 457.641
2509 0 67.2189 12.4667 838 112.704 797.116 454.353
2510 0 71.4212 13.7634 983 109.63 797.586 454.61
2511 0 71.5786 15.3677 1100 108.552 798.87 454.276
2512 0 69.1352 12.3526 854 110.348 798.786 452.891
2513 0 72.3628 10.6408 770 112.671 801.538 444.455
2514 0 77.486 16.1319 1250 104.499 801.772 435.971
2515 0 79.4094 13.3737 1062 110.292 802.072 445.07
2516 0 85.2788 17.0617 1455 105.603 802.844 436.83
2517 1 44.1455 12.7306 562 107.196 803.703 460.183
2518 0 47.2354 11.5591 546 107.348 803.421 461.502
2519 0 47.5035 12.8201 609 108.276 803.566 458.644
2520 0 48.4629 12.8965 625 107.437 805.032 460.861
2521 0 48.322 16.2659 786 106.3 803.88 457.359
2522 0 51.1385 14.6856 751 107.305 805.324 462.862
2523 0 51.3126 10.6407 546 116.048 803.989 463.016
2524 0 54.2763 12.7496 692 114.555 805.269 453.786
2525 0 57.4749 12.6142 725 115.043 804.753 456.145
2526 0 57.3901 12.9988 746 115.324 805.174 458
2527 0 61.4491 14.4184 886 112.356 805.044 460.315
2528 0 60.3359 14.1541 854 114.576 804.934 462.652
2529 0 65.1307 12.9893 846 116.093 803.421 461.398
2530 0 68.6596 15.0161 1031 112.491 803.096 458.393
2531 0 70.6984 19.4064 1372 106.879 803.027 461.145
2532 0 73.6007 14.9863 1103 114.07 801.868 459.585
2533 0 77.5191 14.6286 1134 114.392 802.055 458.827
2534 0 77.5191 14.6544 1136 140.275 802.077 458.945
2535 0 80.5212 13.4747 1085 119.121 801.561 454.952
2536 0 83.6584 15.2166 1273 116.853 799.803 452.598
2537 0 88.3452 17.3524 1533 113.423 799.657 450.252
2538 0 87.4046 13.878 1213 120.953 799.803 446.135
2539 0 94.3856 15.9664 1507 116.217 798.88 447.306
2540 0 97.5163 14.6437 1428 118.317 798.454 449.158
2541 1 48.5796 14.327 696 113.807 798.93 470.832
2542 0 49.4623 10.9781 543 119.545 798.932 470.617
2543 0 54.2966 16.373 889 111.161 797.929 467.478
2544 0 55.538 12.1358 674 119.153 797.996 465.577
2545 0 55.3532 13.459 745 117.224 797.552 462.224
2546 0 58.3667 14.2204 830 117.875 796.806 460.63
2547 0 59.23 13.6755 810 119.909 797.075 457.212
2548 0 63.5826 14.4536 919 116.195 796.905 459.667
2549 0 65.3382 17.2793 1129 112.571 797.299 458.368
2550 0 69.6963 13.6019 948 119.41 797.658 452.566
2551 0 67.3829 13.2378 892 120.979 797.624 450.835
2552 0 72.6709 14.3524 1043 118.463 798.335 451.992
2553 0 74.7217 16.5949 1240 114.634 797.524 451.241
2554 0 75.7317 15.9775 1210 117.302 798.815 448.501
2555 0 75.7317 15.8982 1204 150.523 798.797 448.563
2556 0 79.9874 14.3398 1147 121.724 801.122 445.077
2557 0 85.5765 16.3246 1397 117.386 801.327 441.005
2558 0 86.859 14.7711 1283 121.161 801.947 442.8
2559 0 88.8585 14.5512 1293 122.265 802.106 439.823
2560 0 94.6985 17.3076 1639 116.386 803.346 438.474
2561 0 95.405 15.1774 1448 121.365 803.858 438.676
2562 1 49.4374 11.3275 560 119.821 803.952 464.273
2563 0 54.5344 14.3762 784 116.24 804.824 458.533
2564 0 55.3276 17.1343 948 114.323 805.847 457.907
2565 0 58.1048 12.5979 732 122.139 806.699 463.717
2566 0 62.0857 16.0423 996 115.052 806.04 461.458
2567 0 63.0769 13.2378 835 120.758 806.407 461.881
2568 0 64.3284 13.3067 856 120.532 806.118 461.223
2569 0 68.3036 13.7035 936 118.15 806.488 464.505
2570 0 68.5705 14.8169 1016 118.224 805.162 462.094
2571 0 74.4333 13.099 975 120.462 805.229 464.254
2572 0 73.4782 10.9284 803 125.418 803.949 458.07
2573 0 76.5808 12.2877 941 122.998 803.267 460.426
2574 0 82.4603 13.7521 1134 117.217 802.528 456.542
2575 0 86.6134 13.947 1208 117.019 801.709 457.846
2576 0 88.3996 13.7444 1215 117.882 801.283 455.498
2577 0 92.4875 14.4452 1336 118.698 800.893 446.876
2578 0 97.0246 14.6561 1422 118.449 799.446 446.237
2579 1 47.5642 11.6264 553 116.293 799.268 473.318
2580 0 51.2119 14.7427 755 111.588 800.091 474.155
2581 0 55.1622 12.5992 695 111.804 799.227 472.505
2582 0 54.0797 13.9979 757 107.756 800.919 470.629
2583 0 53.1345 11.2733 599 112.967 798.038 471.219
2584 0 57.4113 12.6804 728 110.536 796.507 465.236
2585 0 56.2973 11.4037 642 112.949 795.701 462.972
2586 0 61.3239 11.0723 679 111.041 796.2 464.756
2587 0 62.3174 15.8062 985 104.598 795.939 460.308
2588 0 65.2453 14.1313 922 107.064 796.203 459.472
2589 0 66.2695 11.9814 794 110.225 796.058 457.817
2590 0 69.5033 12.949 900 109.337 796.642 455.194
2591 0 72.4591 13.6491 989 108.192 797.148 454.944
2592 0 72.2202 11.4649 828 112.653 797.775 452.632
2593 0 75.2876 14.1059 1062 109.44 798.698 449.303
2594 0 78.4308 12.9669 1017 110.281 798.604 450.056
2595 0 77.4636 14.1486 1096 109.415 797.627 451.576
2596 0 83.549 15.8709 1326 107.557 799.41 443.83
2597 0 83.1379 13.8204 1149 111.468 799.755 445.444
2598 0 87.2775 14.1159 1232 110.726 801.536 445.682
2599 0 89.1861 13.8362 1234 109.159 801.93 444.964
2600 0 92.2796 13.4266 1239 109.387 801.22 441.78
2601 0 95.2371 16.3277 1555 105.776 803.38 441.695
2602 1 51.0655 10.1242 517 109.683 803.048 461.708
2603 0 55.0546 11.8246 651 106.926 805.435 463.422
2604 0 57.0854 11.4915 656 108.335 806.553 463.934
2605 0 58.1151 14.3336 833 99.515 806.022 456.659
2606 0 58.1171 9.11951 530 104.494 804.46 454.192
2607 0 60.0671 8.60704 517 102.714 805.271 459.996
2608 0 63.0786 12.2228 771 101.528 805.044 452.953
2609 0 67.1449 9.5614 642 104.053 805.492 454.319
2610 0 73.5111 15.2358 1120 93.6223 805.901 462.928
2611 0 71.1129 12.4309 884 100.32 804.931 456.958
2612 0 76.0792 13.6568 1039 97.9326 804.224 453.58
2613 0 76.2328 15.0854 1150 96.653 803.66 455.628
2614 0 82.2196 14.7167 1210 95.7702 803.746 457.426
2615 0 84.324 12.1792 1027 105.937 802.812 453.244
2616 0 89.3348 13.9475 1246 102.774 801.998 458.07
2617 0 93.3307 15.4933 1446 101.477 800.836 451.493
2618 0 97.4322 15.9188 1551 100.264 800.758 449.751
2619 1 47.1543 6.40451 302 108.775 798.02 476.993
2620 0 47.1543 6.42571 303 138.541 797.023 476.858
2621 0 52.0831 12.8065 667 97.904 797.66 479.819
2622 0 52.3926 10.5549 553 104.98 798.289 471.047
2623 0 56.6297 12.7495 722 102.22 798.827 469.188
2624 0 55.4106 11.3697 630 104.705 798.206 465.806
2625 0 60.5285 12.4074 751 102.517 798.012 463.925
2626 0 60.3746 13.2506 800 100.935 797.029 465.229
2627 0 63.3894 10.6958 678 104.295 796.588 462.734
2628 0 66.3665 12.3104 817 102.678 797.297 457.027
2629 0 66.524 12.5669 836 102.732 797.75 455.501
2630 0 69.4408 10.887 756 104.156 797.098 459.303
2631 0 72.5393 13.8132 1002 100.717 798.338 454.019
2632 0 70.2186 14.4691 1016 101.557 798.244 451.494
2633 0 75.3726 13.0419 983 102.658 798.537 452.096
2634 0 78.3101 15.0811 1181 99.6799 798.229 453.14
2635 0 77.4278 12.7603 988 105.569 798.727 445.279
2636 0 81.3296 12.5047 1017 104.51 798.386 449.822
2637 0 86.6928 15.7222 1363 99.8261 800.228 447.38
2638 0 87.2842 13.0837 1142 104.653 800.3 444.852
2639 0 90.2886 16.2479 1467 100.044 801.207 448.174
2640 0 92.49 15.8828 1469 101.134 801.233 442.937
2641 0 94.3866 14.377 1357 103.956 802.591 443.24
2642 1 57.3735 10.4229 598 96.7776 805.274 462.962
2643 0 61.1374 13.9195 851 92.3913 808.242 465.215
2644 0 62.0616 15.7747 979 90.5332 808.28 462.94
2645 0 66.4385 14.2538 947 91.2365 806.541 463.932
2646 0 68.1951 19.2389 1312 87.0808 806.912 461.05
2647 0 69.1983 13.324 922 93.7093 807.377 462.504
2648 0 71.1333 14.1425 1006 93.4742 807.396 458.123
2649 0 75.2 12.8856 969 93.7513 806.879 465.223
2650 0 77.1769 14.6028 1127 92.5572 805.099 460.992
2651 0 80.3676 14.7572 1186 91.6113 805.257 462.787
2652 0 83.3136 12.1829 1015 95.0473 803.165 455.223
2653 0 83.3241 12.8894 1074 94.6536 803.088 455.54
2654 0 86.2258 14.0213 1209 93.7874 801.531 451.411
2655 0 89.9114 16.0269 1441 91.5413 800.62 448.573
2656 0 91.2089 14.6038 1332 93.033 800.748 450.712
2657 0 94.4019 12.8493 1213 94.9126 799.752 444.225
2658 0 97.3787 16.2048 1578 91.7262 798.391 442.156
2659 0 99.399 12.8774 1280 95.1547 799.276 444.91
2660 0 108.409 14.9157 1617 90.8466 798.368 448.399
2661 0 108.537 14.76 1602 92.8945 798.132 437.385
2662 0 111.536 14.0135 1563 93.3858 798.257 440.193
2663 0 114.756 18.291 2099 90.7146 797.88 429.75
2664 0 119.427 16.7551 2001 92.4388 798.14 426.604
2665 1 61.2156 11.4677 702 94.8832 796.949 458.319
2666 0 65.3705 12.8651 841 92.2675 798.208 460.845
2667 0 68.2617 14.752 1007 92.2502 798.057 453.435
2668 0 67.3438 11.9833 807 94.6109 797.484 454.374
2669 0 73.3457 16.2518 1192 89.6778 798.182 451.091
2670 0 73.3457 16.3336 1198 120.794 799.167 451.059
2671 0 78.3546 15.0215 1177 91.0161 799.151 449.19
2672 0 80.3787 16.2854 1309 90.6898 799.065 446.131
2673 0 79.2968 11.6903 927 95.9817 800.403 440.532
2674 0 85.2315 16.6136 1416 91.9513 800.751 441.275
2675 0 90.2289 23.1301 2087 86.5113 800.886 439.932
2676 0 91.2491 16.8111 1534 91.485 802.288 442.912
2677 0 94.2284 17.6274 1661 91.9067 801.952 431.181
2678 0 101.544 19.3611 1966 88.8006 802.924 440.867
2679 0 101.296 12.113 1227 97.4523 803.506 432.222
2680 0 103.169 17.6506 1821 92.4053 803.923 431.447
2681 1 57.2494 11.9652 685 98.5956 805.058 460.94
2682 0 59.6497 15.0043 895 92.6335 803.208 460.698
2683 0 59.1527 14.6401 866 93.1697 802.831 459.961
2684 0 58.0866 11.9477 694 97.3141 801.944 458.829
2685 0 60.0812 14.7966 889 93.6592 802.89 462.749
2686 0 62.134 14.8389 922 92.0174 802.17 467.899
2687 0 67.1594 12.0162 807 95.4064 801.919 465.52
2688 0 72.1662 18.7484 1353 88.7864 802.846 463.551
2689 0 72.1662 18.7345 1352 114.253 802.84 463.538
2690 0 72.1097 16.1837 1167 91.9006 802.979 462.457
2691 0 74.4647 14.4498 1076 94.2379 801.768 461.071
2692 0 78.1305 15.5765 1217 93.7995 801.886 458.788
2693 0 79.3499 12.4008 984 97.1169 801.628 456.605
2694 0 81.7513 13.957 1141 96.5898 801.341 459.158
2695 0 84.4184 12.746 1076 96.6413 801.344 463.467
2696 0 85.495 11.7785 1007 99.4002 801.341 449.889
2697 1 44.208 9.00288 398 102.611 801.93 474.613
2698 0 44.1461 8.87962 392 103.908 802.337 474.536
2699 0 45.3255 13.6568 619 96.2488 802.969 460.59
2700 0 45.3255 13.6568 619 144.315 802.969 460.59
2701 0 51.2404 15.9249 816 94.4302 799.587 468.141
2702 0 55.7826 12.8176 715 95.1986 799.414 465.066
2703 0 53.4204 11.5125 615 89.5252 798.254 465.314
2704 0 55.3848 16.9 936 84.7607 797.934 467.8
2705 0 56.6642 19.9244 1129 82.3906 797.392 467.6
2706 0 58.5373 20.0727 1175 83.6187 797.061 464.764
2707 0 60.4521 21.4219 1295 82.7907 796.751 461.324
2708 0 65.5707 10.2332 671 91.532 796.833 461.273
2709 0 63.3641 17.5494 1112 84.786 796.599 461.741
2710 0 68.8047 19.0539 1311 83.7689 796.298 453.495
2711 0 68.793 13.8822 955 89.0031 797.479 452.749
2712 0 68.2526 14.4756 988 88.7045 798.154 452.001
2713 0 72.2055 17.6718 1276 85.5619 798.452 452.795
2714 0 74.4642 14.1276 1052 89.2681 798.789 448.452
2715 0 74.3283 13.1309 976 90.5574 799.623 448.438
2716 0 75.1669 10.9224 821 93.1242 800.654 446.7
2717 0 80.1769 15.0168 1204 88.9452 800.142 451.242
2718 0 83.3944 14.4734 1207 89.9586 800.124 447.913
2719 0 84.2957 12.2901 1036 92.6274 800.684 440.18
2720 0 86.6596 14.9897 1299 90.164 801.38 438.229
2721 0 91.4747 17.6005 1610 86.9956 802.537 446.047
2722 0 88.3022 16.0698 1419 87.4743 802.724 450.234
2723 0 95.3362 15.8701 1513 89.7013 803.539 438.956
2724 0 97.2578 14.333 1394 91.0395 804.012 437.094
2725 1 52.2403 12.5765 657 88.8843 803.828 467.104
2726 0 56.115 17.0721 958 84.2244 805.325 463.989
2727 0 58.2135 13.9487 812 86.8461 805.292 462.85
2728 0 58.4086 19.4663 1137 83.5717 804.664 466.02
2729 0 60.0815 20.1559 1211 82.1519 804.79 468.901
2730 0 59.1194 9.11714 539 94.1002 806.262 463.558
2731 0 62.0548 14.6322 908 89.6013 805.784 461.656
2732 0 66.487 16.8304 1119 87.4406 805.742 460.876
2733 0 67.0727 16.9816 1139 87.5821 804.504 465.809
2734 0 67.2011 16.1753 1087 88.1546 804.401 465.473
2735 0 70.2234 18.1136 1272 86.5267 803.949 469.476
2736 0 73.3027 12.578 922 93.1085 804.44 465.715
2737 0 73.1276 15.5208 1135 91.2185 803.84 461.841
2738 0 75.096 15.873 1192 90.2072 803.607 466.143
2739 0 78.1234 16.8579 1317 89.7434 802.687 463.128
2740 0 80.1798 12.0105 963 94.296 802.125 467.154
2741 0 80.2002 13.4164 1076 94.7565 801.034 461.363
2742 0 83.2348 16.2072 1349 90.3402 800.174 466.677
2743 0 86.3563 14.5444 1256 94.0199 800.011 457.733
2744 0 91.3543 15.73 1437 92.3709 798.761 457.996
2745 0 93.5404 13.7267 1284 95.3349 799.044 451.873
2746 0 96.3408 27.4235 2642 84.2369 798.229 450.224
2747 0 98.5903 14.9406 1473 94.1928 797.179 451.611
2748 0 102.761 15.7258 1616 93.6566 796.837 442.787
2749 1 56.159 8.654 486 97.6626 797.467 472.064
2750 0 55.2012 20.2532 1118 86.644 798.014 466.737
2751 0 59.0466 16.9696 1002 90.3244 797.288 470.351
2752 0 60.1722 12.4808 751 95.3302 799.085 467.854
2753 0 64.2262 14.4956 931 95.1224 798.634 464.335
2754 0 64.367 16.7166 1076 91.6329 798.523 463.344
2755 0 65.0788 13.4452 875 105.122 799.971 459.126
2756 0 68.3275 14.0792 962 103.94 799.882 460.164
2757 0 71.3949 13.4323 959 104.126 801.145 459.534
2758 0 71.2662 13.6951 976 105.346 801.462 455.754
2759 0 75.2843 16.2318 1222 100.962 802.11 455.398
2760 0 78.3725 16.1536 1266 102.211 801.866 450.269
2761 0 81.3455 13.6578 1111 105.55 802.324 451.348
2762 0 81.4563 11.8837 968 106.92 802.992 455.115
2763 0 83.3152 15.0273 1252 104.323 803.9 447.599
2764 0 84.3278 12.4158 1047 107.202 804.956 445.513
2765 0 84.3278 12.4751 1052 146.171 805.939 445.542
2766 1 48.187 9.46313 456 105.93 806.704 469.171
2767 0 48.2066 13.774 664 99.4729 805.634 466.374
2768 0 53.712 20.1817 1084 90.5268 804.086 463.854
2769 0 52.0726 14.9599 779 96.1309 804.531 465.117
2770 0 55.1285 13.1148 723 97.5311 803.967 466.981
2771 0 54.4738 12.0241 655 99.4473 803.739 465.398
2772 0 55.1929 13.2082 729 98.4211 803.915 465.224
2773 0 59.3391 10.3473 614 100.244 803.754 469.365
2774 0 61.1145 13.8592 847 97.1228 804.24 467.379
2775 0 62.2593 12.3195 767 101.291 804.027 466.321
2776 0 65.1694 18.5363 1208 94.2864 804.438 464.164
2777 0 68.2072 17.2269 1175 94.9038 803.723 469.174
2778 0 68.3781 14.6538 1002 98.7575 804.01 466.799
2779 0 71.2656 14.1162 1006 99.4195 804.042 467.578
2780 0 74.3129 14.1698 1053 99.1083 803.795 469.516
2781 0 73.095 16.0476 1173 98.3956 802.866 464.641
2782 0 78.1514 15.8154 1236 98.517 803.078 463.94
2783 0 80.1307 15.5122 1243 99.7345 803.637 461.348
2784 0 82.1823 13.4214 1103 102.249 802.186 459.312
2785 0 84.2696 13.9196 1173 101.637 801.928 458.439
2786 0 88.3571 13.0267 1151 102.134 801.016 455.589
2787 0 90.2256 14.763 1332 99.7613 800.712 458.572
2788 0 91.2792 12.0619 1101 103.307 800.635 449.907
2789 0 98.6096 14.7754 1457 97.9252 800.114 459.019
2790 1 47.1897 13.202 623 98.618 799.551 468.38
2791 0 47.0988 5.47785 258 104.26 799.454 471.209
2792 0 49.1044 11.4654 563 101.922 798.79 464.497
2793 0 53.1481 11.9854 637 105.268 798.281 467.733
2794 0 55.2582 13.3555 738 104.679 799.327 465.052
2795 0 58.3725 17.1999 1004 98.7958 798.858 460.086
2796 0 58.2893 13.7075 799 103.658 798.822 461.529
2797 0 62.2045 14.0504 874 102.356 798.809 462.586
2798 0 63.3177 19.7891 1253 96.5523 799.671 458.648
2799 0 66.4695 15.5109 1031 101.036 800.059 456.076
2800 0 66.6424 15.5907 1039 102.02 800.719 455.225
2801 0 67.7052 14.0314 950 105.109 801.43 447.922
2802 0 70.4576 17.5992 1240 100.163 801.81 447.758
2803 0 75.8154 18.2813 1386 95.1674 802.661 449.529
2804 0 74.8214 17.7757 1330 98.5263 802.632 442.444
2805 0 74.4647 12.1803 907 104.763 803.998 448.144
2806 0 75.3256 15.2272 1147 101.702 804.202 446.636
2807 0 77.4785 13.5263 1048 105.91 804.704 442.779
2808 0 82.333 19.9798 1645 97.817 805.557 441.116
2809 0 81.5672 11.892 970 108.471 805.263 437.084
2810 0 86.4089 15.6581 1353 103.854 806.411 440.19
2811 0 89.5229 10.5448 944 108.591 805.639 440.732
2812 0 94.4027 18.8342 1778 98.7885 806.081 435.979
2813 0 95.4654 20.8767 1993 96.7647 806.319 438.414
2814 0 98.4253 12.2428 1205 107.927 805.834 437.196
2815 1 54.1733 15.0259 814 101.021 806.803 461.633
2816 0 55.1376 12.4416 686 105.217 806.602 463.138
2817 0 58.06 14.3989 836 101.797 807.47 463.556
2818 0 62.0694 18.0282 1119 97.471 807.165 467.265
2819 0 61.4729 12.656 778 102.482 806.672 465.485
2820 0 63.5491 16.1922 1029 97.9388 806.244 464.983
2821 0 68.5486 18.5562 1272 95.8876 805.323 464.311
2822 0 69.5208 17.0309 1184 98.522 805.383 460.751
2823 0 70.5589 15.3064 1080 100.973 804.941 457.959
2824 0 81.9219 19.958 1635 93.6165 805.282 459.961
2825 0 74.74 14.2895 1068 101.786 805.039 461.954
2826 0 79.6938 16.6638 1328 97.8471 803.867 459.684
2827 0 78.4586 13.3191 1045 103.636 802.887 452.74
2828 0 84.368 14.6145 1233 101.565 802.861 450.227
2829 1 41.5165 10.1887 423 104.05 801.47 472.463
2830 0 41.3347 10.6448 440 105.557 801.923 467.291
2831 0 44.3866 11.873 527 101.594 802.347 465.59
2832 0 49.5018 17.3731 860 95.0093 801.334 463.479
2833 0 51.3407 13.6734 702 99.2878 799.416 468.848
2834 0 51.3743 13.314 684 97.8363 798.804 465.151
2835 0 53.5101 9.00764 482 102.201 798.629 463.78
2836 0 56.2373 16.7149 940 92.7362 798.722 463.372
2837 0 60.3033 20.9939 1266 89.2646 798.787 454.969
2838 0 58.2527 15.9134 927 93.6699 798.866 461.162
2839 0 60.2996 14.1129 851 97.4277 798.85 457.033
2840 0 64.4695 12.8588 829 98.7141 798.181 453.961
2841 0 69.3298 15.6066 1082 94.5675 798.731 454.859
2842 0 69.5435 17.2842 1202 92.8062 798.839 454.876
2843 0 72.1762 16.6537 1202 94.7288 799.933 449.216
2844 0 72.4119 23.4354 1697 88.3919 799.746 451.163
2845 0 76.5327 16.9601 1298 94.7388 800.707 442.69
2846 0 83.6752 18.6077 1557 93.9717 801.301 442.78
2847 0 80.4032 14.5268 1168 98.792 802.443 444.503
2848 0 84.3669 14.4014 1215 100.103 802.585 439.298
2849 0 87.377 15.2214 1330 98.5744 803.731 443.046
2850 0 87.3422 13.9337 1217 102.146 804.041 435.205
2851 1 48.0803 15.1621 729 96.1427 804.126 457.37
2852 0 50.2072 13.3845 672 97.619 804.277 457.204
2853 0 49.0263 14.1149 692 97.9162 804.558 452.269
2854 0 51.0649 14.413 736 97.3139 804.724 451.611
2855 0 53.1748 11.622 618 103.063 804.785 451.584
2856 0 56.2561 15.5539 875 96.2366 804.963 450.743
2857 0 57.1402 10.273 587 103.046 805.484 453.78
2858 0 59.0895 15.2988 904 96.6029 805.202 460.592
2859 0 60.1956 13.2069 795 99.4252 805.723 466.244
2860 0 62.3042 15.0873 940 98.3457 806.983 464.072
2861 0 64.3369 12.4345 800 102.738 805.441 461.626
2862 0 64.3369 12.4812 803 154.828 804.448 461.742
2863 0 69.4474 14.6442 1017 99.7611 806.219 463.299
2864 0 71.622 15.6656 1122 100.553 806.321 457.31
2865 0 77.7362 19.5404 1519 94.16 805.423 464.64
2866 0 75.21 12.9637 975 105.591 805.062 455.463
2867 0 79.5723 12.8939 1026 105.042 804.546 456.715
2868 0 81.5349 11.3326 924 106.443 804.235 460.89
2869 0 87.5158 16.6484 1457 100.284 803.616 457.946
2870 0 91.3197 20.7294 1893 94.9334 803.514 457.488
2871 0 93.4216 17.3193 1618 99.0204 802.873 455.674
2872 1 49.1215 11.7464 577 102.409 802.234 472.426
2873 0 51.3417 14.5301 746 97.2131 802.184 474.223
2874 0 52.0967 10.0966 526 102.435 801.456 472.224
2875 0 52.0967 10.0198 522 143.32 800.421 472.199
2876 0 54.2249 10.9359 593 105.583 800.137 469.314
2877 0 54.1306 12.5622 680 103.943 799.613 462.866
2878 0 58.1226 11.8198 687 103.342 798.479 464.761
2879 0 61.0833 15.1596 926 98.9935 799.346 465.342
2880 0 63.1608 16.9726 1072 97.3246 798.913 460.398
2881 0 66.137 18.2349 1206 95.4685 798.13 461.298
2882 0 68.189 12.7147 867 102.608 798.469 455.12
2883 0 67.2083 11.8438 796 104.319 796.995 454.323
2884 0 72.2987 18.3267 1325 96.9434 798.799 448.465
2885 0 74.6128 13.684 1021 103.64 798.825 446.772
2886 0 76.2211 15.7568 1201 100.19 800.416 451.505
2887 0 80.2712 14.7002 1180 100.862 801.447 446.932
2888 0 80.4318 13.9621 1123 103.485 801.753 447.407
2889 0 86.9451 16.4817 1433 98.2107 802.29 448.938
2890 0 89.5647 17.5516 1572 98.3785 803.679 444.279
2891 0 87.3056 18.0401 1575 99.6368 804.302 441.024
2892 0 91.3976 15.5912 1425 101.989 805.055 441.493
2893 0 94.7544 13.2553 1256 104.215 805.397 443.651
2894 0 99.996 22.4009 2240 93.8812 804.869 432.336
2895 1 54.2451 11.5033 624 102.851 806.856 461.768
2896 0 53.1435 10.7633 572 104.607 806.552 460.705
2897 0 55.3985 10.9028 604 101.022 805.161 455.806
2898 0 55.0814 13.2349 729 101.615 808.911 460.409
2899 0 62.2314 15.7316 979 96.764 808.408 460.503
2900 0 62.2338 14.6062 909 98.5974 808.147 459.747
2901 0 63.1416 17.3578 1096 95.2199 808.765 462.215
2902 0 66.0366 19.5346 1290 93.1411 808.163 458.943
2903 0 67.2328 15.186 1021 98.952 808.516 457.029
2904 0 69.1242 14.4667 1000 99.165 808.225 461.375
2905 0 72.2904 14.8568 1074 99.5223 807.836 455.16
2906 0 75.1341 13.3095 1000 100.047 808.31 461.945
2907 0 77.349 14.997 1160 99.0147 807.06 460.285
2908 0 79.2946 18.2484 1447 95.4616 806.475 462.854
2909 0 77.4064 11.9887 928 105.115 806.806 457.119
2910 0 84.2363 16.6199 1400 98.6036 806.231 460.376
2911 0 85.8975 15.0412 1292 100.929 805.731 458.084
2912 0 85.2989 11.1725 953 107.023 805.75 453.553
2913 0 91.1583 19.0986 1741 96.4118 805.236 449.966
2914 0 93.205 12.6817 1182 103.272 804.728 453.467
2915 1 47.476 11.311 537 101.19 804.486 474.808
2916 0 48.291 13.0045 628 101.858 802.876 471.296
2917 0 51.0622 15.628 798 97.6817 800.103 472.665
2918 0 52.0417 14.7574 768 98.5352 800.039 473.159
2919 0 55.0688 16.4158 904 94.99 800.018 462.99
2920 0 56.2948 13.1984 743 100.653 798.838 466.545
2921 0 55.0551 11.3704 626 103.845 798.663 467.569
2922 0 58.2484 17.7001 1031 95.5529 798.342 464.853
2923 0 61.3323 15.2448 935 98.2438 797.612 462.192
2924 0 62.2931 14.0305 874 99.1396 797.562 464.208
2925 0 68.3796 18.5728 1270 93.4016 798.202 457.808
2926 0 65.1294 14.8013 964 98.5612 798.868 457.961
2927 0 68.2341 16.2675 1110 97.1126 797.893 457.407
2928 0 69.2024 15.9099 1101 97.7057 799.274 453.413
2929 0 73.2158 18.985 1390 94.9683 798.845 452.306
2930 0 76.1699 23.5657 1795 89.9978 799.654 448.264
2931 0 74.2125 14.9031 1106 100.263 800.04 451.138
2932 0 76.3167 15.5798 1189 99.7014 801.213 449.636
2933 0 79.3511 16.887 1340 97.3836 801.502 451.186
2934 0 82.4973 18.7036 1543 94.6714 802.574 448.517
2935 0 83.3646 12.3794 1032 102.212 802.585 445.148
2936 0 87.2999 15.3608 1341 99.1469 803.379 446.799
2937 0 91.5418 14.9549 1369 99.9196 804.259 439.902
2938 1 48.1197 10.4323 502 103.213 805.072 460.343
2939 0 53.222 11.1796 595 101.545 807.933 455.894
2940 0 49.1907 7.82669 385 107.842 808.709 454.787
2941 0 53.2874 13.0613 696 100.48 808.991 455.881
2942 0 52.3937 14.9636 784 96.0076 808.251 461.068
2943 0 52.1355 11.4893 599 97.9516 806.339 458.694
2944 0 54.1419 14.2588 772 94.2772 807 460.825
2945 0 57.0769 13.7008 782 97.3325 807.3 455.967
2946 0 60.3076 24.4414 1474 85.3521 807.345 463.624
2947 0 59.0908 14.3677 849 96.0224 807.059 461.985
2948 0 64.0323 14.5395 931 95.4683 806.493 460.707
2949 0 64.2275 12.3934 796 98.8141 805.302 456.529
2950 0 69.039 12.645 873 97.8247 805.42 456.881
2951 0 71.0616 10.8357 770 99.9974 805.491 459.1
2952 0 71.1401 19.567 1392 90.5287 805.648 460.62
2953 0 75.1556 15.4746 1163 94.6586 805.368 458.009
2954 0 81.2637 17.3632 1411 92.3083 805.475 462.836
2955 0 77.1958 14.0811 1087 97.7985 804.364 454.479
2956 0 81.3246 13.44 1093 98.0494 804.375 452.79
2957 0 84.2858 15.9932 1348 95.1224 803.08 455.051
2958 0 90.3523 24.5815 2221 86.6051 803.059 453.475
2959 0 89.1301 16.8069 1498 92.2951 802.246 453.016
2960 0 91.4632 16.7062 1528 92.0857 802.878 455.551
2961 0 96.2269 18.9656 1825 90.7353 802.313 448.004
2962 0 97.2462 15.8155 1538 94.3218 802.353 450.841
2963 0 102.45 13.7335 1407 97.0163 799.932 450.439
2964 1 52.1395 9.80063 511 97.1644 800.675 469.004
2965 0 54.1602 15.8604 859 90.3737 800.166 469.347
2966 0 58.1236 15.5875 906 90.0232 800.255 466.475
2967 0 58.2816 9.93453 579 95.0639 798.846 464.791
2968 0 60.1445 12.5531 755 94.3192 799.18 461.555
2969 0 61.0493 8.95998 547 97.6015 798.839 462.633
2970 0 61.1426 11.7103 716 96.1774 798.7 457.263
2971 0 70.0836 21.2603 1490 86.4007 800.132 459.212
2972 0 71.0973 12.1242 862 95.0696 798.991 456.687
2973 0 71.127 14.1578 1007 94.3426 799.687 452.91
2974 0 73.6216 14.6968 1082 93.8189 800.857 452.652
2975 0 78.425 13.4778 1057 94.0426 801.139 454.141
2976 0 79.4134 16.8611 1339 91.3062 802.559 447.391
2977 0 80.4156 16.2904 1310 93.4191 803.25 445.195
2978 0 82.446 14.7854 1219 95.9902 804.802 445.952
2979 0 86.6885 11.4894 996 97.6024 805.069 445.472
2980 0 92.0706 16.0529 1478 94.7429 805.432 436.036
2981 0 94.9398 16.0839 1527 93.928 805.989 439.847
2982 0 93.4691 15.3206 1432 96.5943 805.955 436.804
2983 0 99.767 15.4861 1545 93.6511 807.176 442.694
2984 0 103.428 15.8082 1635 93.4557 806.76 441.839
2985 0 101.295 17.4935 1772 91.4272 807.06 432.929
2986 0 102.32 13.966 1429 94.3247 806.898 436.889
2987 0 107.494 15.8149 1700 96.0671 807.142 447.835
2988 1 56.2427 13.5484 762 98.9239 806.411 465.984
2989 0 58.1521 11.0572 643 101.714 806.089 468.152
2990 0 64.3549 16.9529 1091 94.6563 807.104 464.698
2991 0 63.4411 12.4998 793 100.491 806.433 467.828
2992 0 68.3372 14.926 1020 97.1373 805.853 466.749
2993 0 68.4643 13.1601 901 99.6792 805.822 466.012
2994 0 72.4464 18.0409 1307 94.4782 806.482 460.843
2995 0 74.4631 18.6401 1388 94.8653 806.522 458.966
2996 0 77.9706 17.2886 1348 96.2901 806.757 459.185
2997 0 77.5183 15.6479 1213 98.4699 805.176 457.129
2998 0 83.4192 18.437 1538 95.3069 805.489 456.822
2999 0 85.7605 18.4117 1579 94.6004 805.016 457.926
3000 0 81.2465 10.2897 836 103.616 803.879 456.585
3001 0 87.2535 17.5466 1531 95.5833 803.436 450.952
3002 0 90.3031 13.2886 1200 100.878 802.962 449.873
3003 0 94.5394 13.3489 1262 101.139 802.6 447.375
3004 0 95.4668 14.5705 1391 98.3896 801.032 454.866
3005 1 51.154 11.1624 571 97.7548 800.506 471.102
3006 0 55.1407 13.0756 721 100.818 800.05 471.592
3007 0 59.2422 15.8839 941 96.1275 798.818 472.169
3008 0 59.5165 18.2471 1086 94.3582 798.482 470.117
3009 0 59.1855 13.6013 805 101.166 797.701 468.595
3010 0 63.4254 18.0685 1146 95.1309 798.593 465.949
3011 0 64.2651 15.5917 1002 99.4371 798.116 463.882
3012 0 65.1278 15.1702 988 100.537 797.717 464.238
3013 0 68.3183 16.4817 1126 99.2602 797.348 460.429
3014 0 70.2386 12.8562 903 103.517 797.404 462.085
3015 0 74.0841 17.9256 1328 96.8396 798.575 460.518
3016 0 76.2172 13.8814 1058 102.822 798.188 456.268
3017 0 79.0919 15.8929 1257 100.562 798.357 455.122
3018 0 82.3772 18.9737 1563 97.961 798.964 454.266
3019 0 85.2805 16.4047 1399 100.676 799.934 449.272
3020 0 85.3369 13.5697 1158 105.972 800.616 447.952
3021 0 90.3144 19.1775 1732 99.2442 801.994 444.349
3022 0 92.5441 16.349 1513 102.619 802.422 447.095
3023 0 94.51 13.4695 1273 107.519 803.088 439.573
3024 0 98.583 14.0592 1386 105.442 802.711 442.399
3025 1 50.1272 14.922 748 102.58 803.455 467.324
3026 0 54.0542 12.0805 653 106.766 803.795 463.914
3027 0 54.4699 11.7129 638 108.284 805.749 460.961
3028 0 53.4613 14.5713 779 100.196 804.996 458.193
3029 0 58.1187 15.2791 888 98.3266 805.81 461.494
3030 0 61.1899 16.8165 1029 101.525 805.011 462.647
3031 0 64.0504 13.8797 889 105.555 804.838 462.247
3032 0 65.1908 14.68 957 105.03 804.257 466.419
3033 0 67.1889 18.2024 1223 100.5 805.11 462.953
3034 0 71.1455 14.5055 1032 104.333 804.689 465.178
3035 0 71.2152 17.5243 1248 100.542 804.458 466.877
3036 0 73.1952 18.3345 1342 98.9769 804.098 469.007
3037 0 74.0985 16.1677 1198 103.591 804.301 463.079
3038 0 77.1755 21.043 1624 97.4434 804.275 462.095
3039 0 80.3913 13.5711 1091 105.72 803.976 466.732
3040 0 81.3116 13.9341 1133 105.993 803.865 462.426
3041 0 85.2158 13.1783 1123 106.086 802.642 460.091
3042 0 87.1002 16.3375 1423 101.615 802.734 462.748
3043 0 92.8053 18.5011 1717 99.0705 802.098 460.343
3044 0 95.51 17.4223 1664 100.494 801.799 457.066
3045 0 98.3843 18.4277 1813 98.7772 801.408 452.578
3046 0 99.6862 17.0234 1697 97.9334 801.382 450.616
3047 0 104.554 15.7049 1642 98.6961 800.827 449.582
3048 0 109.39 15.2208 1665 99.2847 800.021 449.87
3049 1 55.4137 11.9104 660 99.8742 799.683 468.827
3050 0 59.2748 17.7141 1050 93.5629 798.682 470.687
3051 0 62.2143 16.8289 1047 95.3448 798.16 468.277
3052 0 63.5538 15.7819 1003 96.5364 797.684 469.5
3053 0 64.289 14.7926 951 98.8296 798.816 463.48
3054 0 68.5604 16.4527 1128 95.8555 797.89 463.659
3055 0 70.2779 17.5162 1231 94.9797 798.225 459.291
3056 0 70.2779 17.5304 1232 122.317 797.203 459.179
3057 0 74.3287 14.9471 1111 97.676 797.893 458.543
3058 0 74.0206 17.0223 1260 95.0492 798.104 449.7
3059 0 77.6323 16.7842 1303 95.0238 798.49 454.167
3060 0 81.5154 13.0037 1060 97.9849 799.629 455.992
3061 0 82.2874 14.6195 1203 96.3209 799.882 450.943
3062 0 88.5945 18.3984 1630 93.4761 799.697 444.588
3063 0 87.5597 17.5994 1541 94.5029 800.687 443.859
3064 0 90.8774 17.6612 1605 94.4417 801.363 441.807
3065 0 94.5575 15.948 1508 96.8481 802.241 438.529
3066 1 51.5673 8.99795 464 95.0431 803.711 467.034
3067 0 53.4172 12.3743 661 92.2224 803.752 463.696
3068 0 55.2001 12.9891 717 94.8828 803.018 465.176
3069 0 53.1586 11.7573 625 95.0304 802.234 462.501
3070 0 58.1076 16.9341 984 89.9746 802.952 463.062
3071 0 57.092 15.9042 908 91.9185 803.444 464.844
3072 0 62.2812 14.5951 909 92.3905 803.398 465.733
3073 0 61.0681 14.9505 913 93.9299 804.218 463.623
3074 0 64.0605 16.6717 1068 91.1901 803.78 467.98
3075 0 65.1407 10.4389 680 99.3765 804.4 464.726
3076 0 68.2496 14.1539 966 95.3012 804.02 464.385
3077 0 72.1989 14.1276 1020 95.6108 802.716 463.836
3078 0 72.3288 13.3695 967 96.5419 803.476 455.522
3079 0 76.5544 12.0568 923 96.9642 803.454 458.698
3080 0 79.6204 19.0906 1520 89.2441 804.149 456.47
3081 0 80.2106 14.811 1188 93.1153 803.68 457.635
3082 0 84.8662 15.2593 1295 92.7452 803.619 457.699
3083 0 86.3688 17.5295 1514 92.638 803.618 445.7
3084 0 88.3104 14.2226 1256 96.2739 802.896 446.326
3085 0 90.3943 13.2641 1199 97.95 802.467 447.466
3086 0 95.1886 13.1738 1254 97.2799 801.834 450.814
3087 1 50.5583 12.9751 656 93.9466 801.012 475.081
3088 0 50.2788 10.9987 553 98.0434 801.291 469.058
3089 0 56.6498 17.7406 1005 90.4388 801.125 473.011
3090 0 57.3369 15.6095 895 93.0078 800.879 460.798
3091 0 55.3484 12.322 682 98.0836 798.164 474.979
3092 0 55.2297 11.0629 611 96.9313 796.754 477.579
3093 0 58.2102 16.3889 954 92.9539 796.4 470.158
3094 0 60.3441 16.8699 1018 92.0825 796.414 470.352
3095 0 64.3507 12.2299 787 96.0241 795.183 466.922
3096 0 63.2594 15.0492 952 94.6607 795.751 462.821
3097 0 67.1797 14.6622 985 94.468 794.5 463.568
3098 0 69.3574 16.451 1141 92.8896 795.265 459.552
3099 0 69.2387 16.2481 1125 94.312 795.635 455.928
3100 0 74.1975 16.3078 1210 94.3876 796.189 453.978
3101 0 73.5038 11.9994 882 98.8968 797.306 456.607
3102 0 79.2017 14.1916 1124 96.9288 798.132 451.701
3103 0 84.6 17.3523 1468 93.1335 798.7 452.911
3104 0 83.2122 15.5746 1296 96.0077 798.74 451.127
3105 0 87.2268 16.8756 1472 94.824 799.534 448.315
3106 0 85.228 13.0356 1111 100.871 799.967 444.059
3107 0 87.3498 13.3944 1170 100.606 800.789 445.52
3108 0 92.3287 20.5028 1893 93.186 801.424 444.198
3109 0 90.4591 11.8728 1074 101.459 801.326 445.973
3110 0 88.1694 9.1188 804 103.209 801.057 447.488
3111 0 99.3861 9.1864 913 103.636 801.979 442.326
3112 0 100.465 16.9114 1699 97.3614 802.783 440.806
3113 1 60.2064 14.6828 884 93.4683 802.688 464.964
3114 0 58.2778 15.0315 876 95.5993 803.533 459.471
3115 0 57.136 10.6588 609 100.417 802.947 462.622
3116 0 62.122 16.0813 999 94.2172 802.532 462.939
3117 0 64.0977 17.2393 1105 91.676 802.939 468.094
3118 0 66.2074 11.751 778 97.7352 802.468 466.927
3119 0 71.1167 19.475 1385 90.0347 802.978 461.942
3120 0 70.1332 13.5314 949 96.2202 802.504 465.893
3121 0 69.2454 12.9684 898 98.8719 802.53 462.951
3122 0 76.3067 22.6848 1731 88.6828 803.068 461.449
3123 0 77.1312 16.2969 1257 94.969 802.956 458.209
3124 0 80.204 17.468 1401 94.1899 802.42 452.355
3125 0 80.3177 14.1687 1138 98.5474 801.876 452.926
3126 0 83.553 13.4047 1120 98.2205 802.719 461.676
3127 0 85.38 17.2054 1469 95.6106 801.336 458.734
3128 0 88.3986 17.8396 1577 95.6855 801.386 453.689
3129 0 89.3205 13.9834 1249 100.147 800.317 449.34
3130 0 97.4742 20.7029 2018 91.6254 800.612 453.979
3131 0 98.4558 14.9204 1469 96.7454 799.457 453.426
3132 0 101.332 17.7535 1799 94.4819 799.085 448.539
3133 0 103.298 18.8581 1948 93.6212 799.538 448.773
3134 1 55.1236 12.1908 672 101.182 796.918 464.424
3135 0 59.1743 11.5084 681 101.273 796.882 460.148
3136 0 55.3073 9.9806 552 102.21 797.141 462.158
3137 0 60.316 12.0034 724 98.4876 796.619 464.732
3138 0 63.3074 19.6028 1241 92.2135 796.199 457.549
3139 0 60.3178 13.3626 806 98.7072 796.609 458.722
3140 0 69.2362 23.0082 1593 87.7872 797.236 461.029
3141 0 67.3148 17.4702 1176 94.5842 797.143 453.398
3142 0 72.8248 14.9812 1091 96.5261 796.689 448.023
3143 0 77.2106 17.5494 1355 93.4458 797.38 449.584
3144 0 75.3457 17.5989 1326 93.1041 796.919 451.369
3145 0 78.4911 14.2564 1119 97.6345 797.501 450.588
3146 0 81.3042 16.6166 1351 95.1762 797.493 445.574
3147 0 85.534 17.2212 1473 94.3354 798.722 444.953
3148 0 84.3863 16.0571 1355 98.1247 798.734 439.736
3149 0 93.3014 22.004 2053 90.7667 799.184 443.742
3150 0 91.145 17.9933 1640 94.0707 799.418 444.763
3151 0 95.2781 16.4361 1566 96.0421 799.791 440.638
3152 0 97.1878 15.043 1462 96.9193 800.817 443.534
3153 0 102.279 17.7064 1811 96.1756 801.769 434.48
3154 0 103.554 15.557 1611 98.8852 801.323 433.883
3155 0 106.881 13.4729 1440 101.382 802.534 429.238
3156 1 60.1788 13.9086 837 98.7527 802.829 455.726
3157 0 59.1681 14.2982 846 99.1667 802.859 457.908
3158 0 64.1738 10.4404 670 102.997 802.048 461.315
3159 0 70.2247 18.5547 1303 92.9117 803.002 461.438
3160 0 70.4447 19.235 1355 93.3756 803.501 456.078
3161 0 72.1518 11.4342 825 102.865 802.716 454.613
3162 0 76.2558 14.9759 1142 98.3441 803.677 459.729
3163 0 77.1173 15.2495 1176 99.0051 803.499 456.645
3164 0 79.1311 16.7823 1328 98.4774 802.726 456.852
3165 0 80.5634 15.7764 1271 101.424 802.812 450.092
3166 0 85.1974 14.3432 1222 103.232 802.44 453.757
3167 0 89.3775 17.8569 1596 99.557 802.434 449.702
3168 0 87.3858 18.5385 1620 98.1012 801.628 458.149
3169 0 90.4183 13.4265 1214 106.639 801.493 453.142
3170 0 94.3254 15.5631 1468 104.46 801.567 450.82
3171 0 97.5426 13.8094 1347 107.01 800.995 447.166
3172 0 100.284 14.4489 1449 106.544 800.633 442.631
3173 1 49.3857 12.1493 600 108.392 798.58 466.348
3174 0 53.1463 9.18219 488 108.715 798.639 469.658
3175 0 57.233 12.65 724 103.522 798.156 468.49
3176 0 58.1593 13.2739 772 103.991 798.101 465.299
3177 0 61.1134 11.4868 702 103.768 796.068 464.785
3178 0 65.3477 12.4258 812 103.651 796.081 470.674
3179 0 66.4598 14.836 986 100.948 795.546 466.319
3180 0 69.2439 14.4995 1004 102.162 796.132 463.212
3181 0 71.2498 12.4913 890 104.473 796.29 462.849
3182 0 75.1429 18.1388 1363 95.7814 795.658 465.825
3183 0 78.2787 17.5782 1376 97.3387 796.564 458.94
3184 0 79.2052 16.2363 1286 96.7302 795.785 457.001
3185 0 76.1274 20.9123 1592 94.6891 796.423 452.027
3186 0 77.1644 20.5665 1587 95.4253 797.237 446.083
3187 0 87.1923 17.0657 1488 97.4798 797.867 444.653
3188 0 89.1861 15.3163 1366 99.2006 797.638 442.256
3189 0 94.331 17.6718 1667 96.3479 797.506 442.18
3190 0 94.2819 15.9097 1500 100.939 797.522 444.359
3191 0 100.33 16.6949 1675 99.9618 798.549 441.827
3192 0 101.157 15.9456 1613 101.102 798.793 435.299
3193 0 108.364 14.4605 1567 102.048 799.736 435.721
3194 0 110.335 13.5134 1491 104.001 800.812 429.643
3195 1 60.0319 11.5938 696 100.144 800.859 454.849
3196 0 66.2478 16.71 1107 94.5727 801.501 453.558
3197 0 69.0932 17.1797 1187 91.1837 801.959 459.268
3198 0 73.3093 13.6545 1001 95.3606 802.771 457.703
3199 0 68.1377 8.39477 572 102.757 802.974 451.659
3200 0 68.1377 8.58556 585 129.349 804.01 451.759
3201 0 78.1624 17.3101 1353 92.932 803.578 453.162
3202 0 82.2054 14.6584 1205 94.3311 804.212 456.046
3203 0 85.3476 12.2323 1044 97.7404 803.28 452.434
3204 0 85.2408 10.1595 866 100.837 802.968 446.082
3205 0 88.2461 15.9667 1409 94.9638 802.996 451.259
3206 0 89.4079 11.0728 990 101.172 802.204 446.14
3207 0 94.5192 12.3361 1166 100.216 802.872 444.373
3208 0 96.401 14.8961 1436 97.7235 801.868 449.201
3209 0 94.3425 15.1257 1427 98.1163 801.762 447.26
3210 0 100.273 15.3083 1535 97.7726 801.178 450.111
3211 0 104.326 13.4961 1408 102.205 801.535 446.347
3212 0 107.236 14.4728 1552 99.835 801.639 438.848
3213 0 115.476 20.4977 2367 94.654 802.194 447.364
3214 0 119.449 18.7193 2236 95.2017 801.708 445.67
3215 0 124.881 16.6159 2075 96.9359 800.313 447.448
3216 1 68.2443 12.1182 827 97.2999 799.198 472.473
3217 0 69.3836 8.97907 623 102.499 798.498 461.063
3218 0 75.4108 11.2981 852 98.358 799.021 469.039
3219 0 79.5076 16.7657 1333 93.5904 797.87 457.704
3220 0 81.5481 12.9985 1060 97.584 797.858 461.221
3221 0 81.4464 15.4949 1262 95.8241 797.326 461.938
3222 0 87.4378 19.1908 1678 89.9887 796.273 464.155
3223 0 87.738 16.5949 1456 93.8201 796.052 457.361
3224 0 90.7281 15.8496 1438 94.0292 796.62 454.907
3225 0 95.5145 15.4322 1474 94.9104 795.685 451.599
3226 0 97.5708 18.4789 1803 90.4526 796.515 453.371
3227 0 101.389 21.8269 2213 86.9846 796.156 454.476
3228 0 105.302 11.1679 1176 98.131 796.134 446.952
3229 0 107.832 16.4145 1770 92.3944 797.266 449.215
3230 0 109.625 13.2178 1449 98.1567 797.849 438.242
3231 0 114.065 12.1247 1383 99.6717 797.828 432.577
3232 0 117.942 16.1859 1909 94.6726 798.643 436.914
3233 0 124.075 16.8043 2085 94.0945 798.906 430.634
3234 1 67.5967 11.258 761 92.0053 798.98 460.357
3235 0 73.6717 11.9856 883 91.8924 799.988 460.552
3236 0 72.2056 14.3064 1033 91.9206 797.98 458.462
3237 0 73.481 9.03635 664 97.997 799.768 454.358
3238 0 74.254 11.0028 817 95.4663 800.825 456.897
3239 0 77.2401 13.4386 1038 93.7466 801.586 456.39
3240 0 78.6809 13.345 1050 92.9924 802.55 457.838
3241 0 83.4858 12.9244 1079 95.5385 802.849 451.698
3242 0 83.4257 13.7368 1146 96.3456 804.174 445.619
3243 0 88.4542 14.5612 1288 94.8703 804.555 446.866
3244 0 88.2936 14.7009 1298 95.4854 804.658 445.866
3245 0 92.6076 11.1978 1037 96.0964 805.39 457.759
3246 0 93.534 13.7597 1287 96.7405 804.468 445.687
3247 0 98.8689 14.5546 1439 96.4364 804.089 443.543
3248 0 96.4427 10.0163 966 101.688 804.363 446.675
3249 0 102.582 11.6687 1197 100.173 804.749 444.376
3250 0 106.473 18.831 2005 93.3312 804.22 444.745
3251 0 110.505 14.3252 1583 96.2685 803.292 446.581
3252 0 114.594 17.8195 2042 94.2282 804.608 442.245
3253 1 66.3279 13.1166 870 92.6667 803.163 468.538
3254 0 65.23 13.7207 895 92.4223 802.931 466.972
3255 0 68.6369 11.2039 769 95.0676 803.338 466.542
3256 0 69.5292 12.5703 874 94.4897 803.209 464.246
3257 0 74.5455 15.9232 1187 91.38 803.237 462.402
3258 0 75.4766 14.8655 1122 92.5054 801.818 460.684
3259 0 76.4753 12.0431 921 95.2204 801.857 461.111
3260 0 79.362 19.1401 1519 88.3074 801.668 462.496
3261 0 80.7319 12.8945 1041 94.3756 800.704 462.667
3262 0 85.5465 14.0158 1199 94.0325 800.476 459.772
3263 0 85.6473 15.7623 1350 93.6496 799.798 454.688
3264 0 83.3813 11.0456 921 99.4365 798.977 454.126
3265 0 89.5767 13.921 1247 96.1804 799.719 452.703
3266 0 93.3406 14.7631 1378 96.5617 799.205 447.849
3267 0 92.5661 13.7091 1269 98.0772 797.571 445.887
3268 0 98.5383 15.1413 1492 96.9504 798.72 444.716
3269 0 98.5581 13.1699 1298 98.9145 798.997 446.691
3270 0 104.782 16.205 1698 94.9158 797.833 435.555
3271 1 58.3268 13.03 760 94.3895 797.422 461.499
3272 0 58.4974 15.864 928 92.2877 797.155 458.477
3273 0 59.4547 10.0244 596 98.5151 797.564 456.644
3274 0 63.2611 15.5388 983 92.7182 797.752 455.635
3275 0 66.4589 21.7879 1448 87.2093 798.617 451.379
3276 0 67.2667 18.5084 1245 91.0281 798.483 452.108
3277 0 66.3225 12.8312 851 97.396 798.778 452.089
3278 0 72.2611 14.8904 1076 94.9006 798.949 449.689
3279 0 72.2046 18.1706 1312 92.1059 800.352 448.374
3280 0 71.3869 13.798 985 98.3706 800.596 450.308
3281 0 73.1537 11.674 854 101.246 801.682 449.022
3282 0 78.2002 14.8465 1161 98.3032 802.224 445.974
3283 0 78.5178 15.0412 1181 99.2532 802.876 444.34
3284 0 81.182 16.3829 1330 96.7977 803.714 443.432
3285 0 84.3474 15.8867 1340 98.0112 804.928 443.34
3286 0 86.3229 10.7735 930 103.711 803.552 446.932
3287 0 91.2653 14.4085 1315 101.043 803.992 443.16
3288 0 91.3094 14.1387 1291 101.004 804.35 446.394
3289 0 95.5209 17.2946 1652 96.9207 804.625 443.769
3290 1 54.1176 12.0294 651 100.866 802.674 465.53
3291 0 54.1455 14.1286 765 98.4157 804.217 467.082
3292 0 56.1184 12.4023 696 102.047 804.751 462.569
3293 0 59.232 16.3088 966 93.4027 804.209 465.69
3294 0 61.1593 15.5005 948 95.7563 804.746 463.735
3295 0 59.1784 12.6059 746 101.241 804.728 462.146
3296 0 61.2026 11.3067 692 102.156 804.282 462.571
3297 0 65.1949 13.1912 860 98.8209 803.295 464.095
3298 0 70.2212 13.0872 919 99.5822 803.202 462.896
3299 0 71.3024 13.9827 997 98.9418 802.906 460.114
3300 0 72.1146 12.0641 870 101.816 802.191 460.036
3301 0 75.2339 13.9432 1049 99.7865 801.002 458.336
3302 0 76.2871 12.4792 952 100.959 800.399 454.082
3303 0 77.2566 14.5101 1121 98.8376 800.57 454.669
3304 0 85.3342 15.0116 1281 97.7838 800.34 454.826
3305 0 85.2036 13.7201 1169 100.089 800.508 452.153
3306 0 86.218 12.8627 1109 101.025 799.86 454.003
3307 0 91.1508 18.0251 1643 96.2629 801.216 445.163
3308 0 94.1966 16.0621 1513 97.8817 799.726 451.104
3309 0 97.3162 15.9069 1548 97.8501 800.257 446.63
3310 0 98.279 14.9065 1465 98.4628 800.705 445.859
3311 1 55.2449 12.9967 718 98.4735 798.563 466.177
3312 0 54.1028 11.2933 611 102.594 798.123 461.746
3313 0 57.2255 12.1275 694 101.017 798.97 459.993
3314 0 59.0899 13.6741 808 98.672 798.973 462.868
3315 0 61.2633 13.9398 854 98.9555 799.153 456.895
3316 0 59.4151 14.7774 878 98.8895 800.262 456.712
3317 0 64.2641 15.3585 987 97.0962 801.477 458.915
3318 0 65.3 19.7856 1292 93.0372 800.499 456.015
3319 0 71.3043 12.9025 920 99.1706 801.284 455.841
3320 0 67.2299 14.086 947 100.49 801.299 450.993
3321 0 71.2995 18.9202 1349 93.5864 801.652 453.577
3322 0 71.2619 10.9034 777 103.776 802.315 451.091
3323 0 76.4293 11.1476 852 102.616 803.757 451.001
3324 0 79.4053 15.7924 1254 96.8724 804.008 451.551
3325 0 82.2599 15.451 1271 96.819 803.794 450.644
3326 0 83.3609 14.5032 1209 98.4086 804.655 447.498
3327 0 87.2998 20.401 1781 92.84 804.974 444.661
3328 0 90.3204 16.6297 1502 96.5253 805.492 446.011
3329 0 91.1851 19.1479 1746 93.618 805.09 447.686
3330 0 96.1801 15.6061 1501 96.6256 805.089 447.783
3331 0 98.3509 17.6104 1732 94.2598 806.383 446.494
3332 0 100.261 15.4397 1548 99.3411 805.236 439.5
3333 0 105.348 15.8902 1674 98.4373 806.819 440.282
3334 0 109.413 14.2762 1562 99.4411 805.793 443.829
3335 0 113.358 19.7339 2237 94.2012 806.746 435.856
3336 0 116.301 19.011 2211 95.3392 806.509 439.82
3337 1 63.4127 16.9998 1078 91.5761 806.644 460.344
3338 0 67.438 12.011 810 96.1642 806.218 464.232
3339 0 66.2058 12.5367 830 97.2663 805.787 462.645
3340 0 71.3364 13.0789 933 95.7728 804.447 462.41
3341 0 77.4421 17.4582 1352 90.1812 804.981 462.234
3342 0 79.3456 14.796 1174 93.2819 804.168 457.55
3343 0 78.2009 14.872 1163 93.8538 804.04 458.442
3344 0 80.1918 10.8615 871 97.0574 803.667 461.422
3345 0 85.3698 19.48 1663 88.3404 803.216 459.794
3346 0 86.3336 17.861 1542 90.4209 803.33 458.075
3347 0 88.1545 14.4973 1278 95.2347 802.625 452.077
3348 0 88.3299 10.6646 942 100.232 801.987 450.282
3349 0 95.42 15.1855 1449 94.9331 802.625 449.616
3350 0 101.244 19.1419 1938 91.0253 802.612 446.281
3351 0 97.3163 13.2866 1293 98.7471 802.358 445.861
3352 0 103.371 14.9849 1549 95.8812 801.338 446.199
3353 1 55.184 8.49885 469 99.774 802.064 469.887
3354 0 55.3393 10.6434 589 98.4109 802.975 465.464
3355 0 58.3215 18.0722 1054 92.2097 802.355 459.729
3356 0 59.3455 16.0754 954 94.5975 801.138 462.061
3357 0 62.209 16.7821 1044 93.4071 800.979 462.644
3358 0 63.1086 12.9142 815 99.0908 801.536 458.764
3359 0 64.4252 16.8412 1085 95.4175 801.671 458.987
3360 0 70.3839 16.2821 1146 95.5846 802.031 450.677
3361 0 72.2307 19.853 1434 91.7594 802.02 453.244
3362 0 70.4226 18.247 1285 94.2903 802.31 455.118
3363 0 68.2118 11.0098 751 104.212 803.515 449.45
3364 0 74.2211 13.6619 1014 101.784 804.413 447.247
3365 0 75.2726 15.052 1133 100.357 804.597 448.893
3366 0 82.5504 18.7158 1545 94.5948 805.381 451.324
3367 0 82.3391 16.0313 1320 100.477 805.545 448.214
3368 0 85.1962 16.3622 1394 100.062 806.009 448.571
3369 0 88.2194 16.3343 1441 101.546 805.944 440.897
3370 0 91.4048 17.7234 1620 99.3975 806.421 445.222
3371 0 94.171 14.0914 1327 105.6 806.534 440.107
3372 0 93.0998 15.0376 1400 104.591 807.425 441.839
3373 0 99.2077 15.9161 1579 102.981 807.972 439.744
3374 0 101.256 16.2361 1644 103.116 807.67 442.765
3375 0 106.231 16.1064 1711 102.089 806.957 441.413
3376 1 57.1287 13.6009 777 104.678 807.774 458.291
3377 0 60.5061 16.9074 1023 99.1818 807.445 460.851
3378 0 62.2088 14.1138 878 103.236 807.784 464.054
3379 0 60.2507 11.8173 712 108.935 807.1 458.25
3380 0 67.4074 13.7522 927 102.604 807.006 465.913
3381 0 70.2321 17.1147 1202 100.064 807.286 460.165
3382 0 69.3235 15.6801 1087 101.891 806.202 462.612
3383 0 72.2397 13.5106 976 104.978 806.011 460.778
3384 0 70.1869 11.1274 781 108.357 805.748 454.851
3385 0 80.2469 22.7922 1829 92.7222 805.125 460.247
3386 0 82.2548 14.8806 1224 101.613 804.059 456.4
3387 0 82.2548 14.9414 1229 152.279 803.068 456.482
3388 0 86.317 20.0308 1729 95.6287 802.67 448.067
3389 0 88.165 16.6052 1464 97.2104 802.373 456.492
3390 0 94.4735 18.1744 1717 94.9802 802.91 452.817
3391 0 94.2318 21.1181 1990 93.6156 802.79 450.579
3392 0 100.575 18.2749 1838 94.8917 802.206 450.419
3393 0 96.4941 15.1926 1466 99.3029 802.448 444.321
3394 1 49.2353 11.4349 563 95.7922 802.096 468.597
3395 0 55.2253 13.7618 760 94.1776 802.249 465.616
3396 0 57.1978 12.0634 690 95.8536 802.142 462.77
3397 0 58.2595 14.6757 855 94.4854 801.126 460.258
3398 0 59.1289 13.2084 781 95.4238 800.781 459.455
3399 0 64.3336 15.2642 982 92.4084 801.206 460.952
3400 0 65.2847 15.9762 1043 91.6222 801.274 461.094
3401 0 66.2912 14.376 953 94.0703 800.899 458.119
3402 0 67.2264 14.6371 984 94.7602 801.189 453.947
3403 0 69.2566 12.9374 896 97.8237 801.315 452.068
3404 0 69.3307 13.3563 926 99.1372 802.194 453.887
3405 0 73.2892 11.4887 842 101.791 802.343 448.793
3406 0 76.2921 13.6187 1039 98.873 802.548 447.963
3407 0 74.2204 11.3177 840 102.575 803.037 442.519
3408 0 78.4044 14.7696 1158 98.0112 802.934 446.218
3409 0 83.2754 17.1719 1430 94.8832 803.785 445.413
3410 0 86.3877 29.4023 2540 86.0555 803.941 438.81
3411 0 85.3092 13.7617 1174 100.151 803.557 441.664
3412 0 88.4015 14.0495 1242 100.265 804.506 439.261
3413 0 90.2049 18.0035 1624 94.4273 805.621 445.676
3414 0 94.2151 18.3941 1733 95.2885 806.885 439.36
3415 0 98.2309 15.3719 1510 99.2795 808.296 436.782
3416 0 101.257 15.2286 1542 99.476 808.365 433.923
3417 0 104.397 13.4296 1402 100.713 807.943 438.134
3418 0 107.364 16.0854 1727 98.7585 808.463 430.399
3419 1 61.4983 17.0736 1050 94.321 807.422 461.738
3420 0 59.4175 12.4038 737 100.73 806.836 458.396
3421 0 66.1089 17.0023 1124 94.5311 807.679 458.169
3422 0 62.3431 13.0568 814 100.958 806.017 458.904
3423 0 66.3309 14.0809 934 98.985 805.573 458.005
3424 0 69.4034 22.4052 1555 89.7929 806.727 461.649
3425 0 70.3674 14.8791 1047 98.2111 806.336 455.277
3426 0 75.1856 14.4309 1085 97.4175 805.77 458.994
3427 0 75.3854 16.8468 1270 95.7748 806.165 453.872
3428 0 81.5616 24.9382 2034 85.8668 807.154 462.394
3429 0 81.4601 16.2288 1322 96.2905 805.916 453.136
3430 0 87.4178 23.2332 2031 86.7612 804.868 454.633
3431 0 86.1218 16.1167 1388 96.6945 803.328 450.187
3432 0 89.4796 18.7976 1682 92.6201 803.962 453.888
3433 0 89.2861 17.0575 1523 96.891 803.545 449.772
3434 0 96.2963 15.3381 1477 97.0609 803.082 445.156
3435 0 97.2429 17.7185 1723 94.9826 802.303 445.635
3436 0 99.377 15.5267 1543 97.6086 801.347 444.045
3437 0 103.236 19.2666 1989 92.9537 802.24 442.993
3438 0 104.162 12.9125 1345 98.661 800.845 433.428
3439 0 111.315 18.0749 2012 92.8603 801.196 433.755
3440 0 114.273 19.6897 2250 91.432 801.615 435.687
3441 0 117.43 22.6177 2656 89.1122 801.826 437.617
3442 0 120.443 18.5151 2230 92.5368 801.018 430.777
3443 0 123.303 14.1603 1746 96.5533 801.108 431.46
3444 0 122.439 12.7247 1558 96.8524 800.957 434.38
3445 1 131.733 18.2338 2402 96.0895 802.148 413.192
3446 0 140.259 13.853 1943 97.7036 801.78 425.048
3447 1 76.4284 13.7907 1054 92.2059 801.361 455.202
3448 0 76.2582 9.06132 691 98.5601 801.039 447.197
3449 0 82.0814 15.4115 1265 92.4743 801.579 446.402
3450 0 81.129 10.9825 891 97.5679 801.561 445.769
3451 0 88.2556 16.2029 1430 92.0664 802.115 443.845
3452 0 88.138 13.1952 1163 96.7773 803.204 439.605
3453 0 91.1553 18.2107 1660 91.9777 803.213 439.69
3454 0 94.3332 17.788 1678 93.4291 803.83 434.884
3455 0 97.4705 17.8721 1742 92.1372 803.865 440.583
3456 0 96.6122 13.725 1326 98.4404 804.99 431.787
3457 0 103.452 12.4792 1291 98.904 806.313 427.6
3458 0 102.649 9.33279 958 101.984 806.09 432.427
3459 0 109.658 14.7641 1619 97.2545 806.644 419.021
3460 0 116.204 12.4178 1443 99.4089 806.905 425.342
3461 0 117.743 13.7928 1624 98.0363 806.93 421.012
3462 0 124.731 18.3595 2290 91.4546 806.902 433.123
3463 1 65.416 14.5836 954 92.3354 805.763 456.025
3464 0 68.2972 14.6126 998 90.3527 805.423 462.436
3465 0 73.2879 18.1203 1328 88.8471 805.672 461.213
3466 0 73.2455 12.6697 928 94.6692 804.601 460.238
3467 0 74.2336 12.5415 931 96.8614 805.034 452.334
3468 0 80.2017 13.5159 1084 94.9207 804.949 455.882
3469 0 84.4049 11.1605 942 96.8917 805.899 459.348
3470 0 85.4647 22.8047 1949 87.2555 805.062 458.378
3471 0 88.4702 17.4522 1544 91.5337 805.142 458.073
3472 0 92.7613 16.0196 1486 93.819 804.998 453.826
3473 0 93.6454 15.3878 1441 94.1096 804.214 454.255
3474 0 93.5485 15.3931 1440 96.3236 803.227 443.981
3475 0 97.3998 14.4045 1403 97.459 802.909 445.207
3476 0 97.5838 13.9572 1362 98.3766 802.001 443.811
3477 1 56.2667 9.31279 524 95.5725 802.218 471.559
3478 0 59.6857 8.1259 485 97.9691 801.468 469.219
3479 0 61.5708 11.8725 731 96.1669 799.689 464.133
3480 0 67.7127 19.0954 1293 87.9412 799.968 467.087
3481 0 64.628 11.3728 735 98.7565 799.839 460.58
3482 0 69.2669 18.7391 1298 90.7018 799.43 459.52
3483 0 68.5068 12.5535 860 94.6686 797.871 467.862
3484 0 70.3359 13.5493 953 95.617 799.556 459.935
3485 0 74.2429 12.8362 953 95.4617 799.931 457.605
3486 0 75.2695 11.864 893 96.9597 799.901 460.104
3487 0 75.4968 10.9938 830 99.8446 800.911 451.096
3488 0 79.5105 11.3067 899 98.6407 800.704 454.119
3489 0 81.3 10.1968 829 99.123 801.264 455.767
3490 0 84.4097 15.3774 1298 95.7704 800.889 448.02
3491 0 87.2546 20.847 1819 89.9351 802.136 449.353
3492 0 89.6204 13.4568 1206 98.8308 801.329 442.74
3493 0 94.5472 15.2199 1439 96.7957 801.445 439.601
3494 0 96.504 12.7352 1229 99.2352 800.845 440
3495 1 55.4705 14.35 796 92.6231 801.737 466.99
3496 0 59.7036 16.8834 1008 89.5417 803.271 461.682
3497 0 55.1638 12.8708 710 96.4211 801.362 461.007
3498 0 60.1522 15.5107 933 93.9336 802.403 459.516
3499 0 61.2957 14.2098 871 95.3352 802.958 461.416
3500 0 59.2114 15.1829 899 95.6218 803.648 458.613
3501 0 61.09 12.1951 745 98.0765 804.589 460.042
3502 0 66.5316 14.6096 972 96.0463 803.914 457.486
3503 0 70.3954 15.5834 1097 92.4713 804.047 461.973
3504 0 70.2373 16.8144 1181 94.2938 804.064 459.715
3505 0 70.5083 15.289 1078 97.6976 804.768 458.818
3506 0 72.2917 17.8582 1291 96.1681 805.323 455.888
3507 0 77.2018 12.6033 973 101.334 804.683 460.108
3508 0 78.2732 14.1172 1105 101.533 805.058 452.334
3509 0 80.2956 15.8166 1270 97.5583 804.034 459.74
3510 0 86.3335 14.0618 1214 98.2801 803.703 458.008
3511 0 88.2884 14.4866 1279 99.0805 803.623 457.515
3512 0 89.2732 13.7891 1231 101.097 803.838 456.283
3513 0 97.2744 18.1445 1765 94.2771 805.063 457.629
3514 0 97.3938 15.884 1547 98.3898 803.873 451.118
3515 0 100.469 15.3181 1539 98.9909 802.962 447.717
3516 0 102.688 13.3511 1371 101.271 801.244 444.061
3517 1 60.2549 14.9697 902 95.4013 800.197 471.251
3518 0 60.2209 11.4412 689 101.258 799.832 466.229
3519 0 64.0958 12.9338 829 99.0844 800.969 468.563
3520 0 67.1475 17.5584 1179 96.1569 800.146 469.113
3521 0 68.3546 18.1846 1243 96.9702 800.068 465.792
3522 0 71.2525 18.2169 1298 97.0578 799.063 464.365
3523 0 74.2645 13.4115 996 102.491 798.753 462.758
3524 0 74.3668 14.8722 1106 103.113 798.804 458.514
3525 0 76.341 14.7234 1124 102.862 798.841 457.665
3526 0 78.1156 18.0246 1408 99.8984 798.986 452.363
3527 0 83.2484 10.0182 834 110.859 797.706 456.729
3528 0 84.4772 16.099 1360 103.364 797.937 454.367
3529 0 87.7322 15.1142 1326 105.649 797.793 448.509
3530 0 89.2094 16.2763 1452 103.549 798.713 451.686
3531 0 92.3424 15.3126 1414 103.132 798.356 446.961
3532 0 96.2815 17.1892 1655 101.526 798.508 445.99
3533 0 95.7456 14.549 1393 105.574 799.502 438.324
3534 0 100.426 15.1754 1524 104.138 799.488 440.96
3535 0 102.369 13.4513 1377 105.977 799.928 440.24
3536 0 106.474 13.9847 1489 105.518 799.829 437.237
3537 0 111.683 19.8418 2216 97.9449 800.059 436.716
3538 1 60.4334 13.2708 802 100.283 800.297 459.656
3539 0 59.407 12.9446 769 101.44 801.542 457.507
3540 0 60.2197 14.5467 876 101.197 801.731 454.437
3541 0 64.292 15.0563 968 99.938 801.908 453.356
3542 0 65.1513 14.7042 958 99.475 802.146 455.764
3543 0 66.3986 15.2413 1012 99.1472 802.168 452.322
3544 0 67.6037 14.6294 989 97.3721 802.878 461.517
3545 0 72.5226 14.5886 1058 100.324 802.673 454.924
3546 0 72.2739 11.9545 864 104.731 803.316 455.677
3547 0 73.3921 11.9223 875 105.97 804.669 451.689
3548 0 80.5983 16.3403 1317 99.5543 803.633 451.615
3549 0 83.3688 16.349 1363 98.5649 804.255 456.64
3550 0 83.3994 13.7771 1149 103.579 804.795 451.318
3551 0 85.193 14.0152 1194 104.275 804.266 448.492
3552 0 87.6154 14.5408 1274 103.482 803.632 449.206
3553 0 90.1995 15.6985 1416 102.265 803.354 450.049
3554 0 95.3019 16.1907 1543 101.351 803.57 449.185
3555 0 97.3413 13.427 1307 104.929 803.587 451.938
3556 0 100.647 15.1123 1521 104.124 803.047 442.784
3557 0 104.456 14.2357 1487 104.806 802.911 446.801
3558 1 60.3172 13.2135 797 101.202 802.226 468.073
3559 0 60.4094 10.1143 611 105.368 800.599 465.124
3560 0 60.4094 10.1309 612 141.601 798.614 464.902
3561 0 67.2805 14.1646 953 102.37 801.492 462.688
3562 0 69.1406 12.7711 883 103.174 801.564 466.262
3563 0 75.0882 13.7305 1031 100.54 800.598 463.842
3564 0 77.1213 9.67307 746 105.251 800.312 465.292
3565 0 75.0837 13.8379 1039 102.145 798.865 457.623
3566 0 80.2155 14.9597 1200 99.6675 799.98 459.67
3567 0 80.2819 10.488 842 106.395 800.034 454.525
3568 0 84.528 13.25 1120 102.735 799.296 453.975
3569 0 88.326 14.888 1315 100.308 799.313 451.589
3570 0 89.187 16.1234 1438 98.7956 799.517 449.979
3571 0 89.2511 11.7646 1050 102.69 798.259 452.21
3572 0 94.3882 14.1119 1332 102.36 796.728 445.556
3573 0 98.3832 16.1816 1592 98.4152 797.933 449.824
3574 0 101.422 15.1644 1538 99.5267 796.742 442.44
3575 1 54.167 16.8553 913 91.3593 798.494 465.599
3576 0 57.1295 13.2506 757 95.8917 798.42 464.897
3577 0 59.5932 13.2398 789 94.1077 800.155 465.673
3578 0 61.2278 11.5797 709 96.0578 797.676 459.602
3579 0 62.2558 14.3601 894 97.4072 798.544 459.172
3580 0 62.2447 15.0696 938 97.5245 799.131 458.352
3581 0 62.1306 14.0832 875 98.9497 798.95 457.653
3582 0 67.3189 14.6467 986 97.9675 800.51 452.522
3583 0 68.3841 13.9506 954 98.3061 800.59 456.162
3584 0 69.166 11.7399 812 101.789 800.898 455.607
3585 0 74.2625 16.7379 1243 95.7192 801.692 453.619
3586 0 75.309 11.9375 899 102.15 801.35 453.495
3587 0 78.4053 15.8535 1243 99.7506 802.618 447.927
3588 0 81.4745 14.0167 1142 103.139 802.029 446.718
3589 0 86.2915 19.3414 1669 95.0755 803.363 451.268
3590 0 85.3311 14.6488 1250 101.281 804.082 451.061
3591 0 90.3422 14.589 1318 101.97 803.811 450.08
3592 0 91.4272 13.0377 1192 104.561 803.854 447.861
3593 1 53.1153 12.181 647 101.215 804.334 470.835
3594 0 54.3234 11.947 649 101.761 804.049 467.851
3595 0 59.4521 13.1703 783 98.3423 802.216 467.843
3596 0 60.2477 15.7184 947 99.3654 802.74 466.24
3597 0 59.1858 13.804 817 103.081 802.191 465.104
3598 0 63.1654 17.2088 1087 97.4867 801.993 469.361
3599 0 62.479 22.6156 1413 93.0297 802.177 465.199
3600 0 67.2423 15.5854 1048 100.345 801.745 465.514
3601 0 69.1964 12.4139 859 105.901 801.794 462.224
3602 0 70.2276 13.4705 946 103.388 801.788 463.285
3603 0 73.3495 17.6416 1294 98.0216 800.624 463.516
3604 0 75.1641 21.8854 1645 93.91 800.506 460.244
3605 0 78.3518 14.6136 1145 101.553 799.956 461.247
3606 0 80.2183 15.6324 1254 101.365 799.917 457.809
3607 0 82.2418 18.0322 1483 97.6082 800.003 458.806
3608 0 79.2977 14.805 1174 102.089 798.825 454.394
3609 0 85.3661 13.8462 1182 103.25 799.312 449.331
3610 0 89.3905 14.4423 1291 101.302 799.531 449.499
3611 0 94.1808 14.281 1345 101.292 798.173 451.483
3612 0 99.3391 18.3714 1825 94.7748 798.953 453.431
3613 0 98.2512 13.8014 1356 102.375 797.322 443.152
3614 0 101.197 12.4015 1255 102.11 796.797 450.661
3615 0 103.391 16.2779 1683 100.417 798.213 442.819
3616 0 106.23 12.9247 1373 104.398 798.559 435.035
3617 0 109.254 15.5326 1697 101.354 797.984 437.395
3618 0 114.312 15.9214 1820 101.526 798.138 433.579
3619 0 114.523 10.8275 1240 102.456 797.254 428.256
3620 1 63.1186 11.7081 739 96.7984 797.547 452.991
3621 0 65.1652 15.5604 1014 93.3777 799.466 462.266
3622 0 69.1212 15.3354 1060 95.9 798.323 455.93
3623 0 69.1327 14.2046 982 98.2077 798.401 450.993
3624 0 74.1631 15.6817 1163 96.3826 799.286 450.568
3625 0 69.1431 10.9338 756 103.657 798.493 453.545
3626 0 77.2632 12.658 978 101.302 800.648 449.48
3627 0 80.1869 17.7834 1426 95.6522 800.835 444.429
3628 0 81.1794 15.9154 1292 97.918 801.7 446.898
3629 0 83.3551 13.2445 1104 101.672 802.026 445.627
3630 0 88.2894 13.7049 1210 100.506 801.901 444.569
3631 0 89.1461 15.5363 1385 98.6664 803.344 445.112
3632 0 91.1795 14.4111 1314 100.19 803.007 440.088
3633 0 96.3076 14.4433 1391 96.509 803.551 447.658
3634 0 96.2557 11.9785 1153 99.5828 804.123 447.036
3635 0 99.1291 13.2857 1317 98.6583 804.188 441.027
3636 0 102.211 11.5252 1178 100.738 804.74 438.294
3637 0 105.34 13.015 1371 98.9716 804.158 441.858
3638 0 109.29 12.3159 1346 99.4309 804.123 438.832
3639 1 122.533 7.5653 927 103.914 804.153 442.754
3640 1 63.1642 11.8421 748 97.2794 803.246 467.511
3641 0 65.1324 12.0217 783 97.1494 804.273 466.571
3642 0 69.3045 14.7754 1024 94.1475 802.832 462.435
3643 0 72.3832 14.3265 1037 94.6133 803.069 463.83
3644 0 72.3552 14.7052 1064 94.8242 803.508 462.046
3645 0 72.2743 10.5017 759 100.555 802.845 461.319
3646 0 78.2027 15.8051 1236 95.4215 802.286 455.898
3647 0 83.2383 16.3026 1357 94.3412 801.501 460.493
3648 0 87.1831 16.127 1406 93.3578 801.807 460.701
3649 0 87.1071 18.2649 1591 93.0239 801.026 457.755
3650 0 92.1296 15.5433 1432 95.5524 800.872 453.718
3651 0 93.4519 18.9295 1769 92.4754 800.257 448.534
3652 0 93.311 13.6533 1274 98.9278 799.922 453.268
3653 0 94.316 13.582 1281 98.9938 799.757 452.096
3654 0 97.2979 12.1996 1187 100.186 799.735 452.2
3655 0 101.376 14.7077 1491 98.3065 799.27 444.933
3656 0 106.374 13.7346 1461 97.8022 798.438 451.904
3657 0 107.321 20.5086 2201 92.1304 798.93 445.704
3658 0 110.528 17.6969 1956 94.9402 798.787 441.539
3659 0 113.409 12.3623 1402 101.761 799.295 435.34
3660 0 117.271 11.1707 1310 102.957 799.444 438.395
3661 0 120.58 14.8366 1789 100.415 799.705 429.501
3662 0 124.302 14.1028 1753 101.959 799.602 424.327
3663 0 130.313 16.5371 2155 99.478 800.097 418.965
3664 0 136.512 14.7386 2012 101.461 799.799 418.671
3665 0 140.493 14.4847 2035 101.181 800.665 417.148
3666 1 77.3092 18.329 1417 94.4411 801.589 450.133
3667 0 76.2079 13.2532 1010 102.037 801.263 446.246
3668 0 77.214 12.0315 929 104.016 801.794 444.708
3669 0 84.22 19.1997 1617 94.9753 801.708 444.575
3670 0 85.2242 14.104 1202 100.999 802.269 447.404
3671 0 89.208 14.9202 1331 100.575 803.481 443.52
3672 0 90.1822 15.2136 1372 100.994 803.039 437.363
3673 0 94.3116 14.7596 1392 101.637 804.747 440.009
3674 0 98.4024 14.0545 1383 102.413 805.474 439.921
3675 0 98.2399 20.5823 2022 95.7957 805.092 441.192
3676 0 99.5784 14.8827 1482 103.634 805.311 441.001
3677 0 102.245 13.7122 1402 105.64 804.744 439.72
3678 0 111.407 17.4047 1939 99.7463 805.316 443.019
3679 0 111.359 16.7207 1862 101.491 805.822 442.342
3680 0 115.242 18.3353 2113 99.7482 806.154 436.423
3681 0 117.223 14.0331 1645 106.05 804.576 430.714
3682 0 121.901 14.8973 1816 104.01 804.841 438.327
3683 0 121.381 12.8438 1559 108.369 804.131 434.928
3684 0 130.951 13.9747 1830 107.006 804.674 430.645
3685 0 133.828 16.9397 2267 104.274 803.308 427.236
3686 0 134.506 15.9175 2141 106.768 802.955 425.912
3687 0 145.874 24.8297 3622 94.7311 803.384 425.701
3688 0 155.101 20.9284 3246 97.8343 803.219 405.036
3689 0 154.457 22.7766 3518 97.3951 803.262 411.64
3690 0 151.601 17.3086 2624 106.425 802.569 417.207
3691 0 148.703 19.7373 2935 104.198 801.148 424.674
3692 0 148.598 17.9208 2663 107.04 800.837 426.049
3693 0 150.884 15.3628 2318 111.749 800.546 422.123
3694 0 153.843 18.2849 2813 108.502 799.915 418.958
3695 0 154.464 19.422 3000 106.818 799.069 419.638
3696 0 155.779 16.7994 2617 111.572 799.101 413.318
3697 0 157.418 14.1979 2235 115.043 798.715 417.865
3698 0 159.662 17.6686 2821 110.696 798.627 410.808
3699 0 158.501 20.9525 3321 106.136 798.817 411.999
3700 0 160.654 16.8312 2704 112.278 798.197 410.584
3701 0 162.718 19.0636 3102 109.097 798.769 406.648
3702 0 166.901 20.1257 3359 106.625 798.298 404.467
3703 0 174.354 20.1314 3510 105.568 797.935 393.458
3704 0 166.836 17.9577 2996 110.66 798.275 396.276
3705 0 175.132 22.3775 3919 102.77 799.128 389.679
3706 0 177.083 25.0222 4431 99.6197 799.841 388.754
3707 0 170.552 20.1053 3429 106.214 799.256 400.998
3708 0 171.686 17.5961 3021 110.647 799.437 396.087
3709 0 171.767 14.2402 2446 115.782 799.414 395.154
3710 0 174.816 20.1069 3515 106.511 800.378 393.872
3711 0 175.47 19.6957 3456 106.94 800.358 395.211
3712 0 175.826 16.2661 2860 111.733 801.652 389.553
3713 0 175.585 16.4991 2897 110.519 801.986 401.545
3714 0 177.679 16.2653 2890 111.824 802.628 392.771
3715 0 175.555 15.5905 2737 113.659 802.428 391.35
3716 0 179.695 17.0289 3060 110.932 803.314 383.62
3717 0 181.856 17.5744 3196 109.549 803.542 391.674
3718 0 177.72 15.7776 2804 111.996 803.664 396.913
3719 0 179.823 19.091 3433 106.016 803.604 398.379
3720 0 192.356 27.132 5219 95.4679 803.666 388.591
3721 0 182.718 17.5243 3202 108.505 804.475 394.317
3722 0 181.875 17.0666 3104 109.192 804.702 393.331
3723 0 184.598 18.6567 3444 106.738 803.848 394.041
3724 0 185.2 18.0562 3344 106.302 804.098 400.677
3725 0 184.963 17.144 3171 108.901 804.849 391.004
3726 0 189.725 19.8919 3774 104.228 805.266 394.696
3727 0 185.474 16.0346 2974 110.007 804.636 392.862
3728 0 190.732 23.976 4573 98.8434 804.833 393.51
3729 0 188.754 18.6592 3522 105.796 804.363 396.281
3730 0 188.429 18.2881 3446 106.277 804.206 389.935
3731 0 187.785 18.1697 3412 105.728 803.794 408.915
3732 0 187.73 15.7993 2966 110.152 802.933 398.167
3733 0 186.6 17.642 3292 107.294 802.145 396.029
3734 0 184.618 16.7969 3101 108.622 801.966 395.362
3735 1 290.963 18.0813 5261 102.648 801.756 358.682
3736 1 191.753 19.7702 3791 103.17 800.239 397.188
3737 0 188.441 17.0345 3210 107.902 799.613 396.078
3738 0 201.669 27.9566 5638 92.8365 799.092 385.81
3739 0 192.825 17.5548 3385 106.129 798.799 391.944
3740 0 192.75 17.2503 3325 106.866 798.86 390.956
3741 0 191.567 17.6492 3381 105.994 798.876 388.92
3742 0 191.404 15.9296 3049 108.278 798.448 381.742
3743 0 195.847 21.5474 4220 99.9903 798.978 388.559
3744 0 192.685 22.8975 4412 98.9569 799.263 389.169
3745 0 191.602 17.8548 3421 104.534 798.367 394.418
3746 0 191.705 17.2139 3300 105.819 797.705 384.898
3747 0 196.06 23.248 4558 98.0412 798.242 385.31
3748 0 194.981 19.2942 3762 102.932 798.365 385.747
3749 0 194.791 18.62 3627 104.157 799.528 382.553
3750 0 192.918 16.1623 3118 107.167 798.509 384.621
3751 0 195.106 19.0358 3714 103.188 799.471 384.411
3752 0 200.878 21.0526 4229 99.6058 799.116 380.261
3753 0 194.604 17.1682 3341 105.36 799.354 380.158
3754 0 195.753 18.789 3678 103.068 800.025 380.606
3755 0 194.635 19.0253 3703 102.578 801.129 381.995
3756 0 198.524 19.8818 3947 101.116 801.94 381.824
3757 0 200.228 21.2008 4245 99.4563 801.783 381.764
3758 0 198.715 20.7785 4129 99.1313 802.727 387.626
3759 0 198.747 18.5462 3686 102.947 803.031 375.493
3760 0 197.216 18.7814 3704 101.061 802.704 387.426
3761 0 199.676 19.9222 3978 100.119 804.079 372.65
3762 0 197.769 17.4598 3453 102.503 803.372 382.946
3763 0 202.077 19.6162 3964 100.085 804.434 379.684
3764 0 202.842 22.6186 4588 97.1484 804.752 370.019
3765 0 200.7 16.9756 3407 103.217 804.326 380.705
3766 0 201.693 15.117 3049 104.957 805.218 383.453
3767 0 207.247 24.3091 5038 94.2785 804.867 381.17
3768 0 207.247 24.174 5010 133.3 804.846 380.991
3769 0 203.654 20.9424 4265 98.2436 804.302 386.944
3770 1 224.516 30.3943 6824 86.3691 804.872 377.338
3771 0 220.677 25.5487 5638 90.848 803.841 373.185
3772 0 212.523 19.2638 4094 98.839 804.473 378.17
3773 0 206.72 17.9953 3720 101.619 803.527 390.371
3774 1 260.33 13.4752 3508 103.453 803.8 379.968
3775 0 259.151 20.8527 5404 95.784 803.536 360.899
3776 0 264.25 24.1627 6385 92.602 803.66 338.82
3777 0 271.49 24.0819 6538 93.2869 803.094 357.429
3778 0 272.448 27.018 7361 91.0994 802.687 357.975
3779 1 211.654 16.9049 3578 103.901 800.981 378.733
3780 0 212.705 16.6851 3549 102.786 800.152 389.932
3781 1 269.614 26.0001 7010 93.01 801.374 366.119
3782 0 267.625 17.4947 4682 99.2958 801.507 370.374
3783 1 215.962 16.3269 3526 103.501 801.052 390.335
3784 0 210.05 18.686 3925 100.199 800.16 390.196
3785 0 213.062 17.624 3755 102.979 799.502 377.418
3786 0 218.098 16.6072 3622 102.261 798.877 385.472
3787 0 217.995 18.1564 3958 100.371 799.132 380.222
3788 0 216.214 20.7619 4489 99.4669 799.598 371.261
3789 0 212.872 17.3015 3683 100.953 799.434 385.251
3790 0 211.947 13.4515 2851 106.946 799.875 380.29
3791 0 293.858 22.1978 6523 97.3512 800.977 342.406
3792 0 290.518 15.2004 4416 104.808 800.604 347.505
3793 0 296.966 12.4796 3706 105.977 801.533 367.593
3794 0 297.962 14.0521 4187 105.781 801.331 355.213
3795 0 295.545 11.335 3350 108.8 802.327 351.813
3796 1 212.638 18.7925 3996 99.8714 801.757 383.534
3797 0 222.946 27.5806 6149 90.3082 802.005 368.816
3798 0 218.322 21.111 4609 96.6889 802.108 373.13
3799 0 216.364 20.4655 4428 97.1028 803.078 374.812
3800 0 211.302 16.3888 3463 100.778 802.908 388.131
3801 0 214.094 18.0154 3857 97.8517 803.424 372.486
3802 0 215.667 20.0865 4332 97.6699 804.426 371.599
3803 1 318.041 22.6134 7192 91.7618 807.467 314.073
3804 0 315.25 27.3814 8632 87.5722 807.157 318.15
3805 0 322.675 18.6752 6026 97.1646 807.703 320.251
3806 0 330.388 12.225 4039 105.628 808.961 330.038
3807 1 243.234 26.197 6372 88.088 806.74 344.054
3808 0 244.016 25.5147 6226 86.9433 806.928 348.043
3809 0 235.88 23.4653 5535 90.5337 808.037 355.087
3810 0 233.081 24.6224 5739 89.3698 807.727 354.855
3811 0 223.74 22.9552 5136 91.8388 807.563 356.253
3812 0 235.231 19.5765 4605 93.3001 807.868 340.901
3813 0 224.595 23.0459 5176 90.6733 807.842 360.958
3814 0 228.57 28.2889 6466 86.197 806.793 362.744
3815 0 224.984 27.6909 6230 87.1116 806.493 366.474
3816 0 222.444 20.9806 4667 92.5942 805.324 370.52
3817 0 231.251 29.3793 6794 84.6663 805.055 367.726
3818 0 223.358 20.6798 4619 92.6835 805.245 369.446
3819 0 226.553 28.3378 6420 85.9146 803.827 370.914
3820 0 225.925 24.154 5457 89.4103 803.33 370.107
3821 0 227.314 22.3479 5080 91.0071 802.303 367.501
3822 0 228.16 30.3121 6916 84.2947 802.026 369.906
3823 0 223.233 20.4674 4569 92.6903 801.505 367.825
3824 0 224.162 23.309 5225 90.4234 800.575 364.725
3825 0 227.283 22.6194 5141 90.3906 800.784 356.379
3826 0 230.088 28.3066 6513 86.1649 800.121 357.82
3827 0 226.68 27.1043 6144 87.063 800.045 359.366
3828 0 229.386 26.9633 6185 86.3208 799.266 354.404
3829 0 224.941 23.5083 5288 89.9662 799.051 357.321
3830 0 227.042 26.7704 6078 87.074 798.994 359.366
3831 0 226.526 30.0319 6803 84.6331 798.477 358.916
3832 0 229.142 22.3922 5131 90.1105 799.531 342.065
3833 0 230.471 25.0965 5784 88.0339 800.099 361.614
3834 0 224.404 29.4692 6613 84.723 799.761 364.205
3835 0 227.067 20.8485 4734 91.939 801.05 347.306
3836 0 225.81 19.6316 4433 93.4812 801.558 352.731
3837 0 231.255 27.9518 6464 83.7946 801.49 349.32
3838 0 223.663 20.0838 4492 92.6316 802.707 350.203
3839 0 229.107 25.3157 5800 87.9022 801.817 341.698
3840 0 230.946 23.8757 5514 88.4269 802.472 336.931
3841 0 223.462 17.1707 3837 94.8288 803.381 335.927
3842 0 229.31 17.5876 4033 94.2227 804.196 337.389
3843 0 233.753 26.0275 6084 86.0978 804.214 348.749
3844 0 231.073 19.747 4563 91.7716 805.137 335.312
3845 0 235.775 25.7024 6060 86.0515 804.175 338.271
3846 0 232.965 28.7039 6687 83.6821 803.705 339.271
3847 0 232.164 26.8732 6239 85.3573 804.641 346.724
3848 0 226.72 24.1929 5485 88.0066 805.899 339.48
3849 0 230.906 28.0547 6478 84.4268 805.082 343.937
