time division length width area intensity CMx CMy
0 0 42.0483 15.1492 637 116.761 52.4019 472.477
1 0 41.0898 13.6043 559 122.655 51.5456 471.256
2 0 43.1744 15.6111 674 121.018 51.2908 473.233
3 0 45.0548 16.9793 765 117.425 50.8719 472.337
4 0 46.1678 14.8805 687 120.857 49.6594 470.118
5 0 47.0923 14.5884 687 120.693 48.6055 469.345
6 0 48.078 18.9068 909 113.492 47.9395 469.185
7 0 50.0826 15.1949 761 118.957 46.9553 469.692
8 0 51.0474 15.0253 767 119.618 46.5359 469.89
9 0 54.122 18.5876 1006 113.278 45.5209 471.158
10 0 53.5557 16.4688 882 116.932 44.8776 466.652
11 0 56.1642 17.3064 972 115.741 44.7325 468.073
12 0 57.117 15.6696 895 117.102 44.4257 466.864
13 0 58.0915 17.2314 1001 117.622 43.2288 462.745
14 0 58.1119 16.7264 972 119.264 43.4949 458.978
15 0 62.1937 17.4294 1084 118.38 43.3736 456.446
16 0 64.0679 18.8238 1206 116.022 42.9677 457.988
17 0 66.1264 15.2587 1009 121.405 42.6838 456.375
18 0 64.1663 17.8754 1147 119.099 43.2162 453.393
19 0 70.3931 20.3429 1432 113.122 42.9134 451.83
20 0 71.1072 20.6308 1467 111.212 42.2727 450.155
21 0 75.4882 20.798 1570 110.538 43.0656 450.482
22 0 74.1718 15.5989 1157 118.282 42.7701 449.493
23 0 78.1551 17.3117 1353 115.561 46.1057 446.012
24 0 81.289 19.8674 1615 114.051 46.7517 446.983
25 0 82.293 23.0639 1898 110.07 47.6712 442.325
26 0 84.0878 18.2904 1538 117.225 48.9974 442.794
27 0 87.0676 17.5036 1524 118.109 48.8241 441.997
28 0 91.583 19.021 1742 114.819 48.9426 438.778
29 0 90.1964 17.8056 1606 117.123 49.4795 436.311
30 0 97.1737 22.0121 2139 109.281 48.828 439.505
31 0 98.2098 18.6132 1828 111.803 50.2511 429.8
32 1 51.2416 10.109 518 120.409 51.1892 459.479
33 0 53.2435 11.6822 622 117.822 51.7797 454.637
34 0 54.0641 13.5025 730 118.403 53.4137 453.015
35 0 55.1918 15.0385 830 113.53 53.5458 453.392
36 0 60.0955 15.1093 908 113.048 54.0363 457.097
37 0 62.1589 18.2918 1137 107.639 54.0941 457.799
38 0 64.2165 14.7626 948 114.084 54.0432 454.753
39 0 69.377 15.9707 1108 108.488 54.0334 454.752
40 0 69.2546 15.4069 1067 110.919 53.9728 456.536
41 0 73.1343 15.0271 1099 110.49 53.4477 455.34
42 0 74.2071 14.5539 1080 112.415 52.4806 452.643
43 0 76.2188 18.2238 1389 107.827 52.4528 454.783
44 0 80.4319 17.5677 1413 111.992 52.3064 452.886
45 0 83.2334 15.8951 1323 111.912 51.9093 451.787
46 0 86.2617 18.4439 1591 118.945 51.0974 452.91
47 0 88.2369 14.9824 1322 123.837 51.0824 451.506
48 0 93.1321 14.721 1371 126.404 50.1678 451.361
49 1 45.0722 12.4023 559 119.243 50.068 473.385
50 0 46.0809 12.9121 595 121.939 48.8218 471.566
51 0 50.0759 14.9174 747 118.498 49.2343 469.892
52 0 53.0661 14.8306 787 118.665 48.3736 467.126
53 0 51.0758 12.3542 631 121.258 47.5531 469.303
54 0 55.1276 15.1285 834 117.438 47.1055 467.62
55 0 61.0933 16.7122 1021 112.14 45.6641 469.611
56 0 59.2155 13.2736 786 122.468 46.1832 464.906
57 0 62.1034 16.6658 1035 115.971 45.7729 464.006
58 0 63.0462 12.2133 770 124.994 44.8623 461.718
59 0 66.1154 15.2158 1006 119.296 46.1024 460.783
60 0 68.2495 15.502 1058 118.145 44.7486 457.959
61 0 71.2114 14.6184 1041 119.886 44.9212 455.522
62 0 75.1707 15.6045 1173 118.298 45.5371 453.511
63 0 76.1491 15.8505 1207 117.749 45.1914 452.041
64 0 77.1908 13.4731 1040 122.262 44.4577 450.348
65 0 81.2806 12.4384 1011 122.392 44.9931 449.286
66 0 83.1655 15.0062 1248 120.564 45.5753 443.555
67 0 85.2012 16.8425 1435 118.553 44.9024 439.751
68 0 88.3727 17.743 1568 116.189 45.4898 440
69 0 90.1393 15.8532 1429 120.083 45.0714 437.472
70 0 95.2866 15.784 1504 118.567 45.3058 434.874
71 0 99.1094 14.0955 1397 121.481 46.3049 432.984
72 1 53.0987 12.6369 671 117.888 46.7765 456.453
73 0 58.072 12.6223 733 117.465 47.8035 457.263
74 0 57.0675 14.0886 804 113.444 48.4042 453.815
75 0 60.0713 13.6671 821 112.921 48.6918 454.023
76 0 61.1057 13.3539 816 113.621 49.6091 449.976
77 0 63.1234 14.3687 907 111.499 51.312 452.437
78 0 65.2188 14.0604 917 111.778 51.2988 450.49
79 0 67.2075 12.0671 811 113.592 51.9408 454.068
80 0 71.1689 14.3742 1023 110.523 51.4516 449.919
81 0 72.3958 13.7163 993 111.463 52.4381 454.649
82 0 74.2132 14.0137 1040 112.358 51.9087 451.216
83 0 76.061 8.82187 671 118.569 51.9493 458.125
84 0 79.1747 12.4787 988 115.49 51.3492 450.583
85 0 84.2287 15.7547 1327 110.761 50.1824 448.005
86 0 86.1656 13.0911 1128 115.845 50.1791 445.896
87 1 43.076 10.377 447 113.237 50.9038 474.183
88 0 46.0688 8.96484 413 115.763 50.845 469.806
89 0 49.0874 13.5065 663 108.878 50.8944 471.561
90 0 52.2666 14.8087 774 106.638 50.3579 470.429
91 0 50.0659 11.7645 589 110.603 49.7165 471.649
92 0 51.201 10.8201 554 112.816 47.8917 470.989
93 0 52.1013 12.2838 640 110.452 47.8391 470.694
94 0 55.0338 15.9357 877 104.117 47.073 473.496
95 0 58.1184 14.6425 851 105.294 46.1046 470.898
96 0 61.1744 13.2081 808 107.478 46.3911 468.772
97 0 61.2059 9.24747 566 112.906 45.0459 469.811
98 0 65.0759 14.3986 937 106.922 44.8506 464.076
99 0 67.326 12.8925 868 108.728 44.3652 463.833
100 0 71.1357 12.4269 884 108.975 43.569 464.56
101 0 72.183 12.9116 932 108.246 44.0858 462.098
102 0 75.2304 14.1565 1065 106.128 43.1052 459.535
103 0 78.1497 16.5324 1292 104.077 43.3955 454.642
104 0 77.1419 10.3705 800 112.321 44.05 455.452
105 0 81.1036 11.6518 945 111.558 42.7291 452.876
106 0 88.164 16.3332 1440 104.401 42.4576 451.117
107 1 50.0983 10.0403 503 110.811 42.8907 468.994
108 0 50.0609 8.66944 434 112.226 42.8041 468.781
109 0 51.0583 12.3388 630 110.357 42.5667 461.549
110 0 54.0597 13.8366 748 110.579 43.5602 459.146
111 0 55.1392 20.421 1126 101.059 43.2913 460.991
112 0 58.1726 12.3942 721 113.454 45.5368 459.746
113 0 58.2166 11.045 643 116.879 45.6019 454.157
114 0 61.1466 12.4946 764 114.149 45.1832 455.294
115 0 60.1298 12.5894 757 115.033 46.2563 456.73
116 0 62.0681 14.8708 923 111.388 47.2243 453.822
117 0 64.0747 14.686 941 111.017 46.9958 455.894
118 0 67.3655 14.8444 1000 111.371 47.375 454.15
119 0 67.1033 12.9651 870 115.706 47.8747 454.788
120 0 71.1959 13.498 961 116.245 49.1748 452.31
121 0 72.209 13.4886 974 116.395 50.1786 453.209
122 0 73.2175 12.9204 946 118.014 50.7156 449.88
123 0 74.099 13.32 987 118.169 51.7882 447.613
124 0 80.1755 14.2812 1145 114.672 50.517 451.115
125 0 82.2149 13.0633 1074 117.249 50.3436 449.938
126 0 85.3492 15.4307 1317 113.999 51.208 447.448
127 0 87.1596 13.7105 1195 116.536 50.518 449.68
128 0 89.2102 12.2856 1096 119.942 51.375 447.308
129 0 90.1483 11.9026 1073 119.784 49.5573 452.65
130 0 95.2072 14.3897 1370 115.953 50.2212 449.27
131 0 95.1686 12.6828 1207 119.234 48.8484 446.496
132 1 46.0607 11.398 525 117.265 48.7524 472.838
133 0 49.1132 13.0718 642 109.972 47.6184 476.402
134 0 51.0366 12.6576 646 110.977 47.7926 473.615
135 0 52.1789 12.553 655 109.592 47.113 474.504
136 0 54.04 12.9719 701 110.652 46.9929 474.844
137 0 54.2114 17.1735 931 103.469 47.1633 473.898
138 0 53.1742 16.7939 893 107.53 45.0504 467.848
139 0 56.075 16.4422 922 107.232 45.9816 470.156
140 0 57.3507 13.8621 795 110.811 44.1925 470.961
141 0 57.0262 14.9405 852 109.838 44.081 472.414
142 0 60.0822 13.2818 798 114.157 43.8446 468.117
143 0 62.1377 13.4862 838 112.177 42.3115 469.316
144 0 63.0875 15.3596 969 111.517 41.1703 462.453
145 0 66.4286 13.4882 896 114.042 39.6228 459.281
146 0 68.1368 15.3221 1044 111.62 39.2854 461.4
147 0 69.1879 12.1698 842 115.99 39.7553 462.063
148 0 67.1432 11.3191 760 119.479 39.6224 458.361
149 0 73.2438 16.2471 1190 111.055 39.4109 458.249
150 0 76.3875 17.2149 1315 111.117 40.2996 454.374
151 0 76.1791 18.9028 1440 108.764 39.5993 452.812
152 0 79.2715 13.6493 1082 116.557 41.0139 448.861
153 0 82.1342 19.1638 1574 109.132 41.4549 444.975
154 0 83.2504 12.8768 1072 118.591 41.0485 447.311
155 0 87.1438 15.7211 1370 114.472 41.3584 441.985
156 0 84.4558 15.0019 1267 115.144 41.9992 442.328
157 0 91.1261 14.661 1336 115.498 41.7028 437.855
158 0 96.3413 14.3448 1382 114.268 42.3864 438.137
159 0 99.2112 15.8148 1569 110.728 43.617 436.429
160 0 101.23 17.8405 1806 105.208 43.8405 444.654
161 0 105.373 15.8105 1666 110.465 44.5012 440.99
162 1 55.2532 11.0763 612 114.028 44.4804 459.292
163 0 57.139 12.7934 731 110.877 46.9042 455.863
164 0 59.1343 13.3932 792 109.864 47.7374 456.085
165 0 61.103 11.6852 714 110.962 48.5112 459.807
166 0 63.0929 13.0126 821 113.104 48.4543 454.034
167 0 69.1418 12.9299 894 109.238 49.9004 460.058
168 0 66.1344 13.8506 916 108.984 49.6212 457.441
169 0 71.273 12.6977 905 111.096 49.3735 457.304
170 0 72.2144 12.2275 883 113.629 49.4609 457.344
171 0 78.1569 14.0359 1097 109.092 49.4212 458.357
172 0 77.2908 12.3559 955 114.12 49.0942 455.072
173 0 79.2398 12.8345 1017 112.865 48.4218 453.685
174 0 83.1506 17.342 1442 106.905 47.5076 454.613
175 0 86.2388 12.9872 1120 114.446 46.6071 452.997
176 1 45.0986 13.5481 611 104.966 47.3273 479.804
177 0 45.2554 14.0315 635 109.195 47.5937 471.839
178 0 48.2063 13.4837 650 107.586 45.7585 475.651
179 0 49.1546 18.452 907 101.999 45.8831 474.112
180 0 50.086 14.0159 702 107.627 44.7536 473.235
181 0 51.0726 13.8626 708 107.297 44.161 472.273
182 0 52.069 14.2887 744 106.625 43.9812 472.292
183 0 51.0291 9.73953 497 111.626 42.3964 474.895
184 0 53.0902 10.3032 547 112.984 42.2322 472.038
185 0 62.1967 15.9333 991 101.74 42.2059 473.877
186 0 61.0954 13.3071 813 108.745 42.0898 467.133
187 0 62.1646 13.239 823 107.932 40.3426 468.314
188 0 63.0819 16.0268 1011 105.908 39.7784 461.9
189 0 65.0678 14.5233 945 108.583 39.5429 460.119
190 0 67.2156 15.3536 1032 107.96 39.5882 459.326
191 0 70.4654 15.0145 1058 108.571 39.6871 458.288
192 0 73.208 13.5095 989 111.407 40.2204 457.514
193 0 75.2523 12.6109 949 112.625 39.7397 457.2
194 0 76.1595 19.945 1519 102.811 38.4964 457.683
195 0 80.2245 17.6879 1419 106.129 38.8365 448.714
196 1 43.0253 10.9006 469 110.618 39.1343 466.787
197 0 43.0368 12.803 551 106.211 39.1307 467.615
198 0 45.0461 14.4741 652 106.594 39.9417 463.399
199 0 45.2485 13.4369 608 109.586 40.7944 462.921
200 0 48.1438 13.9997 674 108.393 41.9822 461.399
201 0 48.0535 11.4248 549 110.113 42.3643 461.871
202 0 50.0658 13.9417 698 105.208 43.2149 463.378
203 0 52.0535 13.1211 683 107.158 44.1611 459.786
204 0 52.1344 14.1174 736 105.986 43.9307 459.814
205 0 53.0989 14.3506 762 104.959 45.3215 463.887
206 0 56.2103 19.9074 1119 99.9196 46.5836 458.413
207 0 58.1944 12.4411 724 110.849 46.855 455.178
208 0 58.2553 16.7023 973 106.421 48.1357 458.206
209 0 61.1654 14.4363 883 107.561 47.2763 460.048
210 0 65.2261 16.3125 1064 105.486 47.6626 458.242
211 0 65.1159 12.854 837 111.934 48.0657 459.734
212 0 68.341 14.8081 1012 108.661 48.3449 461.16
213 0 69.2885 13.4799 934 112.182 47.6542 459.542
214 0 72.1661 13.1641 950 115.465 45.7989 458.649
215 0 75.0629 19.5703 1469 105.082 46.4105 461.614
216 0 75.1686 13.7824 1036 116.728 46.749 455.28
217 0 78.3368 13.9398 1092 113.434 46.3159 461.46
218 0 83.2911 16.4843 1373 110.934 45.8747 457.193
219 0 84.1247 14.74 1240 113.753 46.0169 459.185
220 1 47.1665 11.788 556 112.836 44.9694 476.813
221 0 47.07 11.7272 552 114.049 44.4638 475.947
222 0 49.2465 21.1995 1044 100.578 43.7672 474.961
223 0 51.1531 19.2755 986 102.144 43.3398 477.525
224 0 50.0337 16.4689 824 104.609 42.3653 481.216
225 0 53.1785 13.9906 744 114.762 40.9852 474.765
226 0 52.1547 12.5396 654 121.226 40.0199 470.287
227 0 56.106 13.9557 783 116.535 39.1967 471.664
228 0 57.0978 13.8359 790 115.503 39.0557 472.619
229 0 59.1658 15.634 925 114.044 38.2908 469.864
230 0 61.1566 13.1139 802 117.051 38.1646 468.6
231 0 64.1444 12.4563 799 117.203 37.5044 469.304
232 0 65.1436 12.6643 825 117.333 37.9418 465.478
233 0 68.2192 15.4502 1054 112.983 38.3387 461.688
234 0 69.3204 13.4881 935 117.182 37.015 461.519
235 0 71.1935 14.0181 998 116.305 37.1513 454.143
236 0 72.4019 11.7815 853 120.63 37.1336 456.547
237 0 75.4611 13.0928 988 118.457 36.2551 450.953
238 0 76.5114 12.5472 960 119.518 36.9979 450.217
239 0 82.5802 20.9857 1733 105.342 36.3006 452.454
240 0 82.645 15.8025 1306 113.746 37.8783 446.559
241 0 85.1399 16.608 1414 111.132 36.9272 449.347
242 0 88.215 14.8954 1314 115.311 38.7763 442.696
243 0 90.2804 15.7952 1426 112.811 40.183 446.43
244 0 93.1922 15.0871 1406 114.548 38.9061 441.531
245 0 99.5227 13.404 1334 116.554 40.5067 440.906
246 0 99.335 16.5501 1644 114.025 40.3844 435.287
247 0 102.391 16.3393 1673 115.013 41.6414 434.81
248 0 104.477 13.7447 1436 119.828 41.0404 434.781
249 0 108.63 12.9798 1410 119.286 41.6915 437.633
250 0 110.671 15.668 1734 115.574 42.2843 433.212
251 0 112.45 14.6199 1644 117.21 42.8826 432.118
252 0 116.593 15.2925 1783 118.27 43.1699 429.907
253 0 120.591 18.2933 2206 112.839 44.0675 432.257
254 0 123.707 15.6175 1932 118.063 44.4172 422.516
255 0 128.558 14.9348 1920 119.476 45.3609 422.814
256 0 132.573 20.0266 2655 110.725 44.8452 427.537
257 0 137.443 15.1918 2088 117.708 45.6418 430.612
258 1 73.2826 12.0492 883 119.331 45.3126 458.366
259 0 74.0948 13.0913 970 120.814 46.2031 456.495
260 0 74.1231 11.6293 862 121.669 47.0116 460.307
261 0 81.3486 14.0015 1139 112.151 46.4381 454.258
262 0 82.1409 11.8942 977 116.116 45.434 452.032
263 0 86.3337 15.3474 1325 111.317 44.6302 451.172
264 0 89.2656 15.4595 1380 111.621 44.9399 452.404
265 0 92.2928 16.6752 1539 110.339 43.9929 450.057
266 0 95.1675 15.6041 1485 109.967 44.2034 449.099
267 0 97.2769 11.9453 1162 115.686 43.4759 448.194
268 0 100.387 10.8182 1086 117.63 42.9484 439.78
269 0 105.242 13.6448 1436 112.886 42.6804 443.739
270 1 56.0854 12.1244 680 109.897 42.1088 467.494
271 0 55.1545 10.8423 598 111.704 41.7575 467.741
272 0 58.1038 16.0747 934 106.986 40.8597 467.184
273 0 63.1884 15.8098 999 106.113 40.6967 465.894
274 0 63.0291 14.6916 926 108.025 40.541 466.783
275 0 66.1387 14.2579 943 108.087 39.825 464.006
276 0 67.1284 12.5729 844 109.213 39.1848 460.825
277 0 67.1467 14.2524 957 108.183 39.3971 456.735
278 0 72.173 18.4556 1332 102.73 39.3341 457.282
279 0 73.2022 13.7428 1006 108.859 39.4274 454.982
280 0 77.315 18.4182 1424 101.444 38.3511 456.103
281 0 79.121 16.1651 1279 105.474 38.7873 451.972
282 0 86.7195 16.4092 1423 102.897 38.3956 453.226
283 0 83.1434 17.1631 1427 104.552 38.4674 446.805
284 0 83.1315 13.7373 1142 110.591 38.5009 446.373
285 0 86.2175 12.8628 1109 111.993 39.2732 444.523
286 0 91.5006 15.5409 1422 108.828 39.2567 440.057
287 0 92.122 14.2963 1317 109.293 40.1352 439.332
288 0 98.1744 16.2873 1599 105.09 39.8968 436.982
289 0 100.393 14.8018 1486 106.134 40.7584 438.81
290 0 102.281 16.6991 1708 105.22 41.226 437.02
291 1 52.1241 13.3144 694 104.048 43.536 455.17
292 0 56.054 14.4504 810 101.746 43.2086 452.412
293 0 58.157 13.1025 762 103.923 44.7323 456.574
294 0 59.1683 11.7293 694 105.197 45.7622 458.768
295 0 62.0718 18.8169 1168 98.2483 46.4007 454.356
296 0 62.194 15.0979 939 103.124 46.5293 455.183
297 0 67.1643 15.3057 1028 101.678 47.141 458.998
298 0 68.1527 15.2012 1036 104.114 47.9508 452.236
299 0 71.095 14.6564 1042 104.579 47.4012 459.083
300 0 72.1536 18.9457 1367 100.976 47.853 452.241
301 0 74.1735 13.6032 1009 107.694 47.9445 453.285
302 0 75.2159 9.958 749 111.571 47.3939 456.562
303 0 80.288 13.0032 1044 107.774 47.3295 453.135
304 0 84.2019 17.9212 1509 101.825 47.3327 454.056
305 0 87.7175 14.3187 1256 109.001 46.5279 451.022
306 0 87.3734 13.2878 1161 111.288 46.5185 447.804
307 1 41.2465 8.84923 365 111.249 47.0959 476.603
308 0 45.2767 9.07752 411 109.436 46.2725 476.584
309 0 45.27 11.3099 512 108.674 46.1934 475.01
310 0 48.1533 11.2142 540 112.819 44.837 475.931
311 0 48.3056 12.7108 614 110.419 45.7459 475.821
312 0 51.4552 15.9362 820 107.457 44.2878 470.571
313 0 53.1195 13.4226 713 107.149 44.0014 472.944
314 0 54.4472 15.5013 844 104.261 42.8922 471.25
315 0 55.207 12.2629 677 108.263 42.4727 469.035
316 0 56.1813 13.7412 772 107.063 42.5453 463.789
317 0 60.2469 10.2744 619 110.725 42.9289 466.803
318 0 59.1619 14.5364 860 107.173 40.5477 459.255
319 0 63.1085 14.5939 921 105.034 39.9577 463.16
320 0 64.2561 16.9789 1091 103.494 40.2145 460.002
321 0 68.3346 14.2388 973 105.762 40.2939 460.875
322 0 68.3809 13.0738 894 109.265 40.6812 454.037
323 0 71.2304 18.4753 1316 101.055 39.1824 458.547
324 0 73.2279 13.2736 972 109.309 39.8076 455.192
325 0 74.514 13.8095 1029 109.932 40.2128 451.089
326 0 81.5799 16.0211 1307 105.764 39.456 451.018
327 0 81.3645 14.4166 1173 111.431 40.3299 446.854
328 1 43.4095 11.1266 483 110.509 41.4907 464.791
329 0 43.1176 12.1992 526 110.409 41.4392 462.078
330 0 47.1664 12.0425 568 109.595 42.6901 463.31
331 0 47.1472 11.6868 551 114.575 43.0309 460.125
332 0 53.0717 13.4535 714 110.655 44.9132 459.279
333 0 49.1324 14.2065 698 110.93 45.1934 460.259
334 0 53.1034 15.724 835 108.068 46.1186 457.362
335 0 54.2656 15.332 832 108.355 46.6202 460.292
336 0 53.0979 19.7748 1050 103.081 47.639 457.385
337 0 60.1299 15.7991 950 106.015 47.7211 458.063
338 0 60.5596 13.8376 838 110.321 48.5823 454.381
339 0 59.0618 14.6626 866 109.498 49.3383 452.334
340 0 63.2731 12.5014 791 105.392 49.9482 457.123
341 0 64.6078 13.0325 842 105.716 48.9869 458.14
342 0 65.6271 12.9367 849 105.647 48.4181 455.812
343 0 71.6369 11.5443 827 105.894 49.7158 457.747
344 0 69.5057 14.8765 1034 103.041 49.0909 457.148
345 0 73.4656 12.659 930 106.066 50.5473 458.334
346 0 75.3023 14.7539 1111 105.533 49.5356 451.247
347 0 77.4121 14.9589 1158 105.213 50.2461 449.754
348 0 83.7793 16.9493 1420 102.992 49.512 452.268
349 0 83.5807 13.8668 1159 107.877 49.7127 448.921
350 1 43.3555 9.80268 425 107.207 49.7459 472.144
351 0 47.2541 13.9247 658 101.483 48.0836 469.296
352 0 46.269 12.9028 597 102.948 46.7889 473.243
353 0 50.344 16.7051 841 99.8193 46.9905 470.879
354 0 52.3707 17.2807 905 98.895 46.4663 473.234
355 0 54.4095 15.7693 858 101.015 45.6853 468.622
356 0 55.4696 15.5581 863 101.394 45.6674 467.964
357 0 56.3486 13.9134 784 103.321 44.463 464.485
358 0 55.3544 13.6936 758 103.799 45.0106 463.987
359 0 57.7951 12.354 714 105.881 44.8515 462.091
360 0 57.4746 12.2837 706 105.384 44.5666 465.268
361 0 61.6181 10.1756 627 107.813 43.5933 457.745
362 0 64.6908 13.2167 855 103.828 44.1965 456.715
363 0 66.4922 17.2802 1149 97.9704 43.1549 454.933
364 0 68.9635 11.6728 805 104.358 42.7776 449.83
365 0 70.7079 10.904 771 104.518 42.3956 451.407
366 0 73.7764 12.7141 938 103.344 42.0256 448.212
367 0 78.4692 16.0573 1260 99.6413 42.0405 444.114
368 0 78.5707 16.062 1262 100.697 41.9461 437.762
369 0 86.2852 14.0928 1216 101.337 41.1826 440.576
370 0 85.0042 14.8581 1263 101.614 41.9208 438.947
371 0 88.2016 14.036 1238 102.399 42.5759 439.361
372 1 45.484 10.3773 472 102.028 42.5763 463.612
373 0 45.9006 10.1959 468 105.592 43.5021 457.577
374 0 48.7043 11.231 547 103.638 44.5448 458.053
375 0 48.3561 14.6207 707 99.9731 45.058 455.994
376 0 49.2155 11.8459 583 103.424 45.2607 456.333
377 0 51.1309 11.7346 600 107.13 45.9833 455.777
378 0 54.2344 15.6543 849 102.404 46.2344 454.391
379 0 54.2896 11.7702 639 108.396 47.2191 453.581
380 0 57.4063 12.7861 734 107.681 48.154 451.865
381 0 61.1276 15.0505 920 101.716 48.0272 450.457
382 0 62.1893 19.505 1213 97.6208 48.5655 451.63
383 0 63.1329 13.2261 835 106.252 49.7174 451.923
384 0 64.1063 16.5194 1059 103.251 49.4958 453.241
385 0 65.1152 15.1424 986 105.689 50.4371 448.698
386 0 69.1814 16.8109 1163 103.089 49.7816 451.07
387 0 73.3721 15.3601 1127 103.965 50.2626 456.608
388 0 73.3064 15.1283 1109 106.316 50.7583 453.75
389 0 75.4685 16.2054 1223 107.495 50.7678 450.38
390 0 75.4169 13.9756 1054 112.739 50.5569 449.479
391 1 38.5125 8.9062 343 115.184 50.5131 469.289
392 0 42.4333 14.1163 599 106.711 50.5643 471.302
393 0 44.913 12.001 539 111.538 49.0649 470.592
394 0 46.5565 12.0714 562 111.436 48.8256 470.986
395 0 49.3092 16.0416 791 102.712 48.4248 473.743
396 0 45.1908 13.1885 596 112.284 48.7198 469.879
397 0 51.3123 19.0987 980 101.181 49.1204 468.871
398 0 50.1001 15.0499 754 107.574 47.4111 471.69
399 0 54.1923 13.9503 756 110.761 46.5886 468.348
400 0 54.1884 12.7518 691 112.512 46.385 469.857
401 0 55.1438 11.6967 645 112.084 44.8667 471.405
402 0 60.3501 13.8194 834 109.331 44.8993 466.941
403 0 60.3703 12.1086 731 112.96 44.383 464.241
404 0 60.2779 13.3714 806 111.558 44.4603 464.047
405 0 63.4642 11.471 728 114.681 43.8723 464.337
406 0 66.7841 16.9052 1129 105.437 42.248 457.105
407 0 67.9424 12.6283 858 112.016 41.2308 454.831
408 0 71.0539 15.9879 1136 106.169 40.3908 457.298
409 0 72.8778 14.3802 1048 109.49 41.834 446.153
410 0 74.0345 12.9939 962 111.884 40.3098 447.574
411 0 76.9298 14.8967 1146 109.821 41.1326 443.187
412 0 76.1785 12.3657 942 114.407 41.569 441.965
413 0 82.8545 15.9677 1323 107.276 41.2094 442.949
414 0 84.2479 14.0656 1185 109.124 41.319 442.89
415 0 84.7222 13.8452 1173 110.779 42.4066 436.72
416 0 88.2296 15.0176 1325 108.716 43.3992 435.341
417 0 92.8514 14.464 1343 109.023 42.8816 432.762
418 0 95.261 15.6622 1492 108.032 43.4913 427.558
419 0 95.8818 12.3903 1188 112.333 44.5556 427.668
420 0 99.8294 13.4129 1339 110.192 45.3943 431.009
421 1 49.7816 12.6151 628 108.779 46.1369 451.266
422 0 53.1336 12.8544 683 108.389 46.5622 450.624
423 0 52.6499 14.9478 787 101.757 47.5654 456.567
424 0 52.399 12.5575 658 109.163 47.196 448.272
425 0 56.7666 12.8421 729 109.298 48.4458 450.326
426 0 59.5663 14.2195 847 104.922 48.4109 453.76
427 0 61.9173 12.8882 798 106.871 48.4612 449.425
428 0 65.7703 13.2583 872 105.336 48.7397 448.526
429 0 64.7292 11.3241 733 109.381 49.6085 445.554
430 0 68.2109 12.1535 829 107.911 49.9795 448.396
431 0 68.7903 11.6005 798 108.678 49.4035 450.4
432 0 70.729 12.456 881 108.814 49.6266 448.898
433 0 73.9292 14.2975 1057 104.563 50.0606 452.808
434 0 78.7426 18.897 1488 99.9402 49.9328 446.9
435 0 80.7573 17.1006 1381 102.453 49.1832 448.847
436 0 80.936 13.072 1058 109.807 49.3941 443.679
437 0 84.0833 14.3905 1210 106.877 49.1322 446.522
438 0 90.9219 18.2244 1657 101.838 49.1207 442.49
439 0 91.8962 15.5066 1425 104.3 48.3123 446.352
440 0 91.991 12.0555 1109 110.571 49.0559 442.362
441 0 99.153 16.7317 1659 103.828 47.7866 441.981
442 0 99.9217 16.1827 1617 104.359 46.692 442.952
443 0 102.82 15.9405 1639 105.452 46.8944 439.954
444 0 107.867 16.5203 1782 104.041 45.8126 438.345
445 0 112.153 13.0625 1465 108.959 44.6778 436.104
446 0 114.897 14.4041 1655 107.768 44.0079 435.702
447 0 117.736 17.0297 2005 103.721 44.4943 438.214
448 0 123.866 15.8316 1961 103.982 44.2106 432.475
449 0 128.114 19.4514 2492 101.332 43.3299 425.189
450 0 129.826 14.5888 1894 108.172 42.1531 424.21
451 1 70.636 16.7337 1182 103.775 41.3875 451.669
452 0 73.9855 17.7738 1315 102.186 41.7011 452.491
453 0 74.5704 14.0672 1049 109.879 40.7998 449.216
454 0 81.1315 15.7399 1277 105.538 41.011 450.537
455 0 79.9363 17.6015 1407 104.239 41.0021 448.286
456 0 80.743 13.3881 1081 110.759 40.7142 446.115
457 0 85.9585 13.9253 1197 110.216 40.9449 440.892
458 0 88.6459 15.3419 1360 105.205 40.8875 447.035
459 0 91.2041 15.5695 1420 105.958 40.843 440.534
460 0 93.9062 17.2619 1621 106.764 42.0241 437.128
461 0 96.8603 14.7222 1426 109.941 42.1087 438.158
462 0 96.7905 12.9455 1253 114.088 43.3951 428.907
463 0 105.807 15.7268 1664 106.974 43.6947 432.435
464 0 106.511 15.5477 1656 107.906 44.2186 428.294
465 0 112.716 13.8312 1559 108.445 44.2078 431.558
466 1 65.6162 12.9541 850 104.287 44.5329 450.353
467 0 66.527 13.5434 901 104.92 45.3896 446.936
468 0 66.2868 10.1076 670 106.418 46.0134 441.543
469 0 70.3278 10.8919 766 107.225 47.9856 449.213
470 0 72.2978 10.9409 791 105.838 47.6233 452.142
471 0 74.2683 12.2663 911 104.247 47.9649 452.553
472 0 80.1508 12.3767 992 102.96 49.8397 451.144
473 0 81.2006 11.3792 924 107.163 48.3799 446.086
474 0 83.2465 9.16555 763 106.609 49.9214 453.611
475 0 86.2861 12.4933 1078 106.158 48.7189 444.212
476 0 89.5128 7.93182 710 110.408 49.7761 449.669
477 0 93.7032 6.46723 606 111.444 49.4521 452.865
478 0 94.2762 10.1828 960 111.699 48.1385 440.333
479 0 98.1871 9.49208 932 112.198 46.9303 447.394
480 0 100.337 10.7438 1078 111.623 46.6531 441.916
481 0 104.346 13.1294 1370 105.412 45.9861 449.904
482 0 106.671 10.1715 1085 109.974 45.2221 444.821
483 0 106.522 11.1527 1188 110.166 44.6347 436.533
484 0 110.363 11.3535 1253 109.789 44.4254 439.263
485 0 112.792 9.22942 1041 113.047 42.7061 438.415
486 0 114.206 6.75097 771 119.612 42.6252 431.471
487 1 66.138 10.8712 719 98.5591 41.5202 465.921
488 0 69.1673 11.3782 787 97.2325 41.8958 469.908
489 0 67.1691 6.44641 433 102.206 42.0531 470.866
490 0 74.2856 8.9654 666 99.1126 41.967 469.464
491 0 74.1972 11.3481 842 97.2743 40.658 464.376
492 0 79.1966 6.62908 525 102.305 40.4705 463.339
493 0 79.419 8.19703 651 99.6436 40.0061 463.608
494 1 44.1633 11.933 527 95.6622 40.1499 474.021
495 0 47.1069 10.6354 501 97.4471 39.0838 474.074
496 0 48.1071 11.5991 558 93.7204 38.2849 478.176
497 0 49.019 8.2213 403 99.6551 38.5856 471.71
498 0 50.0342 10.5728 529 96.9887 34.4594 467.284
499 0 47.0976 9.55463 450 97.9133 36.3533 473.736
500 0 49.041 4.68996 230 104.809 36.7217 469.478
501 0 51.0518 9.61768 491 100.845 37.3014 463.707
502 0 55.1081 10.4522 576 99.4531 37.7326 462.538
503 0 57.1347 12.0417 688 98.1904 38.3038 458.815
504 0 58.1743 13.7346 799 96.5206 38.4243 457.282
505 0 61.3289 13.5825 833 96.7623 39.395 455.337
506 0 60.294 9.52002 574 101.162 40.047 459.923
507 0 65.2636 13.0701 853 96.905 40.3318 458.012
508 0 64.0775 10.7526 689 100.631 42.1437 454.806
509 0 65.2786 12.393 809 98.2546 42.885 454.566
510 0 68.1632 13.6437 930 95.9333 42.1581 457.239
511 0 69.1232 14.3222 990 97.5263 43.3182 453.263
512 0 71.0395 10.473 744 99.9651 44.3468 459.71
513 0 74.0508 10.9114 808 101.869 45.0829 453.251
514 0 73.2286 9.5318 698 105.275 45.3195 452.543
515 0 76.4263 8.7797 671 105.674 46.0164 456.957
516 0 82.2296 12.6475 1040 100.874 46.9375 452.51
517 0 82.2543 8.64392 711 105.601 46.2883 458.862
518 0 85.1006 12.2208 1040 102.54 46.5125 454.065
519 0 88.3208 11.7413 1037 103.176 47.0916 454.609
520 1 47.0805 9.36694 441 104.605 44.9274 473.34
521 0 49.0837 10.1867 500 104.07 44.536 475.548
522 0 51.1315 13.0252 666 100.033 44.2613 476.135
523 0 51.1186 11.2875 577 102.165 44.0225 476.305
524 0 51.1565 10.1453 519 106.066 43.4894 473.26
525 0 52.1117 10.1705 530 104.106 45.0189 475.681
526 0 55.1832 11.2172 619 100.806 44.9919 476.811
527 0 55.1278 16.6704 919 94.481 43.7432 478.656
528 0 55.1179 8.63604 476 105.538 44 479.233
529 0 61.0721 14.0653 859 97.9127 43.2934 476.139
530 0 60.125 11.7588 707 100.932 42.3494 478.006
531 0 63.1881 16.4746 1041 96.9568 42.5543 469.06
532 0 64.0524 12.5054 801 101.418 42.0012 471.945
533 0 65.2684 13.0844 854 100.157 40.808 469.851
534 0 65.2673 10.7558 702 104.603 40.2165 465.537
535 0 70.2149 15.7089 1103 100.039 39.1986 462.324
536 0 73.294 16.0177 1174 98.2785 39.0681 459.343
537 0 75.1815 12.8622 967 103.176 39.7694 459.786
538 0 76.1304 12.0451 917 104.938 38.6041 458.798
539 0 80.1975 17.9183 1437 97.3681 38.6694 456.797
540 0 80.1903 9.81416 787 108.03 38.4752 454.771
541 0 88.2421 16.5907 1464 97.5109 37.9542 455.395
542 0 87.1877 14.4401 1259 101.887 37.8769 448.272
543 1 45.1799 11.6202 525 101.145 37.979 470.095
544 0 44.3249 9.94927 441 100.968 37.7687 461.814
545 0 44.1889 16.1579 714 93.986 39.1541 460.577
546 0 48.1769 15.4846 746 99.1836 37.8807 464.052
547 0 49.0597 11.8223 580 102.96 39.2897 464.316
548 0 51.0597 15.7658 805 99.2994 38.9826 461.845
549 0 55.2424 14.4816 800 99.4862 39.4775 461.179
550 0 53.1369 14.0957 749 101.049 39.4379 460.158
551 0 55.0215 13.3039 732 103.223 39.9576 459.784
552 0 57.0789 12.1236 692 102.715 40.7486 462.582
553 0 60.0635 11.1549 670 102.936 41.8119 463.797
554 0 60.1293 16.2151 975 98.1662 42.8749 460.278
555 0 64.2225 15.5553 999 98.6306 42.3774 459.585
556 0 66.0951 13.0418 862 101.372 44.0754 460.485
557 0 69.2947 16.235 1125 94.9476 45.0791 465.948
558 0 71.2262 16.9179 1205 96.4307 45.6349 464.513
559 0 68.2814 11.1158 759 105.704 46.0738 458.248
560 0 72.4366 10.0916 731 104.573 45.7004 464.498
561 0 74.3257 14.5979 1085 101.639 44.682 457.562
562 0 78.0686 15.2814 1193 98.3194 46.1702 466.045
563 0 76.3388 12.7851 976 104.44 45.251 459.372
564 0 80.3155 15.9869 1284 100.075 45.514 456.128
565 0 84.5211 14.3869 1216 101.012 44.7229 456.345
566 0 89.5449 18.8509 1688 95.2139 44.1914 455.391
567 0 88.4276 13.6496 1207 101.968 44.1102 456.047
568 0 93.324 15.3337 1431 99.0608 44.5702 457.583
569 0 98.2134 16.6983 1640 95.2518 43.8902 459.365
570 1 49.2766 14.6317 721 95.7129 43.5811 474.641
571 0 52.1441 10.6819 557 97.8276 42.368 478.402
572 0 52.1524 13.7482 717 98.7517 41.6499 479.449
573 0 54.1546 11.5226 624 100.923 40.6907 481.115
574 0 56.0724 18.3334 1028 94.5321 40.3988 479.287
575 0 57.0913 12.9442 739 102.775 39.0054 474.662
576 0 57.0726 15.6993 896 100.979 38.115 468.297
577 0 60.1519 15.145 911 101.214 37.8782 469.799
578 0 63.0532 18.9047 1192 95.9698 37.7718 469.355
579 0 63.1329 18.5798 1173 97.7161 37.6709 461.374
580 0 67.2756 17.3317 1166 97.9786 36.9863 463.886
581 0 69.3166 13.8928 963 103.24 37.3697 459.087
582 0 70.3811 15.0751 1061 101.232 37.0518 463.358
583 0 74.2355 16.5285 1227 99.7636 37.1353 461.191
584 0 75.4187 14.2538 1075 103.033 36.6465 459.678
585 0 78.4911 13.1989 1036 105.198 37.972 456.376
586 0 80.2963 14.3967 1156 104.465 38.66 452.242
587 0 85.4354 15.0757 1288 103.17 39.0326 447.988
588 1 48.1519 13.229 637 102.695 40.0235 465.119
589 0 47.1655 13.1664 621 103.863 39.7568 462.599
590 0 53.2477 17.5031 932 94.927 38.2564 463.682
591 0 52.1043 14.5669 759 98.7536 39.448 465.21
592 0 57.2108 18.2133 1042 92.9443 39.5662 466.327
593 0 53.0576 11.3462 602 103.653 41.0664 464.821
594 0 58.1243 13.5744 789 99.7186 41.4461 461.482
595 0 60.0991 12.5626 755 101.705 42.0437 457.623
596 0 60.1587 15.4259 928 99.0248 42.2866 457.767
597 0 64.0589 14.1745 908 100.572 43.4758 460.314
598 0 63.1925 12.818 810 102.353 44.4457 457.342
599 0 69.1297 16.0423 1109 98.0496 44.5014 458.879
600 0 68.0856 19.5636 1332 93.6096 45.018 462.709
601 0 72.2703 16.0647 1161 99.0121 44.9414 455.405
602 0 75.3009 14.1167 1063 100.916 44.9567 457.588
603 0 73.3162 12.9439 949 103.605 44.3762 457.174
604 0 79.4351 16.7684 1332 98.2568 45.4685 455.351
605 0 84.2264 16.5031 1390 97.7173 45.4619 456.649
606 0 85.357 15.2536 1302 100.304 44.8518 455.416
607 0 86.2527 10.5156 907 106.379 44.7453 459.312
608 1 49.1419 15.6486 769 99.0065 43.5319 476.736
609 0 46.1337 16.3655 755 99.5828 44.0159 477.236
610 0 51.0972 17.3004 884 97.2873 43.9378 477.144
611 0 51.19 12.6197 646 103.799 42.8204 479.63
612 0 51.19 12.5025 640 137.406 41.7984 479.68
613 0 54.315 15.2628 829 100.119 42.6164 476.782
614 0 55.1902 15.4556 853 99.0363 42.6401 479.165
615 0 63.3468 16.4176 1040 96.3913 41.8519 477.819
616 0 59.1607 16.058 950 100.606 41.98 472.566
617 0 63.1395 18.467 1166 97.4751 41.0532 470.616
618 0 63.2396 13.1721 833 103.262 41.7239 471.377
619 0 65.1005 14.4699 942 103.248 40.9257 468.063
620 0 68.1934 17.6703 1205 99.7411 39.1129 464.416
621 0 72.5489 15.2449 1106 101.808 38.7297 462.068
622 0 72.1927 11.7879 851 106.733 38.3549 463.993
623 0 75.346 19.4834 1468 97.5879 38.1594 462.456
624 0 76.1756 16.4226 1251 102.949 38.2534 456.544
625 0 79.3539 14.4416 1146 105.679 37.4695 460.132
626 0 79.183 11.5429 914 110.601 36.895 453.222
627 0 85.2027 12.8282 1093 108.007 35.903 453.442
628 0 90.184 14.7476 1330 106.656 36.9383 450.431
629 0 91.2751 15.0534 1374 107.667 37.9134 445.132
630 1 50.1857 15.0043 753 103.046 37.2895 470.454
631 0 49.0716 11.7991 579 106.962 37.7478 468.608
632 0 52.0842 13.0558 680 109.228 38.1897 467.326
633 0 50.204 13.5049 678 107.301 40.9336 467.205
634 0 55.6614 17.6244 981 102.221 40.0979 463.507
635 0 55.143 14.1088 778 107.479 41.3612 462.629
636 0 59.4251 21.2705 1264 97.8101 41.7049 461.305
637 0 60.1452 16.3438 983 105.534 42.5778 460.293
638 0 62.4689 17.0165 1063 103.796 43.1157 461.15
639 0 63.2142 13.1141 829 109.036 43.7829 457.896
640 0 65.2784 13.3122 869 107.504 44.3096 461.782
641 0 69.2016 15.0286 1040 104.775 44 460.962
642 0 71.3795 17.6101 1257 103.004 44.3365 455.59
643 0 73.1921 15.0973 1105 105.843 45.1991 457.086
644 0 78.2441 14.8765 1164 105.164 45.7302 458.391
645 0 81.6218 20.4235 1667 96.6551 45.925 464.039
646 0 80.4377 10.9774 883 110.471 45.4066 460.068
647 0 85.2678 15.6096 1331 106.278 45.6341 451.389
648 0 88.3974 17.4326 1541 103.824 45.1272 451.997
649 0 91.377 18.8778 1725 100.952 45.5965 459.048
650 0 94.368 14.8673 1403 107.143 45.263 452.318
651 1 51.3632 12.3045 632 110.932 45.0981 474.897
652 0 53.0663 15.867 842 102.849 44.7292 476.147
653 0 52.0815 12.8836 671 105.821 45.4054 477.982
654 0 59.248 17.0808 1012 98.917 44.4832 477.452
655 0 57.0793 13.1746 752 106.185 44.7301 474.875
656 0 58.077 12.9828 754 107.54 44.0345 474.631
657 0 63.1375 14.8881 940 103.965 42.6894 473.381
658 0 62.2135 12.5857 783 107.599 42.5045 474.135
659 0 66.1105 14.5968 965 104.996 42.0912 469.943
660 0 62.1052 10.9492 680 113.059 42.3838 469.247
661 0 69.2698 13.8011 956 111.397 41.5523 467.251
662 0 70.199 14.1312 992 112.114 39.6391 462.972
663 0 74.1678 15.6672 1162 108.994 38.938 462.126
664 0 74.235 14.3868 1068 110.243 38.6124 460.539
665 0 82.0796 14.5834 1197 108.649 37.5631 460.505
666 0 82.3993 19.4662 1604 103.411 37.6983 451.951
667 0 84.1921 13.7305 1156 110.91 36.7716 452.047
668 0 90.1995 17.1065 1543 105.35 37.8568 453.619
669 0 90.1865 15.4901 1397 107.111 36.6979 457.056
670 0 92.3109 17.3544 1602 106.144 38.2772 447.83
671 1 48.1146 10.6828 514 112.259 39.0564 467.43
672 0 52.0949 12.7268 663 107.271 39.4359 466.964
673 0 52.0854 10.022 522 110.523 40.4579 464.755
674 0 54.4588 15.2593 831 104.286 38.568 464.468
675 0 56.4843 14.1809 801 103.805 38.5992 467.732
676 0 61.2004 14.1176 864 105.708 40.0949 462.124
677 0 60.2319 12.3855 746 109.279 41.8298 462.169
678 0 61.2139 16.9079 1035 102.77 42.3507 459.181
679 0 65.2311 13.1686 859 106.773 42.9825 460.679
680 0 64.4744 14.6725 946 106.051 44.1321 454.882
681 0 69.1729 14.1529 979 106.697 41.6834 454.569
682 0 70.2502 14.2918 1004 105.976 43.747 457.196
683 0 72.2493 14.5469 1051 106.898 44.9734 457.782
684 0 75.1974 13.7638 1035 108.422 45.7565 455.857
685 0 76.1032 14.3095 1089 107.702 45.8733 454.165
686 0 79.2634 14.0922 1117 107.298 46.265 457.75
687 0 81.3333 21.8607 1778 98.1254 46.2705 455.4
688 0 84.1662 13.6753 1151 104.943 46.7845 457.162
689 0 86.3772 12.8159 1107 106.635 46.4941 454.718
690 0 88.3205 13.9832 1235 106.166 46.6332 451.224
691 0 90.4061 17.4988 1582 102.692 46.9905 452.16
692 1 51.2606 14.8067 759 100.462 45.9684 478.719
693 0 47.3262 10.1424 480 108.731 44.75 477.788
694 0 52.3781 14.0517 736 103.928 44.4375 472.508
695 0 56.4749 20.6286 1165 95.2558 44.5313 473.438
696 0 55.7332 10.4964 585 108.839 44.4103 478.918
697 0 55.3227 13.4845 746 106.772 45.9665 476.072
698 0 56.243 10.5969 596 110.539 44.9681 476.084
699 0 60.3968 15.779 953 101.467 44.6086 479.284
700 0 60.3483 12.6598 764 106.56 43.6073 474.728
701 0 63.1513 13.3172 841 106.521 42.9964 471.841
702 0 65.3955 14.267 933 104.783 42.4577 469.079
703 0 65.5533 12.2191 801 106.795 42.2322 473.975
704 0 69.3007 11.6449 807 108.224 42.3234 473.23
705 0 71.2192 13.5918 968 107.401 41.6622 466.296
706 0 76.2284 14.1155 1076 105.997 41.224 465.359
707 0 75.1432 15.038 1130 105.635 41.3504 457.715
708 0 79.2557 12.8697 1020 108.329 40.4578 460.244
709 0 83.4796 15.8602 1324 104.129 40.6239 457.478
710 0 83.2487 15.796 1315 104.632 40.0776 455.581
711 0 88.3318 17.5928 1554 101.171 40.4408 451.494
712 1 46.1781 14.8988 688 100.75 39.6192 473.906
713 0 45.2088 10.5289 476 105.664 40.7983 475.714
714 0 48.1767 11.3956 549 105.945 38.4827 469.965
715 0 49.3709 10.3705 512 107.6 37.6816 470.391
716 0 52.2003 15.5172 810 99.542 39.6481 467.991
717 0 52.2182 13.6351 712 104.334 41.2022 466.555
718 0 51.1589 11.6695 597 108.296 40.6717 464.07
719 0 57.2229 14.8192 848 102.486 41.52 463.92
720 0 56.2629 13.4902 759 103.879 40.4717 466.385
721 0 59.0738 11.8834 702 106.665 42.4459 461.456
722 0 61.3582 17.2267 1057 99.1618 42.4182 457.773
723 0 60.1357 10.3932 625 110.397 44.0464 459.661
724 0 61.1808 9.85603 603 111.008 44.3632 458.864
725 0 67.1879 13.7525 924 104.461 44.6212 458.319
726 0 71.2928 14.6158 1042 102.878 44.8848 455.656
727 0 71.1964 12.4164 884 106.471 45.9695 458.484
728 0 75.3182 18.0833 1362 98.9993 46.1189 457.67
729 0 75.1724 12.345 928 108.12 46.778 454.432
730 0 76.3405 13.3088 1016 106.771 48 458.674
731 0 79.548 13.451 1070 107.02 47.3402 457.074
732 0 82.2354 13.9113 1144 106.413 47.1687 456.517
733 0 85.2248 13.6815 1166 107.617 46.2024 454.892
734 1 47.2543 12.8031 605 102.864 44.838 479.823
735 0 45.1368 10.3906 469 109.292 44.2537 478.117
736 0 47.0842 12.0635 568 105.352 43.3011 478.528
737 0 49.1159 10.5058 516 107.955 44.6492 477.399
738 0 49.0796 12.0824 593 107.258 43.6863 477.6
739 0 47.1376 11.0103 519 110.335 43.368 476.198
740 0 52.4322 13.4841 707 105.307 43.0523 480.594
741 0 54.088 14.9756 810 103.291 43.4667 478.204
742 0 56.2051 18.9129 1063 98.4356 42.7912 472.77
743 0 55.1781 14.7341 813 104.184 42.7196 477.28
744 0 58.269 15.5143 904 104.488 42.6516 474.413
745 0 57.054 11.9711 683 110.877 41.2387 473.531
746 0 61.1073 14.5318 888 105.58 41.0101 473.018
747 0 63.3296 12.885 816 109.06 40.8284 470.572
748 0 63.1267 13.9244 879 108.117 41.1445 465.61
749 0 65.3753 13.5678 887 108.161 40.3405 470.672
750 0 71.3572 15.6256 1115 104.647 39.9211 465.886
751 0 73.3447 15.3794 1128 105.28 39.9876 465.192
752 0 72.4664 11.7986 855 111.394 39.8105 461.773
753 0 76.7505 15.4527 1186 106.44 39.6526 456.321
754 0 77.3566 15.5901 1206 107.42 40.3698 451.709
755 0 80.675 19.2873 1556 101.494 41.0167 457.22
756 0 81.4572 19.3721 1578 102.24 40.3384 455.508
757 0 82.6112 12.8917 1065 111.384 41.3549 447.925
758 0 88.3531 15.3362 1355 109.038 41.4922 449.427
759 1 45.3008 10.1323 459 111.924 42.7298 469.824
760 0 51.1554 13.4297 687 104.339 42.8239 470.937
761 0 50.2635 10.8031 543 106.856 42.4346 465.184
762 0 52.1989 13.8126 721 105.94 44.0444 464.373
763 0 53.3616 13.6428 728 105.283 44.1703 467.037
764 0 55.259 14.423 797 105.527 44.1468 465.54
765 0 56.2132 13.769 774 107.366 45.3553 463.477
766 0 57.3772 14.0125 804 109.086 45.2749 460.882
767 0 61.1536 15.3548 939 105.454 45.9148 465
768 0 61.1858 16.7523 1025 104.214 46.1132 461.321
769 0 61.6014 14.4153 888 107.74 46.1824 464.125
770 0 62.1982 13.5856 845 110.844 47.2935 459.379
771 0 66.2663 13.0836 867 111.223 47.173 461.028
772 0 69.3356 16.0812 1115 106.694 47.2574 461.887
773 0 71.4345 12.319 880 112.057 46.8159 460.109
774 0 74.2196 12.8537 954 110.787 47.5031 462.123
775 0 76.2658 14.8297 1131 107.502 47.9956 461.029
776 0 79.1786 13.438 1064 109.539 48.1128 461.912
777 0 79.2914 13.2297 1049 111.578 48.3031 459.912
778 0 82.2317 13.6201 1120 110.017 47.7241 461.594
779 0 89.2857 19.9472 1781 101.733 47.5194 457.542
780 1 48.2684 12.5134 604 108.788 49.5464 479.901
781 0 47.4088 12.8457 609 109.972 48.5862 477.094
782 0 47.4388 13.8284 656 112.613 47.9314 471.681
783 0 49.0513 13.6388 669 114.012 45.6009 475.851
784 0 52.1127 14.3343 747 112.639 44.0723 479.399
785 0 50.1689 12.4778 626 116.417 43.7444 478.12
786 0 55.2538 17.501 967 107.3 43.4581 476.019
787 0 52.1718 12.938 675 116.32 42.36 474.933
788 0 56.1151 14.6306 821 112.128 42.598 474.242
789 0 57.2787 11.5924 664 116.989 41.0783 473.973
790 0 58.1171 10.995 639 117.106 41.7621 469.74
791 0 59.2244 13.4066 794 113.655 41.0529 466.351
792 0 65.2143 13.4786 879 111.552 40.6405 467.677
793 0 68.197 20.3675 1389 101.883 40.1677 464.289
794 0 72.5189 15.6925 1138 105.842 40.4069 464.995
795 0 75.2488 14.8574 1118 107.4 40.5492 458.386
796 0 75.2351 12.7467 959 108.455 38.8029 461.808
797 0 75.4261 12.7542 962 109.955 39.0821 458.012
798 0 79.5239 15.0269 1195 106.617 39.2167 455.697
799 0 82.4906 15.626 1289 106.801 39.3468 448.23
800 0 87.4945 15.7953 1382 106.392 40.6194 443.742
801 0 88.5087 15.3318 1357 107.746 40.5402 443.976
802 0 92.6545 18.9845 1759 104.843 41.12 441.341
803 0 96.7484 16.5688 1603 106.636 41.8721 443.648
804 1 50.3972 16.7073 842 106.226 41.9739 462.002
805 0 53.456 13.8245 739 107.618 43.594 462.303
806 0 56.1542 15.2081 854 103.74 43.9555 462.725
807 0 55.0439 11.5726 637 110.485 45.9953 460.424
808 0 61.2815 15.8286 970 101.354 45.1454 463.501
809 0 60.2288 15.7566 949 103.986 45.8177 459.517
810 0 60.0837 14.8127 890 105.972 46.6652 461.188
811 0 63.1882 17.0918 1080 101.631 46.2481 461.757
812 0 66.1324 15.3178 1013 104.859 46.7759 459.016
813 0 71.3578 16.6625 1189 101.606 47.1926 459.013
814 0 69.2642 14.5241 1006 107.039 47.1799 458.327
815 0 71.3371 14.032 1001 108.106 48.012 458.123
816 0 74.4385 13.313 991 109.967 47.2725 456.979
817 0 75.4449 13.3475 1007 109.379 48.1261 454.075
818 0 77.1161 14.0956 1087 108.808 47.7544 452.662
819 0 80.1744 15.5661 1248 106.312 47.9335 451.374
820 0 83.3838 18.8526 1572 100.954 46.7983 457.711
821 0 83.3684 14.346 1196 108.116 47.2893 453.987
822 0 87.3909 14.006 1224 109.655 47.8423 452.661
823 0 91.2495 14.6741 1339 107.997 46.5848 451.242
824 1 46.1634 14.9469 690 106.526 46.2899 475.087
825 0 46.2367 12.5441 580 111.441 45.65 472.055
826 0 50.2564 12.9536 651 110.413 45.2765 469.562
827 0 52.1027 16.1412 841 104.568 46.3746 471.949
828 0 52.082 13.7284 715 109.557 45.7692 467.524
829 0 54.1033 13.5112 731 109.904 45.13 467.471
830 0 55.24 12.9254 714 109.765 44.0056 468.521
831 0 57.0748 14.7701 843 106.489 44.3476 468.05
832 0 60.2354 14.0947 849 105.76 43.0283 466.332
833 0 63.2353 14.8809 941 103.763 42.8353 467.075
834 0 64.0789 14.7318 944 104.8 42.5932 466.311
835 0 67.2358 17.6245 1185 98.184 41.8776 466.41
836 0 71.2512 17.0102 1212 98.2599 40.1922 459.567
837 0 73.3655 13.1533 965 102.02 41.7316 461.282
838 0 73.2834 15.4332 1131 99.9019 41.6605 458.446
839 0 78.2185 14.4978 1134 101.371 42.3219 452.915
840 0 79.1862 14.8763 1178 99.7513 41.9898 454.246
841 0 83.5202 12.7754 1067 101.202 41.1153 455.87
842 0 86.2571 15.4306 1331 99.3276 40.6326 449.727
843 0 86.2236 12.4096 1070 102.179 41.7215 448.313
844 0 92.41 18.169 1679 96.7457 41.3085 441.437
845 0 94.3775 21.1809 1999 93.5823 41.7119 439.12
846 0 95.375 11.4705 1094 103.061 41.0027 439.51
847 0 99.32 13.9146 1382 99.6874 41.8929 441.716
848 1 53.1541 14.5614 774 97.0749 42.4212 462.136
849 0 57.3127 20.0479 1149 90.8129 41.8024 460.078
850 0 56.3051 19.3411 1089 91.7943 42.6253 459.034
851 0 57.3692 15.4613 887 96.3484 43.4329 457.108
852 0 58.5128 11.7752 689 100.271 43.3788 455.951
853 0 61.2572 12.472 764 99.4437 45.0576 456.351
854 0 64.2846 12.5691 808 99.6324 45.1312 459.324
855 0 67.1592 17.4213 1170 94.9855 46.365 459.047
856 0 69.141 17.6596 1221 94.7756 46.3432 458.966
857 0 71.2828 18.3775 1310 94.4382 47.1527 457.418
858 0 73.1777 14.3896 1053 100.065 47.5347 454.725
859 0 74.3977 12.9036 960 102.422 48.0594 456.549
860 0 78.2883 19.8753 1556 94.135 47.8425 458.48
861 0 79.1028 16.7377 1324 98.3973 48.4335 457.73
862 0 82.1698 16.4172 1349 99.3143 47.5352 457.42
863 0 83.2149 11.6926 973 107.253 46.9219 459.95
864 0 85.1444 11.5333 982 110.221 47.5193 453.901
865 0 91.1982 15.4279 1407 104.908 47.8017 455.437
866 0 94.4751 14.6388 1383 106.696 46.5589 451.723
867 1 48.2427 8.24995 398 110.312 48.1307 478.515
868 0 50.0708 11.1043 556 105.509 46.0018 478.273
869 0 49.2896 9.90067 488 109.209 45.877 473.635
870 0 50.4496 13.3599 674 105.905 46.043 473.197
871 0 54.1546 12.4458 674 106.322 45.635 474.522
872 0 56.1692 18.3375 1030 99.2019 44.8961 471.841
873 0 59.2563 14.8845 882 102.464 44.3333 474.341
874 0 61.2395 13.8473 848 104.336 44.1226 472.482
875 0 59.2146 11.7032 693 109.268 43.4156 470.706
876 0 64.1517 17.7548 1139 100.582 42.5154 465.374
877 0 68.2502 19.663 1342 97.0231 42.228 469.282
878 0 68.2039 12.492 852 107.622 42.27 464.953
879 0 71.2067 13.0746 931 106.45 42.681 462.148
880 0 74.2446 16.4726 1223 102.083 42.2576 462.498
881 0 75.2687 13.3522 1005 107.192 42.3035 460.069
882 0 79.1432 14.9097 1180 105.081 42.2051 457.57
883 0 82.267 12.0705 993 109.105 42.3072 457.513
884 0 83.2535 12.2277 1018 109.194 42.334 454.698
885 0 86.1961 14.7686 1273 106.867 42.3197 449.382
886 1 48.1585 11.7113 564 108.206 42.8848 468.931
887 0 47.1121 11.738 553 108.611 43.1754 464.91
888 0 49.1017 9.85709 484 111.26 43.8202 467.835
889 0 52.0566 11.8141 615 111.164 44.0049 463.476
890 0 54.0724 11.5586 625 107.931 44.5392 464.566
891 0 57.0889 13.6629 780 104.632 44.2923 461.444
892 0 57.1864 15.4407 883 101.928 44.9185 462.119
893 0 57.1241 12.6742 724 107.001 45.7265 459.142
894 0 58.081 12.4309 722 107.294 45.6371 457.582
895 0 61.0343 12.0588 736 106.571 46.3438 461.37
896 0 62.0672 14.9032 925 103.881 46.7535 454.88
897 0 65.0808 13.6753 890 104.773 47.2303 458.428
898 0 68.0844 14.3939 980 103.766 47.1765 456.915
899 0 71.2216 13.6054 969 104.239 47.8648 459.235
900 0 71.0857 13.8143 982 106.029 48.6813 453.1
901 0 76.2715 14.4877 1105 104.687 48.9692 454.386
902 0 76.1711 14.7563 1124 105.316 47.8425 454.788
903 0 79.1587 14.6162 1157 105.162 48.5514 454.547
904 0 83.3056 13.3364 1111 106.483 48.8389 453.72
905 0 84.3196 12.8677 1085 107.371 49.0424 454.119
906 0 88.2933 14.3839 1270 105.24 48.0134 454.236
907 0 89.2985 12.4078 1108 108.666 48.0478 453.242
908 0 93.2965 16.7102 1559 102.903 47.6491 451.994
909 0 96.206 13.5127 1300 107.795 47.2138 450.284
910 1 54.1311 12.599 682 105.611 47.7595 469.782
911 0 56.1726 11.3222 636 105.105 46.5016 475.437
912 0 59.2309 16.5454 980 97.8061 46.0735 475.348
913 0 60.2414 13.0309 785 104.524 44.428 469.696
914 0 61.0601 17.3599 1060 100.36 43.8066 467.682
915 0 63.1925 12.6914 802 107.218 42.4564 468.585
916 0 65.1321 14.1712 923 102.102 41.078 472.198
917 0 64.0951 11.6702 748 109.122 40.5134 462.253
918 0 69.104 14.5433 1005 104.081 40.4766 462.057
919 0 71.2053 14.4512 1029 103.925 39.9388 465.286
920 0 73.0839 14.627 1069 103.604 39.7456 462.588
921 0 77.3103 14.5906 1128 103.16 39.6738 458.501
922 0 78.3251 15.4612 1211 100.758 39.8035 461.763
923 0 80.24 13.9955 1123 104.484 39.1095 455.142
924 0 81.1677 16.0655 1304 103.693 39.0123 450.466
925 0 84.2871 13.81 1164 106.539 39.4124 447.292
926 0 88.3486 17.5894 1554 101.616 39.2375 448.14
927 0 86.315 10.7861 931 112.305 39.4157 444.337
928 0 92.396 15.9964 1478 105.028 39.1543 441.333
929 0 97.4757 19.2253 1874 99.9979 39.2753 438.718
930 0 97.2311 12.3829 1204 108.375 39.9659 440.498
931 0 102.313 16.4789 1686 104.31 39.9306 435.699
932 1 54.2572 10.4318 566 108.73 40.083 457.357
933 0 54.2572 10.3212 560 144.911 41.0518 457.439
934 0 55.2289 9.17997 507 109.201 43.0178 454.661
935 0 59.1515 12.8484 760 103.784 43.2132 457.653
936 0 62.1036 14.7818 918 99.4848 44.4967 462.027
937 0 63.1338 12.8933 814 102.893 45.3796 458.247
938 0 63.2005 12.8005 809 104.912 46.1483 453.377
939 0 66.209 14.0464 930 103.913 46.2753 454.33
940 0 67.3358 15.5341 1046 102.282 46.0057 452.294
941 0 70.177 12.5112 878 106.028 46.4396 450.751
942 0 74.3449 14.4596 1075 103.321 46.2967 449.918
943 0 76.2598 14.9489 1140 103.064 45.9482 454.418
944 0 80.4919 16.921 1362 101.211 46.8421 449.355
945 0 79.1925 13.8144 1094 106.731 47.8894 452.793
946 0 85.2948 12.6268 1077 108.235 47.9471 449.066
947 0 89.1253 15.3716 1370 102.829 48.0526 452.477
948 0 89.632 14.1133 1265 105.811 48.1518 445.41
949 0 92.5665 12.2399 1133 109.227 47.9532 440.857
950 1 50.2768 12.6699 637 105.454 48.5055 468.631
951 0 53.5561 11.8007 632 105.674 48.4953 468.677
952 0 53.0729 14.6779 779 101.094 47.887 469.691
953 0 55.1473 12.9653 715 104.922 47.1357 466.631
954 0 57.2509 13.3972 767 105.164 44.6806 469.752
955 0 59.1553 14.7409 872 103.245 44.1044 470.021
956 0 60.1892 13.7898 830 104.81 44.7386 471.087
957 0 62.1488 13.9021 864 104.568 44.3461 470.215
958 0 64.097 14.2128 911 104.921 43.8661 469.082
959 0 66.1744 15.2627 1010 103.298 42.5752 465.993
960 0 69.1878 14.8292 1026 104.569 42.8519 465.328
961 0 71.1673 13.405 954 106.004 42.044 464.575
962 0 75.2303 14.8344 1116 103.461 42.3235 461.899
963 0 76.2265 16.7133 1274 101.241 42.0181 461.633
964 0 79.3751 13.5181 1073 105.818 42.8695 454.941
965 0 80.5234 13.3377 1074 106.456 42.3045 452.886
966 0 81.4978 17.4851 1425 101.376 41.4175 447.199
967 0 83.5964 14.2949 1195 106.368 41.4251 448.325
968 0 89.6862 17.1598 1539 101.148 40.8311 448.814
969 0 88.7256 12.2062 1083 109.391 40.4478 447.023
970 0 92.5106 14.4632 1338 106.312 40.4357 445.214
971 0 95.5248 12.5412 1198 109.563 40.8189 442.968
972 0 95.3906 11.8251 1128 114.254 41.016 439.752
973 0 99.5753 12.9048 1285 110.468 40.5798 435.417
974 0 104.704 13.5334 1417 108.101 42.6641 433.224
975 0 110.553 20.0809 2220 99.505 42.2887 432.705
976 0 109.469 13.0357 1427 111.113 43.4289 428.973
977 1 61.2426 11.7075 717 108.762 43.5704 455.911
978 0 63.2543 14.0544 889 105.781 44.4679 450.994
979 0 63.2615 11.6501 737 108.936 44.7558 453.714
980 0 68.1939 13.1097 894 107.306 45.6309 450.163
981 0 68.3096 13.1899 901 108.134 44.5816 447.578
982 0 74.4384 13.7295 1022 107.035 46.1928 446.782
983 0 76.3092 20.1286 1536 98.2767 45.584 447.854
984 0 77.3984 14.6644 1135 105.418 46.9216 445.069
985 0 80.282 10.9365 878 109.606 47.4977 445.327
986 1 47.1281 13.8559 653 102.06 49.193 463.747
987 0 46.2376 8.97538 415 107.788 50.5229 466.164
988 0 46.3799 8.60286 399 107.316 48.6692 460.682
989 0 48.3982 10.9922 532 104.336 48.6053 459.28
990 0 50.1296 8.07906 405 106.899 49.5309 464.62
991 0 54.2347 10.6574 578 103.5 49.8651 460.834
992 0 54.2205 12.191 661 101.418 49.3918 462.257
993 0 56.2296 13.4093 754 100.224 49.1088 464.351
994 0 58.3047 9.02157 526 105.053 47.6673 461.54
995 0 59.3153 12.5263 743 101.227 48.1709 466.416
996 0 61.2761 15.7974 968 98.282 47.937 461.251
997 0 58.1649 10.2123 594 102.897 47.4613 463.253
998 0 62.2974 9.63123 600 104.942 47.08 465.902
999 0 68.3341 11.0633 756 101.143 46.6772 463.291
1000 0 70.4193 14.9959 1056 93.8797 45.2879 465.949
1001 0 72.203 12.7696 922 97.4479 44.4696 458.031
1002 0 75.3924 15.6515 1180 95.8254 42.9119 459.18
1003 0 76.7425 9.73385 747 100.958 42.9183 460.731
1004 0 79.362 14.5914 1158 98.8083 42.5069 457.424
1005 0 82.2719 14.8289 1220 96.6279 41.7451 451.372
1006 0 84.2065 12.7662 1075 100.084 42.0958 450.184
1007 1 42.1741 10.9309 461 94.7961 42.449 471.046
1008 0 44.2506 13.5817 601 94.6156 41.975 471.181
1009 0 44.5553 9.7407 434 101.035 40.9217 467.588
1010 0 45.5095 10.6132 483 100.867 40.8944 467.675
1011 0 50.1505 13.1604 660 95.2621 42.1348 468.365
1012 0 50.1233 11.1525 559 99.0984 42.6959 466.308
1013 0 50.278 11.5756 582 99.2148 42.3832 466.773
1014 0 50.1991 11.0759 556 99.9676 42.9083 468.016
1015 0 54.1717 13.6603 740 96.3797 42.3446 467.003
1016 0 57.1484 11.0064 629 99.027 43.0048 464.483
1017 0 56.2031 12.4548 700 99.3786 43.5571 460.311
1018 0 59.0924 10.5597 624 101.428 44.4487 458.737
1019 0 58.0683 13.5186 785 98.749 44.8764 455.524
1020 0 61.1306 15.6387 956 95.4027 43.9362 457.463
1021 0 63.1389 14.3018 903 96.7386 44.742 453.729
1022 0 64.1323 11.1956 718 99.9791 45.2911 452.741
1023 0 65.1443 11.0217 718 99.5348 45.5111 453.022
1024 0 70.2629 15.7978 1110 94.6063 45.6441 447.246
1025 0 73.2631 12.5029 916 98.6812 47.1266 453.588
1026 0 74.1608 15.4934 1149 95.9861 46.4648 449.783
1027 0 75.1179 13.0329 979 100.091 48.0133 448.963
1028 0 78.3689 12.9005 1011 100.116 48.366 450.825
1029 0 79.2637 16.3883 1299 98.4442 46.9438 451.798
1030 0 84.5941 13.6416 1154 101.358 47.4419 445.901
1031 0 85.4653 14.6141 1249 101.737 47.7246 446.313
1032 0 91.5686 11.7398 1075 108.45 47.8707 448.439
1033 1 46.0983 8.33002 384 108.492 46.2292 470.422
1034 0 50.1562 16.967 851 95.5253 46.3114 470.995
1035 0 53.0779 13.8099 733 97.1623 47.1201 469.475
1036 0 51.1077 10.2333 523 104.53 48.8031 470.795
1037 0 54.2497 13.2351 718 99.1045 49.7535 474.146
1038 0 53.1239 13.6473 725 101.193 48.5779 468.926
1039 0 59.2413 17.4709 1035 95.0802 48.1217 471.878
1040 0 56.0911 13.2641 744 101.626 47.582 469.086
1041 0 58.1294 11.5604 672 103.097 47.9182 469.662
1042 0 61.1566 12.1818 745 101.881 47.8282 468.019
1043 0 65.2175 13.9227 908 99.1674 47.0363 472.55
1044 0 65.1326 11.4843 748 103.15 45.6524 465.666
1045 0 70.4069 16.1916 1140 95.4561 44.8614 470.675
1046 0 71.3377 11.6488 831 102.934 44.4537 462.608
1047 0 72.3215 13.675 989 100.031 43.3761 464.831
1048 0 77.2824 14.4406 1116 98.7303 42.5905 464.405
1049 0 79.5389 17.5763 1398 93.6388 41.9928 466.381
1050 0 79.4084 12.3664 982 99.7943 41.0193 466.199
1051 0 83.3771 13.8527 1155 99.9108 41.7169 459.803
1052 0 85.3904 20.0139 1709 93.1129 40.1937 454.424
1053 1 46.0679 12.2211 563 99.913 41.3002 474.771
1054 0 45.6739 11.1004 507 100.813 38.0217 471.217
1055 0 50.6683 16.7955 851 91.886 37.9824 473.945
1056 0 52.4722 14.2361 747 98.0495 39.0576 469.768
1057 0 53.3513 17.3004 923 94.0152 38.6457 473.036
1058 0 55.4732 13.1775 731 100.293 39.1929 467.818
1059 0 54.5722 12.7721 697 101.455 39.6686 464.522
1060 0 58.4876 14.2423 833 100.038 39.0036 464.425
1061 0 56.4174 11.1313 628 105.298 39.5971 464.393
1062 0 57.4659 14.0431 807 103.144 41.0359 460.141
1063 0 60.3525 14.9952 905 101.103 40.7702 462.048
1064 0 61.2815 14.98 918 102.718 41.78 460.89
1065 0 62.8744 15.4117 969 102.455 41.9587 457.488
1066 0 64.6074 16.3913 1059 101.356 42.5477 458.172
1067 0 67.5681 17.1383 1158 99.5751 42.7237 457.652
1068 0 67.309 17.6648 1189 100.809 43.9622 453.034
1069 0 68.4036 13.8297 946 106.514 44.4746 454.194
1070 0 70.4127 14.4576 1018 105.959 45.8772 454.342
1071 0 72.3512 14.2776 1033 108.618 46.5131 450.757
1072 0 74.4632 15.5647 1159 105.39 45.8973 452.917
1073 0 74.3764 15.0854 1122 107.892 46.9813 451.558
1074 0 76.3281 15.1845 1159 107.833 47.1018 453.878
1075 0 80.3985 14.7391 1185 108.342 47.1814 452.035
1076 0 81.2285 12.7295 1034 113.205 48.5638 452.825
1077 0 84.1576 16.778 1412 108.591 48.2195 454.465
1078 0 87.2797 16.5789 1447 108.449 48.4243 455.288
1079 0 90.3628 14.1872 1282 112.89 48.6115 452.177
1080 0 92.2391 13.942 1286 114.13 47.7271 453.299
1081 0 94.4383 15.4069 1455 111.374 47.3292 452.599
1082 0 100.335 17.4116 1747 107.7 46.4762 448.141
1083 0 101.56 16.1776 1643 109.553 46.6354 448.01
1084 0 107.698 19.4247 2092 102.667 45.4077 453.277
1085 0 107.614 15.1653 1632 107.733 45.1949 448.917
1086 0 114.479 18.8681 2160 102.255 44.5597 445.568
1087 0 116.522 20.5541 2395 100.838 43.9553 444.545
1088 0 121.534 21.7799 2647 99.0752 42.7628 441.903
1089 0 123.033 17.6619 2173 105.128 42.3405 430.935
1090 0 128.731 19.568 2519 101.352 41.3358 440.247
1091 1 63.4698 16.0706 1020 103.948 41.599 466.831
1092 0 66.4109 11.2331 746 111.54 41.2185 462.114
1093 0 68.4177 12.0875 827 107.739 40.0351 464.105
1094 0 71.3573 17.5875 1255 100.453 40.1602 459.366
1095 0 70.4481 13.5987 958 103.11 39.3852 458.027
1096 0 72.5132 13.0321 945 105.143 39.2593 455.698
1097 0 74.2852 12.2635 911 106.234 39.8079 454.796
1098 0 81.2856 23.5589 1915 91.882 39.0992 457.497
1099 0 82.1919 16.5466 1360 101.893 40.8544 458.84
1100 0 83.1543 13.1923 1097 107.081 39.8861 457.326
1101 0 87.5203 15.1965 1330 103.847 39.6451 454.162
1102 0 87.4182 12.8692 1125 108.871 39.632 450.106
1103 0 89.4861 14.4603 1294 107.91 39.7295 446.532
1104 0 95.7286 15.4604 1480 106.282 39.8277 430.686
1105 0 97.6057 15.4704 1510 105.388 40.0053 437.691
1106 0 103.699 16.6251 1724 103.745 40.5371 435.268
1107 0 106.757 17.9661 1918 100.855 40.5751 431.746
1108 0 110.57 13.8102 1527 106.978 41.427 431.578
1109 1 49.2595 11.5308 568 103.85 40.5669 457.859
1110 0 53.3608 12.3686 660 103.291 41.3348 459.986
1111 0 53.4141 11.7385 627 104.053 42.3684 461.84
1112 0 55.1236 12.0457 664 103.673 42.1913 462.657
1113 0 56.1541 12.9109 725 103.29 42.4938 459.919
1114 0 67.1802 15.317 1029 96.312 42.5432 455.224
1115 0 66.23 19.0095 1259 93.058 43.2097 454.249
1116 0 68.2644 17.0221 1162 95.5396 43.9355 456.819
1117 0 62.1556 12.3078 765 104.833 43.1268 458.25
1118 0 68.2525 15.6478 1068 98.0075 44.367 463.112
1119 0 68.1931 13.6671 932 102.058 43.2511 459.745
1120 0 72.0816 13.4847 972 103.378 43.8025 459.805
1121 0 75.1358 14.4671 1087 101.217 43.7176 461.036
1122 0 75.1749 15.6302 1175 102.005 44.1064 454.839
1123 0 78.1617 12.0391 941 106.749 44.2752 459.219
1124 0 82.2923 14.1569 1165 103.479 43.9751 458.967
1125 0 84.4306 13.7036 1157 106.051 44.2472 456.62
1126 0 91.2413 15.2672 1393 101.571 43.8363 464.282
1127 0 90.0624 20.3859 1836 97.8834 44.5332 460.076
1128 0 89.141 11.7679 1049 110.179 41.3718 455.242
1129 0 95.2511 12.6403 1204 108.273 41.4003 454.88
1130 0 100.173 14.7345 1476 105.926 40.9831 457.579
1131 0 98.4015 10.071 991 113.258 40.664 456.688
1132 0 103.287 11.9182 1231 110.534 39.3258 453.821
1133 0 107.415 13.2757 1426 108.347 39.0947 450.153
1134 0 112.315 17.1928 1931 103.413 38.436 446.273
1135 1 59.4574 15.2714 908 103.977 40.2698 470.398
1136 0 64.6221 13.5712 877 104.946 38.9772 469.891
1137 0 62.5886 10.8486 679 109.953 38.7496 467.065
1138 0 64.402 13.5865 875 106.581 38.1394 462.521
1139 0 64.5744 13.2715 857 107.266 37.6803 462.716
1140 0 68.5081 14.1297 968 105.643 37.8626 462.753
1141 0 70.2433 13.3678 939 107.737 38.082 462.282
1142 0 72.2758 14.3616 1038 105.301 36.4547 462.821
1143 0 75.1395 16.7555 1259 102.609 35.8491 456.245
1144 0 75.1889 15.0953 1135 105.758 36.7595 457.898
1145 0 75.0735 12.3612 928 106.709 38.9569 457.216
1146 0 82.3637 16.2572 1339 101.119 40.0687 451.808
1147 0 82.2202 13.9625 1148 105.27 40.6742 448.896
1148 0 84.1642 13.8063 1162 105.28 40.7573 450.386
1149 0 86.1617 14.5772 1256 104.883 41.9634 450.236
1150 0 90.0815 15.9744 1439 103.129 41.5872 444.705
1151 0 91.1307 13.6507 1244 106.222 42.5177 442.79
1152 0 94.1273 12.7912 1204 107.797 43.6329 439.994
1153 0 100.626 16.7452 1685 101.593 43.6487 438.401
1154 0 102.281 13.7659 1408 104.146 44.4851 445.282
1155 0 106.317 15.7924 1679 103.049 44.196 438.488
1156 0 104.222 11.4467 1193 108.476 44.3018 438.516
1157 0 108.259 12.8119 1387 107.094 44.2985 436.58
1158 1 64.1406 12.1608 780 105.551 45.4308 463.392
1159 0 64.3226 13.5722 873 106.494 46.0756 457.47
1160 0 63.2993 11.9907 759 107.458 45.3742 449.845
1161 0 66.3031 11.2212 744 108.563 46.3293 450.898
1162 0 68.422 13.1829 902 103.834 45.9523 454.651
1163 0 71.2751 12.0379 858 107.706 46.5268 449.571
1164 0 71.2789 11.3778 811 106.464 45.2281 453.787
1165 0 75.4508 14.579 1100 107.156 46.3118 461.473
1166 0 76.5647 17.4754 1338 102.54 46.2945 461.107
1167 0 78.491 13.0079 1021 108.474 44.8031 465.748
1168 0 85.2321 18.8192 1604 100.82 45.2107 459.234
1169 0 85.3366 14.9643 1277 106.846 44.657 458.044
1170 0 86.6594 14.7936 1282 107.345 44.3565 456.952
1171 0 90.3459 16.3483 1477 106.538 44.5708 455.536
1172 0 90.5087 14.8494 1344 108.79 42.8341 460.423
1173 0 95.3104 12.5275 1194 112.146 42.3032 453.115
1174 0 98.4082 17.0209 1675 105.407 42.363 454.922
1175 0 99.5087 15.0841 1501 108.841 40.6802 452.049
1176 0 104.386 14.59 1523 108.72 40.8247 444.381
1177 1 54.0844 6.93361 375 115.496 39.088 473.688
1178 0 57.1738 11.054 632 109.801 38.9478 471.109
1179 0 55.0856 12.8164 706 106.309 38.1742 464.737
1180 0 61.2064 11.5511 707 105.98 37.802 464.332
1181 0 62.0925 12.9967 807 105.943 37.2392 465.465
1182 0 63.0933 12.4102 783 107.562 36.9234 461.654
1183 0 62.0627 10.3444 642 111.31 36.7274 461.192
1184 0 66.1844 11.7097 775 107.801 37.4994 465.506
1185 0 71.4319 15.5813 1113 100.694 37.3828 464.31
1186 0 72.2252 14.7594 1066 102.716 37.9512 458.128
1187 0 74.6163 14.0184 1046 103.939 38.6501 455.025
1188 0 74.2618 11.1901 831 107.634 36.982 457.886
1189 0 75.1467 10.3265 776 105.267 36.893 460.736
1190 0 82.2577 14.5761 1199 101.738 38.5229 452.6
1191 0 82.3346 11.6233 957 106.896 39.7367 449.619
1192 0 85.2454 13.4553 1147 104.046 38.4368 451.283
1193 0 88.1336 14.1944 1251 103.06 39.3653 446.815
1194 0 93.4822 15.7463 1472 100.031 40.6366 449.717
1195 0 95.2498 14.7297 1403 102.914 40.3464 442.038
1196 0 97.3168 15.9479 1552 101.62 41.6927 437.756
1197 0 100.395 10.8073 1085 107.696 42.6516 438.712
1198 1 55.3885 10.9409 606 102.65 42.2343 463.924
1199 0 57.5311 14.6529 843 99.4223 44.1222 459.827
1200 0 59.6456 12.6078 752 101.444 44.2247 458.488
1201 0 61.5701 18.2556 1124 94.8265 45.6076 458.445
1202 0 58.4296 11.5866 677 105.006 45.8213 455.487
1203 0 61.4231 14.5059 891 101.058 46.7362 459.504
1204 0 64.2377 14.9601 961 100.047 46.1686 460.688
1205 0 69.2645 14.9572 1036 99.2712 46.0753 456.995
1206 0 67.1967 10.819 727 105.403 46.1362 461.194
1207 0 70.1614 13.5117 948 102.034 45.4008 459.535
1208 0 74.2494 12.027 893 103.546 45.8164 461.031
1209 0 73.1527 13.7931 1009 101.67 44.0773 463.008
1210 0 77.1634 14.3203 1105 101.983 44.095 457.266
1211 0 79.0666 19.6923 1557 94.0796 43.6622 465.243
1212 0 83.1756 16.8319 1400 99.8157 43.3807 458.924
1213 0 85.0979 14.8887 1267 103.035 43.7538 456.41
1214 0 87.2278 14.8577 1296 103.007 43.064 455.472
1215 0 94.1066 18.5322 1744 96.4226 42.0814 463.659
1216 0 92.1914 12.7778 1178 106.101 41.1265 452.518
1217 0 94.1481 9.51692 896 109.837 40.5592 453.798
1218 1 56.0836 11.0371 619 103.507 38.4556 475.898
1219 0 56.1431 9.31549 523 105.576 38.5774 474.878
1220 0 57.1263 9.90787 566 105.24 38.5141 471.913
1221 0 60.174 11.1842 673 103.933 37.3477 468.569
1222 0 66.138 11.2038 741 102.233 38.4764 470.908
1223 0 67.1067 14.6483 983 96.8698 37.0621 467.937
1224 0 70.1746 13.6517 958 98.9624 37.452 465.964
1225 0 69.2834 11.5323 799 102.952 36.5269 461.31
1226 0 69.1193 13.0644 903 101.773 37.8605 463.882
1227 0 71.2344 13.982 996 100.334 37.3745 458.03
1228 0 75.1693 12.4652 937 102.803 36.9402 456.927
1229 0 75.2377 13.3045 1001 100.743 36.8372 457.666
1230 0 78.2253 10.5081 822 105.185 36.4672 451.779
1231 0 79.2625 13.3733 1060 102.707 36.85 451.383
1232 0 85.1892 15.6123 1330 99.5632 36.6233 451.427
1233 0 88.2512 13.5296 1194 101.678 37.7563 453.069
1234 0 88.3076 15.8537 1400 101.826 38.2564 445.945
1235 0 92.4296 12.9829 1200 105.858 38.2008 443.953
1236 0 94.2049 14.8294 1397 102.991 38.2226 446.567
1237 1 53.083 13.2057 701 99.689 39.1384 464.897
1238 0 56.1735 11.5357 648 103.377 39.3441 462.31
1239 0 55.1466 10.0097 552 105.944 40.4873 461.951
1240 0 59.2219 12.9344 766 99.5118 41.1828 465.27
1241 0 58.2295 7.47044 435 108.225 41.6023 459.503
1242 0 60.2011 11.3951 686 106.999 42.0991 456.754
1243 0 63.1029 14.7537 931 101.1 43.188 461.302
1244 0 65.1525 13.9519 909 101.537 43.516 460.364
1245 0 65.0525 13.3892 871 104.083 44.9644 460.233
1246 0 66.168 11.4708 759 108.1 43.8603 459.277
1247 0 69.1365 16.4168 1135 100.306 44.8079 459.1
1248 0 70.135 14.9996 1052 102.668 44.3584 459.246
1249 0 74.202 17.5063 1299 99.1316 44.2156 458.535
1250 0 73.0636 14.4395 1055 104.393 44.4028 457.796
1251 0 77.1429 11.6796 901 106.724 44.1421 461.99
1252 0 79.0855 14.3263 1133 104.933 44.6408 456.456
1253 0 82.1136 13.5422 1112 106.166 43.2923 455.177
1254 0 83.0697 12.4835 1037 108.248 43.7068 455.107
1255 0 88.1621 18.3299 1616 98.2989 43.776 457.445
1256 0 89.1281 12.9252 1152 107.695 43.6927 455.574
1257 0 92.1869 11.8563 1093 109.64 43.2864 454.638
1258 0 100.276 12.7149 1275 106.816 42.2557 453.392
1259 0 99.0834 12.3734 1226 109.867 42.1493 448.555
1260 1 51.0577 11.8493 605 107.337 40.2132 474.182
1261 0 51.1443 8.72043 446 112.146 39.574 468.426
1262 0 51.0886 13.3102 680 101.363 40.0647 473.401
1263 0 53.2467 12.4139 661 103.369 40.4856 470.666
1264 0 52.3404 11.1959 586 107.613 40.2918 465.403
1265 0 62.5637 14.3693 899 98.455 38.4372 465.75
1266 0 62.1204 11.3328 704 105.49 38.75 462.118
1267 0 63.3746 13.3019 843 102.307 38.3903 461.078
1268 0 62.1301 7.70963 479 109.722 37.1169 462.793
1269 0 67.1507 11.0647 743 104.563 37.7133 461.995
1270 0 69.389 12.0768 838 102.518 38.2494 463.011
1271 0 70.1247 16.2425 1139 98.0439 38.331 461.363
1272 0 74.3626 13.6897 1018 104.688 37.2937 458.776
1273 0 79.0957 16.9794 1343 100.112 38.0432 455.322
1274 0 79.3228 12.5689 997 107.108 37.7182 452.867
1275 0 84.1597 18.6669 1571 97.338 38.1744 455.071
1276 0 86.0921 14.0663 1211 103.18 38.308 449.672
1277 0 87.1463 13.7126 1195 104.362 39.3113 444.288
1278 0 89.0963 12.5258 1116 105.026 38.2778 449.642
1279 0 94.0962 15.4204 1451 101.5 39.4673 443.482
1280 1 52.0857 12.4602 649 100.911 40.6456 465.35
1281 0 55.1352 15.4711 853 95.9215 41.8593 462.964
1282 0 51.2649 8.44632 433 106.785 41.9007 460.148
1283 0 57.4022 11.341 651 101.246 42.0614 462.862
1284 0 57.3103 13.9765 801 97.829 42.4332 463.768
1285 0 58.4846 12.0374 704 101.342 42.8651 459.352
1286 0 61.3533 12.6644 777 100.381 43.6229 462.354
1287 0 64.2834 12.7093 817 100.469 44.0551 459.819
1288 0 65.4276 13.7098 897 99.0011 44.8807 458.469
1289 0 68.2368 13.7462 938 99.3262 44.6866 460.093
1290 0 70.1467 13.2009 926 100.44 44.9546 460.513
1291 0 69.3677 14.0123 972 100.384 45.8014 455.457
1292 0 74.3643 13.2725 987 100.562 45.8592 455.793
1293 0 77.2613 15.3634 1187 97.6386 45.7936 457.699
1294 0 81.2758 12.9313 1051 100.735 45.6365 460.636
1295 0 81.3189 16.5275 1344 97.7969 46.0193 454.966
1296 0 86.5043 15.8258 1369 98.2988 44.9963 455.564
1297 0 86.327 11.9545 1032 103.827 45.7122 452.653
1298 0 90.3938 16.3617 1479 97.3746 45.1034 458.472
1299 0 92.7294 11.5174 1068 104.052 45.9429 452.862
1300 0 94.3216 13.0405 1230 102.302 45.9537 456.976
1301 0 100.515 11.3715 1143 104.648 44.1435 452.077
1302 1 56.6122 13.0361 738 98.7304 44.0664 472.629
1303 0 58.244 16.4824 960 94.3146 43.8177 472.457
1304 0 60.0932 15.2763 918 95.5076 40.61 471.054
1305 0 63.264 11.9974 759 99.639 39.8551 471.231
1306 0 63.1543 12.0657 762 99.6365 39.0971 466.045
1307 0 65.1837 14.7583 962 96.5457 38.6258 465.366
1308 0 71.3238 14.4131 1028 96.5545 34.8142 462.735
1309 0 73.3482 16.1286 1183 95.415 38.3795 457.933
1310 0 79.591 16.4089 1306 94.1838 38.5291 457.339
1311 0 79.2975 13.1404 1042 98.8445 37.6939 455.547
1312 0 80.3531 14.0629 1130 100.286 37.7841 452.908
1313 0 81.2955 13.8015 1122 99.492 37.1301 448.38
1314 0 86.429 21.428 1852 89.8607 36.973 455.199
1315 1 48.2922 10.6435 514 98.6128 35.9319 470.562
1316 0 48.1997 13.693 660 96.1667 36.5227 467.171
1317 0 50.4587 15.478 781 94.8502 37.0294 464.946
1318 0 50.4665 15.971 806 94.6873 37.84 462.428
1319 0 50.3591 14.8136 746 97.0027 38.4853 461.369
1320 0 52.2216 17.1768 897 94.1683 40.2074 462.561
1321 0 55.4456 14.4286 800 96.9175 41.3112 461.708
1322 0 53.15 11.778 626 102.417 41.5623 460.19
1323 0 59.1332 15.964 944 94.7447 42.6239 461.691
1324 0 58.3202 14.9691 873 96.9141 42.8121 456.806
1325 0 59.1267 16.304 964 95.8517 43.2033 454.671
1326 0 58.1179 10.4615 608 101.23 44.8043 461.487
1327 0 62.1256 13.9234 865 98.4694 44.9491 457.454
1328 0 64.1557 14.0596 902 98.0687 46.3969 456.584
1329 0 62.151 11.1663 694 100.797 46.8588 458.566
1330 0 67.2103 15.8607 1066 94.6426 46.409 457.618
1331 0 67.1808 16.4184 1103 94.3998 47.0326 455.52
1332 0 70.1118 11.553 810 98.179 47.163 458.951
1333 0 76.3361 16.9645 1295 89.8255 47.8008 463.214
1334 0 73.099 14.665 1072 94.8554 46.8237 454.284
1335 0 74.1264 12.7215 943 96.1866 47.9417 459.501
1336 0 76.083 11.3954 867 97.0911 47.6828 458.472
1337 0 78.1612 11.6682 912 95.6261 47.1765 458.53
1338 0 79.1859 10.9868 870 96.1471 46.2299 459.845
1339 0 82.1351 12.6255 1037 94.4388 45.9267 457.555
1340 0 85.2108 10.21 870 96.7437 46.3138 458.449
1341 0 84.3725 13.9856 1180 93.0712 45.0203 453.203
1342 0 81.6849 11.0547 903 95.1174 43.4175 457.791
1343 0 87.3487 15.2034 1328 90.3351 42.4804 454.03
1344 0 86.3014 12.0624 1041 93.7041 41.8492 451.499
1345 0 91.2961 14.6556 1338 89.3468 41.2093 460.396
1346 0 90.336 12.21 1103 92.0381 40.2448 451.572
1347 0 94.4625 14.0585 1328 90.2575 39.7982 455.054
1348 0 93.5368 11.9846 1121 93.0339 41.6369 447.296
1349 0 96.4684 13.082 1262 91.3645 40.5753 445.03
1350 0 90.1767 6.95302 627 97.2982 40.3573 443.121
1351 0 97.5264 10.9304 1066 92.7204 39.8114 435.914
1352 0 101.648 12.012 1221 91.222 39.9042 438.606
1353 0 102.257 16.9671 1735 86.6392 39.3337 439.944
1354 0 103.38 13.165 1361 89.4732 39.2248 434.986
1355 0 103.239 11.0811 1144 91.0481 38.8969 437.198
1356 0 107.498 14.3352 1541 87.9215 38.8066 434.683
1357 1 12.3218 5.2752 65 82.0462 41.1692 482.831
1358 0 9.01042 3.77341 34 86.9118 40.5588 478.118
1359 0 8.00165 5.62384 45 85.8222 40.6444 476.089
1360 0 10.0027 8.2978 83 82.8434 39.8916 477.494
1361 0 13.0834 9.17189 120 83.8 41.3083 471.933
1362 1 122.403 12.3037 1506 88.2357 41.3333 425.266
1363 0 120.781 18.4714 2231 84.468 41.2385 416.277
1364 0 124.01 14.1118 1750 86.8926 41.384 418.269
1365 0 117.537 15.4079 1811 86.402 42.2717 400.78
1366 1 17.0073 12.3476 210 82.1667 42.8952 464.452
1367 0 18.0092 4.83085 87 84.8736 43.9655 470.471
1368 0 16.0077 14.618 234 79.9658 43.8333 461.44
1369 0 26.0118 11.3026 294 83.4456 44.7925 456.027
1370 0 23.145 5.40072 125 86.128 45.624 464.184
1371 0 19.0212 6.72935 128 86.4375 45.8906 460.867
1372 0 31.097 17.5258 545 77.756 44.9028 463.684
1373 1 10.004 4.99801 50 80.8 47 478.42
1374 0 21.0095 3.14143 66 87.8939 45.7121 464.53
1375 0 30.0252 11.6569 350 81.52 46.4314 464.714
1376 0 36.0753 7.06856 255 80.3529 45.7451 475.388
1377 0 34.0491 3.02505 103 88.0777 47.1165 464.019
1378 1 149.615 5.54088 829 91.5308 46.684 399.861
1379 1 137.605 12.049 1658 86.8957 46.2533 387.704
1380 1 7.00392 12.5644 88 75.5682 44.3636 483.273
1381 0 8.00504 5.62146 45 81.7778 45.0444 477.111
1382 0 6 4.16667 25 83.08 43.6 474.76
1383 0 0 0 3 83.3333 41 470
1384 0 10.002 7.39853 74 80.527 43.9595 474.851
1385 0 2 3 6 90.5 43.3333 472.333
1386 0 11.0243 2.26772 25 82.8 40.96 486.16
1387 0 0 0 0 -nan -nan -nan
1388 0 13.0624 10.1819 133 74.782 41.0075 483.466
1389 0 0 0 0 -nan -nan -nan
1390 0 9.00587 5.66297 51 78.7451 38.7451 485.314
1391 1 0 0 0 -nan -nan -nan
1392 1 14.0046 5.28397 74 81.8378 38.8108 468.892
1393 0 0 0 0 -nan -nan -nan
1394 1 0 0 0 -nan -nan -nan
1395 0 8.01527 6.73714 54 77.1852 37.3333 475.907
1396 0 9.02177 7.09395 64 81.6406 37.0625 466.906
1397 0 17.0061 3.35175 57 83.1754 37.8596 460.789
1398 0 26.1994 3.20618 84 84.3929 37.5833 460.095
1399 0 18.0727 3.48591 63 86.5714 38.5238 448.46
1400 0 18.0142 11.0468 199 76.8241 38.397 458.869
1401 0 12.0129 14.6509 176 81.9091 40.1591 430.415
1402 0 13.0118 5.30288 69 79.1884 37.7681 466.246
1403 0 11.0048 5.81564 64 78.2969 38.875 463.75
1404 0 11.0048 5.81564 64 89.6875 37.875 463.75
1405 0 18.0521 10.5805 191 82.2827 39.8272 434.77
1406 1 199.066 12.5134 2491 85.8695 40.3244 314.003
1407 1 232.229 16.0359 3724 82.7019 40.8381 353.738
1408 1 8.00918 10.3631 83 71.0361 38.8554 474.892
1409 0 6 3.83333 23 80.2609 40.9565 460.043
1410 1 30.2332 7.04524 213 80.5164 43.3568 453.638
1411 0 318.466 13.5022 4300 90.5672 43.4212 304.206
1412 0 301.583 16.0685 4846 88.7551 44.4831 284.351
1413 1 15.0195 6.85777 103 79.4272 42.8544 454.204
1414 0 9.00845 5.77236 52 80.5577 45.4808 455.673
1415 0 4 5.75 23 74.6956 44.9565 477.304
1416 1 262.15 11.2646 2953 85.807 46.8226 325.693
1417 0 260.67 11.4704 2990 85.4776 46.7161 338.975
1418 1 5 11.8 59 74.7119 45.5932 468.186
1419 0 8.01059 9.86194 79 75.3291 45.3544 465.228
1420 0 304.203 26.5974 8091 75.5371 45.1783 335.218
