time division length width area intensity CMx CMy
0 0 45.0382 16.0308 722 122.024 433.485 467.853
1 0 45.0851 11.5781 522 130.307 432.944 469.01
2 0 48.0543 16.086 773 126.431 432.737 467.305
3 0 50.0753 13.939 698 130.292 432.278 466.059
4 0 51.1999 14.9219 764 128.962 431.416 464.986
5 0 54.1105 16.263 880 123.89 430.26 465.102
6 0 54.0954 15.6945 849 125.941 429.366 461.022
7 0 54.0796 14.9224 807 128.766 428.591 460.856
8 0 58.1798 15.8474 922 125.922 428.013 460.069
9 0 57.2096 14.8052 847 129.839 427.035 461.858
10 0 59.1941 13.7007 811 129.853 426.825 461.448
11 0 65.1071 15.6972 1022 126.269 426.359 460.854
12 0 65.2288 15.6986 1024 124.095 426.148 456.499
13 0 69.1068 14.5717 1007 127.38 425.303 456.621
14 0 67.1388 13.3902 899 127.848 425.386 451.439
15 0 75.1678 14.594 1097 127.709 425.241 452.277
16 0 75.2454 17.33 1304 123.928 424.696 450.551
17 0 77.222 15.4231 1191 126.354 424.843 447.118
18 0 80.1236 16.6742 1336 122.463 424.823 448.82
19 0 84.1341 17.5078 1473 120.866 424.647 445.776
20 0 82.1066 15.7478 1293 143.378 424.674 443.62
21 1 41.0426 11.549 474 126.276 425.116 460.586
22 0 45.1113 15.628 705 116.696 424.399 460.46
23 0 45.1113 15.7388 710 135.57 424.406 460.365
24 0 46.0746 11.9155 549 127.215 427.871 459.933
25 0 46.1051 13.5994 627 126.699 429.166 455.185
26 0 47.035 14.9676 704 124.969 430.27 456.195
27 0 49.1256 14.6767 721 123.298 429.639 455.171
28 0 52.0653 14.3282 746 121.968 429.987 454.745
29 0 54.0694 13.5752 734 122.256 430.95 455.354
30 0 56.1756 17.8369 1002 114.607 430.379 455.766
31 0 56.0808 16.9577 951 114.253 431.612 453.533
32 0 59.0701 15.0499 889 118.99 433.389 452.426
33 0 59.1562 14.6899 869 118.647 433.993 447.15
34 0 62.0397 14.6519 909 119.307 435.45 450.914
35 0 66.0554 16.2742 1075 114.191 435.722 449.742
36 0 68.2001 13.7683 939 118.884 436.078 452.802
37 0 68.0993 11.9972 817 122.898 436.017 449.493
38 0 72.0637 14.7925 1066 117.297 436.093 449.813
39 0 76.2197 15.0617 1148 114.14 435.848 449.312
40 0 77.4203 13.4848 1044 117.296 435.998 451.504
41 0 83.1509 16.007 1331 112.014 435.624 450.559
42 0 84.2753 16.5885 1398 112.236 434.647 448.936
43 0 87.1531 16.7751 1462 112.982 434.557 447.3
44 0 87.2231 13.0585 1139 124.04 434.31 446.023
45 0 94.5465 13.6124 1287 117.608 433.604 448.137
46 0 98.179 14.2393 1398 130.18 432.806 446.724
47 1 52.0654 15.0004 781 124.243 432.634 467.531
48 0 55.0752 13.6722 753 126.817 431.631 468.142
49 0 57.1375 13.1437 751 122.569 432.238 469.228
50 0 57.0759 13.5083 771 125.387 430.734 468.074
51 0 62.2194 15.8472 986 122.292 431.328 465.729
52 0 59.219 12.4791 739 150.31 430.448 461.939
53 0 63.2745 13.9551 883 123.634 429.795 464.872
54 0 67.0559 16.6578 1117 119.848 429.147 460.746
55 0 68.1424 15.4676 1054 122.746 428.102 459.584
56 0 71.2211 15.9223 1134 121.976 428.126 459.31
57 0 72.1812 13.0505 942 128.468 427.548 456.201
58 0 74.193 11.1062 824 132.333 426.584 455.79
59 0 79.23 14.3759 1139 123.991 427.528 454.728
60 0 80.119 13.6422 1093 125.879 425.904 451.779
61 0 84.2364 13.569 1143 126.705 425.935 447.399
62 0 84.2753 11.8184 996 129.92 426.745 446.279
63 0 90.4279 14.0665 1272 126.744 426.542 442.208
64 0 91.26 15.3627 1402 124.975 426.171 443.92
65 0 94.5715 17.5317 1658 121.353 426.648 438.392
66 0 96.2986 13.1362 1265 129.757 427.096 436.34
67 0 101.348 18.4908 1874 119.629 426.515 434.457
68 0 101.348 18.4513 1870 137.466 426.522 434.571
69 0 107.322 14.4891 1555 126.69 426.804 429.913
70 0 108.498 13.908 1509 127.738 427.302 425.909
71 0 112.3 13.8202 1552 130.086 428.57 425.3
72 0 118.47 17.0423 2019 124.723 429.496 421.663
73 0 120.387 12.9749 1562 131.195 430.313 417.644
74 1 62.1806 12.2225 760 123.234 429.564 448.867
75 0 63.254 13.2798 840 122.699 431.101 453.348
76 0 69.0919 14.0393 970 117.216 431.558 451.294
77 0 67.2029 15.3267 1030 118.324 432.988 450.75
78 0 69.213 14.6215 1012 121.207 433.241 448.673
79 0 74.3808 13.7401 1022 121.1 433.894 454.521
80 0 73.3672 16.2607 1193 135.141 434.802 452.279
81 0 74.3481 14.7011 1093 123.545 434.083 451.345
82 0 77.6571 14.5512 1130 123.22 433.364 450.878
83 0 80.3857 15.7615 1267 122.592 433.438 447.736
84 0 81.2763 14.2969 1162 125.803 432.986 447.016
85 0 85.4856 15.1838 1298 123.871 431.844 446.587
86 0 88.54 16.9415 1500 120.167 431.7 449.927
87 0 91.7495 15.0192 1378 124.639 431.991 447.617
88 0 90.5475 11.6403 1054 132.468 431.528 440.418
89 0 95.9018 14.4314 1384 127.711 431.624 443.876
90 0 100.928 17.3489 1751 122.309 431.227 440.69
91 0 102.612 14.1309 1450 128.211 431.21 441.705
92 0 105.57 15.0042 1584 127.188 429.663 439.806
93 0 111.848 18.5431 2074 119.724 429.513 440.57
94 0 114.359 14.4544 1653 127.564 429.204 439.025
95 0 116.41 11.8546 1380 130.576 428.048 434.679
96 0 122.346 13.192 1614 129.229 428.748 438.143
97 1 65.2728 14.156 924 121.484 427.994 465.637
98 0 67.1338 14.985 1006 120.308 427.778 464.945
99 0 68.2623 11.3679 776 127.604 427.506 461.522
100 0 70.1159 13.1497 922 124.831 426.617 461.002
101 0 73.3921 13.4074 984 124.741 426.656 458.484
102 0 75.1395 14.0006 1052 124.442 425.794 455.49
103 0 78.1111 13.788 1077 125.111 425.86 454.937
104 0 80.1712 13.1344 1053 126.506 426.111 453.476
105 0 82.2059 12.9796 1067 127.626 425.059 453.717
106 0 86.3362 14.8142 1279 126.095 424.521 446.674
107 0 85.3935 12.2492 1046 131.441 424.629 445.54
108 0 90.3699 14.0755 1272 129.514 424.686 440.658
109 0 92.3017 12.86 1187 132.43 424.832 438.521
110 0 100.178 15.7719 1580 125.479 424.927 437.08
111 0 100.461 14.4633 1453 129.32 425.272 434.045
112 0 103.595 17.4912 1812 123.178 426.552 434.748
113 0 107.394 13.2968 1428 130.896 426.581 429.509
114 1 60.1861 14.3056 861 116.753 425.727 458.984
115 0 62.4674 14.1194 882 119.551 425.83 452.654
116 0 66.3761 12.6702 841 119.631 426.792 453.712
117 0 63.2176 9.74413 616 127.95 427.081 449.794
118 0 68.2741 13.314 909 120.365 427.52 452.539
119 0 71.327 12.0712 861 125.347 428.118 449.667
120 0 74.4793 13.1043 976 122.94 429.222 450.918
121 0 75.3756 13.6384 1028 124.287 430.62 447.301
122 0 78.3601 13.3742 1048 123.887 431.26 444.219
123 0 79.4344 13.2814 1055 124.601 432.349 444.247
124 0 83.3345 14.9398 1245 121.551 431.183 444.5
125 0 87.3596 14.9955 1310 121.044 431.237 445.781
126 0 85.1027 10.8575 924 130.348 432.208 445.579
127 0 89.2547 14.9348 1333 122.889 431.743 445.059
128 0 94.1224 15.6073 1469 121.854 433.087 443.893
129 0 96.4634 13.1449 1268 127.113 431.82 442.261
130 0 98.2582 14.9809 1472 124.544 432.23 438.368
131 0 102.508 13.9209 1427 124.31 431.31 438.928
132 0 106.397 13.2428 1409 125.576 431.324 440.383
133 0 109.61 11.7234 1285 127.871 430.613 437.809
134 0 113.603 16.4257 1866 120.714 430.192 434.054
135 1 58.1789 10.1927 593 122.875 427.762 467.074
136 0 62.3143 15.9675 995 114.069 427.807 463.895
137 0 62.2859 13.6628 851 124.884 429.021 461.022
138 0 66.3133 16.2863 1080 118.136 425.882 465.936
139 0 67.4072 15.8292 1067 119.739 427.074 463.398
140 0 66.2358 11.6251 770 127.495 425.4 461.835
141 0 72.2147 16.6033 1199 113.883 425.274 460.701
142 0 73.2128 13.4812 987 118.652 424.772 461.797
143 0 77.273 14.5458 1124 117.057 423.522 460.294
144 0 78.1665 14.9169 1166 118.049 423.202 452.575
145 0 79.1704 12.732 1008 121.44 421.224 455.027
146 0 84.2291 13.5108 1138 120.598 420.507 449.936
147 0 86.2108 12.9566 1117 121.911 420.755 450.117
148 0 89.2126 13.9666 1246 119.318 420.864 449.514
149 0 91.3831 12.9783 1186 122.472 420.6 442.997
150 0 93.2842 13.9359 1300 122.044 421.336 440.557
151 1 48.3639 10.9379 529 118.416 420.588 463.501
152 0 49.797 10.3018 513 120.405 421.52 462.341
153 0 51.226 10.4244 534 119.871 423.463 457.116
154 0 55.2349 13.7413 759 112.055 422.564 464.231
155 0 56.1444 15.5848 875 111.458 423.035 455.072
156 0 55.0396 15.3707 846 111.273 423.169 456.732
157 0 57.3819 13.2097 758 115.282 424.048 453.153
158 0 61.2544 13.9908 857 112.243 424.404 448.645
159 0 61.1626 12.524 766 114.689 426.098 452.217
160 0 65.2002 15.7361 1026 107.646 426.016 455.19
161 0 64.0743 8.75546 561 120.242 427.251 452.635
162 0 68.1233 15.0903 1028 111.935 427.282 447.785
163 0 70.1599 12.272 861 115.3 428.419 449.36
164 0 71.2522 16.1118 1148 110.956 429.127 446.083
165 0 74.2129 16.803 1247 111.264 429.723 447.199
166 0 75.2269 13.2134 994 118.042 429.526 448.167
167 0 79.266 14.3567 1138 114.867 430.465 449.184
168 0 82.2348 13.5466 1114 117.261 430.778 444.092
169 0 87.2761 16.2015 1414 109.886 429.371 451.32
170 1 45.1726 11.4893 519 113.447 429.114 468.008
171 0 47.1257 13.1987 622 110.191 430.801 467.728
172 0 46.0843 10.394 479 115.196 430.864 471.192
173 0 51.349 11.6069 596 112.757 429.567 468.178
174 0 50.1053 15.9863 801 107.627 428.959 469.73
175 0 51.1456 13.0607 668 111.907 428.704 468.987
176 0 54.1434 15.422 835 107.631 428.551 471.636
177 0 55.2311 12.9999 718 112.256 427.918 470.962
178 0 54.0844 10.2802 556 117.446 427.394 468.914
179 0 58.2756 12.6811 739 113.131 427.315 471.185
180 0 60.3615 14.2309 859 110.709 426.304 464.522
181 0 62.4072 15.479 966 108.067 425.816 465.4
182 0 65.3323 16.5615 1082 103.713 425.694 466.676
183 0 65.2779 14.9974 979 107.518 424.002 460.704
184 0 68.2527 16.0287 1094 106.212 423.617 463.183
185 0 69.2022 12.7597 883 110.803 423.434 462.009
186 0 73.3937 13.7342 1008 111.047 423.936 455.54
187 0 75.2421 12.0278 905 113.171 422.718 455.406
188 0 75.2421 12.0943 910 136.864 420.754 455.347
189 0 75.2421 12.2538 922 135.806 418.8 455.482
190 1 43.0857 15.8985 685 102.931 421.507 470.15
191 0 44.0456 13.259 584 107.887 420.144 468.663
192 0 47.1038 11.9523 563 110.082 420.3 468.664
193 0 43.2505 10.9363 473 115.03 419.74 466.704
194 0 46.0993 10.1303 467 116.088 419.317 462.347
195 0 49.0791 14.4868 711 106.406 419.772 462.094
196 0 49.122 11.6241 571 110.401 419.821 462.389
197 0 51.0636 12.4746 637 109.19 419.97 463.898
198 0 52.1154 13.5661 707 108.573 420.833 461.021
199 0 54.254 13.9897 759 110.192 422.14 458.033
200 0 56.1337 14.8752 835 107.738 422.473 458.523
201 0 57.1615 14.5727 833 109.091 422.696 456.97
202 0 57.097 13.1005 748 113.013 423.436 450.668
203 0 60.0729 14.0662 845 110.467 424.731 455.021
204 0 63.1125 15.813 998 107.542 424.727 453.867
205 0 63.1125 15.8447 1000 131.039 423.759 453.96
206 0 67.1883 14.3924 967 112.003 427.523 450.559
207 0 68.219 17.5464 1197 108.402 427.755 451.921
208 0 69.1783 13.7471 951 117.007 428.692 449.227
209 0 71.2181 12.5389 893 118.851 427.383 447.917
210 0 77.2356 19.4599 1503 107.295 428.184 447.936
211 0 76.3818 17.5434 1340 112.784 428.828 446.385
212 0 78.4024 13.9919 1097 117.503 429.047 452.727
213 0 78.1673 13.0873 1023 122.173 428.805 445.644
214 0 82.103 13.8119 1134 120.633 428.354 447.199
215 0 85.314 13.5617 1157 119.802 428.745 453.118
216 0 88.1998 17.9932 1587 114.412 429.399 449.595
217 0 90.1936 13.338 1203 123.208 428.914 445.919
218 0 95.4058 14.3912 1373 121.21 428.438 448.266
219 0 98.1738 17.7135 1739 114.114 428.8 447.034
220 0 103.42 16.7473 1732 115.231 428.184 445.948
221 0 103.377 12.6238 1305 125.512 427.875 442.819
222 0 104.357 13.6358 1423 125.757 426.855 437.353
223 0 113.214 16.2877 1844 120.707 426.227 442.77
224 0 112.427 15.2721 1717 123.755 424.953 443.747
225 0 118.521 15.2294 1805 124.487 424.05 437.771
226 0 122.459 15.5318 1902 125.43 423.303 436.742
227 0 125.573 15.3616 1929 125.466 422.094 436.969
228 0 130.505 16.5051 2154 124.318 421.521 429.318
229 0 136.649 17.9804 2457 121.114 420.94 431.149
230 0 139.095 15.493 2155 125.664 420.487 428.623
231 0 143.05 15.7147 2248 126.648 419.856 425.954
232 0 148.606 18.7543 2787 117.447 419.83 427.516
233 0 152.53 17.0655 2603 121.106 420.356 420.403
234 0 156.538 17.0183 2664 123.616 418.955 412.023
235 0 162.538 15.1473 2462 125.621 418.971 407.622
236 0 170.706 19.8645 3391 117.849 418.262 405.637
237 0 172.786 16.5754 2864 124.612 417.576 392.371
238 0 180.742 16.5263 2987 123.359 418.168 396.182
239 0 183.644 17.2017 3159 121.959 417.737 397.635
240 0 192.932 17.5036 3377 122.117 419.456 387.596
241 0 194.534 16.136 3139 127.464 418.363 379.548
242 0 201.771 16.1619 3261 127.359 420.334 376.572
243 0 208.029 17.9494 3734 125.205 421.356 368.88
244 0 215.715 19.1549 4132 121.722 420.246 380.706
245 0 223.76 18.5467 4150 123.887 421.858 360.534
246 0 231.662 18.9673 4394 121.738 422.039 368.359
247 0 237.663 16.6286 3952 126.315 423.536 361.799
248 0 238.609 13.6667 3261 134.687 423.271 345.532
249 1 220.486 9.33847 2059 133.987 423.959 385.405
250 0 217.546 11.3218 2463 132.009 425.121 377.086
251 0 221.709 14.9385 3312 128.047 425.581 363.878
252 0 228.546 14.8198 3387 130.577 426.181 361.292
253 0 237.722 16.2669 3867 127.953 427.034 360.56
254 0 244.857 15.7847 3865 130.085 427.375 349.574
255 0 246.855 13.8543 3420 134.746 428.576 343.034
256 1 293.947 13.4242 3946 133.467 427.976 341.975
257 1 318.352 12.7029 4044 133.352 428.906 342.369
258 0 318.173 10.6389 3385 136.653 428.85 349.819
259 0 312.621 12.3728 3868 134.976 428.028 346.563
260 0 316.832 11.6781 3700 136.857 429.148 346.122
261 0 319.778 22.994 7353 117.801 428.018 303.636
262 0 317.052 20.1828 6399 123.485 427.055 318.933
263 0 327.832 28.1059 9214 111.67 426.204 325.956
264 0 334.782 22.2503 7449 120.568 426.417 307.285
265 0 343.653 18.5478 6374 126.813 425.858 299.679
266 0 361.848 16.471 5960 129.687 426.285 297.044
267 0 364.975 12.6776 4627 135.301 425.351 313.279
268 0 360.544 13.9595 5033 131.672 424.001 316.486
269 1 302.836 20.8694 6320 119.854 424.002 311.01
270 0 307.02 21.0605 6466 120.183 422.792 325.171
271 1 142.697 12.3899 1768 122.487 422.498 407.247
272 0 150.596 14.5024 2184 118.554 422.474 405.642
273 0 153.621 11.4568 1760 126.239 421.572 400.031
274 0 159.674 15.0556 2404 120.554 421.764 402.436
275 0 161.342 13.1212 2117 126.266 420.542 387.106
276 0 166.31 11.214 1865 124.762 419.855 401.796
277 0 156.512 9.88425 1547 124.723 420.132 401.294
278 0 161.535 8.2459 1332 130.575 419.732 392.445
279 0 156.451 8.85901 1386 127.947 419.53 392.03
280 1 139.302 11.3422 1580 119.989 419.075 402.948
281 0 139.258 8.73916 1217 127.878 418.769 400.864
282 0 144.627 13.2686 1919 119.766 418.603 403.103
283 0 150.457 13.8512 2084 116.573 418.789 407.231
284 0 153.417 11.2178 1721 124.134 420.617 387.021
285 0 157.537 13.4572 2120 118.235 421.633 387.765
286 0 162.856 9.54833 1555 125.889 421.806 375.507
287 0 170.572 12.1825 2078 119.475 422.93 380.031
288 0 178.64 13.1885 2356 115.752 423.306 389.47
289 1 55.2137 9.85263 544 110.153 425.355 448.13
290 0 62.4415 11.0984 693 106.482 425.841 451.81
291 0 56.2108 8.1657 459 113.061 427.248 449.216
292 0 64.3497 12.7118 818 104.1 427.068 447.386
293 0 66.2625 10.9866 728 106.246 428.788 450.124
294 0 66.2829 12.2656 813 107.193 428.263 447.16
295 0 66.3814 8.97842 596 112.48 429.107 442.376
296 0 70.2631 14.3888 1011 104.813 428.738 445.742
297 0 72.4582 10.268 744 111.409 429.267 448.298
298 0 76.2879 9.89673 755 111.634 429.707 442.956
299 0 78.53 10.5055 825 111.075 428.745 448.61
300 0 81.519 14.6346 1193 105.231 428.738 444.818
301 0 82.4544 9.52041 785 112.808 429.083 443.804
302 0 81.3885 7.59321 618 114.28 428.835 438.065
303 0 87.4037 10.1025 883 108.205 428.008 447.997
304 0 88.456 13.9052 1230 102.622 428.518 442.463
305 0 91.4161 10.5342 963 107.703 427.511 442.68
306 1 50.097 6.76688 339 103.658 425.584 469.861
307 0 50.1648 8.23286 413 100.891 427.225 468.14
308 0 53.4949 12.3376 660 97.0242 427.583 463.342
309 0 51.2059 12.0884 619 98.6284 426.784 463.727
310 0 52.2516 10.3155 539 101.531 425.64 463.688
311 0 56.0678 9.22097 517 105.362 424.801 469.383
312 0 57.2106 10.4177 596 105.163 424.148 464.186
313 0 58.2407 8.65374 504 107.385 423.204 466.798
314 0 58.118 12.3886 720 102.286 422.218 464.029
315 0 60.2335 11.389 686 102.334 421.57 463.631
316 0 62.3764 12.2963 767 103.956 421.317 458.72
317 0 64.4239 12.2625 790 103.089 421.24 457.476
318 0 68.2449 15.1367 1033 99.1936 419.266 453.286
319 0 66.2572 10.6705 707 106.504 418.816 451.235
320 0 68.5671 12.2508 840 104.318 419.202 452.87
321 0 72.369 12.8784 932 102.866 419.414 451.858
322 1 143.936 12.4917 1798 107.887 421.355 415.547
323 0 146.883 12.8197 1883 107.405 420.373 412.11
324 0 151.668 13.9054 2109 106.553 420.986 411.008
325 1 81.5117 17.0037 1386 98.7561 420.279 446.446
326 0 81.4472 17.1399 1396 100.111 419.602 440.979
327 0 81.6242 14.0767 1149 105.33 420.788 436.609
328 0 88.7317 15.8004 1402 100.271 422.113 443.334
329 0 88.648 17.1352 1519 100.768 422.339 437.348
330 0 91.8632 13.3459 1226 106.777 423.799 435.801
331 0 94.7316 13.248 1255 106.559 423.064 434.543
332 1 51.3866 8.46524 435 108.922 425.283 455.271
333 0 53.5262 13.0217 697 103.572 425.924 453.92
334 0 52.4343 11.8625 622 106.809 427.277 450.264
335 0 56.1631 11.6625 655 105.942 427.805 455.55
336 0 57.2997 13.4556 771 103.641 429.319 450.843
337 0 58.0866 13.1356 763 104.104 426.879 451.64
338 0 61.2739 11.163 684 107.37 427.165 450.294
339 0 65.3425 17.6914 1156 96.9836 428.55 448.465
340 0 65.1118 13.8377 901 103.118 429.63 447.625
341 0 68.1772 16.3984 1118 99.2344 429.158 453.324
342 0 68.18 14.9017 1016 102.584 428.411 445.995
343 0 69.1098 12.7334 880 105.143 429.407 448.536
344 0 70.3143 20.4652 1439 95.9757 429.553 448.158
345 0 74.1457 18.9896 1408 96.6108 430.835 453.33
346 0 74.2022 14.5952 1083 102.738 429.831 449.596
347 0 78.1134 12.8531 1004 103.218 430.597 451.845
348 0 82.3727 15.4177 1270 99.2906 430.363 448.586
349 0 85.4086 18.1715 1552 96.6347 430.4 446.739
350 0 86.1542 16.3776 1411 98.8788 430.172 447.967
351 0 90.2429 20.2121 1824 93.858 429.841 450.914
352 0 93.5836 14.0837 1318 101.247 428.222 443.525
353 1 49.1546 12.8167 630 99.219 426.508 468.394
354 0 49.0538 14.7185 722 96.2188 428.288 467.501
355 0 49.1269 12.4779 613 98.0506 427.747 464.899
356 0 50.0991 12.5751 630 98.0381 429.156 466.154
357 0 55.0776 11.4747 632 97.8956 426.85 464.897
358 0 54.2319 12.9444 702 95.1966 428.577 468.293
359 0 55.1478 11.0793 611 98.9836 428.835 463.514
360 0 57.1607 12.2637 701 97.1512 428.488 461.148
361 0 57.2729 11.3317 649 97.8398 427.418 458.495
362 0 59.1533 15.5866 922 92.5499 428.231 462.516
363 0 64.3 13.3126 856 94.896 427.286 455.595
364 0 62.1597 12.3231 766 95.8055 427.042 455.278
365 0 61.1516 11.9048 728 96.6291 426.834 456.191
366 0 61.1064 11.7009 715 96.3455 426.406 458.587
367 0 68.3372 11.2091 766 97.6123 426.315 446.428
368 0 75.2355 17.8772 1345 91.139 425.181 445.198
369 0 78.1967 12.9417 1012 94.3607 425.047 443.217
370 0 79.4209 13.4222 1066 94.7045 425.566 444.31
371 0 81.1923 12.6859 1030 96.0301 426.293 442.226
372 0 86.3369 14.5013 1252 92.2724 425.642 443.579
373 0 86.3055 10.4281 900 96.7578 426.819 442.591
374 0 91.2441 20.2095 1844 89.0136 426.58 435.724
375 0 93.1424 12.2715 1143 96.7052 428.082 433.873
376 1 49.0508 7.60436 373 95.8794 428.534 451.646
377 0 50.1418 10.9689 550 92.9836 427.845 453.48
378 0 53.1562 8.48443 451 96.071 426.337 449.448
379 0 59.3852 16.7718 996 90.7219 427.065 450.045
380 0 58.1665 15.3009 890 94.0753 429.124 446.328
381 0 58.166 11.5703 673 98.4903 428.343 447.648
382 0 60.3289 12.465 752 97.6596 428.864 447.194
383 0 62.1922 10.4836 652 100.368 430.044 449.046
384 0 65.1676 10.3579 675 100.182 429.855 449.544
385 0 64.2854 12.4756 802 97.4913 430.591 450.54
386 0 67.3271 11.0505 744 99.8253 433.148 447.782
387 0 70.3352 10.6348 748 101.575 433.933 448.519
388 0 73.3644 16.125 1183 95.0828 434.275 448.877
389 0 74.3262 13.6426 1014 99.2791 434.135 449.672
390 0 74.2778 11.3493 843 102.753 433.403 448.479
391 0 79.3475 15.2242 1208 96.6349 432.972 449.3
392 0 83.2093 13.1115 1091 100.168 432.967 446.479
393 0 82.1937 11.2174 922 102.649 431.835 449.188
394 0 87.4101 14.3919 1258 98.0167 431.987 454.692
395 0 87.4101 14.3233 1252 125.079 431.031 454.597
396 0 91.3281 13.2927 1214 101.644 431.067 445.409
397 1 49.1595 13.0595 642 94.2601 431.654 471.12
398 0 51.4227 13.0293 670 93.8866 427.637 470.254
399 0 48.0364 10.5337 506 98.1482 427.563 472.164
400 0 51.206 12.147 622 97.0836 426.558 468.683
401 0 54.1208 14.7633 799 94.5357 425.193 465.837
402 0 56.2277 17.6603 993 88.9084 425.284 471.574
403 0 54.3761 9.94923 541 101.059 425.011 461.8
404 0 56.1883 9.23679 519 101.771 425.505 466.601
405 0 59.3734 13.0698 776 99.1005 427.379 464.228
406 0 63.1131 8.01736 506 103.409 426.142 462.664
407 0 62.179 11.0487 687 98.2169 424.892 465.125
408 0 65.2239 12.7867 834 97.6187 424.23 461.343
409 0 70.348 13.5896 956 97.8975 425.118 450.425
410 0 74.216 8.16535 606 103.493 424.241 457.34
411 0 74.3678 15.3696 1143 97.4724 424.462 448.907
412 0 77.2632 16.062 1241 96.9138 424.687 447.536
413 0 78.093 10.8332 846 105.827 422.773 448.387
414 0 82.2513 15.7687 1297 99.3416 422.266 446.312
415 0 85.0652 13.4485 1144 102.954 424.189 444.793
416 0 85.0812 14.9739 1274 101.969 425.286 435.511
417 0 91.1231 12.6752 1155 104.83 424.906 437.389
418 0 92.5579 14.0345 1299 103.73 425.541 433.26
419 0 94.3767 14.0289 1324 103.94 427.204 430.753
420 0 95.5458 14.5061 1386 104.786 426.981 427.479
421 1 50.2938 18.8294 947 97.1763 427.334 451.038
422 0 53.221 11.9126 634 106.877 430.461 452.994
423 0 53.1365 11.8563 630 107.584 431.748 451.327
424 0 56.1027 17.4858 981 99.0224 430.922 454.179
425 0 59.0505 14.9533 883 103.198 432.484 449.753
426 0 59.1522 11.3267 670 108.496 432.54 451.569
427 0 62.1153 12.9115 802 105.877 432.941 450.278
428 0 64.06 13.3469 855 105.232 433.289 451.696
429 0 64.04 13.3354 854 104.016 434.097 454.703
430 0 70.1081 13.3651 937 103.56 434.155 451.529
431 0 71.1877 10.8305 771 106.855 433.726 451.377
432 0 71.1877 10.7603 766 133.368 433.734 451.411
433 0 76.1293 13.372 1018 104.043 434.264 450.947
434 0 80.3232 15.1513 1217 100.992 434.099 452.033
435 0 81.4203 18.6317 1517 97.6388 433.146 448.419
436 0 85.2333 16.7775 1430 99.842 433.432 448.786
437 0 88.1255 12.4028 1093 104.74 433.17 450.597
438 0 89.4072 11.2295 1004 107.025 433.085 449.064
439 1 45.2487 14.2104 643 96.6174 432.168 472.715
440 0 47.0338 6.61227 311 105.035 432.35 471.225
441 0 50.1515 13.7583 690 101.213 428.699 466.632
442 0 51.1587 9.55849 489 106.483 427.873 467.622
443 0 55.0616 13.6937 754 100.419 428.009 467.966
444 0 55.1003 12.9219 712 102.652 426.881 463.135
445 0 58.0982 12.8403 746 101.375 425.725 465.156
446 0 60.0832 12.6491 760 101.218 425.004 461.505
447 0 61.208 12.6944 777 102.045 425.337 460.673
448 0 63.0664 13.906 877 100.811 425.038 459.88
449 0 64.1608 15.3988 988 100.11 424.012 454.753
450 0 66.222 12.0806 800 104.761 423.034 452.938
451 0 71.2843 17.8861 1275 95.9569 423.825 450.605
452 0 71.1854 13.2471 943 102.762 423.591 450.429
453 0 76.2547 13.5205 1031 101.274 422.715 454.201
454 0 77.2786 12.5261 968 103.626 423.037 450.38
455 0 78.2616 14.5026 1135 101.796 422.765 446.374
456 0 81.2395 13.8603 1126 100.619 423.71 445.608
457 0 82.3547 13.5147 1113 101.548 423.721 443.228
458 0 86.4025 18.2981 1581 95.4124 423.732 446.159
459 0 85.2748 17.813 1519 100.273 423.77 443.666
460 0 91.676 17.1255 1570 103.595 424.648 438.221
461 0 91.2948 13.3414 1218 110.745 424.578 438.521
462 0 94.3072 14.6118 1378 109.011 425.669 437.276
463 0 97.2916 17.4835 1701 104.797 426.122 434.325
464 1 52.1784 11.1732 583 108.533 425.616 454.6
465 0 53.0249 10.5422 559 106.528 426.182 458.342
466 0 55.0895 13.0696 720 101.024 428.124 461.339
467 0 61.3356 14.5103 890 99.9303 429.301 460.212
468 0 60.1144 15.1212 909 98.3674 428.375 458.612
469 0 59.2964 12.0243 713 105.003 429.813 454.78
470 0 63.139 20.2886 1281 94.228 429.038 458.446
471 0 60.1464 11.9043 716 105.08 429.567 461.408
472 0 66.2472 12.0005 795 105.468 430.15 457.824
473 0 67.1789 11.5661 777 106.338 428.304 455.136
474 0 72.1636 18.5689 1340 96.9687 429.608 460.73
475 0 71.0952 14.0234 997 104.763 428.822 456.413
476 0 73.2175 11.6775 855 108.51 429.564 459.943
477 0 77.2348 12.6497 977 106.64 429.401 461.001
478 0 79.0677 12.1794 963 106.673 426.917 462.597
479 0 82.19 11.9236 980 109.256 426.545 460.259
480 0 83.1488 13.109 1090 108.238 425.964 457.56
481 0 86.227 12.5831 1085 108.53 424.916 456.566
482 0 88.2037 15.1921 1340 106.068 425.153 455.944
483 0 89.1895 11.5484 1030 111.408 424.666 455.614
484 0 92.2997 11.2351 1037 112.28 424.349 452.079
485 0 96.3339 11.8754 1144 108.891 423.051 457.59
486 0 98.3047 12.5732 1236 111.346 422.548 452.688
487 0 103.589 16.691 1729 104.965 422.229 452.666
488 0 105.245 15.2121 1601 108.157 422.696 446.003
489 0 110.091 13.9248 1533 111.943 421.849 444.057
490 1 57.0963 10.3334 590 115.986 422.364 471.841
491 0 60.1967 11.3129 681 112.093 422.963 469.957
492 0 65.4532 16.9281 1108 100.399 422.284 467.971
493 0 67.2932 19.0212 1280 97.3438 421.84 466.315
494 0 68.1571 16.5647 1129 100.167 421.917 468.747
495 0 69.1778 13.1256 908 106.982 421.458 463.359
496 0 72.16 13.0543 942 107.865 420.369 458.302
497 0 69.1474 10.5282 728 112.284 420.519 456.022
498 0 77.2687 14.7537 1140 104.896 419.674 454.238
499 0 78.1972 13.2741 1038 107.673 420.829 452.775
500 0 83.469 15.7783 1317 103.785 421.106 450.715
501 0 83.2719 11.7687 980 112.1 422.08 448.61
502 0 86.3682 15.3066 1322 107.384 422.37 447.393
503 0 88.2162 11.8346 1044 113.511 422.972 441.128
504 0 93.4548 13.8249 1292 109.125 423.056 442.828
505 0 95.2813 13.8432 1319 110.304 424.036 438.356
506 0 98.2441 14.2197 1397 110.285 424.666 436.166
507 1 52.0145 10.5355 548 112.608 425.723 458.14
508 0 55.2496 10.3892 574 112.984 427.918 455.908
509 0 60.1133 12.6927 763 106.532 427.942 456.343
510 0 64.17 15.7394 1010 99.9505 426.674 460.657
511 0 66.1744 14.3258 948 105.239 428.171 460.018
512 0 64.1877 14.0837 904 108.595 429.413 452.75
513 0 67.1539 14.5338 976 107.518 430.329 454.87
514 0 68.115 13.9029 947 109.215 430.749 453.776
515 0 71.0669 13.2973 945 108.805 431.247 459.77
516 0 72.1902 14.2956 1032 109.32 431.935 455.326
517 0 74.1651 14.5351 1078 109.281 431.336 455.814
518 0 77.2024 11.9685 924 112.877 431.589 458.14
519 0 80.0736 13.6749 1095 109.485 431.845 459.552
520 0 83.1592 14.7548 1227 108.782 430.29 453.698
521 0 88.2598 14.8992 1315 107.519 429.681 456.331
522 0 91.2296 16.2666 1484 105.704 429.195 456.208
523 0 94.1075 14.1859 1335 108.381 428.873 457.468
524 0 95.2941 15.9506 1520 107.364 428.792 448.31
525 1 52.3395 10.7376 562 109.833 428.196 477.616
526 0 55.3777 13.2905 736 105.909 428.188 474.174
527 0 58.1138 14.2307 827 96.0689 425.942 480.692
528 0 57.4488 11.9063 684 102.977 426.561 476.076
529 0 59.1122 14.0411 830 100.248 426.11 470.269
530 0 64.2963 12.6135 811 100.445 425.244 477.265
531 0 64.3032 16.9665 1091 96.4336 424.633 473.587
532 0 63.3568 13.1793 835 101.807 424.229 470.134
533 0 66.2268 14.6617 971 99.4851 423.145 465.665
534 0 70.2674 13.3063 935 99.9636 422.498 466.87
535 0 69.2662 8.76329 607 107.552 421.685 464.657
536 0 72.3868 13.9666 1011 99.6014 421.309 463.447
537 0 74.3382 14.6493 1089 99.6915 421.628 459.867
538 0 77.4238 13.058 1011 102.6 420.861 459.336
539 0 80.3842 15.3513 1234 99.2099 420.997 458.787
540 0 83.3046 13.9368 1161 101.498 420.276 453.469
541 0 85.2726 13.1344 1120 101.766 420.083 455.812
542 0 89.3172 16.503 1474 98.5142 419.333 451.733
543 0 89.2872 10.4718 935 106.27 420.107 448.763
544 0 92.2652 13.5045 1246 103.879 420.067 441.937
545 0 97.3992 14.8153 1443 100.507 421.532 445.138
546 0 98.3717 10.7145 1054 107.513 421.232 440.807
547 0 102.163 11.4327 1168 106.291 422.658 436.511
548 0 107.283 12.5836 1350 101.771 422.417 439.756
549 1 59.2312 13.8609 821 99.1364 423.436 459.542
550 0 60.508 13.5189 818 99.2824 423.807 461.079
551 0 62.2314 13.5302 842 101 424.279 456.102
552 0 62.1505 11.6652 725 103.09 424.935 456.754
553 0 59.1384 8.92821 528 107.358 425.97 457.252
554 0 66.2013 15.0299 995 98.3286 427.008 458.519
555 0 68.175 16.4283 1120 97.4438 426.295 457.969
556 0 68.3968 14.2697 976 100.876 427.773 454.017
557 0 70.2605 11.4574 805 105.025 429.209 455.712
558 0 70.1434 8.29728 582 109.18 429.796 456.048
559 0 77.1615 10.8085 834 105.929 429.62 452.561
560 0 80.3449 11.0524 888 104.368 429.151 458.746
561 0 83.1601 13.3958 1114 102.458 428.171 455.469
562 0 84.3969 15.1546 1279 101.03 428.742 457.709
563 0 91.2152 17.0695 1557 97.6397 427.455 455.94
564 0 94.4121 14.3837 1358 100.778 428.096 453.569
565 0 94.2375 11.418 1076 106.086 428.147 454.038
566 0 100.283 15.6258 1567 100.106 427.467 453.675
567 1 51.2082 13.572 695 101.176 428.03 476.878
568 0 54.0742 13.7404 743 96.4778 426.699 473.69
569 0 55.2119 22.3503 1234 90.3874 425.957 478.199
570 0 58.1242 13.1099 762 105.936 427.169 475.329
571 0 59.1154 14.1587 837 104.809 426.477 475.968
572 0 58.1418 14.0002 814 107.031 425.991 472.43
573 0 60.3783 13.6639 825 105.942 424.959 472.868
574 0 60.2795 14.1673 854 106.989 424.77 469.308
575 0 65.4397 15.1896 994 103.68 423.232 471.6
576 0 67.2917 15.8563 1067 103.677 422.582 468.453
577 0 71.3483 14.9688 1068 102.454 422.394 471.695
578 0 70.3001 15.1636 1066 105.353 422.013 466.866
579 0 73.3584 12.991 953 109.853 422.199 459.875
580 0 72.2948 8.43767 610 115.311 421.226 463.872
581 0 72.2948 8.57599 620 162.824 420.218 463.873
582 0 81.1987 12.377 1005 111.963 420.887 457.591
583 0 82.3415 14.3306 1180 109.396 420.678 455.954
584 0 83.3953 14.6651 1223 111.388 419.819 451.041
585 1 46.7314 11.5126 538 112.781 419.868 468.842
586 0 47.3366 13.7526 651 107.392 419.487 466.654
587 0 48.4162 11.4011 552 111.255 419.616 466.056
588 0 51.1702 13.1913 675 107.51 419.201 465.443
589 0 48.3376 14.2539 689 108.765 419.286 464.612
590 0 51.358 10.9038 560 113.698 419.691 463.462
591 0 50.3206 10.9498 551 113.917 421.294 463.254
592 0 55.268 11.5437 638 109.271 421.566 466.088
593 0 56.3119 12.6083 710 112.437 423.27 457.883
594 0 59.3307 12.7253 755 110.479 423.482 458.528
595 0 61.2785 11.9128 730 110.785 423.663 461.374
596 0 62.3762 14.9256 931 108.791 424.33 458.048
597 0 64.3663 12.6308 813 111.595 425.701 458.237
598 0 68.304 13.8352 945 110.111 426.685 454.906
599 0 70.3187 14.804 1041 108.231 426.891 454.839
600 0 72.4378 15.144 1097 107.203 427.47 454.707
601 0 75.227 17.6134 1325 104.521 427.028 453.956
602 0 78.3496 11.5891 908 110.077 427.084 460.107
603 0 79.2608 9.39935 745 114.401 426.663 457.204
604 0 82.2612 14.1257 1162 108.375 427.999 449.259
605 0 88.2739 17.5137 1546 103.169 427.454 454.981
606 0 86.5446 10.1335 877 114.631 427.442 449.95
607 1 46.2695 14.8478 687 104.648 426.039 473.215
608 0 50.0704 13.7407 688 105.526 425.102 474.769
609 0 50.1944 8.5667 430 113.293 425.512 476.712
610 0 53.2952 13.3596 712 106.69 425.965 473.205
611 0 53.1852 12.2215 650 109.738 425.162 473.545
612 0 53.3104 10.3732 553 112.933 425.172 470.23
613 0 56.1082 13.1353 737 108.281 427.381 474.056
614 0 61.237 14.3704 880 109.93 424.082 473.722
615 0 62.1758 12.4647 775 113.192 423.152 470.539
616 0 64.1907 14.1142 906 110.885 421.929 468.998
617 0 66.1149 13.1135 867 112.014 420.979 468.239
618 0 67.0775 15.1765 1018 109.255 421.734 463.582
619 0 72.1137 14.5049 1046 109.391 420.954 464.639
620 0 74.129 13.9621 1035 110.364 419.599 463.876
621 0 75.0948 14.8879 1118 109.013 419.374 462.412
622 0 77.1816 12.9046 996 112.353 419.157 458.634
623 0 80.2489 12.0002 963 112.367 419.076 460.704
624 0 82.138 17.288 1420 106.35 419.216 455.22
625 1 44.0817 12.0231 530 110.483 418.155 473.238
626 0 47.1124 8.97853 423 111.577 417.541 474.589
627 0 48.0823 12.6034 606 108.546 416.818 469.967
628 0 48.2391 13.5989 656 106.409 418.195 471.534
629 0 48.0879 10.7303 516 111.058 418.599 467.481
630 0 51.2372 15.4185 790 102.263 419.59 464.747
631 0 51.1636 13.623 697 105.98 419.367 466.534
632 0 54.0923 12.5156 677 107.768 420.058 464.075
633 0 54.0923 12.5711 680 139.874 420.081 463.982
634 0 57.194 13.935 797 106.349 420.662 458.88
635 0 58.2793 13.83 806 106.413 422.226 456.258
636 0 60.2844 13.5027 814 107.361 422.947 456.541
637 0 59.2279 12.8318 760 110.686 423.559 454.724
638 0 62.1047 14.2179 883 107.567 424.026 457.632
639 0 62.1304 13.7131 852 106.183 425.266 454.762
640 0 67.3652 18.3923 1239 96.7659 425.944 455.982
641 0 68.1334 12.6957 865 103.689 426.095 455.304
642 0 72.2021 18.8499 1361 96.7259 425.926 451.441
643 0 73.1738 17.5063 1281 98.8673 426.904 451.798
644 0 75.1382 16.25 1221 100.105 427.466 454.619
645 0 78.198 12.9159 1010 103.698 427.792 456.587
646 0 83.2743 15.3709 1280 100.773 427.356 454.161
647 0 85.2982 13.5173 1153 104.756 427.549 454.35
648 0 85.2165 14.5981 1244 103.972 427.028 447.67
649 0 88.16 13.4528 1186 105.38 427.938 452.18
650 0 91.3605 13.2442 1210 105.26 427.498 453.285
651 1 50.304 12.4841 628 103.266 428.166 467.232
652 0 52.2658 12.2642 641 103.184 428.61 476.855
653 0 52.4209 13.0101 682 104.081 428.28 472.04
654 0 52.2593 12.5528 656 106.704 427.578 470.316
655 0 53.3374 10.4805 559 110.095 427.605 471.891
656 0 57.4349 13.598 781 105.398 426.858 472.068
657 0 58.361 13.6564 797 106.156 425.577 470.305
658 0 59.2696 14.6956 871 105.016 425.21 468.732
659 0 59.1238 12.2117 722 109.56 424.885 470.638
660 0 63.1774 14.2614 901 106.495 424.963 464.578
661 0 64.2303 13.3115 855 107.779 423.785 467.268
662 0 67.3027 13.3576 899 107.194 423.531 468.541
663 0 71.3702 16.9118 1207 102.931 422.715 466.653
664 0 69.1783 13.8772 960 108.446 422.415 459.35
665 0 74.4137 14.285 1063 107.11 421.418 462.508
666 0 73.2291 13.2325 969 109.604 421.517 462.638
667 0 77.4462 14.3971 1115 109.644 420.467 457.12
668 0 83.3793 15.3875 1283 106.246 420.556 461.102
669 0 81.3729 14.4766 1178 110.913 419.155 455.461
670 0 83.2851 13.1836 1098 111.367 419.216 455.142
671 0 88.2239 14.9619 1320 109.46 419.611 451.018
672 1 44.2912 13.4564 596 112.012 419.577 465.854
673 0 45.5313 13.7927 628 112.373 420.737 462.076
674 0 50.3831 14.5287 732 108.736 420.545 465.999
675 0 48.4163 13.0741 633 112.866 420.199 464.381
676 0 51.2292 13.0199 667 113.475 421.864 462.801
677 0 49.3384 13.2351 653 115.741 423.665 460.194
678 0 51.3397 13.362 686 114.95 424.01 459.776
679 0 55.252 16.5424 914 108.588 424.469 462.132
680 0 54.429 18.2991 996 107.737 425.682 458.063
681 0 57.2093 17.7768 1017 109.106 424.734 454.808
682 0 58.2015 15.8931 925 109.199 425.363 457.712
683 0 60.2392 13.795 831 113.667 426.764 458.608
684 0 60.2392 14.21 856 125.959 428.702 459.206
685 0 64.393 16.6167 1070 109.467 427.72 457.327
686 0 65.1045 15.1602 987 112.109 426.89 458.418
687 0 68.0867 14.9662 1019 113.157 429.216 459.963
688 0 69.2634 16.0402 1111 112.048 429.032 458.337
689 0 72.3155 16.2759 1177 111.724 428.359 453.607
690 0 73.1653 15.4308 1129 111.349 428.617 463.247
691 0 75.1451 20.1078 1511 106.162 429.109 459.039
692 0 79.0449 14.8144 1171 113.983 428.722 458.249
693 0 83.2083 15.984 1330 111.254 428.121 456.12
694 0 85.1016 15.8046 1345 113.053 428.109 453.619
695 0 86.3822 12.2016 1054 118.664 427.76 455.345
696 0 91.3094 17.9938 1643 108.156 427.111 456.844
697 1 49.0679 11.535 566 113.77 427.747 477.883
698 0 47.387 10.2349 485 117.687 425.664 472.957
699 0 54.1725 14.8415 804 106.994 424.864 477.036
700 0 56.2447 13.1035 737 108.866 423.927 473.37
701 0 57.2245 12.9839 743 109.993 423.234 470.431
702 0 60.2145 14.4484 870 108.249 422.733 470.114
703 0 61.2529 13.583 832 109.585 422.663 469.863
704 0 63.4787 12.1616 772 111.758 422.676 471.417
705 0 65.1275 12.6214 822 112.125 421.984 469.332
706 0 65.3591 11.4139 746 114.661 421.353 465.441
707 0 71.1116 13.078 930 111.861 421.078 464.195
708 0 73.2915 16.0319 1175 107.803 420.485 461.605
709 0 74.2008 12.1293 900 114.786 420.317 461.283
710 0 78.2999 11.4943 900 114.792 419.808 459.691
711 0 80.2247 16.0674 1289 108.31 420.5 456.837
712 1 45.1874 15.0706 681 110.58 418.634 470.063
713 0 45.2336 9.30724 421 116.546 419.482 472.995
714 0 45.2405 10.7426 486 115.716 418.805 469.317
715 0 47.1841 15.4925 731 106.627 419.079 469.527
716 0 50.2466 13.0357 655 109.447 419.701 468.195
717 0 52.2464 16.4413 859 105.738 420.622 466.477
718 0 52.2266 17.3858 908 105.838 420.247 463.188
719 0 51.3481 10.1659 522 117.519 421.044 461.684
720 0 55.1503 14.252 786 112.28 420.547 459.963
721 0 59.2584 14.344 850 109.665 421.84 463.818
722 0 60.134 14.634 880 109.891 422.495 462.086
723 0 63.0957 16.6889 1053 106.833 423.876 461.5
724 0 61.0968 12.8812 787 113.95 424.131 459.991
725 0 65.1937 19.235 1254 104.651 424.702 458.899
726 0 69.242 14.6876 1017 108.857 425.064 459.272
727 0 70.1907 14.774 1037 110.208 426.314 456.316
728 0 73.17 14.3775 1052 111.001 426.91 450.574
729 0 74.1273 14.9608 1109 110.928 427.189 452.959
730 0 77.1725 14.4093 1112 112.054 428.263 455.272
731 0 79.3137 12.0408 955 115.649 427.965 455.368
732 0 82.1523 13.7428 1129 112.782 427.792 454.707
733 0 84.4376 13.0866 1105 113.874 427.299 453.219
734 1 42.2584 13.2755 561 112.717 426.572 471.827
735 0 44.2646 11.8831 526 108.633 427.255 471.688
736 0 47.1752 12.2946 580 108.159 428.248 473.214
737 0 48.0907 13.7241 660 106.462 429.088 474.506
738 0 49.0854 14.8517 729 105.314 428.119 474.695
739 0 51.1025 11.6237 594 109.85 428.192 473.729
740 0 52.0673 10.6977 557 111.889 427.528 475.372
741 0 54.1736 12.3123 667 108.361 427.844 476.454
742 0 57.1146 11.8008 674 110.061 425.352 475.105
743 0 57.1867 13.9368 797 108.049 425.578 472.965
744 0 61.2544 17.9416 1099 102.236 425.35 471.412
745 0 63.2089 13.8746 877 107.205 424.19 468.613
746 0 64.3188 16.5892 1067 103.695 423.775 469.104
747 0 66.2867 13.3058 882 108.867 423.474 469.73
748 0 67.1724 15.1699 1019 107.264 423.532 463.942
749 0 71.4834 15.7239 1124 106.801 423.068 464.372
750 0 73.4682 12.6721 931 111.981 422.266 459.034
751 0 77.2098 14.0526 1085 109.45 422.912 458.619
752 1 40.1166 9.54717 383 109.836 421.509 475.089
753 0 42.0418 10.4658 440 108.941 421.539 473.545
754 0 43.1177 12.547 541 106.743 421.473 472.168
755 0 45.0505 11.8756 535 108.148 424.271 469.669
756 0 45.2673 10.1398 459 112.928 424.004 472.283
757 0 47.0455 19.3005 908 101.881 423.568 470.342
758 0 49.1076 14.0304 689 109.53 423.714 465.53
759 0 51.3255 16.6779 856 105.501 424.355 465.729
760 0 55.1514 15.5934 860 104.763 424.794 466.448
761 0 55.093 15.2288 839 106.567 424.582 461.774
762 0 60.0898 14.1289 849 107.351 426.568 459.903
763 0 58.1913 12.9057 751 109.8 426.374 461.067
764 0 59.1458 12.4776 738 111.34 426.547 462.136
765 0 60.21 13.0709 787 110.657 427.551 456.389
766 0 62.0853 13.3204 827 110.2 427.611 455.092
767 0 65.2974 13.5687 886 108.254 427.859 455.694
768 0 65.1784 8.53044 556 113.576 428.239 457.536
769 0 71.3207 13.1238 936 107.294 428.33 457.319
770 0 71.3326 14.0048 999 107.424 429.08 450.526
771 0 74.1543 11.9346 885 110.492 429.367 453.186
772 0 78.1804 17.0247 1331 103.788 429.45 455.774
773 0 78.199 11.7265 917 111.692 429.029 454.967
774 0 82.1846 14.3701 1181 108.439 429.795 448.608
775 0 84.2595 13.138 1107 108.556 430.171 459.414
776 0 87.1699 13.3647 1165 110.085 429.929 452.843
777 1 48.0348 12.9073 620 109.119 431.289 472.747
778 0 50.1409 14.1401 709 106.045 430.513 474.173
779 0 50.0792 13.7382 688 106.676 430.131 471.919
780 0 53.207 13.908 740 105.426 429.881 471.791
781 0 54.0878 12.2578 663 106.593 427.636 476.279
782 0 55.0629 12.858 708 108.147 427.667 471.319
783 0 56.1802 14.2043 798 105.748 427.788 472.665
784 0 59.1144 13.3301 788 109.516 425.82 470.617
785 0 60.2925 10.0676 607 112.558 425.638 466.717
786 0 64.0946 12.6688 812 108.378 425.174 470.222
787 0 67.1583 18.9105 1270 98.9803 424.63 468.34
788 0 65.1986 11.2272 732 111.559 424.242 466.531
789 0 67.1529 12.0471 809 110.879 422.938 464.114
790 0 71.1964 11.7703 838 108.258 423.58 461.889
791 0 74.0995 17.8409 1322 100.253 423.052 460.172
792 0 78.291 15.238 1193 103.366 422.588 458.641
793 0 78.0998 12.6377 987 107.294 421.758 454.432
794 0 85.5063 17.3321 1482 98.9845 422.063 446.353
795 0 88.4208 18.525 1638 97.2253 422.527 448.128
796 0 88.1362 14.3755 1267 101.386 420.745 450.568
797 0 91.086 13.5586 1235 104.62 420.575 445.702
798 1 48.0731 12.4186 597 102.709 419.776 465.762
799 0 52.094 18.4858 963 94.974 419.954 464.342
800 0 50.0524 11.1683 559 105.059 420.606 463.202
801 0 53.132 17.9741 955 96.9885 420.764 457.995
802 0 56.0557 13.8077 774 101.55 421.034 459.662
803 0 58.1177 16.0192 931 102.113 421.676 454.909
804 0 57.1702 11.6669 667 108.633 421.802 458.795
805 0 60.1697 15.2569 918 104.795 423.037 455.003
806 0 60.1212 13.1568 791 109.431 423.129 455.761
807 0 61.1947 11.9455 731 112.345 424.902 453.257
808 0 63.37 13.2397 839 109.035 424.352 453.883
809 0 66.2646 13.5366 897 110.628 425.04 451.105
810 0 69.3769 17.7292 1230 102.68 426.113 455.292
811 0 67.2545 12.8319 863 111.7 428.375 453.481
812 0 71.2625 13.9905 997 110.232 428.676 450.542
813 0 72.4076 12.6368 915 111.649 429.298 451.767
814 0 76.2972 13.2377 1010 111.374 429.287 451.85
815 0 79.2448 15.1303 1199 108.153 430.177 455.131
816 0 80.1884 14.5657 1168 110.116 428.339 452.234
817 0 80.1884 14.5906 1170 136.266 427.326 452.352
818 0 86.2684 15.9039 1372 108.464 429.3 450.559
819 0 86.2512 16.5331 1426 109.275 429.797 449.249
820 0 90.2879 17.3334 1565 108.254 428.976 448.659
821 0 91.3006 14.392 1314 112.819 429.235 447.713
822 0 95.6294 15.9993 1530 110.114 429.444 447.026
823 0 98.7296 13.0761 1291 115.345 428.567 444.806
824 0 101.041 13.2026 1334 116.714 427.657 443.068
825 0 104.912 15.5655 1633 112.189 427.271 440.505
826 1 57.2165 16.8658 965 101.439 425.614 462.854
827 0 58.3585 12.1662 710 107.699 426.466 464.773
828 0 62.5255 14.73 921 103.831 425.503 463.63
829 0 62.1715 13.1572 818 106.278 424.556 465.542
830 0 63.2392 11.9704 757 108.68 423.587 462.07
831 0 67.314 11.9589 805 108.381 424.224 460.155
832 0 69.3996 15.3459 1065 103.503 423.154 459.366
833 0 73.2415 12.1379 889 107.885 422.677 460.49
834 0 73.26 19.97 1463 98.4279 422.599 457.722
835 0 75.3546 13.536 1020 106.869 422.526 454.26
836 0 79.2176 21.1443 1675 96.6961 420.359 456.498
837 0 80.2394 14.9677 1201 105.715 422.998 453.541
838 0 82.426 13.042 1075 108.58 423.112 448.697
839 0 86.2411 13.7406 1185 108.226 423.572 450.963
840 0 90.3042 13.1666 1189 109.685 423.069 449.245
841 0 90.3622 14.4972 1310 107.839 421.875 441.254
842 0 92.3103 12.3821 1143 111.805 420.895 440.778
843 0 98.5744 19.4472 1917 102.576 422.163 437.39
844 0 100.831 14.9359 1506 109.948 422.511 436.161
845 0 101.709 14.6595 1491 110.542 423.097 435.582
846 0 104.434 13.3481 1394 111.537 422.868 433.362
847 0 111.764 15.7117 1756 108.113 423.76 430.413
848 1 59.4267 13.4115 797 108.123 424.07 451.189
849 0 61.6057 14.3656 885 103.156 423.302 458.193
850 0 60.4201 12.4296 751 109.309 424.149 451.531
851 0 62.3301 16.4287 1024 104.306 425.074 448.496
852 0 68.244 15.723 1073 103.282 424.724 451.375
853 0 69.2245 13.2179 915 107.385 425.913 452.245
854 0 71.174 13.7831 981 109.024 428.288 455.5
855 0 74.1195 15.5155 1150 108.13 429.449 448.553
856 0 75.1111 14.8713 1117 107.902 429.329 454.566
857 0 77.0789 11.5855 893 114.231 431.643 445.186
858 0 79.1519 12.6087 998 112.37 431.309 446.163
859 0 79.1204 11.7037 926 114.719 432.173 446.761
860 0 80.2488 12.0376 966 113.524 431.087 448.341
861 0 84.2121 14.9385 1258 109.535 431.447 444.041
862 0 88.2654 14.0712 1242 110.25 430.105 449.413
863 0 90.3671 14.7067 1329 110.939 429.372 450.052
864 0 92.2335 15.6125 1440 107.888 428.403 445.628
865 0 94.4952 14.7097 1390 109.529 428.67 447.646
866 0 96.3738 15.8342 1526 108.174 427.241 447.274
867 0 101.235 20.645 2090 102.144 428.034 448.934
868 0 104.423 13.3112 1390 112.648 426.868 444.624
869 0 107.214 16.3972 1758 107.167 426.854 443.543
870 0 107.261 14.3389 1538 110.893 427.093 443.532
871 0 114.407 19.7191 2256 101.783 427.16 438.254
872 0 120.712 15.8891 1918 106.957 427.628 437.667
873 0 123.564 13.3696 1652 110.13 426.268 435.749
874 1 64.2824 10.7028 688 110.996 426.374 463.965
875 0 67.4773 12.4635 841 109.4 424.761 460.634
876 0 71.1981 11.461 816 106.379 425.521 464.614
877 0 73.3397 14.2624 1046 104.754 422.852 459.883
878 0 73.2374 11.1555 817 109.924 422.588 454.987
879 0 75.2209 12.6959 955 108.302 423.317 449.154
880 0 77.272 10.3789 802 111.247 422.887 452.168
881 0 84.1472 13.0604 1099 104.954 422.786 457.88
882 0 87.4067 14.6099 1277 104.665 422.954 451.472
883 0 87.2899 12.5673 1097 107.428 422.67 453.914
884 0 89.2109 14.774 1318 107.09 422.983 440.919
885 0 91.222 13.2863 1212 109.718 423.266 441.456
886 0 93.3123 11.4883 1072 112.338 422.926 440.167
887 0 96.3119 12.906 1243 110.505 424.318 438.987
888 1 54.0541 11.988 648 108.293 424.355 459.086
889 0 53.2282 11.291 601 109.181 426.01 457.983
890 0 53.2655 7.52833 401 115.998 426.713 457.661
891 0 58.1764 13.184 767 106.845 426.583 458.077
892 0 60.0646 13.7352 825 107.166 426.295 455.63
893 0 59.2043 11.8741 703 110.844 427.9 452.424
894 0 65.3448 16.4665 1076 102.05 427.554 450.989
895 0 65.3241 13.1651 860 107.176 428.766 454.244
896 0 66.2596 11.4851 761 111.185 429.164 450.468
897 0 68.3846 15.6029 1067 110.17 427.262 449.292
898 0 71.24 13.5458 965 113.695 426.406 448.193
899 0 75.0869 15.9548 1198 109.167 427.105 449.483
900 0 76.0865 11.8681 903 114.592 427.956 450.864
901 0 79.5605 14.8189 1179 110.902 428.36 448.97
902 0 82.2749 19.0216 1565 104.279 427.67 447.154
903 0 84.1895 12.6619 1066 114.521 428.165 445.572
904 0 86.2673 13.5741 1171 111.117 428.67 448.958
905 0 87.1321 11.649 1015 114.145 429.001 446.764
906 0 92.2776 13.9254 1285 111.041 428.312 448.472
907 0 94.2013 12.123 1142 112.63 428.462 450.553
908 0 97.4546 12.9188 1259 110.47 428.139 446.577
909 0 99.3832 13.1008 1302 111.827 427.664 446.481
910 0 102.245 14.1229 1444 109.675 428.172 442.5
911 0 106.23 13.772 1463 109.504 428.278 445.601
912 1 55.1073 17.729 977 100.876 427.887 471.66
913 0 59.1228 12.0597 713 109.035 426.02 467.017
914 0 61.2583 14.2511 873 107.409 425.442 468.235
915 0 61.2412 11.2179 687 113.936 424.997 465.831
916 0 63.1507 11.813 746 112.082 423.111 463.268
917 0 67.4544 12.2305 825 110.667 422.703 462.742
918 0 69.2773 14.1749 982 106.677 422.939 463.609
919 0 73.3894 14.2119 1043 107.504 422.405 458.839
920 0 72.2516 15.7782 1140 106.137 421.967 453.668
921 0 76.2416 13.2211 1008 109.081 421.835 453.026
922 0 76.2511 13.7047 1045 109.903 421.597 454.52
923 0 82.2537 13.3003 1094 109.345 421.25 452.197
924 0 83.1548 15.9341 1325 107.306 421.065 444.02
925 0 88.3522 13.3896 1183 111.788 421.973 446.732
926 0 88.3384 15.418 1362 110.269 421.714 444.175
927 0 90.2284 12.0915 1091 115.766 422.152 443.258
928 1 51.3041 11.0907 569 111.706 423.494 460.23
929 0 53.4153 12.693 678 107.792 423.376 455.665
930 0 54.4288 12.5301 682 108.802 424.173 457.441
931 0 52.2086 13.5801 709 106.018 424.367 453.86
932 0 54.0818 11.9449 646 104.803 424.537 454.684
933 0 54.1384 16.033 868 105.47 424.018 459.918
934 0 58.1726 12.927 752 109.032 425.197 455.457
935 0 58.0907 11.6714 678 110.407 427.301 455.086
936 0 58.1076 10.6699 620 113.856 428.431 451.068
937 0 63.3764 13.0806 829 108.578 429.293 452.129
938 0 63.092 12.569 793 111.405 428.01 454.285
939 0 66.1151 13.8244 914 109.743 428.352 451.728
940 0 67.2038 14.8355 997 108.523 426.956 452.288
941 0 71.2073 13.4677 959 110.546 427.359 449.564
942 0 72.2298 12.6679 915 113.249 427.12 449.302
943 0 74.2403 15.7327 1168 109.186 426.814 451.228
944 0 76.1103 13.533 1030 111.331 428.744 453.546
945 0 77.1253 12.7844 986 114.417 428.898 449.42
946 0 81.3941 15.2959 1245 109.613 428.606 450.09
947 0 84.4372 13.7499 1161 112.522 428.157 445.222
948 0 87.2907 14.9959 1309 109.69 428.849 449.725
949 0 89.1966 12.579 1122 112.989 428.621 452.922
950 0 91.185 11.6137 1059 115.548 428.822 450.498
951 0 94.1629 14.3156 1348 111.524 429.03 448.83
952 0 97.4276 15.6321 1523 110.729 429.357 447.177
953 0 99.4404 11.2831 1122 113.61 428.627 447.455
954 0 99.4404 11.2731 1121 132.897 427.595 447.615
955 1 55.1526 11.2597 621 109.23 425.261 468.39
956 0 56.0368 11.0999 622 110.741 426.122 472.592
957 0 55.2306 10.266 567 110.721 428.042 468.157
958 0 57.1932 13.2359 757 107.107 427.322 468.732
959 0 59.1405 11.312 669 109.753 425.972 465.076
960 0 61.3584 15.9717 980 104.157 425.319 466.282
961 0 63.4805 13.5317 859 106.075 425.007 463.219
962 0 66.2504 11.7886 781 107.426 425.384 466.759
963 0 66.2876 12.5514 832 107.413 424.738 462.903
964 0 68.3519 10.9873 751 110.184 425.093 459.257
965 0 69.1655 12.7086 879 108.338 424.604 457.64
966 0 72.1522 13.2082 953 106.788 423.71 458.913
967 0 74.2907 12.4242 923 108.619 423.386 457.81
968 0 74.1796 12.6854 941 108.993 422.959 456.596
969 0 79.1268 13.7754 1090 107.745 422.397 454.544
970 0 75.2349 9.98207 751 113.541 422.513 453.882
971 0 78.1426 12.8867 1007 111.297 423.107 446.072
972 0 85.2546 13.5594 1156 108.998 423.416 447.98
973 0 85.3028 13.0007 1109 111.334 423.507 442.236
974 0 89.209 13.7094 1223 110.807 424.691 440.609
975 0 94.2874 19.9072 1877 101.905 424.238 436.62
976 0 94.3373 13.8651 1308 112.057 425.498 439.021
977 0 97.4189 14.0219 1366 111.889 425.101 437.6
978 1 53.1789 10.7749 573 113.611 425.908 460.613
979 0 52.3862 13.6868 717 110.434 424.543 454.342
980 0 53.5267 10.761 576 116.307 425.429 454.934
981 0 57.4832 13.7779 792 110.965 424.72 456.457
982 0 60.5909 13.4839 817 108.927 425.824 459.345
983 0 62.5757 14.6223 915 109.683 425.979 452.808
984 0 63.3083 14.3425 908 109.757 426.969 451.903
985 0 64.2816 13.9853 899 110.257 427.528 454.449
986 0 69.3514 15.6161 1083 107.396 428.655 450.318
987 0 72.3145 14.672 1061 107.618 429.631 452.126
988 0 73.2461 15.1134 1107 108.865 429.057 449.159
989 0 75.3143 12.5209 943 111.683 428.663 450.525
990 0 79.4157 15.4629 1228 106.053 429.019 452.129
991 0 81.3316 13.4019 1090 109.394 429.939 450.679
992 0 81.3165 12.4452 1012 111.211 429.561 448.355
993 0 86.4222 13.2258 1143 110.549 429.496 449.392
994 1 43.1118 8.35039 360 113.847 427.506 469.656
995 0 46.0495 9.68523 446 112.155 428.404 473.561
996 0 49.0787 14.3647 705 105.925 429.206 471.007
997 0 50.1079 12.4531 624 104.771 429.692 471.739
998 0 52.1742 14.3749 750 100.892 429.347 469.815
999 0 53.2948 12.1212 646 102.854 429.297 470.994
1000 0 56.1751 14.0098 787 98.9733 427.424 471.835
1001 0 56.1196 13.8632 778 99.9139 426.816 471.758
1002 0 59.1558 15.7381 931 97.8174 425.536 468.028
1003 0 60.384 12.8511 776 101.603 425.285 466.089
1004 0 63.1863 11.9488 755 105.144 425.019 466.416
1005 0 64.1083 11.4026 731 103.631 424.621 461.335
1006 0 67.3623 14.8154 998 101.524 424.605 461.003
1007 0 69.2869 18.243 1264 96.8078 423.789 458.298
1008 0 69.0864 11.681 807 107.932 423.535 462.449
1009 0 72.1703 12.6368 912 106.152 423.143 458.296
1010 0 75.2064 15.7566 1185 101.584 423.025 459.459
1011 0 75.2209 15.6074 1174 103.685 422.842 454.881
1012 0 78.1584 12.5258 979 108.942 423.623 453.735
1013 0 81.2204 13.1002 1064 108.469 423.032 453.498
1014 0 79.1867 10.6331 842 114.036 423.65 448.632
1015 0 85.2246 13.3529 1138 110.322 423.352 450.292
1016 0 86.2863 12.9337 1116 112.134 423.792 444.527
1017 0 91.3374 13.9921 1278 109.024 424.686 445.871
1018 0 91.2105 12.4876 1139 113.032 425.629 440.615
1019 0 97.1631 13.781 1339 110.006 425.889 444.04
1020 0 95.3061 12.0034 1144 113.146 425.052 426.415
1021 0 103.099 14.6946 1515 107.304 425.521 436.291
1022 1 55.1896 11.7957 651 113.587 427.123 456.083
1023 0 57.0615 11.584 661 106.867 426.788 451.384
1024 0 62.2744 11.5617 720 106.051 425.765 451.886
1025 0 62.4439 12.4111 775 105.027 426.81 455.421
1026 0 63.2462 11.0204 697 108.882 427.32 447.409
1027 0 67.3609 13.5242 911 104.928 428.225 451.65
1028 0 67.2734 11.9066 801 109.655 428.708 446.563
1029 0 71.3316 10.6825 762 109.969 429.272 446.925
1030 0 72.2006 11.7035 845 108.49 429.092 448.622
1031 0 77.3908 11.8102 914 109.478 430.228 448.209
1032 0 74.4799 10.8351 807 110.384 429.988 453.067
1033 0 80.2665 11.3248 909 110.826 429.699 448.662
1034 0 84.271 15.8061 1332 104.77 429.785 447.913
1035 0 87.5225 19.1951 1680 101.733 430.164 445.192
1036 0 84.3571 12.7553 1076 113.369 429.529 444.96
1037 0 89.3458 15.121 1351 110.058 430.176 447.24
1038 0 93.4795 14.6449 1369 110.259 428.939 447.405
1039 0 96.6646 13.7382 1328 112.323 429.446 442.871
1040 1 52.2597 8.95527 468 111.994 427.987 469.226
1041 0 52.0977 12.8796 671 107.836 428.286 468.535
1042 0 56.1927 11.2826 634 109.404 427.839 467.849
1043 0 59.1632 12.0683 714 109.606 428.655 471.535
1044 0 53.0465 11.1789 593 117.098 427.626 462.469
1045 0 58.1116 10.3078 599 117.728 427.057 465.469
1046 0 61.2137 14.915 913 109.399 426.254 465.039
1047 0 65.1476 12.5561 818 112.692 425.203 463.131
1048 0 65.2135 11.6387 759 115.029 424.866 462.137
1049 0 65.1336 8.07571 526 120.2 424.664 460.452
1050 0 68.1467 11.7394 800 115.226 423.26 455.241
1051 0 68.0565 12.4162 845 115.279 424.218 456.204
1052 0 69.1096 16.1049 1113 109.208 422.753 451.607
1053 0 78.1094 12.6233 986 112.295 423.106 454.764
1054 0 75.3671 12.95 976 113.435 422.908 448.551
1055 0 78.2764 11.5233 902 115.214 422.796 449.085
1056 0 84.1296 14.0141 1179 110.887 422.875 447.573
1057 0 85.1218 15.1313 1288 110.111 422.779 442.189
1058 1 46.1 8.54664 394 111.416 422.779 459.074
1059 0 47.0683 10.0917 475 109.615 421.785 460.265
1060 0 51.1668 11.7654 602 107.897 420.944 461.749
1061 0 51.0706 15.1359 773 103.387 421.349 462.327
1062 0 53.1489 12.4368 661 105.424 422.949 459.775
1063 0 54.1783 16.2796 882 105.689 422.324 460.965
1064 0 55.095 10.6906 589 114.698 423.693 463.598
1065 0 57.0548 11.9008 679 113.267 423.445 459.454
1066 0 59.2291 11.886 704 111.67 423.989 459.27
1067 0 59.0581 11.4294 675 113.557 424.724 459.16
1068 0 62.3945 14.1038 880 109.257 425.527 456.833
1069 0 62.2564 11.9988 747 113.22 426.382 453.17
1070 0 66.184 12.7523 844 110.942 427.584 454.852
1071 0 68.3827 11.8451 810 111.351 427.965 455.794
1072 0 70.2372 12.7852 898 110.161 427.435 453.332
1073 0 74.2903 14.7126 1093 107.059 428.414 453.225
1074 0 76.2309 11.1372 849 112.051 429.274 451.1
1075 0 79.2474 12.4799 989 109.11 428.92 454.729
1076 0 84.1924 17.3294 1459 101.914 428.812 449.432
1077 0 88.2086 17.1979 1517 102.593 428.749 449.423
1078 0 91.2542 17.2266 1572 102.394 428.914 449.541
1079 1 47.0715 9.98482 470 109.283 427.881 474.647
1080 0 48.092 11.3117 544 108.991 427.2 474.403
1081 0 51.3049 12.2211 627 105.065 427.026 475.231
1082 0 55.2969 15.6067 863 99.3534 426.27 475.903
1083 0 55.2463 14.2091 785 101.535 426.724 471.245
1084 0 55.1804 13.5555 748 103.314 425.547 470.715
1085 0 60.2238 16.5881 999 98.0851 425.299 471.585
1086 0 60.1666 13.2632 798 103.719 424.857 468.099
1087 0 62.3462 13.9864 872 101.132 424.06 474.319
1088 0 62.1252 10.5432 655 106.29 423.02 474.64
1089 0 62.2134 9.64422 600 109.298 422.853 467.878
1090 0 67.327 11.0654 745 106.123 421.913 469.536
1091 0 65.1934 10.6453 694 109.291 422.797 462.813
1092 0 70.1965 12.7499 895 105.486 422.096 463.49
1093 0 73.2617 18.195 1333 98.7202 421.33 463.581
1094 0 74.1946 11.0251 818 107.554 420.933 462.385
1095 0 78.2403 15.8358 1239 101.74 420.968 458.699
1096 0 79.2256 15.0709 1194 102.776 420.831 457.582
1097 0 82.1839 15.1611 1246 102.461 421.54 453.815
1098 0 85.1785 16.2834 1387 101.536 421.838 450.493
1099 0 89.2495 12.2466 1093 107.18 421.376 447.626
1100 1 47.0416 13.2223 622 103.998 419.997 472.847
1101 0 48.135 13.4621 648 104.6 419.978 467.486
1102 0 51.0609 17.3127 884 98.4943 420.387 467
1103 0 54.1649 17.1513 929 97.507 420.249 469.927
1104 0 50.0275 11.8335 592 107.939 420.306 464.943
1105 0 52.1111 9.47975 494 111.065 420.65 464.577
1106 0 57.0815 13.5771 775 103.725 421.387 464.401
1107 0 60.1716 12.3979 746 104.684 421.379 460.902
1108 0 56.1246 12.3119 691 107.395 422.41 459.292
1109 0 62.1312 14.9522 929 102.543 422.25 459.237
1110 0 64.1424 16.2763 1044 100.824 422.944 459.147
1111 0 65.2001 13.2822 866 105.945 424.137 454.352
1112 0 65.1193 13.6979 892 104.877 424.785 456.8
1113 0 68.3754 12.3582 845 104.656 427.178 456.241
1114 0 73.2806 16.2117 1188 97.3241 427.386 456.039
1115 0 75.1615 15.5266 1167 99.4302 427.936 449.936
1116 0 78.4549 12.8736 1010 102.72 428.932 453.141
1117 1 42.193 11.9688 505 103.84 427.489 469.071
1118 0 43.206 8.30904 359 109.702 428.627 470.643
1119 0 47.1631 11.5132 543 103.425 425.392 469.501
1120 0 45.3842 13.4188 609 102.736 426.144 470.573
1121 0 47.0805 12.022 566 104.454 425.519 471.286
1122 0 49.0602 12.821 629 105.005 425.639 471.652
1123 0 50.1182 14.0069 702 103.664 425.956 472.386
1124 0 50.1182 13.8672 695 131.279 425.974 472.322
1125 0 53.0605 12.3067 653 106.49 425.41 469.113
1126 0 55.0883 13.6145 750 104.229 425.248 476.485
1127 0 56.2198 15.8307 890 102.171 425.217 470.856
1128 0 59.0696 14.9315 882 102.534 423.029 472.059
1129 0 57.1258 13.6366 779 105.62 422.831 470.866
1130 0 62.254 14.0875 877 104.713 422.173 472.185
1131 0 62.093 10.9352 679 108.555 421.915 474.626
1132 0 65.0829 14.8887 969 103.745 421.351 472.002
1133 0 66.1253 12.4763 825 106.731 421.091 470.178
1134 0 69.0567 13.4817 931 107.069 420.12 467.143
1135 0 71.2817 17.6904 1261 101.992 420.723 465.102
1136 0 74.1849 15.8658 1177 104.268 419.11 462.276
1137 0 74.1154 15.4219 1143 105.153 419.016 460.202
1138 0 76.0764 11.5016 875 110.466 418.571 460.618
1139 0 78.3012 16.3982 1284 104.069 418.051 457.601
1140 0 81.3964 16.5364 1346 103.33 418.256 460.417
1141 0 84.3012 12.7638 1076 109.851 418.566 454.046
1142 0 86.202 11.3803 981 112.458 417.742 453.455
1143 1 46.2767 13.1384 608 105.969 418.495 472.789
1144 0 48.1846 13.8426 667 105.919 418.448 470.706
1145 0 50.3277 13.4121 675 108.129 419.665 466.296
1146 0 51.3387 11.9403 613 110.475 421.935 462.56
1147 0 53.4122 12.8997 689 108.737 421.668 458.634
1148 0 53.2825 12.4806 665 111.317 422.173 459.528
1149 0 57.4851 14.3863 827 108.149 423.472 458.998
1150 0 56.2867 12.7206 716 111.691 423.422 458.902
1151 0 57.322 11.95 685 114.077 424.164 457.666
1152 0 59.3654 15.0424 893 109.465 425.204 454.931
1153 0 63.3053 14.7065 931 108.096 425.498 459.469
1154 0 64.3968 14.1467 911 111.043 426.06 453.896
1155 0 66.2027 14.2894 946 110.06 425.823 453.016
1156 0 69.3114 14.3844 997 109.253 426.327 453.514
1157 0 68.3367 11.8384 809 114.262 425.555 451.456
1158 0 72.3872 11.8944 861 112.112 426.289 455.656
1159 0 75.332 11.7878 888 113.051 427.893 453.435
1160 0 78.4197 14.2566 1118 109.585 428.237 454.292
1161 0 77.4197 12.852 995 114.207 429.196 452.019
1162 0 81.4153 12.6512 1030 111.143 428.471 457.304
1163 0 82.2076 12.6387 1039 110.683 428.787 447.41
1164 1 47.2047 9.80834 463 106.21 426.665 473.065
1165 0 46.2024 9.15537 423 108.39 427.678 475.794
1166 0 49.379 11.4016 563 106.625 428.018 471.325
1167 0 50.7004 11.8342 600 107.278 426.898 470.15
1168 0 52.0727 11.8488 617 106.844 428.626 473.511
1169 0 53.1226 13.7606 731 103.974 427.088 476.313
1170 0 54.0873 11.6293 629 106.957 426.852 473.135
1171 0 56.2801 13.5927 765 105.817 428.298 470.692
1172 0 60.1301 14.3522 863 103.482 426.574 476.999
1173 0 61.1064 13.3865 818 105.381 426.048 474.601
1174 0 63.1706 12.395 783 106.695 426.102 471.489
1175 0 65.1381 12.9878 846 104.694 424.629 475.256
1176 0 68.1482 14.3511 978 104.44 424.616 466.636
1177 0 70.2016 14.5011 1018 103.724 423.071 467.951
1178 0 71.4037 13.9068 993 104.77 422.691 460.13
1179 0 72.1057 12.7452 919 109.155 420.298 462.309
1180 0 75.18 9.97606 750 111.496 420.007 462.359
1181 0 80.3054 15.3165 1230 102.229 419.954 460.806
1182 0 83.2835 17.0262 1418 101.219 419.738 452.927
1183 0 86.3074 19.9288 1720 97.5948 419.725 457.945
1184 0 87.3578 7.40632 647 113.11 419.345 462.655
1185 0 89.3059 14.6127 1305 102.775 419.385 460.133
1186 0 91.4715 12.7471 1166 107.648 419.992 448.073
1187 0 95.3097 14.4476 1377 105.558 420.818 444.589
1188 0 98.2753 14.6222 1437 105.446 419.168 448.792
1189 0 101.331 15.2668 1547 104.95 419.696 438.936
1190 0 102.322 13.2816 1359 108.19 420.497 440.216
1191 1 56.2358 11.3629 639 108.219 421.944 464.987
1192 0 57.0556 13.6358 778 100.756 422.398 464.251
1193 0 60.3224 13.6102 821 100.722 422.866 458.893
1194 0 59.1824 8.93848 529 107.567 423.975 459.975
1195 0 63.1683 13.1237 829 107.877 422.093 458.893
1196 0 69.2011 12.7888 885 106.355 423.694 457.427
1197 0 68.2281 12.5315 855 105.578 424.389 460.323
1198 0 71.3694 13.8155 986 105.384 424.924 453.043
1199 0 73.2452 13.407 982 106.601 425.87 452.868
1200 0 76.3289 16.3765 1250 102.261 425.769 449.627
1201 0 76.3358 12.0127 917 106.147 427.321 448.031
1202 0 82.34 14.2823 1176 103.479 427.52 446.879
1203 0 83.2548 12.708 1058 106.412 428.673 448.612
1204 0 86.168 13.1719 1135 105.263 428.717 450.188
1205 0 88.518 13.6469 1208 105.637 428.532 445.725
1206 0 91.3321 13.0951 1196 106.429 428.865 449.563
1207 0 93.3196 13.1698 1229 107.205 428.032 449.546
1208 0 97.3223 13.4399 1308 106.285 428.698 453.27
1209 1 50.1994 10.279 516 107.537 429.143 474.039
1210 0 51.0757 11.2969 577 107.544 428.997 472.724
1211 0 54.2117 12.1192 657 106.932 428.157 470.005
1212 0 57.1335 14.4049 823 104.957 428.362 472.701
1213 0 61.0571 13.6102 831 105.745 428.771 472.055
1214 0 63.2634 17.1031 1082 102.328 427.44 465.665
1215 0 65.2431 13.4727 879 106.625 426.3 471.869
1216 0 65.1587 14.0426 915 108.555 425.777 467.354
1217 0 67.2897 13.1669 886 110.428 425.358 463.4
1218 0 70.2523 15.544 1092 107.347 423.494 454.652
1219 0 72.4774 12.2107 885 112.711 423.864 462.368
1220 0 74.1838 13.7496 1020 110.299 423.401 465.326
1221 0 76.119 15.5283 1182 108.668 422.231 465.4
1222 0 76.5264 13.0543 999 114.623 422.966 460.367
1223 0 80.1108 12.9321 1036 113.001 421.999 456.384
1224 0 82.2136 14.2799 1174 112.51 422.343 445.915
1225 0 86.2895 13.559 1170 112.961 421.555 445.423
1226 0 87.2124 12.074 1053 115.931 422.688 447.753
1227 0 93.2756 17.5287 1635 107.615 421.823 440.555
1228 0 92.3044 13.8022 1274 115.549 422.295 440.977
1229 0 96.1581 11.7411 1129 116.512 422.528 440.275
1230 0 101.335 12.0787 1224 115.358 421.993 439.082
1231 0 105.445 16.8618 1778 109.696 422.13 438.472
1232 0 107.281 14.1311 1516 114.949 421.619 432.991
1233 0 110.167 15.2223 1677 113.847 422.857 434.769
1234 0 112.523 13.0106 1464 120.015 422.86 431.209
1235 1 63.2631 12.3611 782 119.144 423.1 452.532
1236 0 65.3688 14.074 920 116.196 423.064 446.322
1237 0 68.2373 12.0169 820 116.64 423.841 447.349
1238 0 68.6134 13.1899 905 117.76 422.838 452.452
1239 0 73.3744 16.3 1196 112.244 424.466 452.614
1240 0 73.5022 12.6527 930 113.208 424.848 447.152
1241 0 78.2657 13.8503 1084 108.664 425.759 450.867
1242 0 81.3741 14.7098 1197 109.164 426.672 449.266
1243 0 81.2717 13.0673 1062 111.544 427.352 450.426
1244 0 87.1445 13.4833 1175 110.22 427.688 447.628
1245 0 85.3744 11.1977 956 114.581 429.258 447.974
1246 0 89.6645 13.2048 1184 112.193 428.29 443.628
1247 0 92.3173 12.522 1156 112.548 429.339 448.16
1248 0 96.2202 15.5892 1500 110.556 429.19 446.094
1249 0 98.3994 16.3212 1606 109.843 429.019 437.406
1250 0 101.296 13.0608 1323 114.171 429.265 441.512
1251 0 105.848 14.5398 1539 112.506 428.478 432.684
1252 0 107.613 12.9353 1392 115.227 429.026 431.089
1253 0 113.618 13.5278 1537 112.889 427.744 437.951
1254 0 116.629 13.4529 1569 112.662 427.841 439.17
1255 0 122.621 14.7283 1806 110.033 427.522 437.559
1256 0 126.036 14.2657 1798 111.48 427.984 429.506
1257 0 131.538 15.296 2012 110.223 427.259 430.369
1258 0 134.422 14.0304 1886 112.379 425.822 427.856
1259 0 140.525 14.3817 2021 110.758 425.621 428.979
1260 1 75.3022 15.0195 1131 106.789 423.431 462.284
1261 0 80.4802 14.2644 1148 107.182 422.74 456.571
1262 0 79.307 15.6354 1240 106.322 422.977 453.64
1263 0 82.1639 14.1668 1164 108.902 422.021 451.845
1264 0 84.524 13.6411 1153 109.258 422.002 446.496
1265 0 88.7778 17.0313 1512 103.005 421.359 444.061
1266 0 89.2666 13.3197 1189 109.743 421.462 446.614
1267 0 92.4272 12.7452 1178 110.571 421.186 442.16
1268 0 96.3218 17.6492 1700 103.054 420.075 439.512
1269 0 97.421 15.2431 1485 107.653 420.5 435.734
1270 0 103.4 13.6171 1408 108.908 420.444 430.266
1271 1 52.3773 10.2716 538 110.587 419.993 457.188
1272 0 58.347 12.2543 715 107.091 419.884 457.152
1273 0 59.2322 10.6192 629 111.426 419.981 453.825
1274 0 60.2576 14.2389 858 107.592 420.096 452.284
1275 0 64.1071 13.0251 835 107.716 419.777 454.594
1276 0 66.1272 13.2623 877 109.429 420.251 444.4
1277 0 68.2739 13.9585 953 107.285 421.164 446.579
1278 0 68.1879 12.6122 860 110.658 420.035 448.843
1279 0 73.1143 16.2349 1187 104.723 421.495 443.407
1280 0 76.0956 12.0112 914 112.955 422.294 440.439
1281 0 79.303 13.7574 1091 109.796 424.145 434.365
1282 0 81.1112 14.3507 1164 109.615 424.238 432.471
1283 0 83.3059 17.8739 1489 105.08 424.563 432.151
1284 0 85.6036 13.0485 1117 110.54 424.95 437.987
1285 0 89.6896 15.9773 1433 105.814 425.179 436.537
1286 0 90.6251 17.2248 1561 104.789 426.159 441.246
1287 0 94.5703 18.9066 1788 105.672 426.044 434.022
1288 0 99.9782 23.8252 2382 98.6163 426.396 435.134
1289 0 99.358 13.1846 1310 115.918 426.732 431.303
1290 0 103.41 17.039 1762 108.939 427.504 437.24
1291 0 106.355 13.3515 1420 115.149 429.126 436.882
1292 1 57.1988 13.2345 757 112.214 429.018 462.799
1293 0 58.1274 10.0813 586 117.626 429.338 460.739
1294 0 62.3801 14.2513 889 108.967 429.668 467.575
1295 0 66.3655 12.3709 821 114.421 429.222 460.111
1296 0 68.4455 13.8212 946 107.553 427.689 461.966
1297 0 70.2934 12.9315 909 108.991 428.255 466.251
1298 0 75.3017 12.3902 933 109.734 427.525 463.454
1299 0 77.2463 13.8389 1069 108.316 427.226 463.435
1300 0 77.5084 12.9147 1001 110.084 427.093 458.348
1301 0 81.3711 18.1514 1477 102.053 425.894 464.492
1302 0 83.1949 11.443 952 113.498 425.47 459.81
1303 0 88.332 16.5738 1464 104.103 425.157 463.076
1304 0 89.3648 13.7974 1233 110.575 424.099 454.374
1305 0 93.5742 14.8545 1390 108.993 423.725 452.947
1306 0 94.5818 14.083 1332 110.133 422.995 450.105
1307 0 98.5107 13.4909 1329 110.804 422.716 452.309
1308 0 105.338 17.9232 1888 105.321 418.707 446.837
1309 0 111.45 15.9264 1775 109.094 422.079 436.074
1310 1 61.2155 10.8959 667 108.998 422.567 463.16
1311 0 64.2675 14.4085 926 104.418 421.008 461.193
1312 0 70.6563 20.0265 1415 97.9746 419.311 457.348
1313 0 68.4136 14.9093 1020 104.783 419.206 451.949
1314 0 67.2224 12.4363 836 108.657 419.331 453.255
1315 0 73.2744 14.084 1032 104.881 419.506 455.287
1316 0 75.1085 17.2817 1298 100.819 420.873 453.642
1317 0 77.3462 15.2561 1180 103.068 421.773 452.036
1318 0 79.384 11.6648 926 108.474 422.458 451.134
1319 0 81.3132 15.0652 1225 105.19 422.66 443.043
1320 0 86.237 13.0686 1127 105.821 423.732 451.012
1321 0 89.2212 14.3127 1277 107.787 424.248 443.449
1322 0 90.1374 13.9676 1259 108.496 424.506 442.839
1323 0 94.3026 16.797 1584 104.533 425.317 440.13
1324 0 100.578 15.7888 1588 104.944 425.114 439.305
1325 0 101.686 16.6099 1689 103.928 425.693 436.405
1326 0 102.552 12.969 1330 110.844 427.072 435.744
1327 0 106.523 15.8558 1689 104.991 426.351 442.57
1328 0 108.707 14.792 1608 108.505 427.798 435.311
1329 0 108.707 14.8288 1612 140.143 429.78 435.426
1330 1 63.2373 10.8164 684 107.826 428.551 462.595
1331 0 61.2745 9.6288 590 112.624 428.746 461.134
1332 0 66.2135 11.0249 730 109.644 428.175 459.353
1333 0 72.1965 14.7376 1064 104.252 429.567 458.98
1334 0 71.4122 12.5749 898 108.666 428.068 459.196
1335 0 72.3323 13.0924 947 111.303 428.879 457.02
1336 0 78.1808 16.3851 1281 102.317 428.768 458.552
1337 0 77.4629 11.5281 893 110.344 428.466 458.539
1338 0 81.2427 16.6046 1349 103.708 427.534 457.457
1339 0 82.3982 12.1119 998 109.933 427.68 460.471
1340 0 85.1883 12.713 1083 110.292 427.665 457.109
1341 0 86.3912 11.309 977 112.762 426.383 453.436
1342 0 91.3259 14.9355 1364 108.15 426.01 455.288
1343 0 95.2349 17.7771 1693 102.969 425.445 456.328
1344 0 94.4523 12.4719 1178 113.666 424.542 448.133
1345 0 99.1964 14.4259 1431 109.968 424.595 451.341
1346 0 102.474 19.2341 1971 103.197 422.833 444.428
1347 0 105.555 15.0254 1586 109.187 422.558 446.773
1348 0 107.625 13.3054 1432 111.434 423.902 441.588
1349 0 112.44 13.3671 1503 110.597 422.738 444.565
1350 1 70.2755 9.10702 640 109.809 423.109 466.73
1351 0 66.1924 10.6961 708 110.234 422.781 465.065
1352 0 69.2042 14.7534 1021 103.42 422.245 464.501
1353 0 70.4452 15.6434 1102 102.539 420.688 458.996
1354 0 71.533 15.8388 1133 103.327 420.831 453.044
1355 0 74.3862 14.2903 1063 105.264 421.252 446.452
1356 0 75.2319 13.9701 1051 105.451 421.165 449.148
1357 0 74.2671 10.2064 758 112.65 422.153 444.187
1358 0 80.4501 12.5046 1006 107.25 421.681 443.366
1359 0 83.5834 12.7418 1065 107.252 421.714 442.439
1360 0 85.426 13.2864 1135 107.108 421.223 441.111
1361 0 87.5916 14.9786 1312 105.59 422.206 441.191
1362 0 92.6078 15.1823 1406 105.248 423.27 442.81
1363 0 92.4177 14.3479 1326 107.394 423.827 439.75
1364 0 94.6674 14.2393 1348 107.993 423.739 433.524
1365 0 101.557 15.6169 1586 105.975 424.452 433.842
1366 0 103.375 18.6022 1923 102.653 424.019 433.166
1367 0 105.578 12.8436 1356 113.789 424.65 431.403
1368 0 107.7 15.8124 1703 110.872 424.794 427.053
1369 0 109.886 11.5483 1269 118.635 425.782 424.549
1370 0 114.747 16.8109 1929 106.978 425.808 434.923
1371 0 117.824 12.0689 1422 117.66 426.85 420.722
1372 0 123.757 13.8254 1711 114.124 427.035 420.014
1373 0 127.75 13.0332 1665 111.228 428.262 425.369
1374 0 133.031 14.1922 1888 112.712 427.164 418.763
1375 1 81.0197 16.3417 1324 102.844 428.145 451.443
1376 0 81.0197 16.28 1319 131.489 429.14 451.329
1377 0 84.3078 14.8622 1253 106.439 428.599 446.908
1378 0 85.8658 10.6562 915 113.52 429.131 442.481
1379 0 91.6743 11.6499 1068 106.562 426.394 443.54
1380 0 90.7254 12.7087 1153 106.65 425.938 441.297
1381 1 71.4808 10.2825 735 114.408 426.755 429.118
1382 1 98.7538 14.926 1474 104.168 425.923 438.094
1383 0 101.696 10.4233 1060 110.18 426.783 437.39
1384 0 103.756 13.2716 1377 106.269 425.882 439.361
1385 0 106.184 15.2753 1622 104.313 425.24 435.858
1386 0 109.831 12.6922 1394 108.032 424.758 437.284
1387 0 114.026 13.0496 1488 107.435 424.054 438.265
1388 0 114.614 13.5236 1550 107.686 422.754 432.284
1389 0 118.883 14.5437 1729 106.318 423.116 433.556
1390 0 122.829 11.7887 1448 111.068 422.847 432.309
1391 0 126.699 13.2519 1679 109.172 421.922 428.096
1392 0 129.039 11.3609 1466 112.136 421.76 424.356
1393 0 134.684 14.3966 1939 107.483 420.523 427.211
1394 0 137.915 14.2335 1963 109.218 420.828 421.005
1395 1 77.6127 10.1401 787 108.351 420.567 448.99
1396 0 81.4824 9.91625 808 108.729 420.248 453.339
1397 0 82.133 11.0309 906 108.198 421.194 453.717
1398 0 85.1867 12.1967 1039 109.345 420.774 446.006
1399 0 90.2106 12.5373 1131 108.504 421.489 448.372
1400 0 91.5327 13.1647 1205 109.8 422.548 438.221
1401 0 96.4043 12.7484 1229 110.13 422.672 439.976
1402 0 98.7115 13.6965 1352 107.428 422.321 443.822
1403 0 99.6095 12.6594 1261 112.987 422.298 435.063
1404 0 103.806 13.2747 1378 112.239 421.694 430.045
1405 0 107.615 16.401 1765 107.709 422.703 424.601
1406 0 110.66 14.0249 1552 112.707 422.94 427.407
1407 0 114.716 15.3771 1764 110.456 423.745 428.511
1408 0 115.757 13.8738 1606 113.87 423.357 424.555
1409 0 118.909 15.4909 1842 112.512 424.604 423.931
1410 0 121.635 15.5711 1894 113.038 426.55 424.026
1411 0 124.588 18.1718 2264 108.72 426.3 426.997
1412 0 126.784 15.065 1910 115.527 427.315 419.736
1413 0 130.604 13.8128 1804 118.623 426.937 421.049
1414 0 133.843 14.3526 1921 118.092 428.419 411.254
1415 0 139.618 16.5809 2315 113.962 428.524 413.727
1416 0 143.666 15.731 2260 115.053 429.326 412.15
1417 0 147.707 12.5789 1858 120.84 429.326 410.914
1418 1 85.6384 10.0889 864 116.941 429.131 446.688
1419 0 92.4076 12.8344 1186 112.121 428.887 443.368
1420 0 92.7334 9.56505 887 118.06 427.561 441.337
1421 0 96.4692 13.5276 1305 111.854 428.921 447.465
1422 0 98.5162 11.8559 1168 114.368 429.028 443.682
1423 0 102.553 13.9538 1431 110.748 428.932 446.447
1424 0 104.589 12.3531 1292 114.316 427.878 437.819
1425 0 109.504 9.70745 1063 117.297 427.477 441.844
1426 0 112.393 12.9724 1458 113.526 427.134 439.133
1427 0 118.536 16.3073 1933 107.215 427.236 439.906
1428 0 120.581 15.5664 1877 108.374 426.085 443.008
1429 0 122.539 12.6408 1549 113.498 425.509 439.396
1430 0 125.68 17.8947 2249 106.946 424.504 433.686
1431 0 127.556 15.8989 2028 110.189 424.61 426.171
1432 0 132.398 13.8597 1835 112.21 423.899 432.236
1433 0 134.466 10.9098 1467 118.691 423.54 419.372
1434 0 139.518 13.3889 1868 113.974 422.458 425.989
1435 0 146.672 13.3972 1965 113.151 422.793 426.263
1436 1 87.3114 12.7704 1115 106.613 422.667 453.752
1437 0 87.3662 9.01951 788 112.897 422.669 447.759
1438 0 89.254 11.1592 996 112.253 423.002 448.891
1439 0 97.2687 15.7913 1536 100.674 421.744 449.734
1440 0 96.3296 13.1528 1267 105.229 421.646 444.984
1441 0 98.1892 12.4657 1224 106.809 421.825 437.32
1442 0 101.289 12.2719 1243 107.778 421.792 439.82
1443 0 105.264 14.2214 1497 104.63 422.278 441.676
1444 0 107.214 18.7381 2009 100.239 421.567 431.582
1445 0 111.289 13.0471 1452 107.678 422.318 430.032
1446 0 114.376 15.7201 1798 102.773 422.214 432.898
1447 0 117.415 14.734 1730 105.163 422.341 427.88
1448 0 117.391 13.4423 1578 108.352 421.973 427.179
1449 0 120.598 14.8675 1793 106.921 423.316 420.249
1450 0 125.514 13.4885 1693 109.237 424.399 417.159
1451 0 127.449 14.2096 1811 107.345 423.906 423.272
1452 0 132.513 15.6287 2071 105.678 425.729 416.505
1453 0 137.492 13.3099 1830 106.688 424.676 409.109
1454 0 140.686 15.1827 2136 103.049 425.145 415.028
1455 1 84.1516 7.58156 638 109.183 426.997 441.592
1456 0 87.2586 13.2251 1154 97.2253 427.254 443.206
1457 0 89.3967 10.101 903 101.187 427.555 439.834
1458 0 93.4141 13.1993 1233 96.3171 428.032 440.121
1459 0 95.5848 16.2997 1558 93.1868 428.628 437.811
1460 0 97.4448 12.5097 1219 97.8187 428.237 432.628
1461 0 99.2354 12.9692 1287 97.6364 428.06 436.849
1462 0 103.445 14.3071 1480 95.7757 428.412 444.807
1463 0 106.354 17.799 1893 92.6181 427.429 440.434
1464 0 106.319 16.3847 1742 94.8794 428.131 442.189
1465 0 112.311 16.3563 1837 95.4905 428.228 440.889
1466 0 117.534 13.9789 1643 98.3451 428.524 441.912
1467 0 118.185 12.7935 1512 101.823 427.968 433.283
1468 0 122.373 15.0768 1845 100.137 427.921 445.815
1469 0 123.448 13.6819 1689 103.938 427.809 439.232
1470 0 126.522 14.29 1808 104.57 427.74 429.669
1471 0 128.474 15.0692 1936 103.654 427.231 434.442
1472 0 132.511 12.6782 1680 107.227 426.99 430.989
1473 0 135.621 13.6115 1846 106.594 425.02 423.107
1474 0 139.626 11.6812 1631 107.371 423.96 430.683
1475 0 141.564 12.1076 1714 108.614 423.186 422.547
1476 1 13.0036 5.22932 68 88.8676 421.471 482.5
1477 0 15.1131 3.57306 54 88.3518 420.148 481.426
1478 0 5 4.2 21 89.7619 419.143 479.286
1479 0 8.00094 3.74956 30 91.6333 418.9 480.467
1480 0 10.0153 3.29497 33 92.0909 421.909 479.152
1481 1 93.2712 12.93 1206 102.603 421.803 434.303
1482 0 93.2712 12.9515 1208 127.204 421.816 434.134
1483 1 102.309 13.342 1365 103.674 418.724 440.415
1484 0 102.392 9.26827 949 110.573 418.451 432.156
1485 0 108.395 13.6261 1477 103.359 418.492 439.11
1486 0 110.364 11.2083 1237 109.134 419.556 427.64
1487 0 114.319 11.0918 1268 107.507 418.222 433.788
1488 0 119.392 11.4329 1365 107.727 418.506 427.984
1489 0 121.376 14.9618 1816 103.34 419.058 428.174
1490 0 122.479 13.7738 1687 106.202 419.547 423.079
1491 0 129.503 15.7448 2039 102.993 420.734 425.281
1492 0 129.326 13.5858 1757 107.546 422.092 416.812
1493 0 130.75 13.2314 1730 109.637 422.248 414.95
1494 0 133.558 13.4324 1794 109.281 422.56 423.829
1495 0 139.406 13.7082 1911 110.418 422.715 412.823
1496 0 146.495 17.9255 2626 103.714 423.616 413.072
1497 0 147.37 14.813 2183 109.516 424.302 411.997
1498 0 151.508 14.9101 2259 110.485 425.326 408.921
1499 0 155.397 16.0685 2497 108.417 426.398 414.243
1500 1 95.2665 13.8139 1316 103.774 424.479 446.206
1501 0 95.3625 11.7342 1119 111.536 426.25 437.002
1502 0 96.8182 11.723 1135 112.202 426.579 433.039
1503 0 101.415 13.6075 1380 109.171 426.641 435.275
1504 0 103.494 15.5661 1611 106.325 425.976 440.773
1505 0 104.335 14.348 1497 110.625 425.717 434.619
1506 0 109.318 12.1572 1329 113.84 426.199 436.728
1507 0 113.448 16.6948 1894 105.624 425.927 440.731
1508 0 116.286 15.6855 1824 108.658 426.361 437.484
1509 0 117.494 14.2815 1678 111.138 424.973 431.763
1510 0 121.513 15.3564 1866 110.267 425.439 432.607
1511 0 126.7 17.6954 2242 106.397 424.845 436.251
1512 0 128.454 13.4757 1731 114.853 425.307 429.974
1513 0 131.734 16.8901 2225 109.541 424.98 428.41
1514 0 137.498 18.7931 2584 105.317 424.115 436.323
1515 0 139.669 12.7015 1774 116.797 423.441 425.138
1516 0 144.697 14.6098 2114 112.645 422.945 428.858
1517 0 147.648 15.2796 2256 112.754 422.36 412.426
1518 1 88.3908 9.50325 840 110.093 424.292 445.956
1519 0 91.3772 14.2158 1299 104.145 422.989 448.64
1520 0 90.2587 12.7965 1155 107.745 422.596 450.355
1521 0 98.4131 15.5264 1528 102.717 422.022 442.106
1522 0 96.2506 11.4077 1098 109.221 422.072 446.34
1523 0 102.387 13.2146 1353 104.418 421.748 446.345
1524 0 104.42 13.8959 1451 104.305 422.307 439.944
1525 0 106.286 11.8077 1255 106.46 421.907 440.715
1526 0 110.331 12.8703 1420 108.451 422.443 437.657
1527 0 113.233 11.8163 1338 110.891 421.061 433.491
1528 0 114.439 11.8054 1351 111.132 420.989 423.516
1529 0 117.553 11.9776 1408 109.757 421.04 433.483
1530 0 123.764 12.338 1527 109.455 420.788 431.546
1531 0 124.391 12.316 1532 111.821 420.757 422.121
1532 0 128.325 13.3021 1707 111.021 421.999 421.025
1533 0 128.465 10.0961 1297 117.057 421.247 415.784
1534 0 138.691 17.3623 2408 104.66 422.015 418.498
1535 0 139.46 13.2296 1845 111.156 423.006 412.598
1536 1 86.3216 15.1179 1305 100.192 424.782 443.906
1537 0 89.1528 12.0692 1076 106.325 424.397 435.13
1538 0 91.3082 11.7405 1072 104.563 424.767 442.41
1539 0 93.4218 12.01 1122 108.267 425.588 433.683
1540 0 97.3451 10.3138 1004 111.271 424.994 434.605
1541 0 97.3344 13.13 1278 106.627 425.354 428.485
1542 0 102.4 12.9492 1326 106.071 426.235 435.325
1543 0 104.387 11.1891 1168 109.756 426.081 433.624
1544 0 106.39 13.2249 1407 107.398 427.546 428.502
1545 0 110.729 12.9506 1434 107.585 427.672 429.82
1546 0 114.511 15.4308 1767 102.369 427.363 437.517
1547 0 116.488 13.4091 1562 105.76 428.127 436.467
1548 0 117.383 12.7616 1498 105.216 428.569 435.175
1549 0 119.569 13.189 1577 106.576 427.581 432.887
1550 0 125.784 12.919 1625 106.679 428.163 429.004
1551 0 129.787 13.4914 1751 106.841 426.915 419.368
1552 0 131.646 10.7562 1416 111.204 427.654 426.715
1553 0 131.766 11.5053 1516 111.735 427.178 420.525
1554 0 137.838 13.1241 1809 108.413 425.823 422.851
1555 0 132.534 11.7856 1562 109.11 425.533 416.538
1556 1 18.0086 5.55291 100 90.05 423.98 478.97
1557 0 11.0037 2.18108 24 91.8333 421.5 483.708
1558 1 82.5162 10.7252 885 104.699 424.336 443.421
1559 1 95.5717 14.3453 1371 99.1962 423.48 452.551
1560 0 93.7142 12.6235 1183 103.692 421.456 445.186
1561 0 99.5658 10.4152 1037 105.83 421.275 445.532
1562 0 97.651 9.53395 931 107.772 421.131 444.842
1563 0 101.798 10.7271 1092 108.255 420.873 443.038
1564 0 102.62 8.05888 827 112.784 420.642 433.264
1565 0 108.575 12.1207 1316 105.154 421.388 441.457
1566 0 110.367 11.0902 1224 106.379 421.815 442.993
1567 0 113.52 11.1258 1263 107.345 420.709 437.593
1568 0 113.52 11.073 1257 130.601 419.697 437.615
1569 0 120.398 16.2378 1955 100.222 419.439 431.519
1570 0 125.517 11.4964 1443 107.025 419.824 428.268
1571 0 127.568 12.6286 1611 105.279 420.364 430.305
1572 0 124.687 11.3164 1411 108.772 419.227 426.202
1573 0 133.679 14.475 1935 104.719 419.568 418.952
1574 0 139.744 13.4961 1886 105.46 419.181 423.128
1575 0 143.698 14.5931 2097 104.592 420.966 413.498
1576 0 146.771 11.8621 1741 109.319 421.088 407.04
1577 0 150.686 12.2308 1843 108.589 421.206 405.278
1578 0 155.529 14.0617 2187 105.197 421.807 412.963
1579 0 162.111 11.7944 1912 109.701 423.016 402.306
1580 0 166.583 12.8044 2133 109.403 423.586 395.322
1581 0 169.716 12.9216 2193 111.03 424.026 388.358
1582 0 177.876 16.8207 2992 106.765 424.095 392.283
1583 0 180.514 12.0101 2168 114.311 424.764 383.769
1584 0 186.89 15.5439 2905 107.994 425.364 389.57
1585 1 10.004 4.4982 45 90.3111 421.689 478.444
1586 0 14.0442 3.48898 49 92.3878 422.755 476.653
1587 0 12.0021 7.08207 85 87.7529 422.635 480.353
1588 0 7.00349 3.71243 26 91.8846 423.423 480.462
1589 0 8.0011 5.24928 42 90.9286 423.548 480.833
1590 0 13.0026 2.84559 37 90.6757 424.432 483.405
1591 0 12.0162 3.24563 39 91.9487 425.051 478.744
1592 1 26.0642 5.56318 145 82.1103 424.248 484.324
1593 1 6 2 12 96.8333 424.667 468.25
1594 1 25.1427 6.80117 171 88.6082 425.099 475.836
1595 0 20.1191 3.72781 75 86.2 424.587 485.4
1596 0 12.0032 4.83205 58 87.6207 423.655 485.603
1597 0 17.0193 5.69941 97 88.7629 422.938 485.722
1598 0 19.1394 3.76188 72 90.0278 424.528 486.569
1599 0 20.0365 6.48815 130 89.4923 425.9 482.1
1600 0 22.0354 7.76025 171 85.9357 424.058 484.322
1601 0 23.0112 7.56153 174 86.1379 421.322 488.103
1602 0 22.0409 7.89443 174 86.069 421.092 487.098
1603 0 22.0435 4.80867 106 91.2547 420.566 485.783
1604 0 23.0307 5.99201 138 90.3188 422.384 482.935
1605 0 22.0231 5.358 118 90.7203 421.873 481.737
1606 1 11.0048 8.63259 95 88.1368 420.4 475.316
1607 1 22.0093 4.67983 103 88.7087 419.961 481.67
1608 0 20.0429 9.9287 199 85.2362 419.98 479.92
1609 0 19.0116 7.94254 151 86.9801 420.278 480.265
1610 0 18.0101 5.55243 100 86.51 420.34 477.74
1611 0 13.0153 4.53314 59 89.2034 421.136 476.119
1612 0 13.0055 2.30671 30 90.6667 420.667 476.533
1613 1 25.0128 5.19734 130 94.3846 419.746 471.862
1614 0 20.0246 11.0864 222 82.9189 420.275 469.036
1615 0 18.0166 2.77522 50 89.38 418.26 474.34
1616 1 0 0 0 -nan 1.67329e-255 2.71631e-312
1617 0 13.0136 6.76214 88 82.25 421.659 472.659
1618 0 332.679 21.2878 7082 101.532 419.468 300.414
1619 0 342.123 15.9913 5471 109.319 420.22 285.676
1620 0 353.034 16.2534 5738 108.495 420.851 285.928
1621 0 364.246 14.4051 5247 112.469 421.04 262.652
1622 0 366.098 9.66134 3537 117.309 421.668 297.062
1623 0 365.097 8.8223 3221 118.398 422.815 281.884
1624 0 375.483 19.5695 7348 103.685 423.567 276.243
1626 0 142.378 7.10785 1012 100.961 425.713 408.589
1627 0 150.704 13.6891 2063 93.0703 424.6 398.305
1629 0 157.943 15.4359 2438 91.9065 426.457 388.89
1630 0 162.518 9.72816 1581 99.4801 427.142 406.45
1631 0 179.945 26.5359 4775 81.3504 425.681 380.959
1632 0 176.77 23.2223 4105 84.4619 426.387 379.664
1633 0 183.063 23.7404 4346 85.0186 425.99 376.153
1634 0 185.922 24.7899 4609 83.9844 425.442 385.452
1635 0 188.901 21.1751 4000 87.6095 426.816 383.22
1636 0 198.845 28.0218 5572 82.105 425.251 394.429
1637 0 200.749 17.7286 3559 91.4616 426.227 387.085
1638 0 210.572 26.2808 5534 84.5399 426.097 382.817
1639 0 214.2 22.2082 4757 88.4705 426.089 377.35
1640 0 213.138 22.4033 4775 88.409 425.615 378.446
1641 1 39.0753 6.14199 240 88.125 427.475 477.483
1642 0 41.0267 16.0139 657 81.554 425.986 476.983
1643 0 44.3097 13.9247 617 82.6288 426.528 475.682
1644 0 44.3097 13.8119 612 107.747 426.531 475.755
1645 0 40.0131 5.69814 228 94.4079 424.982 480.991
1646 0 43.1413 14.0005 604 88.4189 423.853 484.031
1647 0 45.3191 15.8432 718 86.032 422.279 485.088
1648 0 44.2254 9.51942 421 94.7648 422.808 480.221
1649 0 43.1417 11.7056 505 88.8099 423.113 478.572
1650 0 44.1002 11.4285 504 88.3393 421.879 482.857
1651 0 41.0175 11.2147 460 90.9217 422.765 477.687
1652 0 45.421 17.635 801 82.9413 421.91 481.029
1653 0 48.0651 14.1267 679 86.1885 420.867 480.39
1654 0 47.414 8.45741 401 96.4788 417.833 477.232
1655 0 45.1016 9.29014 419 93.537 417.251 479.379
1656 0 43.2432 7.35376 318 97.9057 416.05 478.358
1657 0 42.1538 10.7701 454 95.0925 417.2 473.396
1658 0 40.1897 8.012 322 98.264 416.916 475.003
1659 0 42.1508 9.96422 420 97.1405 417.593 475.169
1660 0 43.1886 14.9808 647 91.2689 417.34 470.359
1661 0 42.233 12.0522 509 95.8507 418.395 468.297
1662 0 43.2093 11.317 489 96.0757 417.828 469.881
1663 0 44.134 12.5074 552 96.2736 419.112 465.301
1664 0 45.4947 9.75938 444 98.6261 418.34 464.203
1665 0 42.211 12.5323 529 96.1361 420.541 468.667
1666 0 42.211 12.3191 520 130.567 422.598 468.602
1667 0 44.144 13.7052 605 92.9851 421.045 470.502
1668 0 43.3172 12.3738 536 97.4683 422.235 465.952
1669 0 42.1631 12.3805 522 96.8774 421.967 466.983
1670 0 44.0285 9.60742 423 98.4326 423.487 470.922
1671 0 43.1132 11.3654 490 98.8122 423.227 468.002
1672 0 45.1098 17.1803 775 91.6955 425.077 471.07
1673 0 48.1962 15.9556 769 92.1938 424.714 467.623
1674 0 46.1582 11.5256 532 98.4004 423.855 467.874
1675 0 45.1265 12.8084 578 96.4844 424.336 471.029
1676 0 44.0543 9.96497 439 102.364 425.241 473.358
1677 0 45.2438 9.8135 444 100.991 424.354 479.264
1678 0 46.2025 11.7093 541 99.146 424.529 475.055
1679 0 44.1272 12.328 544 100.5 425.27 476.075
1680 0 45.1828 12.2834 555 100.636 424.613 474.685
1681 0 46.1568 13.3242 615 98.2244 423.553 475.325
1682 0 44.1201 13.8939 613 98.4437 423.855 478.15
1683 0 43.1805 10.8151 467 103.276 422.82 476.467
1684 0 44.3861 10.5664 469 103.714 423.407 480.569
1685 0 43.168 11.6522 503 102.326 422.853 477.268
1686 0 45.1128 12.3246 556 101.595 421.545 476.658
1687 0 47.043 11.2025 527 104.482 421.493 479.256
1688 0 45.1219 11.0368 498 104.187 419.934 477.61
1689 0 51.2711 15.8374 812 94.1281 419.19 477.076
1690 0 45.1492 10.7865 487 103.887 418.552 478.359
1691 0 45.1719 9.51919 430 105.074 418.533 478.107
1692 0 46.1627 12.6726 585 101.313 418.892 475.885
1693 0 46.2258 14.5373 672 98.6711 418.338 476.234
1694 0 46.2162 12.3117 569 101.209 417.397 476.603
1695 0 47.0795 13.7427 647 98.8454 418.36 474.345
1696 0 48.1617 14.7835 712 97.2233 417.823 475.236
1697 0 45.1466 9.61313 434 105.429 417.682 474.157
1698 0 46.2057 12.8339 593 101.293 417.03 471.258
1699 0 46.1496 12.4161 573 102.241 417.019 473.028
1700 0 47.2308 11.0945 524 103.519 417.87 470.052
1701 0 47.2645 14.7891 699 99.9514 418.197 470.991
1702 0 48.1108 12.5751 605 102.593 417.736 469.064
1703 0 48.0744 12.1894 586 102.352 418.193 469.778
1704 0 46.0616 14.1115 650 100.806 417.428 468.169
1705 0 51.3131 17.4809 897 95.3389 418.987 464.085
1706 0 50.0784 12.5403 628 102.761 419.158 463.567
1707 0 50.374 12.6057 635 101.076 419.668 466.654
1708 0 47.3035 13.889 657 101.446 420.463 464.138
1709 0 49.231 16.5343 814 97.0983 421.534 465.609
1710 0 47.0799 11.6185 547 107.327 421.159 464.466
1711 0 45.1719 10.6039 479 107.566 422.706 468.541
1712 0 47.1797 15.6847 740 100.058 423.254 463.388
1713 0 47.0973 12.1451 572 104.967 422.726 468.481
1714 0 47.1969 13.0729 617 105.499 424.352 467.339
1715 0 44.1744 11.0471 488 109.143 424.025 469.994
1716 0 44.1599 10.5752 467 111.233 424.585 468.418
1717 0 45.0371 10.5469 475 110.006 424.832 472.164
1718 0 43.1191 10.2275 441 112.283 424.449 468.413
1719 0 45.0877 13.4405 606 105.632 424.927 471.229
1720 0 47.3317 14.578 690 102.81 424.462 472.007
1721 0 46.1218 10.8842 502 107.566 424.669 475.289
1722 0 46.2054 12.3146 569 106.889 424.884 474.647
1723 0 43.0493 10.639 458 113.773 424.902 471.845
1724 0 45.0885 11.2002 505 109.762 423.127 477.661
1725 0 43.0455 10.4076 448 114.056 423.132 476.366
1726 0 45.0932 14.1928 640 106.581 424.156 476.355
1727 0 45.1008 11.4632 517 110.594 422.273 476.553
1728 0 45.1546 10.298 465 112.142 421.815 476.548
1729 0 47.4635 10.1762 483 111.035 422.058 481.491
1730 0 48.111 14.4458 695 103.394 419.963 480.111
1731 0 45.0757 10.2494 462 111.102 419.881 479.55
1732 0 45.1112 10.9064 492 110.994 418.756 475.915
1733 0 44.0447 10.5121 463 112.257 418.518 477.868
1734 0 43.1218 9.55433 412 112.903 418.182 478.051
1735 0 47.1793 11.5517 545 109.268 418.927 477.055
1736 0 45.0662 11.8714 535 109.875 418.366 473.133
1737 0 45.1484 11.8498 535 109.6 418.428 475.417
1738 0 45.0493 13.1634 593 108.089 418.212 474.379
1739 0 45.1283 12.4091 560 108.455 417.827 475.052
1740 0 45.1591 10.3855 469 109.883 417.446 476.934
1741 0 46.1523 12.5237 578 107.019 416.599 473.813
1742 0 46.0747 11.9588 551 106.828 416.307 474.151
1743 0 45.1517 10.4315 471 109.879 416.611 473.42
1744 0 47.2159 11.9028 562 107.685 417.934 470.56
1745 0 45.0766 16.0172 722 101.878 417.891 468.688
1746 0 42.2295 12.8346 542 104.666 417.723 472.376
1747 0 46.1669 13.148 607 103.43 417.867 469.618
1748 0 47.1127 11.377 536 105.875 418.938 468.834
1749 0 44.0599 12.188 537 106.11 419.724 468.86
1750 0 43.0192 9.87931 425 109.174 420.132 469.296
1751 0 43.061 11.2399 484 108.143 421.027 464.95
1752 0 46.0985 11.931 550 106.002 421.849 467.173
1753 0 42.0562 10.7237 451 108.073 421.916 467.412
1754 0 45.1119 8.82251 398 112.168 422.759 466.183
1755 0 47.2119 11.8826 561 107.182 423.504 462.998
1756 0 46.0344 10.6659 491 109.76 423.491 463.415
1757 0 44.0564 10.1007 445 109.121 425.193 465.452
1758 0 47.1132 11.3344 534 107.596 426.989 465.97
1759 0 46.1085 13.4682 621 100.205 428.871 462.08
1760 0 46.1419 7.60696 351 110.803 429.325 466.023
1761 0 46.2347 12.9124 597 97.938 429.26 470.095
1762 0 45.2444 9.06189 410 105.361 428.829 464.185
1763 0 43.1204 9.04444 390 105.213 429.441 468.118
1764 0 48.192 12.9275 623 102.848 430.061 469.66
1765 0 46.122 11.4262 527 105.579 429.562 471.702
1766 0 48.0576 12.3393 593 104.096 429.445 473.273
1767 0 46.1064 11.3433 523 105.811 428.203 475.01
1768 0 45.2193 12.8043 579 104.047 424.366 478.37
1769 0 46.1108 10.5398 486 105.171 424.352 481.899
1770 0 41.0613 8.06112 331 112.033 423.471 481.296
1771 0 45.0767 12.7117 573 105.038 423.143 479.986
1772 0 45.1233 11.7013 528 106.667 422.125 477.807
1773 0 47.0826 9.87627 465 107.596 422.183 480.959
1774 0 41.0706 7.93756 326 111.454 421.543 482.104
1775 0 46.0353 11.9256 549 104.916 420.408 482.1
1776 0 47.1496 11.1772 527 105.046 419.712 481.583
1777 0 45.0947 9.18069 414 111.621 419.638 479.338
1778 0 47.1491 11.7712 555 106.614 418.978 477.166
1779 0 47.0758 9.92018 467 108.662 418.071 476.792
1780 0 48.107 15.0914 726 101.905 419.072 476.913
1781 0 45.0606 10.0753 454 106.615 418.7 479.78
1782 0 45.0652 12.2711 553 103.731 418.848 477.376
1783 0 48.2219 10.659 514 104.313 418.158 476.924
1784 0 46.2936 11.9887 555 104.78 417.241 473.342
1785 0 47.0977 14.3956 678 101.795 418.283 472.193
1786 0 46.285 13.0928 606 102.01 418.185 473.045
1787 0 46.2561 12.3227 570 104.954 418.381 468.625
1788 0 49.2336 12.6539 623 103.459 418.883 469.414
1789 0 47.115 9.74212 459 108.479 419.216 469.627
1790 0 50.2499 10.408 523 106.149 418.327 468.593
1791 0 49.2354 12.1661 599 105.008 420.396 467.362
1792 0 46.0848 10.5675 487 107.224 420.793 468.678
1793 0 47.3002 13.298 629 102.704 421.169 468.307
1794 0 47.1381 12.0073 566 105.143 421.76 465.811
1795 0 48.0542 14.5461 699 101.604 421.954 469.04
1796 0 48.027 16.803 807 99.1475 422.379 467.366
1797 0 45.1764 9.71747 439 110.688 422.387 468.278
1798 0 49.2529 12.5069 616 104.875 423.117 469.208
1799 0 45.1222 10.3054 465 109.482 423.222 468.437
1800 0 47.1827 11.127 525 106.034 423.242 469.377
1801 0 46.2132 10.7761 498 109.522 423.289 467.287
1802 0 47.279 13.6213 644 103.879 424.997 467.944
1803 0 46.1586 9.55402 441 111.188 424.755 468.429
1804 0 47.1556 10.1155 477 108.669 425.239 471.151
1805 0 49.1432 13.7354 675 103.363 425.287 469.538
1806 0 47.0947 11.6574 549 105.262 425.466 475.599
1807 0 46.1008 13.8392 638 103.241 425.508 473.802
1808 0 49.0333 12.1754 597 104.71 425.9 474.801
1809 0 48.1215 13.1542 633 103.098 424.592 473.641
1810 0 50.1702 14.1917 712 101.99 424.879 477.015
1811 0 47.0565 11.1568 525 108.189 424.272 476.808
1812 0 47.0971 8.21707 387 111.674 424.904 481.568
1813 0 50.1594 13.8159 693 102.001 423.986 479.322
1814 0 49.0712 15.1005 741 100.966 423.39 480.316
1815 0 50.1413 12.2853 616 103.899 423.205 481.2
1816 0 49.1613 14.7677 726 101.216 423.539 480.245
1817 0 49.0412 13.8251 678 102.021 423.85 480.226
1818 0 47.0292 9.80242 461 108.755 423.796 477.033
1819 0 46.0342 10.0143 461 108.505 423.197 480.247
1820 0 47.1068 11.5907 546 105.639 423.222 477.907
1821 0 49.1149 13.4175 659 103.615 422.252 476.009
1822 0 48.0567 11.4448 550 105.747 422.558 476.935
1823 0 47.0436 9.6081 452 108.752 422.243 470.697
1824 0 48.1027 12.1199 583 103.976 422.038 476.794
1825 0 46.0832 10.698 493 108.097 421.414 472.467
1826 0 49.1442 11.6189 571 102.687 421.077 476.065
1827 0 43.0866 9.58535 413 103.165 421.317 466.83
1828 0 42.078 8.98331 378 99.3651 422.638 465.569
1829 0 43.048 8.98997 387 110.328 423.01 465.364
1830 0 42.074 10.9806 462 111.5 422.299 462.792
1831 0 45.0406 11.3897 513 107.649 422.409 465.48
1832 0 43.1591 10.0095 432 111.991 422.975 463.317
1833 0 43.1024 10.1387 437 112.366 422.725 461.387
1834 0 43.0533 11.2419 484 114.264 422.591 464.5
1835 0 45.1406 9.01626 407 115.661 423.039 472.432
1836 0 43.0702 11.1446 480 113.694 423.142 467.798
1837 0 48.1387 12.7133 612 107.065 424.737 471.154
1838 0 45.2115 10.5725 478 113.391 425.213 470.749
