time division length width area intensity CMx CMy
0 0 58.0758 17.0467 990 119.816 131.214 473.663
1 0 58.0882 22.0182 1279 110.381 129.364 472.419
2 0 60.3626 20.3437 1228 114.257 129.158 473.407
3 0 59.1522 14.0654 832 129.167 128.507 470.904
4 0 62.1127 19.6739 1222 117.476 127.381 466.875
5 0 65.1395 15.7047 1023 119.96 126.699 469.354
6 0 66.134 15.1511 1002 125.908 124.602 466.619
7 0 68.2081 13.928 950 128.977 125.321 465.822
8 0 72.1006 17.1011 1233 119.634 124.036 467.266
9 0 74.2722 17.6917 1314 122.243 122.621 465.871
10 0 75.4647 16.8026 1268 122.145 122.402 462.015
11 0 80.2944 15.9787 1283 124.624 121.321 460.408
12 1 42.0981 13.6111 573 120.269 120.136 477.337
13 0 42.1294 13.0313 549 121.211 121.503 479.51
14 0 44.1522 15.4013 680 114.928 119.866 476.004
15 0 42.0813 14.068 592 122.552 120.497 473.78
16 0 45.036 16.7866 756 115.331 121.507 472.91
17 0 49.0617 18.9965 932 113.334 120.377 470.777
18 0 49.0325 15.6631 768 116.548 120.997 469.658
19 0 50.1309 14.9608 750 114.317 121.007 469.025
20 0 50.097 13.394 671 119.961 120.915 466.404
21 0 51.1999 18.2227 933 112.961 121.078 466.025
22 0 55.5431 17.4819 971 107.235 121.043 466.116
23 0 55.1802 17.5969 971 109.908 124.748 460.154
24 0 56.1529 16.4373 923 117.865 124.268 458.393
25 0 59.1112 19.4041 1147 113.193 124.694 459.103
26 0 60.1536 18.5359 1115 114.3 124.585 456.35
27 0 62.1639 16.5852 1031 117.934 125.607 455.078
28 0 65.1083 18.523 1206 113.425 125.907 455.424
29 0 67.281 18.5937 1251 112.401 126.482 456.249
30 0 70.2267 16.9736 1192 115.658 128.017 453.344
31 0 70.5922 17.9765 1269 114.881 127.123 455.898
32 0 72.066 16.4155 1183 117.05 128.719 454.91
33 0 76.1016 16.2152 1234 115.66 130.194 453.758
34 0 78.2556 16.8422 1318 117.952 130.634 447.646
35 0 83.5842 19.4534 1626 115.312 131.637 451.175
36 0 83.2306 18.0342 1501 116.272 132.075 446.642
37 0 90.2527 19.6559 1774 112.006 133.392 444.994
38 0 92.1417 16.5398 1524 116.284 131.961 447.321
39 0 92.2788 15.3231 1414 119.615 133.553 446.744
40 0 98.4417 16.7206 1646 111.439 133.083 448.705
41 0 96.3148 14.3592 1383 116.039 132.87 447.465
42 1 53.1195 17.037 905 107.417 132.46 468.423
43 0 55.0649 14.9278 822 105.856 132.417 472.669
44 0 57.0774 19.1845 1095 103.957 131.564 470.382
45 0 57.1221 14.3727 821 108.2 131.52 468.856
46 0 59.141 16.1986 958 118.471 131.361 472.867
47 0 60.1649 15.6902 944 119.792 130.567 472.567
48 0 65.1683 15.1454 987 120.212 128.958 471.382
49 0 66.2211 14.5271 962 120.813 128.248 470.072
50 0 68.0513 16.5463 1126 118.96 128.538 468.984
51 0 69.167 14.906 1031 125.54 126.508 464.57
52 0 71.1518 15.0804 1073 123.594 125.801 467.294
53 0 72.1803 17.2485 1245 120.52 125.778 466.935
54 0 77.4117 16.8708 1306 121.462 125.093 460.561
55 0 79.2011 14.3685 1138 124.727 125.149 461.102
56 0 82.2194 13.987 1150 125.872 124.666 458.507
57 0 87.3785 11.6276 1016 127.985 123.379 458.22
58 0 88.3395 14.7046 1299 124.147 123.949 453.089
59 0 87.288 12.602 1100 125.815 121.974 455.888
60 0 98.4154 16.2475 1599 121.166 123.084 447.742
61 0 100.272 15.1388 1518 122.101 122.407 446.049
62 1 54.1002 10.9981 595 124.684 122.066 468.718
63 0 58.1447 13.3804 778 121.808 121.482 464.519
64 0 59.1275 15.8133 935 119.088 122.827 460.781
65 0 61.0589 13.8718 847 120.678 123.433 459.169
66 0 66.1183 16.6066 1098 116.884 123.688 461.193
67 0 65.2107 13.2954 867 124.435 124.223 459.418
68 0 68.307 14.8301 1013 122.493 125.361 455.068
69 0 71.2495 15.3264 1092 119.228 126.068 457.535
70 0 73.198 13.8938 1017 123.684 127.018 452.799
71 0 77.2261 14.4899 1119 122.401 126.423 448.905
72 0 80.1512 15.7328 1261 119.86 128.163 452.488
73 0 80.3712 10.9368 879 126.323 127.909 451.835
74 0 83.2143 14.9734 1246 119.839 129.864 450.128
75 0 85.2015 13.3448 1137 123.483 130.871 446.953
76 0 88.1734 11.5681 1020 126.773 130.899 448.24
77 0 92.2473 14.808 1366 121.437 130.209 447.388
78 0 95.3629 15.4567 1474 121.988 131.668 444.415
79 0 97.3958 15.4729 1507 122.295 131.254 440.664
80 0 103.231 15.3733 1587 119.328 132.156 443.456
81 0 105.287 14.9117 1570 117.446 130.415 441.091
82 1 54.2244 12.9278 701 115.088 129.468 466.111
83 0 56.2083 14.9266 839 112.322 129.605 466.547
84 0 58.3268 15.0531 878 112.997 129.441 464.427
85 0 60.1831 14.107 849 113.148 129.68 467.666
86 0 63.1458 15.9631 1008 110.419 129.469 469.022
87 0 66.088 14.8741 983 112.54 128.763 467.693
88 0 68.0881 13.9378 949 112.987 128.262 471.051
89 0 68.1551 13.0731 891 115.817 128.678 469.877
90 0 71.0508 14.173 1007 114.313 127.835 468.711
91 0 73.1717 14.3498 1050 114.902 127.064 465.51
92 0 76.2173 13.9994 1067 114.709 128.414 466.557
93 0 78.157 12.6412 988 116.408 128.323 465.502
94 0 82.1034 12.7766 1049 118.608 125.555 463.7
95 0 86.2611 12.9375 1116 117.495 125.672 459.644
96 1 44.0354 6.85812 302 120.735 124.477 484.49
97 0 44.0654 8.73701 385 119.888 126.397 483.314
98 0 47.0427 10.331 486 119.842 124.395 478.082
99 0 51.0718 14.5677 744 111.039 124.372 475.337
100 0 50.1105 13.1709 660 119.089 124.609 473.188
101 0 54.1749 17.5542 951 110.117 123.483 474.883
102 0 59.2206 15.5858 923 112.372 123.189 470.667
103 0 57.1939 12.8685 736 118.678 122.444 468.152
104 0 58.2492 12.6697 738 117.556 122.375 467.007
105 0 61.0801 17.0268 1040 111.133 122.108 466.134
106 0 64.2018 15.28 981 113.307 123.543 465.49
107 0 67.201 15.6248 1050 113.527 122.117 459.163
108 0 67.0901 14.488 972 116.637 121.662 459.565
109 0 71.0756 13.957 992 116.157 122.615 460.425
110 0 73.2503 13.8156 1012 118.477 123.051 455.358
111 0 75.3025 13.1603 991 119.622 123.786 455.241
112 0 79.1625 13.8197 1094 118.281 124.106 451.625
113 0 82.1311 13.8802 1140 118.299 124.795 450.004
114 0 84.2728 15.4024 1298 116.783 126.322 447.75
115 1 42.1205 12.6067 531 114.083 125.514 470.983
116 0 44.2114 10.6081 469 117.514 125.625 471.663
117 0 44.0797 12.3413 544 112.767 125.132 467.62
118 0 50.1943 18.1296 910 102.73 127.222 467.956
119 0 46.0761 15.8 728 110.018 126.238 469.6
120 0 49.1593 14.6056 718 111.643 126.751 467.54
121 0 49.0318 11.6455 571 118.27 126.97 468.033
122 0 52.0975 13.9738 728 112.668 128.445 471.984
123 0 52.1999 10.3065 538 118.255 128.208 470.896
124 0 53.0531 13.4017 711 116.557 128.111 466.911
125 0 53.2931 12.2718 654 119.096 128.836 466.477
126 0 57.0826 14.4703 826 113.808 128.99 468.376
127 0 59.1615 17.0888 1011 109.372 128.747 469.186
128 0 62.0882 13.046 810 114.94 127.716 469.93
129 0 64.0863 15.2295 976 113.207 128.97 468.036
130 0 64.2298 12.611 810 116.094 126.911 470.164
131 0 66.0727 15.2105 1005 110.863 127.256 472.62
132 0 68.1415 13.9563 951 113.707 125.932 466.836
133 0 69.2282 13.2749 919 115.304 125.802 462.687
134 0 76.1981 13.3205 1015 113.865 126.421 466.819
135 0 78.1761 13.4312 1050 113.716 125.68 464.691
136 0 79.3197 15.0656 1195 111.433 125.979 463.278
137 0 80.2373 9.34728 750 117.596 123.599 466.175
138 1 44.2835 15.6266 692 107.89 125.701 482.238
139 0 45.5366 12.8907 587 112.79 123.441 479.305
140 0 46.1434 13.0896 604 111.661 123.379 481.298
141 0 49.0943 12.038 591 115.413 120.367 478.404
142 0 50.3163 13.2959 669 113.507 120.673 477.634
143 0 52.0666 13.2907 692 114.303 120.224 472.254
144 0 54.1434 18.0632 978 106.173 121.04 475.748
145 0 52.0518 13.256 690 114.13 119.743 474.097
146 0 57.156 12.8945 737 115.114 119.267 471.151
147 0 59.0836 12.6769 749 114.732 117.977 470.31
148 0 60.1576 12.567 756 115.894 118.382 466.766
149 0 61.2642 14.9027 913 112.904 118.645 465.805
150 0 63.1091 11.694 738 117.935 117.81 463.688
151 0 66.1136 13.2197 874 115.475 118.49 458.978
152 0 71.0764 13.5488 963 113.736 118.732 460.666
153 0 73.1629 13.8595 1014 113.575 118.778 459.172
154 0 76.4413 15.4367 1180 108.836 120.141 459.611
155 0 75.1221 12.4331 934 115.181 119.221 450.544
156 0 82.2887 13.9387 1147 109.667 120.602 454.027
157 0 85.2027 16.5253 1408 105.967 120.572 452.528
158 0 85.1291 13.039 1110 111.187 121.764 451.011
159 0 89.1789 14.2523 1271 110.544 121.705 446.4
160 0 92.1605 13.1401 1211 113.097 123.278 440.645
161 0 94.2027 14.6917 1384 109.866 123.632 446.575
162 0 101.352 14.3066 1450 109.738 127.807 446.586
163 1 54.2719 14.2431 773 104.516 127.748 470.313
164 0 52.0891 16.8173 876 103.422 127.809 469.771
165 0 52.1393 16.034 836 105.676 128.748 467.366
166 0 53.2543 8.88191 473 112.406 130.006 473.283
167 0 55.4091 15.6292 866 104.704 129.796 472.185
168 0 56.1111 14.8277 832 107.575 129.907 468.887
169 0 59.124 8.86272 524 114.714 130.691 472.864
170 0 60.2446 17.1966 1036 105.012 130.389 469.121
171 0 60.2411 12.2342 737 111.294 130.225 468.984
172 0 64.1914 12.712 816 109.816 131.047 472.891
173 0 65.1959 12.8229 836 111.736 130.257 469.209
174 0 69.1253 13.801 954 110.655 130.225 468.865
175 0 70.3142 14.5348 1022 110.049 129.568 468.887
176 0 69.1192 12.8908 891 111.726 128.771 473.318
177 0 76.3768 15.0962 1153 110.099 129.351 466.274
178 0 77.5205 12.2677 951 114.226 129.593 469.722
179 0 78.2698 12.1758 953 113.896 127.79 471.876
180 0 84.5104 19.2639 1628 104.641 125.921 466.938
181 0 85.2267 14.5494 1240 110.146 125.673 470.147
182 0 88.3616 18.1074 1600 107.776 124.662 465.259
183 0 90.4439 13.489 1220 115.578 124.552 458.012
184 0 94.411 13.8649 1309 113.327 123.974 459.906
185 0 98.3134 15.176 1492 112.82 122.288 458.761
186 0 102.585 17.4002 1785 109.844 120.761 456.942
187 0 102.535 15.0485 1543 114.356 121.204 456.034
188 0 108.391 15.1396 1641 113.291 119.586 454.548
189 0 110.52 14.9385 1651 114.472 120.141 451.32
190 0 114.208 15.6995 1793 116.228 119.024 437.84
191 1 60.7692 16.3899 996 110.66 117.864 467.071
192 0 61.1368 13.8705 848 111.379 117.251 470.211
193 0 60.2442 11.2874 680 116.491 117.322 467.499
194 0 64.1618 15.8194 1015 110.187 118.04 461.316
195 0 69.1049 17.582 1215 106.566 117.553 461.344
196 0 67.1709 14.3812 966 112.136 117.769 459.983
197 0 70.1431 15.9531 1119 110.273 118.651 456.782
198 0 73.2664 15.1911 1113 111.031 119.596 456.841
199 0 77.1507 23.992 1851 100.189 119.618 453.803
200 0 78.5031 13.5918 1067 111.229 120.394 453.747
201 0 81.2724 13.0056 1057 113.582 120.221 454.013
202 0 83.2266 17.7107 1474 109.3 121.974 449.362
203 0 85.319 14.3227 1222 114.917 124.191 446.953
204 0 87.3271 14.5201 1268 114.415 126.35 447.177
205 0 90.2908 14.3315 1294 112.438 125.938 448.77
206 0 94.4184 16.7658 1583 110.147 126.311 441
207 0 96.2967 12.5861 1212 115.449 127.476 440.948
208 0 99.4483 16.3603 1627 109.399 128.039 440.647
209 0 99.4526 14.5195 1444 113.499 128.196 439.172
210 0 107.66 17.1652 1848 108.021 128.529 445.411
211 0 112.979 15.6843 1772 110.935 127.634 440.163
212 0 113.923 17.424 1985 110.691 127.693 438.675
213 1 63.5441 9.86717 627 107.469 126.608 465.895
214 0 62.4549 9.36675 585 109.272 126.603 466.568
215 0 67.3892 16.976 1144 101.705 128.267 463.411
216 0 69.5483 14.968 1041 106.819 127.853 464.043
217 0 70.5925 10.3977 734 108.537 126.527 468.849
218 0 72.5086 9.98502 724 108.74 125.609 470.34
219 0 76.3826 10.8271 827 108.378 125.884 465.285
220 0 80.6504 15.2386 1229 104 126.059 458.821
221 0 81.2864 9.65721 785 111.526 124.406 460.684
222 0 85.5174 10.6762 913 111.678 124.466 460.223
223 0 86.3744 11.8554 1024 110.272 123.899 458.451
224 0 90.2705 12.0637 1089 109.396 123.476 458.286
225 0 93.3333 14.5929 1362 106.62 122.449 456.649
226 0 98.6796 16.3762 1616 103.952 121.2 456.744
227 0 103.392 13.2022 1365 108.234 121.36 450.753
228 0 104.601 12.9157 1351 108.675 119.699 446.29
229 1 210.416 12.1473 2556 115.812 118.856 394.013
230 0 218.967 14.5958 3196 112.108 119.018 390.623
231 1 171.419 11.7548 2015 113.296 119.78 413.376
232 1 123.175 9.66917 1191 113.451 118.683 431.622
233 0 126.156 13.0553 1647 109.917 118.885 432.269
234 0 133.989 13.4564 1803 108.743 118.534 432.175
235 1 69.2259 15.7167 1088 101.812 119.239 460.827
236 0 69.2534 10.5988 734 109.586 118.866 460.124
237 0 75.3484 15.3288 1155 103.341 118.268 457.063
238 0 76.477 14.1481 1082 105.138 118.135 454.044
239 0 78.3425 13.058 1023 107.413 119.373 452.616
240 0 81.3157 15.2615 1241 104.815 117.788 451.266
241 0 81.4582 12.3008 1002 109.127 119.814 450.353
242 0 85.5275 14.089 1205 105.045 120.58 453.867
243 0 90.1952 18.4378 1663 100.7 119.753 452.52
244 0 91.8392 18.3908 1689 102.066 120.361 446.803
245 0 96.551 19.8548 1917 99.0574 119.367 448.298
246 0 101.748 15.4009 1567 105.493 122.198 447.854
247 0 109.555 12.4321 1362 105.613 121.152 443.046
248 0 107.657 11.8618 1277 108.283 120.682 434.283
249 0 109.878 12.1316 1333 107.144 122.197 437.892
250 0 109.775 10.9588 1203 112.777 121.341 436.103
251 0 110.734 11.5141 1275 113.048 122.972 437.406
252 0 116.758 12.5987 1471 111.171 122.913 437.378
253 0 122.99 17.1559 2110 106.184 124.532 431.893
254 0 120.96 10.3423 1251 115.293 124.608 436.442
255 1 72.1575 12.6113 910 108.332 123.115 461.608
256 0 74.1529 12.0292 892 110.469 124.237 460.524
257 0 78.1087 10.5238 822 109.617 124.571 462.724
258 0 79.2796 10.0152 794 110.001 125.3 461.52
259 0 84.3121 16.2729 1372 103.633 124.695 459.773
260 0 86.1683 13.021 1122 109.91 124.04 457.811
261 0 89.1027 15.6 1390 107.534 124.547 453.12
262 0 92.1608 12.8254 1182 110.706 123.173 457.195
263 0 91.2458 10.795 985 113.442 124.178 457.592
264 1 50.1091 11.1756 560 103.404 122.904 480.395
265 0 51.1792 15.3187 784 96.9107 123.619 478.319
266 0 48.0257 12.056 579 102.76 121.537 481.451
267 0 49.0963 9.49154 466 105.79 121.65 478.798
268 0 50.0493 8.49163 425 106.901 120.158 479.16
269 0 52.1986 8.92745 466 105.049 120.961 483.504
270 0 56.1451 16.8848 948 97.4916 119.805 474.924
271 0 57.2048 12.2542 701 102.412 118.859 477.185
272 0 59.2284 14.0642 833 100 119.179 472.995
273 0 59.0449 13.5321 799 101.055 119.287 473.562
274 0 61.205 12.646 774 101.824 118.27 470.947
275 0 62.149 13.3228 828 102.086 118.081 468.907
276 0 66.1169 16.7884 1110 97.8973 116.78 468.926
277 0 66.1564 13.9518 923 99.2644 118.052 469.276
278 0 69.3868 16.0549 1114 98.982 116.558 462.21
279 0 70.1566 14.8953 1045 100.224 117.3 463.556
280 0 72.2382 9.66248 698 106.523 119.387 459.653
281 0 76.2806 14.132 1078 100.89 118.855 457.539
282 0 77.1763 14.9787 1156 99.635 119.952 456.951
283 0 83.382 15.7348 1312 98.8438 120.295 455.154
284 0 82.2619 15.4628 1272 101.115 120.406 450.041
285 0 88.6819 15.6176 1385 100.923 120.349 447.87
286 0 90.3474 15.6396 1413 100.943 120.496 449.576
287 1 46.0594 15.1326 697 102.799 122.314 463.443
288 0 47.1619 15.4362 728 99.3049 120.581 464.427
289 0 50.1488 11.3662 570 106.895 124.314 463.191
290 0 52.3352 13.2225 692 104.158 124.517 464.702
291 0 52.0913 11.6334 606 105.312 125.068 462.259
292 0 56.1774 17.2667 970 98.3402 126.474 460.866
293 0 56.0946 14.012 786 103.841 127.578 459.51
294 0 54.2857 8.91579 484 110.572 128.777 462.161
295 0 56.0758 11.9481 670 106.422 129.07 461.7
296 0 61.0691 12.9362 790 104.522 130.159 461.844
297 0 58.1282 11.7671 684 105.776 130.863 461.393
298 0 65.0387 16.79 1092 99.9277 129.669 458.158
299 0 68.109 14.9319 1017 101.533 131.612 460.094
300 0 70.2372 14.9494 1050 102.589 130.749 457.991
301 0 72.259 16.6761 1205 101.138 130.692 456.773
302 0 76.1561 17.0965 1302 99.8502 130.8 462.015
303 0 79.1816 19.0069 1505 98.5382 130.463 456.585
304 0 79.2187 14.3022 1133 104.549 130.661 457.481
305 0 83.4515 14.835 1238 103.562 130.49 457.263
306 0 83.2205 9.64906 803 110.08 131.031 458.11
307 0 84.289 11.0335 930 109.696 129.759 455.399
308 0 92.1236 14.4805 1334 104.872 128.365 453.713
309 0 96.5225 16.5972 1602 99.495 127.346 462.043
310 0 96.5225 16.7526 1617 125.43 126.369 462.048
311 1 50.101 11.4568 574 104.618 126.765 479.869
312 0 52.2314 12.9615 677 101.572 126.548 472.821
313 0 53.0968 15.4812 822 101.367 124.628 473.926
314 0 55.1006 15.7893 870 101.201 125.462 474.483
315 0 55.0968 13.2131 728 100.277 123.942 474.47
316 0 58.248 15.6572 912 97.8322 123.127 475.33
317 0 58.1473 15.22 885 99.3955 123.339 473.089
318 0 59.175 17.2201 1019 97.0088 121.19 469.707
319 0 59.1105 11.1148 657 100.83 122.312 474.72
320 0 65.0999 17.7266 1154 96.6932 120.898 467.377
321 0 66.1444 13.3949 886 100.695 121.398 468.613
322 0 72.2067 23.1281 1670 92.1114 120.452 457.611
323 0 68.2064 12.6528 863 103.034 121.06 462.643
324 0 73.5251 14.0768 1035 99.5961 121.141 460.883
325 0 76.3905 15.6695 1197 99.1788 120.433 457.999
326 0 76.2582 13.9788 1066 102.275 121.811 450.247
327 0 79.2802 14.6695 1163 101.048 121.999 455.521
328 0 85.2332 15.7568 1343 99.5733 119.745 454.471
329 0 84.3038 14.2105 1198 103.433 120.404 445.792
330 0 87.462 17.7448 1552 100.994 120.997 450.283
331 0 90.3982 14.4693 1308 103.715 121.238 450.354
332 0 90.3061 16.4551 1486 100.914 121.742 451.74
333 0 90.284 13.8341 1249 107.985 123.918 448.265
334 0 89.2639 10.9675 979 109.273 123.521 453.497
335 1 58.1318 14.9316 868 106.872 123.196 458.826
336 0 56.169 13.7086 770 110.184 124.174 459.768
337 0 59.0899 12.8279 758 112.273 124.197 456.988
338 0 63.1092 14.6254 923 109.61 124.978 456.779
339 0 64.0519 16.4242 1052 105.619 126.036 459.803
340 0 66.0576 16.0466 1060 108.482 126.561 457.208
341 0 67.0843 16.8594 1131 106.534 128.017 459.35
342 0 69.1147 11.9222 824 115.82 126.354 454.135
343 0 73.0942 13.5715 992 111.995 126.78 454.831
344 0 78.0589 16.3851 1279 107.446 128.446 453.145
345 0 79.1732 17.4428 1381 106.374 127.927 455.845
346 0 79.2319 16.3066 1292 108.908 127.958 454.825
347 0 85.1833 19.64 1673 101.796 129.044 460.028
348 0 86.1871 16.2205 1398 106.767 128.793 457.275
349 1 43.0531 9.68571 417 110.578 127.403 478.163
350 0 48.0583 15.1067 726 100.16 126.941 478.631
351 0 48.0672 10.943 526 108.53 126.515 477.101
352 0 45.1062 15.8736 716 101.676 128.183 475.406
353 0 49.0408 13.4174 658 103.044 126.04 474.672
354 0 51.1399 14.6657 750 100.012 124.876 474.723
355 0 51.3193 9.17783 471 106.329 123.713 473.537
356 0 51.1841 13.9301 713 102.154 123.53 473.181
357 0 56.1194 17.4628 980 97.0337 123.906 472.507
358 0 55.1789 13.574 749 101.928 124.051 473.055
359 0 60.1154 20.627 1240 93.8936 122.574 470.594
360 0 59.2085 14.7952 876 100.75 122.249 471.193
361 0 61.127 13.3493 816 102.868 122.904 464.963
362 0 62.358 16.293 1016 99.1299 121.573 462.623
363 0 67.2298 17.879 1202 97.0058 122.365 459.156
364 0 68.1986 21.0708 1437 95.0758 120.669 462.913
365 0 70.1437 13.729 963 103.638 120.483 459.327
366 0 72.1648 15.2983 1104 103.008 120.302 454.183
367 0 75.1432 11.9771 900 109.29 120.527 451.882
368 0 75.0842 11.9066 894 109.786 120.733 453.406
369 0 80.1618 10.5661 847 110.609 119.911 453.567
370 0 82.21 12.1883 1002 109.382 119.22 450.142
371 0 88.1702 13.2131 1165 108.831 120.573 446.59
372 0 89.1837 12.1995 1088 111.508 120.795 441.696
373 0 91.2808 12.1165 1106 110.741 121.134 443.735
374 0 98.2162 16.9728 1667 104.894 122.085 439.537
375 0 98.4549 11.6094 1143 109.786 122.377 440.383
376 1 51.0776 13.6655 698 103.367 122.904 459.834
377 0 53.0462 15.5713 826 101.561 123.047 461.206
378 0 55.3208 10.0685 557 109.144 125.445 458.33
379 0 58.1665 12.1548 707 106.397 125.632 457.676
380 0 59.1518 11.9185 705 105.804 126.013 460.668
381 0 60.2009 13.1393 791 106.255 126.431 453.714
382 0 62.1782 17.1282 1065 99.7587 127.849 458.748
383 0 65.1924 20.846 1359 96.4643 128.84 454.428
384 0 66.2266 13.6199 902 106.122 128.516 454.119
385 0 68.3104 14.683 1003 103.293 128.311 459.906
386 0 70.1138 14.1342 991 105.956 129.285 457.371
387 0 74.0755 19.9661 1479 97.6004 129.328 461.367
388 0 72.2062 12.0627 871 110.029 129.735 452.471
389 0 77.1255 18.3208 1413 101.161 129.013 459.38
390 0 78.1855 13.5959 1063 108.716 128.005 459.574
391 0 82.3101 14.1416 1164 108.501 128.896 456.442
392 0 84.3194 15.1448 1277 108.186 127.869 457.484
393 1 48.3584 11.4975 556 109.112 128.023 476.799
394 0 48.135 9.3487 450 114.402 126.271 472.302
395 0 49.0562 11.8843 583 110.726 125.283 473.456
396 0 52.1319 16.0362 836 103.77 125.852 476.004
397 0 55.0509 15.0225 827 102.55 125.053 477.83
398 0 57.1386 12.0059 686 108.287 125.071 474.185
399 0 59.0938 14.1808 838 104.914 124.158 473.869
400 0 56.1942 13.311 748 109.837 123.445 472.481
401 0 59.1039 11.8266 699 111.609 123.401 471.734
402 0 58.0431 11.5259 669 113.667 121.955 470.003
403 0 63.0962 12.2353 772 112.374 122.293 467.369
404 0 64.1862 11.4511 735 113.576 120.565 466.614
405 0 63.1557 10.8937 688 115.526 120.875 465.15
406 0 67.146 10.991 738 114.335 120.416 466.095
407 0 71.0743 11.6076 825 114.305 120.622 460.858
408 0 73.0793 12.8764 941 110.711 120.282 463.429
409 0 78.1047 14.8263 1158 108.655 118.616 453.592
410 1 42.064 10.9119 459 110.499 119.571 468.974
411 0 43.0642 10.9604 472 108.807 119.225 473.881
412 0 44.133 13.8445 611 100.563 120.717 474.108
413 0 42.121 16.6663 702 98.3504 123.57 476.462
414 0 42.1437 9.68117 408 111.853 124.235 470.73
415 0 46.1598 12.7384 588 107.315 123.493 466.359
416 0 46.0566 13.2663 611 108.741 123.19 468.458
417 0 46.0268 12.1016 557 111.131 124.485 464.84
418 0 49.2562 12.3639 609 109.422 125.076 466.368
419 0 50.1078 12.1338 608 110.219 127.061 465.89
420 0 53.1757 11.0013 585 110.244 126.487 467.303
421 0 55.1398 14.5086 800 108.065 126.974 462.759
422 0 55.1844 12.9384 714 113.038 129.7 461.193
423 0 57.1256 12.2187 698 114.143 128.928 460.027
424 0 59.285 10.205 605 115.405 129.914 462.491
425 0 60.4138 14.02 847 111.326 130.811 457.09
426 0 59.3058 10.8084 641 117.387 132.624 458.524
427 0 63.181 14.7513 932 108.426 132.339 462.703
428 0 61.3036 10.7335 658 116.64 132.394 460.356
429 0 70.1241 14.2319 998 109.997 132.989 460.267
430 0 73.363 13.1401 964 111.114 133.869 459.74
431 0 73.397 12.7117 933 112.403 133.253 459.482
432 0 77.3384 13.6931 1059 110.89 132.947 455.668
433 0 81.1471 15.1577 1230 107.894 132.61 458.278
434 0 82.3301 13.373 1101 110.198 132.38 456.444
435 0 89.4489 17.5296 1568 104.899 132.191 453.298
436 0 85.4405 12.7808 1092 113.222 131.31 456.873
437 0 90.2518 14.3155 1292 110.976 131.007 456.125
438 1 46.055 15.1558 698 109.341 131.507 473.898
439 0 49.1131 13.194 648 109.71 131.174 476.383
440 0 49.319 14.1933 700 109.371 126.989 473.961
441 0 53.12 15.9639 848 101.856 127.009 470.873
442 0 54.2177 19.809 1074 97.0363 125.851 473.153
443 0 57.1402 14.7532 843 102.055 125.547 475.701
444 0 59.1618 15.297 905 101.685 125.214 474.716
445 0 58.0486 13.2992 772 105.637 125.008 477.028
446 0 59.4328 15.8498 942 102.866 125.862 469.411
447 0 59.2972 13.6431 809 105.253 125.703 469.904
448 0 62.3557 12.6372 788 107.146 126.332 472.203
449 0 67.3906 15.6402 1054 101.215 125.421 470.807
450 0 65.2349 13.3824 873 109.368 124.871 465.221
451 0 72.1924 9.10068 657 111.037 123.677 470.457
452 0 73.4993 12.9253 950 108.5 123.558 461.691
453 0 75.2317 17.9712 1352 101.868 123.575 463.31
454 0 75.2317 18.0243 1356 119.181 123.555 463.363
455 1 150.693 16.2118 2443 109.603 122.74 427.319
456 0 151.812 10.9346 1660 117.575 123.225 431.236
457 1 48.0322 13.72 659 109.712 124.118 471.449
458 0 46.0916 12.0413 555 113.243 123.022 470.658
459 0 48.037 14.3431 689 110.618 124.717 465.605
460 0 52.0686 12.81 667 110.009 124.451 464.592
461 0 55.1214 23.4573 1293 96.7394 124.608 466.32
462 0 55.0613 15.8732 874 106.154 126.439 469.993
463 0 54.0399 13.2125 714 110.938 126.289 466.055
464 0 59.037 16.4134 969 104.804 127.692 466.005
465 0 61.2994 12.6265 774 108.817 128.889 467.603
466 0 60.1207 13.8056 830 108.254 128.612 467.145
467 0 65.183 16.1238 1051 104.593 128.729 464.819
468 0 69.0745 12.5227 865 108.455 128.605 465.84
469 0 68.1103 16.3411 1113 103.365 128.82 464.847
470 0 71.4263 15.3585 1097 104.246 130.252 458.594
471 0 73.2323 16.1404 1182 103.821 130.146 459.615
472 0 76.6342 16.1286 1236 104.112 129.013 462.168
473 0 76.2012 12.1258 924 109.55 128.826 460.837
474 0 80.2734 11.4484 919 110.891 128.91 463.168
475 0 84.3907 13.3901 1130 108.733 129.758 461.018
476 0 88.478 17.3829 1538 103.912 128.635 459.998
477 0 92.4734 11.2897 1044 112.559 128.276 459.452
478 0 95.2679 14.7374 1404 107.635 127.872 459.646
479 1 51.0354 12.6775 647 110.083 128.172 482.264
480 0 55.1826 12.6127 696 111.56 126.458 481.336
481 0 54.1351 14.667 794 110.961 128.588 479.525
482 0 55.2299 13.2356 731 111.703 127.304 483.264
483 0 58.1525 13.5162 786 111.831 126.369 482.093
484 0 57.1065 12.2053 697 113.97 124.359 482.37
485 0 62.1337 14.2113 883 110.403 125.522 479.437
486 0 61.0809 12.0005 733 114.247 124.37 479.439
487 0 66.1356 13.3816 885 111.808 123.992 475.982
488 0 69.3042 19.2052 1331 102.367 123.106 476.923
489 0 73.1203 13.2521 969 111.461 122.236 474.018
490 0 76.2743 20.9114 1595 100.028 121.387 475.002
491 0 74.2075 11.6296 863 115.112 121.936 470.715
492 0 80.3427 12.3969 996 113.021 121.316 471.227
493 1 43.339 13.752 596 107.586 120.322 487.176
494 0 46.6002 13.0901 610 107.095 118.648 486.797
495 0 46.4503 20.7318 963 97.7394 117.477 484.559
496 0 45.2266 13.0675 591 111.173 119.646 481.536
497 0 47.1432 13.406 632 112.184 119.568 479.21
498 0 49.0772 13.3871 657 112.009 118.779 474.737
499 0 52.0896 14.3791 749 111.055 117.844 473.434
500 0 52.0775 14.4784 754 111.012 119.924 470.416
501 0 53.2183 13.1158 698 112.774 118.755 472.403
502 0 53.0976 12.5994 669 114.952 119.906 469.643
503 0 58.3857 15.2263 889 108.828 121.12 470.096
504 0 59.1418 15.5051 917 108.233 121.739 467.663
505 0 59.1418 15.4544 914 142.469 122.724 467.689
506 0 62.1548 14.303 889 111.656 122.762 465.844
507 0 63.0457 11.801 744 115.461 124.122 465.968
508 0 64.1652 16.1926 1039 110.592 124.22 462.494
509 0 66.114 13.023 861 115.122 125.893 460.75
510 0 71.0948 15.8943 1130 111.38 126.779 457.073
511 0 75.2683 15.6773 1180 110.295 128.436 459.186
512 0 75.0848 17.6734 1327 108.356 127.961 459.531
513 0 79.1489 15.3003 1211 112.206 128.407 460.19
514 0 81.1876 15.4703 1256 111.822 127.786 460.834
515 1 45.2927 13.9758 633 107.951 129.103 479.404
516 0 44.0985 11.8145 521 113.846 128.956 476.626
517 0 43.4744 12.9041 561 114.303 127.77 474.094
518 0 48.1127 14.3621 691 111.971 130.148 474.217
519 0 46.1161 11.0807 511 118.207 130.898 477.957
520 0 49.1273 13.6584 671 111.696 129.435 481.049
521 0 52.0393 12.0294 626 114.139 129.717 480.566
522 0 54.0466 13.4514 727 113.68 128.95 479.668
523 0 52.2878 13.9038 727 114.715 127.508 480.364
524 0 56.0276 14.7963 829 112.85 127.854 477.069
525 0 57.2447 17.102 979 107.541 126.507 483.544
526 0 53.0518 10.1222 537 121.849 125.389 479.264
527 0 58.0568 14.6925 853 114.043 125.294 479.353
528 0 61.1493 16.01 979 111.631 124.174 480.473
529 0 63.0768 12.572 793 116.633 124.733 477.898
530 0 65.2838 12.7444 832 116.094 123.489 478.138
531 0 67.1185 14.1541 950 115.398 121.477 476.547
532 0 69.1689 15.1802 1050 113.957 121.463 475.343
533 0 70.1321 13.1751 924 117.323 121.105 472.39
534 0 75.1053 13.8206 1038 116.545 120.908 469.829
535 0 79.1559 14.0103 1109 116.917 121.512 466.374
536 0 79.2672 16.8165 1333 113.86 120.451 462.686
537 1 40.0581 9.61105 385 121.231 120.953 481.616
538 0 44.0951 16.6232 733 108.173 120.327 481.415
539 0 49.1025 13.5838 667 112.579 120.031 477.351
540 0 47.122 13.221 623 114.909 120.183 474.188
541 0 51.2729 14.5496 746 103.43 119.897 480.536
542 0 51.228 15.8117 810 103.538 120.13 472.622
543 0 53.0864 13.8265 734 105.635 120.531 475.552
544 0 55.0661 14.7459 812 104.575 121.596 472.248
545 0 53.0845 10.229 543 109.298 120.017 473.873
546 0 55.0832 13.5795 748 106.21 121.83 471.226
547 0 56.0524 11.739 658 108.947 121.091 467.275
548 0 59.0862 17.8045 1052 99.1198 121.389 470.268
549 0 60.1262 11.875 714 108.001 122.415 464.853
550 0 62.127 12.0077 746 107.206 122.869 466.842
551 0 64.3088 13.4818 867 105.211 124.36 464.684
552 0 67.1412 13.9705 938 105.226 124.099 464.882
553 0 69.263 15.8815 1100 102.455 124.905 465.783
554 0 69.4086 14.9549 1038 105.933 124.885 460.084
555 0 72.1642 17.2662 1246 101.14 125.021 466.567
556 0 75.3788 15.9594 1203 104.565 127.701 461.468
557 0 76.3085 14.0613 1073 107.1 126.76 460.667
558 0 80.4463 17.2165 1385 101.699 127.791 465.144
559 0 82.3373 15.8251 1303 104.794 127.856 458.615
560 0 83.1867 12.3217 1025 110.392 127.657 456.171
561 0 91.1996 16.59 1513 104.348 128.269 459.588
562 1 46.1104 10.258 473 115.097 129.197 479.835
563 0 48.1228 13.0915 630 112.587 128.421 480.1
564 0 45.6409 10.3854 474 112.496 126.899 472.909
565 0 50.0609 14.2227 712 106.951 124.647 474.327
566 0 55.2996 15.4251 853 105.195 126.597 480.633
567 0 54.142 12.1532 658 110.275 127.111 481.606
568 0 57.4672 15.1043 868 105.866 126.426 478.229
569 0 55.108 10.3252 569 112.647 127.007 481.03
570 0 61.3711 12.8236 787 108.271 125.741 478.166
571 0 64.0686 14.7966 948 105.715 123.879 478.108
572 0 61.0551 10.466 639 112.757 123.818 476.186
573 0 68.0886 14.7749 1006 108.051 123.504 473.601
574 0 70.0573 11.6333 815 112.121 122.717 474.874
575 0 72.1683 14.5078 1047 109.051 122.526 473.361
576 0 74.3311 13.1977 981 111.418 120.606 472.909
577 0 79.1444 13.6333 1079 110.041 120.31 470.659
578 0 83.2456 16.0129 1333 108.494 120.078 468.284
579 0 83.2053 16.6816 1388 108.903 119.476 464.282
580 1 43.0342 12.6411 544 114.824 120.162 481.145
581 0 44.0923 11.612 512 117.402 119.553 481.18
582 0 46.0457 14.6811 676 115.303 117.729 477.729
583 0 50.1099 13.4903 676 115.919 114.672 476.497
584 0 49.1211 12.7033 624 119.197 117.035 474.45
585 0 50.0529 13.8453 693 115.737 115.595 476.468
586 0 52.1709 14.0691 734 116.7 116.056 469.644
587 0 55.0837 18.8804 1040 109.093 117.06 471.174
588 0 56.1526 11.8427 665 120.395 117.841 469.898
589 0 59.1571 17.1746 1016 111.745 119.057 465.72
590 0 59.1571 17.1915 1017 136.855 121.09 465.721
591 0 59.1571 17.1746 1016 136.445 123.092 465.733
592 0 65.1978 18.8503 1229 109.844 121.421 464.243
593 0 67.1625 17.9267 1204 110.89 121.007 463.63
594 0 70.362 19.0159 1338 110.558 122.547 460.158
595 0 73.316 18.3725 1347 109.54 122.92 464.311
596 0 72.3561 13.1157 949 120.747 123.404 459.136
597 0 77.2668 21.9629 1697 107.716 124.263 459.538
598 0 81.25 17.6246 1432 112.048 124.339 460.187
599 0 82.2465 16.2317 1335 113.822 125.114 462.087
600 0 86.3017 15.608 1347 116.31 124.899 458.589
601 0 88.368 13.6701 1208 119.949 126.9 455.377
602 0 91.1792 17.9756 1639 113.624 126.401 453.534
603 0 94.294 15.6744 1478 118.505 125.915 452.03
604 0 94.3289 15.0431 1419 119.008 125.562 455.389
605 1 54.1102 14.0454 760 119.557 125.179 473.442
606 0 55.3441 14.184 785 117.845 126.014 475.573
607 0 56.6418 13.9826 792 109.98 126.928 471.322
608 0 62.2213 15.686 976 105.841 126.425 474.218
609 0 59.2416 11.1746 662 115.849 124.734 468.421
610 0 61.1487 12.7558 780 112.733 124.832 471.031
611 0 67.2483 14.1565 952 110.342 123.965 471.483
612 0 69.3662 17.1697 1191 106.75 125.515 469.414
613 0 72.2727 14.4038 1041 110.32 124.09 468.159
614 0 75.3122 13.0125 980 111.497 124.496 468.497
615 0 80.4528 15.4128 1240 108.106 123.698 465.876
616 0 79.3457 13.0442 1035 112.023 123.475 463.924
617 0 82.2631 13.469 1108 113.145 120.822 458.251
618 0 83.3278 14.0169 1168 113.485 120.668 451.611
619 0 87.5718 14.5595 1275 112.821 120.725 457.928
620 0 92.445 13.8244 1278 120.255 120.792 460.778
621 0 96.3904 14.2545 1374 119.685 120.611 456.167
622 1 49.1054 14.5809 716 115.465 121.142 478.064
623 0 50.1247 12.7482 639 119.023 120.687 475.202
624 0 53.4814 12.7147 680 117.434 120.353 473.447
625 0 55.1869 11.8869 656 120.468 115.043 475.901
626 0 55.2407 13.4683 744 119.778 115.461 471.048
627 0 56.1773 13.2082 742 120.319 115.841 471.202
628 0 58.1079 11.8917 691 122.395 115.935 470.951
629 0 61.1235 14.7079 899 116.909 115.845 469.669
630 0 62.0668 15.9022 987 115.363 116.257 468.312
631 0 64.1107 15.8788 1018 116.378 116.38 464.437
632 0 65.1193 13.0376 849 121.131 118.001 466.397
633 0 70.1432 18.3197 1285 111.689 117.64 462.21
634 0 69.2366 15.4254 1068 116.93 119.086 462.094
635 0 72.2732 15.4276 1115 116.899 118.965 460.602
636 0 73.1872 15.5355 1137 117.887 120.371 456.135
637 0 77.2202 15.3587 1186 115.454 121.664 459.878
638 0 79.337 14.9867 1189 118.277 122.359 455.737
639 0 81.2871 16.8784 1372 114.995 122.305 455.078
640 0 79.2008 11.9948 950 124.088 123.269 453.789
641 0 88.3113 16.1135 1423 116.238 123.926 452.363
642 0 91.2185 14.4488 1318 118.061 124.841 453.433
643 0 92.3586 15.5914 1440 117.678 125.024 450.041
644 0 95.3338 16.5943 1582 115.123 125.153 453.85
645 0 96.4026 16.6386 1604 116.377 125.892 449.847
646 0 101.747 14.6638 1492 118.816 125.685 448.947
647 0 104.319 15.6444 1632 117.263 127.022 450.471
648 0 107.597 12.7977 1377 121.355 125.961 447.474
649 0 111.441 15.5598 1734 116.074 125.233 453.186
650 0 118.687 15.1154 1794 117.142 125.154 445.305
651 1 60.0632 9.80633 589 118.825 122.878 476.861
652 0 62.2786 12.0105 748 115.412 122.908 475.418
653 0 65.1685 14.8998 971 107.679 127.701 472.647
654 0 68.1385 12.1664 829 112.08 127.58 473.366
655 0 70.0575 13.7458 963 109.844 126.267 472.34
656 0 73.0796 13.6427 997 111.143 126.3 470.406
657 0 72.3704 11.9938 868 113.59 126.366 468.202
658 0 76.1641 13.4315 1023 111.395 124.527 465.309
659 0 78.1567 13.5753 1061 129.188 122.51 465.798
660 0 80.1163 13.8673 1111 111.789 122.713 464.859
661 0 87.141 14.9872 1306 110.056 122.659 463.524
662 0 88.1244 13.9575 1230 112.932 122.563 458.95
663 0 88.0851 14.1795 1249 113.799 121.12 455.945
664 0 93.3467 12.159 1135 115.885 122.064 456.715
665 1 52.0679 11.6002 604 115.202 119.599 478.387
666 0 54.2066 13.2087 716 112.304 121.518 477.546
667 0 56.1456 14.1952 797 109.473 120.838 472.482
668 0 58.1333 13.0046 756 115.914 115.407 469.097
669 0 59.3887 13.0496 775 116.712 116.507 469.768
670 0 58.194 9.94948 579 122.86 117.629 467.991
671 0 63.1221 11.549 729 118.428 116.997 467.753
672 0 65.1582 12.8764 839 116.928 117.257 464.564
673 0 68.1878 13.1548 897 116.695 117.687 463.298
674 0 68.1216 12.4043 845 117.807 118.24 462.518
675 0 73.2551 15.876 1163 111.524 119.044 459.197
676 0 75.1509 12.8408 965 117.458 118.798 457.074
677 0 78.1876 12.713 994 114.946 119.54 458.164
678 0 80.2762 14.338 1151 114.183 120.211 456.155
679 0 81.4327 10.9416 891 118.163 121.371 457.022
680 0 88.1258 15.7616 1389 111.813 122.159 448.832
681 0 86.1846 11.1389 960 121.032 122.902 448.406
682 0 90.1702 11.567 1043 115.489 123.582 452.603
683 0 95.2323 16.8535 1605 107.342 124.672 451.596
684 0 98.7191 15.3364 1514 113.734 126.053 449.575
685 0 100.797 12.0936 1219 117.199 126.747 450.661
686 1 53.1513 13.6591 726 111.018 128.707 475.288
687 0 54.2971 13.2788 721 113.436 127.926 472.892
688 0 55.3536 12.7905 708 114.668 128.025 474.516
689 0 57.3738 11.9218 684 117.55 127.696 471.763
690 0 58.5406 12.5041 732 115.656 127.613 473.266
691 0 61.5048 14.0314 863 112.784 126.592 473.07
692 0 63.4106 16.1803 1026 109.428 127.212 470.818
693 0 63.3465 13.9234 882 112.626 127.425 475.3
694 0 66.5586 13.7022 912 112.49 127.9 473.101
695 0 67.7436 12.193 826 113.69 126.959 474.539
696 0 74.5988 17.6947 1320 105.319 127.171 470.214
697 1 154.048 9.54245 1470 115.686 125.092 448.744
698 0 152.958 11.5914 1773 116.891 125.593 432.566
699 0 158.673 10.216 1621 116.487 124.105 441.37
700 0 158.675 10.2347 1624 127.087 122.117 441.026
701 1 43.2793 11.2525 487 108.179 120.735 489.177
702 0 44.2555 14.6196 647 105.451 120.643 482.719
703 0 45.1365 12.141 548 105.148 120.562 485.478
704 0 46.1767 11.3261 523 103.711 123.574 484.111
705 0 50.3815 14.8864 750 98.34 122.839 483.081
706 0 47.1479 11.623 548 104.04 122.033 481.978
707 0 51.1436 12.5138 640 101.72 122.25 477.791
708 0 50.0485 10.8295 542 104.334 120.232 478.871
709 0 54.1428 14.0185 759 100.049 120.333 474.515
710 0 58.0441 16.9871 986 95.4462 120.716 479.561
711 0 58.2626 12.1004 705 101.64 120.183 472.489
712 0 58.0961 13.7014 796 106.09 120.588 473.81
713 0 60.1024 16.422 987 101.507 119.611 474.468
714 0 65.2448 12.9512 845 104.759 121.488 472.488
715 0 68.3088 13.9367 952 103.453 120.631 469.45
716 1 133.41 17.0677 2277 103.114 120.883 439.04
717 0 136.377 14.3353 1955 106.784 121.032 435.861
718 1 71.1538 13.9979 996 104.04 121.76 461.763
719 0 75.1674 16.6561 1252 98.0479 121.855 467.653
720 0 74.2196 11.2504 835 107.388 123.347 464.289
721 0 78.243 12.4867 977 104.969 124.075 457.877
722 0 82.4293 14.8855 1227 101.507 124.062 459.426
723 0 84.5105 16.6725 1409 100.287 124.467 454.808
724 0 87.376 13.482 1178 105.134 124.835 452.362
725 1 47.3783 12.1152 574 101.449 125.817 476.186
726 0 44.487 12.1833 542 96.9705 126.105 469.101
727 0 47.3991 9.83141 466 105.277 127.697 474.455
728 0 49.6619 14.941 742 98.0903 126.495 473.869
729 0 50.3581 13.0863 659 102.478 127.772 468.763
730 0 51.6954 14.8369 767 99.7575 127.394 475.553
731 0 55.346 20.8868 1156 95.8062 127.602 469.426
732 0 52.2492 12.1724 636 104.86 127.178 473.307
733 0 57.6073 13.0712 753 99.9947 127.623 474.825
734 0 62.6376 11.9417 748 100.314 126.944 475.381
735 0 61.4452 10.4483 642 102.88 127.643 476.584
736 0 65.3495 15.4094 1007 96.3128 127.874 479.192
737 0 66.519 12.207 812 100.404 126.074 474.525
738 0 68.2917 11.1141 759 102.611 126.387 471.327
739 0 71.4496 16.809 1201 94.0416 125.452 478.94
740 0 74.4117 9.12491 679 103.515 125.105 476.001
741 0 77.4669 11.1402 863 101.46 124.158 472.988
742 1 40.0937 10.8246 434 101.071 126.571 488.56
743 0 39.2568 9.90912 389 103.28 123.326 485.56
744 0 43.6183 14.0308 612 99.1993 121.358 479.603
745 0 47.1738 15.7079 741 94.413 122.063 485.016
746 0 47.4139 12.76 605 99.6231 123.66 479.975
747 0 47.0886 15.7363 741 98.0081 122.922 479.327
748 0 48.1162 12.8855 620 101.495 123.39 480.406
749 0 48.1298 13.422 646 102.254 123.101 477.11
750 0 51.1942 13.2046 676 101.543 122.629 476.749
751 0 52.2082 13.2738 693 102.182 121.775 476.909
752 0 58.4533 14.9863 876 99.387 121.197 475.619
753 0 53.2325 9.07341 483 109.222 122.369 471.919
754 0 58.7517 14.9613 879 101.712 121.919 470.878
755 0 59.5273 12.6833 755 104.714 120.946 470.228
756 0 65.3594 16.1415 1055 99.1934 121.01 466.943
757 0 62.3733 11.9121 743 106.182 120.988 467.036
758 0 65.4885 15.4684 1013 101.482 122.028 465.098
759 0 67.4991 16.8891 1140 100.472 121.966 464.739
760 0 70.7784 15.598 1104 102.372 121.389 460.5
761 0 73.4533 16.2416 1193 100.657 122.364 458.619
762 0 75.3734 14.3817 1084 102.277 122.036 460.177
763 0 77.2797 12.8106 990 105.659 123.401 455.701
764 0 83.3275 15.8651 1322 98.7595 124.402 462.703
765 0 82.2364 10.4941 863 108.145 125.336 457.645
766 0 89.2923 15.3989 1375 102.45 125.623 456.444
767 0 91.3332 17.8248 1628 100.166 125.346 452.171
768 0 94.6137 15.1035 1429 103.969 125.868 453.045
769 0 94.2628 11.9135 1123 108.715 126.961 445.567
770 0 96.6158 11.6234 1123 110.653 126.554 444.858
771 0 99.3736 11.8039 1173 108.89 128.445 448.268
772 0 105.419 16.4866 1738 104.911 127.776 451.217
773 0 108.353 15.4311 1672 107.331 128.37 446.657
774 0 111.337 14.8558 1654 107.974 128.18 439.28
775 0 116.445 13.7404 1600 109.312 126.422 445.717
776 0 120.726 12.8639 1553 109.889 126.652 448.553
777 1 65.1758 21.7259 1416 97.3143 126.313 472.67
778 0 68.4092 15.3196 1048 106.648 126.631 468.449
779 0 69.1252 15.9132 1100 106.544 124.895 473.635
780 0 74.1339 14.2985 1060 108.465 124.643 472.907
781 0 72.2041 13.7111 990 112.84 124.503 468.026
782 0 77.2482 14.3952 1112 109.272 123.782 470.767
783 0 81.1794 17.5414 1424 106.462 122.986 462.482
784 0 81.1175 13.6715 1109 112.729 122.88 463.727
785 0 86.269 15.6024 1346 108.487 122.152 466.663
786 0 89.4314 17.6336 1577 105.644 122.126 459.871
787 0 90.3003 13.6987 1237 112.192 121.862 461.336
788 0 93.2076 12.338 1150 113.687 120.202 459.996
789 0 99.7538 17.5432 1750 106.593 121.246 455.553
790 0 100.357 13.1231 1317 112.792 120.18 457.705
791 0 106.401 14.4078 1533 108.788 122.213 457.991
792 1 58.228 12.8804 750 110.597 119.524 475.977
793 0 57.1365 12.5664 718 110.708 120.046 473.04
794 0 60.3941 12.5675 759 112.86 119.433 471.82
795 0 61.2362 13.8317 847 110.77 118.72 467.923
796 0 66.3102 13.9194 923 108.685 118.961 470.05
797 0 67.235 13.6238 916 111.234 119.76 464.934
798 0 69.1631 13.432 929 110.721 119.809 464.684
799 0 70.7664 11.2483 796 114.665 119.788 461.35
800 0 72.6423 12.3895 900 112.062 119.234 463.49
801 0 70.5965 11.162 788 114.707 120.707 460.759
802 0 78.4731 14.5655 1143 110.571 120.059 455.268
803 0 79.6112 11.8576 944 115.103 121.665 456.738
804 0 81.4201 13.3014 1083 113.733 121.908 455.793
805 0 81.6815 12.8181 1047 114.295 122.33 455.26
806 0 88.7471 14.5695 1293 111.579 122.737 450.038
807 0 92.7156 16.5991 1539 109.272 123.075 445.817
808 0 95.4985 15.8327 1512 109.333 125.356 447.796
809 0 99.4261 13.598 1352 111.443 125.058 446.604
810 0 99.1162 12.4097 1230 113.425 125.276 444.726
811 0 104.375 14.0551 1467 108.802 126.803 445.593
812 0 108.738 16.9766 1846 103.924 126.741 442.489
813 0 109.888 11.9212 1310 111.066 128.327 436.154
814 0 113.855 11.3039 1287 111.272 128.984 439.274
815 0 117.791 13.9145 1639 108.266 127.89 442.902
816 1 62.3694 12.8589 802 109.865 130.575 469.146
817 0 61.2483 13.2085 809 110.546 129.508 466.838
818 0 64.3344 12.6371 813 110.838 129.803 468.84
819 0 66.1536 14.4512 956 108.386 128.618 464.531
820 0 69.253 14.2232 985 108.266 129.312 467.878
821 0 72.3041 14.9784 1083 107.715 129.525 468.426
822 0 75.5649 14.6497 1107 108.732 128.936 466.306
823 0 77.5013 15.1481 1174 108.106 129.152 465.656
824 0 82.1209 14.1742 1164 108.399 129.855 468.878
825 0 83.1616 15.4999 1289 107.244 128.32 464.633
826 0 86.1762 17.2089 1483 104.04 128.119 465.213
827 0 85.4208 13.6969 1170 110.749 127.848 460.938
828 0 88.2978 13.4998 1192 110.482 127.703 463.269
829 0 90.0966 15.6721 1412 107.708 126.414 461.21
830 0 98.2587 14.6552 1440 108.196 126.021 456.364
831 0 95.3865 12.2344 1167 111.069 125.057 459.477
832 1 150.791 13.4026 2021 111.267 124.599 439.286
833 1 102.467 15.4976 1588 107.421 123.718 452.457
834 0 106.525 15.7053 1673 106.972 123.142 451.032
835 0 113.29 18.7306 2122 100.114 123.322 453.523
836 0 116.298 14.4113 1676 107.02 122.918 443.844
837 0 117.504 12.7315 1496 108.084 123.491 445.584
838 0 122.492 14.3601 1759 105.33 122.327 447.893
839 1 68.4118 17.4093 1191 97.34 121.906 467.836
840 0 72.5404 17.3696 1260 103.02 121.116 461.648
841 0 72.4773 14.1424 1025 106.954 121.588 463.349
842 0 71.3366 13.4433 959 109.279 121.21 461.98
843 0 77.5958 14.7302 1143 107.4 120.679 456.099
844 0 79.4061 14.4699 1149 106.348 121.214 456.308
845 1 133.687 8.98367 1201 109.988 122.341 449.861
846 1 83.3104 16.7566 1396 105.372 121.482 451.593
847 0 87.3456 15.1696 1325 107.507 121.667 451.308
848 0 89.3553 15.4551 1381 107.296 123.879 450.269
849 0 94.449 16.9298 1599 105.752 124.777 444.49
850 0 95.3488 13.3405 1272 112.567 125.755 445.301
851 0 99.4573 16.3889 1630 107.748 124.285 442.796
852 0 102.384 15.8325 1621 108.647 125.919 444.835
853 0 105.476 15.4633 1631 107.822 125.424 446.128
854 0 105.48 14.6189 1542 105.889 127.443 442.211
855 0 110.506 15.3929 1701 105.006 126.571 442.021
856 0 112.794 15.382 1735 104.032 128.137 444.387
857 0 111.832 11.7945 1319 109.786 128.857 441.45
858 0 114.495 12.6294 1446 108.048 129.869 442.817
859 0 123.969 17.4076 2158 102.076 128.822 436.028
860 0 128.949 15.0447 1940 105.862 129.386 432.673
861 0 128.641 14.7154 1893 106.75 130.044 435.462
862 1 73.3593 15.4991 1137 98.2313 128.94 466.309
863 0 74.3577 13.0585 971 101.289 129.669 466.315
864 0 79.3051 15.9637 1266 97.5742 128.524 466.428
865 0 79.3753 11.4141 906 103.025 128.244 469.542
866 0 84.6201 13.1411 1112 100.48 128.799 466.836
867 0 86.2713 11.5334 995 101.792 125.005 468.058
868 0 87.4013 13.97 1221 101.032 126.364 461.559
869 0 89.5694 11.5218 1032 101.917 125.61 465.075
870 0 92.4331 9.30402 860 107.043 125.583 458.95
871 0 96.4996 14.4249 1392 102.945 124.378 456.371
872 0 98.4631 12.8271 1263 106.632 123.476 454.803
873 0 103.377 12.8656 1330 106.029 122.453 452.377
874 1 55.318 11.0271 610 105.839 121.823 479.107
875 0 57.6109 13.3655 770 102.866 123.426 466.149
876 0 61.592 13.1998 813 102.745 123.412 469.597
877 0 65.0548 14.8951 969 105.094 124.363 472.034
878 0 67.0817 17.2029 1154 101.236 124.172 469.86
879 0 66.0726 12.1684 804 108.381 123.58 466.346
880 0 67.1322 10.6953 718 110.026 124.364 467.581
881 0 72.5195 12.9344 938 107.642 123.773 461.289
882 0 73.2589 10.8519 795 109.922 124.267 462.815
883 0 75.3096 11.5523 870 109.936 123.938 459.047
884 0 81.2093 15.2446 1238 103.711 122.686 458.724
885 0 84.5917 16.7156 1414 102.403 123.492 446.437
886 0 85.6007 12.8153 1097 106.57 123.795 451.823
887 0 87.9176 11.9202 1048 108.844 124.498 447.225
888 0 90.7956 18.3379 1665 100.291 122.646 450.641
889 0 92.7537 13.7784 1278 109.635 124.818 440.979
890 0 96.5469 13.5478 1308 109.215 124.163 440.193
891 1 54.7178 14.0539 769 104.358 124.592 461.845
892 0 56.9193 13.3347 759 104.917 125.437 462.796
893 0 53.3118 12.4925 666 111.462 126.327 461.883
894 0 53.1498 12.3425 656 108.675 126.163 459.648
895 0 57.192 16.5408 946 100.515 126.079 464.106
896 0 56.1189 12.0637 677 110.124 126.415 454.356
897 0 62.3525 14.7869 922 104.914 127.264 456.486
898 0 64.5411 14.5799 941 109.787 126.47 460.163
899 0 67.2936 15.1277 1018 108.625 126.635 461.161
900 0 70.189 10.6997 751 113.543 129.401 462.533
901 0 72.5556 14.0031 1016 109.906 129.631 456.081
902 0 74.4283 12.2265 910 114.054 130.362 455.79
903 0 76.6798 17.3318 1329 106.081 129.308 456.716
904 0 81.6627 23.2542 1899 98.8694 129.767 456.546
905 0 80.6895 15.2436 1230 110.912 129.111 454.25
906 0 82.428 14.0971 1162 114.824 129.824 453.504
907 0 86.5075 12.681 1097 116.418 129.708 455.595
908 0 90.6713 16.1131 1461 111.313 128.665 454.435
909 0 92.7542 15.2554 1415 113.186 130.287 454.257
910 0 96.8422 13.1244 1271 114.832 129.105 455.834
911 0 99.643 12.8158 1277 116.161 128.941 454.199
912 1 55.1097 11.4136 629 112.55 128.445 475.364
913 0 53.0375 10.9734 582 114.443 128.533 474.454
914 0 61.0563 12.5294 765 110.834 127.163 476.827
915 0 60.1504 12.6017 758 115 126.949 472.591
916 0 62.0888 11.6446 723 114.505 127.162 477.704
917 0 63.0417 13.848 873 113.404 125.296 470.188
918 0 66.2364 14.3577 951 105.461 118.793 475.728
919 0 66.1666 12.6046 834 110.023 119.49 473.522
920 0 68.2607 15.5141 1059 105.251 118.72 475.867
921 0 71.2173 17.3553 1236 103.735 119.701 467.25
922 0 73.2551 13.2687 972 109.449 119.492 468.041
923 0 75.1256 13.1779 990 110.005 118.527 465.61
924 0 77.1911 17.2429 1331 105.962 118.838 459.289
925 0 76.3433 12.2735 937 114.095 118.306 457.451
926 0 80.3002 13.4869 1083 110.28 118.372 461.071
927 0 86.1737 15.9097 1371 107.381 118.44 457.913
928 0 87.2367 14.3747 1254 110.985 119.019 450.657
929 0 93.2559 12.975 1210 111.939 119.488 451.837
930 0 95.1636 12.4207 1182 115.23 118.904 448.096
931 1 54.091 13.0521 706 110.255 119.038 470.108
932 0 54.1379 11.0274 597 117.248 119.261 466.859
933 0 56.4766 12.6247 713 114.236 120.931 465.251
934 0 58.5236 12.354 723 115.444 121.296 460.48
935 0 59.7678 12.0299 719 114.174 122.378 463.145
936 0 63.5869 16.1983 1030 107.161 123.488 462.195
937 0 60.7137 11.6284 706 116.35 123.54 459.088
938 0 64.708 13.1978 854 113.37 124.477 458.152
939 0 68.3753 16.4533 1125 106.891 124.65 457.718
940 0 68.5719 12.3666 848 114.212 124.534 457.147
941 0 69.8013 12.4783 871 113.456 125.319 456.648
942 0 73.4983 16.2453 1194 107.064 126.309 458.346
943 0 73.5161 13.9969 1029 109.447 126.126 461.878
944 0 78.438 13.1696 1033 110.711 127.206 456.165
945 0 79.4139 13.2722 1054 111.695 127.375 456.157
946 0 83.7322 9.85284 825 114.755 127.383 457.441
947 0 85.3668 14.8536 1268 106.483 126.856 459.688
948 0 89.442 12.2538 1096 111.291 127.495 454.906
949 0 90.1259 9.84179 887 107.202 125.763 459.545
950 0 92.2814 10.8906 1005 105.594 127.093 461.696
951 1 51.1485 11.5546 591 102.019 127.2 477.822
952 0 54.142 11.5806 627 102.38 128.378 478.831
953 0 51.083 10.6689 545 105.319 123.916 479.338
954 0 52.2209 12.4471 650 102.832 124.4 480.94
955 0 55.1245 12.7711 704 103.057 124.166 476.364
956 0 56.2994 10.8172 609 103.202 123.379 482.32
957 0 58.1579 9.11312 530 106.347 123.253 478.558
958 0 60.1481 8.87809 534 105.037 122.009 483.019
959 1 120.932 14.5289 1757 103.998 124.286 447.628
960 0 123.816 12.6962 1572 106.144 122.478 439.912
961 1 63.3607 9.81681 622 105.817 120.788 474.019
962 0 68.3787 12.6355 864 102.477 120.319 470.906
963 0 70.2154 12.5613 882 102.298 120.972 466.477
964 0 74.4457 13.5132 1006 100.574 119.086 467.078
965 0 75.3703 11.941 900 101.741 118.952 471.019
966 0 76.4479 10.9094 834 104.435 119.777 468.283
967 0 79.3449 10.7631 854 104.788 118.552 465.559
968 1 48.3127 9.00384 435 108.522 117.984 478.124
969 0 47.1662 12.5726 593 103.998 119.46 474.788
970 0 44.8606 17.9891 807 97.3581 120.6 474.389
971 0 50.5741 14.5727 737 97.422 121.417 468.935
972 0 54.0439 14.7103 795 97.0503 121.482 470.28
973 0 52.2578 13.8161 722 100.396 124.274 468.429
974 0 53.1451 14.3569 763 100.367 123.505 470.005
975 0 54.2112 10.8465 588 104.9 123.891 467.782
976 0 56.2655 12.1033 681 102.959 123.357 466.16
977 0 58.3374 11.862 692 100.964 124.358 469.325
978 0 59.1843 14.1761 839 101.956 123.956 463.213
979 0 61.2759 12.2397 750 104.208 125.092 462.104
980 0 63.2655 11.6177 735 104.083 125.528 462.378
981 0 66.3144 13.3455 885 101.976 126.908 465.113
982 0 64.4057 9.25384 596 109.498 125.713 463.606
983 0 70.3235 12.7411 896 103.871 127.163 460.407
984 0 74.4573 15.4854 1153 100.386 127.309 459.928
985 0 76.5673 12.9951 995 103.9 128.473 459.217
986 0 73.434 10.472 769 109.094 128.378 456.997
987 0 78.4122 12.9062 1012 105.345 129.23 458.904
988 0 83.4259 14.432 1204 102.159 129.531 456.227
989 0 88.458 14.538 1286 99.5156 130.551 457.819
990 0 90.3211 14.1495 1278 100.259 130.477 455.301
991 0 90.5016 14.1434 1280 99.5805 128.471 461.405
992 0 94.4629 11.3272 1070 105.273 129.383 457.196
993 0 99.5892 14.9615 1490 100.458 128.644 453.328
994 0 100.35 12.2671 1231 103.003 128.564 456.678
995 1 55.0983 13.2309 729 105.728 129.753 477.786
996 0 58.2067 13.5723 790 102.049 128.053 471.61
997 0 62.093 12.7068 789 102.264 129.259 473.444
998 0 64.2518 14.2253 914 99.4759 129.073 473.166
999 0 63.2805 12.6263 799 104.834 128.733 476.098
1000 0 72.312 12.529 906 104.996 127.6 474.685
1001 0 69.4251 12.834 891 106.246 125.951 466.962
1002 0 70.2228 11.4778 806 109.633 126.681 468.463
1003 0 72.3167 15.681 1134 103.535 124.653 468.19
1004 0 75.3979 15.7034 1184 102.166 124.28 468.539
1005 0 80.3004 14.8567 1193 99.5465 124.315 469.15
1006 0 81.2793 16.0065 1301 100.801 123.145 460.008
1007 0 82.4027 13.8224 1139 103.838 123.224 459.324
1008 0 84.1758 14.5172 1222 103.017 123.403 460.49
1009 0 86.4109 13.3085 1150 104.118 122.791 456.591
1010 0 94.4078 15.0729 1423 100.68 122.881 459.013
1011 0 93.4596 16.3921 1532 100.903 122.916 452.999
1012 0 93.4591 13.5781 1269 104.39 122.452 452.527
1013 0 100.457 14.8421 1491 103.027 122.467 450.459
1014 0 103.615 18.5398 1921 103.142 122.354 446.565
1015 0 103.448 14.4324 1493 109.143 124.282 443.636
1016 0 109.766 15.9704 1753 105.734 123.856 444.657
1017 0 110.706 14.1184 1563 108.035 123.428 434.365
1018 0 111.199 12.9498 1440 108.441 123.354 435.074
1019 0 116.616 11.6879 1363 110.034 124.219 440.895
1020 0 117.18 11.9389 1399 111.003 124.539 440.723
1021 0 123.408 12.2764 1515 110.763 125.788 428.185
1022 0 125.014 9.55893 1195 111.87 126.351 434.209
1023 1 137.249 14.317 1965 103.847 126.163 430.899
1024 0 135.017 10.9912 1484 109.69 126.919 423.432
1025 0 139.997 11.486 1608 109.167 126.555 423.425
1026 0 142.893 12.9818 1855 107.515 127.429 428.286
1027 0 146.757 13.3009 1952 106.768 128.203 428.685
1028 1 80.7431 15.9642 1289 100.468 127.42 455.858
1029 0 83.9529 11.5184 967 108.483 129.875 449.084
1030 0 84.6073 11.4766 971 108.214 130.538 449.25
1031 0 88.0316 14.2108 1251 104.755 129.876 452.878
1032 0 93.1012 12.6744 1180 107.048 130.197 450.627
1033 0 94.9924 15.1802 1442 104.011 130.417 451.166
1034 0 100.216 15.5664 1560 104.807 129.312 444.351
1035 0 105.186 12.2069 1284 108.688 128.077 445.019
1036 1 54.6175 13.0727 714 102.182 127.979 465.552
1037 0 58.9638 14.7378 869 97.5846 126.028 465.69
1038 0 60.4437 12.6233 763 100.372 127.228 470.933
1039 0 63.3023 14.644 927 100.58 124.507 472.45
1040 0 63.1777 12.6152 797 105.26 126.561 475.469
1041 0 67.4334 14.177 956 102.006 127.87 472.683
1042 0 67.2383 16.0623 1080 100.787 128.333 471.342
1043 0 68.3117 12.6772 866 103.661 127.201 477.719
1044 0 74.1699 16.1521 1198 99.3598 126.994 470.397
1045 0 76.2108 14.4861 1104 101.681 125.468 473.775
1046 0 81.128 15.3584 1246 98.935 124.601 473.28
1047 0 79.3359 10.5123 834 108.235 125.441 469.068
1048 0 83.2213 11.92 992 105.95 124.661 468.459
1049 0 85.2123 15.432 1315 103.463 123.964 459.562
1050 0 83.2215 12.1123 1008 108.915 124.234 459.425
1051 0 91.288 16.5082 1507 101.545 122.412 458.92
1052 0 88.1291 11.4945 1013 110.709 123.05 459.806
1053 0 96.4074 13.7852 1329 106.827 122.471 454.445
1054 1 51.3759 12.9827 667 105.069 122.04 478.841
1055 0 56.3334 12.9231 728 103.997 122.107 477.139
1056 0 54.3484 11.0031 598 108.577 121.269 475.998
1057 0 56.4035 13.7758 777 102.71 120.467 475.839
1058 0 56.0343 11.5108 645 106.912 120.102 471.569
1059 0 56.0391 9.27924 520 111.01 120.894 471.335
1060 0 59.1067 11.217 663 108.517 121.733 472.496
1061 0 61.1819 11.3105 692 107.786 122.195 470.178
1062 0 62.1414 13.7267 853 105.336 121.535 469.06
1063 1 127.483 17.7593 2264 102.825 122.879 438.417
1064 1 65.0422 10.5777 688 108.75 122.084 465.433
1065 0 67.1682 11.1213 747 109.292 122.585 460.668
1066 0 71.1925 12.2625 873 106.239 121.384 459.939
1067 0 71.1118 13.4858 959 106.684 123.847 457.872
1068 0 73.0819 11.7266 857 110.635 124.102 454.634
1069 0 76.2438 14.7684 1126 105.751 124.305 453.113
1070 0 80.1895 12.882 1033 106.455 125.443 458.44
1071 0 84.305 13.5105 1139 107.578 125.341 453.491
1072 0 87.2167 14.4926 1264 105.677 125.236 453.345
1073 1 47.3209 15.1941 719 101.146 126.757 474.815
1074 0 52.0389 16.9297 881 97.7196 128.051 470.793
1075 0 50.2541 13.2725 667 101.232 131.244 474.669
1076 0 51.1729 15.8873 813 99.0418 130.506 474.054
1077 0 52.2226 12.2169 638 106.091 127.64 474.708
1078 0 53.1151 11.0138 585 108.725 128.844 475.875
1079 0 56.1214 14.5399 816 103.252 127.627 478.047
1080 0 56.2395 12.8024 720 107.093 128.654 476.244
1081 0 55.1061 11.868 654 108.74 127.044 478.326
1082 0 57.1804 13.6585 781 107.289 129.064 474.615
1083 0 60.2199 13.5171 814 107.668 126.701 475.642
1084 0 63.1009 16.2597 1026 103.971 127.206 475.644
1085 0 63.2825 13.8743 878 108.084 125.846 477.056
1086 0 66.2474 13.7364 910 108.307 124.995 474.66
1087 0 68.2258 12.4147 847 109.418 123.684 476.799
1088 0 69.4578 14.4404 1003 108.168 124.244 470.782
1089 0 73.3247 14.7563 1082 107.384 122.391 472.381
1090 0 74.7197 11.8443 885 112.046 122.049 471.462
1091 0 73.2905 11.8569 869 111.872 120.589 474.281
1092 0 77.4349 16.4396 1273 106.461 120.357 466.61
1093 0 81.5262 16.51 1346 106.082 120.339 464.958
1094 0 81.512 10.9186 890 114.073 120.161 468.109
1095 0 82.3946 13.6053 1121 111.018 119.869 466.157
1096 0 89.3815 14.2871 1277 110.465 120.117 460.185
1097 1 51.1931 12.2868 629 111.094 118.838 480.305
1098 0 53.1536 15.6528 832 106.444 118.667 477.571
1099 0 51.1718 11.5493 591 107.731 120.212 477.646
1100 0 52.2825 12.7767 668 106.732 120.876 474.69
1101 0 57.1442 11.5322 659 104.988 121.261 476.552
1102 0 61.1501 12.6247 772 103.977 121.734 471.785
1103 0 58.219 11.285 657 106.373 121.259 470.915
1104 0 61.1938 13.253 811 105.656 120.637 468.686
1105 0 60.2229 14.8615 895 104.087 121.72 464.949
1106 0 62.1511 11.3111 703 107.677 121.918 466.832
1107 0 63.1847 10.5247 665 109.632 123.274 465.104
1108 0 70.1905 11.4545 804 107.896 122.282 462.993
1109 0 71.1589 11.4532 815 108.863 124.166 461.837
1110 0 73.1856 10.1386 742 108.04 124.102 462.695
1111 0 73.1137 9.08175 664 111.143 125.346 459.245
1112 0 80.2348 11.7779 945 108.039 124.58 459.428
1113 0 81.2548 14.0546 1142 104.07 125.375 461.44
1114 0 84.2042 13.9423 1174 104.539 125.324 456.811
1115 1 47.05 11.3921 536 103.597 125.953 477.961
1116 0 52.1339 16.0932 839 97.1883 125.993 477.431
1117 0 47.038 10.5021 494 110.575 127.208 472.769
1118 0 52.152 13.7099 715 103.094 125.667 473.099
1119 0 52.1225 11.5881 604 107.126 125.005 470.869
1120 0 53.05 18.4543 979 100.576 125.428 471.495
1121 0 57.1986 12.4129 710 107.597 125.418 474.268
1122 0 60.3812 13.5638 819 104.382 126.151 477.454
1123 0 59.171 17.1875 1017 101.9 125.707 472.345
1124 0 60.2593 12.8279 773 107.732 123.31 474.283
1125 0 63.2135 14.0318 887 106.326 124.561 473.793
1126 0 66.1349 9.76791 646 109.718 123.017 477.58
1127 0 66.148 14.0896 932 106.886 122.034 473.307
1128 0 65.0626 11.5274 750 111.295 122.889 472.623
1129 0 69.1482 12.9577 896 108.798 120.597 471.497
1130 0 74.1857 14.248 1057 107.551 119.679 469.732
1131 0 76.1512 13.2106 1006 106.255 118.984 470.856
1132 0 79.1323 16.8831 1336 100.247 120.051 473.218
1133 0 80.2399 11.7024 939 106.098 117.931 471.07
1134 0 84.1541 14.8537 1250 102.543 118.978 464.678
1135 0 86.2345 10.6338 917 108.559 117.046 461.205
1136 0 90.2382 16.8221 1518 99.4051 117.932 463.274
1137 1 45.0662 9.63027 434 105.493 117.175 481.574
1138 0 47.1017 10.8276 510 102.412 115.7 478.627
1139 0 46.2441 11.2014 518 103.129 115.722 479.736
1140 0 51.4197 13.5357 696 96.9942 116.125 476.287
1141 0 51.401 11.9842 616 100.081 115.959 470.312
1142 0 54.2737 12.6212 685 99.127 115.292 477.169
1143 0 55.1788 17.398 960 94.225 115.31 475.238
1144 0 54.2312 9.9758 541 104.582 115.322 471.752
1145 0 57.1527 17.1295 979 95.5465 116.743 470.226
1146 0 63.1846 13.326 842 100.165 117.234 466.898
1147 0 60.1735 12.0485 725 103.095 117.095 465.342
1148 0 60.2917 10.8804 656 105.201 118.349 467.148
1149 0 62.0891 14.8979 925 99.7395 118.957 469.405
1150 0 65.23 13.5674 885 103.073 119.801 461.644
1151 0 67.2481 12.5803 846 103.942 119.901 461.37
1152 0 72.3185 14.1319 1022 101.685 119.398 461.712
1153 0 74.4285 11.9309 888 105.533 121.748 459.64
1154 0 73.3228 12.3836 908 107.094 120.848 455.001
1155 0 78.197 14.2844 1117 102.992 121.517 460.002
1156 0 80.2655 11.4246 917 106.663 121.975 461.257
1157 0 84.2071 18.5139 1559 98.5972 121.97 462.466
1158 0 82.3269 10.0575 828 110.318 124.002 458.074
1159 0 86.3953 12.3386 1066 107.548 123.932 451.357
1160 1 178.54 13.896 2481 110.715 125.907 412.168
1161 1 136.587 11.2529 1537 110.863 124.53 439.263
1162 0 142.646 14.8409 2117 106.917 126.538 434.48
1163 1 55.2604 13.6264 753 103.215 123.19 474.837
1164 0 51.0572 11.1835 571 108.352 124.783 473.522
1165 0 54.0695 13.9635 755 103.638 123.939 478.03
1166 0 55.4482 12.3899 687 111.668 124.031 474.584
1167 0 61.2948 13.5085 828 109.457 123.937 473.674
1168 0 59.2628 11.6262 689 113.927 123.736 472.806
1169 0 61.2128 13.6409 835 108.248 123.685 478.109
1170 0 65.0979 13.1494 856 110.203 123.607 473.873
1171 0 66.0727 14.2722 943 109.054 122.699 472.616
1172 0 68.1874 20.9569 1429 99.6767 123.393 474.92
1173 0 70.2662 14.5447 1022 109.524 122.366 471.781
1174 0 76.103 16.1492 1229 105.609 121.728 472.994
1175 0 78.3894 14.7341 1155 108.243 121.316 469.052
1176 0 79.1872 12.0474 954 111.331 119.646 470.608
1177 0 83.168 19.3704 1611 100.778 119.228 469.376
1178 0 84.3269 16.1989 1366 105.865 118.064 464.892
1179 0 87.1967 16.6749 1454 106.827 118.331 461.057
1180 0 90.3259 17.2376 1557 105.417 117.565 462.893
1181 0 90.1421 14.7434 1329 108.087 117.531 460.749
1182 0 93.3548 13.6897 1278 110.672 116.671 457.105
1183 0 96.3232 15.7179 1514 103.569 116.729 457.777
1184 1 52.2474 12.9002 674 99.4763 115.553 486.816
1185 0 51.0925 10.021 512 108.758 115.709 478.584
1186 0 54.0714 16.8481 911 97.6059 116.4 477.583
1187 0 57.5474 12.3203 709 102.918 115.917 469.701
1188 0 56.4564 16.3135 921 98.8806 117.031 466.504
1189 0 60.1346 13.6527 821 99.5895 117.055 468.266
1190 0 60.2297 12.967 781 100.558 117.119 470.785
1191 0 60.2968 12.0239 725 102.246 117.372 467.924
1192 0 65.6285 18.1933 1194 95.2345 118.946 468.512
1193 0 64.2086 12.4905 802 103.399 119.385 465.829
1194 0 66.3139 10.767 714 106.095 119.48 461.751
1195 0 70.4474 11.5121 811 104.584 120.832 460.24
1196 0 71.4082 12.2535 875 104.725 120.47 459.329
1197 0 73.4139 12.5998 925 103.989 121.388 458.91
1198 0 79.354 14.2904 1134 101.903 122.126 454.795
1199 0 79.6303 13.4748 1073 103.784 123.1 452.617
1200 0 81.5064 12.5389 1022 105.253 123.389 455.571
1201 0 87.6013 17.9678 1574 98.1938 123.794 455.039
1202 0 84.397 12.4057 1047 106.906 124.433 448.394
1203 0 91.3132 15.2004 1388 103.064 124.166 451.331
1204 1 48.413 11.3399 549 105.434 123.428 473.035
1205 0 47.4139 10.5243 499 106.2 123.798 475.351
1206 0 49.1999 10.2439 504 106.831 124.296 472.796
1207 0 51.2 13.3008 681 104.004 124.398 476.351
1208 0 52.2127 11.1084 580 108.095 123.697 476.347
1209 0 50.1466 13.1415 659 106.534 124.25 475.106
1210 0 54.1066 11.7176 634 106.407 122.718 480.442
1211 0 53.1283 11.9146 633 110.365 125.177 476.629
1212 0 54.2676 11.0195 598 112.497 126.717 476.132
1213 0 57.2142 12.7416 729 108.461 125.889 479.612
1214 0 59.2544 10.5815 627 113.348 124.63 478.435
1215 0 61.3786 9.59618 589 115.531 125.199 480.216
1216 0 61.3908 10.1644 624 116.008 123.968 477.264
1217 0 66.1753 11.9078 788 113.933 123.853 477.425
1218 0 70.7012 11.7678 832 113.185 123.429 475.684
1219 0 69.1864 13.124 908 113.018 122.999 476.664
1220 0 73.4508 14.0774 1034 111.212 122.499 471.255
1221 0 77.3663 15.4589 1196 109.059 121.464 471.987
1222 0 78.2638 15.9972 1252 109.3 120.814 467.423
1223 0 79.3898 12.7346 1011 115.496 122.307 466.592
1224 0 81.4254 12.625 1028 114.705 121.107 470.224
1225 0 84.2761 15.5323 1309 112.477 120.778 462.69
1226 0 86.2747 15.4275 1331 113.485 120.567 462.183
1227 0 89.3519 13.6203 1217 116.306 120.494 458.044
1228 0 92.367 14.8538 1372 113.493 119.768 459.201
1229 0 94.358 13.6078 1284 116.326 119.967 456.196
1230 1 51.0961 12.4667 637 117.925 121.033 475.721
1231 0 54.2601 14.965 812 112.945 120.903 475.442
1232 0 55.1432 14.7978 816 112.935 121.853 475.83
1233 0 56.0647 12.9672 727 117.549 121.426 466.746
1234 0 59.1595 12.3902 733 116.09 121.72 470.859
1235 0 61.068 15.2617 932 111.977 122.148 468.033
1236 0 62.0739 15.2399 946 112.549 124.253 462.966
1237 0 65.1468 18.0976 1179 104.148 123.217 469.316
1238 0 70.303 15.4047 1083 108.858 124.957 465.641
1239 0 69.0627 14.0742 972 112.767 124.796 460.042
1240 0 69.0965 16.1369 1115 109.864 124.987 461.983
1241 0 73.259 15.1517 1110 110.964 126.09 458.834
1242 0 74.1146 17.7158 1313 108.453 126.463 457.469
1243 0 75.1739 13.6218 1024 116.231 127.07 457.785
1244 0 78.0652 13.0532 1019 115.614 127.837 455.754
1245 0 80.168 16.216 1300 112.035 127.917 456.629
1246 0 80.3358 12.3108 989 119.495 128.817 455.268
1247 0 89.5592 13.0528 1169 113.829 129.546 462.512
1248 0 90.1537 17.2594 1556 110.451 128.97 455.96
1249 0 92.4216 16.3598 1512 112.3 129.092 453.096
1250 0 94.3635 14.1262 1333 116.698 128.331 452.288
1251 1 50.9326 13.9596 711 111.795 128.533 478.834
1252 0 52.5516 15.6227 821 110.598 127.206 477.301
1253 0 53.7028 17.7831 955 108.251 127.705 475.337
1254 0 51.4215 14.9743 770 114.518 127.175 476.448
1255 0 54.5352 13.6792 746 116.799 126.858 476.688
1256 0 56.3756 16.4078 925 112.31 125.921 477.631
1257 0 58.4143 15.373 898 113.97 124.453 477.994
1258 0 67.72 17.469 1183 107.557 124.344 477.661
1259 0 63.5963 14.4977 922 115.024 123.925 474.243
1260 0 66.6317 14.4076 960 115.474 122.792 476.594
1261 0 71.6603 16.3689 1173 111.23 121.361 473.529
1262 0 72.829 16.1611 1177 111.435 120.672 474.419
1263 0 73.9293 15.1631 1121 114.855 120.351 471.769
1264 0 76.7193 14.8854 1142 115.423 120.332 468.44
1265 0 75.9094 13.8718 1053 118.798 120.558 461.346
1266 0 79.4912 16.8698 1341 111.743 119.74 466.21
1267 0 79.4039 14.5333 1154 117.128 118.614 458.031
1268 0 84.538 17.6489 1492 110.42 119.771 461.168
1269 0 85.7727 19.505 1673 107.675 118.542 457.161
1270 0 88.7721 17.0549 1514 111.191 117.822 454.869
1271 0 91.9062 17.7137 1628 109.476 118.146 450.673
1272 0 95.9936 17.2095 1652 109.826 119.45 448.199
1273 1 47.6178 11.5713 551 106.472 120.158 473.488
1274 0 53.4242 14.7312 787 105.671 121.743 475.766
1275 0 53.0315 13.8031 732 108.287 120.658 472.5
1276 0 54.1356 12.561 680 111.007 121.597 467.515
1277 0 53.0991 12.1659 646 111.201 121.966 467.732
1278 0 56.1547 14.2286 799 108.227 123.019 466.717
1279 0 60.1818 14.1737 853 112.061 123.894 466.959
1280 0 61.1885 14.9375 914 111.784 123.574 462.939
1281 0 65.1258 16.0612 1046 108.994 124.437 461.105
1282 0 64.1759 14.4447 927 113.006 125.351 459.091
1283 0 70.1463 16.2375 1139 107.983 125.65 461.008
1284 0 71.1349 13.622 969 112.872 125.697 458.72
1285 0 74.1918 13.6673 1014 111.992 127.338 458.959
1286 0 76.1302 14.8561 1131 110.979 127.627 456.546
1287 0 78.2094 13.7707 1077 113.099 127.57 455.308
1288 0 82.158 14.6425 1203 111.691 129.2 455.456
1289 0 87.1912 12.3751 1079 114.133 129.5 454.565
1290 1 49.2951 14.5045 715 105.923 126.66 477.719
1291 0 49.6391 10.5965 526 111.951 125.268 474.941
1292 0 52.1249 22.1775 1156 93.474 124.607 474.461
1293 0 54.2412 13.145 713 105.75 124.073 473.811
1294 0 54.1435 13.9629 756 106.294 124.435 476.434
1295 0 57.2119 14.3502 821 105.699 123.72 474.622
1296 0 58.1494 13.7749 801 108.418 123.945 474.433
1297 0 59.116 16.4253 971 104.812 123.93 479.288
1298 0 61.2486 13.6819 838 109.767 124.649 476.979
1299 0 63.1951 11.33 716 113.599 123.573 476.487
1300 0 69.4002 17.0461 1183 104.252 122.496 476.864
1301 0 71.3021 15.0346 1072 108.201 123.507 476.257
1302 0 72.2179 14.5393 1050 110.859 121.885 473.603
1303 0 74.0742 12.6225 935 115.581 120.105 472.974
1304 1 39.0204 9.0978 355 116.13 119.324 489.561
1305 0 38.0325 11.8846 452 114.874 118.226 485.77
1306 0 40.0354 12.6138 505 113.349 118.438 486.083
1307 0 45.0599 11.9619 539 111.009 118.072 486.75
1308 0 44.2297 10.9655 485 106.412 117.621 478.388
1309 0 46.2882 13.3727 619 104.478 118.83 477.446
1310 0 46.3381 12.1283 562 104.852 117.665 479.569
1311 0 48.4269 13.6082 659 104.901 118.645 475.041
1312 0 47.4174 10.4181 494 112.008 118.117 474.698
1313 0 51.4276 15.4586 795 103.113 117.64 470.429
1314 0 53.427 13.2517 708 107.105 118.014 471.483
1315 0 54.3987 11.7098 637 110.078 116.545 467.989
1316 0 56.4264 13.6638 771 106.999 119.04 466.054
1317 0 58.2434 11.864 691 110.454 119.165 464.887
1318 0 60.3814 15.8327 956 105.684 119.347 465.608
1319 0 60.2555 11.6006 699 114.774 120.574 459.93
1320 0 64.2613 13.9742 898 110.194 121.398 458.107
1321 0 65.3823 13.8723 907 110.052 121.367 458.197
1322 0 70.2861 12.6198 887 110.71 123.245 451.777
1323 0 74.3465 13.195 981 107.898 123.039 454.86
1324 0 78.5088 13.9348 1094 107.058 123.823 455.176
1325 1 38.3256 9.91505 380 104.95 123.453 472.103
1326 0 41.3269 10.1387 419 105.308 122.955 470.842
1327 0 48.0876 15.4302 742 98.9636 125.546 471.987
1328 0 44.1788 12.6758 560 105.02 127.479 469.345
1329 0 44.7782 13.0421 584 104.63 125.599 471.58
1330 0 49.8126 14.2534 710 102.469 125.617 472.339
1331 0 49.6761 11.6555 579 105.926 125.088 473.793
1332 0 47.4432 10.4757 497 111.571 127.682 473.944
1333 0 50.1306 12.3078 617 112.75 127.734 476.042
1334 0 52.2005 12.1263 633 112.684 129.439 476.864
1335 0 53.1178 14.1949 754 110.41 127.826 474.301
1336 0 58.3567 14.617 853 106.435 127.649 478.944
1337 0 57.1368 13.3364 762 110.87 127.105 476.688
1338 0 57.2065 11.5197 659 112.885 125.763 479.598
1339 0 60.1359 13.8686 834 109.612 126.601 477.675
1340 0 63.1798 14.9098 942 108.018 126.032 477.039
1341 0 67.3697 16.4614 1109 104.796 125.684 477.874
1342 0 69.3492 16.2943 1130 104.966 125.835 477.095
1343 0 72.4313 13.4748 976 108.773 124.984 475.599
1344 0 71.3426 11.1154 793 113.994 124.584 472.295
1345 0 74.2996 12.0458 895 114.17 122.461 469.629
1346 0 78.5452 13.47 1058 112.095 123.37 465.966
1347 1 41.0842 8.93287 367 114.185 123.504 488.76
1348 0 43.1446 8.62218 372 117.164 122.909 484.194
1349 0 46.1372 10.4037 480 113.696 123.681 486.058
1350 0 44.1699 9.41818 416 115.752 123.216 485.349
1351 0 47.2449 13.6311 644 111.489 122.657 481.233
1352 0 50.3599 12.8277 646 108.37 121.571 480.204
1353 0 49.1783 10.0451 494 113.757 121.775 479.01
1354 0 51.1286 14.2777 730 108.558 121.244 475.932
1355 0 53.1169 15.1741 806 107.686 121.404 473.609
1356 0 54.0908 12.9597 701 109.68 120.757 474.32
1357 0 57.4908 13.463 774 108.276 120.89 473.465
1358 0 59.2256 13.9804 828 108.806 120.472 466.748
1359 0 62.1156 12.4928 776 110.701 120.878 467.87
1360 0 62.1973 16.9461 1054 104.657 121.453 467.573
1361 0 63.2911 13.193 835 110.256 121.612 463.093
1362 0 68.2366 15.329 1046 105.766 120.951 463.562
1363 0 68.1614 12.6611 863 110.577 122.373 463.204
1364 0 67.1182 12.3662 830 112.829 122.053 457.533
1365 0 69.2698 12.8772 892 111.943 123.053 458.644
1366 0 74.1891 15.5414 1153 106.846 124.679 456.333
1367 0 75.5518 14.3478 1084 109.473 123.732 454.693
1368 0 77.512 12.9786 1006 111.546 124.799 454.153
1369 0 80.3849 13.5224 1087 110.716 125.706 453.136
1370 0 82.5066 11.5021 949 114.173 126.434 451.244
1371 0 87.6418 14.6049 1280 110.869 125.88 448.77
1372 0 93.4928 16.6323 1555 106.147 127.031 452.657
1373 0 92.2496 12.8998 1190 113.004 126.897 449.077
1374 0 98.3241 12.7232 1251 112.884 128.206 448.435
1375 0 100.261 17.3846 1743 106.449 127.337 443.106
1376 0 103.438 19.4609 2013 102.811 127.837 454.174
1377 0 105.763 13.8044 1460 112.808 126.53 450.329
1378 0 109.124 13.2601 1447 115.547 125.354 443.462
1379 1 58.2699 13.283 774 109.554 122.638 470.475
1380 0 59.4208 15.9035 945 106.859 123.833 469.334
1381 0 60.2422 15.0061 904 108.3 123.436 473.57
1382 0 62.1387 14.9665 930 109.399 123.468 475.645
1383 0 63.1134 13.2301 835 114.837 122.407 471.188
1384 0 64.0935 12.435 797 116.107 123.429 474.231
1385 0 67.1091 13.9474 936 113.366 122.381 473.442
1386 0 71.2134 15.1516 1079 110.802 121.753 469.838
1387 0 75.2021 16.5421 1244 109.359 120.72 469.772
1388 0 77.114 11.697 902 116.523 119.503 472.761
1389 0 75.1391 16.8088 1263 109.617 119.455 469.959
1390 0 80.1648 12.2622 983 116.843 119.148 464.244
1391 0 85.4134 20.3598 1739 103.313 119.1 464.945
1392 0 86.2408 14.6334 1262 113.555 118.968 460.951
1393 0 86.3459 13.0753 1129 116.454 119.111 464.386
1394 0 86.3412 12.6475 1092 118.549 118.02 462.313
1395 0 91.3894 14.1264 1291 111.766 118.215 459.233
1396 1 51.1612 14.1318 723 109.73 117.828 477.386
1397 0 51.3399 12.3101 632 112.44 116.036 474.684
1398 0 54.5383 13.2934 725 116.375 119.749 476.941
1399 0 54.1445 12.9468 701 121.615 120.143 471.204
1400 0 57.0489 13.4797 769 118.619 119.342 473.082
1401 0 61.2724 13.3829 820 118.527 119.207 469.549
1402 0 62.2316 14.5585 906 117.468 118.908 466.417
1403 0 60.1764 11.3334 682 121.683 119.16 465.251
1404 0 63.0954 12.3939 782 120.926 119.619 461.986
1405 0 66.071 12.199 806 121.082 121.705 460.136
1406 0 69.1232 12.7598 882 119.383 123.033 459.891
1407 0 72.1149 16.2241 1170 113.392 123.003 458.846
1408 1 138.965 15.1765 2109 118.641 121.897 425.225
1409 1 76.2261 13.4075 1022 119.152 123.759 454.117
1410 0 77.1111 14.3559 1107 118.488 123.82 450.715
1411 0 83.1363 13.9771 1162 117.814 125.417 452.075
1412 0 88.0934 15.2679 1345 114.935 127.139 452.695
1413 1 42.044 10.8458 456 113.748 126.458 477.8
1414 0 44.0772 10.9353 482 113.55 127.523 475.579
1415 0 46.8264 12.7279 596 111.485 124.527 469.097
1416 0 46.8444 12.8511 602 112.849 124.002 467.42
1417 0 50.204 12.8078 643 111.792 123.474 472.714
1418 0 48.1276 10.8254 521 118.854 123.808 469.002
1419 0 51.2245 13.1578 674 113.709 123.522 470.086
1420 0 54.094 15.8243 856 109.171 125.375 474.605
1421 0 52.192 11.2661 588 117.602 124.162 473.884
1422 0 58.0889 16.492 958 107.928 124.09 476.522
1423 0 56.1109 13.5981 763 113.539 123.544 477.645
1424 0 58.2773 13.1955 769 113.303 123.038 474.637
1425 0 63.1905 15.7619 996 108.25 122.455 473.587
1426 0 64.1185 13.8182 886 111.429 123.497 470.177
1427 0 67.1925 18.0675 1214 104.685 120.849 477.177
1428 0 66.1646 12.5596 831 116.437 122.212 472.947
1429 0 67.1412 13.2556 890 116.539 119.784 471.194
1430 0 72.1222 15.1964 1096 110.896 119.586 473.737
1431 0 73.1557 13.4781 986 115.11 118.216 468.842
1432 0 73.191 13.0071 952 115.946 118.34 466.828
1433 0 78.3243 12.6525 991 115.141 117.51 467.247
1434 0 78.2092 12.2748 960 117.233 117.845 463.694
1435 0 83.1512 12.7238 1058 114.606 117.452 467.109
1436 0 84.2237 13.5235 1139 115.183 117.593 463.908
1437 0 86.1859 10.7326 925 117.32 116.585 464.528
1438 0 88.0871 13.7137 1208 113.573 117.026 461.223
1439 0 92.2809 12.3861 1143 114.857 115.804 456.966
1440 1 50.2291 12.4231 624 115.303 115.133 476.171
1441 0 53.1585 12.6038 670 114.37 115.578 472.022
1442 0 54.2668 11.4619 622 114.963 116.46 471.913
1443 0 59.1081 17.2396 1019 104.974 116.021 468.702
1444 0 57.1786 10.3535 592 117.213 116.426 464.446
1445 0 61.0553 15.7726 963 108.132 115.714 467.042
1446 0 63.0987 14.1841 895 110.994 117.025 464.13
1447 0 65.1408 16.1496 1052 108.543 116.894 458.674
1448 0 70.1944 16.3403 1147 107.119 117.447 459.371
1449 0 70.163 15.7063 1102 108.536 117.221 458.79
1450 0 72.176 15.4622 1116 110.788 118.344 456.038
1451 0 73.2216 16.0881 1178 110.014 119.84 455.22
1452 0 77.1703 18.7896 1450 105.342 119.908 455.423
1453 0 79.5433 14.7844 1176 111.269 120.929 454.96
1454 0 82.2475 14.8333 1220 112.484 120.696 452.324
1455 0 86.2729 16.2392 1401 111.078 121.896 449.647
1456 0 87.2834 14.2524 1244 114.433 122.289 454.543
1457 1 47.245 10.7948 510 120.825 121.386 469.98
1458 0 45.0299 9.32715 420 124.817 122.529 468.655
1459 0 52.0439 15.0642 784 113.755 123.214 470.375
1460 0 51.0624 12.8862 658 119.111 123.482 469.508
1461 0 51.1373 11.5767 592 120.747 125.431 472.394
1462 0 53.0874 14.4102 765 116.944 125.137 470.532
1463 0 57.1148 13.8143 789 118.999 124.259 472.335
1464 0 58.308 13.8746 809 118.839 123.654 471.347
1465 0 60.1336 12.4556 749 120.407 123.339 474.425
1466 0 61.3575 12.6635 777 120.049 122.925 474.422
1467 0 62.3547 13.1185 818 119.727 123.534 475.214
1468 0 62.5158 13.5326 846 117.907 122.871 477.064
1469 0 67.5598 12.8627 869 118.68 123.318 474.891
1470 0 68.6019 13.0026 892 121.235 123.481 471.524
1471 0 71.3669 12.751 910 121.452 122.619 471.337
1472 0 72.3414 11.3075 818 122.367 120.313 475.507
1473 0 80.4355 15.4534 1243 113.587 119.66 473.014
1474 1 43.0762 9.81981 423 120.73 118.137 485.778
1475 0 42.1322 12.532 528 117.705 118.123 485.42
1476 0 43.1454 11.0557 477 118.962 118.818 485.897
1477 0 46.5636 10.0078 466 120.736 119.131 480.824
1478 0 46.7054 13.5102 631 110.261 120.452 478.773
1479 0 49.7554 14.6919 731 114.755 119.181 474.317
1480 0 51.1854 13.4609 689 116.708 116.312 478.817
1481 0 52.0503 13.314 693 116.511 115.658 479.007
1482 0 52.1553 14.2651 744 115.841 115.657 474.288
1483 0 55.1142 12.7009 700 116.716 114.946 474.246
1484 0 58.1046 13.1143 762 115.075 115.184 473.638
1485 0 59.119 14.5469 860 114.076 115.876 472.544
1486 0 63.1207 11.9771 756 118.47 116.266 469.468
1487 0 61.1213 12.3689 756 118.747 116.907 469.212
1488 0 66.1554 12.5613 831 117.481 117.195 465.875
1489 0 66.0795 17.0249 1125 110.541 118.327 464.645
1490 0 69.1773 19.197 1328 106.326 118.664 465.947
1491 0 72.1853 14.8507 1072 113.854 118.257 458.347
1492 0 73.1432 15.5449 1137 112.594 118.447 460.573
1493 0 77.2335 17.8809 1381 109.408 120.09 455.605
1494 0 80.2103 15.1477 1215 112.979 119.435 457.28
1495 0 82.1822 14.188 1166 115.05 121.196 458.702
1496 0 85.1807 17.0579 1453 110.811 122.31 455.351
1497 1 45.1168 12.8999 582 114.022 121.615 472.56
1498 0 46.0998 8.52497 393 123.517 126.351 472.097
1499 0 48.1449 10.3438 498 111.116 124.532 469.321
1500 0 53.4764 15.4648 827 101.042 125.566 468.283
1501 0 46.4237 7.04382 327 116.654 124.963 463.177
1502 0 52.3449 10.4308 546 109.187 125.663 468.927
1503 0 55.1528 14.8496 819 104.093 125.121 472.081
1504 0 57.308 14.9543 857 104.916 126.07 469.55
1505 0 58.1405 13.3642 777 107.614 124.997 469.278
1506 0 60.2206 11.7236 706 110.337 125.49 467.854
1507 0 61.436 13.2658 815 109.156 125.528 467.056
1508 0 63.2663 12.8188 811 109.499 124.309 469.975
1509 0 63.3774 11.6288 737 111.254 126.031 469.038
1510 0 67.1666 14.9032 1001 107.15 124.639 468.79
1511 0 68.3813 13.4393 919 109.124 124.842 469.765
1512 0 70.6267 11.2847 797 113.433 124.415 465.215
1513 0 73.2468 14.4034 1055 108.477 123.692 466.503
1514 0 75.389 12.8401 968 111.673 123.142 464.877
1515 0 78.2419 13.6244 1066 111.19 122.578 464.144
1516 0 78.4045 13.8768 1088 111.108 121.622 462.52
1517 0 85.4592 14.8843 1272 108.091 121.083 458.892
1518 0 83.6218 13.2621 1109 111.84 119.655 459.218
1519 0 87.85 10.2675 902 115.082 120.069 458.358
1520 0 93.3705 14.2122 1327 110.497 119.346 453.188
1521 0 95.3886 12.968 1237 113.716 119.249 451.167
1522 0 97.3332 11.9486 1163 112.085 118.849 457.193
1523 0 100.681 9.62446 969 114.352 118.684 455.876
1524 0 102.522 11.7828 1208 112.906 118.387 447.846
1525 0 108.558 13.9741 1517 109.315 118.253 448.45
1526 0 111.28 12.3202 1371 112.765 117.412 440.865
1527 0 113.639 13.2789 1509 111.526 118.786 443.173
1528 0 119.456 15.085 1802 113.548 118.437 433.28
1529 0 122.271 13.8054 1688 113.009 116.906 440.137
1530 1 63.2265 13.8866 878 106.399 116.744 463.327
1531 0 61.0503 12.9893 793 108.145 117.977 462.417
1532 0 61.0503 12.8746 786 123.788 118.954 462.407
1533 0 67.1612 19.8775 1335 99.0779 119.732 459.055
1534 0 73.1835 12.0382 881 107.174 119.737 459.529
1535 0 71.1466 12.9451 921 109.797 119.112 452.318
1536 0 72.0914 12.6367 911 112.199 119.133 447.787
1537 0 76.2743 15.2345 1162 106.529 120.959 453.164
1538 0 80.2099 12.9411 1038 110.373 121.505 446.508
1539 0 84.324 14.2308 1200 107.934 122.11 447.398
1540 0 86.3375 10.8064 933 113.551 122.926 445.87
1541 0 89.4549 14.1188 1263 110.858 124.671 441.452
1542 0 92.6884 15.633 1449 105.325 125.05 449.36
1543 0 97.276 15.5845 1516 105.305 125.329 447.118
1544 1 49.0561 12.3328 605 105.084 126.651 465.587
1545 0 53.0935 14.4085 765 103.688 127.885 468.588
1546 0 52.1602 12.6917 662 105.202 128.778 468.279
1547 0 54.1878 12.143 658 105.774 126.375 468.602
1548 0 57.1817 14.9348 854 102.119 125.468 471.429
1549 0 60.4012 11.5726 699 110.478 125.681 470.039
1550 0 60.2688 12.0128 724 111.858 124.809 468.133
1551 0 62.1721 12.0955 752 112.56 125.128 468.751
1552 0 61.3054 12.8047 785 113.312 124.155 465.654
1553 0 64.1895 13.2576 851 112.636 123.051 466.081
1554 0 69.0631 14.3782 993 110.912 123.38 467.413
1555 0 69.1025 12.1124 837 114.726 123.091 466.068
1556 0 72.1636 12.7488 920 113.273 122.52 468.28
1557 0 75.2934 16.0041 1205 108.406 121.494 467.78
1558 0 78.2042 13.8611 1084 111.825 120.097 466.757
1559 0 79.3776 12.4972 992 113.929 119.418 466.057
1560 0 80.212 11.5319 925 115.299 119.699 464.494
1561 0 84.2867 13.0507 1100 113.695 118.59 460.777
1562 0 83.2458 11.46 954 115.68 119.607 462.39
1563 0 85.3878 10.6338 908 114.448 118.454 463.848
1564 1 49.0865 12.1011 594 106.582 120.343 481.424
1565 0 53.1694 19.8046 1053 101.17 121.407 481.959
1566 0 53.2329 15.8924 846 108.884 121.495 481.097
1567 0 54.1596 12.8324 695 114.476 121.245 477.334
1568 0 53.0734 13.1139 696 114.603 122.019 478.907
1569 0 59.1225 13.2944 786 112.066 121.819 474.696
1570 0 59.0922 14.1135 834 111.132 121.4 472.525
1571 0 61.169 18.2118 1114 102.969 119.666 468.284
1572 0 60.1528 13.4325 808 110.342 119.655 468.845
1573 0 66.1204 17.7555 1174 103.046 119.721 468.228
1574 0 65.2122 17.0827 1114 104.029 120.626 471.075
1575 0 65.1309 13.8797 904 110.361 120.447 462.639
1576 0 69.0999 12.0261 831 112.563 121.555 461.996
1577 0 71.1242 16.5485 1177 106.088 122.008 461.329
1578 0 76.1721 20.178 1537 101.817 122.37 458.273
1579 0 79.177 17.0883 1353 105.837 122.959 457.463
1580 0 81.2322 14.28 1160 109.993 123.929 454.532
1581 0 84.1417 15.6284 1315 108.149 124.103 455.503
1582 0 86.13 16.5099 1422 106.781 124.378 454.129
1583 0 88.2091 15.8714 1400 109.369 125.097 451.977
1584 0 93.1943 17.2865 1611 106.374 125.404 452.877
1585 0 94.1114 16.6292 1565 108.295 126.024 451.656
1586 1 50.1165 15.4041 772 110.005 126.956 470.304
1587 0 50.0539 14.1448 708 112.934 127.037 468.442
1588 0 53.4013 11.4417 611 112.959 124.029 468.002
1589 0 53.2288 10.1449 540 112.23 123.033 468.748
1590 0 60.1879 18.1764 1094 99.4378 123.764 470.654
1591 0 60.1824 15.9515 960 103.223 123.379 468.625
1592 0 62.3343 12.5292 781 107.686 123.761 471.922
1593 0 63.2653 16.0594 1016 102.695 124.286 471.647
1594 0 67.2712 15.3409 1032 104.575 123.65 468.26
1595 0 69.2067 13.4091 928 107.792 123.306 467.377
1596 0 71.1608 20.9244 1489 97.8549 124.044 471.163
1597 0 75.2674 14.8006 1114 106.096 123.75 467.215
1598 0 77.5292 16.2777 1262 104.567 124.269 467.022
1599 0 80.332 13.1455 1056 109.742 122.858 467.644
1600 0 82.3442 16.4675 1356 104.571 121.814 469.006
1601 0 85.1945 16.8673 1437 104.376 121.315 465.473
1602 0 91.5307 18.1469 1661 101.215 119.567 469.422
1603 0 92.5044 14.475 1339 108.271 119.515 461.562
1604 0 94.1798 15.4916 1459 107.781 118.183 458.875
1605 1 51.2924 16.7666 860 102.191 117.379 477.322
1606 0 55.2122 16.8441 930 100.658 117.026 480.165
1607 0 55.4604 14.8755 825 104.668 116.155 477.356
1608 0 55.416 16.2589 901 103.544 116.75 475.376
1609 0 60.3896 22.1396 1337 95.7622 116.821 472.829
1610 0 60.2986 15.3569 926 104.8 116.184 474.197
1611 0 63.2581 14.0693 890 106.602 115.798 471.924
1612 0 62.162 11.6952 727 111.624 115.772 470.919
1613 0 68.4621 14.7673 1011 105.242 119.321 467.654
1614 0 68.6381 15.1374 1039 106.187 118.051 462.388
1615 0 72.5697 18.9886 1378 99.775 118.877 461.643
1616 0 76.4716 16.9606 1297 101.931 119.621 458.608
1617 0 79.2353 21.3036 1688 97.9958 119.411 450.63
1618 0 77.2446 14.2923 1104 106.494 121.93 454.131
1619 0 82.3661 14.5934 1202 106.758 120.849 447.966
1620 0 84.1802 13.8512 1166 107.625 121.037 447.668
1621 1 47.1114 9.89145 466 108.253 123.212 470.358
1622 0 49.205 12.4784 614 104.542 123.06 468.692
1623 0 50.2293 14.175 712 102.67 123.815 467.796
1624 0 48.0709 10.5469 507 111.767 123.783 464.099
1625 0 55.2428 15.6943 867 102.208 121.645 468.814
1626 0 54.1524 14.0899 763 104.911 121.142 470.072
1627 0 57.3069 16.4204 941 101.95 121.927 468.085
1628 0 57.1827 11.6644 667 108.198 123.043 470.172
1629 0 61.2237 13.5732 831 104.525 123.164 468.531
1630 0 60.185 14.7213 886 103.586 123.183 469.563
1631 0 61.2914 15.3692 942 102.33 123.83 469.56
1632 0 64.248 15.2223 978 102.556 123.686 469.963
1633 0 63.1977 11.5985 733 109.119 123.861 466.117
1634 0 69.1353 14.3921 995 103.27 124.238 469.596
1635 0 72.3258 16.4257 1188 100.62 125.814 470.277
1636 0 73.1998 15.3689 1125 102.297 123.896 466.404
1637 0 74.2701 15.5783 1157 102.059 124.089 470.768
1638 0 77.3831 14.2796 1105 104.252 123.544 466.762
1639 0 79.29 13.1921 1046 104.847 122.859 474.53
1640 0 80.3406 11.8869 955 107.673 124.088 468.597
1641 0 86.2944 15.9454 1376 101.014 122.565 469.127
1642 0 83.296 11.3691 947 108.787 123.395 465.045
1643 0 87.4849 12.0707 1056 107.675 122.091 464.827
1644 0 93.4836 14.7192 1376 103.95 120.606 465.12
1645 0 93.525 13.9214 1302 106.502 120.427 454.416
1646 0 95.521 13.5468 1294 106.555 119.587 458.445
1647 0 99.3464 14.0015 1391 104.942 119.99 459.142
1648 1 56.1966 14.8408 834 101.618 118.868 479.873
1649 0 57.1808 13.7459 786 103.55 117.749 473.131
1650 0 58.1648 13.3242 775 104.391 118.088 473.525
1651 0 64.4892 13.0254 840 104.249 116.912 474.029
1652 0 62.1511 14.0303 872 104.761 116.525 470.546
1653 0 62.0845 11.3877 707 108.035 116.757 468.393
1654 0 66.3453 16.7608 1112 99.7671 116.879 470.598
1655 0 70.2865 15.9775 1123 99.9208 116.638 467.906
1656 0 73.1775 15.1139 1106 101.631 115.622 461.826
1657 0 73.3268 11.701 858 106.613 114.978 461.035
1658 0 78.2229 13.3593 1045 103.737 115.015 462.455
1659 0 80.5124 14.7555 1188 102.303 115.276 452.467
1660 0 84.4516 13.8304 1168 102.1 115.982 455.766
1661 0 90.4331 8.99007 813 107.923 116.454 458.581
1662 1 45.1219 15.0038 677 100.939 115.555 471.161
1663 0 45.1219 15.026 678 125.609 114.537 471.198
1664 0 47.2456 13.6521 645 103.558 118.344 470.488
1665 0 49.3788 12.3737 611 105.355 117.82 466.987
1666 0 48.1652 12.8724 620 108.085 118.681 465.668
1667 0 52.1542 13.4026 699 107.522 119.216 467.318
1668 0 52.2678 13.3352 697 108.402 119.76 466.554
1669 0 53.177 13.6525 726 108.083 119.649 463.178
1670 0 56.0915 14.2802 801 107.176 121.154 463.866
1671 0 55.1316 12.2797 677 111.625 120.91 466.938
1672 0 59.1494 16.9402 1002 104.596 121.935 466.991
1673 0 58.1154 13.0258 757 111.785 121.531 466.005
1674 0 61.1442 12.9693 793 112.503 122.658 463.594
1675 0 64.214 15.168 974 108.145 122.903 466.413
1676 0 65.1047 15.5442 1012 108.094 122.731 466.628
1677 0 64.1494 12.4241 797 114.353 123.542 467.877
1678 0 69.0872 15.1258 1045 109.601 124.65 469.987
1679 0 71.2179 13.0866 932 114.253 123.097 467.191
1680 0 71.3622 13.1582 939 116.068 122.611 463.941
1681 0 74.3208 13.6839 1017 114.161 122.248 467.952
1682 0 76.1877 13.3092 1014 117.04 122.055 462.333
1683 0 82.1816 12.5819 1034 119.077 122.009 463.868
1684 0 85.2791 16.4988 1407 112.857 121.781 467.097
1685 1 46.0569 10.7259 494 120.322 120.385 482.895
1686 0 44.1165 8.34154 368 125.158 120.239 482.731
1687 0 47.2526 11.0047 520 120.956 120.625 482.523
1688 0 50.444 12.3107 621 115.443 122.464 482.195
1689 0 51.3318 13.9874 718 109.947 123.351 480.598
1690 0 52.1296 11.74 612 114.098 122.19 479.108
1691 0 52.0406 11.76 612 115.136 121.4 477.743
1692 0 56.0468 15.4157 864 109.285 121.253 478.748
1693 0 56.1072 11.9414 670 116.4 120.813 476.616
1694 0 56.1484 13.3218 748 115.703 121.19 473.44
1695 0 59.1735 13.9927 828 114.098 119.583 471.876
1696 0 60.2045 11.6769 703 119.112 119.852 471.37
1697 0 62.1306 14.4534 898 114.127 119.465 470.033
1698 0 62.0669 12.2287 759 117.791 120.123 467.469
1699 0 66.1624 16.5804 1097 110.291 119.947 467.665
1700 0 65.0531 16.5557 1077 112.515 120.775 463.873
1701 0 70.0965 15.7069 1101 111.711 120.954 466.144
1702 0 71.1193 15.1014 1074 114.614 121.181 458.554
1703 0 72.1659 13.6075 982 117.976 120.643 460.627
1704 0 75.121 14.5099 1090 116.214 121.407 459.52
1705 0 73.096 11.4097 834 124.028 122.168 452.781
1706 0 79.1178 14.2446 1127 117.303 122.891 454.665
1707 0 82.1864 13.2869 1092 117.53 122.59 454.233
1708 0 83.225 12.7125 1058 119.39 123.712 448.38
1709 0 89.1862 14.5762 1300 115.925 123.838 451.012
1710 1 47.0361 11.5656 544 121.893 125.158 466.691
1711 0 51.0591 14.8651 759 115.029 125.34 465.256
1712 0 52.0329 14.5677 758 116.495 121.131 466.398
1713 0 54.1157 14.3581 777 116.602 122.56 467.571
1714 0 54.0896 13.0894 708 119.321 122.199 469.013
1715 0 56.0806 13.231 742 119.836 122.85 468.252
1716 0 56.1215 13.5599 761 120.254 122.606 466.442
1717 0 59.1252 14.5116 858 117.411 123.092 469.61
1718 0 63.1014 14.7699 932 116.564 123.692 467.605
1719 0 65.0323 12.0094 781 120.46 124.634 470.428
1720 0 64.1459 10.6008 680 125.381 123.994 466.779
1721 0 66.0942 13.4505 889 121.367 124.331 466.607
1722 0 70.0514 14.6321 1025 118.763 123.015 467.39
1723 0 74.0993 15.5872 1155 116.542 122.497 465.678
1724 0 75.2621 13.247 997 119.793 122.759 468.556
1725 0 78.5146 15.9843 1255 115.736 122.485 463.39
1726 0 80.1526 15.6576 1255 117.043 122.395 466.245
1727 0 83.1409 15.4196 1282 117.797 123.2 464.864
1728 0 83.2381 15.9663 1329 117.55 123.051 465.502
1729 0 89.117 14.509 1293 119.111 121.324 467.391
1730 0 91.3398 15.3931 1406 118.276 121.432 460.153
1731 1 49.1032 12.6672 622 118.386 119.473 485.334
1732 0 51.15 12.5318 641 119.95 119.911 481.619
1733 0 53.2453 14.8558 791 116.976 120.047 477.178
1734 0 54.6326 14.6067 798 111.732 121.689 476.179
1735 0 54.4516 13.8472 754 113.897 122.175 475.511
1736 0 57.3627 11.837 679 116.47 120.987 475.47
1737 0 56.1597 17.9666 1009 108.477 120.202 474.185
1738 0 58.0628 13.3304 774 115.64 120.189 471.076
1739 0 61.1048 12.2085 746 117.338 120.166 471.731
1740 0 62.3049 14.0438 875 114.089 119.8 469.266
1741 0 64.1939 13.9266 894 115.194 120.358 466.832
1742 0 65.2724 13.482 880 116.764 119.87 464.994
1743 0 66.274 12.388 821 118.619 120.216 463.917
1744 0 70.1246 14.0607 986 115.438 120.564 464.517
1745 0 73.3662 17.3377 1272 109.85 120.443 462.863
1746 0 74.1254 15.5952 1156 114.34 121.32 455.646
1747 0 76.253 18.1239 1382 111.605 122.325 455.613
1748 0 76.1954 14.4891 1104 117.586 121.499 454.998
1749 0 84.2483 15.6798 1321 114.151 122.789 455.799
1750 0 86.2895 15.7145 1356 115.703 122.807 452.572
1751 0 85.2286 14.8424 1265 118.589 122.844 450.086
1752 0 90.3159 16.5198 1492 115.476 123.704 447.001
1753 0 92.161 15.8852 1464 116.448 124.122 444.646
1754 0 94.1278 16.9663 1597 115.136 124.96 442.812
1755 1 52.0573 13.7541 716 119.197 126.694 466.205
1756 0 52.0884 13.0547 680 121.537 127.904 466.166
1757 0 53.1677 12.3383 656 120.761 125.506 466.518
1758 0 54.6533 17.0895 934 112.363 125.651 462.872
1759 0 57.3209 14.288 819 115.802 124.443 466.333
1760 0 61.1458 15.0297 919 113.441 124.69 466.336
1761 0 60.2599 12.3465 744 117.824 125.039 467.292
1762 0 65.2681 16.8229 1098 110.221 125.054 466.052
1763 0 65.2827 14.5215 948 114.694 125.763 464.958
1764 0 70.2113 14.8979 1046 112.574 124.554 467.183
1765 0 71.1068 17.4808 1243 109.699 123.858 464.63
1766 0 73.2312 14.3245 1049 114.129 123.725 466.112
1767 0 78.1754 14.3395 1121 114.152 123.911 465.662
1768 0 78.1754 14.4419 1129 142.547 122.912 465.537
1769 0 81.3541 16.5204 1344 110.681 123.377 464.353
1770 0 84.2797 14.7011 1239 114.197 123.462 462.489
1771 0 86.2608 11.8362 1021 119.232 121.384 463.834
1772 0 92.1052 17.024 1568 110.497 121.943 462.342
1773 0 93.3004 16.0771 1500 113.133 120.341 462.666
1774 0 97.2153 18.4745 1796 108.951 120.068 462.568
1775 0 101.241 17.2658 1748 110.037 119.22 463.996
1776 0 103.476 14.8633 1538 115.765 119.311 455.632
1777 0 108.44 14.9945 1626 114.587 118.671 455.232
1778 0 108.316 13.516 1464 118.9 118.029 451.076
1779 0 114.441 16.5325 1892 112.626 117.474 453.007
1780 0 116.448 14.6847 1710 115.961 117.143 448.777
1781 0 119.486 14.6293 1748 115.677 117.986 446.431
1782 1 65.1086 12.8247 835 114.957 117.354 471.205
1783 0 71.1747 14.6822 1045 110.933 117.289 469.214
1784 0 73.2484 15.8502 1161 109.431 117.194 468.852
1785 0 72.1599 13.5117 975 114.23 116.243 463.809
1786 0 76.1873 13.2174 1007 113.663 116.947 463.355
1787 0 77.314 13.7621 1064 113.34 118.425 457.943
1788 0 81.3039 17.2316 1401 108.015 117.258 456.829
1789 0 84.1588 14.8529 1250 111.402 117.361 459.026
1790 0 92.2696 10.8486 1001 117.32 119.049 459.187
1791 0 89.1852 12.7151 1134 115.758 117.695 454.298
1792 0 93.2606 14.0359 1309 113.123 118.593 452.699
1793 0 94.5218 13.9121 1315 114.424 118.352 448.941
1794 0 99.1364 16.1495 1601 110.604 120.812 447.27
1795 0 100.347 13.0149 1306 116.867 120.156 444.911
1796 0 103.29 14.4351 1491 115.282 121.362 443.357
1797 0 109.275 15.2093 1662 112.194 121.982 447.257
1798 0 110.301 15.0316 1658 112.347 122.498 443.894
1799 0 112.252 14.9574 1679 113.49 122.385 441.936
1800 0 114.307 14.4174 1648 114.308 123.592 440.711
1801 0 117.399 14.3357 1683 115.061 124.038 436.757
1802 0 125.238 13.2228 1656 115.225 125.551 442.559
1803 0 129.388 13.7571 1780 113.08 125.077 444.121
1804 1 69.1729 14.3553 993 114.322 123.864 463.532
1805 0 73.1529 14.0254 1026 115.336 123.035 463.864
1806 0 74.6171 14.1389 1055 115.574 125.318 462.08
1807 0 76.3483 17.7345 1354 109.697 125.358 465.216
1808 0 82.3123 17.7981 1465 106.553 123.494 469.005
1809 0 82.2017 14.5009 1192 113.837 123.814 464.414
1810 0 84.421 13.4801 1138 115.882 123.192 462.902
1811 0 89.305 15.2735 1364 113.512 124.449 463.568
1812 0 91.4612 14.5089 1327 114.907 122.74 464.2
1813 0 93.5753 13.401 1254 117.358 123.766 464.719
1814 0 93.5753 13.4117 1255 156.32 123.764 464.768
1815 0 100.496 16.0703 1615 115.067 122.963 458.244
1816 0 102.486 15.0362 1541 117.192 122.379 460.459
1817 0 105.285 14.6555 1543 116.316 121.84 463.627
1818 0 112.481 19.1588 2155 109.715 120.441 457.325
1819 0 111.341 13.4362 1496 118.431 119.291 456.31
1820 0 118.816 19.8879 2363 108.011 119.173 451.688
1821 0 123.587 17.3886 2149 111.033 118.613 448.195
1822 1 67.2945 18.5899 1251 107.087 118.098 476.554
1823 0 67.2389 12.9092 868 116.478 117.189 474.158
1824 0 72.4985 16.9245 1227 109.9 117.369 473.727
1825 0 72.3954 19.2001 1390 106.353 116.893 469.988
1826 0 72.3846 12.3507 894 117.174 117.163 467.442
1827 0 75.4612 15.942 1203 111.628 116.88 460.429
1828 0 79.3712 17.1725 1363 109.08 117.064 461.941
1829 0 80.2988 18.0077 1446 109.387 117.284 458.327
1830 0 85.4095 15.3262 1309 111.283 116.855 461.542
1831 0 87.4866 19.3401 1692 107.049 117.817 457.73
1832 0 89.4213 16.3608 1463 111.141 116.835 456.058
1833 0 91.5485 14.6152 1338 115.821 117.626 451.812
1834 0 96.5297 19.9731 1928 108.057 119.251 443.826
1835 0 100.643 22.7636 2291 104.883 119.024 446.003
1836 0 98.6957 16.1507 1594 115.348 119.879 443.283
1837 0 101.381 12.2212 1239 120.51 119.215 447.675
1838 0 103.771 16.0932 1670 115.648 121.461 443.069
1839 0 105.644 14.6057 1543 117.082 122.004 446.448
1840 0 110.971 12.0392 1336 123.537 123.064 436.59
1841 0 117.031 19.6016 2294 112.816 123.701 433.211
1842 0 120.182 17.2655 2075 114.238 124.024 440.178
1843 0 125.564 17.5927 2209 115.38 123.39 433.991
1844 0 130.472 16.0188 2090 117.748 124.652 431.1
1845 1 73.307 12.3181 903 113.315 126.055 458.289
1846 0 77.425 13.3807 1036 111.057 127.025 451.342
1847 0 76.131 15.4471 1176 110.969 127.176 454.558
1848 0 80.3264 15.6984 1261 111.106 127.679 453.569
1849 0 85.3976 13.2556 1132 113.569 127.478 456.329
1850 0 86.3583 14.2546 1231 111.385 127.038 457.798
1851 0 90.5924 15.0344 1362 110.029 127.535 457.368
1852 0 92.4016 13.2249 1222 114.155 125.588 455.127
1853 0 93.423 13.1124 1225 114.475 126.588 456.126
1854 0 95.3565 11.4308 1090 117.21 125.356 452.347
1855 0 100.508 13.7402 1381 114.245 125.339 449.798
1856 0 105.611 16.9016 1785 109.269 125.312 445.312
1857 0 108.461 15.8029 1714 110.824 123.865 447.974
1858 0 110.727 15.3801 1703 114.47 123.097 440.425
1859 0 115.575 14.1639 1637 117.946 122.768 444.254
1860 1 65.6491 11.5158 756 113.545 122.177 470.615
1861 0 66.5088 11.7729 783 113.17 121.811 469.045
1862 0 68.5353 15.4957 1062 110.85 120.194 466.531
1863 0 72.4284 15.7259 1139 111.287 119.759 468.266
1864 0 73.2142 14.1093 1033 114.297 118.093 467.344
1865 0 77.5625 15.3683 1192 115.508 117.407 465.938
1866 0 80.4126 18.2559 1468 111.287 117.605 464.948
1867 0 81.3645 14.8836 1211 117.632 118.141 459.939
1868 0 84.414 16.2177 1369 114.991 117.731 460.896
1869 0 87.9973 13.6822 1204 117.987 117.301 460.681
1870 0 90.7378 17.3577 1575 111.527 117.683 458.248
1871 0 90.6127 13.6956 1241 119.699 117.321 453.343
1872 0 95.6602 16.2241 1552 114.227 118.119 455.198
1873 0 97.6414 15.3828 1502 116.29 117.836 450.429
1874 0 101.514 14.5596 1478 117.149 118.854 451.071
1875 0 102.721 13.853 1423 119.741 118.29 442.961
1876 0 106.557 14.8465 1582 116.329 118.553 446.11
1877 0 110.682 15.5038 1716 115.255 119.334 441.8
1878 0 114.539 13.9603 1599 117.266 119.612 438.567
1879 0 116.566 13.1943 1538 116.49 120.218 431.246
1880 1 64.6482 11.8333 765 111.461 121.527 454.843
1881 0 65.2229 10.7631 702 114 120.487 457.151
1882 0 70.0723 10.8888 763 114.106 120.706 454.988
1883 0 72.1038 12.593 908 111.142 120.36 456.34
1884 0 73.2323 11.129 815 112.714 121.58 457.849
1885 0 75.1858 11.4649 862 113.451 121.738 453.857
1886 0 78.1826 12.5092 978 110.455 121.372 451.987
1887 0 81.2198 13.6051 1105 110.135 122.93 448.043
1888 0 87.1864 14.8762 1297 107.237 122.074 450.357
1889 0 88.1494 14.3847 1268 108.161 124.11 448.319
1890 0 90.3665 13.1133 1185 109.217 123.986 452.3
1891 0 96.1778 11.9986 1154 111.066 124.137 445.756
1892 0 96.1756 9.91936 954 113.478 122.914 450.353
1893 0 102.125 16.1567 1650 105.089 124.778 449.277
1894 1 56.0437 13.8285 775 104.986 123.975 470.534
1895 0 55.1467 10.6625 588 109.988 124.24 472.032
1896 0 61.2846 10.3125 632 108.71 127.381 473.267
1897 0 62.1037 11.7545 730 108.025 127.538 474.511
1898 0 66.0504 11.9908 792 107.407 127.005 474.828
1899 0 67.0597 17.984 1206 99.8076 126.012 469.178
1900 0 65.1659 9.11519 594 112.3 123.372 474.155
1901 0 67.0993 10.5217 706 112.207 120.602 471.97
1902 0 72.1082 13.979 1008 106.323 121.335 475.755
1903 0 73.1899 13.4172 982 108.811 120.08 470.772
1904 0 71.1697 9.24551 658 116.234 118.017 469.315
1905 0 78.163 10.7852 843 111.58 117.203 465.573
1906 0 86.3248 10.4373 901 110.174 117.074 467.19
1907 0 83.3838 8.22701 686 110.934 117.067 462.353
1908 1 47.0486 13.1141 617 101.878 116.559 477.689
1909 0 47.1054 12.3765 583 103.281 115.72 478.341
1910 0 49.1156 11.8496 582 105.022 116.046 476.447
1911 0 50.2173 9.08053 456 105.577 116.862 473.866
1912 0 52.3033 7.8389 410 106.92 117.949 468.412
1913 0 53.4585 14.4224 771 98.5266 116.999 468.77
1914 0 54.0691 12.8724 696 101.207 116.547 467.684
1915 0 55.0551 13.9497 768 100.214 117.294 469.236
1916 0 56.325 11.0963 625 102.866 119.635 470.6
1917 0 57.1485 14.4536 826 105.994 120.122 469.645
1918 0 59.3027 13.6081 807 107.004 121.135 468.973
1919 0 58.0794 9.14266 531 111.725 121.401 471.614
1920 0 60.0915 10.6005 637 111.856 121.493 467.105
1921 0 62.4501 12.538 783 109.123 122.232 465.526
1922 0 64.4058 10.1078 651 113.27 121.892 458.948
1923 0 68.679 12.7696 877 109.619 122.391 463.112
1924 0 69.2793 12.4713 864 111.209 122.24 460.925
1925 0 74.5456 15.4402 1151 106.434 121.799 459.148
1926 0 75.1513 10.7117 805 112.671 123.083 462.461
1927 0 79.214 15.8432 1255 107.314 122.479 454.537
1928 0 79.2295 13.9847 1108 110.431 123.629 455.661
1929 0 81.3 13.8622 1127 110.434 124.967 457.201
1930 0 86.1795 13.4139 1156 111.014 125.25 455.109
1931 0 87.4855 15.3397 1342 109.476 124.301 450.254
1932 0 91.3855 16.031 1465 109.008 126.159 454.284
1933 0 96.1841 16.6452 1601 106.807 125.249 454.66
1934 0 97.5548 18.1334 1769 105.797 125.767 453.981
1935 0 101.684 14.1221 1436 112.221 125.061 448.731
1936 1 53.4786 12.2853 657 110.601 126.778 473.726
1937 0 54.2851 13.8712 753 115.622 125.167 471.088
1938 0 55.3695 13.7621 762 116.928 126.783 468.99
1939 0 60.4858 14.7473 892 112.988 125.2 475.334
1940 0 60.4016 13.8904 839 114.613 124.428 471.853
1941 0 62.3659 13.2925 829 114.647 123.901 474.349
1942 0 64.4684 15.4029 993 112.679 125.09 468.186
1943 0 66.2872 14.5126 962 113.828 124.247 469.563
1944 0 69.3998 13.6023 944 114.709 123.352 469.725
1945 0 74.2589 15.9173 1182 110.119 120.795 467.871
1946 0 72.3736 9.93456 719 118.896 121.434 468.943
1947 0 78.7203 14.253 1122 111.25 120.594 464.543
1948 0 81.9493 13.9232 1141 111.897 120.311 458.883
1949 0 88.1466 15.3494 1353 108.585 121.029 455.023
1950 0 88.6376 18.4233 1633 105.749 120.464 455.309
1951 0 89.8593 16.0918 1446 110.398 118.413 451.952
1952 0 98.825 13.5087 1335 112.694 117.89 456.148
1953 0 95.4948 14.9013 1423 112.145 118.625 451.065
1954 0 98.4823 17.4752 1721 108.117 117.765 448.336
1955 0 102.802 17.0328 1751 108.402 117.951 447.405
1956 0 105.769 21.9346 2320 102.099 116.958 440.716
1957 0 108.859 18.3816 2001 105.936 117.263 443.892
1958 1 56.299 13.7835 776 112.928 118.168 460.857
1959 0 59.543 11.773 701 115.429 118.215 461.046
1960 0 58.9266 14.4926 854 112.459 118.792 457.527
1961 0 62.3806 13.6901 854 111.906 119.504 459.364
1962 0 61.3208 12.4754 765 112.617 120.124 461.766
1963 0 68.0082 14.3659 977 109.87 119.377 452.652
1964 0 74.2219 17.286 1283 103.997 119.229 451.649
1965 0 73.999 16.5948 1228 106.815 120.692 449.816
1966 0 73.6411 15.236 1122 110.134 121.091 445.947
1967 0 75.5729 15.2833 1155 109.602 121.954 446.48
1968 0 84.1342 17.4483 1468 105.362 122.341 444.647
1969 0 81.7363 13.2499 1083 112.542 123.934 442.165
1970 0 89.0476 15.6995 1398 108.504 124.676 439.308
1971 0 92.957 18.0513 1678 104.858 125.131 437.5
1972 0 95.3198 13.7642 1312 112.255 125.591 438.995
1973 0 97.9502 16.0081 1568 108.858 125.114 436.958
1974 0 102.566 18.6417 1912 104.053 125.42 437.059
1975 0 105.789 15.5214 1642 108.713 127.054 437.909
1976 0 108.657 16.7499 1820 108.282 126.81 432.127
1977 1 59.5248 13.0366 776 109.42 126.052 460.826
1978 0 62.3577 13.8556 864 109.69 125.464 462.012
1979 0 61.3604 12.3043 755 109.05 125.628 462.732
1980 0 64.2815 11.7452 755 110.507 125.346 462.767
1981 0 67.3505 13.7193 924 106.153 125.017 463.973
1982 0 69.2609 10.2944 713 112.37 124.494 460.525
1983 1 139.597 13.8756 1937 111.711 124.028 428.232
1984 1 76.5021 12.052 922 109.041 124.658 457.038
1985 0 80.369 14.309 1150 105.844 123.657 458.227
1986 0 83.4177 15.1167 1261 104.626 124.662 458.204
1987 0 84.5926 11.1121 940 111.167 122.298 451.484
1988 0 90.7287 12.1461 1102 109.338 123.15 451.34
1989 0 94.4805 13.3467 1261 108.106 120.952 453.442
1990 0 95.6118 14.8308 1418 106.544 121.829 450.126
1991 0 97.578 8.92619 871 114.338 121.104 450.245
1992 0 103.465 15.0195 1554 105.12 120.734 450.997
1993 0 105.332 11.9432 1258 113.63 120.132 447.125
1994 1 63.2048 13.9072 879 106.001 121.744 467.663
1995 0 65.2383 16.5394 1079 101.888 120.225 469.429
1996 0 65.3195 13.8856 907 107.591 118.51 464.277
1997 0 69.3519 16.3802 1136 99.9762 120.687 470.433
1998 0 67.1289 11.7833 791 109.863 121.34 459.344
1999 0 70.2816 12.6918 892 107.9 120.337 459.871
2000 0 73.1319 12.1835 891 108.439 121.075 454.388
2001 0 76.1475 13.2637 1010 105.54 120.034 461.5
2002 0 74.2454 11.7718 874 111.452 120.866 454.501
2003 0 82.1502 20.7547 1705 96.1132 120.152 456.687
2004 0 81.1899 14.0411 1140 106.602 122.487 451.513
2005 0 84.2183 11.3515 956 111.907 122.946 448.759
2006 0 85.2636 10.9777 936 111.558 121.043 444.428
2007 0 91.1157 14.7066 1340 105.611 123.216 447.082
2008 0 94.2586 15.1922 1432 105.413 122.943 441.832
2009 0 97.1719 12.2155 1187 109.547 122.927 442.867
2010 0 100.275 16.1556 1620 104.313 124.088 439.069
2011 0 103.458 13.0874 1354 107.817 124.55 441.784
2012 1 48.3087 8.46638 409 113.907 123.616 459.161
2013 0 56.4845 8.95821 506 107.158 123.409 455.958
2014 0 57.5284 10.4296 600 103.838 125.432 459.987
2015 0 56.2486 14.4004 810 100.022 126.364 454.848
2016 0 63.1924 11.4413 723 102.29 127.302 455.047
2017 0 63.2801 10.7143 678 103.118 127.742 455.049
2018 0 66.1276 10.7066 708 103.384 128.229 454.791
2019 0 70.256 9.82122 690 104.9 128.338 455.98
2020 0 71.1544 14.588 1038 99.3247 124.429 460.127
2021 0 72.0973 11.9838 864 102.295 124.27 460.963
2022 0 75.1502 10.5389 792 104.71 124.069 461.965
2023 0 81.2315 14.0709 1143 100.365 124.908 463.83
2024 0 83.3249 12.6613 1055 102.684 123.509 459.973
2025 1 47.1142 10.2941 485 106.637 122.216 476.274
2026 0 49.1149 12.1145 595 101.729 122.644 478.252
2027 0 49.1501 11.0274 542 105.862 121.367 478.221
2028 0 53.1429 10.9892 584 105.344 121.842 475.784
2029 0 55.4366 10.4624 580 103.286 121.483 479.278
2030 0 56.067 12.0748 677 99.3176 120.269 479.749
2031 0 60.2432 11.2046 675 99.9304 120.37 477.486
2032 0 61.0521 12.0389 735 99.1755 119.522 473.493
2033 0 66.2065 14.4095 954 95.6027 118.825 476.651
2034 0 65.068 11.4957 748 100.865 119.094 470.842
2035 1 114.471 12.3787 1417 103.615 118.501 451.226
2036 0 119.587 14.1403 1691 100.622 118.517 448.71
2037 0 122.745 13.361 1640 102.965 118.29 442.02
2038 0 123.946 10.803 1339 104.51 117.909 446.872
2039 0 120.474 10.9816 1323 106.277 118.045 439.828
2040 1 199.694 12.6794 2532 109.551 116.841 406.393
2041 1 210.292 9.32039 1960 114.917 118.32 396.1
2042 0 212.013 11.9002 2523 111.868 117.719 393.242
2043 1 77.3711 12.3173 953 102.781 116.684 462.06
2044 0 82.2319 14.3497 1180 99.2941 116.604 463.686
2045 0 82.5865 11.1398 920 105.325 116.909 458.375
2046 0 83.5052 10.5622 882 107.516 117.197 452.882
2047 0 83.6713 11.7483 983 104.837 119.138 453.785
2048 0 91.8626 15.447 1419 101.724 119.363 446.81
2049 0 92.7951 12.7808 1186 106.616 120.759 443.531
2050 0 97.9658 13.0045 1274 106.552 120.768 441.971
2051 1 53.3866 12.8497 686 104.799 121.845 461.192
2052 0 53.5307 8.8921 476 110.521 121.943 460.498
2053 0 55.8942 13.1141 733 105.662 123.555 456.01
2054 0 61.7039 13.3217 822 104.936 123.822 459.297
2055 0 61.5424 14.2341 876 104.257 124.957 452.637
2056 0 64.3266 18.3283 1179 98.3172 125.276 456.108
2057 0 64.4635 16.2883 1050 102.357 126.754 456.319
2058 0 65.1891 13.1771 859 106.262 126.003 455.837
2059 0 68.2238 15.6397 1067 103.74 127.828 456.897
2060 0 70.1468 12.1745 854 113.283 128.54 458.139
2061 0 72.1094 12.9109 931 112.943 128.718 455.976
2062 0 75.2207 12.5896 947 112.759 128.492 457.042
2063 0 78.24 16.6028 1299 105.226 128.26 459.343
2064 0 76.1312 11.1781 851 115.672 128.483 455.722
2065 0 83.2281 18.191 1514 102.767 127.68 460.647
2066 0 85.083 13.4575 1145 110.965 128.057 455.865
2067 0 83.2213 11.9561 995 113.167 126.27 456.075
2068 0 88.3361 13.392 1183 110.865 127.516 456.651
2069 1 171.959 14.9163 2565 113.039 126.342 413.991
2070 1 152.141 7.84796 1194 117.404 125.892 445.604
2071 1 97.491 9.88809 964 117.698 124.89 449.899
2072 0 102.848 11.6385 1197 115.147 122.466 451.033
2073 0 102.957 11.364 1170 116.36 123.181 451.086
2074 0 112.072 13.9107 1559 112.155 121.434 447.412
2075 1 60.0717 11.0035 661 112.389 123.135 470.101
2076 0 64.9491 16.0587 1043 101.703 117.502 473.898
2077 0 64.9491 15.8894 1032 125.731 114.467 473.986
2078 0 67.5266 14.5276 981 103.814 116.407 470.987
2079 0 67.4787 13.6932 924 106.38 116.504 465.774
2080 0 71.6209 13.3341 955 106.677 116.076 466.813
2081 0 72.404 11.8225 856 109.217 116.675 465.185
2082 0 73.3742 15.0871 1107 105.59 117.244 460.773
2083 0 77.4084 12.3372 955 109.505 116.072 459.059
2084 0 77.573 13.5614 1052 108.005 116.262 456.98
2085 0 81.4894 14.1859 1156 106.558 115.91 459.167
2086 0 83.4292 13.1369 1096 108.916 116.345 455.222
2087 0 86.3724 15.63 1350 103.705 115.957 457.844
2088 0 84.5103 12.6257 1067 110.367 116.376 448.897
2089 0 90.3897 15.8204 1430 103.897 116.498 454.673
2090 0 92.3836 14.3532 1326 106.876 117.461 449.538
2091 0 94.5172 15.5527 1470 106.159 118.084 443.207
2092 0 97.6468 14.9416 1459 107.393 118.485 441.223
2093 0 100.356 14.6678 1472 107.935 118.828 444.918
2094 0 105.554 15.8212 1670 106.541 118.937 442.494
2095 0 105.527 15.1999 1604 110.094 121.796 436.416
2096 1 59.0948 15.179 897 106.119 122.635 463.738
2097 0 63.4159 13.5455 859 108.14 124.137 461.43
2098 0 65.2708 14.4628 944 107.54 125.095 456.326
2099 0 66.0851 14.2392 941 106.75 125.847 458.083
2100 0 64.1558 11.5033 738 112.575 126.94 456.74
2101 0 69.0747 15.7221 1086 105.29 127.133 458.293
2102 0 71.0752 15.4062 1095 105.93 127.446 459.474
2103 0 74.085 13.1606 975 109.666 128.168 456.551
2104 0 74.1124 17.8783 1325 103.201 128.088 456.535
2105 0 81.3971 17.691 1440 101.624 129.488 459.513
2106 0 82.103 13.5562 1113 108.446 129.496 458.814
2107 0 84.1577 15.8987 1338 105.186 127.808 459.445
2108 0 87.1293 15.2991 1333 106.202 127.859 461.785
2109 0 92.0793 22.3177 2055 98.127 127.518 457.528
2110 0 92.2659 12.6374 1166 113.642 127.428 454.157
2111 0 95.0667 13.2539 1260 113.817 127.413 456.89
2112 1 54.079 11.0579 598 112.431 126.515 478.564
2113 0 54.1086 11.1258 602 112.404 126.593 478.447
2114 0 56.1281 12.4537 699 109.524 123.937 479.11
2115 0 60.1111 12.6932 763 110.894 123.558 474.95
2116 0 61.0748 19.5498 1194 101.492 123.362 473.358
2117 0 60.2495 13.0126 784 112.399 122.133 474.096
2118 0 63.1844 14.1649 895 109.907 121.505 474.799
2119 0 67.0806 13.6552 916 110.405 120.998 471.001
2120 0 70.1391 14.6566 1028 107.977 121.687 471.731
2121 0 70.1177 13.7198 962 110.29 120.028 469.514
2122 0 73.0787 14.0123 1024 110.384 121.098 467.192
2123 0 74.0826 11.9191 883 114.365 120.488 462.921
2124 0 75.0673 12.9351 971 112.704 120.435 461.187
2125 0 75.0673 12.8418 964 136.789 120.415 461.136
2126 0 87.2949 14.3995 1257 107.66 120.574 459.326
2127 0 87.0737 18.18 1583 102.678 118.975 458.59
2128 0 86.1167 13.9694 1203 110.408 120.087 454.695
2129 0 91.1063 14.1703 1291 109.655 119.457 451.882
2130 0 93.1404 18.5204 1725 104.307 119.769 448.048
2131 0 93.1571 13.1069 1221 111.772 120.667 449.526
2132 0 96.2657 13.1407 1265 112.485 120.306 441.202
2133 0 99.2582 14.1651 1406 109.733 120.903 444.558
2134 1 55.1539 11.1506 615 106.95 120.984 466.211
2135 0 57.1226 14.2325 813 102.936 122.554 464.333
2136 0 58.3941 11.5765 676 105.331 122.342 462.966
2137 0 60.7062 16.2422 986 98.3915 121.519 458.467
2138 0 61.118 14.8892 910 105.281 123.445 460.125
2139 0 62.1018 12.0769 750 110.032 124.561 457.173
2140 0 64.1067 12.994 833 109.086 124.507 458.128
2141 0 64.1855 11.9965 770 110.478 124.27 456.764
2142 0 70.3716 13.0877 921 107.897 125.459 457.28
2143 0 69.1489 13.912 962 106.898 125.282 459.543
2144 0 71.1811 13.9222 991 109.724 125.875 452.708
2145 0 77.0549 14.3145 1103 107.116 127.007 458.447
2146 0 79.2423 15.2444 1208 104.73 127.366 460.716
2147 0 83.1887 13.7398 1143 109.471 127.864 451.774
2148 0 87.3928 13.1018 1145 108.105 127.3 456.796
2149 0 88.4101 15.1001 1335 107.399 127.252 451.702
2150 0 91.3052 12.7375 1163 110.454 127.362 454.072
2151 0 93.3136 12.0347 1123 111.729 126.202 455.553
2152 0 98.384 14.1995 1397 109.452 127.141 448.968
2153 0 102.242 15.9621 1632 106.313 125.662 452.699
2154 1 57.371 13.8223 793 105.253 125.741 475.699
2155 0 56.1403 13.6622 767 107.403 126.441 473.888
2156 0 56.0814 9.80718 550 114.842 125.275 473.145
2157 0 59.1279 15.0183 888 105.736 122.775 479.293
2158 0 61.1675 12.4576 762 109.534 120.593 477.57
2159 0 61.094 11.7687 719 111.485 120.744 472.551
2160 0 65.4459 13.1406 860 108.103 117.526 474.771
2161 0 67.2976 16.3007 1097 102.572 118.139 477.14
2162 0 68.2954 11.3624 776 112.125 117.269 469.986
2163 0 76.4293 17.8335 1363 101.695 116.751 466.937
2164 0 74.3337 13.7488 1022 109.226 116.843 464.472
2165 0 77.4401 14.5015 1123 106.271 116.255 468.703
2166 0 84.4265 17.5063 1478 101.88 116.181 462.466
2167 0 82.3186 16.8978 1391 103.619 115.868 460.632
2168 0 83.361 12.176 1015 110.712 116.685 460.06
2169 1 49.3599 11.8517 585 103.036 113.728 478.591
2170 0 47.103 10.2966 485 109.221 114.041 475.532
2171 0 48.2922 10.0844 487 110.735 114.936 471.862
2172 0 50.6287 13.9842 708 106.38 115.328 468.103
2173 0 50.5161 12.1347 613 108.232 116.047 471.667
2174 0 49.1228 10.9929 540 100.239 118.096 469.054
2175 0 51.093 11.4301 584 98.7038 116.961 468.909
2176 0 50.0958 11.7375 588 100.696 117.338 463.437
2177 0 53.0876 12.9409 687 99.3261 117.911 466.076
2178 0 50.0846 9.94318 498 106.01 120.329 458.771
2179 0 52.0347 9.41679 490 104.484 120.567 464.412
2180 0 58.2103 11.6302 677 102.638 121.473 460.137
2181 0 57.1227 10.7838 616 105.812 122.873 455.94
2182 0 64.1401 11.7867 756 101.902 123.247 461.812
2183 0 63.0908 11.4755 724 102.684 124.099 461.854
2184 0 66.2612 11.4698 760 105.159 123.421 457.087
2185 0 68.1509 13.8223 942 101.778 124.623 458.392
2186 0 70.5118 13.0333 919 102.43 125.956 458.448
2187 0 75.303 12.961 976 101.853 126.691 459.293
2188 0 75.1889 16.1061 1211 99.014 125.602 456.522
2189 0 75.2054 11.4221 859 105.192 125.035 456.073
2190 0 78.238 14.7115 1151 102.024 124.637 455.992
2191 0 81.2373 12.5066 1016 104.803 124.221 456.404
2192 0 84.4069 13.4231 1133 104.323 123.875 458.676
2193 0 88.318 8.44675 746 110.503 124.176 457.992
2194 0 90.2673 13.6816 1235 105.871 124.108 453.6
2195 0 92.272 10.9676 1012 108.381 122.403 457.167
2196 0 99.4474 15.7671 1568 100.508 122.818 463.549
2197 1 50.1844 12.0356 604 103.825 121.94 478.187
2198 0 54.3618 11.2395 611 102.501 121.396 477.93
2199 0 56.1723 11.5715 650 107.034 121.925 474.828
2200 0 58.1538 11.6243 676 105.176 119.852 470.649
2201 0 56.2485 10.1336 570 108.342 120.446 470.137
2202 0 61.4557 13.7172 843 102.44 117.737 468.796
2203 0 62.2367 11.0546 688 106.836 118.054 465.746
2204 0 62.169 15.0718 937 102.178 118.004 467.026
2205 0 66.1929 12.5089 828 104.058 116.998 468.152
2206 0 72.179 13.0647 943 102.797 117.733 466.333
2207 0 68.4278 12.4072 849 105.958 116.486 460.827
2208 0 76.1694 11.1331 848 106.61 115.933 461.947
2209 0 78.1047 11.4334 893 107.605 116.23 457.142
2210 0 80.1874 13.0195 1044 105.725 116.131 455.726
2211 0 79.2211 13.3298 1056 106.076 116.381 454.191
2212 0 86.2578 11.825 1020 108.34 117.458 450.923
2213 0 89.1556 16.6226 1482 100.729 116.616 452.605
2214 0 89.157 10.5096 937 110.861 117.131 444.232
2215 1 52.2067 10.899 569 103.45 115.796 466.431
2216 0 54.1029 16.3207 883 95.3148 117.068 468.378
2217 0 50.4442 8.5441 431 106.796 118.928 463.227
2218 0 57.2517 15.8598 908 96.7698 117.978 460.782
2219 0 59.6798 12.1649 726 100.957 117.895 461.085
2220 0 57.4491 9.29519 534 106.107 118.588 457.075
2221 0 60.4754 12.1702 736 101.432 120.288 462.149
2222 0 64.2221 12.5346 805 101.357 119.67 456.747
2223 0 67.342 13.5131 910 99.3506 119.345 459.109
2224 0 68.3558 14.5854 997 98.5376 120.135 457.773
2225 0 71.2945 11.5857 826 101.929 122.278 453.818
2226 0 72.2017 12.2989 888 102.542 122.119 449.761
2227 0 78.407 16.4144 1287 96.9394 122.871 448.685
2228 0 75.1574 11.5491 868 104.13 122.071 446.068
2229 0 80.3896 16.4822 1325 98.4038 124.142 450.193
2230 0 81.0815 15.0219 1218 100.778 123.477 452.04
2231 0 85.1569 14.5144 1236 102.775 125.29 449.977
2232 0 89.3668 14.0544 1256 100.72 124.759 455.656
2233 0 91.2079 12.0713 1101 105.077 125.054 451.535
2234 0 92.1681 12.64 1165 105.473 125.52 446.809
2235 0 95.3966 11.2688 1075 107.604 126.079 447.206
2236 0 101.328 12.8099 1298 105.23 124.811 452.836
2237 1 58.1579 10.9186 635 102.89 126.592 473.121
2238 0 57.2365 13.2084 756 102.062 124.937 471.673
2239 0 60.6113 13.0669 792 109.456 123.85 467.669
2240 0 62.0638 13.0189 808 112.588 126.639 473.641
2241 0 66.2295 15.5671 1031 108.073 125.797 475.35
2242 0 67.2563 16.0134 1077 108.429 124.908 475.438
2243 0 72.1725 14.9503 1079 109.208 124.149 473.769
2244 0 74.0958 14.6297 1084 111.091 122.032 471.583
2245 0 75.2186 14.6639 1103 112.577 122.156 468.938
2246 0 76.1503 14.9441 1138 112.67 120.627 470.376
2247 0 80.4194 13.156 1058 115.315 119.767 467.956
2248 0 83.6385 16.1648 1352 110.913 118.819 463.81
2249 0 85.3425 16.4514 1404 111.484 118.773 462.063
2250 0 86.298 14.0907 1216 115.004 119.099 461.642
2251 0 89.6894 14.0262 1258 114.147 119.004 460.833
2252 0 91.4132 18.5422 1695 107.523 117.84 461.516
2253 0 93.3747 16.7925 1568 111.768 118.24 454.267
2254 0 97.3373 16.9411 1649 111.882 117.51 448.711
2255 0 101.21 15.038 1522 115.026 117.791 447.734
2256 0 104.244 15.9529 1663 114.044 117.885 447.439
2257 1 54.1995 11.4761 622 119.296 118.521 467.953
2258 0 57.6618 11.2206 647 117.093 117.442 470.788
2259 0 59.5814 14.3837 857 113.651 118.602 468.126
2260 0 62.3912 18.1436 1132 101.656 116.412 461.012
2261 0 64.5902 16.3802 1058 104.07 116.568 460.916
2262 0 63.401 14.3689 911 108.337 116.652 457.645
2263 0 67.3814 14.3511 967 109.023 117.573 460.384
2264 0 66.2513 13.8865 920 110.095 117.391 458.553
2265 0 69.1472 13.6954 947 109.808 118.844 455.568
2266 0 70.2082 15.9383 1119 106.683 119.998 456.319
2267 0 76.193 17.3113 1319 105.244 120.061 458.374
2268 0 74.1227 12.4523 923 115.114 120.692 456.598
2269 0 77.1774 12.8017 988 114.026 121.47 456.652
2270 0 78.1121 12.1108 946 114.329 121.531 458.015
2271 0 82.0816 15.5699 1278 109.301 120.705 454.617
2272 0 82.4156 12.4612 1027 114.675 122.341 451.817
2273 0 85.6465 11.4424 980 116.427 122.756 450.183
2274 0 89.6653 12.3905 1111 114.694 123.455 445.863
2275 0 94.5777 12.8677 1217 112.514 124.049 448.428
2276 0 98.1333 16.4572 1615 108.345 123.723 442.224
2277 0 99.2297 13.0707 1297 113.958 124.119 445.255
2278 0 105.175 12.5124 1316 113.15 124.102 447.552
2279 0 109.712 13.4808 1479 112.414 123.886 444.112
2280 1 63.6641 15.8017 1006 102.225 124.482 470.333
2281 0 62.5234 12.5073 782 108.445 122.597 470.9
2282 0 64.3833 12.0528 776 106.281 123.397 462.476
2283 0 69.4737 14.6962 1021 102.581 122.589 462.3
2284 0 67.3104 11.4544 771 107.086 121.757 469.951
2285 0 69.1319 11.2394 777 110.118 120.82 460.517
2286 0 74.0999 14.0621 1042 106.233 119.994 463.376
2287 0 78.6818 19.4581 1531 99.6532 119.573 458.986
2288 0 81.4723 14.7167 1199 106.125 120.345 454.922
2289 0 78.3329 12.8043 1003 110.526 118.279 451.781
2290 0 84.7605 15.9508 1352 105.669 118.96 457.066
2291 0 89.3785 15.563 1391 105.741 117.184 449.881
2292 0 93.3191 16.1703 1509 104.905 118.84 451.499
2293 0 94.2947 12.5882 1187 110.84 117.718 448.767
2294 0 98.5028 13.0453 1285 110.344 117.586 445.311
2295 1 54.1755 14.3607 778 103.771 117.15 469.469
2296 0 50.0585 10.7274 537 112.015 116.665 466.019
2297 0 57.1994 12.1505 695 115.96 115.045 470.793
2298 0 58.2587 12.599 734 114.999 115.696 470.364
2299 0 61.29 13.7869 845 114.253 114.727 467.653
2300 0 62.4742 16.4868 1030 109.547 115.582 466.677
2301 0 64.4868 18.7015 1206 106.46 115.309 465.607
2302 0 62.5915 11.4712 718 118.855 115.719 461.974
2303 0 69.5321 17.1288 1191 108.785 116.621 462.676
2304 0 69.3271 13.9772 969 114.313 117.602 461.318
2305 0 70.3954 17.3449 1221 112.648 118.653 456.389
2306 0 74.3981 21.9226 1631 104.735 119.142 459.018
2307 0 75.8811 14.984 1137 116.473 118.42 452.423
2308 0 76.6752 13.329 1022 119.689 120.707 449.121
2309 0 79.6989 14.9438 1191 117.339 119.898 451.039
2310 0 79.8569 13.6745 1092 120.924 121.415 448.446
2311 0 86.8628 16.3131 1417 114.884 121.524 445.262
2312 0 85.5571 13.4998 1155 120.473 121.995 443.507
2313 0 92.8304 14.2733 1325 116.788 124.337 446.577
2314 0 94.775 13.168 1248 115.787 125.185 444.153
2315 0 97.4682 15.8103 1541 112.683 125.58 438.534
2316 0 102.734 14.153 1454 114.815 125.627 439.219
2317 1 51.2349 13.4283 688 108.417 127.281 467.275
2318 0 55.1678 16.3139 900 106.089 126.242 467.986
2319 0 59.2999 14.7555 875 107.166 123.102 470.437
2320 0 58.2803 15.7 915 106.644 123.136 466.881
2321 0 60.1418 13.8007 830 110.328 123.335 470.174
2322 0 63.2251 11.467 725 113.932 122.425 472.556
2323 0 64.3338 12.5595 808 114.849 121.838 467.25
2324 0 68.4354 17.1402 1173 107.974 121.706 466.974
2325 0 72.169 17.168 1239 105.573 121.268 468.876
2326 0 75.2014 12.9652 975 111.056 120.471 471.869
2327 0 78.2888 13.91 1089 112.38 119.533 465.264
2328 0 80.2293 17.2381 1383 108.184 119.338 463.664
2329 0 82.3166 14.7965 1218 112.496 118.067 463.671
2330 0 86.2686 20.8766 1801 103 118.118 465.738
2331 0 90.2562 14.0821 1271 112.404 116.692 463.472
2332 0 90.2073 15.4422 1393 112.586 117.576 457.599
2333 0 93.2232 17.0129 1586 110.067 117.521 458.823
2334 0 97.2324 15.5812 1515 111.471 116.36 454.224
2335 0 100.208 13.9909 1402 114.142 116.638 450.977
2336 0 104.242 14.332 1494 113.1 115.143 448.638
2337 1 58.0878 14.1338 821 113.017 114.865 468.469
2338 0 57.103 14.8328 847 107.468 115.867 467.334
2339 0 61.4015 12.1495 746 111.657 115.924 464.02
2340 0 61.4242 14.1312 868 108.782 115.85 462.104
2341 0 65.2364 17.5362 1144 102.699 117.246 461.942
2342 0 63.2906 11.7553 744 113.204 116.477 457.808
2343 0 67.3567 12.8569 866 111.023 116.118 455.502
2344 0 66.3853 13.4668 894 111.369 116.833 453.595
2345 0 68.123 11.3471 773 113.492 117.307 455.458
2346 0 71.3365 13.5835 969 110.635 118.153 450.187
2347 0 75.146 15.2902 1149 108.181 118.056 448.498
2348 0 80.144 13.588 1089 111.234 119.523 445.799
2349 0 79.167 13.6168 1078 112.462 119.073 446.075
2350 0 83.1822 14.883 1238 108.392 121.635 444.973
2351 0 86.1986 12.0536 1039 113.186 121.849 442.915
2352 0 88.2661 14.9774 1322 109.371 122.326 443.46
2353 0 91.4331 13.9228 1273 110.803 121.848 440.997
2354 0 95.3761 13.9553 1331 112.156 123.44 442.409
2355 0 96.2561 14.825 1427 111.396 123.318 438.348
2356 0 98.408 17.336 1706 108.38 123.938 437.648
2357 1 49.1169 7.63485 375 115.76 125.488 459.229
2358 0 57.1716 11.5967 663 109.566 124.567 463.274
2359 0 60.1609 15.6913 944 108.6 123.414 463.867
2360 0 55.2601 10.8215 598 114.074 125.152 471.341
2361 0 61.2922 10.7844 661 114.281 123.865 466.914
2362 0 61.2922 10.817 663 139.498 121.852 466.86
2363 0 65.2772 10.8001 705 114.274 122.816 470.145
2364 0 66.2688 12.3889 821 113.834 123.163 466.883
2365 0 72.1548 16.8527 1216 106.091 122.623 467.188
2366 0 71.1369 11.5271 820 114.05 121.968 470.178
2367 0 76.2392 12.4345 948 112.226 122.655 467.281
2368 0 83.287 16.8694 1405 105.486 121.971 464.105
2369 0 83.2106 11.1524 928 113.254 119.781 467.859
2370 0 84.3287 13.8624 1169 111.332 119.186 462.643
2371 0 89.2352 14.3217 1278 110.885 118.889 461.563
2372 0 93.3239 20.3914 1903 101.771 117.59 461.597
2373 0 95.4406 16.5129 1576 107.355 117.261 454.566
2374 0 99.4163 19.0613 1895 102.479 116.119 458.155
2375 0 102.293 13.2268 1353 111.711 116.43 451.295
2376 1 58.2548 11.6214 677 110.009 114.374 474.352
2377 0 60.4512 12.4067 750 106.991 117.831 475.54
2378 0 62.2115 11.7985 734 109.642 117.154 471.159
2379 0 61.1374 13.396 819 107.603 117.556 470.077
2380 0 65.6339 15.6169 1025 104.234 117.3 468.503
2381 0 63.2255 10.4705 662 110.322 118.255 469.456
2382 0 70.4836 15.8335 1116 101.642 118.029 469.448
2383 0 69.6669 12.9473 902 107.534 116.907 461.014
2384 0 75.3585 16.9457 1277 99.9162 117.134 466.161
2385 0 74.2951 18.9784 1410 100.089 117.162 460.126
2386 0 76.2461 14.7811 1127 105.294 116.929 459.312
2387 0 79.4579 16.449 1307 102.394 117.968 457.38
2388 0 80.248 11.9878 962 106.812 117.504 458.946
2389 0 83.4255 13.1734 1099 108.525 118.548 453.39
2390 0 83.4255 13.1495 1097 133.34 118.546 453.37
2391 0 87.383 13.6068 1189 108.59 118.468 446.521
2392 0 94.4692 16.6509 1573 103.226 118.968 450.022
2393 1 50.2222 12.0465 605 108.074 122.018 468.858
2394 0 52.1569 14.1305 737 104.567 121.48 469.81
2395 0 59.7381 14.7142 879 101.714 123.652 469.56
2396 0 58.3218 18.3465 1070 96.7206 122.07 472.249
2397 0 58.2576 14.2814 832 104.911 122.552 462
2398 0 60.2808 15.3614 926 103.356 124.004 465.016
2399 0 57.1428 9.73 556 108.41 122.903 462.827
2400 0 63.2433 15.5273 982 100.854 122.927 462.368
2401 0 66.1544 13.5743 898 103.625 122.922 459.746
2402 0 66.3317 16.8547 1118 100.476 122.775 459.708
2403 0 68.083 17.5668 1196 99.9147 122.38 460.639
2404 0 71.1773 13.2205 941 105.17 122.21 460.902
2405 0 74.4195 13.5852 1011 104.882 122.042 459.254
2406 0 77.2454 17.1661 1326 100.956 122.514 457.836
2407 0 79.1034 11.9211 943 107.569 120.817 459.037
2408 0 83.2371 12.963 1079 106.917 120.672 459.088
2409 0 84.479 13.5537 1145 105.654 121.263 454.364
2410 0 90.2484 13.762 1242 105.883 119.597 454.405
2411 0 95.3419 18.0718 1723 98.4022 119.486 453.972
2412 0 99.4891 14.293 1422 103.383 117.625 453.324
2413 0 99.2341 14.8538 1474 103.505 117.8 449.756
2414 1 51.2835 9.78872 502 105.817 117.412 471.365
2415 0 57.223 10.5028 601 105.093 117.285 470.734
2416 0 60.2571 12.0484 726 101.072 116.528 467.657
2417 0 61.2882 11.9925 735 105.946 117.118 469.19
2418 0 63.329 12.664 802 104.52 116.455 466.566
2419 0 65.3255 13.4557 879 104.494 115.948 460.794
2420 0 67.9425 12.2309 831 104.966 115.821 460.847
2421 0 71.4998 12.014 859 105.899 115.12 461.084
2422 0 75.49 13.366 1009 104.434 116.604 459.634
2423 0 73.4037 17.2879 1269 100.212 116.336 457.935
2424 0 79.2705 13.3593 1059 105.534 116.49 455.659
2425 0 77.5557 13.1132 1017 107.21 117.258 450.852
2426 0 84.4368 13.063 1103 106.011 116.92 455.343
2427 0 87.6078 11.9624 1048 107.503 116.367 454.213
2428 0 88.8274 12.5637 1116 108.04 117.365 450.099
2429 0 88.8274 12.5975 1119 146.24 118.372 449.849
2430 0 95.2635 11.5154 1097 108.892 118.123 449.55
2431 0 101.591 17.8165 1810 100.039 118.41 448.655
2432 1 56.346 12.2635 691 105.509 118.993 462.156
2433 0 59.2499 14.6329 867 100.013 119.699 464.142
2434 0 57.2482 9.93917 569 104.989 119.432 464.889
2435 0 60.468 16.0085 968 98.8543 121.222 461.616
2436 0 61.1993 12.9903 795 105.955 120.557 460.909
2437 0 65.4739 19.0458 1247 98.9719 121.329 464.583
2438 0 66.3178 13.6615 906 105.903 121.094 466.632
2439 0 69.5113 15.5946 1084 104.159 120.992 463.543
2440 0 73.2125 15.6804 1148 102.773 122.775 465.579
2441 0 74.6904 12.197 911 108.302 121.609 464.867
2442 0 77.3228 16.3341 1263 104.432 123.219 460.83
2443 0 79.5839 12.5905 1002 110.659 122.811 460.358
2444 0 83.6186 14.9847 1253 107.709 123.567 461.876
2445 0 86.4381 14.1489 1223 108.478 121.163 462.117
2446 0 90.5443 13.3084 1205 108.373 122.442 465.138
2447 0 95.2991 14.9214 1422 106.324 121.283 462.343
2448 0 95.5331 13.9114 1329 110.248 121.635 460.427
2449 1 55.5889 13.384 744 110.516 120.421 481.821
2450 0 55.3645 15.5154 859 109.019 122.471 478.513
2451 0 57.4508 12.3932 712 110.833 120.247 477.042
2452 0 59.1156 12.5178 740 107.101 120.731 481.509
2453 0 62.4215 15.0269 938 105.826 119.646 479.817
2454 0 62.352 12.3973 773 110.82 119.035 475.45
2455 0 65.3426 12.5952 823 110.164 117.464 473.933
2456 0 69.4633 15.1303 1051 105.213 117.019 476.796
2457 0 69.4633 15.1879 1055 121.4 115.974 476.864
2458 0 76.317 14.1515 1080 106.63 115.387 470.444
2459 0 75.4937 13.5376 1022 110.281 115.585 465.012
2460 0 80.3417 14.0276 1127 109.267 115.131 464.395
2461 0 82.2617 15.0252 1236 108.163 114.636 460.735
2462 0 86.7621 15.7327 1365 106.297 115.225 460.37
2463 0 86.1886 14.828 1278 109.241 114.236 454.674
2464 0 90.6207 16.4532 1491 107.866 115.469 449.52
2465 0 95.4009 15.1781 1448 110.229 115.076 454.189
2466 0 97.4466 14.1616 1380 111.178 114.277 454.192
2467 1 51.226 10.9319 560 114.975 114.018 471.055
2468 0 50.2128 11.8695 596 117.389 114.755 466.498
2469 0 54.5726 12.4605 680 118.918 115.385 468.531
2470 0 53.3975 11.3114 604 116.397 117.002 465.664
2471 0 56.159 14.1562 795 113.004 118.238 467.257
2472 0 59.3883 15.4913 920 109.614 118.598 469.167
2473 0 62.3214 15.2917 953 111.933 119.267 465.079
2474 0 62.043 15.1185 938 112.618 119.904 462.737
2475 0 66.1028 16.1113 1065 110.408 120.961 463.63
2476 0 68.2949 16.502 1127 110.335 121.485 461.723
2477 0 70.2382 13.6251 957 114.043 122.402 460.913
2478 0 73.2198 15.351 1124 112.037 122.516 459.929
2479 0 73.3473 13.9882 1026 114.88 123.197 460.018
2480 0 76.221 13.6576 1041 113.182 121.772 463.239
2481 0 82.2017 15.3768 1264 109.904 123.547 462.18
2482 0 85.2107 13.7776 1174 113.519 123.625 457.733
2483 0 86.2843 14.4175 1244 114.106 123.595 457.211
2484 0 89.5426 14.4847 1297 114.187 122.462 456.623
2485 0 96.417 15.9308 1536 110.103 123.358 458.189
2486 0 96.5538 12.5526 1212 114.781 122.709 459.01
2487 0 101.417 15.4806 1570 111.737 122.025 454.756
2488 1 56.54 11.5493 653 116.821 122.536 474.904
2489 0 58.4383 9.70254 567 117.977 122.815 478.102
2490 0 59.2448 11.7985 699 117.823 122.278 473.986
2491 0 61.3634 12.76 783 115.962 120.935 470.63
2492 0 68.1703 14.5811 994 108.242 120.981 470.322
2493 0 69.2963 15.845 1098 106.851 120.03 469.49
2494 0 75.3365 15.5967 1175 106.684 119.239 469.768
2495 0 73.3861 15.616 1146 107.76 119.011 469.699
2496 0 75.4281 13.0455 984 111.94 117.216 467.446
2497 0 78.2831 14.7797 1157 110.823 118.176 464.601
2498 0 82.2841 16.1635 1330 108.765 116.248 459.95
2499 0 87.3433 15.7425 1375 112.476 116.49 463.159
2500 0 90.5491 16.654 1508 111.276 117.289 462.428
2501 0 93.3181 17.4779 1631 110.435 116.731 458.611
2502 0 94.3712 18.2683 1724 109.733 115.959 455.502
2503 0 97.5563 15.837 1545 113.773 115.933 454.115
2504 0 100.353 14.4689 1452 116.426 116.49 452.224
2505 0 102.364 16.9492 1735 111.69 116.813 451.015
2506 1 58.2363 11.6937 681 117.364 116.596 471.905
2507 0 58.3167 11.952 697 117.341 117.297 468.997
2508 0 61.3115 12.7709 783 116.871 116.66 466.12
2509 0 61.4683 13.7144 843 118.306 115.669 455.079
2510 0 64.3998 12.0963 779 120.1 116.217 457.955
2511 0 63.1746 14.642 925 109.796 115.808 460.917
2512 0 66.1503 14.8903 985 110.34 116.42 457.609
2513 0 67.1641 12.4769 838 114.393 116.739 455.518
2514 0 74.1754 16.3531 1213 107.092 117.594 454.337
2515 0 74.1026 16.6931 1237 107.85 117.42 454.461
2516 0 75.3069 13.9695 1052 113.327 118.345 450.512
2517 0 81.2687 16.7961 1365 108.225 120.39 448.718
2518 0 83.3928 15.7927 1317 109.876 121.208 449.038
2519 0 83.4976 18.5395 1548 107.419 120.625 448.005
2520 0 87.5118 12.9697 1135 116.784 121.859 442.38
2521 0 92.4572 15.4666 1430 113.322 122.973 439.012
2522 0 95.4804 17.2077 1643 110.999 121.75 441.083
2523 0 97.4592 17.4227 1698 110.687 123.671 443.79
2524 0 102.483 14.3634 1472 116.695 121.601 438.038
2525 1 56.199 13.1675 740 113.801 122.201 464.901
2526 0 55.2335 13.8503 765 118.133 123.218 469.754
2527 0 58.4461 14.5604 851 116.266 122.866 466.942
2528 0 62.7125 14.0163 879 110.158 121.975 469.52
2529 0 62.4545 10.5357 658 117.675 121.239 467.339
2530 0 66.3329 16.0554 1065 109.601 121.382 464.022
2531 0 69.627 14.9511 1041 110.231 121.559 465.679
2532 0 72.234 14.7853 1068 110.133 120.814 466.008
2533 0 75.2073 14.9454 1124 111.68 120.459 459.653
2534 0 77.3666 13.1064 1014 113.102 120.332 463.856
2535 0 79.4384 13.0919 1040 114.654 118.18 456.902
2536 0 83.8211 13.9106 1166 113.689 117.951 454.984
2537 0 87.6144 13.2627 1162 114.055 118.767 455.956
2538 0 89.8033 14.9215 1340 114.136 117.607 452.384
2539 0 95.7094 16.7591 1604 110.607 117.357 451.333
2540 0 95.4695 14.0359 1340 116.146 116.649 447.288
2541 0 101.602 15.6395 1589 114.115 116.549 445.848
2542 0 107.005 14.4946 1551 115.426 115.627 443.077
2543 0 106.421 16.6696 1774 112.747 115.985 444.555
2544 0 109.813 14.1968 1559 117.732 115.069 436.896
2545 0 116.454 13.6191 1586 119.199 116.026 433.823
2546 1 63.489 11.246 714 114.232 116.23 462.77
2547 0 61.1466 8.22613 503 122.531 114.771 453.75
2548 0 68.4218 12.5983 862 111.404 115.633 455.213
2549 0 69.3538 11.6071 805 112.965 114.417 459.4
2550 0 72.3317 18.5672 1343 102.621 115.39 458.745
2551 0 72.0987 15.4233 1112 106.62 115.836 458.149
2552 0 72.1724 11.9575 863 115.448 115.776 450.553
2553 0 78.7831 11.4999 906 114.948 117.189 449.65
2554 0 79.2906 19.3213 1532 103.428 115.789 451.076
2555 0 79.373 13.2161 1049 112.772 118.147 452.206
2556 0 84.3312 16.032 1352 108.433 118.243 449.51
2557 0 84.3494 14.0961 1189 113.802 118.759 444.153
2558 0 86.1903 15.5586 1341 111.644 119.312 443.063
2559 0 86.3839 12.1898 1053 117.927 120.813 434.507
2560 0 89.4317 14.033 1255 137.596 122.95 438.688
2561 0 96.4171 12.84 1238 115.77 121.241 432.163
2562 0 100.69 12.5931 1268 118.021 122.224 436.793
2563 0 97.4895 14.1656 1381 118.256 121.298 429.598
2564 1 60.2211 7.87099 474 116.068 122.357 458.527
2565 0 53.4232 7.59969 406 120.749 121.419 450.012
2566 0 63.3554 10.812 685 115.145 121.788 461.99
2567 0 65.0332 10.9483 712 117.263 121.021 462.031
2568 0 69.2621 11.2616 780 119.408 125.291 458.968
2569 0 72.299 10.3183 746 122.324 123.914 456.224
2570 0 76.2701 13.8849 1059 118.172 123.453 455.682
2571 0 80.1487 14.8724 1192 116.185 123.337 455.138
2572 0 79.2901 12.1201 961 122.407 123.311 453.485
2573 0 84.2951 9.34811 788 127.552 121.896 456.51
2574 0 84.3753 12.1718 1027 124.325 121.688 451.967
2575 0 89.4178 13.8675 1240 122.008 120.56 451.797
2576 0 92.4294 13.9133 1286 122.847 119.884 446.865
2577 0 90.3904 12.5456 1134 125.787 118.009 451.871
2578 0 98.3261 12.0822 1188 126.696 118.753 447.216
2579 0 101.325 12.3464 1251 127.152 117.914 443.609
2580 0 107.564 13.7221 1476 123.967 117.01 439.983
2581 0 110.431 14.6607 1619 122.862 117.469 441.648
2582 1 64.1629 14.4476 927 114.794 116.627 468.01
2583 0 66.2977 10.8299 718 119.769 113.202 470.273
2584 0 66.2183 13.6065 901 114.687 113.295 467.191
2585 0 69.3782 14.3993 999 110.543 116.241 464.262
2586 0 70.1457 15.867 1113 109.58 112.8 463.73
2587 0 69.1363 12.9021 892 114.178 113.72 466.038
2588 0 73.1829 13.9923 1024 112.641 113.303 463.638
2589 0 71.2052 11.2632 802 118.516 113.897 460.93
2590 0 71.2004 11.1657 795 127.26 114.875 460.98
2591 0 80.2822 13.3031 1068 114.402 115.108 456.523
2592 0 80.3161 13.2228 1062 115.733 115.355 453.904
2593 0 85.2167 14.2108 1211 112.8 116.031 454.682
2594 0 85.2209 13.4357 1145 115.565 116.722 450.66
2595 0 89.2521 12.0781 1078 117.238 117.529 450.076
2596 0 89.2816 17.5624 1568 110.345 116.775 448.121
2597 0 92.462 12.9783 1200 116.533 117.937 447.628
2598 0 94.2178 14.5726 1373 114.869 117.551 441.586
2599 0 95.1917 12.375 1178 116.699 119.404 439.036
2600 0 103.414 20.9449 2166 103.551 119.96 438.693
2601 0 103.278 15.86 1638 111.315 120.172 441.515
2602 0 107.203 13.9922 1500 114.281 120.675 440.838
2603 0 113.328 14.3565 1627 113.175 121.072 439.282
2604 0 114.402 15.1309 1731 111.985 121.516 443.519
2605 0 124.626 13.1594 1640 116.285 120.44 437.015
2606 0 128.947 17.8368 2300 108.806 122.11 432.179
2607 1 74.3322 11.5831 861 108.638 121.372 457.436
2608 0 72.2447 13.4266 970 109.419 121.455 453.947
2609 0 77.1929 13.0323 1006 110.81 119.506 454.807
2610 0 79.1887 12.5776 996 111.465 118.623 457.663
2611 0 83.1855 14.0289 1167 109.141 119.055 458.927
2612 0 88.1143 12.4157 1094 111.145 119.376 454.949
2613 0 88.2554 13.6649 1206 109.357 119.354 459.887
2614 0 89.1237 14.665 1307 110.002 118.942 455.905
2615 0 97.3042 12.9799 1263 112.015 118.268 453.265
2616 0 102.157 15.5838 1592 106.647 117.582 450.71
2617 0 103.262 13.2769 1371 112.139 117.251 449.103
2618 0 106.325 11.7846 1253 113.24 116.475 442.836
2619 0 112.64 11.1506 1256 112.135 115.53 444.977
2620 0 116.574 16.6503 1941 104.435 115.567 445.724
2621 1 62.3154 8.6335 538 112.699 116.848 465.344
2622 0 67.3732 11.6812 787 108.208 116.119 459.604
2623 0 72.0383 8.2595 595 112.906 112.625 461.092
2624 0 74.1351 14.1094 1046 105.052 112.502 459.17
2625 0 76.1284 14.909 1135 104.678 112.738 458.555
2626 0 76.2186 10.5355 803 111.685 112.519 455.932
2627 0 79.2168 12.106 959 109.994 112.757 451.637
2628 0 84.0386 15.2073 1278 104.924 112.325 453.858
2629 0 87.2518 12.1946 1064 109.618 112.453 449.964
2630 0 90.1548 13.3437 1203 108.411 113.17 448.366
2631 0 92.2409 12.9986 1199 107.826 113.555 449.721
2632 0 98.2498 16.8753 1658 102.542 116.056 449.123
2633 0 96.489 11.8045 1139 111.332 115.532 446.912
2634 0 100.37 13.6295 1368 109.943 116.645 445.855
2635 0 101.334 12.365 1253 113.151 116.797 441.337
2636 0 104.364 12.9834 1355 112.816 117.764 439.858
2637 0 110.23 16.0664 1771 106.995 118.731 439.826
2638 0 115.5 17.697 2044 105.078 118.817 433.946
2639 0 118.521 16.1237 1911 107.472 119.524 434.049
2640 0 116.53 10.4523 1218 118.401 121.245 433.23
2641 0 124.49 13.2139 1645 113.81 121.262 432.095
2642 1 82.2273 11.1034 913 105.613 125.619 452.409
2643 0 87.1777 11.8035 1029 102.359 127.799 458.452
2644 0 86.2856 13.2931 1147 102.612 126.819 453.445
2645 0 91.2397 19.8707 1813 95.0336 126.11 456.315
2646 0 95.1686 15.0785 1435 100.39 126.161 452.382
2647 0 96.4404 13.2517 1278 100.175 124.166 459.083
2648 0 102.082 16.0459 1638 98.9963 123.186 446.833
2649 0 104.63 15.4545 1617 100.024 122.708 454.33
2650 0 108.389 13.3777 1450 102.478 121.668 443.675
2651 1 180.067 13.6283 2454 100.05 121.382 434.227
2652 0 172.242 16.0356 2762 97.8903 121.709 430.169
2653 1 62.3329 18.2889 1140 91.2623 118.754 470.044
2654 0 64.1241 16.5928 1064 94.0338 116.742 472.935
2655 0 67.1743 19.2931 1296 90.9877 116.553 473.881
2656 0 68.6015 18.3961 1262 90.3479 116.268 466.903
2657 0 72.4599 15.581 1129 92.264 115.878 470.925
2658 0 73.5091 17.5761 1292 92.3986 115.853 469.111
2659 0 79.4111 18.1587 1442 90.8211 114.799 466.82
2660 0 78.3587 15.965 1251 94.028 114.973 463.501
2661 0 82.3931 15.3775 1267 91.9045 113.873 467.605
2662 0 83.4867 15.6192 1304 94.0644 112.436 457.964
2663 0 84.3337 12.4861 1053 97.2887 112.302 459.718
2664 0 89.7662 14.9499 1342 94.8793 111.957 459.388
2665 0 90.3395 19.0725 1723 92.8445 112.6 447.831
2666 0 96.4124 21.4599 2069 90.7878 112.821 451.299
2667 0 95.7865 13.624 1305 99.2368 113.618 446.249
2668 0 95.6604 14.3842 1376 98.1737 113.433 449.28
2669 0 100.495 13.4335 1350 99.4696 112.67 442.405
2670 0 106.626 18.7477 1999 92.1476 114.867 450.342
2671 0 111.728 18.0438 2016 94.5263 114.843 437.798
2672 1 60.7624 16.2107 985 94.065 115.59 461.065
2673 0 61.2697 15.4236 945 95.0466 114.527 458.719
2674 0 67.3725 16.817 1133 91.1712 115.083 465.33
2675 0 66.3317 14.0506 932 95.5397 114.74 462.513
2676 0 68.6538 13.6919 940 96.6149 115.973 458.062
2677 0 69.5501 13.1704 916 97.81 117.159 454.575
2678 0 71.3182 15.0312 1072 95.9179 117.554 455.62
2679 0 72.2423 14.8666 1074 96.5894 118.296 456.423
2680 0 75.3748 17.4461 1315 94.9498 118.625 454.169
2681 0 75.4246 12.2374 923 101.873 119.313 453.864
2682 0 81.2248 18.1718 1476 94.4736 119.907 456.524
2683 0 83.5315 19.6213 1639 94.3453 118.903 451.165
2684 0 84.2878 15.364 1295 98.9436 120.741 455.487
2685 0 89.3788 19.1432 1711 94.0672 119.019 458.892
2686 0 89.2218 14.4808 1292 101.751 119.536 450.923
2687 0 96.181 17.2591 1660 96.5837 118.619 457.981
2688 0 94.7986 14.6521 1389 100.999 119.918 452.96
2689 0 97.838 15.1782 1485 99.9973 119.178 457.76
2690 0 96.3689 14.6001 1407 98.9204 120.022 454.329
2691 0 100.248 16.8282 1687 98.2389 119.861 456.197
2692 0 103.296 16.4867 1703 99.165 120.442 456.137
2693 0 109.584 17.2744 1893 97.9894 119.604 451.42
2694 1 67.2578 18.9569 1275 92.4902 119.542 481.078
2695 0 64.3294 14.1149 908 98.6068 118.237 481.178
2696 0 68.405 17.2502 1180 96.6559 117.742 475.168
2697 0 71.5104 16.599 1187 95.941 116.972 476.619
2698 0 72.1447 21.7341 1568 92.0032 115.732 472.889
2699 0 76.2208 14.563 1110 98.2 115.776 470.341
2700 0 78.1337 16.2414 1269 96.115 116.334 470.162
2701 0 79.3973 13.8418 1099 99.5924 114.396 465.691
2702 0 78.7709 12.9616 1021 94.7924 115.089 456.579
2703 0 87.3232 22.1132 1931 80.4832 115.2 465.511
2704 0 83.837 20.0627 1682 82.324 114.595 463.614
2705 0 88.3993 18.1676 1606 84.0884 114.007 460.17
2706 0 100.456 16.8731 1695 84.0478 113.971 461.866
2707 0 92.493 21.4719 1986 84.3454 112.459 444.221
2708 0 99.8238 20.7866 2075 84.7499 113.888 455.207
2709 0 102.259 23.2742 2380 83.205 113.911 454.426
2710 0 103.513 18.5871 1924 88.0577 113.523 450.649
2711 0 108.901 15.3809 1675 90.64 114.876 448.382
2712 0 112.563 16.9504 1908 90.6384 114.257 437.925
2713 0 117.773 15.0375 1771 91.6307 115.539 451.858
2714 0 115.61 13.8396 1600 93.4338 115.49 451.214
2715 0 123.837 19.5015 2415 91.4956 116.007 436.695
2716 0 127.814 18.2061 2327 93.7834 116.614 433.859
2717 0 129.551 19.282 2498 93.4576 116.207 428.665
2718 0 133.567 15.7599 2105 96.4945 118.542 425.793
2719 0 140.599 18.2292 2563 93.1085 118.04 434.952
2720 1 77.3214 9.85497 762 97.8556 118.802 460.655
2721 0 82.4904 18.1597 1498 90.0681 118.711 461.78
2722 0 87.5217 19.9151 1743 90.2186 119.52 455.106
2723 0 86.4063 17.3251 1497 93.4355 119.528 453.003
2724 0 90.3279 17.1597 1550 94.0697 119.734 451.283
2725 0 93.3526 14.7291 1375 97.2676 120.561 448.617
2726 0 96.4407 14.7759 1425 97.0604 121.121 451.354
2727 0 101.283 19.411 1966 92.4812 121.347 450.493
2728 0 104.437 13.7595 1437 95.8747 122.38 449.71
2729 0 106.442 19.1278 2036 92.1783 121.993 446.329
2730 0 114.369 20.3639 2329 90.8626 121.212 446.016
2731 0 112.436 15.9469 1793 95.5198 120.979 444.944
2732 0 117.395 25.6655 3013 86.5699 120.896 451.377
2733 0 120.637 17.0594 2058 94.0894 120.744 450.35
2734 0 124.512 17.7493 2210 95.0312 121.764 442.211
2735 0 123.332 14.1813 1749 99.5592 121.146 444.153
2736 0 133.822 19.0177 2545 93.8711 120.607 448.251
2737 0 134.895 19.4966 2630 95.8403 119.935 437.382
2738 0 142.407 15.6312 2226 99.1195 118.64 438.066
2739 0 143.594 14.5062 2083 101.668 119.239 433.552
2740 0 151.793 15.0798 2289 102.222 118.191 428.744
2741 1 86.3251 14.7929 1277 99.8269 117.316 462.631
2742 0 88.7042 13.3365 1183 100.943 115.604 461.682
2743 0 91.3584 16.7582 1531 97.3142 115.3 461.854
2744 0 95.5297 19.1145 1826 92.7924 115.531 460.886
2745 0 98.3664 15.7473 1549 97.1007 114.78 454.939
2746 0 99.4258 14.7245 1464 99.1475 114.736 452.112
2747 0 102.263 13.876 1419 98.0028 114.746 453.448
2748 0 104.424 11.9992 1253 101.284 113.452 448.004
2749 0 106.497 15.0521 1603 97.7642 114.16 452.272
2750 0 112.289 13.5098 1517 99.085 112.775 451.715
2751 0 116.568 16.1708 1885 96.3231 115.52 442.984
2752 0 119.744 18.4476 2209 94.7995 115.92 439.598
2753 0 125.852 19.9123 2506 95.0363 116.397 435.008
2754 1 67.5363 14.1998 959 100.772 117.975 458.893
2755 0 70.5352 12.9722 915 101.895 116.795 462.739
2756 0 71.4375 15.944 1139 99.6541 117.936 458.306
2757 0 76.6067 14.5418 1114 98.868 117.278 460.89
2758 0 77.2429 10.3181 797 106.709 117.843 451.779
2759 0 79.6462 14.3635 1144 102.72 118.871 452.51
2760 0 85.5252 16.2993 1394 99.6865 120.028 452.132
2761 0 86.5296 15.4282 1335 101.396 119.966 448.413
2762 0 89.4247 16.5055 1476 100.713 120.073 446.894
2763 0 88.6507 12.0698 1070 105.895 121.419 445.951
2764 0 92.5551 14.4671 1339 101.709 122.106 449.922
2765 0 91.5763 7.6439 700 111.259 123.226 450.499
2766 0 98.3555 13.8782 1365 105.873 122.313 443.257
2767 0 103.514 13.6504 1413 105.112 124.531 445.98
2768 0 103.284 14.2229 1469 104.71 123.012 443.509
2769 0 108.692 13.7177 1491 105.571 124.272 440.125
2770 0 106.893 12.9662 1386 106.271 125.063 438.801
2771 0 115.453 11.286 1303 107.383 124.897 447.666
2772 0 115.668 13.0719 1512 106.438 125.226 440.53
2773 0 123.989 16.1386 2001 102.759 123.875 438.498
2774 0 127.189 19.1369 2434 99.4207 124.332 441.726
2775 0 129.883 13.0348 1693 106.094 123.466 441.024
2776 0 137.518 16.3978 2255 101.786 123.196 439.028
2777 1 78.4772 10.8949 855 102.939 124.302 468.215
2778 0 80.3441 15.11 1214 101.383 124.457 462.68
2779 0 80.5043 16.6823 1343 98.347 124.119 467.943
2780 0 86.4498 16.4836 1425 99.0807 123.951 464.761
2781 0 89.2232 15.8143 1411 101.145 123.808 458.906
2782 0 89.3352 15.3467 1371 101.465 123.543 461.775
2783 0 93.5715 17.0351 1594 98.7905 122.048 463.492
2784 0 96.3285 16.4749 1587 101.349 121.1 454.503
2785 0 97.4521 20.2356 1972 97.5598 120.954 449.107
2786 0 102.158 15.8285 1617 102.442 121.038 451.295
2787 0 102.329 15.2253 1558 104.384 120.071 444.389
2788 0 106.362 20.2421 2153 97.621 118.763 445.786
2789 0 111.401 15.727 1752 101.595 118.755 447.993
2790 0 113.407 19.6196 2225 99.3546 117.872 435.007
2791 0 115.322 14.4898 1671 105.16 118.177 430.871
2792 0 114.28 12.8806 1472 107.183 118.251 431.674
2793 0 117.573 12.656 1488 104.539 117.147 429.942
2794 0 117.534 12.3114 1447 106.478 115.812 421.336
2795 0 130.467 16.004 2088 101.136 114.416 429.725
2796 0 134.779 13.9339 1878 105.399 115.935 421.614
2797 0 136.759 15.7138 2149 102.993 115.301 416.192
2798 0 137.227 15.3469 2106 106.999 116.835 408.238
2799 1 84.4401 12.423 1049 103.348 117.661 440.688
2800 0 86.7971 13.2032 1146 100.972 117.661 444.346
2801 0 92.4582 11.3457 1049 103.299 116.892 442.109
2802 0 90.2177 15.3407 1384 101.168 118.832 439.494
2803 0 93.2954 14.0629 1312 103.53 119.113 432.94
2804 0 91.6643 10.2439 939 108.295 120.851 430.222
2805 0 100.569 16.3868 1648 100.052 121.871 424.95
2806 0 104.413 13.0923 1367 103.621 124.029 433.291
2807 0 107.371 14.4918 1556 102.638 122.851 428.334
2808 0 106.583 14.5709 1553 100.18 122.44 427.444
2809 1 116.352 12.6685 1474 106.129 121.929 430.173
2810 0 123.355 14.738 1818 104.608 122.361 428.414
2811 0 127.947 15.9831 2045 102.458 122.318 432.236
2812 0 130.482 17.2437 2250 102.267 123.24 428.576
2813 0 127.649 10.6464 1359 108.472 123.855 418.043
2814 1 139.94 17.536 2454 100.542 123.91 414.898
2815 1 77.3055 9.92168 767 100.771 123.864 452.3
2816 0 83.2769 15.9708 1330 93.5857 123.197 459.862
2817 0 81.3432 9.47836 771 102.311 123.115 459.23
2818 0 87.2011 12.1788 1062 95.9256 122.918 458.132
2819 0 86.3923 16.2051 1400 92.5214 122.506 464.849
2820 0 89.1969 13.0722 1166 99.0703 121.81 456.911
2821 0 93.3906 14.3162 1337 96.27 123.518 453.521
2822 0 94.4794 11.5898 1095 100.721 122.081 450.71
2823 0 92.3875 7.14382 660 105.712 122.62 447.682
2824 0 99.7495 15.2783 1524 96.939 122.313 446.612
2825 0 105.279 13.469 1418 98.4767 120.683 453.385
2826 0 105.479 12.6376 1333 99.9302 120.164 450.665
2827 0 110.421 16.3465 1805 93.3862 119.325 459.843
2828 0 110.455 7.07979 782 106.941 118.795 442.075
2829 0 116.643 15.9718 1863 96.3505 119.287 448.16
2830 0 117.378 10.8197 1270 101.472 118.177 442.368
2831 0 124.697 21.4841 2679 92.0037 117.309 436.94
2832 0 117.473 11.2877 1326 103.39 118.307 432.696
2833 1 130.84 12.5649 1644 101.501 118.591 428.177
2834 0 133.687 10.9135 1459 103.6 118.395 430.915
2835 0 136.133 7.41188 1009 109.453 117.457 418.651
2836 1 83.8074 9.05648 759 97.9592 116.635 453.472
2837 0 84.8854 13.1118 1113 92.2444 116.086 455.351
2838 0 88.9218 13.45 1196 93.4983 116.094 450.789
2839 0 90.8868 10.7936 981 96.1111 115.94 450.076
2840 0 91.1047 11.2398 1024 97.2363 116.806 443.546
2841 0 94.9825 7.94884 755 96.8649 116.776 453.551
2842 0 97.8063 13.6392 1334 93.6784 116.086 446.339
2843 0 98.0301 8.90543 873 100.721 117.045 433.561
2844 0 103.097 13.6861 1411 96.1984 117.972 433.123
2845 0 109.354 13.2872 1453 96.468 117.198 430.48
2846 0 111.249 12.5395 1395 97.357 118.562 422.771
2847 0 112.016 12.6946 1422 96.4909 117.81 430.836
2848 0 116.048 13.3479 1549 97.1879 120.583 423.489
2849 0 121.286 13.6372 1654 97.0834 120.043 421.496
2850 0 126.538 13.4505 1702 96.349 120.834 421.466
2851 1 72.0638 17.4845 1260 89.8032 121.821 449.39
2852 0 74.4005 11.1155 827 96.1028 123.464 456.49
2853 0 75.8003 13.0342 988 94.9706 123.198 450.263
2854 0 77.9976 15.7056 1225 93.1461 124.491 452.855
2855 0 77.8186 9.6378 750 99.7627 125.492 451.173
2856 0 83.966 11.2426 944 101.291 125.458 449.878
2857 0 91.1088 15.7175 1432 95.6983 123.963 442.481
2858 0 88.2677 10.5701 933 100.237 125.205 445.472
2859 0 94.0304 14.6974 1382 93.6592 123.622 446.009
2860 0 93.1089 11.3416 1056 98.428 124.503 448.017
2861 0 98.2245 10.4556 1027 97.2989 124.852 450.239
2862 0 103.429 17.9253 1854 91.7136 124.102 450.5
2863 0 105.457 17.4479 1840 92.3734 124.024 449.252
2864 0 109.282 11.4475 1251 98.3158 123.504 447.052
2865 0 108.991 11.5422 1258 97.5413 123.256 452.147
2866 0 114.155 13.6832 1562 96.1082 122.23 450.675
2867 0 118.754 16.3952 1947 94.8726 122.23 440.27
2868 0 118.279 14.9478 1768 97.1589 121.146 433.872
2869 0 121.837 13.5509 1651 97.4409 120.658 443.496
2870 0 128.35 12.762 1638 97.862 120.089 442.058
2871 0 126.921 11.3378 1439 99.3183 120.123 441.896
2872 0 138.136 15.9915 2209 94.9629 118.291 433.384
2873 0 141.915 16.7706 2380 92.974 119.746 440.987
2874 0 144.795 17.5075 2535 93.6201 117.455 426.976
2875 0 145.571 14.0413 2044 99.0445 116.367 421.576
2876 0 151.528 15.2513 2311 97.318 116.344 424.932
2877 1 89.2983 14.5915 1303 92.9609 115.863 458.026
2878 0 90.3481 14.0567 1270 94.1331 115.386 456.836
2879 0 92.221 16.4279 1515 92.1063 114.91 450.835
2880 0 95.3762 14.2384 1358 94.4794 115.175 446.534
2881 0 100.685 18.9304 1906 87.6028 115.895 460.652
2882 0 103.944 10.9097 1134 97.0062 116.251 450.792
2883 0 103.156 14.386 1484 96.1058 117.072 440.322
2884 1 192.801 15.8401 3054 97.7082 116.191 403.135
2885 1 108.773 14.2774 1553 95.9775 117.368 443.72
2886 0 110.062 11.2573 1239 101.542 118.517 432.829
2887 0 112.947 11.2973 1276 101.574 119.467 437.28
2888 0 118.993 11.757 1399 99.634 118.761 441.793
2889 0 119.178 11.8898 1417 101.136 118.667 437.2
2890 0 127.177 11.4407 1455 102.116 119.106 435.177
2891 0 128.062 16.3593 2095 98.2334 119.846 426.557
2892 1 187.013 20.0146 3743 94.5116 120.782 413.744
2893 1 73.3514 13.9329 1022 96.5245 123.173 462.413
2894 0 75.36 21.2314 1600 88.0806 122.704 453.496
2895 0 76.436 14.378 1099 94.5123 123.561 454.632
2896 0 79.332 15.933 1264 92.5134 123.799 452.751
2897 0 79.461 15.0388 1195 94.1941 125.462 452.947
2898 0 84.2281 17.8325 1502 91.289 124.059 453.449
2899 0 87.2544 13.7185 1197 93.4703 122.703 455.575
2900 0 87.2215 12.6918 1107 95.5167 123.736 454.86
2901 0 94.4104 18.07 1706 91.0598 124.053 451.205
2902 0 93.3237 11.9798 1118 96.0733 125.311 457.83
2903 0 98.4578 16.8702 1661 92.0476 124.282 452.33
2904 0 100.453 20.7759 2087 89.5467 124.305 449.052
2905 0 101.539 13.64 1385 95.8527 124.419 451.279
2906 0 101.521 11.2784 1145 97.8332 123.583 453.744
2907 0 107.67 17.9994 1938 91.7018 124.217 455.497
2908 0 112.446 13.8111 1553 98.8364 124.703 446.997
2909 0 113.554 18.0707 2052 95.2914 123.197 443.398
2910 0 116.659 18.3612 2142 91.3763 123.521 456.024
2911 0 121.222 22.4464 2721 88.2367 122.563 454.637
2912 0 126.665 17.8581 2262 92.7122 122.333 448.785
2913 0 126.823 17.2523 2188 95.1938 121.578 444.139
2914 0 131.783 10.5628 1392 102.58 120.122 441.207
2915 0 132.557 12.0326 1595 103.416 120.397 431.632
2916 1 75.263 13.2469 997 95.677 120.609 465.734
2917 0 77.3476 17.8286 1379 91.6041 120.281 457.629
2918 0 83.3961 13.1901 1100 94.7882 118.889 463.128
2919 0 83.4703 12.0282 1004 96.5339 117.481 461.914
2920 0 86.4979 17.723 1533 90.3503 117.821 462.658
2921 0 86.3772 11.3803 983 97.3967 116.872 458.969
2922 0 92.441 14.5174 1342 95.0529 117.328 452.2
2923 0 96.8402 21.9227 2123 88.8031 116.581 449.227
2924 0 97.5464 16.9458 1653 93.3757 116.935 448.212
2925 0 100.546 11.8155 1188 97.0168 116.446 451.157
2926 0 100.484 10.5489 1060 99.3774 115.654 443.999
2927 0 110.595 17.3064 1914 93.6416 116.177 442.603
2928 0 106.648 13.643 1455 98.101 116.261 429.77
2929 0 113.974 16.2493 1852 95.5632 117.403 430.951
2930 0 118.566 21.2709 2522 92.6915 117.048 437.078
2931 0 120.844 13.1492 1589 102.147 117.964 427.012
2932 1 74.8477 16.0593 1202 92.4925 118.083 458.459
2933 0 71.3532 16.6776 1190 93.116 119.008 457.6
2934 0 75.7661 12.3274 934 98.4433 118.536 454.288
2935 0 74.4888 15.8145 1178 94.1256 119.786 460.04
2936 0 78.3881 20.7174 1624 91.1718 120.732 456.312
2937 0 79.4787 16.6334 1322 96.3298 120.641 453.505
2938 0 81.318 14.8798 1210 99.219 122.58 446.312
2939 0 85.5674 15.8238 1354 98.1588 122.285 448.651
2940 0 89.525 15.0908 1351 99.9023 123.081 445.87
2941 0 90.4241 13.5583 1226 100.666 123.441 452.356
2942 0 95.539 17.3332 1656 98.1733 123.83 447.559
2943 0 96.4981 17.4304 1682 99.8781 124.572 444.48
2944 0 96.5368 12.6377 1220 103.966 124.406 451.572
2945 0 105.314 17.5095 1844 100.642 125.419 443.725
2946 0 109.774 14.621 1605 101.287 124.583 446.569
2947 0 111.473 15.7707 1758 101.212 124.366 445.378
2948 0 117.548 25.5895 3008 91.6656 124.447 448.5
2949 0 117.552 15.1678 1783 103.748 124.209 445.99
2950 0 122.764 18.8003 2308 99.8219 123.64 443.792
2951 1 69.0899 14.4305 997 100.42 121.625 464.372
2952 0 72.5228 10.4381 757 105.584 122.945 468.783
2953 0 73.7051 12.5772 927 105.739 123.203 461.636
2954 0 76.6662 16.0175 1228 100.963 122.342 461.775
2955 0 77.6389 18.6505 1448 97.7624 123.113 466.027
2956 0 79.5474 14.5071 1154 103.034 120.93 463.448
2957 0 84.9206 13.8011 1172 103.947 121.98 460.956
2958 0 89.8701 19.3168 1736 97.8439 120.594 457.096
2959 0 86.7975 14.2746 1239 105.472 121.3 455.794
2960 0 91.3759 13.7126 1253 105.205 120.18 457.502
2961 0 96.7575 15.7817 1527 102.407 119.918 452.128
2962 0 99.7761 16.3967 1636 102.452 119.204 447.886
2963 0 102.764 16.3773 1683 102.485 119.391 448.861
2964 0 104.757 17.4881 1832 100.114 118.66 454.209
2965 0 106.988 19.8714 2126 99.5071 118.789 439.504
2966 0 111.724 17.0152 1901 101.913 118.766 447.803
2967 0 112.819 14.8645 1677 106.247 118.23 439.148
2968 0 114.553 14.788 1694 105.413 118.365 440.629
2969 0 121.049 15.3657 1860 105.755 117.814 432.043
2970 0 127.296 15.4678 1969 103.102 118.821 443.086
2971 0 132.732 21.6225 2870 99.6613 118.585 422.719
2972 0 131.798 12.1929 1607 109.221 119.973 428.947
2973 1 73.4803 12.7925 940 102.713 119.214 456.414
2974 0 79.3405 12.1123 961 102.299 117.896 458.576
2975 0 78.2981 20.0899 1573 96.2886 119.043 452.559
2976 0 78.315 13.4968 1057 103.617 119.247 451.623
2977 0 84.2913 18.1039 1526 95.9816 120.938 459.469
2978 0 85.4039 9.5546 816 107.642 121.178 449.624
2979 0 89.3004 12.4635 1113 105.177 122.261 443.054
2980 0 92.615 14.6844 1360 102.537 121.795 446.331
2981 0 98.4048 14.6334 1440 101.165 121.987 449.831
2982 0 98.3268 13.5772 1335 104.007 123.458 447.915
2983 0 99.3166 14.1769 1408 103.724 123.311 445.338
2984 0 103.321 15.3018 1581 102.229 125.595 445.952
2985 0 104.549 12.243 1280 106.62 123.586 439.81
2986 0 110.47 13.2072 1459 101.714 124.574 453.422
2987 0 110.66 12.2176 1352 107.445 124.392 443.479
2988 0 113.526 11.2133 1273 108.605 124.491 440.573
2989 0 124.525 15.9326 1984 101.794 123.925 442.869
2990 0 126.354 16.2797 2057 102.258 124.066 436.675
2991 0 126.773 17.8666 2265 101.293 124.219 436.682
2992 1 71.4389 10.4705 748 103.004 124.174 466.172
2993 0 71.3148 13.1109 935 100.166 123.55 466.69
2994 0 77.4337 14.7481 1142 99.9816 123.261 463.895
2995 0 81.2698 14.2734 1160 100.049 122.148 464.937
2996 0 82.3764 16.3275 1345 98.2825 122.207 464.468
2997 0 83.3638 15.8822 1324 97.8316 122.522 467.52
2998 0 87.3349 13.6486 1192 100.292 122.065 467.472
2999 0 92.2711 18.0338 1664 95.143 120.981 466.763
3000 0 94.2982 23.0015 2169 91.8345 120.299 463.167
3001 0 92.4 13.0303 1204 103.907 119.791 456.304
3002 0 99.4748 19.8844 1978 94.9641 119.013 457.048
3003 0 99.3219 14.5084 1441 100.758 118.278 453.532
3004 0 104.458 16.7245 1747 97.9748 118.263 455.524
3005 0 107.393 14.5168 1559 100.382 116.667 452.152
3006 0 110.48 18.13 2003 97.0609 117.158 450.658
3007 1 61.0872 13.0142 795 97.9434 116.07 472.897
3008 0 63.0698 14.7931 933 95.8253 117.152 468.497
3009 0 66.2749 20.2792 1344 92.744 116.908 469.429
3010 0 70.2417 24.0598 1690 88.2444 115.932 467.689
3011 0 72.495 13.8906 1007 96.8928 117.42 464.317
3012 0 73.3062 21.3488 1565 90.3796 116.054 463.706
3013 0 77.2863 13.9481 1078 95.6753 117.262 463.977
3014 0 77.2116 14.2077 1097 96.1759 117.827 464.647
3015 0 83.3251 17.9898 1499 92.9933 117.516 457.981
3016 0 83.5264 17.0844 1427 94.8914 117.423 455.27
3017 0 86.2729 16.726 1443 94.6209 118.837 457.499
3018 0 86.1375 15.3592 1323 96.5336 118.361 455.133
3019 0 92.4842 13.2239 1223 97.305 119.715 456.684
3020 0 92.5157 12.1925 1128 99.7429 119.804 450.723
3021 0 95.3588 14.5975 1392 97.8958 120.39 448.964
3022 0 96.4544 12.2856 1185 101.078 121.803 449.44
3023 0 101.238 20.0123 2026 93.2843 120.961 446.843
3024 0 105.369 10.2971 1085 101.629 121.94 447.326
3025 0 108.76 14.9964 1631 96.927 122.123 445.494
3026 0 112.82 18.9239 2135 93.6089 122.991 445.136
3027 1 62.2676 15.8349 986 94.8144 122.009 464.937
3028 0 63.1754 11.1594 705 97.0851 122.085 464.529
3029 0 65.409 17.1689 1123 93.2511 125.045 465.061
3030 0 64.0716 11.7057 750 98.756 124.148 467.869
3031 0 70.2578 14.276 1003 96.2084 123.779 466.359
3032 0 74.7714 16.2763 1217 93.8529 124.982 467.018
3033 0 74.2313 18.0786 1342 92.9911 124.02 470.517
3034 0 77.644 14.6953 1141 96.5346 124.37 465.546
3035 0 74.4184 11.4353 851 100.469 124.529 464.262
3036 0 83.2767 16.0189 1334 95.5457 123.831 462.171
3037 0 85.5062 16.6888 1427 94.0631 123.343 467.31
3038 0 88.3804 19.7442 1745 92.435 123.171 463.04
3039 0 88.8444 11.5033 1022 101.016 122.333 465.564
3040 0 92.7781 18.0862 1678 94.4327 121.468 462.916
3041 0 96.6565 19.4917 1884 93.2935 122.157 460.538
3042 0 100.801 18.3629 1851 94.6634 120.857 465.669
3043 0 100.645 22.5644 2271 92.4126 120.318 459.108
3044 0 104.405 21.8668 2283 93.2475 118.941 458.694
3045 0 106.768 16.3157 1742 98.8065 119.765 457.149
3046 0 113.219 17.4882 1980 98.053 117.938 447.345
3047 0 113.634 14.7931 1681 98.1333 118.121 449.601
3048 0 116.845 18.0667 2111 94.1876 117.198 452.155
3049 0 122.614 16.499 2023 97.0826 116.366 441.982
3050 0 129.318 19.0615 2465 93.3757 116.411 440.675
3051 0 132.079 14.9986 1981 97.058 115.956 441.354
3052 0 139.781 18.5862 2598 93.5581 116.4 437.707
3053 0 145.379 18.5378 2695 94.5043 115.17 427.986
3054 1 82.63 18.7583 1550 90.831 115.179 457.822
3055 0 85.9297 14.5351 1249 94 115.133 459.513
3056 0 85.4672 10.858 928 98.9343 116.241 457.086
3057 0 89.4008 15.7605 1409 96.1363 113.983 448.239
3058 0 92.8198 19.2093 1783 88.8385 113.276 459.837
3059 0 97.6107 17.5083 1709 92.4576 113.631 452.315
3060 0 99.7122 16.1966 1615 94.7053 114.949 447.991
3061 0 102.986 17.1771 1769 93.7812 115.213 446.314
3062 0 101.436 12.4315 1261 99.6701 116.975 439.138
3063 0 108.839 14.2687 1553 97.3039 117.773 435.949
3064 0 111.727 15.8064 1766 95.8511 118.945 436.063
3065 0 114.939 16.139 1855 96.5612 118.909 431.379
3066 0 118.849 16.9206 2011 95.2282 118.49 435.1
3067 0 122.979 14.3683 1767 99.6361 119.892 425.786
3068 0 127.749 15.3504 1961 97.6436 120.067 437.416
3069 0 131.86 16.9346 2233 96.1196 120.657 438.016
3070 0 139.163 18.0796 2516 96.3585 121.818 426.762
3071 0 143.951 15.2691 2198 99.6993 121.437 426.624
3072 0 148.971 21.0712 3139 94.2867 122.048 425.399
3073 0 154.214 15.5628 2400 98.3183 122.935 427.547
3074 0 161.972 13.8357 2241 99.6984 122.983 424.173
3075 1 95.283 18.9016 1801 91.7218 121.377 458.458
3076 0 96.0198 15.5385 1492 95.2714 121.374 458.271
3077 0 97.106 17.9906 1747 94.0675 122.354 455.999
3078 0 99.6866 11.9775 1194 100.237 121.548 449.743
3079 0 103.048 11.8294 1219 101.129 122.105 448.473
3080 0 109.53 18.0316 1975 94.0623 120.501 450.558
3081 0 111.778 17.5259 1959 95.8275 120.779 443.41
3082 0 115.08 19.5342 2248 91.1294 120.536 460.186
3083 0 118.904 14.6757 1745 97.7983 120.744 451.007
3084 0 125.197 18.4749 2313 94.0398 120.041 451.289
3085 0 130.312 23.7814 3099 90.5941 118.852 442.463
3086 0 130.55 19.9999 2611 94.1612 118.375 441.062
3087 0 133.382 16.8389 2246 97.4786 118.769 444.164
3088 0 141.04 14.9603 2110 100.829 117.971 433.655
3089 0 145.405 15.4052 2240 100.854 117.333 431.259
3090 0 151.194 17.0046 2571 99.4162 116.387 428.424
3091 1 89.8884 13.8839 1248 99.2949 115.584 458.896
3092 0 90.5229 14.0959 1276 100.495 116.222 452.552
3093 0 91.2882 14.624 1335 99.4037 117.318 451.987
3094 0 90.3383 17.2684 1560 97.3513 116.222 445.201
3095 0 101.253 15.4366 1563 97.3321 115.612 445.191
3096 0 101.253 15.5946 1579 133.369 115.624 445.227
3097 0 102.686 18.1038 1859 96.0161 115.788 437.986
3098 0 108.63 16.2294 1763 96.0085 115.877 446.895
3099 0 115.382 20.0292 2311 92.016 115.646 443.56
3100 0 115.417 14.3826 1660 98.8771 116.567 431.991
3101 0 121.521 17.1328 2082 96.7382 116.153 426.417
3102 0 123.582 14.1444 1748 100.358 117.142 430.362
3103 0 131.684 18.8102 2477 96.6011 117.314 427.824
3104 0 135.396 13.0062 1761 103.328 118.33 416.15
3105 1 78.4343 16.2939 1278 93.5235 116.954 456.764
3106 0 81.5982 12.6841 1035 99.2193 118.325 448.578
3107 0 87.5209 15.5734 1363 94.8048 118.36 452.844
3108 0 83.4438 12.1519 1014 100.613 119.048 447.134
3109 0 88.2918 15.1316 1336 95.9431 119.506 451.969
3110 0 88.3301 12.3174 1088 98.3189 120.984 452.411
3111 0 91.5075 13.6819 1252 100.264 121.789 445.426
3112 0 95.2114 11.9839 1141 99.3944 122.511 457.344
3113 0 93.6205 14.4199 1350 100.441 120.987 446.459
3114 0 99.5506 18.3826 1830 95.2858 121.458 450.544
3115 0 106.229 16.7939 1784 97.5645 121.818 445.029
3116 0 105.578 14.6621 1548 101.569 123.16 441.747
3117 0 104.25 16.8728 1759 98.4247 121.572 445.788
3118 0 112.622 16.1158 1815 98.1956 123.136 446.748
3119 0 112.34 15.3195 1721 101.619 121.684 440.14
3120 1 219.159 16.3352 3580 98.5788 121.956 415.078
3121 1 126.649 22.6373 2867 93.3844 121.513 444.664
3122 0 131.834 21.5043 2835 94.5139 120.54 438.928
3123 0 129.997 17.9542 2334 97.1812 120.979 448.153
3124 0 136.812 15.5104 2122 101.76 120.23 439.306
3125 0 136.675 12.7456 1742 106.621 121.524 430.75
3126 0 144.641 15.8669 2295 102.836 119.627 430.648
3127 0 149.342 15.6687 2340 101.485 120.011 438.365
3128 0 153.77 16.3947 2521 102.545 118.973 423.428
3129 1 91.3689 13.057 1193 100.019 117.715 463.901
3130 0 98.0814 12.4692 1223 99.1537 117.088 465.451
3131 0 95.4123 13.0906 1249 101.202 116.476 454.482
3132 0 101.462 17.2872 1754 95.9766 115.921 453.158
3133 0 104.43 18.5292 1935 93.1473 115.19 460.904
3134 0 108.642 15.39 1672 98.0251 114.881 452.529
3135 0 109.82 15.9079 1747 98.0544 114.898 451.262
3136 0 113.434 12.6681 1437 102.161 114.242 447.602
3137 0 112.617 12.6535 1425 103.632 114.215 441.607
3138 0 117.621 16.2301 1909 99.5961 114.275 443.174
3139 0 125.856 16.4394 2069 98.7545 114.102 439.721
3140 0 125.817 15.2125 1914 101.65 114.897 432.516
3141 0 131.141 21.1146 2769 93.935 114.65 439.798
3142 0 136.796 14.5472 1990 99.8739 115.423 438.519
3143 0 135.715 14.3241 1944 102.499 114.615 423.087
3144 0 135.664 11.8381 1606 106.506 116.276 416.245
3145 1 151.691 17.0149 2581 99.2658 115.021 420.704
3146 0 154.657 14.1733 2192 101.963 116.818 424.597
3147 0 155.092 14.9975 2326 101.269 116.491 418.836
3148 0 160.666 19.1516 3077 98.2912 117.133 408.799
3149 0 165.75 22.6847 3760 95.7186 117.001 409.212
3150 0 176.284 20.2741 3574 96.4001 118.408 414.076
3151 0 179.169 15.4547 2769 101.875 118.138 404.058
3152 1 105.589 15.9013 1679 100.497 117.431 444.114
3153 0 109.325 13.4827 1474 100.079 119.838 449.728
3154 0 108.534 21.5692 2341 94.0299 119.753 441.866
3155 0 115.447 16.8303 1943 98.0993 121.235 440.386
3156 0 119.714 14.0502 1682 100.831 121.602 438.488
3157 0 123.798 15.1699 1878 98.68 121.781 444.881
3158 0 124.45 15.2672 1900 100.966 123.629 435.682
3159 0 129.503 26.9259 3487 89.5566 121.822 439.675
3160 0 138.654 19.7326 2736 96.1411 121.891 436.172
3161 0 136.713 13.4004 1832 104.846 121.923 424.606
3162 0 142.513 18.9877 2706 98.0011 122.15 430.597
3163 0 145.353 12.4525 1810 104.718 121.968 431.829
3164 0 149.599 12.0857 1808 106.788 122.163 424.022
3165 0 154.591 16.9803 2625 100.386 121.488 427.344
3166 0 160.938 14.8007 2382 102.951 120.639 423.567
3167 0 161.011 12.9183 2080 108.278 120.947 411.768
3168 0 169.252 16.2893 2757 103.907 121.33 420.457
3169 0 173.933 14.7356 2563 106.001 120.406 415.974
3170 0 181.05 14.333 2595 107.829 119.878 410.05
3171 0 186.187 15.4361 2874 106.027 119.744 411.89
3172 0 192.922 14.2908 2757 107.643 118.152 408.516
3173 0 195.805 20.1118 3938 99.1128 117.707 406.395
3174 0 202.782 17.1612 3480 102.816 116.753 398.59
3175 0 212.886 15.4402 3287 105.206 116.217 395.842
3176 0 217.777 16.4572 3584 103.805 115.22 383.133
3177 0 225.362 14.1595 3191 106.37 115.497 386.372
3178 0 232.708 14.1035 3282 107.282 114.49 387.76
3179 1 184.689 15.2256 2812 104.508 115.297 411.278
3180 0 191.734 15.5007 2972 105.092 114.814 402.87
3181 0 196.806 16.0971 3168 103.29 114.091 405.957
3182 0 206.811 13.6405 2821 106.276 114.526 392.433
3183 0 214.229 14.6338 3135 105.263 114.033 385.115
3184 0 220.826 15.0707 3328 104.892 114.629 379.377
3185 0 230.166 20.0638 4618 97.4903 114.06 393.397
3186 0 316.203 27.5108 8699 93.3702 114.391 333.791
3187 0 328.554 23.6886 7783 96.7372 113.714 314.466
3188 1 285.416 8.4228 2404 107.473 114.467 382.209
3189 1 273.336 29.9412 8184 89.8447 115.588 353.658
3190 1 65.6565 12.8396 843 93.5433 115.677 462.415
3191 0 69.6818 17.8669 1245 88.1478 114.916 468.316
3192 0 69.3268 12.7079 881 95.0284 114.188 464.742
3193 0 71.5667 18.2627 1307 90.4269 116.2 465.378
3194 0 69.3989 11.225 779 98.4698 117.104 461.27
3195 0 77.5104 19.3909 1503 89.0665 115.677 463.578
3196 0 78.8976 14.1956 1120 94.8938 118.922 463.836
3197 0 82.6385 14.63 1209 93.8404 118.016 461.943
3198 0 85.5289 23.419 2003 86.5711 118.582 458.921
3199 0 83.3943 14.1137 1177 95.0433 118.597 462.914
3200 0 86.4773 14.0152 1212 93.6766 119.061 458.886
3201 0 86.3058 12.5716 1085 93.9714 119.682 468.921
3202 0 89.7278 14.6554 1315 95.8586 119.851 458.094
3204 0 384.756 17.0212 6549 96.3547 119.803 285.003
3205 0 387.363 20.7015 8019 93.3037 118.738 290.204
3206 0 287.056 15.9969 4592 85.2439 119.998 389.104
3207 0 282.013 22.2791 6283 81.83 118.804 376.208
3208 0 398.122 20.2677 8069 88.4954 119.417 313.894
3209 0 392.599 23.6119 9270 86.8707 118.235 316.42
3210 0 220.07 24.0469 5292 87.5221 119.23 406.051
3211 0 213.701 26.2002 5599 86.6126 118.982 407.753
3212 1 122.822 18.5961 2284 93.9107 119.282 449.483
3213 0 125.841 19.9062 2505 92.3545 118.37 450.222
3214 0 128.635 13.7288 1766 99.5521 118.423 447.517
3215 0 132.626 17.8019 2361 96.3537 117.551 440.038
3216 0 138.074 20.7207 2861 92.697 117.843 446.582
3217 0 139.482 17.6009 2455 97.6228 116.009 437.191
3218 0 147.849 22.8342 3376 87.9117 116.426 444.471
3219 0 150.11 18.2599 2741 92.5775 115.432 442.447
3220 0 155.354 18.7442 2912 92.6271 115.249 437.322
3221 1 167.076 15.2566 2549 94.9765 115.445 436.056
3222 0 163.013 23.6361 3853 88.8892 115.276 432.245
3223 0 167.275 21.7786 3643 91.2443 114.47 429.563
3224 0 173.175 18.5015 3204 95.0437 113.722 422.134
3225 0 175.897 15.077 2652 99.8993 114.984 412.437
3226 0 180.944 19.0446 3446 97.2034 113.117 414.167
3227 0 187.918 18.1888 3418 98.3192 114.492 412.062
3228 1 199.671 16.7976 3354 101.147 113.753 404.292
3229 0 201.203 24.9351 5017 92.991 113.535 400.253
3230 0 207.293 19.8319 4111 97.0241 114.272 407.462
3231 0 210.265 22.8759 4810 94.547 114.656 409.305
3232 0 221.552 20.9702 4646 97.7809 115.246 392.066
3233 0 221.552 21.2049 4698 142.554 114.261 392.134
3234 1 233.523 27.8602 6506 91.6419 114.484 386.11
3235 0 247.621 26.6455 6598 91.8098 116.676 373.7
3236 0 251.941 26.28 6621 91.2108 117.241 366.291
3237 0 257.425 24.881 6405 92.7599 117.362 377.559
3238 0 261.287 22.6801 5926 95.9867 117.532 363.234
3239 0 269.833 25.2712 6819 93.8082 118.247 367.922
3240 0 278.82 28.0002 7807 92.1322 118.037 354.652
3241 0 289.418 23.3814 6767 94.9211 119.336 341.764
3242 0 299.004 20.4646 6119 97.16 120.375 350.749
3243 0 306.731 22.6648 6952 95.2698 120.749 346.15
3244 0 318.075 22.7462 7235 95.2702 120.944 358.922
3245 0 325.816 27.9974 9122 91.4104 120.778 332.713
3246 0 344.21 28.8864 9943 89.9974 120.992 334.024
3247 0 352.34 25.5236 8993 93.2344 120.871 334.139
3248 0 357.841 18.7681 6716 100.603 119.941 325.229
3249 0 372.916 21.12 7876 98.6077 120.898 317.031
3250 0 379.289 29.761 11288 90.3777 120.622 312.033
3251 0 379.47 20.0306 7601 98.9737 121.366 313.592
