time division length width area intensity CMx CMy
0 0 55.1952 13.2258 730 136.481 663.953 470.368
1 0 57.0883 15.5198 886 125.885 661.426 470.589
2 0 61.1717 15.7262 962 128.028 661.762 468.478
3 0 62.0648 15.5483 965 127.259 661.008 466.569
4 0 63.0869 14.5831 920 127.677 661.542 465.698
5 0 63.1129 14.0542 887 124.826 660.826 467.372
6 0 67.3241 14.8535 1000 123.788 658.761 468.417
7 0 66.3645 12.8834 855 149.405 655.672 465.633
8 1 32.253 10.9447 353 150.272 653.249 481.402
9 0 36.1266 13.8402 500 124.242 656.844 480.758
10 0 36.1464 13.9433 504 123.276 656.248 480.583
11 0 36.4069 12.8272 467 126.961 654.454 475.319
12 0 38.3721 14.5939 560 118.486 653.898 474.055
13 0 38.0719 13.921 530 122.789 656.374 476.506
14 0 39.1128 15.826 619 117.532 654.418 472.806
15 0 39.1483 11.7757 461 127.23 654.918 473.766
16 0 42.0858 14.5655 613 120.137 654.874 472.861
17 0 43.1263 17.2284 743 118.439 655.175 469.509
18 0 44.1961 13.0328 576 124.311 655.573 471.049
19 0 46.0633 18.3226 844 111.81 655.525 468.79
20 0 46.0621 14.3068 659 121.461 655.093 466.483
21 0 46.0421 15.0732 694 120.764 655.254 466.34
22 0 49.1396 14.4893 712 115.525 655.368 465.18
23 0 51.0989 15.8125 808 114.037 659.199 462.405
24 0 52.1036 14.2984 745 122.254 658.326 460.498
25 0 54.0903 15.9178 861 120.332 658.916 458.2
26 0 54.0382 13.2314 715 124.811 658.659 457.625
27 0 57.1642 15.8316 905 119.999 659.787 454.431
28 0 57.0903 13.8377 790 123.927 660.118 455.719
29 0 57.0903 13.8552 791 139.21 660.105 455.708
30 0 63.2038 18.9071 1195 114.223 662.075 455.183
31 0 64.1472 15.1215 970 123.084 661.089 453.337
32 0 66.1696 14.0246 928 123.835 662.287 453.028
33 0 68.2041 14.4859 988 120.565 663.637 451.881
34 0 71.2054 16.5156 1176 119.17 664.069 452.071
35 0 72.376 17.3262 1254 120.181 665.258 451.701
36 0 75.1975 18.5246 1393 113.19 665.166 456.875
37 0 77.2625 16.7093 1291 117.125 667.074 453.128
38 0 80.3078 18.0431 1449 114.639 665.946 451.279
39 0 82.0806 14.8147 1216 120.26 667.623 452.322
40 0 84.2527 14.2785 1203 116.57 666.801 451.781
41 0 88.2372 14.6084 1289 115.51 666.266 452.554
42 0 88.2481 12.7935 1129 119.624 665.604 451.687
43 1 46.1384 15.2368 703 110.344 666.027 472.465
44 0 48.2481 13.1611 635 114.216 665.493 470.608
45 0 48.2624 15.022 725 107.6 664.252 469.754
46 0 53.0896 15.0312 798 120.653 664.462 474.175
47 0 53.0745 15.5442 825 120.882 663.137 472.76
48 0 55.067 14.5278 800 121.814 662.626 471.218
49 0 57.112 13.7274 784 121.055 662.333 474.235
50 0 60.0887 15.344 922 119.431 662.914 471.736
51 0 61.0581 14.4289 881 125.327 660.931 466.353
52 0 62.1068 14.1852 881 125.969 660.446 467.16
53 0 65.1784 14.9589 975 124.241 659.513 465.733
54 0 66.2992 15.6261 1036 123.731 658.971 465.207
55 0 68.0986 12.9224 880 128.019 659.092 462.432
56 0 73.2164 15.8025 1157 122.52 658.614 459.532
57 0 75.2346 15.0994 1136 124.173 657.55 457.894
58 0 76.1413 15.5632 1185 124.382 658.571 454.691
59 0 79.2181 14.3149 1134 126.26 656.9 453.431
60 0 83.242 17.5753 1463 119.58 657.482 455.128
61 0 85.2699 15.4685 1319 124.02 657.218 448.863
62 0 89.202 17.8696 1594 117.954 656.969 451.64
63 0 93.2326 18.2554 1702 118.896 656.143 445.543
64 1 47.0367 12.756 600 122.322 656.12 467.612
65 0 50.172 12.8359 644 121.849 656.551 464.899
66 0 54.2725 14.0218 761 121.164 656.066 459.992
67 0 52.1968 11.3225 591 125.802 657.193 461.443
68 0 56.1268 13.6655 767 120.168 657.095 461.495
69 0 57.1565 14.4865 828 117.672 657.76 461.536
70 0 61.172 12.9635 793 120.329 658.863 460.528
71 0 60.26 13.9396 840 120.956 658.427 457.007
72 0 63.1143 13.23 835 123.362 660.054 456.128
73 0 67.1683 14.1436 950 121.96 659.847 454.318
74 0 69.1423 14.7522 1020 122.244 661.274 453.147
75 0 71.1971 13.568 966 125.207 661.981 450.679
76 0 74.1364 13.2593 983 126.72 662.03 449.62
77 0 77.068 14.0914 1086 129.364 661.396 448.511
78 0 80.3924 17.0787 1373 124.034 662.944 447.642
79 0 84.1028 14.7795 1243 128.94 662.75 448.927
80 0 88.0892 16.1541 1423 124.362 664.399 447.544
81 0 89.3098 14.8248 1324 129.977 663.95 447.289
82 1 47.0636 12.4512 586 126.544 663.152 470.126
83 0 46.0407 11.0771 510 128.455 663.155 470.5
84 0 51.0831 13.4878 689 122.357 664.861 471.881
85 0 52.028 14.0309 730 122.842 663.699 469.636
86 0 53.3498 14.1144 753 119.38 663.64 472.105
87 0 55.3906 13.4861 747 122.011 662.708 471.545
88 0 55.4169 13.606 754 124.011 661.48 470.487
89 0 58.3559 13.1606 768 125.083 662.276 471.353
90 0 61.2491 13.29 814 124.064 661.163 471.055
91 0 63.1798 13.9285 880 123.266 660.576 468.05
92 0 62.3211 11.0877 691 128.657 661.211 470.818
93 0 65.2988 15.988 1044 120.192 660.895 468.772
94 0 71.376 13.4499 960 123.681 659.193 468.826
95 0 69.2528 12.4327 861 126.559 659.136 467.909
96 0 72.3072 12.2533 886 126.589 656.975 467.948
97 0 74.5114 13.5952 1013 125.861 658.972 465.23
98 0 79.2287 16.4966 1307 122.342 657.044 460.406
99 0 84.2873 14.2726 1203 127.693 656.74 457.718
100 0 87.8338 16.9069 1485 122.323 656.842 454.358
101 0 88.3716 15.2877 1351 125.283 655.943 454.409
102 0 90.1729 15.4148 1390 126.466 655.161 449.47
103 0 94.3422 15.041 1419 125.255 654.171 453.239
104 0 97.4256 15.2116 1482 125.682 654.227 445.5
105 1 52.3184 11.5065 602 125.02 652.834 469.668
106 0 54.1618 12.6658 686 124.216 653.781 468.006
107 0 55.1161 13.0815 721 124.524 652.441 464.938
108 0 54.1397 12.7818 692 122.711 652.396 465.003
109 0 58.2169 14.0166 816 120.712 652.844 462.648
110 1 112.535 10.5212 1184 133.387 654.759 435.23
111 1 60.1718 13.611 819 122.595 654.033 458.858
112 0 63.4065 13.0586 828 121.777 654.758 458.795
113 0 65.3386 14.2029 928 121.768 655.546 454.427
114 0 68.574 15.1953 1042 118.174 657.244 459.092
115 0 68.4508 12.2862 841 125.313 656.882 455.251
116 0 71.2077 12.8217 913 124.271 657.157 455.514
117 0 72.2868 14.4425 1044 122.924 658.56 451.852
118 0 75.4308 14.0129 1057 123.779 659.699 449.875
119 0 78.2085 17.3511 1357 118.13 660.373 452.506
120 0 79.52 14.5372 1156 124.289 660.78 450.183
121 0 81.5056 12.8212 1045 129.623 661.348 448.516
122 0 84.463 12.7038 1073 129.254 662.086 450.062
123 0 85.289 12.2994 1049 130.334 662.606 449.324
124 0 88.2278 15.1993 1341 125.881 662.671 445.875
125 0 92.5352 12.9356 1197 130.274 662.833 445.515
126 0 93.3062 15.2616 1424 126.4 663.185 445.846
127 0 98.3732 14.323 1409 127.206 662.8 446.992
128 0 102.181 14.8561 1518 123.098 662.314 442.298
129 1 53.0679 12.1165 643 122.86 662.701 470.977
130 0 57.1014 12.2239 698 121.854 661.341 469.867
131 0 57.2096 13.9312 797 119.999 663.979 466.645
132 0 59.2407 14.095 835 122.208 660.515 469.28
133 0 59.1196 12.4155 734 126.812 660.251 466.518
134 0 62.2591 12.6247 786 123.065 660.424 473.929
135 0 66.1645 15.3103 1013 117.961 659.736 472.198
136 0 65.186 13.4845 879 123.388 660.204 472.613
137 0 69.1512 15.4299 1067 120.858 658.456 465.073
138 0 73.2244 12.4685 913 125.982 660.052 462.609
139 0 75.2682 11.9971 903 126.466 656.323 463.821
140 0 78.0842 13.4342 1049 124.489 655.896 461.637
141 0 77.0895 13.3222 1027 125.759 655.078 459.778
142 0 82.1823 13.324 1095 124.137 655.35 460.795
143 0 83.2537 12.564 1046 124.501 654.472 460.999
144 0 85.2153 14.035 1196 123.773 655.499 452.887
145 0 87.295 14.5255 1268 123.853 654.121 448.766
146 0 92.3746 12.3735 1143 126.206 654.608 453.634
147 0 96.1787 16.5109 1588 120.895 654.388 446.945
148 1 50.208 8.34528 419 129.21 654.928 470.217
149 0 54.1378 14.8879 806 117.721 654.986 467.818
150 0 54.1846 11.4055 618 125.516 653.717 466.197
151 0 58.3316 11.6061 677 122.377 654.762 461.824
152 0 59.2192 13.2558 785 122.26 652.725 464.409
153 0 61.1185 11.944 730 125.275 652.332 460.29
154 0 64.0923 13.9486 894 120.709 654.076 459.705
155 0 65.1012 12.6419 823 123.103 653.403 457.114
156 0 65.2677 12.487 815 124.023 654.16 456.328
157 0 70.1025 12.4104 870 124.205 654.118 454.176
158 0 70.0865 15.0814 1057 119.605 655.675 454.795
159 0 73.256 13.9374 1021 123.642 655.576 448.833
160 0 77.1346 14.9609 1154 121.636 657.412 448.543
161 0 80.0793 15.4722 1239 119.411 657.199 452.139
162 0 81.1848 13.9435 1132 124.745 659.112 446.378
163 0 83.0531 11.9201 990 126.283 658.912 450.77
164 0 87.1006 13.3294 1161 123.579 659.295 447.847
165 1 44.1166 10.2003 450 125.204 660.029 465.144
166 0 48.1039 10.8515 522 122.944 661.105 467.68
167 0 49.0415 10.9907 539 119.295 662.506 469.783
168 0 49.2858 9.51594 469 120.974 664.098 468.405
169 0 55.1475 15.2863 843 114.357 660.796 469.776
170 0 54.1732 16.2626 881 109.372 661.444 468.369
171 0 53.2096 10.8815 579 118.285 660.798 467.791
172 0 57.1099 12.187 696 115.086 661.688 471.809
173 0 57.1988 11.3464 649 117.017 660.883 472.573
174 0 60.2349 12.501 753 112.882 660.936 475.324
175 0 62.1788 12.8983 802 114.91 660.448 470.909
176 0 66.1045 15.2637 1009 110.1 660.083 472.937
177 0 67.1234 14.4063 967 113.55 660.684 468.233
178 0 69.4214 12.3305 856 118.646 660.374 470.213
179 0 72.1513 21.2886 1536 105.363 659.32 470.681
180 0 73.3454 12.707 932 120.006 657.32 465.718
181 0 74.3652 11.4973 855 120.409 657.101 470.812
182 0 74.3241 13.9928 1040 120.094 656.465 461.005
183 0 81.2056 16.3905 1331 115.544 656.281 461.257
184 0 84.7244 13.9629 1183 116.812 655.828 462.294
185 1 44.1375 13.4126 592 118.346 654.441 475.644
186 0 47.2856 11.716 554 121.76 653.13 472.948
187 0 50.0446 13.1683 659 111.798 653.387 476.388
188 0 51.1173 12.9897 664 114.051 651.354 472.529
189 0 56.1746 16.5199 928 110.433 651.983 472.454
190 0 52.0391 10.7227 558 123.858 651.38 471.699
191 0 57.1236 17.786 1016 109.967 650.848 471.605
192 0 58.1109 15.522 902 115.697 651.112 467.537
193 0 58.1023 14.4573 840 118.545 651.099 466.127
194 0 59.285 14.3544 851 117.005 651.394 465.242
195 0 63.2936 14.7566 934 115.231 651.008 463.301
196 0 64.0762 12.2666 786 120.102 651.256 461.641
197 0 65.1377 14.9222 972 116.918 652.036 458.272
198 0 69.15 15.7484 1089 115.07 653.18 457.796
199 0 73.1878 15.9999 1171 113.42 653.321 455.582
200 0 72.1292 15.9852 1153 114.82 654.544 454.396
201 0 75.1883 16.9175 1272 113.811 654.544 452.375
202 0 78.2382 14.2002 1111 119.809 654.833 448.082
203 0 80.1543 14.8339 1189 119.825 655.453 448.558
204 0 84.1134 14.4923 1219 121.328 657.646 445.069
205 0 89.1016 15.7685 1405 116.718 657.369 447.655
206 1 45.1634 12.488 564 113.709 657.415 468.945
207 0 49.087 11.3879 559 114.608 658.156 467.993
208 0 49.215 12.8416 632 111.434 659.331 464.541
209 0 49.1167 13.4781 662 110.246 659.721 466.852
210 0 53.104 17.9083 951 103.772 660.931 467.211
211 0 53.1946 13.2908 707 109.32 660.221 472.167
212 0 56.2544 13.2256 744 111.594 660.552 469.106
213 0 54.1176 11.7522 636 115.159 660.739 466.374
214 0 57.2461 11.9135 682 115.387 660.768 467.598
215 0 60.2249 14.7281 887 110.21 661.682 469.759
216 0 64.2486 17.4946 1124 106.609 661.355 468.303
217 0 65.2136 14.4142 940 111.851 660.354 468.424
218 0 67.1337 13.138 882 112.914 659.193 471.254
219 0 70.2456 14.4778 1017 112.516 659.403 467.612
220 0 72.406 16.5456 1198 110.411 659.548 465.804
221 0 71.3019 13.3517 952 118.526 657.784 465.445
222 0 75.3326 14.2966 1077 117.221 657.675 467.319
223 0 79.3728 16.9706 1347 112.838 657.439 462.889
224 0 84.4944 19.9303 1684 107.518 656.593 464.843
225 0 85.2047 14.5649 1241 115.778 655.468 463.742
226 0 86.5245 14.2965 1237 117.949 654.274 457.881
227 0 90.2928 15.1618 1369 112.953 654.167 458.022
228 1 49.1393 13.6754 672 109.668 651.317 477.804
229 0 50.0553 15.1033 756 108.028 651.008 477.759
230 0 52.1548 11.811 616 112.682 651.266 478.091
231 0 54.1021 14.9717 810 107.978 652.442 477.726
232 0 56.0892 13.9777 784 111.309 651.393 472.886
233 0 58.0979 13.374 777 110.817 650.31 473.745
234 0 59.1627 12.5417 742 113.043 651.821 472.102
235 0 62.1865 14.8585 924 109.324 651.793 470.157
236 0 59.1317 12.6497 748 111.513 652.289 471.679
237 0 63.2371 12.4927 790 114.305 651.935 464.586
238 0 65.4274 12.533 820 115.048 651.949 461.422
239 0 67.4263 16.1806 1091 108.514 652.487 463.088
240 0 67.1935 12.9477 870 115.517 651.269 458.666
241 0 70.2333 13.4552 945 115.008 653.272 459.394
242 0 75.4148 14.1749 1069 111.615 653.979 458.43
243 0 79.2207 15.4631 1225 112.573 653.402 451.207
244 0 80.2771 12.2451 983 117.287 654.635 453.496
245 0 85.3936 15.1885 1297 112.6 653.505 451.379
246 0 85.234 14.0789 1200 117.764 656.179 448.069
247 0 89.3873 13.7492 1229 118.025 655.925 445.31
248 1 49.0409 9.46149 464 122.478 657.177 468.506
249 0 48.1442 14.415 694 117.846 655.285 464.944
250 0 51.1354 9.56284 489 126.573 654.72 465.147
251 0 50.119 12.6499 634 116.688 656.554 462.186
252 0 49.0737 7.94723 390 116.7 656.267 463.551
253 0 55.0766 12.6369 696 110.524 657.644 463.932
254 0 55.2394 13.6497 754 115.56 658.879 467.541
255 0 57.2144 13.7553 787 114.834 657.734 466.994
256 0 58.0795 11.5703 672 119.86 658.693 466.821
257 0 59.1332 14.2898 845 114.716 659.228 467.264
258 0 59.1006 13.2994 786 115.492 659.936 465.387
259 0 63.3149 14.3884 911 115.288 659.183 464.384
260 0 65.1282 15.4311 1005 115.206 658.706 463.426
261 0 68.3392 16.8717 1153 112.769 659.121 464.291
262 0 70.1744 15.262 1071 115.681 657.796 466.053
263 0 73.1677 15.321 1121 114.632 658.399 461.839
264 0 75.1997 13.6038 1023 116.664 657.118 466.602
265 0 76.1276 13.3723 1018 118.216 656.69 460.39
266 0 80.1535 13.7361 1101 117.703 655.484 461.47
267 0 84.4144 14.8434 1253 115.072 655.527 456.764
268 0 86.1205 17.3594 1495 115.053 653.934 455.375
269 0 89.2896 13.473 1203 120.831 653.969 458.763
270 0 90.2492 12.532 1131 120.637 653.24 454.382
271 1 50.1111 12.8115 642 116.698 652.048 476.944
272 0 52.1309 14.1759 739 112.903 652.42 476.939
273 0 52.3215 11.6587 610 119.633 653.175 473.73
274 0 54.1607 15.454 837 112.866 651.523 471.203
275 0 52.0878 13.746 716 115.148 650.905 470.147
276 0 53.0674 10.1946 541 120.128 649.885 473.351
277 0 56.1939 10.268 577 118.154 650.934 470.868
278 0 55.2101 11.6645 644 119.073 649.991 466.612
279 0 60.1549 14.3795 865 114.453 650.738 463.356
280 0 63.1528 16.8164 1062 110.362 650.858 462.153
281 0 65.1391 13.6631 890 115.678 650.301 463.285
282 0 65.2255 12.8784 840 118.15 651.405 458.892
283 0 68.1408 11.8725 809 121.4 651.643 456.136
284 0 71.2454 14.2044 1012 118.118 651.664 454.829
285 0 71.143 14.3373 1020 119.132 651.448 449.978
286 0 75.1439 14.5188 1091 118.834 651.694 450.104
287 0 78.2419 14.5574 1139 118.451 652.954 450.188
288 0 80.1955 13.093 1050 121.744 652.605 445.118
289 0 84.264 16.3296 1376 115.911 654.319 445.368
290 0 88.2719 21.6943 1915 106.968 655.027 448.311
291 0 89.445 16.0434 1435 115.604 655.363 442.688
292 1 51.0365 10.9725 560 121.302 656.364 462.145
293 0 52.1101 14.5845 760 116.174 658.97 460.232
294 0 52.4242 13.3145 698 115.981 661.881 458.126
295 0 52.4242 13.3145 698 127.877 664.872 458.034
296 0 54.0782 10.9841 594 116.081 661.352 466.773
297 0 55.1522 13.8707 765 112.933 663.978 460.038
298 0 59.3218 16.1323 957 109.466 663.296 459.871
299 0 57.1515 12.0907 691 115.349 665.161 462.796
300 0 61.1273 11.9259 729 115.184 664.269 462.037
301 0 61.1273 11.8114 722 141.411 663.281 462.082
302 0 66.3431 11.7269 778 115.564 663.824 458.368
303 0 69.1911 13.3832 926 112.273 664.002 460.513
304 0 69.2643 13.5568 939 113.389 662.489 459.266
305 0 72.1701 14.1333 1020 109.445 663.667 463.723
306 0 76.4003 12.7355 973 113.053 664.098 456.205
307 0 77.3125 16.0905 1244 109.854 662.572 456.002
308 0 80.3108 13.0369 1047 114.828 661.338 454.858
309 0 82.1593 13.3034 1093 114.485 658.952 458.536
310 0 84.2821 14.4159 1215 112.392 659.091 457.24
311 0 89.1268 14.1933 1265 111.395 657.994 460.153
312 1 49.1441 10.2962 506 112.372 655.14 475.775
313 0 49.071 9.49644 466 115.466 653.635 474.946
314 0 54.0582 16.0198 866 105.187 655.299 471.218
315 0 55.6549 13.9431 776 106.55 655.018 468.777
316 0 56.2654 12.8143 721 109.025 654.847 467.273
317 0 55.4273 11.709 649 111.587 653.203 465.039
318 0 59.093 13.5718 802 105.86 652.259 463.822
319 0 60.2134 12.9041 777 107.954 651.825 465.934
320 0 62.1863 13.4113 834 108.323 651.49 463.705
321 0 64.2834 11.9004 765 109.498 651.112 463.486
322 0 66.2088 12.7022 841 107.62 650.95 462.665
323 0 66.2088 12.672 839 130.294 650.942 462.695
324 0 69.0862 8.8585 612 112.66 651.191 455.926
325 0 74.2818 14.62 1086 104.155 651.21 455.804
326 0 74.3947 15.2565 1135 104.103 652.234 453.069
327 0 78.2519 14.4661 1132 103.364 652.551 451.478
328 0 80.1816 11.5363 925 109.366 652.573 443.945
329 0 84.1247 12.6241 1062 107.579 653.521 442.846
330 0 88.2238 13.4884 1190 107.747 654.487 438.642
331 0 88.4692 16.7855 1485 101.389 655.132 444.917
332 0 92.6476 14.0748 1304 106.187 655.923 437.638
333 0 95.4468 13.6516 1303 108.386 657.975 435.225
334 0 99.3889 10.0715 1001 110.604 658.129 432.845
335 0 105.359 18.9448 1996 99.9279 658.798 437.991
336 0 107.341 11.8873 1276 109.415 659.574 434.246
337 0 111.648 13.856 1547 106.516 659.657 428.202
338 1 56.5597 12.1995 690 100.554 662.586 451.2
339 0 56.3569 13.4677 759 100.905 663.441 457.42
340 0 58.2394 14.4404 841 101.674 664.327 457.756
341 0 60.1934 14.6195 880 101.776 665.81 455.788
342 0 61.2735 13.8069 846 102.76 664.746 457.183
343 0 68.407 18.3461 1255 95.8128 664.367 456.926
344 0 69.0959 15.3844 1063 100.734 666.18 456.092
345 0 67.5703 11.3659 768 106.522 664.882 456.44
346 0 67.1825 11.0445 742 108.197 665.462 456.524
347 0 71.1057 13.1213 933 106.554 666.661 455.258
348 0 72.1258 10.8838 785 109.251 666.358 458.406
349 0 77.147 16.1899 1249 102.195 665.171 458.07
350 0 80.4297 13.5646 1091 106.676 664.855 453.192
351 0 80.2745 12.3701 993 109.583 664.433 455.907
352 0 85.3171 12.9986 1109 107.788 664.008 457.231
353 0 84.5089 13.5725 1147 109.085 662.858 454.745
354 0 86.3314 11.4674 990 111.925 662.436 455.011
355 0 91.6332 16.8607 1545 104.056 660.988 451.796
356 0 93.716 12.6979 1190 111.45 660.509 451.517
357 0 97.0003 13 1261 111.68 660.333 445.231
358 0 97.1028 14.7884 1436 109.822 660.106 441.998
359 0 101.958 13.0151 1327 107.068 659.056 445.118
360 0 103.597 14.1027 1461 107.736 658.507 439.513
361 0 108.569 11.1818 1214 109.718 659.118 439.804
362 1 59.6696 8.81521 526 105.133 657.66 457.432
363 0 59.5404 13.1339 782 99.7749 658.225 459.531
364 0 64.6483 12.8387 830 99.4506 656.517 454.902
365 0 64.2671 10.9698 705 108.217 653.628 459.918
366 0 68.1537 12.6772 864 105.108 653.814 458.001
367 0 69.3748 14.919 1035 102.208 654.458 457.744
368 0 71.5423 11.4897 822 107.719 654.729 453.062
369 0 74.43 14.4028 1072 104.429 654.382 449.341
370 0 79.3454 12.8048 1016 106.371 653.509 449.269
371 0 80.4093 15.2221 1224 102.884 654.64 450.377
372 0 81.1146 13.8569 1124 106.921 655.986 449.408
373 0 83.194 11.6355 968 109.18 655.589 445.72
374 0 87.1292 11.6953 1019 108.127 657.058 448.107
375 0 91.3852 11.5117 1052 108.086 656.456 442.114
376 0 92.2781 9.27631 856 108.118 657.947 449
377 1 54.2348 15.2301 826 102.363 657.45 460.096
378 0 55.1953 10.7256 592 108.637 659.747 457.458
379 0 56.1352 13.8594 778 104.898 660.154 454.558
380 0 58.2267 11.6441 678 107.015 659.687 458.527
381 0 60.0622 12.1208 728 107.562 659.985 455.718
382 0 61.0635 12.9865 793 107.121 661.153 453.567
383 0 62.0924 11.4507 711 108.422 661.918 454.709
384 0 65.1264 13.3126 867 104.258 662.136 455.894
385 0 69.251 15.09 1045 102.217 662.237 452.854
386 0 70.2625 16.111 1132 101.366 663.21 456.081
387 0 69.1766 12.5042 865 106.54 662.902 456.034
388 0 72.1415 11.5052 830 107.298 663.518 449.154
389 0 73.3368 10.5268 772 108.343 662.176 455.504
390 0 77.1738 13.7482 1061 105.062 661.92 454.595
391 0 78.1094 12.8025 1000 106.18 662.738 452.663
392 0 82.1829 14.6502 1204 103.635 661.752 451.605
393 0 83.4037 14.8195 1236 103.016 661.651 454.667
394 0 86.096 13.5779 1169 104.086 660.017 453.066
395 0 89.193 13.824 1233 105.114 660.279 449.86
396 0 91.1862 13.4999 1231 105.016 660.34 452.326
397 0 94.2136 11.1661 1052 107.735 659.322 450.708
398 0 93.4454 9.6848 905 109.145 660.287 448.809
399 0 101.87 14.8229 1510 102.139 660.126 440.027
400 0 95.9322 11.0182 1057 103.879 659.257 432.277
401 0 106.608 12.41 1323 103.323 659.017 448.724
402 0 104.532 10.1883 1065 106.507 657.776 449.062
403 1 53.1755 11.3022 601 101.488 655.995 472.885
404 0 55.1355 12.1156 668 102.031 654.976 470.274
405 0 56.1257 11.795 662 101.94 655.553 471.195
406 0 60.2497 15.2034 916 97.8046 655.132 466.942
407 0 62.1501 14.9799 931 98.6241 655.036 463.277
408 0 64.1338 14.1735 909 99.6887 654.952 460.652
409 0 64.2822 11.2628 724 102.773 653.059 462.862
410 0 66.165 11.1086 735 104.272 654.418 456.224
411 0 71.4014 12.7028 907 101.615 653.739 457.392
412 0 71.3021 10.5046 749 104.085 653.804 457.753
413 0 72.309 11.8657 858 102.79 654.682 457.302
414 0 80.2589 12.0236 965 102.046 654.444 453.346
415 0 81.35 12.0959 984 103.111 654.234 448.003
416 0 84.3641 10.5021 886 102.571 654.291 450.265
417 0 85.284 9.35697 798 104.485 655.763 438.59
418 1 46.1532 8.9918 415 104.333 655.306 465.769
419 0 48.3581 13.7723 666 101.272 658.972 459.996
420 0 48.3551 12.3668 598 104.498 658.462 459.099
421 1 95.108 13.3112 1266 104.863 657.592 443.718
422 0 99.1795 15.0939 1497 103.731 659.939 436.689
423 1 51.1427 12.8855 659 102.783 658.607 461.398
424 0 52.1114 12.5116 652 104.686 659.768 456.715
425 0 54.1087 11.8835 643 105.317 660.813 457.456
426 0 54.1087 12.1053 655 133.486 661.794 457.38
427 0 57.1149 11.4156 652 105.298 662.584 459.563
428 0 62.15 13.8214 859 102.498 662.461 458.19
429 0 62.0946 17.731 1101 98.7511 663.364 456.063
430 0 64.201 16.3549 1050 99.5419 664.393 457.447
431 0 67.2645 17.6022 1184 97.9848 663.577 457.934
432 0 68.3152 12.7204 869 103.796 663.199 458.159
433 0 73.2925 16.0862 1179 98.9483 663.145 460.185
434 0 73.3131 11.3213 830 105.454 663.071 458.261
435 0 72.3156 13.123 949 120.137 662.063 459.479
436 0 79.1979 17.5005 1386 97.7237 661.909 461.19
437 0 81.2231 13.8384 1124 102.786 661.676 457.231
438 0 85.3862 13.925 1189 103.05 662.024 452.605
439 0 84.1414 9.55534 804 107.614 661.277 455.2
440 0 96.3577 8.19862 790 106.91 660.025 460.127
441 0 95.472 9.61539 918 105.95 660.73 457.162
442 0 96.7002 13.2678 1283 100.627 661.878 447.656
443 0 101.522 14.2531 1447 99.0097 661.423 450.713
444 0 102.497 9.89295 1014 106.276 660.252 441.346
445 1 53.1865 11.9767 637 102.476 659.524 469.6
446 0 58.1527 16.3019 948 96.7173 656.859 467.476
447 0 59.0995 10.8123 639 103.961 655.997 469.268
448 0 58.1577 12.4489 724 102.8 656.367 470.717
449 0 62.2072 12.9406 805 102.466 655.844 465.594
450 0 66.3652 13.6819 908 102.854 655.297 461.415
451 0 70.1994 20.5557 1443 93.7062 654.315 466.282
452 0 73.3465 15.12 1109 99.9026 654.032 462.262
453 0 72.4237 14.6775 1063 102.364 654.436 458.867
454 0 72.4237 14.6637 1062 119.388 654.417 458.961
455 0 78.1095 15.1966 1187 103.368 653.828 453.124
456 0 80.226 15.7056 1260 104.83 653.927 451.681
457 0 83.4101 17.0603 1423 101.195 654.514 457.76
458 0 82.1931 13.2249 1087 110.374 654.05 447.273
459 0 86.1656 13.3 1146 109.437 654.222 450.726
460 0 91.4498 14.7075 1345 106.926 654.703 446.539
461 0 94.3431 17.7014 1670 103.022 655.846 448.631
462 1 50.6504 17.6307 893 99.86 658.053 466.576
463 0 48.5256 15.1054 733 102.427 658.337 463.531
464 0 50.0916 13.096 656 102.686 661.57 468.739
465 0 52.1682 18.402 960 96.3 662.005 466.956
466 0 50.1377 13.1837 661 104.696 662.189 465.87
467 0 53.0871 11.2645 598 106.814 662.853 465.901
468 0 54.1611 13.5152 732 104.846 662.362 464.755
469 0 58.0664 12.0379 699 104.35 662.96 468.67
470 0 57.1915 11.9074 681 106.038 664.805 462.765
471 0 61.1606 12.6061 771 103.739 664.551 466.2
472 0 63.3461 14.3182 907 103.705 663.665 463.608
473 0 63.1115 15.1795 958 103.213 663.232 464.536
474 0 65.4116 12.857 841 107.933 663.189 462.644
475 0 70.2954 13.3721 940 105.963 663.905 467.554
476 0 70.1824 13.6501 958 105.903 662.937 467.58
477 0 74.1606 17.8127 1321 100.719 662.151 469.81
478 0 77.1389 13.8063 1065 107.221 662.084 465.332
479 0 77.2279 9.97048 770 112.843 661.495 471.126
480 0 83.1103 13.067 1086 110.184 661.612 465.924
481 0 87.4252 19.022 1663 101.44 661.354 468.66
482 0 86.2918 14.5553 1256 109.777 660.27 464.582
483 1 42.1158 11.8008 497 115.473 659.412 486.245
484 0 49.1464 10.9062 536 113.388 658.144 488.761
485 0 49.1464 10.9876 540 149.865 657.176 488.791
486 0 50.8115 13.5993 691 113.423 656.04 476.962
487 0 52.9343 13.8285 732 113.404 655.477 476.824
488 0 52.3714 11.4757 601 108.8 653.228 484.072
489 0 52.3631 13.9793 732 107.426 655.443 481.094
490 0 55.1837 14.3158 790 107.656 655.408 476.854
491 0 57.2755 12.047 690 109.828 654.803 479.122
492 0 56.1482 11.5231 647 111.396 654.328 478.674
493 0 60.3516 13.6533 824 107.765 653.714 478.238
494 0 62.383 13.6736 853 107.848 651.875 475.957
495 0 65.4949 12.2605 803 110.294 652.047 470.537
496 0 65.3627 12.8514 840 110.168 652.264 470.685
497 0 67.272 12.8731 866 110.546 652.454 470.249
498 0 70.6153 14.9968 1059 107.765 651.031 465.609
499 0 74.6249 12.7571 952 109.182 650.924 466.616
500 0 75.4613 13.2518 1000 109.883 652.086 461.484
501 0 79.4347 15.9628 1268 106.262 650.786 458.187
502 0 79.3882 12.7475 1012 111.217 652.664 455.319
503 0 89.6781 15.879 1424 106.245 653.442 451.784
504 0 85.3392 14.8115 1264 108.331 653.726 450.718
505 1 43.1425 10.4769 452 110.54 655.091 470.016
506 0 47.1477 15.1439 714 105.27 655.675 468.831
507 0 48.3472 12.0172 581 109.296 656.465 470.921
508 0 48.3472 11.9552 578 136.467 657.464 470.939
509 0 55.185 17.4323 962 103.137 658.93 468.423
510 0 55.0935 14.0125 772 110.254 660.456 466.249
511 0 55.1572 12.5641 693 112.838 662.115 466.293
512 0 54.0895 13.4777 729 112.369 661.857 464.816
513 0 59.1833 13.399 793 112.095 662.381 466.252
514 0 59.0813 13.0667 772 113.65 661.902 464.504
515 0 59.1102 13.9232 823 112.617 662.813 467.314
516 0 64.0995 17.7692 1139 105.283 662.29 466.918
517 0 67.1849 19.2305 1292 103.918 662.953 464.081
518 0 66.2099 15.1488 1003 110.932 663.332 461.53
519 0 69.2216 11.7738 815 113.655 663.837 465.243
520 0 72.0592 14.1411 1019 110.719 662.672 464.072
521 0 71.1732 14.8511 1057 109.807 662.765 466.313
522 0 76.2104 16.6513 1269 104.334 661.395 463.662
523 0 78.261 14.3239 1121 106.261 660.806 468.395
524 0 79.1727 15.8262 1253 105.116 660.714 467.881
525 0 82.2275 20.4554 1682 100.407 660.268 464.578
526 0 82.2784 12.6886 1044 110.83 658.94 466.391
527 0 86.4302 16.441 1421 105.18 658.675 465.872
528 0 86.4019 12.7891 1105 110.807 657.662 460.667
529 0 91.4465 14.4894 1325 108.578 657.455 458.815
530 0 92.4013 16.8288 1555 105.54 656.306 458.432
531 0 98.3453 10.7783 1060 111.327 654.687 462.443
532 1 50.2281 12.1844 612 109.188 654.89 479.691
533 0 52.2222 12.2936 642 107.618 654.502 479.463
534 0 57.2052 14.177 811 103.559 654.76 473.572
535 0 58.5677 16.0669 941 105.286 652.462 472.446
536 0 60.4663 16.6704 1008 103.964 651.666 469.055
537 0 59.3936 11.348 674 110.601 651.194 469.334
538 0 61.4572 11.8945 731 110.105 651.17 466.68
539 0 65.3429 13.6205 890 107.804 650.835 463.827
540 0 67.1991 13.0954 880 108.038 650.782 464.228
541 0 71.179 13.9929 996 107.25 650.801 461.998
542 0 74.3678 14.4417 1074 105.494 651.462 460.66
543 0 78.5981 16.209 1274 101.126 651.206 464.177
544 0 81.3604 17.4163 1417 102.023 652.724 452.476
545 0 79.5637 10.4319 830 110.265 650.946 452.91
546 0 84.5147 18.6122 1573 101.395 653.07 449.684
547 0 80.4882 14.3996 1159 106.895 652.243 445.878
548 0 89.5659 12.4043 1111 108.028 653.509 445.844
549 0 90.4862 11.4935 1040 109.712 654.118 441.126
550 1 50.3636 16.917 852 97.3897 655.293 467.81
551 0 50.5184 11.5997 586 105.491 656.846 461.572
552 0 52.0459 13.8916 723 103.878 654.148 467.249
553 0 54.1322 12.7281 689 106.033 655.329 465.669
554 0 57.093 13.767 786 104.812 655.667 462.15
555 0 60.1394 17.8585 1074 97.4358 656.016 469.836
556 0 59.1205 11.299 668 108.566 658.647 460.659
557 0 60.2026 12.4081 747 107.973 657.399 463.428
558 0 66.1711 13.9034 920 105.451 659.183 461.859
559 0 65.1371 15.7514 1026 103.963 659.062 462.716
560 0 68.2085 14.5876 995 106.21 658.767 462.488
561 0 72.1891 13.5062 975 108.644 659.456 463.802
562 0 71.1508 13.2676 944 109.862 659.23 463.526
563 0 75.1842 15.0298 1130 108.699 659.093 462.619
564 0 79.1061 13.3112 1053 110.532 658.395 464.638
565 0 82.2326 16.8303 1384 106.385 657.84 462.595
566 0 85.2643 15.8097 1348 109.229 657.447 458.619
567 0 86.2281 16.2824 1404 107.952 657.642 464.355
568 0 92.3268 16.7882 1550 106.163 657.703 462.194
569 0 95.1477 16.9736 1615 107.321 657.911 460.45
570 1 52.1716 11.1555 582 111.113 657.007 479.744
571 0 55.3397 11.7276 649 110.738 655.566 479.448
572 0 55.6015 11.9241 663 112.133 656.287 472.78
573 0 58.7015 15.6384 918 107.79 656.251 471.11
574 0 60.1602 14.1456 851 109.919 653.234 477.471
575 0 58.0852 11.7242 681 115.292 653.256 474.345
576 0 63.0832 12.7134 802 113.908 651.555 473.017
577 0 64.1373 9.16783 588 118.401 650.213 474.177
578 0 67.1769 14.6181 982 112.948 650.167 469.847
579 0 68.1304 13.7971 940 116.15 649.467 464.582
580 0 72.1527 13.0695 943 114.701 649.304 467.14
581 0 72.1524 12.0162 867 118.77 648.739 465.032
582 0 77.3375 14.7018 1137 114.525 648.231 462.299
583 0 79.3025 13.4422 1066 116.462 647.623 463.486
584 0 82.1864 13.5059 1110 120.082 649.997 454.519
585 0 85.1331 15.2585 1299 116.543 648.817 453.864
586 1 47.0447 9.50161 447 119.298 648.772 474.051
587 0 48.0399 12.8643 618 113.667 649.259 473.4
588 0 47.0311 11.1416 524 119.718 650.393 467.582
589 0 49.0882 13.2415 650 111.215 651.697 465.771
590 0 50.2403 13.117 659 119.413 653.196 468.346
591 0 51.1985 11.3675 582 121.921 653.641 467.524
592 0 55.1223 14.2592 786 116.964 653.794 466.144
593 0 57.0763 15.1727 866 114.445 653.23 465.176
594 0 57.1143 13.0615 746 118.099 654.031 467.221
595 0 61.1174 16.6401 1017 113.025 655.194 463.999
596 0 62.0797 12.3551 767 121.913 655.142 461.098
597 0 63.0458 13.9105 877 120.636 656.626 459.334
598 0 66.1524 13.1061 867 121.027 656.354 461.153
599 0 67.0892 13.087 878 121.745 657.366 460.854
600 0 71.0348 17.8223 1266 113.598 657.382 460.214
601 0 71.1382 14.0431 999 121.074 659.098 457.778
602 0 71.1382 13.9868 995 155.714 661.07 457.716
603 0 79.1165 14.7883 1170 119.282 658.32 460.876
604 0 78.1448 14.6267 1143 120.174 657.935 460.268
605 0 82.1299 11.7132 962 123.704 658.052 460.641
606 0 87.1019 14.8332 1292 119.433 658.519 456.563
607 0 89.1244 12.634 1126 123.316 658.506 453.885
608 0 93.1801 14.6383 1364 119.435 658.81 459.206
609 1 49.1224 11.3187 556 122.333 657.131 479.469
610 0 49.0544 12.2721 602 118.081 656.354 481.055
611 0 52.2484 13.8377 723 116.476 656.072 479.777
612 0 53.223 15.0311 800 109.351 657.575 481.074
613 0 54.1263 13.5054 731 113.15 655.602 477.566
614 0 56.3355 15.8337 892 108.943 655.947 477.503
615 0 58.1606 13.1532 765 113.588 655.166 477.948
616 0 58.1009 13.1323 763 114.679 654.518 476.338
617 0 63.1747 19.2799 1218 103.87 654.263 476.703
618 0 64.169 13.0281 836 114.797 653.141 473.323
619 0 63.1577 11.4634 724 117.065 652.051 474.015
620 0 66.1076 14.0377 928 112.704 652.324 472.436
621 0 68.2234 13.1333 896 113.713 651.886 472.248
622 0 73.5401 13.3533 982 111.074 651.081 472.117
623 0 72.3378 12.6213 913 115.538 651.02 462.8
624 0 75.1634 10.4971 789 117.925 650.932 465.678
625 1 42.0982 11.1169 468 115.342 648.686 476.853
626 0 45.1487 13.3337 602 111.08 649.178 476.97
627 0 43.1761 8.98645 388 112.83 650.549 473.443
628 0 46.3695 9.63996 447 110.136 650.814 472.532
629 0 49.544 11.8077 585 107.646 650.6 470.274
630 0 48.2409 12.9558 625 106.397 651.229 468.936
631 0 52.1515 13.7484 717 106.06 650.665 466.951
632 0 53.2463 11.3247 603 108.954 652.72 465.764
633 0 57.6327 15.1824 875 102.078 652.018 466.543
634 0 55.2295 11.6786 645 108.671 653.416 465.507
635 0 55.1407 13.8011 761 114.221 652.213 466.159
636 0 58.1195 12.87 748 113.075 653.938 465.686
637 0 60.1709 14.1098 849 112.418 655.479 465.057
638 0 60.3053 13.9789 843 114.543 656.162 463.421
639 0 60.314 12.8494 775 114.75 656.099 460.662
640 0 67.2926 12.0964 814 113.451 657.384 461.41
641 0 68.0826 13.2046 899 111.466 657.662 464.034
642 0 73.315 15.1811 1113 107.696 659.107 463.186
643 0 72.3126 12.93 935 111.75 659.166 461.455
644 0 76.2734 13.0845 998 109.96 658.956 464.937
645 0 80.2303 13.1496 1055 109.968 658.837 460.551
646 0 82.3817 14.1051 1162 108.888 659.108 458.556
647 0 85.1259 12.7693 1087 108.412 659.431 464.897
648 1 44.0503 11.0101 485 112.355 658.177 481.037
649 0 50.0756 11.922 597 108.665 657.543 481.64
650 0 51.0962 16.1852 827 103.398 657.411 477.185
651 0 51.044 12.4598 636 114.208 656.87 484.346
652 0 52.0875 14.2452 742 110.908 656.92 480.491
653 0 54.0706 12.3727 669 113.552 656.707 478.144
654 0 55.0906 12.6519 697 113.28 656.709 477.356
655 0 55.0299 12.9748 714 114.155 655.198 476.169
656 0 59.0872 11.39 673 115.499 655.175 477.966
657 0 60.1244 15.5345 934 109.567 655.466 476.505
658 0 62.1235 11.7991 733 115.926 653.73 474.604
659 0 65.2583 14.0978 920 111.91 654.723 473.036
660 0 65.1223 14.7108 958 111.901 652.599 471.577
661 0 68.2423 13.496 921 114.184 652.49 469.657
662 0 71.3006 14.2916 1019 112.327 652.166 469.125
663 0 72.1922 16.553 1195 109.562 652.55 465.413
664 0 72.2195 10.9112 788 118.627 651.902 468.379
665 0 77.2328 15.408 1190 111.477 652.213 462.593
666 0 78.1918 12.9937 1016 115.142 651.578 460.523
667 0 81.1115 13.278 1077 115.331 651.802 455.536
668 0 82.2771 12.0447 991 117.045 650.498 455.995
669 0 90.648 19.0958 1731 102.417 651.442 460.477
670 0 91.4997 16.0547 1469 109.805 652.907 452.547
671 1 43.1946 9.63084 416 118.248 655.411 470.986
672 0 48.2952 12.7135 614 112.194 655.309 469.23
673 0 49.0552 13.3115 653 109.948 655.925 472.611
674 0 53.2034 13.2698 706 109.054 656.431 470.725
675 0 53.0651 13.7002 727 106.553 657.457 468.245
676 0 50.1213 10.1554 509 113.544 657.104 468.363
677 0 55.1365 16.6496 918 103.529 657.461 465.631
678 0 53.0932 9.88826 525 113.122 657.211 466.84
679 0 59.1195 14.699 869 105.921 658.313 465.107
680 0 61.1602 13.6527 835 107.69 659.087 465.72
681 0 62.157 14.3829 894 108.398 660.068 463.404
682 0 64.1292 14.424 925 109.577 660.128 462.176
683 0 68.1084 12.8325 874 111.915 660.135 462.514
684 0 72.2303 15.1045 1091 108.236 661.131 462.98
685 0 72.1255 12.8526 927 112.654 661.81 462.077
686 0 74.2121 12.8685 955 113.175 662.812 461.869
687 0 78.3131 14.059 1101 111.266 662.189 462.655
688 0 81.1828 14.6336 1188 110.791 662.645 462.246
689 1 44.0783 11.4569 505 115.073 662.323 479.002
690 0 43.0684 13.2348 570 115.846 662.428 478.861
691 0 46.0901 15.3829 709 108.728 661.46 479.715
692 0 45.3543 13.163 597 113.729 659.01 477.529
693 0 47.1053 19.3821 913 104.665 658.67 479.851
694 0 47.2123 12.8356 606 115.901 658.774 480.101
695 0 50.2082 14.9378 750 111.68 658.156 479.884
696 0 51.1605 15.7739 807 110.138 658.608 480.886
697 0 51.1638 14.4243 738 113.221 657.119 481.938
698 0 54.2995 14.0149 761 113.535 657.74 482.365
699 0 57.1224 13.2872 759 115.121 656.183 479.765
700 0 58.1812 12.9767 755 115.146 655.458 480.148
701 0 59.0947 15.2806 903 113.213 655.441 475.937
702 0 62.1295 13.0856 813 115.932 654.367 475.646
703 0 66.2996 16.1992 1074 109.127 653.97 475.175
704 0 67.2462 14.2908 961 113.611 653.207 472.236
705 0 68.2476 15.4291 1053 112.076 652.917 470.561
706 0 71.2612 14.6503 1044 114.787 651.437 470.077
707 0 71.2612 14.7345 1050 140.478 650.421 470.001
708 0 78.2631 16.9301 1325 110.645 650.218 467.019
709 0 80.2588 13.606 1092 116.207 650.369 465.417
710 0 78.6717 15.4566 1216 115.029 652.583 457.512
711 0 82.2273 15.2991 1258 110.72 652.942 457.88
712 0 86.193 18.2845 1576 106.967 653.182 457.031
713 1 44.0307 10.9469 482 110.909 652.772 476.662
714 0 46.0397 12.8585 592 113.365 651.233 480.944
715 0 45.1864 13.2562 599 115.73 650.23 478.008
716 0 49.055 17.674 867 107.293 651.679 475.732
717 0 49.1248 13.6184 669 115 651.157 473.722
718 0 52.1111 15.1023 787 111.692 651.343 473.592
719 0 54.1343 14.9074 807 112.762 652.041 471.934
720 0 53.0819 12.5466 666 118.965 652.769 471.063
721 0 56.1819 15.5566 874 112.554 653.696 467.259
722 0 58.1609 13.1188 763 116.048 653.886 468.581
723 0 57.2896 11.7299 672 118.72 654.467 468.225
724 0 62.1342 15.0159 933 112.976 654.81 465.063
725 0 66.3428 15.2993 1015 110.359 656.743 469.083
726 0 64.1562 12.7657 819 115.181 657.581 468.096
727 0 70.2948 15.5346 1092 110.481 658.747 467.191
728 0 70.1931 12.9357 908 116.688 658.646 460.949
729 0 77.3651 15.8082 1223 111.349 659.754 462.853
730 0 81.4139 17.9699 1463 108.455 659.256 460.362
731 0 83.3649 14.3226 1194 114.388 660.13 463.106
732 0 83.3649 14.3346 1195 142.598 661.129 463.23
733 0 87.3665 18.4167 1609 108.692 660.2 459.359
734 1 44.1548 13.3168 588 119.406 658.57 480.444
735 0 48.3505 14.1467 684 115.756 659.27 481.333
736 0 46.3554 12.0374 558 121.937 659.387 482.025
737 0 50.3644 14.0774 709 117.516 657.867 486
738 0 51.3764 13.3914 688 123.44 658.121 479.189
739 0 53.3118 15.5875 831 119.475 657.68 480.252
740 0 54.2946 14.8633 807 120.518 657.219 483.152
741 0 56.6417 14.6888 832 122.469 656.391 477.531
742 0 60.1426 13.9834 841 119.039 656.693 478.408
743 0 58.1918 14.5725 848 119.443 654.587 477.817
744 0 62.2504 13.7349 855 120.529 654.173 475.524
745 0 62.2504 13.6706 851 143.072 653.149 475.592
746 0 66.1355 14.9541 989 118.632 654.209 470.311
747 0 69.127 12.3541 854 120.184 653.396 471.98
748 0 72.1008 16.366 1180 112.78 653.913 471.87
749 0 74.206 14.5945 1083 119.8 653.661 469.27
750 0 76.1846 13.2179 1007 119.642 652.742 464.003
751 0 78.3703 14.3422 1124 118.659 652.321 462.035
752 0 79.1958 12.7153 1007 122.853 651.977 461.444
753 0 84.2062 14.1676 1193 119.835 653.09 459.061
754 0 86.2125 14.3831 1240 121.506 653.069 453.334
755 1 43.1499 10.8227 467 122.816 651.803 476.612
756 0 49.1069 12.6255 620 118.081 652.945 472.716
757 0 51.2446 16.3139 836 118.323 652.666 470.127
758 0 50.0396 14.6684 734 117.643 653.488 469.074
759 0 52.1235 15.8086 824 116.775 653.676 469.444
760 0 55.119 14.7318 812 116.761 653.278 468.757
761 0 57.0764 16.1187 920 115.052 654.16 465.192
762 0 58.0611 20.754 1205 108.184 653.978 465.011
763 0 61.1329 14.7057 899 117.118 655.398 465.202
764 0 63.1782 14.103 891 117.892 656.611 464.046
765 0 65.0846 13.8435 901 120.013 656.832 461.841
766 0 65.1014 15.4375 1005 119.154 657.651 460.161
767 0 66.0918 12.9365 855 126.149 657.115 459.626
768 0 68.3255 13.1869 901 126.872 657.532 457.221
769 0 73.1632 16.2787 1191 121.682 659.663 457.477
770 0 74.3541 16.1659 1202 122.131 659.133 459.932
771 0 75.1512 15.3025 1150 125.19 660.656 459.565
772 0 77.4588 15.6212 1210 123.704 659.703 456.493
773 0 80.2933 17.6104 1414 118.818 660.605 460.022
774 0 83.3278 17.5932 1466 118.035 660.563 457.197
775 0 84.3052 15.8235 1334 122.454 660.562 459.952
776 0 89.4917 15.4204 1380 123.354 660.452 459.943
777 1 45.0867 15.5256 700 121.261 660.153 481.523
778 0 47.1315 14.067 663 123.225 661.641 481.715
779 0 47.669 13.384 638 130.826 660.682 481.144
780 0 50.4201 14.5577 734 131.951 660.58 479.469
781 0 50.5263 18.1688 918 124.852 660.747 479.377
782 0 53.2339 17.2634 919 123.046 660.938 479.228
783 0 54.0918 14.4384 781 129.572 660.186 477.234
784 0 55.046 14.6423 806 129.656 660.158 480.571
785 0 57.0657 15.7888 901 126.698 658.849 480.723
786 0 61.2769 18.7183 1147 119.862 658.595 476.937
787 0 60.1627 16.8543 1014 125.446 658.339 475.3
788 0 63.1781 16.1132 1018 126.737 656.801 473.574
789 0 66.2533 14.6106 968 132.279 656.365 472.136
790 0 68.516 14.2448 976 132.066 655.237 471.546
791 0 70.4397 15.1335 1066 132.245 656.537 467.465
792 0 73.5907 17.1897 1265 127.33 654.994 466.176
793 0 75.4281 17.5266 1322 126.716 655.432 463.248
794 0 79.7836 14.8652 1186 130.149 654.646 461.643
795 0 79.276 15.2631 1210 128.426 653.977 461.506
796 1 39.5465 14.0088 554 134.774 654.318 475.532
797 0 44.3247 14.5291 644 130.882 654.932 475.016
798 0 44.4014 13.3554 593 134.965 654.911 474.266
799 0 46.1106 14.2483 657 133.624 654.344 469.942
800 0 48.3352 16.8821 816 127.723 653.048 471.132
801 0 50.3507 14.6969 740 132.27 653.965 468.093
802 0 50.3507 14.7366 742 147.991 654.966 468.121
803 0 53.1195 15.9452 847 126.563 655.279 466.131
804 0 55.218 14.651 809 130.481 655.738 465.71
805 0 56.3154 16.1412 909 128.461 655.956 463.077
806 0 58.1266 16.1888 941 126.616 656.052 463.536
807 0 62.1465 16.2197 1008 127.181 656.325 461.717
808 0 62.5784 16.4594 1030 127.421 658.596 461.814
809 0 65.2764 17.2957 1129 125.856 658.368 460.662
810 0 66.4408 16.9173 1124 127.248 658.624 460.156
811 0 68.4032 17.4261 1192 125.741 659.629 461.758
812 0 67.204 13.5706 912 135.083 659.208 459.853
813 0 70.3178 14.3491 1009 133.433 660.061 459.231
814 0 75.3232 18.9716 1429 123.474 660.604 454.938
815 0 78.0121 17.3819 1356 126.183 659.833 458.911
816 0 78.6032 15.4192 1212 131.345 661.53 457.035
817 0 78.608 14.9985 1179 154.373 663.569 457.562
818 0 86.4316 17.0192 1471 127.582 660.435 457.802
819 0 87.6035 17.7504 1555 126.291 659.322 455.56
820 0 89.5411 15.6241 1399 130.732 660.265 453.001
821 0 92.1673 12.8679 1186 135.762 660.352 457.702
822 1 49.3598 15.6403 772 132.098 659.497 474.484
823 0 50.353 16.0467 808 131.204 660.102 475.474
824 0 50.1505 14.616 733 135.932 660.682 475.115
825 0 53.2865 15.0695 803 133.762 659.339 472.849
826 0 55.1182 16.129 889 131.746 659.331 472.074
827 0 55.1647 13.7769 760 135.649 658.553 473.884
828 0 62.1717 17.2587 1073 126.638 658.429 474.136
829 0 63.2138 16.4996 1043 130.988 657.234 469.893
830 0 64.1483 17.7713 1140 128.251 656.957 467.299
831 0 67.2154 17.7043 1190 127.844 655.933 466.36
832 0 65.3117 15.5715 1017 132.748 655.785 466.869
833 0 69.2685 15.808 1095 132.673 654.823 463.038
834 0 73.6417 15.7655 1161 132.317 654.308 462.874
835 0 73.6417 15.6705 1154 164.114 654.27 462.865
836 0 78.2666 19.7019 1542 125.399 654.172 457.892
837 0 79.3491 18.3115 1453 128.61 655.145 455.341
838 0 84.309 18.8829 1592 128.866 654.8 454.232
839 0 87.1824 20.4972 1787 125.808 654.06 451.96
840 0 89.3104 20.1656 1801 127.526 654.5 445.842
841 0 92.343 17.8573 1649 130.605 654.782 447.765
842 0 93.3871 17.39 1624 132.847 654.362 440.065
843 0 99.4981 17.5682 1748 130.965 653.9 441.303
844 1 54.2099 13.2817 720 124.469 654.224 461.976
845 0 54.3479 12.3464 671 130.662 654.754 454.703
846 0 58.242 12.139 707 127.945 654.383 457.085
847 0 60.2121 12.8712 775 130.369 654.034 453.437
848 0 66.457 14.31 951 126.271 656.719 457.593
849 0 66.2246 13.1069 868 131.105 657.568 454.197
850 0 69.0956 13.9951 967 130.447 658.613 455.584
851 0 70.3576 9.82126 691 135.696 656.821 458.347
852 0 71.221 12.3699 881 134.578 658.586 454.092
853 0 76.1999 15.6168 1190 127.759 658.099 456.031
854 0 78.2826 12.7359 997 133.607 659.95 452.506
855 0 81.3823 14.2169 1157 128.904 659.481 451.97
856 0 84.2328 13.2846 1119 126.518 661.419 455.493
857 0 86.2149 13.2112 1139 129.131 661.745 450.398
858 0 90.1632 17.2687 1557 120.756 662.53 450.067
859 0 92.207 12.7105 1172 129.148 661.928 448.532
860 0 95.5248 12.2691 1172 131.835 662.315 447.588
861 0 100.476 14.3915 1446 128.938 663.037 445.736
862 0 103.589 14.0844 1459 130.472 662.351 444.841
863 0 106.297 14.0456 1493 131.423 662.948 441.263
864 0 109.453 12.7178 1392 132.926 661.9 445.279
865 0 117.332 16.236 1905 127.741 661.478 441.767
866 1 61.1625 11.2324 687 123.502 662.486 471.413
867 0 64.4123 12.6529 815 121.966 660.14 468.929
868 0 67.1578 11.9569 803 123.356 661.362 467.837
869 0 70.3184 12.2443 861 121.544 659.186 467.343
870 0 71.2991 12.8052 913 121.399 659.216 467.149
871 0 71.2259 11.1055 791 125.604 658.028 464.216
872 0 76.4207 12.4704 953 123.205 657.533 465.231
873 0 78.118 9.71607 759 126.063 657.104 465.577
874 0 81.3366 10.8561 883 126.573 656.412 462.302
875 0 85.683 13.4099 1149 122.64 657.258 458.949
876 0 87.5337 12.0182 1052 125.54 657.152 456.237
877 0 92.5498 12.8687 1191 123.498 656.709 454.364
878 0 92.5814 10.8769 1007 127.006 657.148 452.092
879 0 97.6673 12.7781 1248 123.677 655.972 447.836
880 0 98.3432 10.6464 1047 124.84 656.398 446.837
881 0 103.287 11.8311 1222 121.11 655.53 446.571
882 0 105.652 10.5629 1116 127.858 655.174 437.402
883 0 106.893 10.1597 1086 126.36 655.283 443.255
884 0 109.697 9.10694 999 127.377 653.996 434.833
885 0 113.702 12.0931 1375 118.34 654.584 442.241
886 0 117.498 10.5534 1240 123.328 654.741 425.439
887 1 64.2754 9.94159 639 111.9 655.784 460.142
888 0 66.4445 7.04347 468 114.44 654.987 460.088
889 0 65.2103 7.86686 513 115.425 656.29 456.858
890 0 73.2474 11.6728 855 109.454 655.625 456.89
891 0 72.3966 12.0448 872 109.461 656.267 455.539
892 0 74.4451 7.68352 572 116.316 657.072 448.206
893 1 150.702 7.86322 1185 128.155 657.444 408.192
894 0 154.042 8.06922 1243 123.598 658.652 426.412
895 1 80.3026 5.54154 445 118.067 658.321 457.818
896 0 84.6908 9.5642 810 116.59 659.015 445.938
897 0 85.5572 9.86474 844 115.495 659.749 447.906
898 0 88.5743 11.527 1021 114.699 660.352 444.372
899 0 89.9457 9.26114 833 117.808 660.251 446.749
900 0 95.6811 11.5697 1107 115.776 661.732 432.966
901 0 98.8734 11.2973 1117 119.939 661.568 440.225
902 0 102.03 9.60498 980 123.271 662.597 437.897
903 0 104.251 11.2901 1177 120.282 662.051 434.945
904 0 108.426 11.8329 1283 120.334 662.91 426.02
905 1 54.5209 12.8024 698 110.226 660.951 462.589
906 0 58.5849 11.7948 691 109.713 662.941 470.599
907 0 60.3757 11.3456 685 111.682 661.575 469.988
908 0 61.7579 9.26197 572 115.233 660.586 469.764
909 0 62.5065 9.55101 597 115.509 662.142 472.839
910 0 64.7583 10.8094 700 113.75 660.919 470.347
911 0 67.882 11.2401 763 114.034 660.94 468.507
912 0 70.4686 13.7508 969 110.005 659.562 465.688
913 0 72.8757 13.0222 949 110.725 660.207 466.145
914 0 74.329 13.9515 1037 112.942 659.607 463.27
915 0 76.4925 11.4783 878 115.974 659.674 462.136
916 0 78.7922 13.0216 1026 114.411 659.556 457.538
917 0 81.7623 13.2457 1083 112.677 657.857 463.175
918 0 84.0743 13.4643 1132 113.976 656.077 458.303
919 0 86.8639 14.8393 1289 112.438 656.566 457.321
920 0 89.4019 11.1407 996 118.855 655.62 456.613
921 0 91.2124 13.0465 1190 117.228 656.259 451.865
922 0 87.911 7.29147 641 123.051 656.527 457.777
923 0 99.4424 17.3266 1723 110.665 655.695 447.59
924 1 48.9463 12.6261 618 113.506 655.354 469.519
925 0 49.5709 14.2019 704 110.868 654.612 466.747
926 0 52.1605 11.3496 592 112.713 656.473 473.716
927 0 54.4271 12.5305 682 110.446 655.1 468.326
928 0 55.3533 15.0307 832 110.375 655.688 468.329
929 0 55.3409 12.9561 717 114.314 656.234 467.502
930 0 57.422 12.086 694 117.389 655.974 466.784
931 0 59.75 13.6736 817 114.159 656.558 466.182
932 0 62.4219 14.4501 902 113.586 656.741 461.794
933 0 61.5067 11.641 716 118.468 657.444 463.673
934 0 64.2787 13.5504 871 116.17 657.082 458.435
935 0 67.3472 13.6309 918 114.29 658.391 460.925
936 0 68.2896 12.4763 852 116.004 658.607 460.696
937 0 70.4033 15.6385 1101 111.615 658.277 452.678
938 0 71.3893 12.0046 857 118.214 659.002 452.296
939 0 75.3791 13.7969 1040 114.871 659.692 453.844
940 0 77.4497 14.7322 1141 114.145 659.525 453.445
941 0 78.2704 14.7693 1156 114.181 660.061 457.022
942 0 81.4956 13.559 1105 118.594 661.09 451.652
943 0 84.3608 16.5954 1400 114.178 661.284 452.97
944 0 85.6486 11.8624 1016 122.746 661.695 452.23
945 0 88.7893 14.3598 1275 120.357 661.61 450.519
946 0 90.1019 15.0385 1355 118.165 661.165 448.939
947 0 95.8503 15.6598 1501 115.336 660.993 451.534
948 0 96.0541 16.7406 1608 116.696 661.38 445.207
949 0 97.1872 14.7036 1429 121.013 661.456 445.484
950 0 100.219 15.1867 1522 120.522 661.214 446.832
951 0 99.9621 13.8552 1385 124.352 660.614 438.966
952 0 108.906 15.9404 1736 118.716 661.097 443.132
953 0 114.729 16.1336 1851 118.722 659.343 441.649
954 0 116.885 15.6479 1829 119.851 659.569 441.379
955 0 119.611 13.8365 1655 123.687 659.495 438.362
956 0 126.755 17.3958 2205 117.64 659.044 434.783
957 0 126.79 13.3449 1692 124.632 658.689 439.046
958 0 131.639 15.9071 2094 120.895 657.522 435.473
959 0 135.677 16.5982 2252 120.072 657.814 435.042
960 0 137.59 15.1319 2082 123.413 656.019 429.886
961 0 139.931 14.7216 2060 124.554 655.876 429.938
962 0 145.411 15.7554 2291 122.743 654.92 426.978
963 0 150.925 15.5574 2348 122.288 655.45 427.2
964 0 156.723 15.32 2401 122.277 653.76 424.437
965 1 86.2738 11.533 995 124.503 652.869 454.606
966 0 89.3822 12.1948 1090 125.386 654.078 449.124
967 0 92.2102 15.1285 1395 119.282 652.665 447.92
968 0 94.3863 12.3853 1169 123.548 652.843 448.908
969 0 95.3408 13.7402 1310 121.777 653.754 439.674
970 0 102.201 12.2406 1251 123.175 652.815 440.428
971 0 107.411 18.0057 1934 111.322 653.385 446.21
972 0 110.373 13.3457 1473 121.141 653.1 436.733
973 0 115.535 12.2127 1411 123.572 654.516 432.873
974 1 67.1777 11.4919 772 119.957 653.619 456.078
975 0 69.6797 11.9116 830 117.941 654.177 450.564
976 0 70.3881 12.5589 884 116.172 653.865 448.756
977 0 70.2987 12.7314 895 118.055 654.594 447.051
978 0 74.5154 11.2863 841 119.927 654.48 445.829
979 0 76.3036 10.301 786 122.092 655.604 442.282
980 0 82.3711 13.2692 1093 114.005 656.74 445.789
981 0 86.1488 13.7321 1183 113.02 658.39 444.161
982 0 85.454 13.9022 1188 115.001 656.986 440.703
983 0 88.3209 11.3223 1000 118.564 658.657 438.6
984 0 93.4009 14.2076 1327 112.046 659.288 437.336
985 0 97.2562 9.65491 939 119.378 660.606 437.918
986 0 103.372 12.5759 1300 113.604 661.308 436.277
987 1 53.2408 9.56034 509 108.686 663.053 461.984
988 0 53.1834 12.1467 646 103.22 663.599 460.743
989 0 52.3023 9.61717 503 105.066 664.493 464.199
990 0 56.1157 10.4071 584 101.442 664.041 462.531
991 0 58.1927 10.912 635 101.817 662.22 461.332
992 0 56.1508 7.10586 399 110.672 662.902 458.12
993 0 65.2627 12.013 784 100.611 662.158 462.755
994 0 68.3001 9.94142 679 101.786 661.688 463.099
995 0 68.2704 12.0111 820 106.988 662.574 467.872
996 0 73.4374 14.1345 1038 97.9422 661.008 468.677
997 0 72.5368 11.5114 835 109.62 662.38 466.177
998 0 74.3471 12.7914 951 107.941 662.677 465.332
999 0 75.5084 11.5484 872 113.995 662.37 466.73
1000 0 82.227 12.8668 1058 113.486 661.207 463.658
1001 0 83.3998 11.3909 950 116.321 659.634 462.326
1002 0 85.2739 11.5276 983 117.509 660.387 462.575
1003 0 90.5645 13.2502 1200 113.992 658.599 461.041
1004 0 91.4936 11.5637 1058 116.648 657.763 463.336
1005 0 94.6909 15.9044 1506 108.254 657.681 456.834
1006 0 94.8292 11.7791 1117 113.045 656.5 460.401
1007 0 101.722 13.7434 1398 112.494 656.261 453.333
1008 0 105.019 16.5113 1734 109.622 656.838 448.863
1009 0 107.259 12.978 1392 114.621 656.668 448.105
1010 0 108.651 11.5507 1255 116.312 656.623 450.317
1011 0 110.844 14.9309 1655 111.589 656.62 449.503
1012 1 62.5566 13.6037 851 112.132 656.49 470.29
1013 0 61.5625 10.9482 674 119.461 657.28 465.838
1014 0 64.378 12.9547 834 116.524 656.977 465.827
1015 0 71.365 15.5258 1108 112.274 658.098 463.164
1016 0 68.469 15.3792 1053 114.58 657.82 457.538
1017 0 71.5178 16.3875 1172 111.534 657.369 457.618
1018 0 73.7158 14.5695 1074 115.855 658.226 451.486
1019 0 74.8404 12.5467 939 119.591 657.714 453.61
1020 0 78.4199 15.264 1197 114.84 658.139 452.861
1021 0 81.785 16.1766 1323 113.184 659.203 448.039
1022 0 84.7506 15.8229 1341 112.71 658.695 452.352
1023 0 86.1284 15.2447 1313 116.053 659.1 447.5
1024 0 87.6746 16.9718 1488 113.36 659.537 446.311
1025 0 90.9031 15.907 1446 115.624 659.397 445.469
1026 0 90.9031 15.786 1435 129.467 659.38 445.477
1027 0 94.3132 12.3419 1164 115.556 661.151 447.29
1028 0 99.5964 11.9984 1195 115.341 661.474 447.853
1029 1 54.0895 12.0356 651 108.951 663.77 470.028
1030 0 57.075 13.859 791 107.85 664.713 467.104
1031 0 53.111 10.2992 547 119.985 665.159 462.605
1032 0 56.2315 11.1859 629 113.502 664.938 458.052
1033 0 61.4606 13.0165 800 108.486 665.464 462.46
1034 0 58.4382 11.5335 674 114.398 663.757 459.911
1035 0 59.3451 10.9529 650 115.142 663.128 458.937
1036 0 60.572 8.20511 497 113.316 661.976 463.527
1037 0 64.1111 13.8198 886 106.407 661.121 459.214
1038 0 67.6655 14.0692 952 104.95 663.142 462.81
1039 0 70.2075 13.5598 952 107.286 661.275 455.166
1040 0 68.3701 12.3738 846 109.55 661.407 462.152
1041 0 72.6764 12.3837 900 109.841 660.546 462.619
1042 0 74.5569 14.0564 1048 109.251 661.09 460.802
1043 0 78.4945 14.4469 1134 107.959 658.311 462.697
1044 0 80.5924 13.8475 1116 109.619 658.176 457.031
1045 0 85.4807 13.2428 1132 112.965 656.361 456.938
1046 0 86.5896 15.3944 1333 111.624 655.498 456.059
1047 0 87.5409 13.982 1224 114.261 655.594 453.737
1048 1 49.1425 12.596 619 114.837 653.483 476.073
1049 0 52.2808 12.3755 647 116.017 653.255 474.75
1050 0 54.1566 14.5135 786 109.604 653.388 474.814
1051 0 55.0823 14.6145 805 108.268 652.067 474.978
1052 0 58.2149 15.9409 928 106.836 653.28 471.074
1053 0 57.0724 13.5792 775 112.836 652.52 470.594
1054 0 56.0621 9.8819 554 118.785 651.971 473.82
1055 0 58.0958 11.0679 643 117.456 652.583 469.477
1056 0 58.0958 10.9991 639 131.814 653.587 469.465
1057 0 61.1792 12.4552 762 115.209 651.818 466.188
1058 0 65.2412 12.814 836 113.855 652.787 460.847
1059 0 69.2013 12.9766 898 112.349 652.865 463.114
1060 0 70.0905 15.3088 1073 109.328 653.921 463.787
1061 0 71.365 12.1068 864 115.13 654.172 457.144
1062 0 72.2379 13.3448 964 113.137 653.467 461.379
1063 0 73.2048 12.3489 904 115.687 654.392 454.786
1064 0 80.3715 12.1934 980 112.4 654.763 459.58
1065 0 82.4686 14.3934 1187 109.001 656.062 459.253
1066 0 86.2353 16.2694 1403 105.694 656.504 458.824
1067 0 87.2478 14.8199 1293 111.135 658.892 446.61
1068 1 47.4283 10.7952 512 112.379 660.27 469.209
1069 0 44.3754 9.89286 439 107.116 659.522 464.289
1070 0 48.6081 13.3517 649 101.974 660.468 464.604
1071 0 51.2845 14.8193 760 101.312 659.925 464.966
1072 0 50.2288 12.1046 608 102.707 660.086 459.679
1073 0 51.3989 10.5061 540 104.391 662.376 467.302
1074 0 52.3128 9.27114 485 106.406 661.342 465.311
1075 0 56.4741 14.6262 826 100.68 662.682 465.292
1076 0 56.4741 14.7324 832 113.56 664.672 465.269
1077 0 60.3209 12.5993 760 104.611 660.583 463.295
1078 0 59.5626 12.4743 743 105.12 661.622 466.023
1079 0 62.3412 11.4531 714 106.367 662.438 471.402
1080 0 68.2491 14.535 992 102.722 662.795 467.761
1081 0 70.255 14.1769 996 102.707 661.99 470.886
1082 0 71.2235 13.6331 971 105.185 663.656 466.057
1083 0 74.3062 14.844 1103 104.844 661.567 465.336
1084 0 76.401 10.3402 790 111.306 662.07 464.332
1085 0 81.3461 15.8827 1292 104.359 660.896 461.25
1086 0 81.3296 13.7957 1122 106.604 660.666 467.038
1087 0 86.3606 13.2584 1145 107.15 659.549 465.5
1088 0 87.3174 12.3343 1077 109.371 659.769 460.196
1089 1 46.1521 10.9421 505 107.374 659.032 482.127
1090 0 47.0598 10.391 489 107.722 658.517 479.352
1091 0 52.091 12.6509 659 104.258 657.398 481.595
1092 0 51.3153 14.3817 738 104.649 655.794 478.785
1093 0 53.4772 15.8572 848 104.675 656.596 478.197
1094 0 55.6648 16.4916 918 101.505 656.38 476.366
1095 0 57.1778 14.2013 812 105.023 655.9 475.379
1096 0 58.3365 13.045 761 107.047 655.912 473.401
1097 0 61.2423 15.2836 936 103.849 655.07 472.407
1098 0 61.2527 14.0565 861 107.008 654.904 470.865
1099 0 64.3178 17.0093 1094 102.495 654.934 469.994
1100 0 63.2596 10.0854 638 112.034 655.563 468.541
1101 0 68.4709 14.1082 966 106.125 655.568 462.107
1102 0 71.3101 15.7201 1121 103.643 656.293 462.409
1103 0 73.283 14.328 1050 105.632 655.659 461.303
1104 0 75.2206 15.1288 1138 106.412 654.803 461.138
1105 0 79.402 13.1357 1043 108.791 655.917 455.381
1106 0 79.4254 12.0113 954 112.032 656.036 456.455
1107 0 84.5061 12.6145 1066 110.767 657.643 456.319
1108 0 85.2463 11.7542 1002 111.988 656.698 455.405
1109 0 90.2066 13.713 1237 107.715 658.738 454.849
1110 0 92.4159 15.9821 1477 107.708 658.336 443.322
1111 0 97.4111 15.3884 1499 108.835 659.187 450
1112 1 49.0436 11.8466 581 111.929 659.91 470.005
1113 0 51.165 11.3359 580 117.443 661.25 472.698
1114 0 53.0985 14.5202 771 113.693 661.418 468.84
1115 0 57.083 13.7694 786 113.525 662.326 469.536
1116 0 55.3075 11.427 632 118.296 661.747 468.843
1117 0 58.2647 13.3529 778 116.102 663.067 465.375
1118 0 62.1541 15.4133 958 111.595 662.422 463.92
1119 0 65.177 14.6831 957 112.282 663.394 465.877
1120 0 65.1209 11.9009 775 116.996 663.286 466.45
1121 0 70.2023 13.9739 981 112.841 662.392 464.939
1122 0 71.078 12.4793 887 115.388 662.621 466.441
1123 0 73.3363 13.4449 986 113.69 662.48 466.255
1124 0 80.3405 15.0236 1207 109.594 661.806 467.528
1125 1 36.0329 10.7957 389 118.134 661.447 482.815
1126 0 40.3211 14.5085 585 110.954 660.231 484.995
1127 0 43.3579 14.461 627 109.963 657.107 483.048
1128 0 43.9806 12.2327 538 116.059 658.6 481.848
1129 0 46.6814 15.5737 727 110.036 656.585 480.689
1130 0 47.3316 17.6204 834 108.246 655.387 483.405
1131 0 48.5734 11.9407 580 116.795 654.457 481.212
1132 0 47.5099 12.0396 572 116.921 655.026 481.397
1133 0 52.5415 16.4822 866 109.227 653.871 480.027
1134 0 52.5248 17.7059 930 108.022 654.51 479.925
1135 0 53.0835 12.8289 681 116.969 654.954 480.263
1136 0 56.2183 14.9418 840 112.531 655.881 477.873
1137 0 56.0925 15.2427 855 112.732 655.081 475.047
1138 0 59.1632 16.2263 960 109.721 653.743 475.031
1139 0 62.0922 13.8665 861 113.305 653.558 473.823
1140 0 64.07 20.1498 1291 103.977 653.796 470.683
1141 0 67.1681 19.3395 1299 104.841 652.759 469.086
1142 0 68.162 15.7859 1076 110.251 653.606 469.565
1143 0 70.0893 14.2104 996 113.2 653.149 467.816
1144 1 35.0234 9.85054 345 119.736 652.997 481.455
1145 0 38.0803 10.7142 408 115.321 654.002 480.968
1146 0 39.1959 11.4553 449 114.893 654.78 478.234
1147 0 41.0206 13.9686 573 110.25 654.944 472.977
1148 0 41.2571 12.4827 515 105.052 655.73 474.567
1149 0 40.065 11.706 469 105.414 655.544 474.298
1150 0 41.0438 10.1355 416 110.368 656.276 469.743
1151 0 44.0926 13.7438 606 104.955 656.2 469.332
1152 0 46.0181 14.0162 645 105.284 656.434 468.862
1153 0 47.1411 13.852 653 106.077 658.726 469.864
1154 0 47.0383 12.1603 572 109.142 657.928 469.217
1155 0 50.0384 16.6872 835 103.443 658.413 468.029
1156 0 51.1049 12.7972 654 108.578 659.067 469.859
1157 0 52.1035 17.945 935 103.957 658.34 466.117
1158 0 55.1609 15.1194 834 106.994 660.683 463.544
1159 0 57.1315 14.5454 831 107.698 660.007 466.226
1160 0 58.1723 13.5803 790 109.372 661.456 462.254
1161 0 60.1756 15.1224 910 107.931 660.289 466.91
1162 0 63.4494 13.8536 879 109.382 661.993 464.717
1163 0 63.189 14.4012 910 109.927 660.411 466.691
1164 0 66.2476 11.6231 770 112.61 661.714 471.012
1165 0 67.2464 15.2127 1023 109.273 660.927 465.817
1166 0 70.0717 13.5861 952 111.53 660.53 467.859
1167 0 72.1817 15.2255 1099 110.176 660.832 464.76
1168 0 73.5298 11.1927 823 115.789 660.699 467.256
1169 0 80.5815 15.2392 1228 108.733 660.616 465.791
1170 0 84.3857 14.4219 1217 110.525 660.546 462.143
1171 0 88.5108 24.8783 2202 97.4378 659.208 457.053
1172 0 90.4354 19.4061 1755 102.99 659.673 457.342
1173 1 48.0987 14.0336 675 108.043 659.157 482.775
1174 0 48.1058 12.8675 619 112.758 658.087 479.877
1175 0 49.2844 13.7569 678 111.364 658.358 477.372
1176 0 54.1131 12.7695 691 111.061 656.97 478.577
1177 0 56.1437 14.5698 818 107.813 655.869 475.407
1178 0 56.0471 13.8455 776 109.43 654.947 475.33
1179 0 61.3032 15.5946 956 107.592 654.961 474.756
1180 0 57.2418 10.5517 604 116.232 654.285 472.656
1181 0 61.0512 16.265 993 106.447 654.199 474.187
1182 0 65.2748 14.7071 960 109.561 653.232 471.495
1183 0 65.2748 14.753 963 134.166 652.225 471.533
1184 0 68.2558 18.4453 1259 105.758 652.438 469.203
1185 0 71.2485 18.8074 1340 105.208 652.137 463.567
1186 0 71.2485 18.7513 1336 123.319 651.12 463.588
1187 0 77.1911 16.634 1284 107.714 652.172 458.754
1188 0 78.1784 19.5962 1532 104.89 652.724 453.339
1189 0 82.1375 15.4375 1268 110.181 653.482 453.61
1190 0 82.4802 14.5126 1197 111.533 654.056 452.1
1191 0 87.1559 15.9255 1388 109.097 653.97 453.207
1192 0 90.1235 18.752 1690 107.154 654.869 450.159
1193 0 92.3115 17.8851 1651 108.375 655.68 449.666
1194 0 96.3638 17.8594 1721 109.145 655.654 445.963
1195 0 101.325 21.3472 2163 104.951 656.667 443.705
1196 1 53.1514 15.1266 804 115.638 655.643 466.244
1197 0 53.117 14.3645 763 118.366 656.482 463.45
1198 0 59.1829 18.5527 1098 110.391 656.813 466.313
1199 0 60.3193 16.1971 977 115.591 657.819 462.416
1200 0 63.3742 19.8661 1259 110.026 658.102 462.778
1201 0 64.3096 16.1096 1036 117.324 658.412 458.854
1202 0 68.3739 18.0186 1232 113.098 658.873 461.882
1203 0 69.2888 19.296 1337 112.807 658.711 460.435
1204 0 72.465 19.8027 1435 111.237 659.574 461.994
1205 0 74.2245 17.1507 1273 116.774 660.155 461.438
1206 0 75.172 14.673 1103 121.948 660.122 460.487
1207 0 79.165 20.7667 1644 112.443 660.595 461.473
1208 0 82.1981 16.1196 1325 120.828 660.1 457.926
1209 0 84.2129 17.3014 1457 120.415 660.485 454.82
1210 0 90.3713 15.5248 1403 117.731 658.749 461.672
1211 0 94.5065 18.2421 1724 113.884 658.653 461.713
1212 1 47.305 11.9226 564 125.716 657.537 481.098
1213 0 49.2022 13.0279 641 124.144 656.803 481.665
1214 0 53.2894 18.1087 965 117.486 655.636 478.989
1215 0 55.2144 17.3686 959 118.41 656.27 480.526
1216 0 56.2703 18.109 1019 118.379 655.056 478.275
1217 0 59.3144 15.9658 947 122.026 654.742 479.309
1218 0 61.3162 19.2608 1181 116.686 654.491 475.879
1219 0 63.3303 16.485 1044 121.992 654.055 477.502
1220 0 64.2701 16.8041 1080 121.834 653.762 472.46
1221 0 67.4453 15.8795 1071 123.11 653.526 471.806
1222 0 68.2924 14.5697 995 124.348 652.853 472.667
1223 0 68.2924 14.5111 991 153.932 651.857 472.638
1224 0 74.73 19.644 1468 117.071 652.898 465.669
1225 0 73.5361 14.8362 1091 126.959 652.962 463.751
1226 0 78.393 15.3968 1207 126.782 652.761 467.993
1227 0 80.3341 16.3691 1315 124.837 652.658 462.936
1228 0 83.256 16.9958 1415 123.932 652.262 458.488
1229 0 87.2955 18.8784 1648 119.55 652.321 459.469
1230 1 44.1492 14.904 658 123.029 651.532 479.214
1231 0 48.4499 15.2941 741 121.131 652.092 472.761
1232 0 49.1288 15.6935 771 124.739 653.824 473.721
1233 0 51.3514 17.4095 894 121.5 652.424 465.616
1234 0 52.2316 13.9762 730 125.53 652.278 459.459
1235 0 54.3827 15.1335 823 121.902 652.744 460.238
1236 0 57.2874 20.0917 1151 114.785 654.611 454.248
1237 0 58.22 16.7296 974 120.84 654.352 452.233
1238 0 61.5799 17.8143 1097 118.06 655.816 452.833
1239 0 60.1324 14.7674 888 123.731 655.724 452.393
1240 0 65.8316 14.8105 975 121.648 655.935 456.952
1241 0 67.9171 17.7864 1208 116.252 656.661 459.772
1242 0 68.7625 18.8039 1293 118.015 657.713 455.537
1243 0 68.5002 13.5182 926 128.674 658.026 457.087
1244 0 71.6241 15.4557 1107 124.872 658.846 453.961
1245 0 74.725 15.4567 1155 125.726 659.263 455.638
1246 0 77.0373 15.6937 1209 126.552 659.943 453.442
1247 0 79.6444 15.0419 1198 126.994 660.768 453.027
1248 0 82.805 19.1051 1582 119.229 660.466 453.733
1249 0 85.7894 16.319 1400 124.14 660.729 453.179
1250 0 90.5276 16.5253 1496 123.735 660.119 449.16
1251 0 92.7083 15.3492 1423 124.766 661.001 453.536
1252 1 47.4092 12.6558 600 123.7 659.652 471.893
1253 0 49.1138 12.4812 613 120.71 659.843 475.116
1254 0 49.1138 12.5016 614 139.215 660.84 475.195
1255 0 55.2605 12.993 718 121.535 659.391 474.767
1256 0 56.296 13.7843 776 121.892 658.286 477.704
1257 0 58.1919 12.9743 755 122.248 658.252 477.033
1258 0 62.0893 13.384 831 122.002 657.614 473.138
1259 0 61.2463 11.4293 700 125.781 656.354 466.571
1260 0 65.2636 14.6943 959 120.852 655.64 467.59
1261 0 69.7496 15.4983 1081 118.265 654.381 465.932
1262 0 70.5827 14.9045 1052 118.503 653.423 467.6
1263 0 72.3791 12.3931 897 125.237 653.561 461.19
1264 0 76.5626 12.6041 965 123.403 653.289 461.933
1265 0 77.4556 13.44 1041 123.777 654.102 454.847
1266 0 80.6558 15.9319 1285 119.003 652.713 458.376
1267 0 82.4388 13.9012 1146 123.408 652.334 455.041
1268 0 85.8845 14.0538 1207 121.853 653.065 456.047
1269 0 87.8553 13.6816 1202 123.433 651.95 452.508
1270 0 89.5096 16.0988 1441 117.144 651.393 455.428
1271 0 93.5816 13.3573 1250 124.183 651.54 446.444
1272 0 97.606 15.7162 1534 119.297 653.055 445.158
1273 0 101.101 17.26 1745 118.935 653.276 436.199
1274 1 55.9023 13.7025 766 115.272 653.785 464.084
1275 0 54.7269 12.2061 668 117.37 652.97 463.641
1276 0 57.3789 13.1581 755 114.444 654.016 462.478
1277 0 58.5284 11.7721 689 114.087 653.016 465.518
1278 0 62.3396 11.1165 693 114.392 654.622 463.117
1279 0 59.1325 9.0813 537 120.009 656.903 458.978
1280 0 67.427 11.9982 809 114.866 656.536 456.918
1281 0 67.1666 11.3003 759 115.418 657.302 458.315
1282 0 67.3736 10.6273 716 118.697 658.267 454.839
1283 0 71.1836 13.9217 991 112.159 658.576 459.922
1284 0 71.1836 13.992 996 124.408 657.584 459.957
1285 0 75.236 10.6864 804 118.229 659.211 451.148
1286 0 78.399 16.6456 1305 110.895 658.683 455.122
1287 0 80.6284 12.9979 1048 118.323 658.733 449.843
1288 0 82.5844 10.0745 832 122.356 660.147 452.105
1289 0 85.3352 11.0623 944 121.49 660.412 449.781
1290 0 89.8182 12.9038 1159 115.818 659.611 447.805
1291 0 91.4466 9.37159 857 121.117 660.768 443.785
1292 0 95.8638 11.9858 1149 117.526 660.854 443.933
1293 1 51.4398 10.5755 544 107.23 661.835 471.958
1294 0 52.4354 10.9277 573 108.066 661.168 473.935
1295 0 55.4998 10.6307 590 106.808 661.164 473.798
1296 0 57.467 10.2146 587 107.891 661.595 474.179
1297 0 59.3015 10.4045 617 108.16 661.452 478.314
1298 0 60.3608 11.6301 702 107.66 661.734 474.236
1299 0 61.4085 6.1555 378 113.566 661.532 480.735
1300 0 63.5095 8.39244 533 112.321 659.182 473.552
1301 0 68.5551 12.3113 844 107.339 659.949 471.621
1302 0 70.2811 13.3749 940 106.584 658.172 472.743
1303 0 70.3748 10.9698 772 113.575 655.902 471.127
1304 0 75.2844 14.226 1071 109.446 655.239 465.842
1305 0 76.2876 10.0934 770 115.186 654.545 466.139
1306 0 79.3771 10.7588 854 114.329 655.066 464.266
1307 0 84.4015 14.6206 1234 107.899 655.147 464.887
1308 0 88.4143 12.8486 1136 111.763 651.514 459.006
1309 1 48.2472 10.612 512 110.277 654.17 479.66
1310 0 48.174 10.4413 503 112.016 654.481 476.245
1311 0 47.2836 8.88258 420 113.748 654.883 473.326
1312 0 50.1713 10.4243 523 112.287 654.566 474.61
1313 0 55.4327 14.4139 799 102.936 653.885 467.006
1314 0 54.1437 12.6515 685 108.123 654.333 467.158
1315 0 56.1773 14.8992 837 104.345 652.71 466.54
1316 0 56.088 12.3199 691 109.237 654.967 463.206
1317 0 55.1553 13.6342 752 106.624 654.279 468.656
1318 0 59.0852 11.2211 663 111.234 654.91 463.789
1319 0 63.1704 13.7564 869 106.997 655.918 460.495
1320 0 65.2098 15.6265 1019 103.117 655.902 463.189
1321 0 64.1833 12.7448 818 115.649 656.718 457.024
1322 0 70.1518 15.3667 1078 108.956 657.47 459.479
1323 0 66.2576 11.3345 751 117.21 657.64 456.009
1324 0 73.2917 9.79647 718 118.747 658.795 454.942
1325 0 80.6356 9.59874 774 135.552 659.698 452.838
1326 0 80.297 11.1461 895 116.93 658.359 451.435
1327 0 81.1676 12.7637 1036 115.218 659.958 454.342
1328 0 82.173 15.9298 1309 122.187 661.921 450.58
1329 0 85.3616 9.03216 771 122.433 660.99 453.975
1330 0 89.2074 11.7143 1045 117.865 661.154 454.27
1331 1 47.0868 10.916 514 114.08 658.747 475.311
1332 0 48.1118 16.0252 771 105.783 658.41 472.892
1333 0 48.0233 10.4116 500 113.486 658.42 471.216
1334 0 52.2982 8.94869 468 115.767 660.635 477.111
1335 0 52.4409 7.89461 414 118.295 659.242 477.234
1336 0 50.3547 9.71111 489 112.039 659.429 473.947
1337 0 53.2254 10.8407 577 113.466 658.152 481.886
1338 0 56.2591 12.3358 694 116.062 656.146 474.813
1339 0 57.4626 10.0413 577 119.702 657.199 478.276
1340 0 58.2194 12.1437 707 117.15 656.956 475.04
1341 0 61.1524 12.0846 739 116.375 656.908 477.582
1342 1 121.28 12.6155 1530 118.964 656.927 447.397
1343 0 121.28 12.6979 1540 148.682 657.928 447.331
1344 1 67.3006 13.3877 901 115.496 655.804 473.703
1345 0 69.7746 12.87 898 116.362 653.861 474.849
1346 0 70.6001 12.4362 878 116.968 655.084 473.568
1347 0 73.4562 10.7819 792 118.693 653.679 474.207
1348 0 76.6298 13.0628 1001 115.345 653.352 470.927
1349 0 76.6874 12.2445 939 115.193 654.291 473.023
1350 0 80.5661 15.689 1264 111.622 654.059 467.391
1351 0 79.5368 12.5351 997 119.475 653.572 462.002
1352 0 84.6388 12.5474 1062 118.025 652.562 460.159
1353 0 90.0943 12.8421 1157 116.755 653.016 460.481
1354 0 92.779 13.0094 1207 117.27 652.748 450.142
1355 1 46.6732 12.7911 597 118.362 653.394 473.049
1356 0 49.0789 12.2048 599 117.775 653.269 471.159
1357 0 50.81 10.372 527 122.746 653.097 466.92
1358 0 54.7954 15.0743 826 113.149 653.219 465.144
1359 0 56.1098 15.2202 854 112.553 654.886 468.139
1360 0 58.113 14.902 866 113.768 655.848 468.346
1361 0 59.1668 13.3183 788 117.26 655.695 462.377
1362 0 60.099 14.2265 855 114.416 655.57 464.374
1363 0 62.0756 14.0313 871 115.427 656.71 462.002
1364 0 64.1608 12.9362 830 116.93 656.778 460.313
1365 0 67.1937 14.8228 996 113.436 657.43 457.232
1366 0 69.113 13.7167 948 114.62 659.6 457.22
1367 0 69.3632 11.8939 825 118.668 658.539 455.475
1368 0 73.3299 17.7417 1301 109.255 659.288 453.185
1369 0 76.4593 14.6875 1123 113.55 660.362 453.066
1370 0 79.5233 14.8887 1184 112.654 661.076 454.144
1371 0 74.1584 10.4911 778 123.096 660.355 448.158
1372 0 82.2691 11.6204 956 118.004 661.913 453.275
1373 0 84.2816 13.8583 1168 114.427 661.301 451.372
1374 0 88.2365 13.3505 1178 114.295 662.672 450.771
1375 1 46.0943 10.088 465 112.918 662.768 473.4
1376 0 50.1092 11.7942 591 108.256 663.7 472.973
1377 0 48.258 10.6304 513 110.667 661.322 476.961
1378 0 53.0308 13.313 706 107.704 662.343 471.69
1379 0 53.043 14.2715 757 106.318 661.152 474.292
1380 0 52.0496 11.2393 585 111.027 662.624 477.104
1381 0 56.1244 11.813 663 109.4 661.973 475.95
1382 0 57.0498 12.603 719 108.524 661.74 474.362
1383 0 61.0805 13.6705 835 106.019 660.823 475.553
1384 0 59.1833 13.0949 775 108.392 661.726 476.667
1385 0 64.0853 12.1713 780 109.529 660.181 473.767
1386 0 66.1835 13.4928 893 108.459 659.839 467.391
1387 0 69.0765 13.9266 962 107.7 658.688 470.782
1388 0 70.1339 14.0303 984 107.44 658.115 472.726
1389 0 72.1767 13.0652 943 110.195 657.8 467.387
1390 0 74.1547 12.7706 947 110.468 657.214 469.14
1391 0 78.1353 13.3486 1043 109.385 656.647 464.971
1392 0 81.0489 15.5215 1258 107.17 656.602 462.234
1393 0 83.1221 18.2984 1521 103.325 656.602 459.739
1394 0 85.0722 15.1283 1287 108.273 655.91 459.928
1395 1 48.1145 11.9507 575 108.727 655.89 478.603
1396 0 52.324 11.5052 602 107.211 655.435 478.163
1397 0 46.7961 8.95374 419 109.532 651.265 467.236
1398 0 46.7961 8.86826 415 126.287 649.275 467.301
1399 0 52.2435 13.0734 683 99.6105 652.698 465.543
1400 0 53.1228 12.104 643 101.616 652.397 463.023
1401 0 53.2252 11.6862 622 101.641 652.211 463.965
1402 0 53.2105 12.0089 639 102.95 652.047 459.61
1403 0 57.2893 14.3133 820 99.4634 651.46 459.607
1404 0 57.285 11.8006 676 103.132 651.783 460.771
1405 0 59.2501 14.059 833 101.275 652.976 455.806
1406 0 60.2441 14.0263 845 101.54 654.329 454.52
1407 0 61.1457 9.99253 611 106.674 654.39 450.52
1408 0 62.2263 9.41724 586 106.594 656.855 455.328
1409 0 68.1827 12.0852 824 100.904 656.805 459.226
1410 0 70.268 14.5585 1023 100.018 656.628 453.561
1411 0 70.1087 9.12868 640 106.686 658.589 457.416
1412 0 73.1163 8.9173 652 105.848 660.169 457.719
1413 0 76.2391 7.51583 573 110.059 659.11 445.239
1414 1 40.0707 9.7328 390 104.159 660.933 468.38
1415 0 44.2327 13.1125 580 100.093 660.472 465.459
1416 0 44.313 11.5993 514 103.842 658.899 464.7
1417 0 45.3424 12.9901 589 99.7334 660.733 468.289
1418 0 48.4571 8.25473 400 104.615 661.29 471.918
1419 0 49.4158 9.95634 492 103.256 660.451 471.726
1420 0 52.6562 11.4137 601 101.835 661.308 470.155
1421 0 49.3284 9.69016 478 105.379 661.249 470.803
1422 0 49.3101 10.0993 498 105.466 660.715 472.193
1423 0 55.2926 11.611 642 102.953 660.57 474.81
1424 0 59.2551 11.9652 709 104.041 659.938 469
1425 0 56.2512 10.4709 589 106.725 658.902 467.438
1426 0 59.4785 12.391 737 102.777 659.973 471.859
1427 0 61.0724 10.0864 616 113.547 658.89 478.01
1428 0 66.1718 13.3138 881 105.961 660.69 473.313
1429 0 65.1074 10.26 668 112.454 657.978 470.671
1430 0 69.1317 10.9356 756 110.358 657.639 472.173
1431 0 73.2195 12.442 911 108.328 656.223 471.632
1432 0 73.2195 12.5513 919 122.521 654.17 471.666
1433 0 79.1621 14.2745 1130 105.501 655.197 468.674
1434 0 81.2897 11.7235 953 110.846 655.664 463.411
1435 0 84.1788 15.372 1294 105.211 655.053 459.573
1436 0 88.4948 12.4866 1105 110.49 655.375 460.319
1437 0 90.2806 11.3424 1024 110.87 654.468 458.392
1438 0 90.2806 11.3313 1023 139.739 654.459 458.345
1439 1 49.0985 12.4851 613 107.444 654.168 475.114
1440 0 53.0785 11.9634 635 105.093 653.413 473.082
1441 0 50.2106 11.1331 559 108.889 650.368 468.973
1442 0 53.3917 15.2833 816 102.49 652.17 467.435
1443 0 55.3848 10.8694 602 109.033 650.934 466.088
1444 0 57.3877 11.0128 632 108.419 651.571 465.79
1445 0 57.2882 11.6603 668 108.24 650.889 464.97
1446 0 61.5579 13.1746 811 105.492 652.099 461.313
1447 0 62.2836 11.6885 728 108.503 651.592 460.742
1448 0 61.3702 12.5957 773 108.803 652.514 457.137
1449 0 65.3552 15.2245 995 104.753 652.576 457.093
1450 0 71.5968 17.1237 1226 102.317 653.457 454.532
1451 0 68.3115 12.6626 865 109.01 655.03 456.592
1452 0 72.3663 12.0636 873 110.027 654.974 453.644
1453 0 75.1533 13.1199 986 108.875 655.913 452.787
1454 0 75.4378 11.6387 878 111.823 655.808 453.779
1455 0 78.1898 14.2602 1115 109.58 656.596 450.948
1456 0 80.2236 12.8765 1033 113.729 657.207 450.323
1457 0 83.2289 15.5715 1296 109.603 657.632 448.401
1458 0 86.3623 13.8718 1198 113.33 658.37 443.778
1459 0 88.3028 12.0155 1061 117.22 658.793 451.167
1460 0 90.2206 14.4978 1308 114.252 659.255 445.403
1461 0 92.5776 13.4158 1242 116.849 660.238 443.335
1462 0 98.3378 16.7992 1652 110.302 660.441 446.015
1463 1 51.0475 7.69872 393 119.695 658.572 467.198
1464 0 54.0916 12.6267 683 112.019 657.908 467.823
1465 0 54.0179 13.0883 707 112.32 657.682 468.969
1466 0 57.1909 11.96 684 113.849 656.836 467.202
1467 0 57.2038 9.85948 564 116.954 658.27 469.601
1468 0 60.3422 16.4727 994 107.295 657.851 465.948
1469 0 61.3386 13.0913 803 113.191 658.319 466.016
1470 0 64.2021 11.0744 711 116.632 656.705 469.3
1471 0 65.0512 14.5116 944 112.782 656.178 464.695
1472 0 68.1208 14.7826 1007 111.848 654.041 465.216
1473 0 72.2178 13.307 961 113.645 653.281 468.461
1474 0 72.2372 14.6047 1055 112.198 653.146 465.123
1475 0 75.1118 13.8593 1041 113.264 653.288 461.89
1476 0 79.1511 14.5544 1152 111.415 653.367 461.158
1477 0 81.2006 14.7905 1201 111.932 651.66 457.518
1478 0 82.244 15.5999 1283 111.787 651.479 451.874
1479 0 85.246 16.5638 1412 109.699 651.374 455.972
1480 0 87.2904 12.7047 1109 116.765 650.014 453.048
1481 0 88.157 10.6514 939 122.77 650.357 452.035
1482 0 91.3904 10.0995 923 123.167 650.419 450.315
1483 0 97.2346 10.2947 1001 120.794 649.976 452.186
1484 1 53.1076 13.3691 710 107.996 649.849 471.424
1485 0 54.2411 11.1723 606 110.718 650.88 470.785
1486 0 54.3296 12.2769 667 109.775 651.628 470.187
1487 0 56.4127 13.029 735 109.913 652.404 467.739
1488 0 59.4321 11.6604 693 111.73 652.71 466.472
1489 0 61.3725 12.8559 789 110.934 653.674 460.858
1490 0 62.3007 12.0705 752 111.213 653.758 465.221
1491 0 66.4429 14.9151 991 108.411 654.101 457.94
1492 0 66.3404 10.6722 708 115.292 654.468 453.247
1493 0 69.4305 10.6437 739 115.11 655.399 457.958
1494 0 72.2361 10.8533 784 113.636 654.883 458.46
1495 0 74.2641 13.9367 1035 111.357 657.196 454.127
1496 0 78.1786 13.968 1092 110.311 658.055 455.645
1497 0 79.2119 12.5865 997 114.851 658.578 448.042
1498 0 83.4089 11.5216 961 114.875 659.134 452.55
1499 0 83.2022 10.5166 875 118.125 658.205 451.162
1500 1 46.2163 11.3813 526 113.135 661.124 465.667
1501 0 44.2384 8.72545 386 141.363 663.531 468.324
1502 0 51.5282 12.4398 641 116.002 659.379 464.875
1503 0 50.235 14.2331 715 114.59 657.253 471.316
1504 0 53.2248 13.1705 701 116.399 658.752 470.106
1505 0 53.3135 12.9986 693 117.67 657.618 471.045
1506 0 58.1003 14.7159 855 112.558 658.036 473.966
1507 0 59.1629 14.1812 839 114.793 658.166 472.383
1508 0 59.3293 14.074 835 115.679 656.691 474.604
1509 0 62.2156 14.8194 922 114.454 658.253 470.964
1510 0 63.2396 14.4846 916 115.749 656.726 470.063
1511 0 64.369 11.7292 755 120.899 656.743 472.629
1512 0 67.3677 12.8548 866 118.427 656.689 473.445
1513 0 67.2226 14.4594 972 116.484 655.864 470.332
1514 0 70.4011 14.7583 1039 116.143 655.946 468.624
1515 0 70.4406 11.7688 829 122.821 655.505 469.093
1516 0 73.4504 13.9958 1028 117.616 654.675 471.145
1517 0 78.4169 15.6471 1227 114.628 653.778 466.399
1518 0 79.2794 15.6535 1241 114.874 652.629 467
1519 0 82.1977 13.9177 1144 118.87 652.622 461.996
1520 0 84.5059 14.7919 1250 117.734 652.312 459.942
1521 0 87.3238 15.4941 1353 115.488 652.503 462.13
1522 0 89.5731 15.0715 1350 117.037 652.142 457.673
1523 0 90.4202 14.2004 1284 119.306 651.639 457.228
1524 0 94.7474 12.718 1205 120.818 650.687 451.715
1525 0 98.541 15.7802 1555 115.958 651.033 451.92
1526 0 97.4596 13.3902 1305 120.89 650.28 446.112
1527 0 105.526 15.7876 1666 115.756 651.22 442.892
1528 1 57.7684 9.26112 535 124.387 651.692 466.68
1529 0 59.7967 11.9906 717 119.517 651.806 467.894
1530 0 60.5395 14.5029 878 115.182 651.317 467.341
1531 0 62.8027 12.4995 785 118.098 653.098 461.643
1532 0 64.3087 13.3419 858 115.176 650.111 465.301
1533 0 65.2248 14.4424 942 113.175 652.495 464.11
1534 0 68.2496 15.3114 1045 112.526 652.657 457.885
1535 0 71.1038 13.3889 952 114.804 652.241 458.24
1536 0 73.264 13.5401 992 114.787 652.436 458.728
1537 0 74.2801 14.1491 1051 115.732 654.175 453.096
1538 0 77.2573 18.2636 1411 108.353 654.349 453.355
1539 0 78.3293 12.5368 982 116.954 653.92 454.663
1540 0 81.1822 14.3135 1162 114.719 655.289 452.097
1541 0 84.2087 15.0578 1268 114.968 656.976 452.212
1542 0 88.3475 16.254 1436 112.15 656.999 451.625
1543 0 86.2149 13.5591 1169 118.17 656.607 446.344
1544 0 93.3153 14.8314 1384 113.586 657.689 451.756
1545 0 94.5086 13.7765 1302 117.095 658.419 443.892
1546 0 93.5117 15.1532 1417 124.318 658.427 444.989
1547 0 100.315 14.3946 1444 115.861 658.51 452.058
1548 0 103.567 15.2268 1577 115.242 658.772 445.464
1549 0 105.592 15.8914 1678 115.338 658.92 445.365
1550 1 61.8221 13.2962 822 115.599 659.474 466.13
1551 0 62.7862 16.0385 1007 112.472 660.053 468.158
1552 0 63.8521 14.0011 894 116.589 659.31 467.12
1553 0 62.512 11.8057 738 121.4 658.434 465.308
1554 0 68.9037 16.69 1150 112.023 659.036 467.022
1555 0 69.4316 16.4622 1143 114.097 658.172 464.744
1556 0 76.7692 18.8747 1449 107.653 658.402 466.421
1557 0 74.8226 12.9774 971 119.826 656.979 464.675
1558 0 77.6724 13.6213 1058 118.556 655.732 463.946
1559 0 79.5225 12.1098 963 121.938 654.868 461.751
1560 0 83.6247 13.9313 1165 117.58 655.679 465.017
1561 0 86.7154 15.8334 1373 115.671 653.991 457.739
1562 0 89.6863 15.6657 1405 116.28 654.675 453.74
1563 0 89.569 12.6606 1134 122.342 653.4 458.568
1564 0 94.638 15.6808 1484 117.676 654.049 451.934
1565 1 51.4564 8.70641 448 121.6 655.4 477.757
1566 0 50.4071 9.76052 492 121.433 655.177 476.445
1567 0 52.4657 12.9799 681 115.206 655.25 472.217
1568 0 54.1908 12.2345 663 117.988 655.546 476.166
1569 0 54.1782 13.1049 710 116.98 650.848 472.389
1570 0 57.1388 14.036 802 114.824 651.094 470.142
1571 0 60.102 16.8713 1014 110.608 649.978 467.702
1572 0 56.2678 11.7829 663 120.588 649.688 469.59
1573 0 61.1746 14.712 900 112.761 649.996 470.3
1574 0 63.1542 14.4409 912 115.15 650.753 466.816
1575 0 63.1744 13.3757 845 116.458 650.599 464.933
1576 0 65.2887 13.5399 884 116.822 651.908 462.002
1577 0 67.3558 14.2527 960 115.954 651.675 458.11
1578 0 70.2619 14.8729 1045 115.456 652.743 459.157
1579 0 70.4568 13.3415 940 119.516 653.319 455.921
1580 0 73.2582 13.2681 972 118.827 654.171 455.865
1581 0 76.1478 14.3011 1089 117.355 654.417 454.052
1582 0 78.2769 14.2443 1115 116.448 654.761 456.967
1583 0 80.3388 12.6962 1020 120.94 655.4 452.795
1584 0 83.3966 16.5474 1380 114.522 656.136 452.691
1585 0 84.4369 12.8617 1086 120.398 656.621 454.64
1586 0 88.3968 14.3444 1268 118.45 657.707 450.469
1587 0 91.443 16.1631 1478 115.74 657.84 449.531
1588 0 91.4884 15.4446 1413 117.453 657.842 449.449
1589 0 94.2903 13.7024 1292 120.301 658.009 448.103
1590 0 95.5698 13.7805 1317 121.037 658.375 447.199
1591 0 98.3969 13.7606 1354 121 657.7 448.292
1592 0 102.538 13.2536 1359 121.829 658.948 444.258
1593 1 55.3178 14.5523 805 111.752 659.037 473.817
1594 0 55.3178 14.5523 805 127.325 660.051 473.917
1595 0 59.5029 13.6128 810 114.738 659.152 470.306
1596 0 57.3859 11.3617 652 119.574 659.758 467.439
1597 0 64.2978 12.3488 794 115.238 659.324 472.579
1598 0 64.3874 12.782 823 116.695 660.057 471.554
1599 0 67.5425 15.3237 1035 111.248 659.259 472.537
1600 0 68.4304 14.0581 962 114.431 657.811 468.211
1601 0 72.5246 15.0983 1095 112.808 657.474 468.504
1602 0 72.3267 13.3837 968 117.951 655.472 464.076
1603 0 74.3336 13.7354 1021 116.483 655.406 464.12
1604 0 78.2555 14.5421 1138 115.284 654.275 462.479
1605 0 81.2816 14.1852 1153 115.305 654.295 460.67
1606 0 83.5221 15.3852 1285 112.726 654.405 461.486
1607 0 83.3042 12.4243 1035 115.287 654.442 462.088
1608 0 86.1148 10.7299 924 117.518 655.076 460.749
1609 0 91.1354 13.6829 1247 113.051 655.002 457.878
1610 0 90.3722 11.342 1025 115.901 654.267 457.069
1611 0 96.1432 13.1054 1260 112.737 654.073 457.041
1612 0 100.34 14.6203 1467 112.363 653.34 442.573
1613 0 108.282 14.3237 1551 110.217 653.977 445.853
1614 0 111.235 14.9413 1662 109.156 652.422 439.818
1615 0 115.38 14.6906 1695 109.608 653.264 433.515
1616 0 114.249 11.8338 1352 112.073 653.406 433.179
1617 0 118.338 12.0841 1430 111.444 653.616 427.257
1618 1 60.0848 10.3853 624 113.702 655.851 454.077
1619 0 60.1237 13.0731 786 108.553 654.859 455.695
1620 0 68.0887 9.7373 663 112.379 655.146 454.395
1621 0 72.1334 14.5702 1051 104.002 656.338 453.899
1622 0 72.0604 12.0316 867 109.151 656.577 447.168
1623 0 73.0395 13.8144 1009 106.809 657.558 448.521
1624 0 80.172 14.0199 1124 106.042 657.047 446.56
1625 0 82.1465 14.5959 1199 104.593 657.912 445.229
1626 0 83.4128 14.7699 1232 101.553 658.326 447.112
1627 0 85.3628 11.9959 1024 106.664 659.056 444.656
1628 1 46.177 8.18589 378 103.476 660.381 467.503
1629 0 46.1759 8.33769 385 125.538 661.421 467.468
1630 0 46.2549 14.1391 654 97.63 659.505 464.514
1631 0 51.5162 15.2573 786 94.7519 660.248 467.981
1632 0 52.3856 10.2891 539 100.965 659.861 468.41
1633 0 53.3126 12.7175 678 99.7611 659.727 465.214
1634 0 56.4255 10.1373 572 102.451 659.984 466.124
1635 0 57.282 13.3375 764 99.0118 660.785 470.115
1636 0 56.2481 14.9516 841 103.353 661.403 473.941
1637 0 56.1184 9.44432 530 111.874 661.86 474.687
1638 0 63.1405 12.8761 813 105.774 661.028 474.817
1639 0 65.1196 12.9147 841 106.194 660.336 473.806
1640 0 69.4017 17.0601 1184 98.364 661.464 475.692
1641 0 72.4062 13.3 963 103.366 659.844 475.43
1642 0 69.2457 10.5566 731 110.465 660.15 470.958
1643 0 71.0838 15.4325 1097 103.907 658.76 467.627
1644 0 76.3963 12.0817 923 107.998 657.332 467.686
1645 0 78.2374 16.5394 1294 101.926 656.294 467.174
1646 0 81.1256 14.5947 1184 104.639 655.751 467.7
1647 0 88.4994 9.4125 833 109.257 656.28 469.814
1648 1 46.0378 11.925 549 105.162 656.638 485.122
1649 0 46.1862 9.93803 459 110.318 655.874 479.961
1650 0 49.1398 11.9659 588 106.677 655.811 479.141
1651 0 52.0465 16.1394 840 101.648 655.284 476.12
1652 0 52.138 13.9246 726 105.437 654.576 476.554
1653 0 55.0988 11.9059 656 108.002 655.114 472.223
1654 0 56.1484 11.2025 629 107.73 655.154 477.355
1655 0 58.2597 13.4742 785 106.361 654.415 470.552
1656 0 60.0802 10.9853 660 109.132 653.858 469.62
1657 0 64.2743 15.5428 999 103.176 653.258 467.229
1658 0 63.1199 13.4189 847 107.213 653.22 463.597
1659 0 61.0814 10.5106 642 111.528 653.31 463.617
1660 0 70.1164 12.8643 902 106.198 654.099 462.1
1661 0 66.1506 11.8517 784 110.453 654.897 460.241
1662 0 73.1796 15.1408 1108 104.558 654.146 459.896
1663 0 73.1796 14.9905 1097 130.757 653.166 459.885
1664 0 76.3014 13.6695 1043 105.784 656.673 459.395
1665 0 77.3857 17.5355 1357 102.685 655.917 452.656
1666 0 79.1809 14.7889 1171 106.862 657.151 447.751
1667 0 81.3031 13.5665 1103 109.226 657.685 449.962
1668 1 41.1239 12.9608 533 106.904 658.156 469.047
1669 0 40.4479 10.1118 409 110.846 656.976 470.751
1670 0 43.2621 13.1062 567 107.224 658.838 467.938
1671 0 46.7577 10.0732 471 112.006 658.55 469.261
1672 0 46.307 11.7693 545 109.103 659.681 469.418
1673 0 48.0745 13.9367 670 106.273 659.688 468.622
1674 0 47.2316 12.3646 584 100.411 659.755 461.452
1675 0 50.1035 10.5582 529 101.847 659.968 465.042
1676 0 50.0616 12.2249 612 100.136 659.757 465.065
1677 0 51.1327 10.7563 550 102.211 660.529 465.871
1678 0 54.5696 14.9534 816 97.4461 660.926 471.858
1679 0 57.3186 11.6018 665 102.287 659.065 466.337
1680 0 58.3655 9.76604 570 104.842 657.775 468.642
1681 0 58.1984 10.447 608 104.002 657.567 468.109
1682 0 60.3358 8.55214 516 105.703 657.229 469.054
1683 0 62.7054 13.6352 855 100.987 657.318 467.667
1684 0 65.091 10.9078 710 105.083 656.852 466.717
1685 0 67.1531 13.298 893 102.881 655.778 463.992
1686 0 69.3245 10.6456 738 106.755 655.027 467.033
1687 0 70.5609 11.9046 840 105.598 654.996 461.354
1688 0 70.5609 11.8196 834 131.962 655.969 461.289
1689 0 73.503 12.9382 951 105.008 654.351 459.145
1690 0 76.2245 10.9545 835 106.469 653.162 461.316
1691 0 82.3336 9.27932 764 106.643 652.56 463.724
1692 0 81.3453 14.5184 1181 101.98 652.257 461.164
1693 1 131.665 12.6534 1666 111.729 652.418 429.145
1694 0 137.665 14.8477 2044 107.591 652.656 430.127
1695 1 88.3887 11.5852 1024 107.036 650.295 448.637
1696 1 52.5181 9.25395 486 105.348 650.57 467.726
1697 0 51.5375 8.24642 425 105.186 651.282 470.261
1698 0 51.083 8.73089 446 106.816 651.917 468.334
1699 0 55.4636 11.7194 650 103.006 651.418 464.708
1700 0 52.2587 12.6869 663 102.434 652.189 460.371
1701 0 56.2325 12.9107 726 101.993 652.466 461.658
1702 0 62.7257 12.6105 791 100.901 652.812 461.541
1703 1 125.437 12.8511 1612 106.404 652.421 430.179
1704 1 63.2468 13.1232 830 101.859 653.731 455.12
1705 0 68.4043 12.1045 828 102.304 653.871 452.764
1706 0 71.3288 14.0056 999 100.033 654.888 450.945
1707 0 72.3086 16.1668 1169 97.1583 654.829 448.192
1708 0 72.4131 12.1525 880 102.308 656.256 445.533
1709 0 75.835 12.9755 984 100.903 655.96 450.747
1710 0 79.2652 10.8244 858 103.732 656.924 443.855
1711 0 80.3859 8.38456 674 107.313 656.835 437.859
1712 0 89.5252 16.2189 1452 99.1315 656.616 452.941
1713 1 47.1044 10.4873 494 106.63 657.526 470.553
1714 0 48.2802 12.0961 584 105.812 658.05 469.428
1715 0 53.4197 13.9274 744 101.648 659.854 466.364
1716 0 53.1947 16.8814 898 97.7383 657.739 468.614
1717 0 55.2885 12.697 702 104.085 656.819 466.712
1718 0 55.1415 12.7672 704 105.844 657.5 465.962
1719 0 57.2575 14.9849 858 102.74 658.308 465.76
1720 0 59.1153 15.7489 931 102.139 658.011 467.038
1721 0 61.1345 12.3335 754 107.164 657.57 468.369
1722 0 63.1444 12.7169 803 106.427 656.532 466.374
1723 0 68.16 13.7324 936 104.504 656.121 464.982
1724 0 68.1775 15.9584 1088 101.957 656.382 470.046
1725 0 69.2069 14.0882 975 105.8 656.14 465.433
1726 0 72.1808 14.3667 1037 104.574 655.585 471.739
1727 0 77.3051 14.5915 1128 104.467 656.636 467.091
1728 0 78.1991 14.2329 1113 105.469 656.32 466.131
1729 0 81.2238 12.324 1001 108.442 654.488 467.376
1730 0 82.5247 12.2872 1014 109.345 654.764 461.981
1731 0 86.3342 12.8918 1113 107.956 652.705 463.97
1732 0 92.2213 14.5411 1341 105.895 653.763 460.338
1733 0 94.322 13.6023 1283 107.477 653.12 454.988
1734 0 98.3494 15.3127 1506 104.021 653.022 459.633
1735 1 55.3136 14.0291 776 106.473 653.338 477.097
1736 0 58.3527 11.8589 692 106.983 652.266 478.905
1737 0 59.1015 12.2332 723 108.046 651.057 474.326
1738 0 59.7306 12.841 767 109 652.478 468.125
1739 1 116.753 13.9697 1631 109.67 651.258 444.441
1740 0 118.529 16.4516 1950 106.002 650.567 445.577
1741 0 116.802 13.022 1521 111.933 651.318 441.16
1742 0 122.424 12.1382 1486 111.555 649.386 437.306
1743 0 126.665 13.7133 1737 110.664 650.594 428.879
1744 0 131.19 12.0741 1584 112.225 650.176 431.118
1745 0 135.852 17.4233 2367 105.599 650.717 427.508
1746 0 143.712 18.4049 2645 103.081 651.786 431.26
1747 1 80.0795 13.2868 1064 109.724 651.72 454.292
1748 0 81.0654 13.1129 1063 111.025 650.762 450.768
1749 0 85.1521 14.9145 1270 107.55 652.028 449.547
1750 0 87.2479 13.0318 1137 111.518 652.231 446.11
1751 0 90.2831 14.4988 1309 109.073 652.083 446.087
1752 0 95.1476 16.4902 1569 105.045 653.374 447.041
1753 1 178.632 12.7301 2274 112.073 654.826 405.818
1754 1 55.0764 11.6384 641 110.63 654.173 463.771
1755 0 55.1176 9.81537 541 115.893 654.848 459.518
1756 0 59.0521 12.2773 725 108.488 656.414 461.674
1757 0 59.137 12.8515 760 108.643 656.824 457.782
1758 0 59.2206 11.702 693 104.475 660.457 456.902
1759 0 62.2396 12.7732 795 102.618 659.83 456.087
1760 0 67.2613 11.7304 789 103.444 660.856 459.632
1761 0 67.1416 15.4897 1040 99.2135 661.257 462.168
1762 0 70.3143 12.4441 875 103.513 660.69 454.15
1763 0 71.1719 10.5941 754 105.942 661.81 463.355
1764 0 71.1719 10.5519 751 128.893 661.808 463.57
1765 0 76.1982 12.6643 965 104.607 659.704 458.175
1766 0 76.1982 12.7431 971 124.994 658.719 458.131
1767 0 82.2196 15.9329 1310 99.8695 659.827 459.818
1768 0 80.2232 13.4874 1082 138.877 660.819 456.491
1769 0 88.3363 11.9543 1056 105.618 659.992 453.793
1770 0 79.1297 8.21436 650 113.006 659.482 444.878
1771 1 96.4066 14.4077 1389 102.176 657.657 455.84
1772 0 98.3016 15.6661 1540 101.913 657.453 453.535
1773 0 98.3016 15.6762 1541 126.736 657.454 453.618
1774 0 102.281 16.8555 1724 102.884 655.15 447.003
1775 0 108.316 13.9499 1511 104.531 654.733 454.78
1776 0 112.259 18.5286 2080 101.254 654.143 443.714
1777 1 58.2523 10.5232 613 106.419 654.638 466.959
1778 0 59.2844 11.0653 656 130.819 652.617 466.14
1779 0 63.5272 10.1216 643 106.876 651.659 466.199
1780 0 63.2734 13.2757 840 109.954 650.43 457.471
1781 0 67.1003 16.2891 1093 99.1784 653.469 466.726
1782 0 69.4605 10.6104 737 107.418 653.529 461.624
1783 0 69.22 13.811 956 103.519 653.857 462.714
1784 0 73.4439 13.4933 991 102.474 654.211 461.234
1785 0 75.3918 14.8159 1117 102.27 651.728 457.946
1786 0 75.461 13.3181 1005 104.282 652.382 453.743
1787 0 80.1854 17.023 1365 99.3846 653.734 454.604
1788 0 81.1906 14.0903 1144 104.238 652.244 450.154
1789 0 85.286 13.2144 1127 105.204 652.757 451.849
1790 0 85.428 12.572 1074 106.774 654.49 451.183
1791 0 87.2638 13.4076 1170 106.366 654.438 444.206
1792 0 87.2638 13.3618 1166 130.973 653.412 444.253
1793 0 96.4298 13.585 1310 106.107 654.749 442.696
1794 0 97.6048 14.3333 1399 104.874 656.824 442.467
1795 0 99.7292 13.0754 1304 108.344 656.099 436.926
1796 0 103.395 13.8499 1432 108.388 657.156 434.987
1797 0 108.801 15.2021 1654 107.928 657.984 434.643
1798 0 105.229 10.1208 1065 118.979 659.346 433.903
1799 0 109.58 12.6118 1382 113.572 657.66 436.62
1800 1 61.3469 12.193 748 106.62 659.187 458.545
1801 0 61.3313 12.4243 762 109.593 659.518 455.963
1802 0 66.7194 12.9048 861 108.132 660.355 459.243
1803 0 67.3301 9.83215 662 109.789 660.18 458.187
1804 0 71.2567 14.5249 1035 102.887 659.666 457.373
1805 0 71.435 11.017 787 107.183 659.138 462.433
1806 0 72.2419 11.2123 810 108.164 660.058 457.822
1807 0 76.5084 10.6786 817 108.256 659.657 459.935
1808 0 80.3457 15.4457 1241 102.043 658.612 459.035
1809 0 81.2906 14.3559 1167 104.071 659.526 455.807
1810 0 85.5186 14.2893 1222 102.55 658.942 460.669
1811 0 89.2881 13.4396 1200 105.498 660.018 456.779
1812 0 91.6424 13.8364 1268 105.973 658.233 450.547
1813 0 91.4659 11.7749 1077 109.728 658.476 448.304
1814 0 91.4659 11.7749 1077 134.669 658.476 448.304
1815 0 98.4093 10.3649 1020 110.628 657.416 452.373
1816 0 105.411 17.3132 1825 102.832 656.297 458.927
1817 1 58.1843 10.7245 624 109.479 654.761 479.478
1818 0 61.0677 11.7411 717 107.849 652.985 475.244
1819 0 63.1337 17.059 1077 100.38 652.497 471.928
1820 0 63.2365 11.5598 731 105.48 652.462 474.551
1821 0 64.5048 14.6501 945 105.596 652.064 468.23
1822 0 67.3237 15.626 1052 100.156 651.5 477.769
1823 0 69.4319 12.9623 900 107.373 650.913 469.431
1824 0 73.3136 15.9725 1171 103.176 651.272 464.873
1825 0 74.4587 15.2702 1137 104.506 650.688 460.818
1826 0 75.4324 13.6546 1030 106.827 651.716 460.126
1827 0 76.3347 12.9299 987 108.641 650.803 459.864
1828 0 79.401 14.685 1166 106.702 651.197 454.319
1829 0 83.4643 16.1746 1350 104.697 651.144 451.641
1830 0 86.3871 12.1777 1052 109.474 650.695 456.077
1831 0 88.443 15.445 1366 106.187 652.214 446.191
1832 0 91.7696 13.4903 1238 108.69 650.91 448.539
1833 0 96.5721 12.4467 1202 108.518 651.85 450.191
1834 0 97.3413 15.1426 1474 103.113 653.404 444.533
1835 0 99.4703 15.1301 1505 103.279 653.185 431.99
1836 0 106.276 19.7974 2104 97.9981 654.308 434.825
1837 0 106.745 13.0498 1393 105.284 654.653 431.142
1838 1 58.469 9.458 553 104.244 656.316 455.714
1839 0 58.2617 8.18719 477 106.904 656.491 455.855
1840 0 66.3516 14.6191 970 103.097 656.289 455.932
1841 0 67.3103 14.7674 994 103.599 655.831 456.703
1842 0 68.1368 13.2381 902 105.396 656.279 456.65
1843 0 72.1683 13.4824 973 105.208 656.107 454.736
1844 0 74.3068 13.5115 1004 104.895 657.456 454.699
1845 0 73.2501 11.4949 842 108.618 657.602 452.373
1846 0 79.1528 16.5629 1311 101.012 658.51 447.14
1847 0 82.1806 14.9427 1228 104.465 657.577 454.315
1848 0 86.3173 14.5162 1253 104.727 657.769 451.637
1849 0 87.2211 13.8728 1210 107.421 657.822 447.921
1850 0 89.2397 14.5899 1302 107.031 657.713 446.716
1851 1 52.1462 10.739 560 109.002 656.491 469.814
1852 0 52.1964 9.08109 474 112.911 655.943 470.181
1853 0 54.075 15.386 832 104.504 656.673 469.96
1854 0 59.5386 11.3204 674 111.212 659.819 472.816
1855 0 59.2451 15.4274 914 106.81 661.11 470.457
1856 0 62.1176 11.7197 728 111.335 660.712 473.668
1857 0 59.5265 13.4058 798 112.653 658.312 467.739
1858 0 66.3147 12.5764 834 112.219 658.077 470.032
1859 0 68.333 14.4732 989 109.678 657.58 470.933
1860 0 67.6102 11.7438 794 113.942 657.338 471.139
1861 0 68.4267 13.445 920 112.707 656.429 468.813
1862 0 72.6342 10.8764 790 117.922 655.23 463.646
1863 0 75.4224 12.3836 934 115.685 655.262 462.617
1864 0 80.5392 13.6331 1098 112.062 653.921 461.016
1865 0 83.4301 13.2326 1104 113.587 653.524 458.787
1866 0 84.4156 13.2677 1120 113.288 653.595 460.76
1867 0 85.2724 13.2165 1127 113.694 653.932 456.114
1868 0 86.3789 10.8707 939 117.816 653.502 454.572
1869 0 90.5078 13.6673 1237 113.097 653.209 453.948
1870 0 92.4671 11.6474 1077 116.079 653.38 450.964
1871 1 52.0405 10.684 556 111.612 653.201 473.908
1872 0 53.0907 9.90757 526 112.279 648.762 474.384
1873 0 54.0895 9.05906 490 111.516 648.726 472.263
1874 0 53.0799 9.38209 498 111.896 650.299 462.159
1875 0 53.1823 10.7555 572 109.839 651.372 455.825
1876 0 56.4017 10.638 600 109.673 651.963 458.573
1877 0 59.47 11.1149 661 109.014 653.304 456.717
1878 0 61.3563 11.4577 703 108.486 653.488 457.259
1879 0 61.2952 13.7042 840 105.661 653.814 454.771
1880 0 69.728 11.9034 830 105.667 654.875 456.645
1881 0 65.3952 10.3983 680 109.257 655.157 453.371
1882 1 125.951 12.2984 1549 112.812 655.087 422.708
1883 0 132.176 8.2163 1086 119.251 655.103 415.541
1884 0 137.53 12.5137 1721 113.116 656.411 415.392
1885 0 146.239 11.9257 1744 112.343 656.456 417.211
1886 1 80.2752 11.3609 912 108.934 656.965 443.905
1887 0 79.1266 12.5495 993 106.855 656.969 447.223
1888 0 79.1327 10.5266 833 110.477 656.168 442.969
1889 0 88.1926 11.3388 1000 108.454 658.314 445.274
1890 1 169.651 9.30733 1579 116.709 658.53 406.243
1891 0 169.651 9.30143 1578 140.793 658.537 406.354
1892 0 175.94 9.36681 1648 114.811 657.873 413.224
1893 1 46.2222 7.57213 350 105.32 660.277 468.866
1894 0 52.1735 11.2509 587 102.729 660.066 463.266
1895 0 56.5822 14.0327 794 104.884 659.448 467.372
1896 0 57.1466 10.6393 608 111.301 656.673 471.127
1897 0 61.1452 12.5766 769 108.276 656.443 470.155
1898 0 61.0732 11.9365 729 110.425 655.792 467.047
1899 0 62.0956 13.4953 838 107.999 655.313 470.702
1900 0 65.225 12.9858 847 108.416 655.961 467.241
1901 0 67.1549 18.7477 1259 101.141 654.729 471.675
1902 0 69.1283 14.4803 1001 108.305 655.625 467.732
1903 0 73.1775 15.6879 1148 105.864 654.222 464.49
1904 0 75.2978 13.2408 997 109.883 652.126 467.514
1905 0 77.1685 15.0061 1158 106.661 651.265 466.237
1906 0 76.2628 13.742 1048 110.02 651.08 463.943
1907 0 82.1702 16.8796 1387 104.593 650.746 462.272
1908 0 84.209 14.7609 1243 107.449 651.054 460.272
1909 0 85.315 12.319 1051 112.592 650.684 455.871
1910 0 88.3466 17.4313 1540 105.453 650.941 456.732
1911 0 90.3129 14.937 1349 110.254 650.444 454.925
1912 0 92.3852 14.4287 1333 110.421 649.972 455.188
1913 0 96.4276 14.9853 1445 109.246 650.121 454.507
1914 0 99.3208 16.5323 1642 107.592 650.864 449.607
1915 0 103.42 15.6256 1616 108.632 651.601 446.552
1916 0 102.424 14.5961 1495 140.912 652.689 444.787
1917 1 56.0857 14.1212 792 109.446 649.09 466.564
1918 0 59.0612 15.1538 895 108.457 650.661 463.952
1919 0 56.1234 12.4547 699 112.516 650.785 463.619
1920 0 62.1547 14.5604 905 108.043 651.554 460.713
1921 0 62.2077 11.333 705 113.606 652.383 461.16
1922 0 63.4626 12.401 787 113.525 652.4 456.973
1923 0 67.1899 15.2255 1023 108.828 653.12 461.153
1924 0 67.1674 13.6822 919 112.494 653.251 455.651
1925 0 69.1557 14.6626 1014 111.273 653.361 452.867
1926 0 73.2688 13.0342 955 113.488 654.304 454.973
1927 0 74.3894 14.7736 1099 110.24 654.496 455.187
1928 0 76.352 12.9925 992 113.056 655.464 454.514
1929 0 83.3117 12.0631 1005 114.095 656.646 452.856
1930 0 81.2925 11.0957 902 116.427 656.974 453.611
1931 0 85.2385 13.5737 1157 112.627 656.405 448.406
1932 0 88.2227 14.6448 1292 112.421 658.345 449.448
1933 0 86.1783 11.7663 1014 118.605 657.147 447.686
1934 0 93.3417 16.6592 1555 108.738 658.391 451.33
1935 0 95.4752 13.6161 1300 114.812 657.702 448.551
1936 0 100.382 12.8111 1286 115.268 658.372 449.951
1937 1 56.0707 12.074 677 115.808 656.922 470.787
1938 0 58.2035 12.714 740 114.345 657.655 473.016
1939 0 60.1809 12.8778 775 117.263 656.742 468.126
1940 0 62.1532 15.1883 944 113.554 656.453 466.926
1941 0 64.1551 15.2755 980 114.548 656.996 470.428
1942 0 66.0845 12.0149 794 120.844 656.743 469.311
1943 0 69.1171 13.5712 938 118.227 655.858 470.232
1944 0 68.0832 10.7809 734 123.207 655.219 467.086
1945 0 74.2826 14.5122 1078 112.173 653.21 470.372
1946 0 75.254 16.7964 1264 108.398 654.104 468.913
1947 0 79.2361 12.4943 990 115.048 652.393 468.215
1948 0 80.3871 13.1489 1057 114.36 652.293 466.498
1949 0 80.2492 11.1029 891 119.174 653.193 462.516
1950 0 86.4085 14.2579 1232 113.317 652.677 460.807
1951 0 88.2305 15.3462 1354 111.698 650.711 458.878
1952 0 90.3437 12.0982 1093 117.119 650.119 457.92
1953 0 93.2147 13.1739 1228 115.287 651.103 454.453
1954 0 93.2122 13.0455 1216 125.23 651.118 454.374
1955 0 99.2698 13.418 1332 117.408 650.381 447.152
1956 1 52.0986 12.1116 631 116.559 648.22 473.704
1957 0 54.1811 8.74844 474 121.247 648.376 474.158
1958 0 54.3437 13.0834 711 113.335 649.579 469.91
1959 0 58.094 11.3437 659 116.12 648.704 469.654
1960 0 57.1519 13.4379 768 114.91 649.496 465.471
1961 0 60.2107 13.2535 798 113.811 649.635 465.207
1962 0 59.1828 8.92151 528 120.718 650.833 462.261
1963 0 64.1213 10.5269 675 117.065 650.016 461.742
1964 0 66.0715 13.5157 893 112.323 650.254 458.765
1965 0 70.0736 11.2596 789 115.09 651.496 459.346
1966 0 68.1981 12.2584 836 114.272 651.945 459.776
1967 0 72.1031 14.1464 1020 110.711 652.906 457.753
1968 0 79.2665 13.4609 1067 111.172 653.708 453.07
1969 0 76.061 12.5163 952 114.187 654.774 449.669
1970 0 82.1751 13.4104 1102 111.644 655.907 453.369
1971 0 82.1582 12.6098 1036 114.268 656.362 451.896
1972 0 86.0834 14.3466 1235 111.205 656.849 452.124
1973 0 90.1368 12.3368 1112 114.522 656.808 450.209
1974 0 89.1388 12.4749 1112 115.112 657.143 448.435
1975 0 94.0669 11.8001 1110 115.732 658.719 451.674
1976 1 50.1879 10.0821 506 111.634 658.435 472.814
1977 0 50.1879 10.1618 510 134.122 658.427 472.774
1978 0 53.4643 11.9706 640 109.441 661.15 471.664
1979 0 52.3288 10.8162 566 113.903 661.314 474.284
1980 0 52.3288 10.778 564 133.727 661.308 474.296
1981 0 55.6538 11.7153 652 113.442 660.477 471.952
1982 0 61.545 14.3797 885 108.254 659.924 472.374
1983 0 60.4693 13.5771 821 110.917 658.871 467.983
1984 0 64.4721 12.5791 811 112.512 659.448 468.744
1985 0 65.3061 15.7106 1026 109.298 658.039 471.922
1986 0 68.6533 12.6578 869 114.945 658.876 471.112
1987 0 70.3713 12.093 851 116.797 656.397 470.172
1988 0 72.3554 14.2629 1032 113.498 657.042 469.778
1989 0 74.279 12.3588 918 117.816 654.517 467.741
1990 0 78.3491 12.7889 1002 117.255 655.595 466.698
1991 0 82.2309 16.5631 1362 110.403 654.814 468.172
1992 0 82.2309 14.5566 1197 137.814 654.849 466.118
1993 0 85.4072 12.5633 1073 119.385 652.933 457.066
1994 0 88.3705 16.0574 1419 114.194 654.07 459.54
1995 0 91.3815 12.4642 1139 119.741 652.694 458.359
1996 0 93.3416 13.4024 1251 120.305 651.822 454.367
1997 0 97.3637 15.7862 1537 115.031 651.962 453.979
1998 0 97.4176 12.8519 1252 121.385 652.489 449.416
1999 1 55.0877 13.2153 728 115.236 652.205 471.221
2000 0 54.0884 13.8292 748 113.634 653.198 471.471
2001 0 55.2937 13.4192 742 115.259 650.602 468.586
2002 0 56.3698 13.0566 736 117.395 651.428 466.428
2003 0 61.419 13.0741 803 112.932 651.21 467.433
2004 0 62.3076 14.1074 879 112.397 652.313 460.527
2005 0 62.3791 12.2317 763 116.807 652.663 463.452
2006 0 64.3304 11.1145 715 117.436 651.105 461.036
2007 0 67.3329 15.4011 1037 110.585 653.522 454.937
2008 0 69.4242 13.8856 964 113.74 653.269 456.311
2009 0 73.6044 15.7735 1161 109.191 653.228 458.656
2010 0 71.6326 13.0388 934 138.096 654.257 455.342
2011 0 77.3408 12.9427 1001 115.409 655.635 453.093
2012 0 81.2587 13.4755 1095 112.825 655.796 454.974
2013 0 81.3767 12.0182 978 115.223 655.989 454.051
2014 0 83.2476 12.8652 1071 115.394 658.229 454.021
2015 0 89.1683 9.31946 831 119.166 660.105 455.865
2016 0 91.1733 11.2423 1025 141.18 660.006 451.518
2017 0 95.2536 14.1097 1344 114.363 660.967 448.825
2018 0 99.1414 14.2826 1416 113.992 661.345 449.239
2019 0 101.358 14.7694 1497 114.61 661.772 444.686
2020 0 108.334 13.6707 1481 114.122 661.071 445.443
2021 1 58.0883 13.0491 758 112.331 662.637 467.858
2022 0 61.3268 15.6702 961 109.229 662.117 467.889
2023 0 61.4645 10.5915 651 117.369 661.776 464.7
2024 0 64.1497 12.6735 813 111.36 661.663 471.573
2025 0 66.3577 14.0903 935 110.113 660.491 469.445
2026 0 67.2514 11.747 790 114.233 660.703 466.063
2027 0 69.2167 14.4763 1002 110.741 658.92 466.419
2028 0 74.2467 13.7649 1022 111.482 659.75 469.06
2029 0 79.1546 14.6675 1161 109.557 659.249 470.115
2030 0 76.394 12.7104 971 114.883 657.567 468.527
2031 0 80.4054 17.8222 1433 107.672 657.553 464.756
2032 0 82.2043 12.9069 1061 116.379 656.718 462.105
2033 0 84.5352 16.7386 1415 111.369 656.13 461.708
2034 0 87.4211 18.3022 1600 108.839 655.964 461.066
2035 0 92.3565 17.2592 1594 111.439 653.754 458.316
2036 0 92.4055 16.7739 1550 112.068 653.699 455.579
2037 0 96.4595 15.7683 1521 113.484 653.294 457.334
2038 0 98.8002 15.9716 1578 113.756 652.804 451.541
2039 0 102.857 15.0888 1552 114.728 652.776 451.733
2040 0 104.628 16.9363 1772 112.545 651.283 449.104
2041 0 103.833 12.7416 1323 119.651 652.904 450.93
2042 0 103.692 12.46 1292 148.546 653.93 450.51
2043 0 113.898 18.1918 2072 111.499 651.978 440.043
2044 1 60.6273 11.9748 726 119.923 651.194 464.332
2045 0 61.2174 11.2713 690 120.075 650.897 462.213
2046 0 63.6798 11.4793 731 121.263 651.7 459.614
2047 0 65.7399 14.5878 959 113.907 651.656 459.971
2048 0 66.5112 12.5242 833 119.382 651.118 460.675
2049 0 71.6369 15.1598 1086 115.599 652.86 455.457
2050 0 72.452 13.8575 1004 118.433 652.67 455.347
2051 0 75.536 16.6808 1260 112.671 653.114 456.544
2052 0 76.5081 15.2664 1168 115.835 653.694 450.793
2053 0 78.5985 12.6338 993 119.804 655.852 452.555
2054 0 82.8209 14.1027 1168 117.688 655.783 448.542
2055 0 84.4119 15.0453 1270 115.42 657.294 450.883
2056 0 85.5547 13.091 1120 119.306 656.075 449.237
2057 0 87.7012 15.1423 1328 116.456 657.75 448.029
2058 0 91.371 15.0595 1376 116.72 656.928 444.487
2059 0 95.4835 12.8923 1231 120.206 658.517 445.382
2060 0 98.6555 13.3698 1319 118.941 658.663 445.743
2061 0 101.431 12.5899 1277 121.343 659.02 440.803
2062 0 105.616 14.5054 1532 117.625 659.025 444.024
2063 0 108.298 13.1304 1422 119.278 658.544 445.918
2064 0 111.339 18.0888 2014 111.908 658.902 444.631
2065 0 116.234 14.7977 1720 117.681 657.489 442.689
2066 1 68.3176 13.7153 937 112.65 658.209 472.308
2067 0 68.4479 16.1437 1105 112.64 659.617 468.442
2068 0 69.2083 14.4491 1000 115.661 660.696 466.936
2069 0 71.3355 12.8407 916 118.26 660.533 470.15
2070 0 74.3523 12.925 961 118.153 660.005 467.272
2071 0 75.286 12.3529 930 119.791 659.119 467.877
2072 0 80.549 14.9598 1205 115.219 656.568 465.079
2073 0 82.5543 13.3609 1103 117.575 657.157 463.177
2074 0 84.5267 15.9121 1345 113.962 655.018 460.121
2075 0 84.6677 13.7124 1161 119.14 655.026 458.031
2076 0 91.4961 16.0553 1469 113.537 653.905 458.773
2077 0 91.4961 16.0881 1472 132.827 652.915 458.744
2078 0 94.4156 12.0531 1138 121.357 652.714 451.946
2079 0 97.4994 13.3129 1298 119.351 652.143 449.784
2080 0 101.445 14.6286 1484 116.607 652.133 451.621
2081 0 105.454 13.7311 1448 117.902 652.568 451.032
2082 0 108.495 14.2679 1548 116.7 652.892 448.435
2083 0 108.523 15.9505 1731 113.562 651.972 449.867
2084 0 112.648 13.7952 1554 116.138 652.042 449.896
2085 0 114.373 16.8046 1922 113.147 651.682 443.012
2086 0 118.299 14.979 1772 115.355 651.554 441.659
2087 0 118.583 16.0984 1909 113.269 651.336 438.281
2088 0 121.534 12.6713 1540 119.203 651.28 428.945
2089 1 68.5969 12.8431 881 112.604 652.913 459.6
2090 0 70.3628 13.473 948 108.538 653.199 464.723
2091 0 71.3623 13.5225 965 111.961 653.837 456.003
2092 0 73.6987 13.121 967 112.644 654.424 452.449
2093 0 73.4872 11.798 867 115.646 652.271 447.878
2094 0 77.5928 13.6353 1058 112.53 653.731 446.366
2095 0 80.693 14.4746 1168 111.453 656.265 446.337
2096 0 82.5167 15.7544 1300 110.192 655.763 443.215
2097 0 83.5527 16.8636 1409 108.678 655.85 443.564
2098 0 89.6668 12.4461 1116 115.162 656.634 443.035
2099 0 90.71 15.522 1408 110.076 656.942 444.245
2100 0 93.4751 17.4378 1630 107.343 658.923 443.763
2101 0 94.2655 15.1593 1429 110.752 659.584 446.224
2102 0 96.2693 14.6464 1410 112.745 660.124 446.527
2103 0 99.5003 14.3517 1428 112.805 660.582 443.994
2104 0 103.424 16.94 1752 109.046 660.808 441.842
2105 0 107.434 14.8184 1592 112.06 662.229 442.379
2106 0 109.761 20.0527 2201 104.458 661.49 444.321
2107 0 111.681 13.1894 1473 115.209 660.248 437.75
2108 0 115.625 11.1308 1287 117.71 660.534 438.679
2109 0 124.544 18.4512 2298 106.103 660.316 437.686
2110 0 126.786 14.4259 1829 112.472 659.97 431.034
2111 1 68.799 10.9304 752 114.723 659.255 463.527
2112 0 72.3703 14.7022 1064 107.88 657.877 467.698
2113 0 77.8645 12.8685 1002 109.87 657.785 465.627
2114 0 78.4536 12.6954 996 112.902 657.385 461.981
2115 0 78.5447 13.6228 1070 111.829 656.923 461.666
2116 0 83.515 13.2072 1103 112.144 655.876 459.599
2117 0 88.3151 15.9656 1410 106.947 655.131 461.981
2118 0 91.4771 13.9816 1279 110.106 654.903 456.739
2119 0 92.4857 14.5644 1347 109.885 653.416 454.791
2120 0 98.4722 14.7656 1454 108.184 654.413 458.784
2121 0 98.3877 14.1888 1396 111.224 652.577 450.584
2122 0 98.474 14.5216 1430 112.194 653.595 446.422
2123 0 103.541 14.0041 1450 111.142 653.099 450.781
2124 0 104.26 15.8163 1649 110.261 652.729 446.599
2125 0 104.26 15.7779 1645 142.838 651.734 446.516
2126 0 112.551 16.046 1806 109.093 652.654 445.022
2127 1 63.2504 12.6165 798 108.5 652.227 466.162
2128 0 66.0696 10.0197 662 111.159 653.435 466.437
2129 0 65.1457 11.789 768 109.142 653.286 464.604
2130 0 67.1443 10.8721 730 112.759 653.496 458.693
2131 0 71.2376 13.0689 931 106.42 653.861 458.115
2132 0 71.3409 11.3539 810 108.511 653.596 458.523
2133 0 72.4043 14.861 1076 104.68 653.883 455.496
2134 0 76.3275 12.8394 980 107.413 653.833 453.185
2135 0 81.3263 14.2881 1162 104.212 655.658 454.97
2136 0 77.2043 11.4372 883 111.207 655.276 445.019
2137 0 78.2056 12.0963 946 110.441 656.386 447.712
2138 0 86.2103 18.6753 1610 98.9435 655.983 453.107
2139 0 84.2082 13.8585 1167 108.07 657.268 440.909
2140 0 89.2611 16.5246 1475 104.102 657.434 444.82
2141 0 88.3621 13.886 1227 107.43 657.231 448.056
2142 0 94.4929 14.6783 1387 106.388 658.061 443.789
2143 0 96.4287 12.7763 1232 109.944 658.098 443.86
2144 0 98.3654 11.1421 1096 113.38 658.976 440.959
2145 0 104.302 15.4168 1608 106.241 659.882 437.261
2146 0 108.28 12.3661 1339 110.935 660.238 439.999
2147 0 107.229 10.4635 1122 112.996 660.903 444.398
2148 0 113.437 10.4199 1182 113.361 660.389 439.669
2149 0 116.451 12.2627 1428 112.184 660.111 431.94
2150 0 120.251 13.9874 1682 109.57 660.448 432.357
2151 0 123.31 12.2294 1508 111.75 659.333 437.637
2152 0 131.322 11.0796 1455 113.493 660.566 429.714
2153 1 76.126 12.8997 982 108.233 660.221 463.468
2154 0 83.2238 10.5379 877 111.22 659.77 460.333
2155 0 85.1882 15.319 1305 105.901 654.438 460.237
2156 0 87.2539 10.5898 924 113.615 653.605 457.168
2157 0 88.2256 13.2841 1172 109.845 653.365 457.224
2158 0 90.1818 11.998 1082 111.524 651.058 458.88
2159 0 92.2775 11.3354 1046 114.703 651.415 452.151
2160 0 98.248 12.9468 1272 111.702 649.834 453.745
2161 0 100.245 11.6615 1169 114.354 650.703 453.034
2162 0 104.249 11.2136 1169 115.333 649.681 453.024
2163 0 104.249 11.156 1163 142.765 648.644 453.148
2164 0 109.41 10.1179 1107 117.117 648.938 450.119
2165 0 111.26 11.927 1327 116.076 648.597 446.28
2166 0 118.208 10.7946 1276 117.301 648.542 445.466
2167 0 118.243 13.9458 1649 111.204 648.023 450.294
2168 0 122.168 14.4228 1762 113.038 649.512 438.848
2169 0 124.238 15.0518 1870 111.562 648.524 436.445
2170 0 129.381 13.9897 1810 112.556 648.698 437.608
2171 0 135.427 14.4063 1951 111.345 648.971 432.917
2172 0 138.368 13.8616 1918 111.447 649.381 426.861
2173 0 141.546 14.8503 2102 110.563 650.097 427.633
2174 1 86.2671 13.9451 1203 108.247 648.2 455.765
2175 0 88.2177 11.9024 1050 113.872 648.288 448.319
2176 0 90.419 14.3996 1302 108.376 649.046 443.074
2177 0 92.17 11.826 1090 111.87 648.748 449.36
2178 0 96.1902 11.5292 1109 111.249 650.668 450.186
2179 0 97.2414 15.5181 1509 106.924 650.867 442.916
2180 0 98.3382 12.1316 1193 112.948 652.154 437.778
2181 0 105.245 15.5162 1633 107.318 653.759 436.934
2182 0 108.162 20.8576 2256 100.711 653.996 436.018
2183 0 110.313 18.3841 2028 104.705 654.907 435.832
2184 0 115.44 18.3472 2118 104.448 654.688 431.769
2185 0 116.792 13.0403 1523 112.786 655.803 433.116
2186 0 121.399 15.865 1926 107.452 657.083 434.113
2187 0 121.399 15.8321 1922 126.971 657.067 434.211
2188 0 128.685 14.9901 1929 108.593 658.112 434.457
2189 0 132.354 17.1888 2275 105.947 657.809 431.68
2190 0 137.528 14.8479 2042 110.431 657.34 430.835
2191 0 142.442 16.2452 2314 108.713 657.455 429.537
2192 0 148.249 17.6056 2610 106.969 657.211 428.526
2193 1 80.1811 13.2824 1065 110.684 656.417 457.977
2194 0 87.4323 12.5125 1094 109.844 655.603 462.801
2195 0 89.1674 12.3476 1101 112.728 654.614 457.58
2196 0 91.1692 11.528 1051 112.185 655.193 459.051
2197 0 92.3245 11.947 1103 112.823 655.475 452.969
2198 0 98.2594 14.5126 1426 107.799 653.865 455.36
2199 0 99.1958 13.8514 1374 110.937 653.761 453.263
2200 0 102.196 12.7891 1307 112.724 652.35 453.102
2201 0 107.21 14.5695 1562 110.71 653.27 446.623
2202 0 110.162 14.9144 1643 110.699 650.638 449.104
2203 0 110.33 13.7044 1512 113.348 650.694 447.039
2204 0 116.181 12.756 1482 113.539 650.198 445.416
2205 0 119.175 13.5683 1617 112.989 650.046 441.624
2206 0 122.168 15.4542 1888 110.604 650.905 437.93
2207 1 70.0581 11.6475 816 111.022 648.614 465.197
2208 0 70.2842 10.0307 705 115.786 648.729 461.884
2209 0 75.6227 17.7857 1345 102.807 649.548 463.353
2210 0 78.6112 12.5936 990 113.699 650.056 459.096
2211 0 81.4496 11.2094 913 114.804 650.16 459.555
2212 0 80.4054 15.9815 1285 108.623 651.11 455.576
2213 0 84.5116 13.6786 1156 109.676 650.041 458.392
2214 0 88.2488 11.1163 981 114.562 649.328 454.417
2215 0 88.1916 15.523 1369 109.028 648.569 452.535
2216 0 92.2186 12.915 1191 113.649 650.108 443.423
2217 0 95.2568 11.4008 1086 115.227 649.201 443.997
2218 0 95.3026 13.3365 1271 113.144 649.64 443.118
2219 0 99.2342 14.4204 1431 110.983 649.368 442.869
2220 0 102.33 13.9158 1424 111.299 650.57 439.428
2221 0 106.223 15.5145 1648 109.641 651.845 436.608
2222 0 111.555 16.1535 1802 105.859 651.622 443.373
2223 0 111.367 10.4609 1165 115.506 651.112 436.399
2224 0 116.666 12.7115 1483 112.48 652.224 434.908
2225 0 117.502 13.1742 1548 111.418 654.284 432.138
2226 1 66.1792 11.5746 766 108.757 652.962 458.487
2227 0 67.3347 11.1532 751 109.905 655.961 457.895
2228 0 70.2359 13.5258 950 106.362 653.396 457.557
2229 0 71.1921 11.8131 841 108.478 655.162 458.13
2230 0 78.2135 14.3198 1120 103.87 654.52 457.362
2231 0 78.1954 11.6247 909 109.197 656.535 453.732
2232 0 82.2616 12.6791 1043 105.405 655.966 457.149
2233 0 84.3001 12.3369 1040 106.925 656.295 455.25
2234 0 85.2319 15.8391 1350 102.324 656.706 452.508
2235 0 90.1552 13.3437 1203 104.934 657.022 455.128
2236 0 92.6217 12.9019 1195 106.174 655.988 454.629
2237 0 97.4309 15.0363 1465 102.558 657.241 455.711
2238 0 97.4045 12.2274 1191 107.4 656.022 449.382
2239 0 103.407 14.1479 1463 104.586 656.65 450.721
2240 0 105.716 11.2944 1194 108.49 656.418 448.476
2241 1 59.2213 12.7826 757 103.207 655.997 471.995
2242 0 59.4996 10.1849 606 105.373 655.475 475.546
2243 0 62.2591 10.633 662 106.074 654.112 474.278
2244 0 66.6887 13.7804 919 97.309 654.02 466.866
2245 0 66.242 9.61626 637 102.245 655.92 469.36
2246 0 70.1707 9.71915 682 101.034 654.57 471.35
2247 0 70.5911 12.2253 863 104.536 650.14 470.098
2248 0 74.4731 16.422 1223 100.344 649.707 464.607
2249 0 76.4139 10.5609 807 108.006 649.725 463.652
2250 0 81.7086 12.41 1014 105.098 649.979 463.453
2251 0 80.6658 13.1654 1062 105.071 650.092 461.142
2252 0 85.7911 13.9059 1193 104.477 649.473 457.265
2253 0 85.6762 12.8741 1103 106.588 649.742 454.195
2254 0 84.9501 11.03 937 109.609 648.737 456.04
2255 0 93.8851 11.5354 1083 105.377 649.296 460.937
2256 0 94.8183 15.419 1462 104.013 649.808 451.755
2257 0 97.8196 15.6922 1535 104.133 650.691 447.05
2258 0 99.003 12.8178 1269 108.846 649.978 445.482
2259 0 104.7 13.2474 1387 108.273 650.918 444.658
2260 0 106.275 13.1263 1395 108.815 651.085 441.52
2261 0 104.714 14.5826 1527 108.172 651.96 435.427
2262 1 56.6338 11.1064 629 109.706 651.825 456.364
2263 0 61.5529 15.5314 956 101.659 653.742 459.467
2264 0 62.9382 13.3941 843 106.013 653.001 458.244
2265 0 62.2366 12.1311 755 105.681 652.691 464.793
2266 0 63.181 15.416 974 103.095 653.335 455.082
2267 0 65.1736 14.8987 971 104.413 653.304 459.833
2268 0 67.1438 13.3445 896 107.102 654.328 456.285
2269 0 68.1816 15.4147 1051 104.97 655.373 457.622
2270 0 70.2144 12.8179 900 109.871 654.769 456.49
2271 0 72.2377 17.3732 1255 102.704 654.563 459.092
2272 0 74.1827 13.1567 976 109.866 656.219 457.164
2273 0 78.2308 19.0462 1490 101.292 656.238 457.381
2274 0 80.2307 15.3931 1235 106.279 657.069 454.27
2275 0 84.1711 16.5615 1394 104.661 657.559 456.434
2276 0 83.143 12.1838 1013 112.45 656.531 455.967
2277 0 87.3675 13.7694 1203 110.638 656.575 457.189
2278 0 90.536 15.2536 1381 108.718 656.925 456.448
2279 0 94.2732 22.2014 2093 99.7539 656.718 455.381
2280 0 97.43 14.0614 1370 111.775 657.777 453.631
2281 0 97.43 13.9177 1356 157.001 658.735 453.431
2282 0 105.469 12.9991 1371 113.686 656.719 455.328
2283 0 110.36 14.9238 1647 111.747 655.943 450.495
2284 0 115.551 13.2756 1534 114.34 655.699 450.432
2285 0 117.723 16.6578 1961 109.919 655.164 443.196
2286 0 122.676 14.8847 1826 111.934 654.329 439.526
2287 0 128.561 14.4212 1854 109.197 654.15 442.537
2288 0 133.532 12.1095 1617 112.215 654.826 434.291
2289 0 138.708 14.0367 1947 106.63 653.541 427.58
2290 0 141.575 13.0814 1852 108.937 654.423 435.686
2291 0 144.702 16.8 2431 107.23 651.907 431.842
2292 0 144.702 16.7309 2421 134.048 649.906 431.883
2293 1 157.11 16.1734 2541 107.298 651.203 434.658
2294 0 161.637 14.879 2405 111.48 651.33 420.045
2295 1 92.6121 13.7023 1269 112.592 650.069 455.492
2296 0 92.4574 12.2759 1135 114.904 649.866 453.538
2297 0 100.491 15.8223 1590 109.471 649.685 452.469
2298 0 98.4711 12.3894 1220 114.291 648.734 450.21
2299 0 104.395 13.6884 1429 114.12 648.24 441.479
2300 1 54.0427 10.7693 582 112.864 648.036 464.806
2301 0 58.0652 10.9188 634 111.185 647.38 467.961
2302 0 58.6662 12.3751 726 113.718 652.149 463.333
2303 0 62.3407 14.6774 915 108.439 653.14 464.789
2304 0 64.1321 13.8932 891 110.659 654.73 459.799
2305 0 67.0849 14.1612 950 111.087 655.236 455.555
2306 0 65.0618 12.3882 806 112.814 655.702 460.437
2307 0 68.1243 13.6956 933 111.334 654.978 455.277
2308 0 69.1264 13.6706 945 112.039 657.363 450.727
2309 0 75.0922 17.6317 1324 104.791 656.338 454.463
2310 0 76.1378 13.8433 1054 111.477 657.612 452.96
2311 0 78.1256 11.7887 921 114.592 657.869 453.436
2312 0 77.0625 10.9132 841 116.603 658.485 451.62
2313 0 78.1416 12.1702 951 115.712 660.6 449.94
2314 0 84.0946 13.9605 1174 111.498 660.484 451.507
2315 0 88.1215 12.7097 1120 112.988 661.353 449.922
2316 0 91.1974 12.7745 1165 113.751 661.335 448.173
2317 0 93.166 13.5135 1259 112.966 661.969 445.806
2318 0 98.0588 13.7876 1352 112.102 662.146 446.839
2319 0 99.1309 12.4684 1236 115.287 661.238 442.956
2320 0 102.178 12.7229 1300 115.266 660.821 446.355
2321 0 108.146 13.3985 1449 113.473 661.143 446.872
2322 0 110.204 10.6983 1179 117.494 660.058 449.458
2323 0 110.204 10.7256 1182 137.512 659.049 449.491
2324 0 118.257 15.7623 1864 112.551 655.209 446.711
2325 0 122.209 11.4639 1401 118.876 654.622 445.991
2326 1 69.2581 14.5254 1006 112.347 653.72 467.087
2327 0 72.0385 13.3956 965 115.059 652.665 468.107
2328 0 76.146 13.7499 1047 114.862 652.233 466.238
2329 0 75.1551 10.4318 784 122.092 651.251 464.073
2330 0 75.168 10.4965 789 150.416 650.213 464.311
2331 0 83.2438 16.2415 1352 112.081 649.601 465.098
2332 0 84.0949 15.3755 1293 114.314 649.991 462.686
2333 0 88.2536 15.5008 1368 114.783 649.961 457.179
2334 0 93.1552 15.6298 1456 114.035 648.797 454.521
2335 0 95.1656 14.6692 1396 115.27 649.141 454.444
2336 0 97.1781 13.4598 1308 116.507 647.905 451.88
2337 1 186.417 15.1488 2824 116.12 648.845 410.672
2338 1 103.17 17.3499 1790 111.273 648.638 445.448
2339 0 106.316 15.3129 1628 113.633 648.904 448.666
2340 0 111.402 13.5904 1514 116.238 650.217 442.106
2341 0 113.513 13.276 1507 117.896 651.402 440.489
2342 1 61.0583 9.25346 565 122.581 648.841 462.704
2343 0 63.0745 17.3763 1096 108.294 648.857 462.647
2344 0 63.0745 17.5031 1104 134.283 647.849 462.531
2345 0 69.1385 12.6413 874 110.855 649.802 460.143
2346 0 69.1036 13.4291 928 109.909 650.672 457.969
2347 0 68.1057 16.724 1139 105.987 651.285 457.515
2348 0 71.2966 12.0342 858 112.238 652.522 455.921
2349 0 74.1022 14.8174 1098 109.184 652.253 450.576
2350 0 77.1807 15.9366 1230 106.767 653.726 452.206
2351 0 80.1875 16.5737 1329 106.242 653.983 450.148
2352 0 80.1842 13.045 1046 112.778 654.744 447.291
2353 0 81.2633 11.2105 911 115.481 653.874 450.777
2354 0 84.0945 12.9973 1093 113.818 655.442 450.984
2355 0 89.1449 14.8074 1320 111.188 655.745 442.711
2356 0 93.2153 14.2895 1332 111.602 656.315 446.474
2357 0 94.2579 14.2163 1340 112.602 656.9 443.211
2358 0 99.1148 18.3222 1816 105.848 658.025 445.501
2359 0 101.284 17.1103 1733 107.967 657.128 448.416
2360 0 104.259 12.6224 1316 116.586 658.714 443.108
2361 0 103.253 12.6485 1306 142.824 659.72 442.978
2362 0 103.253 12.6194 1303 142.383 660.729 442.999
2363 1 67.1977 8.09551 544 119.267 655.243 468.246
2364 0 68.1311 13.5181 921 112.152 655.587 467.249
2365 0 70.239 10.0087 703 115.509 654.927 462.471
2366 0 73.4315 12.6104 926 115.056 655.823 458.641
2367 0 78.1129 15.388 1202 108.36 654.952 465.274
2368 0 82.1333 14.4886 1190 111.059 654.44 462.911
2369 0 82.196 12.896 1060 113.967 651.677 458.55
2370 0 86.1036 12.4501 1072 114.773 651.293 458.231
2371 0 89.1997 14.0023 1249 112.643 650.717 456.958
2372 0 93.2251 12.089 1127 115.091 649.474 456.759
2373 0 94.1824 13.8773 1307 112.627 649.502 455.768
2374 0 99.3114 13.6742 1358 112.849 648.443 453.434
2375 0 101.14 14.7419 1491 110.887 648.954 448.971
2376 0 108.274 15.0359 1628 108.795 648.238 449.717
2377 0 105.305 9.66718 1018 117.221 648.236 446.718
2378 1 64.1434 11.4431 734 110.787 649.439 472.963
2379 0 64.1585 11.1755 717 110.639 647.209 467.672
2380 0 69.1375 12.4245 859 109.424 647.721 464.946
2381 0 72.2909 13.6947 990 109.745 649.279 463.18
2382 0 74.3404 11.3397 843 108.038 651.797 459.372
2383 0 76.1782 12.7989 975 104.485 651.82 459.81
2384 0 79.2118 12.2835 973 104.568 652.164 460.86
2385 0 80.2514 13.4452 1079 103.924 652.289 456.241
2386 0 81.1665 12.2834 997 105.985 651.844 453.832
2387 0 87.1386 15.0794 1314 101.194 652.863 451.089
2388 0 87.3113 13.3545 1166 104.142 652.212 449.48
2389 0 91.3781 14.8832 1360 102.632 653.304 445.195
2390 0 91.3781 14.8832 1360 125.265 654.304 445.195
2391 0 95.3228 15.715 1498 102.293 653.246 445.686
2392 0 98.2878 13.0739 1285 105.567 653.917 444.121
2393 0 102.269 14.237 1456 103.997 655.285 433.835
2394 0 103.389 13.1832 1363 106.132 655.174 442.981
2395 0 107.29 13.9809 1500 104.988 657.25 439.204
2396 0 103.153 10.751 1109 108.032 656.02 428.041
2397 0 113.327 13.0772 1482 104.065 657.085 437.443
2398 0 116.408 11.348 1321 107.381 656.249 431.222
2399 0 118.303 12.2905 1454 106.216 657.118 435.459
2400 0 122.545 14.4682 1773 104.766 657.031 429.07
2401 0 124.515 10.1835 1268 111.013 657.837 420.202
2402 1 71.4982 9.24498 661 108.418 657.244 457.094
2403 0 74.5194 11.8627 884 108.085 656.21 458.65
2404 0 77.485 11.0473 856 108.813 656.249 460.235
2405 0 81.0197 12.9475 1049 108.972 656.917 455.913
2406 0 82.1344 12.5161 1028 104.025 657.173 454.12
2407 0 85.2384 17.1754 1464 97.6571 655.156 459.314
2408 0 92.3389 13.5587 1252 102.175 654.932 459.359
2409 0 90.2802 12.2951 1110 105.802 655.179 454.25
2410 0 90.3812 13.2882 1201 105.507 653.999 451.465
2411 0 100.608 14.3328 1442 102.117 653.838 449.517
2412 0 103.544 14.728 1525 101.926 651.727 449.02
2413 0 101.577 9.11622 926 110.773 651.841 443.57
2414 0 109.628 17.1125 1876 99.3188 651.252 444.545
2415 0 112.597 10.6042 1194 108.682 651.165 438.608
2416 1 222.622 15.1243 3367 108.008 650.687 391.592
2417 0 226.399 12.2483 2773 113.413 651.113 386.684
2418 1 183.832 12.2938 2260 110.551 649.126 411.264
2419 1 131.554 13.4697 1772 107.328 648.228 432.577
2420 0 134.736 12.8177 1727 108.471 648.488 426.255
2421 0 140.054 14.9514 2094 105.52 647.873 430.33
2422 0 145.989 16.3437 2386 103.276 649.201 431.112
2423 0 145.989 16.3369 2385 128.658 650.222 431.18
2424 0 154.724 13.1137 2029 110.787 649.06 415.405
2425 0 160.878 12.525 2015 111.168 649.848 416.884
2426 1 86.3172 12.4541 1075 105.781 649.435 453.69
2427 0 91.3746 13.3954 1224 103.223 648.69 453.856
2428 0 92.4377 13.3928 1238 104.321 650.025 446.924
2429 0 92.4377 13.4361 1242 134.273 651.01 446.994
2430 0 100.506 15.5115 1559 101.837 652.739 442.996
2431 0 102.487 12.0016 1230 106.615 653.183 444.315
2432 0 106.476 14.6043 1555 103.453 653.747 439.575
2433 0 107.491 12.215 1313 107.251 654.759 435.624
2434 0 112.397 14.5823 1639 103.736 654.067 433.023
2435 0 115.209 11.9001 1371 107.567 653.626 435.233
2436 0 120.297 15.3204 1843 102.269 653.359 436.678
2437 0 122.254 15.8195 1934 99.7963 654.009 441.106
2438 1 71.1219 11.5998 825 103.722 653.823 456.673
2439 0 74.2349 12.7433 946 102.206 653.477 458.27
2440 0 78.2686 12.4571 975 99.5928 656.638 452.085
2441 0 83.6068 13.3482 1116 98.0717 656.197 451.849
2442 0 82.3535 11.1956 922 101.893 657.569 450.805
2443 0 85.5809 12.9351 1107 99.8383 657.099 451.721
2444 0 89.566 14.0455 1258 99.8021 657.704 450.353
2445 0 90.4349 11.5332 1043 104.075 655.338 447.189
2446 0 95.482 11.1644 1066 104.149 657.021 441.064
2447 0 95.482 11.1749 1067 128.333 657.029 440.952
2448 0 101.764 13.4232 1366 101.706 655.954 453.573
2449 0 105.688 14.7794 1562 105.254 654.922 448.487
2450 0 107.942 9.3476 1009 112.483 655.608 447.72
2451 0 112.809 14.2896 1612 106.885 652.661 448.928
2452 0 113.652 12.5734 1429 109.548 653.232 448.882
2453 0 119.815 12.8782 1543 108.842 652.117 449.91
2454 0 121.93 13.2125 1611 111.01 651.593 439.965
2455 0 124.801 10.8974 1360 114.077 651.587 438.422
2456 0 134.009 12.9693 1738 109.686 650.913 437.495
2457 0 134.009 12.9693 1738 134.385 648.924 437.638
2458 0 142.786 9.64378 1377 113.804 649.597 433.55
2459 1 83.4042 13.9441 1163 101.314 649.288 459.053
2460 0 85.6921 11.4246 979 106.064 648.8 454.356
2461 0 87.5008 13.1884 1154 103.381 648.172 457.047
2462 0 90.729 10.7904 979 106.001 648.026 463.89
2463 0 91.538 11.5362 1056 107.18 647.781 456.586
2464 0 95.5461 12.8001 1223 106.326 648.177 455.406
2465 0 96.553 13.5573 1309 106.202 648.356 443.98
2466 0 101.359 14.0293 1422 103.87 648.544 450.481
2467 0 102.441 12.6512 1296 106.147 649.156 442.847
2468 0 107.536 13.7256 1476 105.285 649.54 441.874
2469 0 107.466 9.1285 981 111.725 649.953 439.633
2470 0 111.436 13.3081 1483 106.736 650.293 438.966
2471 1 65.5009 12.0456 789 105.165 649.856 460.902
2472 0 67.6731 13.2254 895 104.41 650.375 458.51
2473 0 70.4477 13.2155 931 106.463 651.517 453.672
2474 0 71.2455 19.2153 1369 94.4799 653.615 456.059
2475 0 76.1168 14.0048 1066 100.4 655.297 454.274
2476 0 74.1055 12.6441 937 104.44 656.313 452.63
2477 0 74.105 13.3594 990 103.587 656.732 454.92
2478 0 77.0945 11.6999 902 107.086 657.43 450.418
2479 0 82.0992 17.8443 1465 98.4526 658.032 455.122
2480 0 84.1241 11.8991 1001 107.65 656.807 448.934
2481 0 87.0825 12.8154 1116 106.605 658.752 453.261
2482 0 90.1319 14.4899 1306 105.567 658.538 448.782
2483 0 92.2449 15.242 1406 106.849 658.637 445.454
2484 0 98.1177 13.7692 1351 108.06 657.646 449.187
2485 0 101.182 14.3899 1456 106.755 658.362 453.448
2486 1 62.1637 11.5823 720 107.778 657.975 470.94
2487 0 61.1295 10.3551 633 112.284 657.482 470.07
2488 0 63.2137 12.7979 809 109.204 657.644 467.305
2489 0 67.1302 14.5091 974 105.905 658.054 471.744
2490 0 66.2463 10.3251 684 112.504 657.503 471.111
2491 0 73.3212 15.3707 1127 104.52 655.862 469.948
2492 0 76.3288 15.1843 1159 105.526 656.115 468.519
2493 0 76.1481 14.5243 1106 107.505 654.739 466.548
2494 0 77.1446 14.2719 1101 126.256 653.721 466.512
2495 0 83.2893 14.3836 1198 107.661 654.023 465.434
2496 0 84.3448 14.417 1216 109.477 651.887 460.173
2497 0 89.3967 14.5196 1298 109.084 653.16 459.176
2498 0 90.2278 13.5546 1223 111.407 651.361 457.198
2499 0 95.487 12.9023 1232 112.64 650.909 457.77
2500 0 99.4752 15.1193 1504 109.568 651.521 457.076
2501 0 103.293 17.6779 1826 106.348 650.67 453.729
2502 0 103.359 13.3515 1380 113.709 650.246 452.983
2503 1 58.2443 9.75202 568 117.923 651.162 472.21
2504 0 60.2186 15.8423 954 109.002 651.728 468.411
2505 0 62.2436 13.7364 855 111.296 647.706 466.734
2506 0 63.2535 12.2523 775 113.724 646.977 466.999
2507 0 66.3102 15.518 1029 109.437 647.436 461.737
2508 0 67.1103 14.871 998 111.178 647.843 459.499
2509 0 67.1312 11.6041 779 116.311 646.955 458.588
2510 0 70.2247 16.3618 1149 109.091 647.729 456.739
2511 0 72.1231 16.0697 1159 110 647.922 456.354
2512 0 74.1447 18.0997 1342 107.25 648.569 456.701
2513 0 75.1091 14.7652 1109 112.959 649.512 455.983
2514 0 77.1656 14.2291 1098 113.637 650.352 452.803
2515 0 79.3165 13.4524 1067 114.647 650.627 454.918
2516 0 85.248 17.3494 1479 108.4 651.462 452.06
2517 0 84.202 15.5222 1307 112.514 652.738 450.796
2518 0 88.4217 12.4065 1097 117.176 653.921 445.034
2519 0 89.2992 18.3428 1638 108.627 653.563 446.747
2520 0 94.2523 17.103 1612 110.277 654.857 446.737
2521 0 96.2247 15.9522 1535 112.522 655.805 445.433
2522 0 99.3613 15.7506 1565 113.052 654.729 442.372
2523 0 104.364 14.7082 1535 114.894 656.855 444.501
2524 0 103.31 14.6162 1510 116.322 655.199 442.005
2525 0 106.414 15.1108 1608 115.072 656.446 444.064
2526 0 111.297 14.6635 1632 116.491 655.699 441.083
2527 0 116.489 15.2204 1773 114.165 655.968 444.862
2528 0 120.361 13.7337 1653 115.843 655.592 437.352
2529 0 124.475 13.1834 1641 115.86 654.712 438.756
2530 0 131.46 16.0886 2115 111.857 654.841 428.655
2531 0 132.303 16.7494 2216 111.418 655.175 432.693
2532 1 141.856 13.2247 1876 116.625 654.398 426.01
2533 0 148.473 19.6129 2912 106.343 654.076 429.802
2534 0 151.37 13.5166 2046 115.666 653.844 425.514
2535 0 161.733 15.4143 2493 112.272 652.081 424.062
2536 0 163.876 16.5735 2716 110.594 651.907 420.666
2537 0 168.576 12.6412 2131 118.138 652.373 409.486
2538 0 175.583 15.3887 2702 114.713 651.213 406.548
2539 0 187.796 18.3976 3455 108.516 651.042 408.988
2540 1 107.53 12.6755 1363 114.169 649.766 439.869
2541 0 108.471 12.9159 1401 115.069 649.717 443.495
2542 0 113.558 15.5604 1767 108.748 649.074 441.066
2543 0 118.519 12.9683 1537 114.438 649.253 429.175
2544 0 120.835 12.9846 1569 111.997 648.553 425.759
2545 0 126.428 12.869 1627 109.236 649.998 422.446
2546 0 133.677 13.4278 1795 107.641 650.682 427.673
2547 0 136.499 11.7583 1605 108.69 649.655 426.963
2548 1 79.3971 11.8518 941 102.841 650.316 460.818
2549 0 82.3532 14.0492 1157 104.084 649.448 455.042
2550 0 85.6264 12.2392 1048 105.811 650.563 450.384
2551 0 87.2692 12.9026 1126 104.544 651.097 447.566
2552 0 91.3765 15.2884 1397 101.754 650.475 447.508
2553 0 93.1735 12.8255 1195 104.887 652.898 445.455
2554 0 99.4597 10.9592 1090 107.517 650.426 448.002
2555 0 101.41 16.4875 1672 100.352 652.634 445.256
2556 0 101.583 13.5357 1375 104.529 652.355 440.963
2557 0 105.469 12.6577 1335 105.416 653.076 442.208
2558 0 105.469 12.7051 1340 120.884 653.078 442.236
2559 0 112.478 14.3583 1615 103.177 655.101 439.515
2560 0 112.478 14.3583 1615 127.238 656.108 439.814
2561 0 120.452 13.3996 1614 104.781 655.271 435.692
2562 0 125.74 14.2675 1794 104.152 656.378 435.13
2563 0 128.406 13.8389 1777 105.796 655.271 426.884
2564 1 233.494 14.2616 3330 110.071 656.732 378.971
2565 1 135.377 12.1956 1651 108.687 656.22 426.855
2566 0 141.316 12.4614 1761 106.277 656.915 437.892
2567 0 145.716 10.7332 1564 110.282 657.341 427.881
2568 0 149.778 12.2982 1842 109.027 657.763 427.489
2569 0 157.566 14.1591 2231 107.095 656.907 425.209
2570 0 159.552 12.8923 2057 110.838 656.342 423.718
2571 0 166.665 12.7802 2130 110.522 656.185 421.892
2572 1 195.879 12.1861 2387 107.504 656.111 429.138
2573 0 194.627 7.40389 1441 114.937 654.694 431.252
2574 0 188.642 11.8213 2230 113.055 654.664 412.818
2575 0 194.562 14.1291 2749 110.944 653.629 402.837
2576 0 204.669 14.0569 2877 112.053 653.075 401.212
2577 0 211.683 14.2147 3009 112.034 651.087 399.213
2578 0 211.683 14.1391 2993 135.38 649.083 399.138
2579 1 164.371 13.2201 2173 112.443 650.442 415.248
2580 0 172.534 14.8376 2560 110.454 649.664 418.616
2581 0 178.627 16.0558 2868 108.345 649.711 408.849
2582 0 184.715 13.5506 2503 111.525 649.08 409.816
2583 0 192.898 15.63 3015 108.712 648.676 403.724
2584 0 198.932 14.3768 2860 110.392 648.274 408.657
2585 0 203.882 15.6855 3198 109.815 649.61 404.221
2586 0 212.029 14.5924 3094 111.203 648.188 387.239
2587 0 219.993 15.2823 3362 110.278 648.765 383.822
2588 0 227.205 17.5965 3998 106.48 648.766 389.076
2589 0 227.205 17.5084 3978 147.915 648.77 388.929
2590 0 227.205 17.4512 3965 147.623 648.767 388.965
2591 1 286.431 11.5595 3311 115.952 650.212 362.403
2592 0 284.77 12.1502 3460 111.846 650.527 381.087
2593 0 282.966 23.9287 6771 98.1744 650.617 340.739
2594 0 278.874 22.3865 6243 102.116 651.7 341.299
2595 1 80.3469 12.8319 1031 105.919 653.975 444.53
2596 0 81.2248 12.053 979 105.838 653.063 452.754
2597 0 85.4654 14.1227 1207 104.044 654.428 450.174
2598 0 84.2654 12.698 1070 106.511 653.696 451.493
2599 0 88.4214 18.5362 1639 95.7749 654.316 454.72
2600 0 91.4825 13.2375 1211 103.788 655.758 449.805
2601 0 96.3282 14.9074 1436 101.698 655.32 445.631
2602 0 100.394 11.2556 1130 102.811 656.135 449.873
2603 1 113.44 20.416 2316 91.2582 655.287 431.643
2604 1 61.3172 12.6718 777 98.7683 656.125 461.492
2605 0 64.4698 12.8277 827 97.6663 655.071 452.466
2606 0 65.2108 10.6577 695 98.7669 657.283 442.96
2607 0 70.2301 16.2608 1142 89.9947 655.912 451.372
2608 0 70.2301 16.1469 1134 113.732 656.938 451.302
2609 0 79.156 15.7537 1247 93.1844 656.872 456.552
2610 0 79.3342 13.9915 1110 96.2748 655.768 455.378
2611 0 79.2076 10.7313 850 100.987 655.548 458.932
2612 0 83.3631 16.0383 1337 93.9088 655.909 464.932
2613 0 82.3047 14.5678 1199 97.8257 655.715 460.132
2614 0 86.276 15.6475 1350 96.7333 655.164 463.772
2615 0 91.4167 16.3756 1497 95.0541 654.736 467.972
2616 0 91.6311 14.2091 1302 98.2104 653.649 464.882
2617 0 96.3978 13.6829 1319 100.749 653.18 459.433
2618 0 97.301 14.7892 1439 100.781 652.106 456.246
2619 0 96.4935 12.1252 1170 105.112 650.944 454.839
2620 0 102.459 11.6046 1189 106.963 650.49 451.156
2621 0 109.419 15.1254 1655 101.448 651.063 456.107
2622 0 111.491 13.6604 1523 103.996 650.731 443.806
2623 0 115.276 12.9429 1492 104.155 649.338 446.355
2624 0 121.688 12.6389 1538 106.068 648.174 442.311
2625 0 126.49 11.4238 1445 109.045 647.686 437.314
2626 1 69.3973 17.2773 1199 94.0108 647.46 467.5
2627 0 71.4265 12.4884 892 99.8453 647.772 464.833
2628 0 72.1437 13.6672 986 99.1917 647.237 467.575
2629 0 73.1735 10.6186 777 103.277 647.382 465.291
2630 0 76.1742 15.1495 1154 98.5009 648.744 463.372
2631 0 77.148 13.3898 1033 101.043 648.699 458.824
2632 0 81.3023 18.3636 1493 94.7254 649.619 456.37
2633 0 83.3821 15.435 1287 98.1158 650.714 456.569
2634 0 85.2455 13.9831 1192 100.762 651.623 455.049
2635 0 85.2455 14.0418 1197 128.561 651.617 455.064
2636 0 89.4045 15.0104 1342 101.595 652.516 449.964
2637 0 94.5441 13.9406 1318 102.695 653.478 451.458
2638 0 92.3752 14.3004 1321 104.786 654.749 452.756
2639 0 99.3417 15.19 1509 104.687 655.237 449.74
2640 0 98.1283 12.8505 1261 107.5 656.805 446.485
2641 0 101.17 13.3735 1353 107.62 656.431 445.016
2642 1 70.2851 12.4351 874 102.029 657.127 460.071
2643 0 73.659 12.7887 942 100.354 659.745 464.968
2644 0 78.7063 14.1031 1110 99.7306 658.599 462.529
2645 0 76.337 14.5539 1111 98.5527 659.902 464.749
2646 0 84.4187 11.0876 936 99.2671 659.269 471.17
2647 0 82.4279 17.5547 1447 95.0138 657.42 464.265
2648 0 85.3819 10.7048 914 101.224 657.501 467.77
2649 0 83.2501 12.3243 1026 100.651 656.753 468.912
2650 0 93.3215 14.2625 1331 97.7784 655.952 463.521
2651 0 96.2467 16.0733 1547 96.1629 655.222 459.121
2652 0 100.32 20.8532 2092 91.9976 655.29 454.747
2653 0 100.281 12.3952 1243 102.347 653.058 454.52
2654 0 100.281 12.5248 1256 127.443 651.076 454.611
2655 1 59.0752 11.9509 706 99.3442 652.547 473.249
2656 0 60.2012 14.7505 888 97.839 652.037 476.86
2657 0 59.3872 9.68223 575 102.903 649.873 474.536
2658 0 63.2657 13.8464 876 98.4075 651.14 472.224
2659 0 67.3589 15.6921 1057 96.158 650.5 469.554
2660 0 68.1214 18.79 1280 93.8156 650.72 466.238
2661 0 71.1892 14.2999 1018 97.4843 649.552 467.071
2662 0 70.0956 14.9368 1047 97.4632 648.119 467.141
2663 0 77.3493 14.0014 1083 98.8393 648.284 461.138
2664 0 77.235 15.0968 1166 98.9245 647.823 463.543
2665 0 80.3109 21.367 1716 93.0507 647.793 459.711
2666 0 79.3337 14.3823 1141 101.606 648.711 459.381
2667 0 85.2258 19.1491 1632 96.1716 648.695 457.726
2668 0 86.4356 15.7227 1359 101.13 648.978 452.113
2669 0 90.4592 15.355 1389 101.693 647.889 454.953
2670 0 88.3078 11.0409 975 108.125 650.662 453.05
2671 0 96.2181 15.6208 1503 101.946 649.908 450.76
2672 0 97.7521 17.1966 1681 99.5931 650.474 450.975
2673 0 102.623 15.4936 1590 103.369 649.984 442.388
2674 0 104.369 17.9554 1874 101.898 650.881 440.772
2675 0 107.728 15.3999 1659 105.102 650.441 442.479
2676 0 112.849 15.3037 1727 106.606 651.486 440.136
2677 1 66.6956 16.6578 1111 103.527 652.087 461.153
2678 0 66.0352 14.5831 963 110.324 652.374 457.123
2679 0 65.1178 15.2032 990 110.72 653.709 462.503
2680 0 73.9301 16.2586 1202 107.2 653.799 460.878
2681 0 75.2794 14.3333 1079 109.095 656.107 458.103
2682 0 73.5212 16.7163 1229 107.98 656.139 452.261
2683 0 79.35 16.673 1323 107.521 654.971 456.392
2684 0 81.2737 17.5333 1425 106.773 656.662 457.548
2685 0 81.5136 13.7155 1118 113.19 654.624 454.148
2686 0 84.7665 13.9914 1186 112.895 654.908 457.625
2687 0 88.8679 15.1011 1342 111.923 654.561 454.39
2688 0 93.9617 17.7732 1670 105.402 655.367 460.393
2689 0 92.7453 15.7744 1463 111.719 654.577 450.068
2690 0 95.8164 20.7271 1986 104.104 654.568 452.428
2691 0 100.08 20.3737 2039 102.066 654.36 457.259
2692 0 104.82 18.2313 1911 106.147 655.087 454.246
2693 0 104.815 15.2268 1596 111.633 654.229 448.45
2694 0 107.903 16.8021 1813 109.543 654.433 449.275
2695 0 109.219 15.4277 1685 110.375 653.605 452.027
2696 0 115.775 17.6636 2045 107.812 652.728 446.665
2697 0 119.763 16.6245 1991 107.93 652.627 450.129
2698 0 126.021 15.8466 1997 109.762 651.083 439.43
2699 0 130.152 17.7561 2311 106.071 651.508 434.952
2700 1 74.6335 13.4792 1006 107.048 651.717 462.292
2701 0 75.5799 11.4184 863 108.857 649.969 467.009
2702 0 80.5193 16.7786 1351 100.572 649.66 462.58
2703 0 84.4053 13.1745 1112 94.759 649.255 457.826
2704 0 88.4989 17.9211 1586 89.1892 648.864 462.05
2705 0 87.588 14.6367 1282 94.4883 648.506 454.031
2706 0 92 16.4348 1512 92.9511 648.335 454.074
2707 0 93.9306 15.4902 1455 94.3993 647.252 447.962
2708 0 93.9428 10.3361 971 100.818 648.196 447.883
2709 0 99.9871 18.6924 1869 91.9149 648.047 443.654
2710 0 102.989 19.7011 2029 91.5071 647.775 447.874
2711 0 107.212 17.9178 1921 91.5731 648.927 451.537
2712 0 105.815 13.4197 1420 98.943 648.399 439.888
2713 0 115.061 21.858 2515 90.7972 649.094 441.075
2714 0 112.156 14.4888 1625 99.8332 649.353 428.287
2715 0 112.638 17.3387 1953 96.978 650.312 431.916
2716 0 120.643 17.2658 2083 97.1344 650.563 432.977
2717 0 124.524 13.0176 1621 101.664 650.038 432.023
2718 0 131.801 18.9072 2492 94.8792 651.623 429.072
2719 1 73.7042 13.2557 977 95.5056 652.464 452.781
2720 0 74.9244 13.3601 1001 95.6494 652.51 453.146
2721 0 76.2344 11.4778 875 99.1474 653.694 451.787
2722 0 80.3967 20.0257 1610 90.2596 654.245 448.691
2723 0 81.6889 14.0411 1147 95.0575 653.917 450.443
2724 0 85.8639 11.8793 1020 98.3892 653.927 447.101
2725 0 86.9278 10.1924 886 100.501 654.491 444.74
2726 0 94.0014 15.3508 1443 94.0631 655.348 448.954
2727 0 97.7379 13.526 1322 95.4342 655.955 445.487
2728 0 98.887 13.1261 1298 95.3929 656.738 444.025
2729 0 102.762 12.8841 1324 94.2236 656.203 446.322
2730 0 102.556 13.2123 1355 95.7454 655.475 438.84
2731 0 105.933 13.4141 1421 94.7565 655.521 446.061
2732 0 108.563 15.6038 1694 93.9451 655.87 440.133
2733 0 113.693 12.4721 1418 96.2193 655.023 440.186
2734 0 118.767 12.9581 1539 96.0819 655.731 434.381
2735 0 123.614 16.6728 2061 92.5391 655.021 440.219
2736 0 121.588 10.5274 1280 100.412 654.566 427.998
2737 0 130.18 11.4611 1492 98.4832 654.101 438.304
2738 0 135.007 13.7104 1851 97.3285 653.671 430.092
2739 0 139.811 14.7699 2065 96.0538 654.692 431.178
2740 0 149.568 18.6872 2795 91.4143 653.458 432.829
2741 1 88.7584 11.1539 990 95.0556 652.102 457.803
2742 0 90.2612 14.8458 1340 92.406 652.027 452.96
2743 0 95.3111 14.4579 1378 92.8084 651.522 455.654
2744 0 95.371 10.6531 1016 97.2028 652.062 445.036
2745 0 99.3082 11.711 1163 95.4789 651.133 448.439
2746 0 103.391 16.6069 1717 90.5609 650.937 451.517
2747 0 103.555 9.25113 958 97.7453 650.826 443.113
2748 0 110.576 14.9761 1656 92.8967 649.06 445.028
2749 0 114.004 13.2627 1512 95.7222 649.91 433.146
2750 0 119.784 15.9204 1907 91.0912 648.096 447.572
2751 0 120.774 14.0262 1694 94.095 649.612 428.024
2752 0 127.611 15.798 2016 92.0402 649.702 433.878
2753 0 131.579 15.1696 1996 92.4494 650.196 434.08
2754 0 131.579 15.2912 2012 116.884 650.203 434.098
2755 1 73.2803 7.40991 543 103.709 651.053 458.199
2756 0 77.3618 11.2976 874 100.404 652.133 453.937
2757 0 85.1381 14.0713 1198 95.6553 651.263 452.817
2758 0 85.2231 19.1615 1633 90.6577 651.764 454.779
2759 0 82.1945 10.9496 900 100.168 653.552 451.088
2760 0 92.4571 14.2661 1319 95.5186 654.348 450.453
2761 0 92.2308 14.4312 1331 97.0601 653.92 444.242
2762 0 96.3279 10.8276 1043 101.074 654.379 442.626
2763 0 99.3389 11.496 1142 99.7539 655.822 444.947
2764 0 104.537 18.6919 1954 93.0266 655.718 442.726
2765 0 105.311 11.0719 1166 102.789 656.867 437.857
2766 0 105.267 9.21466 970 105.392 656.579 441.488
2767 0 113.327 10.6418 1206 101.779 658.444 446.357
2768 0 113.426 8.31378 943 108.353 656.412 432.964
2769 0 118.262 13.3686 1581 103.639 656.975 434.755
2770 0 130.717 18.5744 2428 94.8616 658.065 440.451
2771 0 125.356 12.269 1538 103.395 658.218 436.705
2772 0 135.371 18.7854 2543 93.0657 657.94 447.03
2773 0 134.536 9.45469 1272 107.2 657.029 431.917
2774 0 138.332 13.0628 1807 104.304 657.904 430.142
2775 0 142.451 13.4924 1922 103.771 657.275 424.067
2776 0 150.944 16.1318 2435 99.2694 657.129 431.37
2777 0 152.759 14.009 2140 103.743 657.01 421.376
2778 1 87.5199 11.883 1040 102.474 657.523 459.631
2779 0 89.3912 14.3303 1281 99.7596 657.185 457.615
2780 0 94.4329 12.6121 1191 101.022 656.72 459.128
2781 0 96.4869 14.0434 1355 100.408 657.095 458.703
2782 0 96.5535 12.1694 1175 103.193 656.041 454.771
2783 0 98.3914 13.1312 1292 102.543 654.82 457.727
2784 0 104.417 14.7486 1540 101.114 653.687 454.721
2785 0 106.364 11.9589 1272 105.384 654.366 449.153
2786 0 113.481 14.5134 1647 100.792 653.893 454.42
2787 0 112.477 16.27 1830 100.699 653.069 448.619
2788 0 117.357 12.7389 1495 107.573 652.134 443.35
2789 0 117.435 13.9651 1640 107.81 651.969 438.764
2790 0 117.383 15.3685 1804 105.837 651.778 440.866
2791 0 124.615 13.297 1657 109.176 651.479 434.523
2792 0 131.536 17.0903 2248 102.5 651.695 430.931
2793 0 136.497 17.5022 2389 99.8518 651.262 429.645
2794 0 138.429 10.8287 1499 107.652 651.614 429.434
2795 0 146.328 16.9483 2480 100.811 650.521 425.021
2796 0 149.41 17.5624 2624 101.075 651.208 421.167
2797 0 152.446 13.5261 2062 106.372 651.205 417.49
2798 1 89.3339 14.6753 1311 101.673 652.224 445.558
2799 0 96.7406 13.5207 1308 101.734 651.958 448.223
2800 0 97.4228 14.5756 1420 101.458 650.305 443.688
2801 0 99.4456 16.4814 1639 99.5821 649.905 443.206
2802 0 101.433 14.0684 1427 103.77 651.655 435.309
2803 0 105.327 15.637 1647 100.967 651.675 440.749
2804 0 108.41 14.4267 1564 101.776 653.29 439.049
2805 0 113.372 14.2716 1618 103.074 653.743 435.808
2806 0 117.227 17.351 2034 100.066 657.084 433.185
2807 0 117.77 14.2736 1681 104.002 657.27 428.448
2808 0 123.846 13.1453 1628 105.142 657.313 428.096
2809 0 123.053 11.5234 1418 109.578 657.213 418.784
2810 0 130.798 18.1042 2368 99.9793 657.695 424.826
2811 0 136.527 16.766 2289 101.067 657.322 425.084
2812 1 62.3754 11.9438 745 101.577 658.417 453.454
2813 0 64.2381 10.9437 703 102.74 654.811 463.097
2814 0 67.4733 10.8191 730 103.144 655.148 464.005
2815 0 67.3242 11.9274 803 103.045 655.699 462.073
2816 0 71.2157 7.93364 565 107.917 655.258 464.03
2817 0 73.2018 15.3138 1121 98.9723 655.717 459.468
2818 0 74.3059 13.2291 983 99.2269 655.673 462.32
2819 0 77.3474 14.2345 1101 99.5132 655.228 462.739
2820 0 79.1115 15.1558 1199 100.4 654.576 463.086
2821 0 79.4727 10.2048 811 107.763 655.51 456.726
2822 0 81.1395 11.1043 901 106.347 654.236 461.956
2823 0 86.4341 12.981 1122 103.204 654.754 462.226
2824 0 84.2977 9.43086 795 109.498 654.358 459.499
2825 0 91.2028 13.004 1186 103.77 653.193 459.467
2826 0 92.1372 12.8395 1183 104.917 652.936 454.571
2827 0 94.2284 12.1938 1149 105.37 652.16 458.926
2828 0 96.3236 15.4064 1484 101.749 651.635 455.696
2829 0 94.1935 8.83288 832 109.248 652.444 443.352
2830 0 99.4773 12.0731 1201 104.938 651.027 443.429
2831 0 105.487 12.2385 1291 103.617 650.018 445.694
2832 0 105.375 12.1756 1283 103.486 650.708 447.44
2833 0 109.555 12.7424 1396 105.211 651.081 436.122
2834 0 116.595 12.8994 1504 104.699 650.619 440.844
2835 0 120.569 13.8593 1671 106.37 649.373 433.55
2836 0 125.501 14.2947 1794 106.206 648.602 432.691
2837 0 126.654 14.5357 1841 101.249 648.141 438.323
2838 1 75.3844 12.496 942 98.828 647.945 460.254
2839 0 76.2885 10.421 795 104.162 647.903 454.819
2840 0 78.2409 13.7141 1073 100.99 647.699 452.931
2841 0 79.1271 11.1087 879 103.594 648.597 451.458
2842 0 83.5414 10.5337 880 103.9 648.265 447.808
2843 0 83.1183 14.7861 1229 98.7592 649.166 449.223
2844 0 86.1329 19.1332 1648 94.6159 650.545 445.655
2845 0 91.4665 14.0817 1288 98.8509 649.834 446.309
2846 0 93.4558 16.7566 1566 96.4706 650.949 439.298
2847 0 94.6945 13.8868 1315 99.0532 651.3 444.116
2848 0 96.0041 14.7077 1412 99.2918 653.79 442.186
2849 0 104.088 18.446 1920 94.4401 653.471 438.985
2850 0 106.106 17.3599 1842 96.0483 654.149 436.225
2851 0 107.073 18.1651 1945 94.3111 654.58 441.374
2852 0 109.153 13.1283 1433 102.11 655.286 431.848
2853 0 111.163 16.0755 1787 97.9161 655.265 437.251
2854 0 115.329 14.8358 1711 99.9287 657.122 434.961
2855 0 119.374 14.308 1708 101.7 657.624 429.355
2856 0 121.758 15.3337 1867 100.767 657.73 429.441
2857 0 122.651 17.2685 2118 97.9197 656.689 431.802
2858 0 128.098 19.2509 2466 95.6942 657.576 433.284
2859 0 132.828 12.7383 1692 102.739 657.15 432.114
2860 1 75.6772 10.9676 830 99.112 658.018 461.733
2861 0 76.7529 12.7292 977 96.783 658.317 463.126
2862 0 77.4407 12.035 932 100.179 658.206 460.189
2863 0 79.4854 15.0468 1196 97.4147 657.889 460.285
2864 0 85.3095 16.4694 1405 96.1132 657.771 453.391
2865 0 88.4295 18.331 1621 93.6687 657.864 462.237
2866 0 90.6953 14.5653 1321 99.0825 658.167 450.288
2867 0 94.8097 14.4816 1373 97.8682 658.158 453.304
2868 0 96.7534 15.1933 1470 98.6551 656.646 451.05
2869 0 96.6403 11.9929 1159 102.605 656.294 447.836
2870 0 103.685 19.2795 1999 94.8504 655.074 448.204
2871 0 103.501 11.3912 1179 103.675 654.975 447.236
2872 0 109.864 16.3658 1798 97.6429 653.256 443.344
2873 0 110.789 13.0067 1441 102.285 655.094 439.997
2874 0 115.8 14.6891 1701 98.8472 652.435 444.282
2875 0 113.943 13.2522 1510 103.373 652.715 432.273
2876 0 122.579 20.1502 2470 94.4142 652.467 436.861
2877 0 125.859 19.4344 2446 94.536 652.178 437.038
2878 0 131.903 14.5486 1919 100.462 651.818 428.934
2879 0 131.419 20.195 2654 94.9137 651.2 427.142
2880 0 133.918 15.1137 2024 99.9872 651.447 428.78
2881 0 138.998 13.7628 1913 101.569 652.297 421.623
2882 0 142.744 13.878 1981 102.279 652.52 417.366
2883 0 148.218 13.4329 1991 101.467 652.776 426.126
2884 0 146.757 12.163 1785 105.365 651.862 414.869
2885 0 159.163 18.0318 2870 98.5829 652.72 407.885
2886 0 161.966 16.417 2659 100.597 653.86 408.971
2887 1 245.22 13.755 3373 104.171 654.366 376.435
2888 1 174.479 16.0134 2794 101.111 654.041 405.072
2889 0 182.157 21.8219 3975 94.1258 653.522 412.343
2890 0 183.666 17.9892 3304 100.565 654.386 392.296
2891 0 188.863 13.6395 2576 105.1 654.91 400.045
2892 0 193.816 18.5692 3599 99.3062 655.666 403.514
2893 1 115.538 9.9188 1146 104.055 656.143 435.14
2894 0 119.837 18.1079 2170 94.1327 655.926 434.582
2895 0 120.643 16.2629 1962 96.3812 656.5 436.09
2896 0 128.22 13.8746 1779 99.5936 655.957 427.572
2897 0 127.087 11.4016 1449 103.244 657.825 422.442
2898 0 127.97 9.74447 1247 106.245 656.779 411.108
2899 0 137.109 15.3381 2103 98.3638 657.008 422.961
2900 0 144.097 13.5256 1949 101.358 658.18 411.72
2901 0 147.781 15.8816 2347 98.1048 658.303 418.358
2902 0 156.043 13.445 2098 101.374 659.548 415.547
2903 0 161.986 16.6619 2699 97.6817 658.081 411.525
2904 0 166.846 22.7754 3800 91.9563 657.904 405.262
2905 0 173.673 12.6502 2197 101.254 658.374 411.99
2906 0 181.235 12.5472 2274 100.596 657.649 412.099
2907 1 107.802 8.45998 912 100.496 657.877 443.923
2908 0 108.921 11.8618 1292 95.2678 657.581 452.131
2909 0 116.829 16.1689 1889 93.5707 656.44 437.55
2910 0 121.704 11.1911 1362 97.8928 657.476 439.284
2911 0 123.751 10.1171 1252 99.012 656.304 440.16
2912 0 128.716 18.972 2442 90.3239 655.774 439.827
2913 0 127.834 11.1942 1431 100.22 655.762 422.043
2914 0 133.707 10.695 1430 101.28 654.226 422.347
2915 0 138.828 12.5911 1748 98.9645 654.625 420.515
2916 0 142.899 13.492 1928 98.362 655 415.847
2917 0 150.057 14.1213 2119 97.5262 654.53 415.135
2918 0 155.889 18.5773 2896 93.0508 653.473 414.039
2919 0 159.452 12.8377 2047 99.34 652.31 412.454
2920 0 163.801 11.1965 1834 102.397 652.84 406.026
2921 0 169.918 14.4952 2463 98.2335 651.72 407.103
2922 1 99.7267 12.6446 1261 94.5194 651.81 445.879
2923 0 104.621 12.9993 1360 94.6948 651.136 438.324
2924 0 106.321 14.0894 1498 92.3992 650.943 439.168
2925 0 109.361 12.1158 1325 94.2792 650.614 434.469
2926 0 113.49 14.01 1590 92.4415 649.563 435.67
2927 0 115.549 10.7141 1238 95.567 650.335 433.213
2928 0 121.501 16.7324 2033 90.4196 649.648 428.789
2929 0 122.332 9.6704 1183 95.6331 650.78 438.959
2930 0 123.476 13.5249 1670 95.2269 651.883 418.293
2931 0 132.655 16.1396 2141 93.0822 652.342 419.808
2932 1 20.2568 7.30621 148 82.9392 655.878 478.534
2933 0 15.0024 7.19884 108 86.3704 654.963 478.963
2934 1 138.699 13.8141 1916 98.118 653.244 406.878
2935 0 142.881 13.1648 1881 100.256 654.808 415.774
2936 0 148.594 12.053 1791 102.822 655.022 416.294
2937 0 150.951 13.7661 2078 101.976 654.758 412.207
2938 0 151.629 11.9304 1809 103.836 656.295 414.865
2939 1 162.494 13.2805 2158 103.253 656.131 406.407
2940 0 170.7 23.966 4091 91.7133 655.826 411.951
2941 0 169.659 11.252 1909 107.988 657.71 396.63
2942 0 177.861 16.6928 2969 101.403 657.722 398.906
2943 0 183.114 14.7176 2695 104.172 658.265 404.136
2944 0 188.669 18.6146 3512 99.7537 658.406 407.267
2945 0 192.507 12.597 2425 109.616 659.068 394.708
2946 0 196.745 14.7907 2910 107.174 658.305 390.908
2947 0 204.729 16.6903 3417 105.057 657.986 388.648
2948 0 200.806 11.8373 2377 108.406 657.427 401.019
2949 1 217.841 17.5128 3815 104.263 658.022 384.366
2950 0 224.785 18.4398 4145 103.109 656.937 387.508
2951 0 229.961 15.1808 3491 108.073 656.677 364.562
2952 1 66.3078 12.8944 855 92.0082 656.718 461.103
2953 0 67.2483 10.2159 687 93.5196 658.445 468.192
2954 0 65.1851 11.9046 776 93.6263 658.762 464.719
2955 0 66.5879 8.30481 553 93.0199 659 468.188
2956 0 64.277 8.0122 515 100.761 658.027 456.307
2957 0 72.2318 12.0584 871 98.6682 658.488 470.788
2958 0 74.4205 9.87632 735 102.961 657.02 466.59
2959 0 75.3522 14.9963 1130 95.3053 657.296 469.614
2960 0 78.2584 15.0783 1180 96.411 656.354 460.869
2961 0 81.1876 13.2656 1077 96.5265 656.184 465.259
2962 0 81.5936 10.8464 885 102.715 654.121 456.825
2963 0 81.1312 11.352 921 100.047 652.454 456.204
2964 0 85.2488 10.874 927 100.696 650.77 456.244
2965 0 87.1953 14.026 1223 96.6958 652.075 453.806
2966 0 88.1308 10.8929 960 100.044 652.242 452.117
2967 0 91.2524 13.6764 1248 96.613 651.917 454.031
2968 0 93.2148 10.4919 978 100.403 651.99 449.68
2969 0 92.1732 8.34299 769 103.139 650.977 446.746
2970 0 98.217 11.5662 1136 100.414 652.268 444.822
2971 0 103.335 15.5901 1611 95.7157 650.973 439.038
2972 0 104.45 13.595 1420 96.9275 652.476 444.701
2973 0 107.204 12.5462 1345 99.0112 653.241 436.792
2974 0 105.3 7.78728 820 104.505 652.83 435.488
2975 0 111.32 13.5286 1506 98.1481 653.741 441.004
2976 0 119.512 13.8228 1652 98.2718 655.732 438.777
2977 0 118.618 11.4232 1355 102.653 657.699 432.277
2978 1 74.3003 6.27185 466 103.406 657.444 458.783
2979 0 76.1781 12.0376 917 99.5333 658.345 450.824
2980 0 78.2427 13.8671 1085 96.3613 658.172 455.949
2981 1 136.533 12.1362 1657 100.273 657.628 429.731
2982 0 137.547 14.4896 1993 100.369 659.494 424.589
2983 1 84.3344 11.8338 998 101.503 659.699 445.986
2984 0 87.2038 12.4536 1086 97.2228 659.573 450.789
2985 0 90.0876 14.2195 1281 95.9594 656.995 447.984
2986 0 90.2465 9.13055 824 100.249 658.127 457.365
2987 0 91.1662 10.5412 961 101.601 657.755 447.45
2988 0 92.1581 11.719 1080 99.5398 657.35 453.398
2989 0 95.2042 14.0645 1339 98.3846 657.659 448.726
2990 0 100.143 12.582 1260 98.2516 656.358 450.554
2991 0 105.636 15.2221 1608 94.2189 656.399 454.499
2992 0 105.38 16.4074 1729 92.6472 656.279 458.136
2993 0 110.343 12.8962 1423 99.0021 655.991 444.219
2994 0 112.256 10.5741 1187 100.484 656.237 453.085
2995 0 114.274 12.7325 1455 95.134 655.241 460.519
2996 0 116.427 11.5437 1344 100.926 655.294 445.089
2997 1 170.968 10.1598 1737 104.058 656.484 428.457
2998 1 124.334 11.0348 1372 99.9628 655.199 448.821
2999 0 134.417 15.4667 2079 96.0115 654.198 440.823
3000 0 130.593 10.8811 1421 101.773 653.006 439.05
3001 1 80.1337 12.5166 1003 97.0618 652.152 469.244
3002 0 84.6144 12.8465 1087 95.5207 653.303 463.257
3003 0 84.5324 13.5451 1145 97.6507 652.567 461.312
3004 0 85.5138 10.4778 896 99.4766 652.138 462.538
3005 0 89.5665 12.5828 1127 98.4508 651.24 451.087
3006 0 92.6828 17.069 1582 92.2844 650.674 466.54
3007 0 98.7705 16.27 1607 94.9676 650.764 455.288
3008 0 95.4894 13.5827 1297 98.596 649.421 458.751
3009 0 99.4401 17.2063 1711 94.737 649.469 453.223
3010 0 105.735 15.936 1685 96.8083 648.9 452.143
3011 0 105.477 17.5584 1852 95.9687 650.095 445.969
3012 0 110.35 13.2397 1461 100.923 649.043 440.902
3013 0 111.398 14.1206 1573 100.416 649.604 444.316
3014 0 114.459 15.1932 1739 100.528 650.262 440.662
3015 0 118.578 14.7329 1747 101.185 650.603 436.416
3016 0 120.808 16.729 2021 99.5814 649.854 439.417
3017 0 123.572 17.6659 2183 98.6963 651.489 438.088
3018 0 125.58 20.9269 2628 95.5506 650.307 436.186
3019 0 130.56 15.6863 2048 101.563 651.964 433.15
3020 0 129.327 10.8253 1400 106.777 651.789 443.966
3021 0 135.801 20.3607 2765 96.6608 652.842 434.913
3022 0 135.783 16.3718 2223 103.426 654.832 430.78
3023 1 146.76 15.3789 2257 104.559 655.424 426.186
3024 0 147.821 13.7937 2039 106.225 656.364 425.837
3025 0 150.783 12.6473 1907 108.217 655.535 416.612
3026 0 157.641 15.9286 2511 104.149 657.065 419.449
3027 0 162.94 17.7366 2890 102.87 656.748 415.257
3028 0 165.884 16.0534 2663 105.885 656.822 406.552
3029 1 93.5394 13.1282 1228 108.57 656.441 442.389
3030 0 97.2658 17.8377 1735 101.599 655.523 449.95
3031 0 98.1698 15.9825 1569 103.489 655.553 455.453
3032 0 102.339 18.429 1886 100.664 656.257 449.451
3033 0 101.45 14.4505 1466 107.422 655.13 448.769
3034 0 102.281 18.6741 1910 102.08 655.728 454.495
3035 0 107.426 11.608 1247 113.07 656.233 446.581
3036 0 111.382 14.5894 1625 107.445 655.738 448.693
3037 0 114.498 18.9698 2172 102.761 655.776 442.727
3038 0 119.373 17.3405 2070 103.542 656.079 447.398
3039 0 121.448 14.6565 1780 107.856 654.677 441.55
3040 0 126.512 19.2788 2439 102.094 654.192 439.708
3041 0 126.512 19.3579 2449 125.905 654.205 439.674
3042 0 126.621 12.9126 1635 110.963 653.652 436.798
3043 1 71.3569 13.4675 961 105.255 653.26 468.638
3044 0 73.1472 11.3196 828 109.92 651.296 464.376
3045 0 77.5306 14.9876 1162 103.002 652.935 464.742
3046 0 78.3986 14.8472 1164 104.371 651.478 461.522
3047 0 81.3726 14.5872 1187 103.799 652.312 462.859
3048 0 83.4225 15.4155 1286 101.424 651.599 465.559
3049 0 88.2989 16.2743 1437 101.219 650.29 455.782
3050 0 90.426 14.5865 1319 103.07 651.162 458.553
3051 0 92.253 13.6364 1258 105.273 650.338 454.519
3052 0 93.1941 13.7026 1277 105.352 651.046 450.77
3053 0 97.9255 14.8174 1451 103.527 649.748 452.107
3054 0 100.494 13.7621 1383 104.283 649.262 450.487
3055 0 102.554 15.153 1554 101.88 649.954 452.788
3056 0 107.862 15.659 1689 101.719 650.305 445.133
3057 0 106.495 13.2119 1407 105.237 649.386 447.358
3058 0 116.011 20.3601 2362 97.0521 649.226 440.791
3059 0 115.124 17.0164 1959 101.975 649.498 435.991
3060 0 118.997 15.0256 1788 104.006 650.583 437.08
3061 0 123.701 20.2343 2503 97.9932 650.608 435.931
3062 1 65.4727 12.7687 836 101.98 652.199 458.38
3063 0 71.3823 11.9077 850 101.625 652.718 458.806
3064 0 77.6683 12.8753 1000 97.976 653.922 464.569
3065 0 77.4244 14.6595 1135 96.2837 653.399 461.081
3066 0 76.8097 11.8084 907 101.544 653 451.719
3067 0 83.5005 20.4789 1710 93.0637 653.775 453.519
3068 0 83.3811 12.9286 1078 102.245 654.44 452.377
3069 0 85.2161 12.8614 1096 102.245 654.846 452.402
3070 0 92.4147 13.8398 1279 99.8991 656.263 451.361
3071 0 94.3088 15.8098 1491 98.4782 655.769 451.777
3072 0 93.4782 9.49954 888 105.744 656.168 449.794
3073 0 97.4778 10.905 1063 104.441 657.661 446.518
3074 0 98.1696 11.0217 1082 103.462 658.245 449.171
3075 0 104.52 15.8342 1655 98.5831 656.262 449.679
3076 0 107.531 15.0468 1618 99.793 656.31 448.921
3077 0 111.288 15.6171 1738 100.112 657.386 447.633
3078 0 114.593 15.5507 1782 98.1801 656.585 451.53
3079 0 120.408 20.6797 2490 97.1707 656.016 451.071
3080 0 123.568 17.9334 2216 100.744 654.928 445.314
3081 0 128.758 16.3253 2102 102.79 655.393 444.638
3082 0 129.115 9.99885 1291 105.945 655.864 435.527
3083 1 74.3153 13.4427 999 97.6787 655.912 475.197
3084 0 80.2725 13.2922 1067 96.3327 655.56 468.974
3085 0 75.4387 12.2218 922 97.3959 653.924 464.6
3086 0 83.2478 11.5559 962 96.842 653.432 467.943
3087 0 85.2805 13.0041 1109 97.1668 653.189 461.464
3088 0 86.4928 17.5506 1518 92.782 652.229 465.705
3089 0 87.6221 16.7195 1465 95.1959 651.176 458.234
3090 0 92.6985 17.3466 1608 94.1542 650.527 462.897
3091 0 95.293 16.3601 1559 95.1924 649.531 462.865
3092 0 99.4177 17.1096 1701 95.6837 650.176 456.908
3093 0 99.8874 17.8701 1785 95.0594 649.554 458.644
3094 0 105.43 25.2584 2663 89.2584 648.238 453.507
3095 0 103.277 16.6155 1716 99.3176 647.955 448.21
3096 0 103.277 16.6058 1715 135.029 646.966 448.027
3097 0 111.416 14.5132 1617 105.576 649.166 447.444
3098 0 114.717 22.0194 2526 97.1841 649.487 444.314
3099 0 117.528 18.3616 2158 101.993 650.128 440.456
3100 0 123.401 20.7453 2560 100.03 650.164 434.981
3101 0 124.609 15.0792 1879 105.64 650.378 437.211
3102 0 130.25 18.1037 2358 103.955 651.056 429.83
3103 0 133.391 18.6669 2490 103.987 650.64 427.106
3104 0 140.425 25.6365 3600 96.3825 650.329 423.365
3105 0 143.582 16.5411 2375 106.972 651.148 421.675
3106 0 149.821 14.7509 2210 107.222 652.321 425.916
3107 0 154.176 19.9836 3081 101.135 652.385 415.643
3108 0 161.782 16.0277 2593 103.173 652.695 420.332
3109 0 164.458 15.6879 2580 103.173 653.395 419.114
3110 0 167.844 16.3486 2744 103.887 653.817 412.543
3111 0 175.116 20.6606 3618 99.5813 654.214 404.126
3112 0 176.871 17.951 3175 103.621 655.06 409.687
3113 0 184.061 18.6623 3435 102.87 653.736 393.131
3114 0 194.245 18.2605 3547 103.127 654.427 399.191
3115 0 183.516 3.4057 625 121.738 654.485 349.957
3116 1 206.881 18.9868 3928 104.478 655.994 397.083
3117 0 212.63 23.1435 4921 99.3684 654.572 398.042
3118 0 218.675 23.1028 5052 99.6342 655.229 393.409
3119 1 232.846 22.9594 5346 98.8517 655.156 396.45
3120 1 179.702 12.4651 2240 110.371 655.005 423.524
3121 0 185.416 18.6175 3452 105.836 655.564 406.339
3122 0 192.771 15.962 3077 106.831 654.1 418.96
3123 1 252.91 14.693 3716 108.688 654.43 394.239
3124 1 272.264 20.0577 5461 103.308 653.372 380.538
3125 0 282.685 18.7983 5314 106.979 654.743 362.425
3126 0 281.227 17.0468 4794 108.838 653.056 376.367
3127 0 281.227 16.5845 4664 150.35 652.039 377.261
3128 0 283.803 14.348 4072 110.047 652.575 388.33
3129 0 284.479 16.5249 4701 108.78 651.561 379.977
3130 0 282.998 12.311 3484 154.831 650.634 402.958
3131 1 66.339 13.1145 870 107.98 650.56 465.739
3132 0 68.5203 10.2597 703 111.451 649.909 466.812
3133 0 72.6643 14.8491 1079 105.407 648.683 463.42
3134 0 74.2431 16.7288 1242 104.563 648.194 461.31
3135 0 76.5231 13.4992 1033 107.034 648.166 463.353
3136 0 81.785 16.5678 1355 104.356 647.723 455.589
3137 0 84.139 12.5269 1054 110.136 647.716 456.151
3138 0 89.8668 17.3145 1556 104.226 647.555 450.928
3139 0 89.8136 19.5071 1752 101.863 647.292 451.96
3140 0 92.6658 14.2771 1323 109.187 648.331 452.593
3141 0 95.531 14.948 1428 109.427 648.353 444.251
3142 0 101.831 17.9807 1831 104.636 648.851 448.087
3143 1 60.5114 15.5673 942 104.046 647.51 466.788
3144 0 61.839 14.5054 897 105.677 649.253 465.181
3145 0 60.6347 14.5791 884 105.603 647.697 467.383
3146 0 64.1836 18.229 1170 102.091 649.373 461.51
3147 0 60.8937 16.4385 1001 106.424 649.459 457.877
3148 0 64.8021 14.8761 964 107.616 650.195 457.632
3149 0 71.3479 13.6654 975 108.267 649.938 459.161
3150 0 70.4726 14.7149 1037 107.669 651.785 456.769
3151 0 73.5414 19.2273 1414 101.627 650.905 454.047
3152 0 75.5444 15.5538 1175 106.41 651.846 451.591
3153 1 157.826 16.1697 2552 100.29 651.971 433.185
3154 0 158.643 11.4471 1816 109.532 652.871 427.847
3155 1 83.7225 15.7186 1316 107.118 653.6 450.574
3156 0 88.5479 18.521 1640 103.066 653.84 446.454
3157 0 91.9901 17.491 1609 104.25 654.444 449.674
3158 0 94.8244 12.191 1156 113.035 656.368 442.948
3159 0 94.5797 13.7133 1297 111.116 655.091 449.766
3160 0 100.558 19.2527 1936 103.094 654.675 449.387
3161 0 100.558 19.4118 1952 140.402 653.699 449.49
3162 0 104.657 19.1961 2009 104.236 654.577 450.815
3163 0 111.333 14.6408 1630 111.077 654.593 447.531
3164 0 112.524 14.788 1664 110.936 654.983 446.144
3165 0 115.445 21.9585 2535 100.592 654.211 453.587
3166 0 115.588 19.8291 2292 105.21 653.859 442.048
3167 0 121.579 16.8697 2051 108.882 654.414 442.564
3168 0 123.55 12.7155 1571 116.137 654.574 436.15
3169 0 131.409 19.816 2604 105.071 653.611 440.848
3170 0 137.706 19.0842 2628 106.755 652.947 437.948
3171 0 143.74 18.6169 2676 107.697 652.918 431.849
3172 0 149.787 21.5839 3233 104.14 651.503 433.152
3173 0 149.787 21.5639 3230 139.547 649.493 433.32
3174 0 157.471 19.4702 3066 106.975 650.51 431.697
3175 0 162.521 19.6713 3197 107.957 650.101 418.16
3176 0 168.857 15.984 2699 112.575 649.227 422.908
3177 0 173.401 18.9273 3282 109.293 649.406 418.395
3178 0 178.958 16.2999 2917 113.506 648.4 410.433
3179 0 183.589 18.2255 3346 110.911 649.066 413.649
3180 0 191.674 17.5559 3365 110.628 648.533 412.349
3181 0 194.945 14.8554 2896 114.958 647.789 402.021
3182 0 204.675 17.5058 3583 109.939 648.405 405.518
3183 0 214.143 24.5024 5247 101.402 647.26 393.541
3184 0 220.832 18.3759 4058 108.796 648.553 392.857
3185 0 226.447 14.8777 3369 113.399 648.684 394.88
3186 0 238.157 19.0169 4529 109.112 648.04 380.662
3187 0 245.895 17.5725 4321 110.078 648.567 388.336
3188 0 252.615 17.1605 4335 110.306 649.111 378.304
3189 1 294.945 15.786 4656 110.891 649.859 372.198
3190 0 294.453 13.9003 4093 113.08 650.74 378.086
3191 1 54.1335 13.7992 747 91.2209 650.09 471.339
3192 0 57.2969 10.0704 577 92.8146 650.229 473.596
3193 0 55.0915 5.75406 317 98.9874 651.596 471.129
3194 0 56.1868 7.15471 402 97.2886 652.953 468.177
3195 0 58.3382 6.25662 365 94.6877 651.277 475.822
3196 0 58.2739 10.3134 601 91.1814 653.112 470.933
3197 1 30.115 7.86982 237 94.0506 651.181 484.612
3198 0 31.3234 8.23665 258 96.5233 657.124 481.767
3199 0 26.3858 6.78394 179 103.084 655.028 483.441
3200 0 33.1634 8.59382 285 95.3158 651.81 484.154
3201 0 33.0409 8.89807 294 94.3571 653.602 486.575
