time division length width area intensity CMx CMy
0 0 51.0832 13.8597 708 148.847 436.686 466.903
1 0 55.2315 14.1043 779 139.362 434.872 467.013
2 0 55.1904 13.39 739 144.068 434.697 466.786
3 0 56.1101 13.4557 755 140.204 433.887 466.503
4 0 58.1116 13.0611 759 144.743 432.913 462.867
5 0 61.2205 15.877 972 133.312 432.152 464.555
6 0 65.1867 14.4968 945 139.954 430.067 462.993
7 0 65.144 13.9076 906 143.481 430.647 462.641
8 0 69.1477 15.7634 1090 129.656 428.884 462.228
9 0 72.1866 13.3266 962 140.665 427.383 461.347
10 0 74.2851 14.3636 1067 137.228 427.602 460.642
11 0 77.2145 14 1081 138.745 426.796 456.094
12 1 38.0656 11.7166 446 126.271 424.666 475.924
13 0 40.0351 14.6372 586 123.155 426.602 474.933
14 0 45.0679 17.4404 786 115.317 425.373 469.025
15 0 44.0549 14.0507 619 127.919 424.8 467.47
16 0 45.451 12.321 560 133.786 426.845 471.521
17 0 45.2448 12.8192 580 134.521 427.088 470.634
18 0 49.5005 14.9494 740 129.9 427.15 466.442
19 0 49.312 12.6541 624 130.878 427.098 464.696
20 0 51.2535 14.2039 728 131.169 426.839 463.216
21 0 52.3407 13.3357 698 132.728 426.658 461.994
22 0 55.1788 13.1572 726 128.025 427.302 460.215
23 0 58.196 13.9872 814 124.473 431.244 461.198
24 0 59.2833 16.9356 1004 125.951 430.372 457.155
25 0 61.1834 14.7589 903 130.893 431.102 456.123
26 0 60.2122 14.698 885 133.063 430.861 453.087
27 0 61.1323 12.8901 788 136.459 431.967 453.716
28 0 64.174 14.3828 923 132.401 431.957 449.892
29 0 67.1259 15.2102 1021 128.578 432.616 451.785
30 0 72.2086 16.7016 1206 124.389 434.043 450.134
31 0 70.185 12.4243 872 134.974 433.216 450.416
32 0 77.2733 18.3634 1419 120.519 434.374 449.466
33 0 79.21 15.9323 1262 121.93 435.859 449.494
34 0 78.2056 13.0553 1021 130.766 436.15 448.532
35 0 83.3427 17.686 1474 123.646 437.073 445.286
36 0 86.4543 13.938 1205 126.054 437.552 446.532
37 0 89.3034 14.8259 1324 123.066 438.548 448.935
38 0 92.6265 15.5139 1437 122.024 437.372 444.686
39 1 52.1249 12.2974 641 124.484 438.905 466.98
40 0 50.4889 13.3891 676 118.46 438.058 469.568
41 0 52.3267 11.9824 627 124.619 436.545 466.14
42 0 51.1288 11.6568 596 118.721 437.102 461.589
43 0 55.1994 15.9965 883 106.53 435.971 468.376
44 0 58.1723 13.5975 791 113.153 436.029 467.154
45 0 60.1616 13.7131 825 111.81 435.125 465.541
46 0 61.3908 15.2955 939 123.857 434.857 468.202
47 0 62.1356 14.4201 896 126.355 434.379 464.021
48 0 67.1938 12.2035 820 126.888 433.963 466.309
49 0 67.1337 12.0804 811 125.943 433.824 466.512
50 0 71.2394 13.981 996 123.979 434.516 464.148
51 0 72.159 14.3849 1038 128.288 432.325 458.634
52 0 76.1744 15.2939 1165 124.694 431.833 459.96
53 0 78.0829 12.5508 980 129.214 430.984 457.395
54 0 78.4016 10.0126 785 134.989 430.431 453.647
55 0 87.2914 11.685 1020 130.186 430.389 454.833
56 0 89.2593 14.1498 1263 124.66 429.797 453.652
57 0 86.145 12.1655 1048 130.184 428.646 445.579
58 0 94.2598 13.9402 1314 125.482 429.087 448.941
59 0 97.2704 15.6779 1525 123.28 427.365 445.717
60 1 52.1748 14.1256 737 117.574 429.418 466.525
61 0 53.0415 11.3308 601 119.757 428.912 466.313
62 0 59.1238 14.2244 841 117.113 428.779 461.052
63 0 57.3745 13.1592 755 120.898 425.93 456.519
64 0 60.1113 12.3271 741 119.865 426.35 460.15
65 0 63.1608 12.4444 786 120.886 426.765 452.215
66 0 64.121 11.2912 724 123.552 427.499 452.744
67 0 68.1498 12.7366 868 119.09 427.887 454.858
68 0 71.1893 12.0383 857 120.72 429.205 452.37
69 0 72.1815 14.5744 1052 118.468 429.548 448.748
70 0 75.2515 13.0097 979 120.316 430.216 448.287
71 0 76.2124 13.3836 1020 121.435 429.522 442.309
72 0 79.2534 11.2298 890 123.319 432.119 445.58
73 0 84.2836 15.614 1316 116.078 432.185 446.192
74 0 86.2643 16.0669 1386 117.193 433.608 441.569
75 0 89.3174 14.0958 1259 118.975 434.218 443.046
76 0 91.3122 13.9959 1278 119.878 434.131 441.903
77 1 47.2111 9.10803 430 115.156 433.314 465.581
78 0 46.116 11.2759 520 113.681 435.615 459.86
79 0 47.0581 12.3464 581 114.451 434.902 462.265
80 0 51.0709 13.2561 677 109.109 435.612 464.814
81 0 51.0677 13.864 708 110.161 435.199 461.653
82 0 50.0466 10.2904 515 115.911 434.948 463.88
83 0 55.1666 13.9758 771 116.689 436.588 467.969
84 0 58.281 15.3223 893 114.156 435.788 468.8
85 0 57.1637 11.7207 670 121.739 436.604 468.472
86 0 64.3874 14.3972 927 116.531 436.102 466.721
87 0 64.2198 12.2392 786 119.842 435.341 464.908
88 0 65.1904 11.244 733 120.666 434.898 469.402
89 0 69.3004 13.391 928 118.512 435.29 466.588
90 0 70.2098 12.8614 903 120.332 434.084 462.146
91 0 74.1454 14.3907 1067 117.079 433.455 464.256
92 0 75.1794 14.0464 1056 116.559 434.377 467.013
93 0 80.2476 12.6857 1018 118.493 433.902 465.123
94 0 81.445 13.7025 1116 118.463 432.208 463.778
95 0 85.2631 16.8772 1439 114.003 431.911 458.55
96 0 87.1875 18.6609 1627 110.817 430.224 459.89
97 0 89.3602 13.7086 1225 119.327 431.991 458.393
98 0 92.303 13.6074 1256 121.539 429.82 454.782
99 0 93.1607 12.9776 1209 123.285 429.543 452.854
100 0 97.1085 16.8986 1641 116.272 429.404 454.052
101 0 98.3002 14.5981 1435 121.098 428.495 448.176
102 0 100.291 16.153 1620 120.014 427.52 445.036
103 0 107.445 19.5357 2099 113.891 426.236 445.594
104 0 114.286 8.86369 1013 127.435 426.819 450.006
105 0 116.409 17.052 1985 117.405 426.683 439.749
106 0 120.36 17.78 2140 116.326 427.783 441.016
107 0 119.456 15.6375 1868 122.485 426.223 430.656
108 0 122.388 15.8921 1945 123.061 425.979 426.772
109 0 125.315 15.5208 1945 123.618 426.387 432.019
110 0 132.429 17.2244 2281 120.379 427.152 427.37
111 0 138.518 19.3332 2678 116.767 427.54 424.972
112 0 140.712 17.1129 2408 116.651 427.601 414.937
113 0 142.714 21.1052 3012 111.522 427.716 417.143
114 0 147.66 19.1995 2835 115.952 429.265 414.449
115 0 150.643 16.2171 2443 121.59 429.269 401.722
116 0 157.466 14.6698 2310 123.002 429.682 403.119
117 0 165.039 18.5956 3069 115.773 430.711 411.185
118 0 171.669 17.4173 2990 118.891 432.157 405.592
119 0 172.8 15.3646 2655 121.885 432.739 411.876
120 1 82.1154 16.3672 1344 113.991 434.461 449.171
121 0 84.151 16.7081 1406 114.43 434.867 446.524
122 0 87.231 17.4135 1519 112.382 435.573 447.783
123 0 87.1112 13.5 1176 119.772 436.385 446.402
124 0 90.0862 16.2844 1467 115.793 436.051 445.207
125 0 94.2986 16.2569 1533 116.549 436.38 444.434
126 0 95.2252 16.6237 1583 116.093 436.773 443.953
127 0 100.502 17.1439 1723 114.714 436.295 440.645
128 0 101.229 13.9683 1414 122.375 434.741 443.124
129 0 106.423 15.2692 1625 120.489 435.62 444.572
130 0 113.59 19.8521 2255 113.251 433.506 439.604
131 0 114.381 17.2756 1976 118.01 433.63 437.522
132 0 118.543 16.2472 1926 118.548 432.533 440.156
133 0 121.301 15.2348 1848 119.771 432.669 440.587
134 0 125.242 16.017 2006 120.25 432.722 437.483
135 0 132.278 14.0688 1861 120.609 432.24 442.005
136 0 135.541 15.4049 2088 121.798 432.363 431.876
137 0 138.321 18.363 2540 116.612 430.322 432.456
138 0 143.666 16.1137 2315 121.175 431.512 428.947
139 0 149.47 17.9701 2686 118.615 428.009 425.392
140 0 153.637 16.7733 2577 120.428 428.894 428.632
141 0 158.542 12.9177 2048 126.877 427.444 421.913
142 0 165.534 19.4099 3213 115.1 427.48 414.974
143 1 90.2999 15.1938 1372 116.346 427.858 454.437
144 0 92.2395 14.9502 1379 116.463 428.295 454.684
145 0 95.5038 13.1827 1259 119.859 427.166 451.655
146 0 102.415 18.5324 1898 111.504 426.065 448.935
147 0 102.316 14.4454 1478 118.784 425.304 444.666
148 0 105.386 13.4269 1415 120.27 425.84 438.503
149 0 110.594 15.8688 1755 116.359 426.072 438.531
150 0 113.504 14.4841 1644 118.831 425.453 438.743
151 0 118.511 13.678 1621 118.231 426.067 436.638
152 0 120.246 12.5077 1504 115.396 426.699 432.01
153 0 124.312 14.0372 1745 111.904 426.47 434.54
154 0 129.307 12.0102 1553 114.587 427.577 429.234
155 0 135.537 15.0365 2038 113.181 426.731 423.05
156 0 139.368 17.1489 2390 109.658 427.4 425.623
157 0 143.261 12.7878 1832 117.536 427.835 418.407
158 0 150.416 16.5607 2491 110.712 428.638 421.185
159 1 80.3975 13.0725 1051 108.403 429.657 448.521
160 0 85.126 15.0248 1279 105.759 431.452 450.357
161 0 87.2171 19.6062 1710 100.377 430.901 452.585
162 0 90.2326 15.0057 1354 107.827 433.155 445.71
163 0 92.2506 13.7126 1265 109.074 433.035 445.062
164 0 92.1028 10.5751 974 111.491 433.416 448.945
165 0 97.34 12.9135 1257 108.314 434.109 449.617
166 0 101.185 15.2691 1545 108.255 434.775 441.015
167 0 104.467 14.3585 1500 110.957 433.379 446.346
168 0 105.284 14.7315 1551 111.85 433.576 442.197
169 0 111.182 13.7792 1532 110.99 435.272 438.223
170 0 116.173 10.5188 1222 110.715 435.36 450.649
171 0 116.346 13.606 1583 110.991 435.141 440.645
172 0 122.178 14.3479 1753 110.832 435.869 437.689
173 0 126.307 12.9289 1633 113.372 434.067 433.235
174 0 134.275 15.4906 2080 108.283 434.807 434.084
175 0 138.324 13.0057 1799 111.202 434.407 437.302
176 0 146.225 13.8485 2025 112.186 433.695 433.949
177 1 78.1569 9.10988 712 113.698 434.506 466.212
178 0 81.4728 12.5563 1023 114.196 433.543 464.231
179 0 82.357 11.5473 951 114.029 432.198 462.605
180 0 86.3363 15.7408 1359 107.077 430.712 460.241
181 0 86.3394 13.4353 1160 112.46 430.249 457.928
182 0 89.3339 11.9552 1068 117.423 429.187 454.417
183 0 93.3456 15.0087 1401 113.309 428.727 453.459
184 0 94.4142 13.9386 1316 113.27 428.225 449.847
185 0 101.446 13.6329 1383 113.333 426.944 448.265
186 0 102.263 11.5291 1179 107.741 425.82 446.32
187 0 108.4 17.1034 1854 102.052 426.65 443.186
188 0 110.215 12.4847 1376 108.279 424.935 437.072
189 1 45.2745 9.43136 427 104.909 426.028 474.232
190 0 47.0571 10.7316 505 104.543 426.135 473.614
191 0 50.2735 13.6454 686 98.2799 424.977 472.576
192 0 51.3242 11.2617 578 100.059 425.632 472.403
193 0 49.2552 8.89247 438 103.308 425.858 476.813
194 0 52.4257 12.6846 665 101.202 425.436 467.573
195 0 51.2855 10.0613 516 104.82 424.82 468.884
196 0 56.2351 10.794 607 102.3 425.911 468.489
197 0 57.4642 8.97951 516 104.643 426.45 464.963
198 0 63.2012 11.139 704 98.331 427.697 468.776
199 0 61.2402 13.4389 823 99.8372 427.564 461.535
200 0 63.2463 12.7754 808 102.165 428.261 460.63
201 0 64.3977 11.4911 740 104.528 427.678 456.677
202 0 65.231 14.7782 964 98.7033 428.059 454.401
203 0 66.401 11.6414 773 104.136 428.64 451.925
204 0 67.3166 11.0671 745 106.785 431.236 454.216
205 0 69.2237 8.92758 618 109.77 431.364 459.304
206 0 74.402 15.9673 1188 101.866 431.604 452.194
207 0 73.3489 10.1842 747 108.742 432.345 452.011
208 0 77.2795 12.1895 942 104.838 433.414 452.014
209 0 80.2142 12.6412 1014 104.951 433.573 450.267
210 1 45.0324 9.99281 450 105.789 435.573 470.964
211 0 46.2903 14.6467 678 102.566 434.658 473.028
212 0 48.8122 12.1076 591 109.523 434.301 471.01
213 0 46.8083 11.5578 541 111.941 433.719 469.569
214 0 49.6381 11.4831 570 109.407 434.654 473.637
215 0 53.1533 11.7961 627 108.169 436.102 473.509
216 0 50.1188 12.5103 627 109.549 435.839 473.912
217 0 52.0991 14.3381 747 109.076 434.661 471.538
218 0 56.2809 12.6508 712 110.424 433.681 473.739
219 0 56.0967 13.6193 764 110.64 433.378 471.699
220 0 57.0865 12.9803 741 109.893 433.572 477.005
221 0 58.1004 10.5163 611 116.475 431.99 473.34
222 0 58.1117 12.8546 747 114.588 431.49 471.108
223 0 62.1742 11.4678 713 114.401 430.959 472.558
224 0 59.3255 11.0239 654 116.171 430.11 471.7
225 0 62.2919 14.8976 928 111.332 428.835 469.887
226 0 68.1374 13.1939 899 113.443 427.457 469.339
227 0 70.3866 13.6816 963 110.078 427.187 471.167
228 0 69.3016 12.1354 841 116.108 425.593 464.218
229 0 76.4561 13.7334 1050 111.096 424.863 462.638
230 0 75.153 11.5897 871 114.977 425.287 457.489
231 1 41.124 10.4076 428 110.374 426.334 478.103
232 0 44.1527 12.2982 543 105.947 424.473 479.46
233 0 50.3756 16.8137 847 102.132 424.808 479.322
234 0 47.0917 13.4419 633 110.501 424.945 475.605
235 0 49.1256 10.8294 532 112.4 424.788 476.472
236 0 50.0406 17.4858 875 104.471 423.258 472.782
237 0 50.0759 10.9035 546 116.462 423.648 469.87
238 0 51.0908 13.0356 666 113.147 423.496 469.05
239 0 53.1646 12.9033 686 114.749 424.582 464.641
240 0 53.059 12.2882 652 115.386 423.222 466.319
241 0 59.2602 14.3098 848 110.198 425.225 466.408
242 0 59.1074 14.4314 853 109.896 425.894 463.783
243 0 59.1203 11.299 668 115.18 425.612 462.958
244 0 63.112 10.5527 666 116.221 426.617 461.728
245 0 62.2173 15.687 976 109.318 425.328 458.37
246 0 65.2042 13.9715 911 111.844 428.054 460.572
247 0 67.1847 16.6705 1120 108.334 427.261 455.678
248 0 69.375 14.6739 1018 110.355 428.039 457.127
249 0 67.2437 12.7149 855 115.78 429.861 452.898
250 0 74.2786 15.0649 1119 109.165 429.415 457.786
251 0 74.436 12.9776 966 113.037 430.913 456.637
252 0 77.4741 14.521 1125 112.465 430.34 450.587
253 0 77.3572 12.8624 995 115.224 431.716 450.58
254 0 84.298 16.2875 1373 109.038 432.04 452.653
255 0 83.1793 12.0823 1005 115.254 432.207 452.376
256 0 86.2217 13.5465 1168 114.098 433.023 450.945
257 0 85.2703 11.5046 981 117.05 433.565 450.712
258 0 91.2147 16.3351 1490 109.937 433.948 448.952
259 0 96.4247 17.7755 1714 107.122 433.109 450.382
260 0 99.2893 15.1376 1503 110.417 432.43 448.389
261 0 100.325 12.7486 1279 112.114 431.282 447.74
262 1 55.1569 13.6338 752 104.993 429.424 468.648
263 0 60.1615 12.3002 740 106.764 430.282 463.357
264 0 62.4721 12.2455 765 106.374 429.59 466.196
265 0 63.3246 11.6069 735 106.902 428.663 466.747
266 0 66.3029 12.8501 852 105.859 427.786 467.759
267 0 66.3427 15.4953 1028 104.007 427.804 463.039
268 0 69.3152 12.8255 889 107.966 426.52 458.843
269 0 73.4715 12.7805 939 107.878 426.738 459.951
270 0 74.2167 15.347 1139 105.217 425.608 455.917
271 0 78.2834 13.1318 1028 109.118 424.8 456.441
272 0 79.3207 11.4724 910 111.211 424.821 455.525
273 0 82.588 15.6439 1292 106.995 425.11 447.848
274 0 87.3658 11.3774 994 113.044 424.544 448.431
275 0 91.2497 15.5069 1415 107.587 423.853 449.309
276 0 93.5137 15.3667 1437 108.743 422.795 447.138
277 0 93.2233 11.0273 1028 115.353 423.762 436.567
278 0 100.367 17.5954 1766 106.324 422.659 442.43
279 0 106.353 13.6715 1454 108.652 423.167 444.92
280 0 104.473 11.9839 1252 114.771 423.034 429.553
281 0 111.019 14.8983 1654 110.165 422.547 433.054
282 0 111.398 11.8673 1322 112.796 423.52 432.533
283 1 63.3235 9.42778 597 110.625 424.375 447.461
284 0 63.2239 16.5286 1045 98.1627 423.854 456.567
285 0 64.4 10.559 680 105.222 423.404 452.763
286 0 69.4368 12.7598 886 102.833 423.433 452.909
287 0 71.2444 12.015 856 106.119 425.001 446.364
288 0 72.2341 15.8928 1148 101.69 424.983 444.749
289 0 74.3755 10.9982 818 105.597 426.493 449.022
290 0 76.214 13.016 992 106.974 427.269 440.776
291 0 82.4211 14.0013 1154 103.435 427.42 441.767
292 0 79.2587 8.56689 679 112.619 429.51 434.144
293 0 82.3651 7.98882 658 113.777 429.933 434.172
294 0 87.3102 18.4171 1608 100.474 431.125 441.478
295 0 86.2818 15.7739 1361 124.608 432.466 437.804
296 0 93.3409 14.0881 1315 106.181 432.538 437.992
297 0 97.6604 13.1681 1286 105.41 433.189 440.18
298 0 101.486 11.0852 1125 111.341 433.685 432.893
299 0 107.292 12.6757 1360 107.971 434.68 434.259
300 1 59.4112 11.6813 694 102.563 434.416 463.977
301 0 59.4112 11.5635 687 111.869 433.435 463.897
302 0 60.197 10.9142 657 104.367 434.761 467.227
303 0 63.3009 14.1704 897 100.543 434.402 465.405
304 0 64.4571 10.1463 654 103.962 434.694 467.407
305 0 64.3023 11.5704 744 103.706 434.351 463.336
306 0 69.3845 11.7461 815 103.228 434.558 462.521
307 0 72.5166 13.1694 955 101.061 433.308 466.272
308 0 70.4634 10.7999 761 104.569 432.252 463.289
309 0 73.2569 10.9614 803 103.661 431.352 464.792
310 0 78.3502 11.2189 879 103.65 431.37 461.208
311 0 79.3078 11.5499 916 102.1 430.592 465.245
312 0 85.4861 16.3068 1394 96.7877 429.758 462.067
313 0 87.3959 9.78306 855 105.226 428.637 457.64
314 0 92.2929 14.1289 1304 100.4 429.112 456.276
315 1 47.1843 9.28275 438 102.26 430.137 476.833
316 0 49.3989 12.7736 631 99.1632 428.895 471.789
317 0 50.1643 13.7747 691 99.3039 428.334 474.136
318 0 55.4193 14.3813 797 96.1468 426.092 469.033
319 0 51.4365 13.3757 688 99.6061 426.244 470.519
320 0 51.4969 11.5541 595 102.652 425.864 468.077
321 0 57.5281 11.5943 667 101.525 425.634 466.064
322 0 55.2774 9.82318 543 103.558 425.696 468.838
323 0 55.2774 9.787 541 122.959 425.723 469.039
324 0 60.3063 10.4301 629 101.356 426.013 464.057
325 0 61.3909 9.15445 562 102.274 425.795 463.445
326 0 62.2518 11.8711 739 100.407 426.29 456.018
327 0 65.5028 11.3736 745 99.7503 427.031 460.319
328 0 69.3128 15.293 1060 97.0217 426.594 453.723
329 0 71.3591 9.79553 699 102.112 427.725 452.934
330 0 75.4761 15.3559 1159 97.8714 427.759 447.983
331 0 76.3917 11.2447 859 100.196 428.736 448.872
332 0 79.2879 14.5798 1156 96.8209 428.937 448.679
333 0 79.2879 14.5293 1152 116.114 429.939 448.674
334 0 86.3975 14.3986 1244 99.3031 430.416 438.81
335 0 90.4441 12.516 1132 100.324 431.11 442.786
336 0 90.3089 15.912 1437 98.6973 431.856 437.709
337 0 92.3383 12.5625 1160 102.334 433.007 433.254
338 0 94.3213 8.39683 792 106.761 433.955 438.274
339 0 100.299 12.2434 1228 103.362 434.431 434.54
340 0 100.44 11.1808 1123 104.574 434.226 431.954
341 0 104.56 15.8952 1662 103.19 435.224 435.709
342 0 108.89 11.5437 1257 108.142 434.095 436.547
343 0 111.627 11.3414 1266 108.374 434.54 433.235
344 0 113.573 12.7231 1445 106.746 435.836 433.34
345 0 118.695 18.0462 2142 100.818 435.008 431.034
346 0 121.774 11.7595 1432 108.713 435.392 430.626
347 0 123.605 12.1678 1504 106.929 436.499 435.942
348 0 130.747 13.4994 1765 106.088 435.88 432.913
349 0 134.019 12.2296 1639 109.364 435.02 428.01
350 0 139.793 16.2383 2270 105.002 434.721 422.763
351 0 144.346 10.461 1510 110.942 434.676 431.528
352 0 148.664 17.7783 2643 102.607 434.046 431.48
353 0 151.67 12.7118 1928 108.997 433.202 428.588
354 0 157.56 16.3938 2583 104.581 432.62 424.391
355 0 159.527 15.9158 2539 104.439 431.556 424.612
356 0 167.728 13.5458 2272 110.385 431.094 414.643
357 1 81.1625 12.974 1053 104.113 432.467 459.774
358 0 86.3234 15.2913 1320 101.311 432.24 455.026
359 0 90.2448 13.8955 1254 101.588 430.735 457.459
360 1 51.2536 10.77 552 101.824 430.69 476.971
361 0 48.2266 13.6854 660 99.8167 431.153 472.688
362 0 52.3128 14.528 760 97.3987 429.687 471.191
363 0 52.1713 12.3439 644 102.224 430.387 468.522
364 0 54.1992 17.1774 931 96.8958 428.685 466.337
365 0 55.1485 20.8709 1151 93.6429 428.029 466.315
366 0 55.2084 13.1502 726 101.985 428.704 463.994
367 0 58.3324 12.3945 723 102.589 429.559 462.221
368 0 60.2834 18.3633 1107 96.1012 428.905 456.217
369 0 62.2046 16.4296 1022 98.6791 428.704 456.749
370 0 61.1831 12.3727 757 103.856 428.229 458.486
371 0 64.2713 17.5973 1131 98.4668 428.862 454.009
372 0 64.1254 12.7718 819 104.912 429.685 452.713
373 0 67.213 13.7771 926 102.903 430 453.37
374 0 66.2018 12.2353 810 104.952 430.417 453.137
375 0 73.3334 14.2364 1044 100.83 430.439 450.441
376 0 76.1866 13.0732 996 102.094 431.904 445.606
377 0 76.2636 15.748 1201 99.9092 430.408 443.938
378 0 79.5174 11.9093 947 102.93 433.295 450.049
379 0 80.3432 11.8492 952 105.026 433.43 445.21
380 0 86.2585 15.2449 1315 100.712 434.197 447.237
381 0 89.3672 13.9872 1250 103.374 434.496 440.695
382 0 91.2292 15.609 1424 101.506 435.763 443.577
383 1 43.0924 9.67687 417 108.614 437.837 459.784
384 0 48.0432 11.3231 544 107.154 438.351 462.634
385 0 48.0918 14.0356 675 104.689 437.677 461.913
386 0 51.2361 13.4866 691 105.436 438.352 462.316
387 0 55.1479 12.7294 702 105.224 438.514 465.208
388 0 55.1149 17.654 973 100.308 438.607 460.785
389 0 55.4701 13.9715 775 105.863 437.283 463.623
390 0 57.3668 17.6409 1012 100.246 436.15 468.565
391 0 59.2234 11.33 671 110.806 437.751 466.572
392 0 60.3446 13.1246 792 110.453 435.886 462.787
393 0 63.2823 13.6689 865 109.553 435.918 461.786
394 0 67.2768 16.0085 1077 106.537 434.26 462.981
395 0 67.5524 16.4317 1110 106.847 434.277 462.216
396 0 72.3998 17.942 1299 104.531 434.553 462.69
397 0 72.2684 13.4637 973 112.219 433.965 461.659
398 0 76.4344 18.3033 1399 104.926 433.274 456.035
399 0 78.1895 12.9941 1016 112.183 432.588 459.712
400 0 78.2015 15.3578 1201 111.603 431.69 458.482
401 0 83.2041 19.6505 1635 105.864 431.365 456.828
402 0 82.2567 16.0109 1317 111.118 430.427 450.486
403 0 82.2385 13.2055 1086 117.599 430.336 449.005
404 0 93.2124 13.3566 1245 114.948 429.046 450.775
405 1 52.1313 12.7562 665 109.071 428.353 472.358
406 0 53.4974 13.1782 705 109.247 426.806 466.677
407 0 52.2126 11.5298 602 106.87 428.468 468.621
408 0 57.2119 16.8147 962 99.9096 427.773 469.315
409 0 55.1948 12.3562 682 108.655 426.437 460.431
410 0 54.2384 7.55921 410 115.378 428.2 457.941
411 0 59.2183 10.3178 611 111.239 427.19 457.93
412 0 63.4295 12.4232 788 107.846 427.223 456.971
413 0 64.3309 16.1664 1040 102.619 427.23 458.702
414 0 64.4352 11.8258 762 111.109 427.423 449.085
415 0 65.3345 9.87227 645 114.398 427.157 449.202
416 0 72.1329 12.2967 887 119.393 428.23 450.569
417 0 75.4134 15.0239 1133 114.891 429.016 446.035
418 0 80.187 13.6306 1093 116.217 429.497 446.807
419 0 79.2822 13.5718 1076 118 431.548 446.14
420 0 83.3579 19.4343 1620 108.349 430.413 446.539
421 0 87.3351 14.2898 1248 117.942 431.802 441.845
422 0 89.1714 13.446 1199 118.783 434.127 442.186
423 0 91.3863 13.3937 1224 120.645 433.381 435.516
424 1 46.0619 8.57541 395 121.484 435.053 456.929
425 0 47.0757 13.6164 641 113.335 434.778 456.73
426 0 47.1504 11.3679 536 117.147 435.819 457.47
427 0 48.5284 13.6209 661 109.69 436.69 458.309
428 0 49.0574 10.6202 521 117.752 437.518 458.797
429 0 55.2003 13.7318 758 112.563 438.145 460.29
430 0 56.2544 12.5324 705 111.224 438.136 459.779
431 0 58.033 13.8714 805 105.385 437.846 463.648
432 0 59.1129 13.2458 783 109.501 437.756 461.091
433 0 60.0832 9.33706 561 116.79 437.734 455.945
434 0 65.0879 11.9838 780 111.226 437.505 460.024
435 0 68.1132 13.6684 931 109.323 437.319 459.77
436 0 66.1117 12.494 826 112.76 436.245 460.32
437 0 69.1588 10.4108 720 115.503 436.25 457.503
438 0 74.106 11.3081 838 112.439 436.533 456.848
439 0 76.2539 16.0123 1221 105.67 435.455 458.496
440 0 78.4989 12.3059 966 111.449 434.832 456.167
441 0 81.3073 14.2177 1156 108.518 434.606 455.303
442 0 85.8035 16.6543 1429 105.038 432.824 452.695
443 0 84.5211 14.2331 1203 108.857 431.698 454.364
444 0 90.4925 17.0953 1547 105.372 431.257 450.005
445 1 45.1026 8.15918 368 107.25 431.989 475.576
446 0 45.0518 10.388 468 104.741 431.521 475.203
447 0 50.0428 10.2712 514 107.926 431.405 470.185
448 0 48.2777 10.6882 516 111.504 431.578 470.384
449 0 51.1245 12.1272 620 110.095 431.024 465.621
450 0 51.1832 9.00685 461 117.013 430.536 466.633
451 0 53.1825 10.887 579 111.722 428.385 467.231
452 0 57.1769 14.1316 808 105.748 428.412 466.261
453 0 59.422 14.8766 884 105.989 428.645 462.34
454 0 59.422 14.944 888 122.829 428.64 462.43
455 0 63.1306 13.6067 859 109.891 428.09 455.643
456 0 65.1155 13.1305 855 113.057 428.294 456.798
457 0 64.2774 11.4504 736 116.284 428.997 453.736
458 0 68.3311 12.1614 831 114.871 428.381 453.576
459 0 71.2698 11.239 801 114.71 427.245 455.031
460 0 71.2837 18.3071 1305 105.631 427.063 453.575
461 0 72.563 11.5348 837 111.785 428.717 449.918
462 0 76.4969 11.5822 886 113.569 429.406 449.751
463 0 81.2701 16.0945 1308 107.239 429.028 448.372
464 1 43.1501 10.4751 452 107.827 431.83 466.184
465 0 44.2138 12.3943 548 108.772 432.495 464.197
466 0 41.3412 10.1594 420 113.764 431.302 463.874
467 0 45.0893 10.0024 451 112.517 433.528 463.745
468 0 49.026 14.2169 697 105.551 433.013 464.41
469 0 50.1586 12.4605 625 107.125 433.338 463.656
470 0 50.0803 11.5814 580 109.876 435.314 462.655
471 0 50.1173 11.1738 560 110.279 435.052 466.616
472 0 54.0575 11.4508 619 111.452 434.299 466.344
473 0 54.1613 11.5765 627 115.494 434.234 465.485
474 0 55.2983 11.9172 659 116.032 434.326 465.212
475 0 59.2063 16.5692 981 107.528 434.616 466.133
476 0 61.0432 14.6945 897 110.29 434.067 467.656
477 0 62.1346 13.1167 815 115.32 433.605 466.483
478 0 64.123 13.1934 846 114.651 433.095 466.096
479 0 68.2759 14.2949 976 112.455 432.273 469.434
480 0 68.3033 11.9467 816 116.923 432.48 466.238
481 0 72.2656 12.8139 926 114.948 432.329 465.693
482 0 74.4532 13.2298 985 112.411 430.177 465.573
483 0 80.5265 12.083 973 115.032 429.823 468.13
484 0 81.1347 12.8428 1042 113.489 428.96 467.103
485 0 81.1347 12.8059 1039 148.464 427.957 466.929
486 1 45.1098 12.4142 560 104.518 428.316 481.488
487 0 44.0566 13.3238 587 105.032 427.98 480.23
488 0 44.0904 9.57126 422 110.066 427.692 476.507
489 0 48.0502 10.6555 512 108.367 426.467 479.74
490 0 47.2052 11.6724 551 108.41 425.39 476.74
491 0 49.124 12.3768 608 108.219 424.118 476.217
492 0 48.1688 7.47372 360 114.033 423.853 476.569
493 0 48.1982 9.62692 464 113.198 423.302 473.524
494 0 52.3162 13.0935 685 108.696 421.755 474.276
495 0 52.1015 12.5716 655 109.157 421.896 473.214
496 0 55.0735 11.8387 652 112.219 422.229 469.305
497 0 57.1192 12.9904 742 111.108 422.602 468.763
498 0 60.1035 13.5766 816 110.952 421.74 460.586
499 0 62.0895 16.4601 1022 106.158 421.74 463.66
500 0 64.2055 10.482 673 113.113 422.599 463.104
501 0 63.1022 11.0931 700 114.88 421.439 456.939
502 0 66.1207 12.6587 837 113.231 422.958 453.09
503 0 70.2941 14.482 1018 110.22 424.156 454.326
504 0 70.1491 9.65087 677 116.241 424.384 451.795
505 0 74.2134 12.4236 922 112.908 424.132 443.159
506 0 77.3844 14.9772 1159 111.146 426.278 447.556
507 0 78.1564 13.4218 1049 114.699 427.896 444.44
508 0 80.0839 11.0884 888 119.068 427.566 443.648
509 0 86.5209 16.0192 1386 111.514 428.856 445.8
510 0 88.1439 13.0355 1149 115 429.322 441.093
511 0 91.1673 13.6233 1242 114.205 430.963 444.677
512 1 49.0684 9.51732 467 112.283 432.315 460.527
513 0 51.3044 11.422 586 112.225 431.121 461.522
514 0 53.2237 9.9016 527 111.562 430.258 465.565
515 0 56.1708 13.2809 746 106.678 431.605 467.244
516 0 56.1503 14.5146 815 111.06 432.899 461.328
517 0 58.2393 13.4274 782 111.294 433.633 466.254
518 0 63.5535 14.6333 930 109.989 433.427 465.54
519 0 63.1126 10.7427 678 116.062 434.274 464.109
520 0 67.2245 12.7334 856 111.605 433.235 466.894
521 0 68.2918 11.9194 814 114.58 433.301 464.023
522 0 70.1463 14.3842 1009 110.541 432.644 463.271
523 0 74.2593 13.2509 984 110.014 431.674 468.639
524 0 78.1239 12.0066 938 113.403 431.926 461.382
525 0 78.1848 9.50313 743 116.052 431.91 464.241
526 1 41.0969 10.4874 431 104.754 429.622 485.329
527 0 43.0462 8.75804 377 109.34 430.584 484.928
528 0 44.026 12.0156 529 106.112 429.656 482.991
529 0 44.1779 10.7973 477 112.398 428.4 484.585
530 0 46.0539 13.8099 636 107.5 428.852 484.374
531 0 46.0651 12.2435 564 111.918 427.135 483.502
532 0 49.0669 13.6548 670 108.813 427.273 481.09
533 0 49.1592 11.3916 560 113.418 426.762 478.995
534 0 50.0624 11.6255 582 113.076 426.821 479.503
535 0 52.2094 12.5265 654 113.235 426.356 476.439
536 0 56.206 16.404 922 104.956 425.514 477.234
537 0 58.1625 14.4079 838 107.751 425.033 472.544
538 0 58.2588 15.7058 915 105.352 424.564 472.227
539 0 59.1801 14.4305 854 107.288 424.207 470.205
540 0 60.1273 12.1409 730 110.801 424.496 468.778
541 0 64.0893 14.8387 951 106.762 424.438 469.703
542 0 63.2146 15.9615 1009 106.699 424.677 463.435
543 0 68.0742 16.6142 1131 109.076 425.13 464.011
544 0 67.0743 13.3136 893 114.533 426.666 459.666
545 0 73.1403 15.4224 1128 109.553 424.765 458.94
546 0 72.1525 14.3308 1034 112.081 426.837 458.484
547 0 75.1687 15.2191 1144 110.426 426.128 453.535
548 0 77.1794 12.4386 960 114.726 427.164 451.228
549 0 79.2372 13.5164 1071 112.939 427.619 450.484
550 0 84.1116 13.3989 1127 113.014 428.059 450.728
551 0 88.1182 15.6835 1382 108.568 429.168 453.056
552 1 47.1763 14.3504 677 106.424 428.758 472.061
553 0 48.1629 12.1255 584 110.053 430.122 471.806
554 0 48.176 10.3579 499 106.028 430.369 466.265
555 0 54.1649 12.4989 677 104.536 430.474 471.244
556 0 46.419 11.1808 519 108.337 432.661 470.518
557 0 50.5183 10.8673 549 107.996 431.909 474.572
558 0 51.3531 10.5349 541 108.013 433.187 473.904
559 0 54.5358 12.1388 662 106.586 432.628 470.505
560 0 54.3717 13.4629 732 106.888 432.321 470.168
561 0 54.3081 12.2081 663 109.566 433.291 470.9
562 0 60.3863 14.076 850 106.16 432.853 472.848
563 0 63.4083 13.279 842 105.967 432.901 475.532
564 0 65.393 16.3014 1066 103.047 432.042 472.538
565 0 66.2032 11.8876 787 109.698 431.335 470.399
566 0 71.5492 15.7235 1125 104.924 430.775 470.748
567 0 69.4065 16.2665 1129 105.264 430.888 469.438
568 0 70.3998 10.9801 773 111.977 430.908 468.986
569 0 74.3091 15.274 1135 106.782 430.739 466.827
570 0 75.2635 12.516 942 110.775 429.812 464.768
571 0 79.135 15.859 1255 105.555 428.168 469.019
572 0 82.181 14.249 1171 107.039 428.22 466.02
573 0 87.1244 14.9097 1299 106.501 428.222 462.398
574 0 87.2836 12.0298 1050 112.131 427.573 458.257
575 0 92.4734 15.2476 1410 106.661 427.15 459.523
576 0 93.648 15.5156 1453 106.398 425.152 458.501
577 0 97.9271 14.6436 1434 108.179 424.911 453.99
578 1 52.2556 10.9271 571 111.496 425.559 476.669
579 0 53.2268 10.7653 573 113.162 425.305 477.145
580 0 57.2233 11.027 631 114.447 424.715 474.585
581 0 57.7752 13.8814 802 112.362 422.864 471.337
582 0 59.4792 13.9377 829 113.503 422.232 467.554
583 0 62.4109 12.1453 758 116.025 422.175 469.208
584 0 62.4349 14.0306 876 114.164 424.666 469.542
585 0 66.5411 13.3752 890 114.706 423.356 465.539
586 0 69.2898 12.325 854 116.197 423.886 464.308
587 0 70.3994 14.1194 994 115.758 424.246 457.028
588 0 75.3928 15.5187 1170 111.915 425.551 459.28
589 0 78.3646 14.0497 1101 114.313 426.569 456.949
590 0 78.2951 15.3139 1199 113.837 425.515 454.656
591 0 82.2944 17.0121 1400 109.158 426.835 452.775
592 0 86.6052 15.3917 1333 106.815 428.698 451.827
593 0 88.2328 14.0424 1239 109.031 428.282 447.81
594 1 48.1744 9.75621 470 110.691 430.689 470.368
595 0 48.0875 10.3769 499 113.142 431.351 467.435
596 0 48.2434 11.6493 562 112.585 431.08 463.826
597 0 51.2038 11.8351 606 114.226 432.249 463.34
598 0 52.0906 11.672 608 113.424 432.946 466.176
599 0 54.1384 12.3942 671 112.459 433.708 467.736
600 0 57.0675 12.4765 712 111.935 433.555 466.801
601 0 60.098 11.215 674 113.418 435.43 467.261
602 0 60.098 11.2982 679 140.756 436.39 467.33
603 0 61.1235 13.1046 801 112.851 434.161 467.156
604 0 64.2322 13.3578 858 107.886 433.735 471.228
605 0 67.118 12.7239 854 110.759 433.852 464.507
606 0 66.1731 12.3162 815 112.479 433.866 463.794
607 0 72.0983 13.6619 985 109.221 433.928 466.685
608 0 73.2873 12.6352 926 111.627 434.074 465.799
609 0 77.2851 14.2071 1098 110.239 432.715 465.706
610 0 79.2156 15.3379 1215 107.61 432.406 470.574
611 0 81.193 13.8312 1123 111.521 431.695 464.975
612 0 81.2318 10.0084 813 117.14 432.753 462.552
613 0 87.2695 12.914 1127 111.566 430.882 465.736
614 0 91.1333 13.387 1220 110.979 430.859 459.213
615 0 92.1416 12.0358 1109 113.115 430.526 461.102
616 0 95.1964 14.0447 1337 109.619 429.91 459.655
617 0 97.1909 11.215 1090 114.205 429.213 458.154
618 0 97.6546 10.7829 1053 112.239 426.528 455.027
619 1 48.2643 9.01287 435 109.706 427.06 474.924
620 0 49.183 10.4711 515 107.087 427.087 470.151
621 0 47.2131 6.46007 305 113.328 426.675 471.541
622 0 56.1798 13.9196 782 101.125 425.203 472.55
623 0 55.24 11.097 613 105.152 424.778 468.834
624 0 62.125 14.8893 925 100.064 425.017 467.83
625 0 58.1341 11.7659 684 105.554 423.914 463.924
626 0 60.2319 8.76612 528 110.574 424.47 461.693
627 0 61.2073 9.08388 556 111.349 424.867 459.005
628 0 69.2218 12.6839 878 105.88 424.56 461.236
629 0 69.1292 15.7965 1092 102.52 424.154 459.044
630 0 64.3217 9.6235 619 112.585 424.774 455.195
631 0 73.1433 12.1816 891 108.301 424.645 451.019
632 0 75.2204 13.3607 1005 107.17 426.243 451.012
633 0 75.2997 11.3546 855 109.504 425.647 450.655
634 0 80.2419 11.2909 906 110.443 427.394 449.013
635 0 83.1096 9.03626 751 114.144 427.457 451.043
636 0 86.3653 12.6903 1096 109.471 428.42 447.643
637 1 47.0448 10.7557 506 108.877 430.267 465.79
638 0 48.0492 12.1542 584 113.796 431.252 467.158
639 0 53.221 14.4492 769 108.793 431.013 466.633
640 0 54.1198 12.6386 684 111.962 432.497 467.68
641 0 56.2588 13.1713 741 111.204 432.646 467.525
642 0 58.1388 14.9814 871 107.853 433.569 468.007
643 0 59.1777 14.11 835 111.073 433.72 465.94
644 0 62.1828 12.9296 804 112.47 433.818 467.587
645 0 63.2034 14.8093 936 109.738 433.658 465.481
646 0 64.1643 14.1979 911 112.106 433.795 463.527
647 0 69.1105 14.7011 1016 109.873 434.006 466.6
648 0 72.1852 17.4828 1262 104.623 433.482 467.929
649 0 70.2627 10.8592 763 117.025 433.149 466.872
650 0 73.536 13.0684 961 115.706 431.654 464.588
651 0 78.5038 15.4005 1209 111.641 431.08 470.123
652 0 78.3168 13.4198 1051 112.577 432.147 465.617
653 0 80.2609 14.5401 1167 111.284 432.069 461.437
654 1 44.0711 11.2772 497 113.913 432.726 482.147
655 0 47.0576 14.3866 677 109.406 430.815 480.462
656 0 46.0459 10.4461 481 116.911 430.854 480.757
657 0 48.1862 11.0613 533 114.587 430.535 480.368
658 0 52.0949 14.1664 738 110.012 429.286 478.824
659 0 54.0455 13.3221 720 110.929 430.093 482.318
660 0 53.2682 16.2386 865 107.471 427.445 478.251
661 0 54.0504 13.7834 745 111.882 427.353 474.564
662 0 58.2352 18.8546 1098 103.19 426.545 477.985
663 0 57.0802 12.2284 698 115.911 427.095 474.745
664 0 61.2118 19.6041 1200 104.318 425.974 474.198
665 0 59.0966 14.8909 880 112.834 426.266 470.057
666 0 63.0607 16.0639 1013 110.192 425.489 469.737
667 0 60.1446 11.0733 666 119.251 426.12 470.74
668 0 65.1048 13.8239 900 115.461 424.532 464.57
669 0 67.1788 15.5109 1042 111.504 424.75 467.892
670 0 69.355 13.4958 936 116.254 425.185 464.495
671 0 72.2652 16.6193 1201 110.842 426.085 461.923
672 0 73.2986 15.8393 1161 113.58 425.444 459.897
673 0 76.2441 14.1257 1077 115.194 426.721 459.838
674 0 78.211 14.755 1154 114.042 427.03 457.598
675 0 82.3645 14.193 1169 115.236 428.14 454.372
676 0 83.2622 15.6253 1301 114.63 427.204 450.693
677 1 45.1227 11.7901 532 117.515 428.321 470.235
678 0 45.648 12.7497 582 115.498 426.521 467.509
679 0 47.8305 17.4993 837 109.249 427.995 464.247
680 0 48.4788 16.7496 812 107.323 428.421 465.956
681 0 49.3878 9.55702 472 117.358 428.994 468.396
682 0 55.2225 17.0583 942 106.228 429.741 465.611
683 0 53.2584 11.2658 600 116.067 429.443 465.418
684 0 55.3119 12.2578 678 115.18 430.549 465.665
685 0 55.3352 10.3732 574 117.686 431.016 463.446
686 0 57.1546 16.4291 939 108.273 431.854 466.64
687 0 60.6443 13.0433 791 114.373 431.358 460.683
688 0 61.4924 11.2534 692 116.234 431.964 465.159
689 0 66.3088 11.4917 762 115.249 431.55 462.675
690 0 68.7748 14.2349 979 111.166 431.719 464.28
691 0 70.4636 16.8314 1186 106.874 430.872 464.214
692 0 72.3166 12.4868 903 112.691 431.434 464.715
693 0 74.6502 10.6229 793 113.878 431.81 466.016
694 0 78.6216 13.2661 1043 111.181 432.137 463.646
695 0 81.4127 11.3127 921 113.949 431.826 457.889
696 0 85.9791 16.3296 1404 106.598 431.826 460.964
697 0 85.5761 12.0244 1029 113.324 431.349 460.05
698 0 89.5187 13.2486 1186 111.406 431.788 460.338
699 0 91.5948 10.874 996 115.009 429.891 454.709
700 0 96.6465 10.8126 1045 113.976 429.435 460.37
701 0 98.6428 12.2158 1205 113.142 428.9 458.338
702 0 102.931 13.6207 1402 111.664 427.887 453.939
703 0 104.636 12.6725 1326 112.517 427.32 450.314
704 1 53.3773 10.5101 561 110.018 426.683 476.651
705 0 57.5792 13.4771 776 105.357 425.838 470.416
706 0 55.3415 10.8237 599 109.765 424.81 475.523
707 0 55.3689 10.8364 600 108.122 423.828 475.563
708 0 62.2461 14.2338 886 104.739 424.071 471.858
709 0 65.5406 12.1757 798 107.861 423.122 469.163
710 0 66.2451 13.3897 887 106.773 425.05 468.687
711 0 67.244 8.40223 565 114.152 424.697 465.834
712 0 71.2536 10.624 757 111.292 424.394 464.17
713 0 75.4043 13.6597 1030 107.394 423.419 460.335
714 0 76.5514 10.5158 805 111.306 424.381 462.334
715 0 78.7276 12.0669 950 109.961 423.427 456.187
716 0 81.7029 12.9371 1057 109.226 424.602 454.796
717 0 86.9021 14.1078 1226 106.026 424.574 454.974
718 0 88.8727 14.2788 1269 107.931 424.869 447.354
719 0 92.3458 14.8572 1372 104.495 425.152 452.915
720 1 49.2894 14.4859 714 100.592 427.273 473.07
721 0 50.0926 11.4188 572 103.295 426.792 469.586
722 0 50.353 11.8563 597 103.122 427.188 465.797
723 0 53.5148 11.5295 617 101.757 427.656 464.831
724 1 102.54 11.4296 1172 107.253 426.906 436.119
725 0 110.885 15.4935 1718 102.89 429.31 439.513
726 0 112.69 10.631 1198 106.366 430.54 441.053
727 1 61.1393 10.9422 669 100.578 432.312 467.38
728 0 64.061 10.1154 648 102.91 432.269 461.628
729 0 67.1577 13.6991 920 98.9967 433.029 463.091
730 0 65.1733 7.8253 510 107.52 432.58 457.873
731 0 71.3193 12.1987 870 101.445 432.529 464.763
732 0 67.3136 9.47802 638 128.417 433.458 460.444
733 0 78.2223 11.8381 926 102.105 432.351 464.379
734 0 76.3768 9.95067 760 104.239 431.992 465.55
735 0 83.1361 14.8191 1232 107.855 433.469 461.217
736 0 82.2401 11.2354 924 114.05 433.872 456.436
737 0 86.0956 11.7428 1011 113.293 432.141 457.416
738 1 46.0712 12.676 584 109.382 432.685 480.038
739 0 48.1208 11.6374 560 111.529 432.554 481.516
740 0 50.1701 11.182 561 113.501 431.914 478.048
741 0 52.0264 11.8594 617 111.966 431.271 481.472
742 0 52.0625 12.6963 661 111.313 432.198 479.965
743 0 59.105 16.2423 960 105.922 429.438 476.334
744 0 55.1184 12.4822 688 112.496 429.326 476.715
745 0 55.1184 12.4822 688 145.097 429.321 476.631
746 0 60.1049 12.6945 763 114.109 429.202 469.252
747 0 59.0574 14.6298 864 112.186 428.455 472.385
748 0 65.165 16.0669 1047 108.609 428.652 472.179
749 0 62.1544 12.8229 797 116.881 428.443 466.376
750 0 68.0776 14.6304 996 112.552 427.323 462.615
751 0 69.2196 14.2445 986 114.881 427.108 462.338
752 0 70.2114 13.3597 938 115.554 426.688 463.228
753 0 73.2788 16.6351 1219 112.621 427.316 458.817
754 0 77.1244 14.8721 1147 114.052 427.292 461.428
755 0 78.179 18.8542 1474 107.653 425.794 462.008
756 0 80.294 14.2975 1148 116.482 426.703 455.831
757 0 84.1553 14.8891 1253 116.259 426.204 449.703
758 1 45.411 11.517 523 117.172 427.581 471.935
759 0 46.4084 11.2264 521 119.065 427.307 468.839
760 0 49.5224 12.9638 642 115.575 426.807 462.022
761 0 52.406 13.5862 712 114.296 427.576 462.121
762 0 54.6911 14.1705 775 108.29 426.342 463.719
763 0 56.0316 12.6536 709 111.79 427.732 462.622
764 0 54.4342 13.5026 735 110.956 427.95 464.291
765 0 54.6898 12.6532 692 116.376 428.316 462.442
766 0 57.9177 13.1048 759 116.75 429.677 457.569
767 0 62.1682 12.4179 772 116.614 429.043 460.697
768 0 62.5725 17.3878 1088 110.711 429.693 458.981
769 0 63.5022 10.7398 682 120.874 431.249 461.123
770 0 65.6095 12.1171 795 121.677 431.245 456.605
771 0 70.5875 13.5151 954 118.463 432.537 456.191
772 0 72.3932 16.0374 1161 114.733 431.343 455.711
773 0 73.8718 14.999 1108 113.906 431.689 461.147
774 0 75.9338 11.8788 902 118.41 431.672 454.891
775 0 77.827 15.4317 1201 113.204 431.4 457.331
776 0 82.5494 12.8892 1064 116.986 431.724 458.162
777 1 42.0581 12.6254 531 113.908 431.588 477.849
778 0 41.6193 11.1727 465 118.247 431.798 477.669
779 0 44.7792 13.7787 617 113.18 431.25 477.968
780 0 45.6956 12.1237 554 117.886 430.919 477.477
781 0 48.1127 14.0296 675 115.541 431.446 474.437
782 0 47.0959 10.6803 503 113.505 430.722 475.614
783 0 52.1806 15.983 834 113.108 430.195 476.727
784 0 50.3535 14.6961 740 115.623 430.369 479.539
785 0 53.6433 13.5711 728 117.43 429.345 476.668
786 0 57.3088 14.099 808 115.726 428.613 473.994
787 0 55.4577 15.2008 843 115.215 428.418 473.88
788 0 57.6019 14.0794 811 117.416 426.868 471.095
789 0 61.7203 15.1814 937 115.46 427.635 467.122
790 0 60.808 12.597 766 121.221 426.364 468.462
791 0 63.9257 15.8778 1015 115.886 427.99 466.392
792 0 68.8253 18.6123 1281 108.24 426.253 460.849
793 0 68.8231 15.1693 1044 115.191 426.532 461.925
794 0 67.9327 14.2052 965 117.597 425.956 459.298
795 0 67.5909 10.7411 726 124.291 425.668 455.883
796 0 73.9387 14.7149 1088 117.054 425.379 454.243
797 0 75.7026 15.7458 1192 115.166 426.339 453.016
798 0 79.8199 15.2719 1219 116.239 426.357 445.112
799 0 82.2704 15.7894 1299 115.269 425.574 446.019
800 0 86.1762 12.5325 1080 119.456 425.236 447.684
801 1 46.5109 13.1797 613 119.062 426.148 464.799
802 0 45.3298 12.1553 551 114.407 426.341 463.263
803 0 54.4894 14.0211 764 115.864 428.706 465.386
804 0 49.2021 12.3775 609 113.877 427.371 463.361
805 0 49.3145 11.1123 548 117.577 427.434 456.81
806 0 52.443 13.4622 706 111.132 427.647 458.286
807 0 56.1443 15.5136 871 108.567 428.178 455.814
808 0 56.4015 14.2727 805 110.359 431.21 456.343
809 0 58.2224 13.6202 793 111.216 430.261 450.037
810 0 59.3037 12.4613 739 113.438 431.189 453.053
811 0 60.2242 10.9923 662 115.822 432.435 454.385
812 0 65.3596 12.0258 786 115.004 431.784 452.294
813 0 67.411 15.2349 1027 110.169 432.536 451.982
814 0 69.126 13.3669 924 117.214 433.878 450.456
815 0 71.2779 17.6352 1257 111.563 432.912 456.168
816 0 75.1312 15.0537 1131 115.956 434.684 451.361
817 0 75.1312 15.0936 1134 134.459 436.667 451.166
818 0 80.1296 15.3127 1227 116.43 433.782 450.273
819 0 84.2063 15.2364 1283 115.883 432.61 448.567
820 0 86.1652 18.0583 1556 112.217 433.138 444.152
821 0 89.1714 13.5133 1205 120.788 433.766 447.208
822 0 93.1802 15.4861 1443 116.108 432.816 450.035
823 1 49.0284 10.2186 501 116.832 433.85 469.95
824 0 50.0832 10.6822 535 118.551 433.722 467.705
825 0 47.4678 12.4505 591 111.724 431.484 469.909
826 0 52.5576 11.8727 624 112.311 431.905 466.404
827 0 58.2745 15.1181 881 101.923 429.436 471.022
828 0 56.0892 13.7638 772 105.376 429.618 467.102
829 0 61.1733 11.9987 734 110.332 427.963 468.428
830 0 59.4813 12.4241 739 110.069 428.353 464.432
831 0 65.3386 10.6522 696 110.155 427.55 466.984
832 0 65.2694 11.1231 726 111.855 427.758 460.404
833 0 72.4432 16.6337 1205 103.414 426.866 461.285
834 0 71.2345 13.4485 958 105.688 426.798 461.859
835 0 73.1188 13.3071 973 104.914 427.779 458.476
836 0 72.112 14.7964 1067 105.144 426.907 453.644
837 0 75.2213 9.43881 710 110.17 427.931 460.331
838 0 74.1102 10.6463 789 112.712 427.284 450.209
839 0 82.0698 12.5503 1030 112.911 426.447 454.552
840 0 87.1566 13.0111 1134 112.21 427.217 452.041
841 0 88.3102 12.3315 1089 109.837 427.106 447.566
842 1 48.0977 13.2231 636 109.491 428.016 468.679
843 0 46.5291 9.47793 441 110.902 426.399 465.17
844 0 46.1678 11.0467 510 109.408 424.004 462.747
845 0 50.1417 11.9063 597 102.049 425.735 463.563
846 0 50.0807 8.62607 432 107.185 425.007 460.741
847 0 52.224 11.9677 625 103.488 426.358 462.288
848 0 53.1129 12.1628 646 103.8 428.311 459.463
849 0 59.1912 12.4174 735 102.19 428.781 458.078
850 0 58.148 10.0261 583 107.24 430.604 459.618
851 0 59.2797 13.0567 774 104.412 429.397 455.598
852 0 62.4243 9.01892 563 108.259 430.492 453.879
853 0 66.2256 13.8466 917 101.627 429.834 456.69
854 0 69.2429 16.5071 1143 98.4882 432.007 456.68
855 0 71.3692 13.3671 954 101.827 431.317 451.805
856 0 75.275 13.5503 1020 101.288 433.026 452.442
857 0 76.3498 11.5783 884 102.853 433.381 455.845
858 0 80.424 14.0132 1127 99.9787 433.548 453.452
859 0 81.282 11.7246 953 103.732 432.575 450.179
860 0 84.3328 12.0712 1018 104.288 432.709 445.222
861 0 87.1315 11.8556 1033 104.719 432.793 444.93
862 0 89.3377 11.0816 990 105.437 431.671 452.162
863 1 48.0462 9.40762 452 100.473 432.79 467.9
864 0 50.4692 11.7299 592 106.931 430.566 468.382
865 0 53.3497 18.8005 1003 97.015 429.761 470.592
866 0 52.1635 7.84073 409 111.45 430 469.176
867 0 53.3966 11.2179 599 108.454 429.249 471.07
868 0 58.7732 18.1716 1068 101.737 430.492 468.362
869 0 59.9138 14.7045 881 106.381 429.669 465.826
870 0 60.62 12.6361 766 110.819 429.526 467.752
871 0 60.5629 11.4426 693 112.716 427.905 469.085
872 0 63.6979 12.6535 806 111.816 427.748 464.151
873 0 67.6986 11.3444 768 113.12 427.197 464.388
874 0 69.43 14.4318 1002 109.777 426.535 464.47
875 0 69.6878 11.2215 782 114.344 427.176 466.063
876 0 67.5245 10.1148 683 118.182 428.064 457.64
877 0 76.7548 15.4518 1186 108.787 426.733 460.54
878 0 80.5688 14.1618 1141 110.781 427.508 455.982
879 0 80.7157 13.0334 1052 113.042 426.175 455.328
880 0 81.5807 13.8145 1127 112.77 426.95 452.147
881 0 85.7509 14.5655 1249 110.961 426.827 447.678
882 0 88.8408 12.6969 1128 113.792 427.23 445.692
883 1 43.5412 9.99053 435 112.584 424.793 468.313
884 0 43.3751 10.1902 442 111.292 423.713 465.934
885 0 49.5224 10.2378 507 108.442 424.464 464.899
886 0 45.0487 9.87819 445 104.16 428.834 460.474
887 0 46.0666 12.3517 569 101.738 429.155 463.018
888 0 52.1845 13.6631 713 96.683 427.986 461.62
889 0 52.2727 12.033 629 105.122 429.992 460.377
890 0 53.1029 13.0501 693 102.768 429.303 462.268
891 0 55.1738 10.4579 577 105.932 429.924 460.466
892 0 55.1185 12.6092 695 103.317 430.519 458.04
893 0 59.1704 12.8612 761 104.593 431.004 456.649
894 0 59.0603 9.66809 571 109.371 432.869 458.835
895 0 61.0455 7.79747 476 111.92 432.176 457.29
896 0 67.0543 13.1834 884 104.643 432.135 454.41
897 0 70.1703 10.3035 723 109.118 432.88 455.42
898 0 68.1226 12.4335 847 107.063 433.299 456.656
899 0 72.1603 10.5321 760 109.993 433.343 454.025
900 0 76.2288 14.9943 1143 102.616 433.968 457.561
901 0 77.1763 11.843 914 109.216 434.254 451.362
902 0 81.157 11.1143 902 110.636 434.983 454.141
903 0 83.3103 12.3394 1028 109.524 434.531 451.02
904 0 86.1992 10.5685 911 112.506 435.312 453.216
905 0 89.1817 13.0969 1168 109.42 433.951 453.571
906 1 47.2587 10.4319 493 107.233 434.412 473.477
907 0 45.1921 11.3515 513 108.431 434.326 473.345
908 0 46.0779 8.48563 391 114.064 433.734 470.834
909 0 50.1365 14.1613 710 105.983 435.039 476.23
910 0 53.0751 12.9062 685 108.058 433.726 473.053
911 0 53.1133 14.4785 769 106.611 433.394 474.31
912 0 55.1913 13.4079 740 107.489 431.895 471.612
913 0 54.0624 10.6729 577 111.248 432.4 470.414
914 0 57.044 10.0449 573 112.558 431.925 469.15
915 0 60.1367 12.0725 726 107.712 430.379 472.066
916 0 62.27 11.6428 725 109.112 430.484 468.141
917 0 65.1149 14.1289 920 105.555 429.101 467.812
918 0 65.2124 12.559 819 107.888 427.354 467.166
919 0 74.1076 17.4206 1291 101 427.782 466.64
920 0 69.1254 12.094 836 108.971 427.633 467.555
921 0 72.0705 10.6701 769 111.32 428.124 460.776
922 0 76.2323 10.9402 834 111.135 428.344 460.168
923 0 82.192 15.6463 1286 105.265 427.307 453.901
924 0 82.3844 13.0364 1074 108.033 427.241 456.614
925 0 83.2279 12.0392 1002 111.41 426.955 453.131
926 0 86.118 11.3449 977 112.608 427.002 451.224
927 0 91.2172 12.9471 1181 109.954 426.936 449.98
928 0 92.1091 13.1692 1213 111.473 426.83 444.218
929 1 51.0496 9.36344 478 103.902 425.732 470.027
930 0 48.1898 10.3341 498 104.363 425.157 471.221
931 0 50.3048 11.6291 585 106.239 426.207 461.019
932 0 50.1133 10.5162 527 107.643 426.406 464.406
933 0 53.2142 11.1624 594 106.508 427.291 461.38
934 0 55.0705 13.855 763 103.163 426.97 461.127
935 0 55.0898 12.0349 663 105.566 428.775 459.107
936 0 59.2039 14.5767 863 101.034 428.623 462.496
937 0 60.0695 12.8684 773 104.072 429.367 458.282
938 0 62.0999 10.6764 663 107.038 430.232 458.373
939 0 66.2839 11.5111 763 103.885 431.022 460.267
940 0 65.0683 11.8644 772 106.271 430.613 454.903
941 0 67.396 9.85222 664 106.456 430.057 460.971
942 0 69.2829 8.24157 571 110.87 431.116 451.72
943 0 73.3838 13.0138 955 103.325 431.391 459.972
944 0 71.6127 12.3721 886 105.88 431.735 458.059
945 0 80.7244 14.9149 1204 101.786 432.159 458.17
946 0 83.7356 11.4647 960 105.46 432.832 457.004
947 0 84.7279 14.281 1210 104.436 432.664 449.569
948 0 86.711 10.9444 949 111.287 433.548 449.188
949 0 89.8253 11.2886 1014 110.954 433.657 450.902
950 0 94.7101 12.8286 1215 107.198 433.494 454.746
951 1 51.3693 9.6945 498 105.313 432.962 473.962
952 0 53.394 13.4472 718 102.708 433.253 472.471
953 0 56.116 11.9217 669 109.747 433.584 475.671
954 0 57.1117 14.4979 828 106.21 433.335 473.452
955 0 60.3299 15.6307 943 102.811 433.007 476.95
956 0 61.4147 12.2446 752 108.961 432.465 473.666
957 0 62.2442 13.3185 829 106.855 432.591 474.531
958 0 65.2177 15.4713 1009 103.594 431.327 475.799
959 0 64.1546 15.1509 972 105.46 431.461 472.726
960 0 68.0619 15.4565 1052 104.386 429.613 472.302
961 0 71.2578 16.6719 1188 101.185 429.45 474.598
962 0 71.2265 14.8821 1060 105.61 428.782 468.563
963 0 74.2152 11.8035 876 110.248 429.317 468.87
964 0 75.1839 12.4362 935 109.588 427.39 462.976
965 0 78.207 13.9629 1092 107.4 427.273 462.668
966 0 81.3217 11.4975 935 111.463 428.497 462.48
967 0 83.1695 14.5125 1207 107.929 426.892 457.384
968 1 43.0197 12.7848 550 112.167 427.856 474.2
969 0 48.1228 12.6759 610 110.618 428.418 472.29
970 0 50.1114 12.6518 634 109.893 427.803 471.147
971 0 51.1649 13.1145 671 109.124 427.732 470.291
972 0 53.054 13.081 694 112.099 427.821 469.526
973 0 55.1713 11.564 638 115.837 429.047 467.817
974 0 55.0832 12.1089 667 117.225 428.799 466.487
975 0 57.1958 14.3542 821 112.242 428.603 465.889
976 0 62.2425 21.1592 1317 100.885 427.319 463.097
977 0 60.1172 13.0079 782 112.754 428.903 461.407
978 0 64.1583 15.4618 992 108.249 428.749 461.977
979 0 63.2118 15.1238 956 108.629 429.759 461.627
980 0 68.2547 20.8191 1421 100.239 429.74 459.703
981 0 65.1451 13.7232 894 112.409 432.221 459.11
982 0 71.1782 14.2319 1013 110.926 430.99 456.825
983 0 72.136 14.8886 1074 109.832 432.647 457.447
984 0 75.1276 13.8165 1038 110.603 433.368 459.597
985 0 79.3234 12.884 1022 110.974 434.206 460.639
986 0 81.1941 12.9073 1048 111.229 434.162 458.173
987 1 45.2369 12.313 557 113.144 435.382 471.007
988 0 44.405 12.431 552 108.641 435.293 469.141
989 0 44.4942 12.3162 548 107.31 435.814 470.215
990 0 47.1192 11.6301 548 106.1 436.761 471.823
991 0 47.0725 13.0862 616 109.95 435.255 473.744
992 0 52.099 13.7047 714 108.636 435.419 474.113
993 0 52.1955 15.4419 806 103.624 434.99 475.216
994 0 53.1129 11.6356 618 109.338 435.18 473.298
995 0 53.2045 13.6455 726 112.145 434.795 474.975
996 0 57.0362 14.6924 838 105.32 433.397 474.166
997 0 58.1711 14.0276 816 108.64 434.233 473.197
998 0 62.2598 16.0457 999 103.813 433.911 472.711
999 0 61.0752 12.5583 767 114.679 433.631 471.754
1000 0 64.2538 14.2715 917 113.683 432.329 469.561
1001 0 68.2169 15.1429 1033 111.881 430.567 470.188
1002 0 68.2258 12.1948 832 119.459 430.966 469.818
1003 0 72.1371 16.2607 1173 112.217 429.193 466.072
1004 0 71.1847 11.0276 785 121.343 428.575 467.617
1005 0 73.2993 13.9428 1022 113.996 429.112 461.016
1006 0 79.2508 13.8548 1098 113.016 427.604 462.981
1007 0 81.2792 16.1173 1310 110.289 427.887 459.121
1008 0 84.1693 12.059 1015 116.678 428.116 457.906
1009 1 44.1707 12.7234 562 110.56 428.231 476.593
1010 0 46.2014 16.0385 741 102.837 428.614 474.918
1011 0 46.5454 11.9238 555 110.668 426.551 472.362
1012 0 48.4696 13.4517 652 107.773 425.759 472.695
1013 0 50.2148 13.741 690 111.387 425.301 472.572
1014 0 51.4591 14.1277 727 112.454 425.305 469.997
1015 0 53.2482 12.0192 640 111.67 426.117 469.834
1016 0 53.1137 12.8592 683 110.581 425.82 467.018
1017 0 54.1029 15.0639 815 107.033 424.275 460.169
1018 0 55.0856 12.5623 692 111.04 424.89 460.416
1019 0 58.1427 13.6733 795 109.782 424.952 457.691
1020 0 59.0586 14.3586 848 108.848 425.34 456.83
1021 0 62.2868 16.2635 1013 105.796 426.763 455.171
1022 0 62.0735 13.0168 808 110.332 426.762 454.63
1023 0 65.1264 10.4259 679 115.277 427.464 450.383
1024 0 65.1741 13.9933 912 105.161 430.001 457.901
1025 0 69.2413 13.0847 906 107.747 429.776 453.874
1026 0 73.1703 15.2248 1114 103.169 431.2 456.724
1027 0 75.2193 11.1009 835 110.224 433.256 450.98
1028 0 78.0598 14.4505 1128 104.577 433.192 455.223
1029 0 78.1365 14.769 1154 105.725 435.016 450.969
1030 0 83.22 15.9577 1328 104.098 435.54 449.783
1031 0 85.1648 14.2547 1214 107.306 435.363 445.61
1032 0 88.1499 16.9257 1492 104.072 435.239 446.159
1033 0 91.1387 18.9601 1728 101.645 435.856 445.508
1034 1 43.0807 6.08161 262 110.405 435.034 475.832
1035 0 49.1169 13.5391 665 102.119 434.003 474.239
1036 0 49.1308 12.5787 618 103.269 434.121 473.864
1037 0 50.2208 13.0623 656 101.8 432.587 474.416
1038 0 51.542 13.0379 672 102.51 433.942 472.591
1039 0 54.2035 13.8367 750 101.791 432.457 475.032
1040 0 55.2752 11.6508 644 106.102 432.655 476.57
1041 0 58.347 13.2483 773 104.386 431.793 473.044
1042 0 59.4467 15.1564 901 102.326 432.425 475.215
1043 0 60.1542 14.3298 862 106.184 428.788 477.297
1044 0 64.209 13.0356 837 108.233 428.301 472.842
1045 0 63.1523 12.5886 795 111.966 426.6 473.011
1046 0 67.1593 11.7929 792 111.881 426.831 468.936
1047 0 69.2345 13.2015 914 111.133 427.573 467.252
1048 0 75.2226 16.4844 1240 106.742 426.791 464.949
1049 0 75.2438 12.187 917 112.723 426.321 466.311
1050 0 76.4041 13.9521 1066 111.4 426.443 462.81
1051 0 81.2675 13.1049 1065 112.66 425.064 461.092
1052 0 84.3407 17.6309 1487 105.765 426.015 462.132
1053 0 85.2886 16.3328 1393 109.174 425.739 458.454
1054 0 89.3467 17.5272 1566 108.319 425.391 458.219
1055 0 90.3269 16.4735 1488 110.75 425.862 456.958
1056 1 46.164 13.1921 609 112.026 426.319 478.525
1057 0 49.305 13.3252 657 112.629 425.974 475.511
1058 0 51.2419 20.9594 1074 101.932 425.682 473.567
1059 0 52.5755 16.8329 885 111.904 426.124 469.773
1060 0 55.4883 16.7242 928 111.528 427.32 472.749
1061 0 56.0452 15.2198 853 115.171 428.968 471.531
1062 0 58.2271 17.5863 1024 111.115 428.348 470.128
1063 0 61.1157 18.015 1101 109.493 428.645 467.362
1064 0 59.1055 15.9038 940 113.635 428.99 465.35
1065 0 59.2007 13.9694 827 116.612 429.889 468.133
1066 0 64.105 17.331 1111 110.796 430.127 463.456
1067 0 68.2059 16.8167 1147 110.18 431.908 464.551
1068 0 68.1174 16.5743 1129 112.805 432.266 460.663
1069 0 72.1911 14.0599 1015 115.311 432.228 462.49
1070 0 71.1822 13.9361 992 117.393 433.141 460.15
1071 0 74.0978 16.5187 1224 113.595 432.69 457.839
1072 0 77.051 16.4956 1271 112.576 433.021 460.151
1073 0 78.1053 13.6482 1066 118.658 434.849 459.094
1074 0 85.1143 19.6324 1671 108.206 433.634 453.756
1075 0 83.4206 15.4039 1285 115.51 435.046 457.304
1076 0 83.4206 15.32 1278 153.445 436.025 457.351
1077 0 89.177 14.2974 1275 116.166 433.43 458.327
1078 0 95.1366 16.1242 1534 113.253 434.212 451.042
1079 1 48.155 14.8686 716 116.249 433.687 477.796
1080 0 50.194 18.9864 953 110.271 433.382 473.065
1081 0 53.0914 14.541 772 116.754 429.949 475.435
1082 0 54.1014 15.2307 824 115.597 431.783 475.447
1083 0 56.0999 14.9555 839 116.573 429.632 474.864
1084 0 60.19 16.0492 966 114.136 430.223 474.378
1085 0 61.0951 16.4989 1008 113.521 429.259 470.698
1086 0 63.1124 17.9363 1132 111.004 428.722 472.543
1087 0 66.1327 14.6372 968 116.186 427.591 472.076
1088 0 69.1624 17.6975 1224 111.822 428.278 467.81
1089 0 69.1902 20.7544 1436 105.675 426.786 474.233
1090 0 74.209 16.1436 1198 113.852 426.379 467.845
1091 0 77.1793 16.0017 1235 113.457 425.177 467.85
1092 0 79.1199 18.7311 1482 108.763 424.6 466.777
1093 0 81.2954 20.0626 1631 108.109 424.884 460.223
1094 0 83.2335 13.9367 1160 117.716 424.958 462.223
1095 0 85.2761 17.0505 1454 113.471 425.043 459.944
1096 1 45.0883 12.9745 585 118.868 425.515 477.068
1097 0 47.0954 14.2264 670 117.504 424.093 476.264
1098 0 48.1689 15.7155 757 113 424.396 478.732
1099 0 48.3559 15.2412 737 111.996 425.704 474.583
1100 0 50.1206 14.4851 726 113.084 426.415 475.493
1101 0 52.2309 16.5994 867 108.679 426.653 471.385
1102 0 53.3526 15.182 810 110.6 427.168 469.874
1103 0 55.272 12.8637 711 113.423 426.646 468.336
1104 0 58.3659 16.2766 950 110.449 425.396 463.743
1105 0 60.5853 15.8289 959 110.702 426.187 458.44
1106 0 63.3661 15.8129 1002 111.555 426.38 459.874
1107 0 66.3413 17.3798 1153 108.931 427.672 457.379
1108 0 69.3732 16.1446 1120 110.311 426.923 454.221
1109 0 72.7534 21.8271 1588 103.027 427.753 454.764
1110 0 71.5533 12.3405 883 118.08 429.203 451.137
1111 0 76.569 15.3326 1174 112.59 429.826 450.084
1112 0 80.6439 17.4719 1409 109.493 429.038 453.148
1113 0 77.5129 12.8624 997 118.156 430.624 450.082
1114 0 83.4554 13.8397 1155 116.292 430.352 447.829
1115 1 43.6485 12.4403 543 117.53 431.777 467.313
1116 0 46.4779 16.3949 762 112.622 431.005 465.835
1117 0 45.4248 12.24 556 119.423 432.13 465.626
1118 0 49.3704 15.1913 750 110.66 431.545 466.372
1119 0 50.2338 16.7815 843 108.88 431.709 466.103
1120 0 53.5064 13.3442 714 114.062 431.808 463.482
1121 0 55.2447 15.1327 836 109.758 430.757 467.78
1122 0 59.3718 16.0009 950 108.662 431.198 467.066
1123 0 61.4159 14.1494 869 111.133 431.048 467.231
1124 0 60.2428 15.1719 914 110.464 430.393 468.621
1125 0 63.2888 14.663 928 111.365 430.053 469.281
1126 0 64.911 16.3455 1061 110.418 430.132 465.237
1127 0 68.4566 18.7418 1283 107.654 428.721 464.951
1128 0 70.5847 16.845 1189 110.903 430.292 461.304
1129 0 71.3599 18.4137 1314 108.571 427.535 467.386
1130 0 75.584 14.5666 1101 116.286 426.809 462.868
1131 0 76.4276 14.4843 1107 115.014 425.713 461.162
1132 0 78.5689 16.4569 1293 111.695 426.196 463.894
1133 0 84.4267 20.2661 1711 106.27 424.772 458.591
1134 0 85.2697 16.9931 1449 111.641 425.324 460.95
1135 0 83.2314 15.6311 1301 115.592 423.467 459.266
1136 0 83.4073 13.7398 1146 118.71 424.227 459.24
1137 0 90.3299 14.0485 1269 117.26 423.057 457.908
1138 0 92.3037 16.0557 1482 113.634 422.02 454.682
1139 0 91.5183 15.4505 1414 117.202 422.338 450.254
1140 0 101.478 22.4383 2277 103.854 422.005 455.055
1141 0 100.36 14.3084 1436 118.808 421.939 445.772
1142 0 105.633 12.4961 1320 120.582 422.776 449.067
1143 0 107.385 14.5924 1567 119.008 422.405 444.71
1144 0 113.394 15.0538 1707 117.516 422.387 444.695
1145 0 114.347 14.2723 1632 121.456 423.272 435.611
1146 0 119.429 15.5406 1856 118.134 423.884 435.647
1147 0 128.659 15.5294 1998 117.937 423.773 430.802
1148 1 68.1427 10.8449 739 116.797 424.176 460.595
1149 0 69.2685 11.3616 787 117.471 424.496 456.634
1150 0 72.3944 11.4512 829 120.538 426.27 447.174
1151 0 75.2326 16.562 1246 109.677 426.153 448.309
1152 0 79.49 15.8007 1256 109.968 426.479 451.112
1153 0 82.3255 13.5681 1117 113.211 428.863 449.105
1154 0 83.2885 14.4078 1200 113.941 428.127 442.731
1155 0 88.3479 15.7333 1390 111.116 429.014 445.331
1156 0 87.1913 13.2467 1155 116.693 429.342 440.075
1157 0 93.6262 14.387 1347 113.834 428.872 446.177
1158 0 96.4329 15.6482 1509 115.655 430.512 442.107
1159 0 98.5205 13.6418 1344 118.012 430.143 441.002
1160 0 102.271 14.882 1522 115.107 431.934 435.984
1161 0 105.219 13.6572 1437 117.168 430.614 439.972
1162 0 107.21 11.4355 1226 121.313 432.224 435.849
1163 0 110.24 13.915 1534 118.903 430.416 437.027
1164 0 117.148 15.3908 1803 116.191 431.784 435.898
1165 0 118.337 11.6447 1378 123.662 430.845 431.5
1166 1 65.1379 11.0074 717 114.628 429.272 465.971
1167 0 67.143 15.0127 1008 110.079 431.38 459.503
1168 0 71.3605 13.691 977 106.709 431.324 467.504
1169 0 69.2309 10.0533 696 112.667 431.059 463.356
1170 0 74.1004 13.0364 966 108.482 431.058 466.031
1171 0 77.1493 6.72722 519 118.46 429.108 454.667
1172 0 81.1501 10.2403 831 111.495 430.868 466.203
1173 0 84.3063 12.846 1083 110.187 430.678 459.853
1174 0 83.3437 8.92689 744 114.726 429.825 462.847
1175 0 84.306 8.9792 757 116.218 428.819 453.708
1176 0 89.2983 11.9823 1070 111.771 427.334 455.277
1177 0 93.2114 13.0242 1214 109.914 426.981 454.945
1178 0 95.3583 16.9466 1616 104.302 425.972 455.627
1179 0 96.1356 11.7334 1128 113.965 426.444 445.998
1180 0 105.361 16.7045 1760 105.12 425.434 446.112
1181 0 108.239 18.2928 1980 102.106 424.969 446.147
1182 0 110.654 15.4264 1707 111.149 423.657 440.724
1183 0 110.654 15.327 1696 122.222 422.664 440.548
1184 1 59.3178 9.72726 577 108.14 423.537 468.955
1185 0 60.218 13.3349 803 103.335 423.64 460.633
1186 0 62.5788 13.471 843 102.159 423.578 461.287
1187 0 68.3252 12.7771 873 100.465 423.281 462.569
1188 0 67.1793 12.8016 860 102.462 423.85 457.073
1189 0 70.2301 9.07019 637 106.532 424.777 458.188
1190 0 71.3282 11.7485 838 103.784 424.708 450.467
1191 0 76.4694 12.6717 969 102.646 424.633 451.527
1192 0 78.4913 13.0206 1022 103.114 425.835 454.249
1193 0 79.3896 11.6262 923 107.07 426.957 446.426
1194 0 80.2614 12.3721 993 106.526 426.37 444.114
1195 0 83.4296 9.54098 796 114.956 427.492 441.868
1196 0 88.3627 10.2079 902 113.763 427.273 437.802
1197 0 91.7359 10.7046 982 112.557 428.419 440.37
1198 0 94.4061 11.62 1097 108.749 428.868 438.024
1199 0 101.86 13.5578 1381 109.148 428.428 438.031
1200 1 55.4215 14.5792 808 102.723 428.073 464.462
1201 0 55.3729 15.1699 840 101.888 427.196 464.94
1202 0 54.241 11.9098 646 108.985 427.577 461.591
1203 0 55.279 8.71941 482 113.795 427.732 459.71
1204 0 63.5003 12.3621 785 107.53 428.515 463.001
1205 0 62.2165 11.4118 710 110.589 429.114 459.862
1206 0 64.1064 14.4291 925 106.4 429.077 461.245
1207 0 67.434 14.4734 976 103.414 432.569 463.175
1208 0 68.2952 9.75179 666 107.629 432.21 469.498
1209 0 70.3188 12.7989 900 106.784 432.019 462.564
1210 0 71.353 9.67023 690 109.358 431.203 468.554
1211 0 77.4123 12.7628 988 105.28 431.301 466.445
1212 0 79.528 11.4928 914 108.186 430.603 463.691
1213 0 78.2873 14.8939 1166 104.944 429.436 460.998
1214 0 83.417 12.0359 1004 109.248 427.86 458.734
1215 0 84.3225 11.7406 990 109.599 428.566 460.582
1216 0 88.4224 11.2528 995 109.907 427.478 460.521
1217 0 90.5274 10.5162 952 112.173 427.207 456.529
1218 0 89.511 10.2892 921 113.155 427.159 456.144
1219 0 92.3865 11.6467 1076 110.845 426.817 458.416
1220 0 100.614 15.5346 1563 104.412 426.317 455.204
1221 0 100.513 10.516 1057 112.253 425.295 450.371
1222 1 158.127 14.7224 2328 110.635 424.245 426.806
1223 1 54.201 11.8079 640 114.961 423.878 476.945
1224 0 54.0676 8.71132 471 111.989 422.367 468.359
1225 0 59.2547 11.4928 681 104.382 425.41 473.767
1226 0 62.3411 12.4477 776 104.731 424.472 473.537
1227 0 62.1358 10.0747 626 108.776 425.583 472.422
1228 0 64.1066 12.5416 804 107.738 424.796 468.29
1229 0 63.3206 8.7965 557 110.621 424.307 467.808
1230 0 70.4825 14.1595 998 102.427 424.62 468.377
1231 0 72.4153 12.3454 894 106.233 424.938 464.773
1232 0 74.2156 17.4087 1292 100.015 425.156 463.413
1233 0 76.3825 17.7658 1357 100.132 424.283 452.845
1234 0 77.371 12.1105 937 107.499 425.188 457.896
1235 0 80.474 16.5395 1331 102.281 425.303 451.512
1236 0 80.2055 11.2461 902 109.202 427.741 455.357
1237 0 86.4469 13.4649 1164 106.277 426.785 454.245
1238 0 94.8274 13.4771 1278 106.753 428.094 453.562
1239 0 93.6332 16.7035 1564 103.574 427.568 452.847
1240 0 93.4219 9.69794 906 115.361 428.221 448.291
1241 1 45.0696 11.2715 508 107.24 430.856 473.102
1242 0 46.4969 7.82847 364 112.44 430.56 470.876
1243 0 53.8468 13.167 709 106.465 430.501 467.698
1244 0 53.5266 14.4601 774 102.974 432.518 472.89
1245 0 52.0917 10.7311 559 112.741 432.794 470.46
1246 0 56.3349 12.0529 679 111.393 433.191 468.443
1247 0 54.296 10.9032 592 113.603 433.897 470.321
1248 0 59.1336 11.7361 694 111.872 434.039 468.878
1249 0 60.0642 11.5376 693 112.773 434.317 471.475
1250 0 61.3543 10.6757 655 112.664 433.583 472.47
1251 0 66.2059 13.307 881 109.733 434.364 471.486
1252 0 67.1771 11.8344 795 110.494 433.304 474.482
1253 0 68.1845 12.0262 820 111.074 433.611 470.627
1254 0 68.1915 11.937 814 117.228 434.62 470.697
1255 0 74.1156 12.3051 912 110.865 432.77 469.566
1256 0 76.3017 11.0745 845 112.955 431.582 469.434
1257 0 76.3188 8.58243 655 117.766 430.052 465.008
1258 0 82.324 10.8352 892 113.51 430.27 463.638
1259 0 85.3292 12.3287 1052 112.215 429.652 460.139
1260 0 90.278 16.9255 1528 105.884 428.74 463.643
1261 1 48.1958 12.2417 590 107.844 427.942 480.588
1262 0 50.1689 13.1356 659 105.105 426.308 482.631
1263 0 53.5971 13.4709 722 104.788 425.979 480.389
1264 0 53.659 12.7844 686 106.894 425.555 475.214
1265 0 55.4356 14.4492 801 104.154 426.197 476.157
1266 0 56.5092 12.8475 726 106.621 425.296 477.461
1267 0 58.7275 11.5448 678 107.97 424.646 474.767
1268 0 61.5599 10.8837 670 108.918 425.137 475.015
1269 0 64.3328 12.653 814 105.693 423.698 471.071
1270 0 63.3108 15.2581 966 103.601 422.974 468.044
1271 0 67.2413 16.7903 1129 100.908 423.209 464.529
1272 0 70.3173 15.5296 1092 102.534 425.606 463.535
1273 0 70.3455 14.5852 1026 104.054 425.592 464.437
1274 0 69.2694 17.2659 1196 101.484 425.625 457.793
1275 0 73.4538 12.8244 942 105.95 425.011 456.574
1276 0 78.4477 17.0687 1339 99.531 425.21 455.515
1277 0 78.3424 11.5646 906 106.788 424.816 454.342
1278 0 82.6402 13.3349 1102 103.868 426.555 453.07
1279 0 89.7015 17.9819 1613 97.5592 426.66 454.145
1280 0 87.4021 18.3749 1606 99.401 426.331 442.54
1281 0 88.6036 12.3584 1095 107.553 427.252 442.853
1282 0 91.7442 11.1397 1022 110.785 428.194 443.454
1283 0 96.3065 11.8995 1146 110.063 428.882 438.313
1284 1 49.2607 9.84557 485 106.718 429.367 463.878
1285 0 53.2325 9.41154 501 107.986 430.547 460.768
1286 0 57.2296 15.132 866 100.202 430.742 461.776
1287 0 55.3054 12.6751 701 105.963 429.8 465.448
1288 0 58.2744 13.6595 796 106.686 430.315 464.741
1289 0 59.0518 9.88962 584 113.688 430.166 457.195
1290 0 55.2824 10.1479 561 114.175 428.84 461.822
1291 0 60.1974 11.1799 673 110.623 429.611 460.495
1292 0 64.2385 11.4884 738 108.172 429.961 463.358
1293 0 63.1655 11.6994 739 112.342 429.848 457.824
1294 0 73.2801 11.6948 857 109.282 429.909 462.155
1295 0 71.1854 13.0223 927 105.792 430.997 461.794
1296 0 76.5584 11.6904 895 107.144 431.159 460.92
1297 0 79.2186 12.7622 1011 103.877 431.236 469.098
1298 0 82.4151 7.5957 626 110.136 432.324 470.326
1299 0 85.4179 10.232 874 109.781 430.997 458.51
1300 0 88.3916 11.8224 1045 107.551 429.358 462.471
1301 0 89.3326 6.71647 600 115.278 430.323 455.007
1302 1 46.0736 10.7437 495 103.204 429.846 483.238
1303 0 46.0449 8.75233 403 107.749 428.613 475.457
1304 0 52.2482 11.809 617 104.261 425.348 474.883
1305 0 53.0924 12.1675 646 101.791 427.211 477.579
1306 0 52.0351 11.6844 608 102.717 427.281 476.77
1307 0 53.0658 9.93106 527 107.632 426.926 470.512
1308 0 58.2006 10.5497 614 106.526 421.686 467.577
1309 0 60.3412 12.4127 749 104.495 422.649 467.075
1310 0 61.308 10.488 643 107.173 422.821 464.552
1311 0 63.4995 10.7245 681 106.423 422.949 465.899
1312 0 65.2025 12.5302 817 107.157 422.989 461.771
1313 0 69.59 10.9642 763 106.511 421.887 461.683
1314 0 71.2389 13.1529 937 105.208 422.45 462.177
1315 0 69.0795 10.307 712 111.02 420.282 454.65
1316 0 73.368 9.78628 718 111.914 423.146 452.11
1317 0 77.2702 12.6439 977 107.555 422.541 452.809
1318 0 79.3366 10.3609 822 110.012 422.899 454.201
1319 0 82.2953 12.9655 1067 108.458 424.048 446.492
1320 0 85.264 13.2999 1134 107.123 424.335 449.985
1321 0 87.2076 11.249 981 109.293 425.73 443.201
1322 0 89.5895 15.3478 1375 104.549 427.047 437.404
1323 0 96.3662 14.8807 1434 103.777 427.352 440.406
1324 1 51.1475 9.8734 505 107.378 428.806 458.929
1325 0 56.1461 14.7651 829 102.043 427.442 459.896
1326 0 49.2901 10.6106 523 111.975 426.746 453.373
1327 0 58.3381 12.6333 737 104.417 429.706 457.915
1328 0 58.3381 12.5475 732 132.111 431.712 457.888
1329 0 57.475 9.81296 564 109.076 430.936 463.037
1330 0 61.3821 7.54292 463 112.624 430.942 461.536
1331 0 65.3848 9.0388 591 108.545 430.677 463.882
1332 0 65.5402 11.6722 765 106.961 431.773 462.2
1333 0 66.4034 10.9633 728 109.088 431.247 460.598
1334 0 70.3924 11.1802 787 109.266 432.7 460.062
1335 0 70.3949 10.9809 773 110.582 431.19 458.699
1336 0 74.5496 9.18852 685 113.004 431.333 460.209
1337 0 75.4246 10.9778 828 111.033 430.787 461.126
1338 0 79.3416 11.6584 925 110.106 429.169 457.043
1339 0 80.551 11.1234 896 111.533 430.249 458.271
1340 0 86.2851 11.9951 1035 108.777 429.823 460.311
1341 0 85.2106 11.6769 995 111.291 429.71 455.88
1342 0 86.3648 13.2461 1144 109.385 430.021 454.521
1343 0 89.2165 13.1814 1176 108.872 428.534 448.088
1344 0 91.2428 14.8724 1357 103.032 428.334 463.539
1345 0 96.1499 10.4004 1000 111.834 425.841 458.7
1346 0 100.397 10.9466 1099 112.404 427.24 449.769
1347 1 52.2582 9.01295 471 112.234 425.813 472.569
1348 0 54.2332 11.9115 646 112.941 424.197 466.5
1349 0 56.3212 12.1801 686 106.523 426.396 472.671
1350 0 59.3027 14.856 881 102.393 425.745 469.103
1351 0 61.3182 15.1179 927 102.717 425.145 464.891
1352 0 65.2775 13.6954 894 105.414 424.452 464.954
1353 0 64.1748 11.4219 733 109.87 424.533 461.752
1354 0 66.1876 12.9329 856 108.028 424.217 460.834
1355 0 71.2891 12.0495 859 107.32 424.804 464.068
1356 0 73.1514 13.8753 1015 105.718 423.863 459.405
1357 0 77.2561 17.5779 1358 101.229 423.906 460.269
1358 0 76.2666 14.0428 1071 107.462 423.583 453.747
1359 0 79.215 14.7952 1172 107.337 423.87 451.673
1360 0 79.3092 12.8484 1019 111.66 424.69 451.291
1361 0 84.2912 14.7228 1241 107.754 424.746 450.707
1362 0 86.2197 13.5584 1169 111.145 424.449 444.342
1363 0 87.1264 15.598 1359 109.064 425.982 443.597
1364 0 92.2551 18.2971 1688 105.639 425.527 440.457
1365 0 97.1286 14.4757 1406 110.034 427.285 439.12
1366 1 51.0444 11.7741 601 108.24 426.842 464.782
1367 0 52.1006 14.5296 757 105.555 426.11 464.871
1368 0 54.21 12.3962 672 109.39 427.372 459.752
1369 0 54.2091 11.677 633 115.765 427.284 460.684
1370 0 59.1704 13.9259 824 106.45 429.188 464.343
1371 0 60.1352 17.0449 1025 102.641 428.63 462.978
1372 0 63.0897 12.0305 759 110.709 429.975 458.021
1373 0 64.0766 9.81638 629 113.529 429.297 456.146
1374 0 66.1081 14.1586 936 107.166 430.818 457.426
1375 0 69.1419 12.6985 878 108.663 430.042 459.83
1376 0 71.2215 12.5805 896 108.912 431.031 458.09
1377 0 74.173 11.608 861 110.56 429.972 462.25
1378 0 77.344 12.3862 958 108.708 431.095 459.334
1379 0 78.2048 11.5722 905 111.698 429.512 454.096
1380 0 84.3552 14.5812 1230 104.904 431.007 461.735
1381 0 83.2416 12.3856 1031 110.116 430.448 457.619
1382 0 85.2803 12.2303 1043 110.678 430.382 456.277
1383 0 88.3488 11.7715 1040 112.036 429.314 456.862
1384 0 90.3454 13.2049 1193 110.762 430.389 453.061
1385 0 93.2699 14.9995 1399 107.688 428.801 456.714
1386 0 96.4455 11.3225 1092 113.005 428.597 455.18
1387 0 102.302 15.2784 1563 106.802 427.509 453.144
1388 0 103.294 16.1384 1667 106.515 426.934 451.265
1389 0 106.212 13.8215 1468 110.417 427.256 447.098
1390 0 108.302 13.8964 1505 109.58 426.653 450.986
1391 0 113.46 13.1324 1490 110.116 425.693 445.817
1392 0 113.613 14.3821 1634 110.481 425.701 438.101
1393 1 62.3356 13.2188 824 107.26 425.982 465.218
1394 0 63.1802 8.26208 522 116.425 423.527 465.45
1395 0 66.2746 14.4701 959 108.105 424.131 459.807
1396 0 67.1635 12.879 865 106.127 424.32 466.751
1397 0 70.2008 11.2534 790 108.353 423.08 460.471
1398 0 71.3026 9.98561 712 111.944 424.558 455.483
1399 0 77.2356 12.1835 941 108.447 423.355 454.441
1400 0 77.3905 11.5001 890 110.247 422.769 453.384
1401 0 82.1271 13.9783 1148 106.749 422.762 447.979
1402 0 83.1417 13.9882 1163 107.079 423.156 448.877
1403 0 86.2162 11.8075 1018 110.069 423.68 444.066
1404 0 85.1986 9.96496 849 113.526 424.09 438.466
1405 0 88.255 15.3079 1351 106.437 425.293 442.722
1406 0 91.2593 9.04018 825 113.461 426.702 443.852
1407 0 95.2649 11.5887 1104 111.697 427.084 435.349
1408 0 99.0853 10.8896 1079 111.666 427.313 436.602
1409 0 104.186 13.092 1364 108.309 427.566 436.865
1410 1 54.1382 9.99295 541 107.325 427.85 457.152
1411 0 55.1558 8.32188 459 109.085 429.808 458.876
1412 0 58.0924 12.2736 713 104.95 431.335 457.691
1413 0 58.3094 7.5288 439 113.437 429.806 455.734
1414 0 63.0803 13.5383 854 102.663 431.734 459.772
1415 0 63.0963 13.1228 828 102.089 432.293 460.56
1416 0 70.1571 11.4885 806 104.939 431.512 455.768
1417 0 66.1181 10.5115 695 112.2 432.751 454.414
1418 0 69.1191 10.5904 732 112.997 433.109 452.829
1419 0 75.1961 12.9927 977 107.606 433.039 457.13
1420 0 79.2983 16.5956 1316 103.128 433.672 452.849
1421 0 81.1618 12.5428 1018 109.283 433.684 454.107
1422 0 82.1319 10.6414 874 112.68 433.194 456.069
1423 0 88.2212 14.9737 1321 106.544 432.787 453.715
1424 0 80.1613 11.1775 896 111.938 432.273 458.706
1425 0 86.3135 14.0302 1211 109.458 431.456 451.273
1426 0 91.2132 11.95 1090 112.26 432.477 451.432
1427 0 86.1485 10.5632 910 118.303 429.555 448.123
1428 0 97.26 13.0475 1269 112.614 431.556 448.287
1429 1 48.1273 9.22554 444 109.592 428.428 473.757
1430 0 50.1742 11.3206 568 105.674 428.164 475.893
1431 0 54.1213 10.1254 548 106.235 426.432 475.604
1432 0 54.1115 10.0348 543 119.812 426.427 475.619
1433 0 59.2917 12.2614 727 104.823 425.014 473.484
1434 0 59.1627 9.53304 564 105.622 425.743 467.048
1435 0 61.4257 10.4191 640 104.909 425.481 471.297
1436 0 63.2969 11.296 715 105.182 425.162 469.554
1437 0 63.1713 6.34782 401 110.514 424.392 465.703
1438 0 63.1713 6.14203 388 127.51 423.384 465.845
1439 0 70.2281 9.91056 696 106.746 423.963 462.737
1440 0 72.333 9.91248 717 106.986 424.139 467.838
1441 0 71.3085 10.5597 753 108.815 423.781 454.32
1442 0 77.481 10.48 812 108.424 425.015 454.905
1443 0 76.4452 11.5115 880 108.32 423.291 450.618
1444 0 79.493 10.9947 874 108.19 424.843 453.102
1445 0 80.3982 15.6347 1257 103.492 423.518 453.35
1446 0 84.36 11.2139 946 108.773 424.956 449.971
1447 0 88.8563 13.3699 1188 107.143 424.248 441.318
1448 0 91.409 12.7777 1168 108.303 425.185 444.825
1449 0 91.5518 15.1936 1391 105.426 425.029 443.564
1450 1 49.2551 12.4048 611 104.047 426.517 463.363
1451 0 55.1209 9.2161 508 107.537 425.921 463.333
1452 0 52.2227 12.5999 658 104.743 426.046 458.626
1453 0 54.133 12.4693 675 103.446 426.376 463.818
1454 0 57.1014 11.8211 675 105.944 426.754 459.807
1455 0 61.2057 14.7699 904 101.939 427.664 460.095
1456 0 60.1414 11.9884 721 107.201 428.519 460.344
1457 0 62.2881 16.2952 1015 101.356 428.82 462.653
1458 0 64.2957 11.8982 765 108.578 429.643 459.312
1459 0 62.1232 10.8172 672 116.103 432.502 456.512
1460 0 69.108 12.3575 854 112.653 432.711 457.54
1461 0 72.1906 13.7968 996 109.953 433.155 454.764
1462 0 72.1958 9.79281 707 115.134 433.209 461.553
1463 0 72.4981 10.8003 783 114.816 431.637 458.437
1464 0 80.3327 14.2283 1143 108.926 431.615 457.555
1465 0 79.2137 12.2454 970 112.46 430.724 457.758
1466 0 79.5904 13.0166 1036 111.941 430.52 454.931
1467 0 86.4749 11.4137 987 113.911 431.089 454.833
1468 1 48.3934 10.3527 501 106.006 430.631 480.369
1469 0 47.1264 12.2437 577 108.083 431.388 480.938
1470 0 48.3288 12.0839 584 109.051 431.12 481.166
1471 0 51.3393 10.1092 519 106.106 429.412 478.418
1472 0 51.3632 12.0125 617 110.58 427.489 479.006
1473 0 51.2849 12.9668 665 109.812 427.011 478.389
1474 0 54.4997 11.4313 623 110.308 427.152 481.209
1475 0 58.533 13.6333 798 107.034 426.551 476.45
1476 0 52.4717 10.3675 544 113.776 426.938 477.509
1477 0 60.3143 15.1374 913 105.502 425.168 477.026
1478 0 61.4111 14.3948 884 106.326 424.691 474.208
1479 0 65.4349 14.182 928 105.841 424.31 468.822
1480 0 63.4283 11.4618 727 111.662 423.199 469.367
1481 0 64.2103 9.07954 583 113.978 423.739 469.007
1482 0 70.287 10.699 752 110.618 423.432 463.068
1483 0 74.5202 14.4793 1079 104.485 422.934 462.798
1484 0 76.3359 15.7593 1203 103.556 422.963 460.002
1485 0 76.2731 13.6614 1042 105.971 423.508 461.642
1486 0 79.2615 11.6955 927 108.673 423.773 459.306
1487 0 83.4603 14.3062 1194 105.852 424.27 452.963
1488 0 84.217 14.1895 1195 105.439 424.89 456.315
1489 0 86.1952 10.9867 947 111.26 425.264 450.629
1490 0 91.2176 14.9971 1368 105.874 425.738 450.889
1491 0 92.3529 14.1089 1303 108.039 425.566 444.973
1492 1 49.3964 11.8632 586 107.742 427.273 471.094
1493 0 54.1802 15.3008 829 102.08 427.947 465.741
1494 0 51.2589 9.16914 470 109.189 427.755 468.128
1495 0 50.0638 10.5665 529 112.085 426.038 464.529
1496 0 52.2256 12.3503 645 111.893 426.954 459.324
1497 0 53.0803 10.6631 566 113.571 426.61 460.754
1498 0 55.1286 11.9539 659 113.897 426.768 460.731
1499 0 58.235 12.3981 722 113.431 426.277 460.587
1500 0 57.156 10.0252 573 117.061 428.703 462.414
1501 0 61.131 11.4508 700 115.564 428.401 458.349
1502 0 62.3475 13.7616 858 112.879 429.036 458.121
1503 0 66.2936 9.11099 604 118.583 429.457 464.783
1504 0 70.2543 12.3836 870 115.14 430.338 460.291
1505 0 71.2526 12.7013 905 115.589 430.355 460.28
1506 0 71.3275 12.8141 914 117.092 430.722 458.325
1507 0 76.2058 12.4794 951 118.006 430.699 458.33
1508 0 80.441 14.3211 1152 114.319 429.404 461.26
1509 0 81.4126 14.3835 1171 115.142 430.842 457.655
1510 0 81.3891 11.6232 946 121.059 429.644 460.452
1511 0 89.387 16.3335 1460 111.648 429.951 464.145
1512 0 88.44 11.2166 992 123.258 429.301 457.289
1513 0 93.3033 12.4433 1161 120.289 428.73 459.52
1514 1 107.661 13.9698 1504 116.144 428.672 459.265
1515 0 105.704 14.9947 1585 114.886 428.837 454.744
1516 0 103.457 14.4794 1498 115.262 427.523 451.229
1517 0 106.572 15.0134 1600 114.456 426.513 449.166
1518 0 111.284 12.1312 1350 117.049 425.636 452.354
1519 0 117.221 22.1888 2601 102.05 425.554 450.112
1520 1 55.1156 10.4689 577 117.378 424.425 470.354
1521 0 60.1453 13.6503 821 111.771 424.354 471.308
1522 0 63.2494 12.6325 799 113.153 423.795 469.936
1523 0 65.177 15.2508 994 109.993 423.275 468.647
1524 0 65.1108 15.2509 993 111.201 422.462 465.184
1525 0 70.1042 12.7952 897 114.512 422.356 465.321
1526 0 67.1132 11.652 782 117.95 421.54 462.613
1527 0 73.0853 14.271 1043 112.573 423.08 460.166
1528 0 74.2368 14.9791 1112 111.75 423.499 458.077
1529 0 74.1361 12.1263 899 118.478 423.156 454.364
1530 0 81.2099 14.1608 1150 113.011 423.337 453.172
1531 0 78.1943 14.7709 1155 112.972 424.169 450.034
1532 0 82.1096 11.7648 966 116.467 423.51 451.71
1533 0 87.1872 9.25595 807 120.706 425.392 441.888
1534 0 89.3101 12.0479 1076 115.672 425.853 446.486
1535 0 94.0866 14.1253 1329 112.678 425.09 441.623
1536 0 97.2848 12.3966 1206 115.468 425.129 439.605
1537 0 100.27 18.3804 1843 106.509 426.597 441.515
1538 0 102.13 13.8843 1418 115.229 427.92 433.879
1539 1 49.1024 13.1155 644 108.303 428.267 461.149
1540 0 51.1198 9.25277 473 113.14 427.106 467.334
1541 0 53.1706 14.1996 755 107.903 428.664 465.906
1542 0 54.0364 11.1036 600 113.77 428.305 463.345
1543 0 57.2416 14.2204 814 109.561 427.843 460.135
1544 0 59.3191 11.1431 661 113.738 430.599 459.171
1545 0 57.3129 9.92796 569 116.65 430.9 459.786
1546 0 57.3129 9.92796 569 135.439 431.9 459.794
1547 0 65.1537 14.7958 964 109.23 431.039 464.929
1548 0 66.216 13.3351 883 112.785 430.958 460.035
1549 0 69.1168 15.2785 1056 110.288 430.76 461.588
1550 0 70.1768 13.7367 964 112.4 429.251 462.946
1551 0 71.2212 15.4729 1102 110.697 430.215 465.149
1552 0 77.2737 13.8857 1073 112.845 429.506 463.97
1553 0 77.1983 12.85 992 115.303 428.501 462.509
1554 0 81.0853 13.3193 1080 114.825 428.961 464.909
1555 0 81.1729 10.5207 854 119.561 428.672 462.448
1556 0 88.1803 12.7466 1124 116.599 428.367 459.355
1557 1 46.065 10.7457 495 114.081 427.39 481.119
1558 0 45.0752 11.7581 530 114.402 425.825 479.091
1559 0 49.267 12.5236 617 112.778 426.961 477.57
1560 0 51.2107 13.8838 711 113.463 423.681 477.937
1561 0 53.1056 13.3696 710 116.779 422.642 473.204
1562 0 57.3437 17.3341 994 107.435 424.126 473.734
1563 0 52.0513 9.06798 472 117.511 423.369 473.076
1564 0 54.051 10.9156 590 114.568 425.514 471.475
1565 0 59.1008 13.0624 772 109.904 425.03 470.122
1566 0 61.1312 12.1378 742 110.495 424.737 465.686
1567 0 66.2687 15.7088 1041 104.837 425.13 465.989
1568 0 66.087 10.8796 719 112.248 425.712 465.075
1569 0 72.1945 13.2282 955 108.205 425.612 461.263
1570 0 72.292 14.1786 1025 106.985 425.457 461.348
1571 0 71.0993 11.1112 790 112.219 423.473 457.37
1572 0 76.122 12.3355 939 114.31 424.244 454.15
1573 0 80.1908 11.9216 956 113.627 424.345 454.811
1574 0 82.2785 12.7494 1049 113.337 424.894 454.333
1575 0 80.0977 11.3861 912 115.215 424.728 454.2
1576 0 87.2204 12.7378 1111 112.444 425.669 450.617
1577 0 89.2461 12.8185 1144 113.272 425.868 447.699
1578 1 52.1976 10.5177 549 107.058 425.942 471.49
1579 0 46.0631 14.3933 663 104.43 426.071 470.127
1580 0 46.1835 9.41895 435 111.77 427.526 467.297
1581 0 49.0185 14.2191 697 105.729 426.55 465.04
1582 0 45.1957 7.69984 348 115.595 427.56 461.586
1583 0 52.1371 11.2588 587 111.075 428.269 460.465
1584 0 54.2334 11.3583 616 110.761 428.846 462.729
1585 0 54.3734 11.7337 638 112.213 429.434 460.647
1586 0 56.2176 14.3372 806 107.861 429.849 461.614
1587 0 58.1576 13.429 781 109.708 429.955 458.969
1588 0 59.2036 14.6444 867 107.256 430.248 460.266
1589 0 63.2105 12.7352 805 109.605 430.74 459.795
1590 0 62.2315 11.2323 699 111.472 430.821 459.112
1591 0 65.2826 10.7686 703 112.077 429.873 456.358
1592 0 69.402 13.4146 931 108.915 430.976 459.037
1593 0 73.1628 13.7502 1006 107.894 431.31 459.216
1594 0 74.1506 14.0929 1045 126.053 432.362 459.927
1595 0 76.3763 15.895 1214 105.779 430.192 462.716
1596 0 80.2086 12.1059 971 111.123 430.763 460.538
1597 0 84.386 12.3599 1043 110.945 430.446 456.8
1598 0 84.3479 8.05 679 116.165 430.493 466.013
1599 1 47.6578 11.2888 538 110.301 428.095 479.076
1600 0 47.2304 11.8779 561 111.045 427.107 475.255
1601 0 49.215 14.0404 691 105.47 427.948 480.949
1602 0 51.1419 18.2238 932 101.227 426.131 479.226
1603 0 49.0537 6.605 324 117.611 424.451 477.096
1604 0 51.3292 9.33191 479 115.338 423.098 474.232
1605 0 55.3718 17.7166 981 101.756 423.604 471.931
1606 0 56.0333 13.0637 732 108.447 422.934 471.803
1607 0 54.1457 6.64872 360 116.283 421.792 472.569
1608 0 60.2251 11.9718 721 110.727 422.594 467.845
1609 0 62.3043 13.6427 850 108.606 422.522 466.941
1610 0 65.0778 14.4135 938 107.248 421.91 467.075
1611 0 67.153 13.9085 934 109.466 421.453 465.075
1612 0 68.3116 12.4869 853 111.749 421.356 462.27
1613 0 71.4354 17.2883 1235 105.712 422.751 456.032
1614 0 72.185 13.4793 973 111.899 420.728 456.447
1615 0 76.4343 12.5598 960 112.77 423.077 453.327
1616 0 80.3948 16.6802 1341 106.864 422.188 452.925
1617 0 80.2837 13.3776 1074 111.799 422.269 450.941
1618 0 83.3133 15.3397 1278 109.502 424.233 448.215
1619 1 46.1853 11.6487 538 108.162 423.517 468.781
1620 0 44.3734 12.4624 553 113.092 423.533 465.689
1621 0 48.2914 10.4159 503 116.547 424.797 462.849
1622 0 48.1437 10.3648 499 116.461 423.431 462.631
1623 0 47.0619 10.5181 495 118.083 424.525 462.923
1624 0 50.2452 13.2749 667 111.048 425.568 463.049
1625 0 53.1317 15.3581 816 108.555 426.301 462.631
1626 0 55.1798 14.2625 787 113.042 426.719 462.335
1627 0 56.1526 12.377 695 115.639 427.282 463.037
1628 0 58.2159 13.9996 815 114.178 428.312 462.707
1629 0 56.1765 11.7309 659 135.476 429.376 460.17
1630 0 62.1738 12.6902 789 115.527 428.594 461.137
1631 0 65.1294 14.5096 945 112.089 429.284 461.253
1632 0 69.2806 15.1702 1051 109.729 429.128 464.655
1633 0 73.5355 16.4138 1207 107.695 430.23 461.112
1634 0 72.2144 14.0138 1012 111.918 430.508 459.466
1635 0 71.321 12.7312 908 116.599 431.57 457.13
1636 0 74.3752 13.6739 1017 114.075 429.833 457.615
1637 0 78.2023 12.57 983 116.123 429.303 462.458
1638 0 83.2878 17.0253 1418 108.405 429.066 461.661
1639 0 85.3247 13.3607 1140 113.281 428.877 460.35
1640 0 90.3794 13.9855 1264 112.782 430.026 454.215
1641 0 94.3506 14.8383 1400 110.761 428.474 454.474
1642 0 97.3406 13.8175 1345 113.508 429.081 452.564
1643 1 54.1513 15.1243 819 106.04 429.452 478.192
1644 0 54.0414 14.6554 792 108.665 427.965 477.765
1645 0 57.2269 15.4123 882 103.9 424.753 477.748
1646 0 58.1741 14.5769 848 105.895 424.389 476.323
1647 0 59.4186 14.0697 836 106.862 425.085 472.221
1648 0 61.3078 13.8318 848 107.966 425.042 471.901
1649 0 62.2924 13.2761 827 112.574 424.204 469.212
1650 0 64.1661 14.3222 919 111.602 424.509 468.493
1651 0 69.1952 11.7783 815 114.148 425.558 467.179
1652 0 70.2261 10.9076 766 115.462 424.965 464.906
1653 0 74.4076 13.547 1008 110.087 424.702 462.603
1654 0 78.1804 13.2258 1034 111.468 424.751 460.73
1655 0 82.1607 15.7375 1293 107.5 424.639 453.949
1656 0 85.1672 13.2798 1131 110.943 423.458 451.661
1657 1 44.1157 10.3591 457 107.344 421.088 474.411
1658 0 45.1356 8.44123 381 107.735 422.719 472.693
1659 0 50.2342 14.4324 725 107.713 422.08 471.69
1660 0 51.192 13.674 700 108.931 423.231 471.117
1661 0 50.2248 12.6432 635 111.882 423.913 471.02
1662 0 51.4223 15.5574 800 109.034 423.255 466.4
1663 0 51.4223 15.5574 800 131.919 423.21 466.434
1664 0 54.4307 9.77389 532 110.902 426.53 464.117
1665 0 54.2998 9.6133 522 112.188 425.563 462.036
1666 0 58.5266 12.9001 755 108.042 426.411 462.458
1667 0 62.3091 14.7651 920 106.098 426.941 461.826
1668 0 64.3816 16.5886 1068 102.825 427.628 462.783
1669 0 63.1704 12.4267 785 107.311 427.279 464.051
1670 0 64.3665 12.1026 779 111.392 428.3 457.543
1671 0 70.2795 12.5926 885 110.933 428.176 456.572
1672 0 73.5292 15.7488 1158 106.23 429.025 458.221
1673 0 73.2236 13.3973 981 110.867 428.91 457.533
1674 0 73.483 12.1933 896 113.325 430.125 457.906
1675 1 40.0725 12.0032 481 109.882 431.493 476.289
1676 0 42.0748 13.2621 558 106.364 431.62 480.772
1677 0 47.2099 15.1875 717 104.015 432.464 478.527
1678 0 45.2197 10.7254 485 112.433 433.709 480.214
1679 0 48.0713 16.8708 811 103.413 431.654 479.036
1680 0 47.303 13.9103 658 109.704 430.722 480.512
1681 0 47.2592 12.5267 592 112.846 430.709 479.74
1682 0 50.4752 14.7597 745 109.723 430.036 478.545
1683 0 51.4167 17.6013 905 105.487 430.035 479.581
1684 0 53.162 14.0702 748 111.912 429.533 480.448
1685 0 52.3751 10.3675 543 119.735 428.357 477.722
1686 0 57.198 15.5775 891 110.336 427.704 478.229
1687 0 59.4279 14.8752 884 111.462 427.481 477.62
1688 0 60.3495 15.9239 961 110.317 426.665 475.896
1689 0 61.3883 12.82 787 115.779 426.539 475.848
1690 0 63.339 14.1145 894 113.691 425.248 472.167
1691 0 64.3185 14.0706 905 111.224 423.656 469.137
1692 0 65.1316 11.8683 773 117.426 423.048 468.977
1693 0 68.2856 13.4289 917 114.016 422.282 469.194
1694 0 71.3149 12.9145 921 115.122 422.883 466.345
1695 0 71.2177 13.3253 949 115.757 420.868 463.262
1696 0 73.2977 9.91845 727 122.26 421.432 459.497
1697 0 80.3005 10.8343 870 119.063 421.644 458.174
1698 1 41.1578 8.84401 364 115.272 423.918 476.157
1699 0 45.2151 12.1198 548 110.903 422.885 475.126
1700 0 44.1392 9.53802 421 115.235 423.542 474.283
1701 0 48.5233 10.1807 494 115.235 424.217 470.289
1702 0 48.2424 12.7896 617 111.493 424.596 470.326
1703 0 50.2467 10.7669 541 115.597 424.494 468.248
1704 0 51.0706 12.4925 638 113.553 425.262 467.135
1705 0 54.1374 14.7403 798 109.711 425.609 464.979
1706 0 50.0689 12.7225 637 115.138 426.786 459.749
1707 0 57.0824 13.1389 750 111.052 426.292 463.865
1708 0 57.2214 12.2681 702 112.801 427.446 462.601
1709 0 59.2177 11.8377 701 114.372 427.78 461.15
1710 0 62.2662 13.1211 817 112.581 428.6 460.8
1711 0 59.3325 11.8485 703 116.091 428.71 456.172
1712 0 65.1365 11.8674 773 114.023 429.794 458.781
1713 0 73.2194 12.9064 945 111.525 430.782 456.848
1714 0 72.1529 12.1409 876 114.096 430.215 454.709
1715 0 74.2302 11.3431 842 114.736 430.859 458.456
1716 0 78.2877 13.3993 1049 112.356 430.768 456.26
1717 0 79.5478 13.451 1070 112.428 431.24 454.445
1718 1 44.1984 11.3352 501 110.052 432.22 475.541
1719 0 43.0893 11.5342 497 110.909 433.511 479.461
1720 0 45.0888 14.3051 645 111.719 432.786 478.014
1721 0 46.1039 12.9056 595 115.297 432.75 478.771
1722 0 50.1724 15.0481 755 110.67 431.328 477.181
1723 0 51.3038 14.2485 731 112.565 430.681 476.836
1724 0 53.2869 14.2249 758 111.096 431.42 479.226
1725 0 51.2599 12.739 653 112.565 430.495 475.277
1726 0 52.0661 11.5814 603 115.061 430.478 477.549
1727 0 56.1306 16.6576 935 105.864 430.84 478.468
1728 0 57.0739 14.2447 813 109.437 430.689 478.771
1729 0 61.0823 14.8652 908 109.498 428.968 476.143
1730 0 62.079 13.9016 863 110.057 428.976 476.123
1731 0 62.0565 13.9711 867 111.887 426.982 474.762
1732 0 65.056 14.2954 930 111.387 427.44 473.145
1733 0 68.0896 13.5557 923 111.602 426.681 471.992
1734 0 70.1803 12.8954 905 113.723 426.287 469.362
1735 0 70.2637 12.0261 845 114.012 426.282 471.671
1736 0 74.1508 12.2318 907 114.788 425.014 463.413
1737 0 77.1889 13.1107 1012 113.946 424.278 460.8
1738 1 43.069 11.795 508 111.476 424.439 481.226
1739 0 42.0324 12.7521 536 110.597 424.379 480.618
1740 0 45.1026 12.4605 562 110.84 424.05 478.109
1741 0 44.0679 13.0026 573 112.421 424.267 478.038
1742 0 46.3118 12.7182 589 110.694 423.222 471.851
1743 0 48.1866 17.1624 827 103.904 422.883 470.972
1744 0 51.3636 13.5699 697 108.083 423.855 471.96
1745 0 53.3475 16.5331 882 104.946 423.397 467.395
1746 0 57.5039 10.2254 588 113.459 425.029 471.35
1747 0 53.274 13.3649 712 111.628 425.81 465.708
1748 0 56.2135 10.6914 601 115.195 424.849 466.933
1749 0 56.2397 13.1046 737 113.37 425.828 465.427
1750 0 57.2242 17.2305 986 107.299 425.888 466.376
1751 0 58.3568 13.4346 784 114.647 425.804 460.962
1752 0 64.1184 14.1457 907 111.087 427.11 461.044
1753 0 64.3877 12.7509 821 115.028 427.714 460.25
1754 0 64.1165 10.3873 666 119.176 428.701 457.131
1755 0 68.2044 14.4712 987 113.058 429.161 457.671
1756 0 72.2657 13.4227 970 112.145 430.313 462.244
1757 0 74.2411 14.1431 1050 111.029 430.056 457.379
1758 0 73.1869 12.229 895 115.23 431.665 453.184
1759 0 78.315 10.7515 842 115.638 431.42 456.745
1760 0 81.3288 15.0377 1223 109.769 432.082 455.556
1761 0 85.2136 13.0848 1115 111.889 432.506 457.168
1762 0 85.2709 11.6218 991 114.968 432.369 452.869
1763 1 45.1059 12.7034 573 112.373 432.469 473.578
1764 0 45.1059 12.5482 566 130.072 433.472 473.518
1765 0 47.5624 9.79766 466 117.571 429.734 471.579
1766 0 52.1679 14.1466 738 109.039 430.856 475.638
1767 0 54.193 13.9502 756 108.78 430.829 476.693
1768 0 54.193 13.8763 752 126.763 430.86 476.741
1769 0 59.1311 14.2057 840 106.635 430.401 475.254
1770 0 61.2159 12.8888 789 108.826 430.465 475.735
1771 0 60.188 11.9293 718 110.394 428.405 475.689
1772 0 67.4087 13.3959 903 105.56 429.2 477.975
1773 0 67.4087 13.4997 910 132.086 429.165 477.955
1774 0 70.1319 12.4337 872 108.63 426.719 472.493
1775 0 72.2169 14.0549 1015 105.989 425.651 471.364
1776 0 76.2663 16.8488 1285 101.595 425.3 470.366
1777 0 78.1699 16.3106 1275 103.405 424.702 465.772
1778 0 84.4543 18.4005 1554 100.458 423.943 464.708
1779 1 38.0453 9.48868 361 111.537 424.427 484.546
1780 0 43.2176 14.9707 647 103.822 424.015 483.815
1781 0 45.2085 14.8866 673 104.419 424.077 483.773
1782 0 44.0869 16.6036 732 105.38 422.995 480.672
1783 0 46.0805 15.8852 732 107.611 423.123 477.928
1784 0 46.3493 15.5342 720 108.193 422.965 476.733
1785 0 48.069 15.0409 723 108.508 422.447 474.292
1786 0 50.108 14.9477 749 107.989 422.781 473.172
1787 0 53.2015 18.2702 972 102.39 424.029 471.775
1788 0 54.0941 16.3974 887 103.551 422.613 471.406
1789 0 56.3763 16.2657 917 104.673 423.372 469.612
1790 0 56.4278 17.4737 986 103.682 424.921 469.241
1791 0 58.3717 13.4312 784 109.406 423.636 465.223
1792 0 58.3717 13.3284 778 138.693 422.661 465.317
1793 0 60.1801 13.6092 819 110.882 424.974 463.021
1794 0 66.368 16.8907 1121 105.693 427.14 458.174
1795 0 63.2547 15.4455 977 109.163 426.31 462.243
1796 0 67.4193 15.2479 1028 109.882 427.472 459.11
1797 0 67.4193 15.2034 1025 141.9 428.484 459.34
1798 0 73.3512 17.6548 1295 108.019 428.271 458.879
1799 0 74.3224 17.5452 1304 107.987 428.015 458.873
1800 0 77.4824 11.964 927 114.3 429.228 459.513
1801 1 37.0342 16.8763 625 110.005 428.93 474.232
1802 0 41.4643 14.7115 610 110.469 429.252 476.023
1803 0 40.2725 14.5757 587 113.956 430.271 474.76
1804 0 43.457 16.9133 735 110.303 430.486 472.833
1805 0 47.0192 18.1628 854 107.672 429.609 474.783
1806 0 44.4121 15.784 701 113.542 430.434 476.058
1807 0 46.3695 15.4843 718 112.929 430.031 477.482
1808 0 46.5768 14.7713 688 114.142 428.962 480.445
1809 0 51.3874 16.1907 832 112.742 430.358 473.548
1810 0 52.2928 17.0578 892 111.557 429.826 474.274
1811 0 56.4362 15.2384 860 112.883 430.852 476.826
1812 0 56.3499 15.0666 849 113.647 429.226 476.849
1813 0 57.6522 14.813 854 115.178 429.478 473.785
1814 0 58.6791 15.1672 890 132.238 429.481 474.291
1815 0 64.9123 16.3605 1062 110.925 428.489 474.895
1816 0 66.8336 17.3116 1157 109.633 427.935 472.858
1817 0 68.4113 15.7869 1080 112.433 427.659 472.111
1818 0 71.7215 18.4324 1322 108.113 425.877 467.87
1819 0 72.3761 19.8408 1436 106.595 425.21 463.071
1820 0 74.517 14.8959 1110 112.977 425.415 462.969
1821 0 79.9024 17.9344 1433 107.165 424.648 464.285
1822 0 81.5406 16.0656 1310 110.43 424.74 457.324
1823 1 37.4342 13.5705 508 116.604 423.327 477.78
1824 0 43.0037 14.2546 613 112.367 423.628 477.995
1825 0 45.0163 16.905 761 108.765 423.046 474.145
1826 0 46.6695 15.8776 741 109.451 424.057 473.173
1827 0 50.2982 23.8776 1201 99.3747 422.643 469.559
1828 0 51.1807 16.5297 846 107.889 423.468 469.164
1829 0 56.1876 15.6796 881 108.654 423.671 469.328
1830 0 56.8734 22.1545 1260 100.406 423.106 469.094
1831 0 57.324 17.2528 989 108.307 424.31 464.752
1832 0 59.313 18.8154 1116 106.956 423.114 463.563
1833 0 58.4277 15.746 920 114.274 424.325 459.979
1834 0 59.2461 16.9631 1005 113.519 425.259 460.123
1835 0 65.9756 16.7486 1105 113.633 424.9 455.339
1836 0 64.9103 14.2196 923 119.183 426.359 455.829
1837 0 64.3589 16.004 1030 118.966 425.922 455.207
1838 0 68.4933 15.5782 1067 120.664 427.605 454.665
1839 0 69.5595 17.1077 1190 119.582 428.18 453.15
1840 0 74.6296 15.396 1149 123.283 429.085 448.753
1841 0 74.3888 16.7633 1247 123.932 429.139 449.685
1842 0 75.4564 17.467 1318 123.622 429.78 450.788
1843 0 77.2864 15.6043 1206 128.489 429.642 448.854
1844 0 80.4543 19.0294 1531 123.227 430.348 449.164
1845 0 80.508 14.6694 1181 132.486 431.093 446.373
1846 0 85.3067 17.525 1495 126.654 431.319 449.256
1847 0 88.2824 16.4699 1454 130.903 430.677 449.854
1848 0 89.5308 15.3914 1378 135.398 431.31 444.821
1849 0 96.2182 16.0469 1544 134.462 431.028 446.022
1850 0 100.53 18.3429 1844 130.227 430.688 445.12
1851 0 106.351 19.8869 2115 126.304 430.705 447.713
1852 0 107.512 16.5842 1783 135.476 430.331 444.746
1853 0 114.511 15.9548 1827 136.279 431.148 442.795
1854 0 118.695 17.6839 2099 133.224 429.995 445.049
1855 0 122.699 15.7296 1930 139.057 430.354 442.618
1856 0 130.243 16.3234 2126 136.623 429.701 441.195
1857 0 135.426 15.2039 2059 140.892 429.09 429.048
1858 0 139.616 16.3448 2282 139.317 428.325 430.83
1859 0 143.676 15.9038 2285 141.054 427.94 432.392
1860 0 151.587 16.8814 2559 138.894 426.428 424.649
1861 1 78.4096 12.8683 1009 137.615 425.679 462.143
1862 0 81.1961 14.3233 1163 136.868 424.917 459.095
1863 0 85.4236 16.4357 1404 131.778 424.793 456.358
1864 0 86.7287 15.2083 1319 132.849 423.543 459.321
1865 0 87.5825 13.2447 1160 139.976 423.364 451.96
1866 0 91.7473 14.7361 1352 135.749 423.237 452.855
1867 0 92.5541 13.2355 1225 138.777 423.706 446.979
1868 0 96.4966 14.4979 1399 136.374 423.053 443.811
1869 0 100.493 13.0058 1307 138.186 422.754 443.51
1870 0 104.45 12.9918 1357 138.251 422.844 439.789
1871 0 106.678 14.2016 1515 136.658 422.444 434.947
1872 0 112.747 11.1666 1259 140.473 422.883 436.048
1873 0 114.156 12.9998 1484 137.255 422.654 433.334
1874 1 63.1927 8.14968 515 127.55 422.897 459.144
1875 0 66.4694 8.96653 596 125.376 421.988 455.45
1876 0 68.1224 9.65908 658 122.605 422.304 457.319
1877 0 74.13 10.1308 751 122.818 426.646 460.433
1878 0 74.0614 10.1672 753 122.729 426.981 456.25
1879 0 80.1498 13.8615 1111 116.39 427.154 450.255
1880 0 81.1567 12.6422 1026 118.923 427.798 447.433
1881 0 84.1881 12.2345 1030 118.702 428.096 448.437
1882 0 84.1715 10.5142 885 121.895 428.939 446.032
1883 0 85.1955 6.19751 528 127.091 428.669 450.089
1884 0 90.1647 10.7137 966 120.108 429.458 447.435
1885 0 95.3491 7.41486 707 124.447 429.666 445.008
1886 0 94.1994 7.26119 684 123.238 430.254 450.672
1887 0 99.1118 10.6546 1056 119.648 431.253 441.863
1888 1 195.107 13.4029 2615 137.806 429.872 384.836
1889 1 59.0838 9.49499 561 116.519 433.364 467.574
1890 0 57.087 10.4752 598 115.391 433.025 468.043
1891 0 57.087 10.4752 598 105.64 433.037 468.201
1892 0 57.2599 4.88998 280 121.218 432.186 471.364
1893 0 61.2437 8.93153 547 118.808 433.459 467.371
1894 0 63.3729 10.6986 678 117.028 432.677 462.702
1895 0 65.429 8.66588 567 120.869 433.501 465.245
1896 0 380.062 17.3287 6586 136.761 430.283 294.235
1897 0 382.618 21.4313 8200 127.725 429.875 297.226
1898 0 379.894 14.7489 5603 140.92 429.096 290.645
1899 1 224.76 12.0795 2715 134.255 428.733 377.317
1900 0 234.92 13.9579 3279 130.301 429.282 381.704
1901 0 243.139 13.8522 3368 131.292 427.982 376.859
1902 0 249.878 11.7217 2929 135.262 428.908 371.28
1903 0 259.024 10.7249 2778 136.897 427.45 369.274
1904 1 220.491 10.4494 2304 132.724 425.118 380.878
1905 1 47.0124 6.21113 292 123.366 427.12 480.291
1906 0 50.0299 7.87528 394 122.048 426.548 476.365
1907 0 52.3559 9.91292 519 119.376 423.615 476.601
1908 0 51.3721 12.3219 633 115.9 422.682 472.12
1909 1 250.311 12.7482 3191 129.435 422.108 369.975
1910 0 257.546 11.8891 3062 130.08 422.537 370.424
1911 0 258.852 11.6205 3008 132.61 421.729 354.935
1912 0 264.658 13.2624 3510 129.06 421.696 366.233
1913 0 264.133 7.88238 2082 126.666 421.335 393.499
1914 0 262.204 5.13723 1347 123.578 422.277 426.951
1915 0 260.685 5.30525 1383 121.477 422.975 427.892
1916 0 261.806 6.7531 1768 147.927 423.761 411.122
1917 1 69.5215 12.8018 890 112.545 424.021 462.293
1918 0 71.5366 12.3294 882 114.486 425.205 461.613
1919 0 72.6758 12.7828 929 112.976 425.563 460.122
1920 0 78.4376 15.0948 1184 108.533 425.554 457.166
1921 0 81.5095 13.066 1065 111.807 426.739 455.204
1922 0 79.4231 10.8155 859 117.265 426.412 451.455
1923 0 82.6798 9.10743 753 118.208 427.6 458.866
1924 1 44.0469 12.0326 530 110.781 429.151 470.121
1925 0 44.0177 10.5412 464 111.705 429.093 475.541
1926 0 46.1938 12.8805 595 106.684 429.713 473.387
1927 0 46.2147 13.8484 640 107.195 429.455 471.488
1928 0 44.0667 10.711 472 113.036 430.716 470.907
1929 0 48.0168 11.5168 553 110.816 431.674 472.7
1930 0 49.0392 13.8257 678 107.535 431.901 468.609
1931 0 49.1783 12.3632 608 108.921 431.349 473.092
1932 0 50.0602 9.90807 496 113.526 433.274 476.093
1933 0 52.2122 11.5873 605 111.283 431.909 475.127
1934 0 53.1843 13.4062 713 109.994 432.522 473.78
1935 0 53.0676 12.3239 654 113.44 431.818 471.376
1936 0 57.3349 10.4125 597 114.219 433.072 476.152
1937 0 60.1764 10.6188 639 114.039 432.182 474.042
1938 0 57.1457 9.11704 521 118.296 433.048 473.566
1939 0 61.1732 9.95535 609 115.202 432.378 477.768
1940 0 64.1405 10.3211 662 114.005 431.861 477.53
1941 0 66.1608 11.8953 787 112.853 431.384 474.422
1942 0 69.1571 10.4255 721 115.56 431.746 471.846
1943 0 71.0984 14.3041 1017 110.337 430.849 469.083
1944 0 72.1422 12.3645 892 111.223 430.002 466.979
1945 0 74.1062 11.416 846 112.644 427.22 473.327
1946 1 43.2039 10.8324 468 112.476 428.053 486.434
1947 0 43.1854 13.0831 565 107.057 426.63 483.892
1948 0 46.2132 11.9879 554 106.213 426.68 482.765
1949 0 48.1519 12.0452 580 104.96 427.288 483.224
1950 0 47.1078 13.1401 619 106.798 426.239 480.838
1951 0 47.2683 14.4283 682 105.469 424.43 481.903
1952 0 50.1654 13.7545 690 107.2 423.849 479.458
1953 0 53.1472 14.8268 788 105.713 424.454 477.905
1954 0 50.1944 11.8938 597 111.722 423.658 475.811
1955 0 51.1806 13.8529 709 109.08 423.7 474.848
1956 0 52.1518 10.3544 540 112.513 422.85 477.667
1957 0 56.2799 13.5217 761 108.331 422.656 474.515
1958 0 56.3955 12.4655 703 109.755 422.97 471.541
1959 0 58.2995 15.8663 925 104.775 422.897 471.412
1960 0 57.0791 11.5279 658 112.473 424.512 468.17
1961 0 59.3197 11.5476 685 111.174 424.635 469.051
1962 0 62.0653 12.4546 773 111.402 424.916 462.45
1963 0 62.2612 14.3267 892 107.568 424.423 466.848
1964 0 65.2053 12.6217 823 111.609 425.018 458.391
1965 0 70.1987 19.2596 1352 101.934 425.749 457.807
1966 0 71.3623 12.1212 865 110.651 426.705 462.666
1967 0 74.1026 13.4543 997 112.438 427.701 455.567
1968 0 77.286 14.1682 1095 110.789 428.5 457.017
1969 0 79.2265 14.3765 1139 111.275 429.223 450.716
1970 0 81.4881 12.959 1056 112.928 429.811 453.951
1971 0 82.3543 14.0126 1154 112.626 430.302 449.133
1972 1 45.3806 12.7808 580 110.729 430.186 471.714
1973 0 46.1425 14.0001 646 109.573 430.218 469.923
1974 0 41.4092 6.64103 275 118.073 431.553 471.833
1975 0 51.4009 20.3304 1045 99.0067 431.738 472.419
1976 0 51.3881 16.3073 838 105.389 431.847 470.029
1977 0 51.3881 16.2683 836 126.879 431.906 469.992
1978 0 56.2077 12.3293 693 110.821 431.232 469.381
1979 0 57.2764 15.5038 888 106.432 431.467 472.561
1980 0 55.2775 12.8624 711 140.419 432.191 470.069
1981 0 61.3978 13.8604 851 108.471 430.797 471.291
1982 0 65.2144 13.0186 849 109.152 429.874 470.489
1983 0 67.28 12.0244 809 110.109 429.4 470.527
1984 0 69.3282 12.549 870 110.783 429.628 466.869
1985 0 73.3197 15.5893 1143 106.63 428.507 467.89
1986 0 74.3156 14.9363 1110 108.101 429.413 465.036
1987 0 75.2333 12.8401 966 109.815 427.658 466.163
1988 0 80.5134 12.1222 976 110.185 428.36 462.944
1989 0 84.3033 14.2343 1200 107.372 425.587 460.801
1990 0 88.5633 16.2596 1440 104.283 426.586 458.312
1991 0 89.4497 13.2924 1189 108.603 425.678 460.72
1992 0 89.4497 13.3147 1191 128.264 423.675 460.453
1993 1 46.4727 5.76683 268 112.825 425.108 481.078
1994 0 48.7594 8.94186 436 112.014 425.755 474.7
1995 0 51.3221 12.8015 657 107.769 423.492 469.429
1996 0 53.1617 12.5278 666 108.125 424.351 472.586
1997 0 56.067 15.2139 853 104.39 424.264 470.22
1998 0 58.2451 12.911 752 106.995 425.199 469.827
1999 0 61.1305 14.4772 885 105.479 424.012 466.588
2000 0 61.0643 13.3466 815 108.225 424.786 465.205
2001 0 64.2161 16.5223 1061 102.451 423.5 465.39
2002 0 66.0731 12.4256 821 110.56 424.286 460.18
2003 0 67.1148 18.8781 1267 98.5738 424.105 466.162
2004 0 72.1431 16.0791 1160 103.641 425.829 460.147
2005 0 76.3371 16.8987 1290 102.688 426.271 458.019
2006 0 77.3887 13.6066 1053 105.595 424.733 457.457
2007 0 81.2957 14.9454 1215 105.045 426.685 453.932
2008 0 82.2384 18.1667 1494 102.065 426.414 454.091
2009 0 83.2014 15.7209 1308 106.558 426.555 451.644
2010 0 83.2014 15.5646 1295 131.703 427.547 451.624
2011 1 43.1342 10.873 469 109.324 429.085 471.87
2012 0 46.1764 15.9605 737 103.848 429.031 469.642
2013 0 46.5659 12.9494 603 109.34 428.771 464.519
2014 0 50.3156 15.0649 758 104.375 431.237 469.828
2015 0 53.3279 15.2828 815 104.334 430.604 469.761
2016 0 53.3279 15.1703 809 133.549 429.621 469.721
2017 0 49.1885 11.954 588 112.372 432.044 467.689
2018 0 56.181 13.4921 758 108.409 432.065 468.203
2019 0 57.0834 13.7343 784 108.54 432.344 469.318
2020 0 57.0916 12.4186 709 110.409 432.939 468.382
2021 0 60.161 12.7824 769 110.191 432.887 467.187
2022 0 65.1801 13.8539 903 108.09 432.643 467
2023 0 66.1682 16.186 1071 105.922 433.298 466.483
2024 0 69.2454 14.4414 1000 107.63 431.849 463.995
2025 0 71.043 13.3863 951 109.236 430.966 465.241
2026 0 74.13 13.5033 1001 108.27 431.449 465.979
2027 0 77.4115 13.3055 1030 109.009 430.125 463.715
2028 0 81.183 15.1386 1229 106.367 430.425 463.013
2029 0 82.2729 13.7348 1130 109.212 429.926 459.75
2030 0 85.1991 10.6457 907 112.822 427.904 462.195
2031 0 90.3491 14.3776 1299 107.283 427.801 459.881
2032 0 90.2048 11.3409 1023 113.147 427.425 455.726
2033 1 49.1287 8.32508 409 111.462 427.44 480.667
2034 0 52.1943 12.2236 638 106.417 426.991 474.448
2035 0 53.4204 11.475 613 107.959 424.794 476.499
2036 0 54.2503 12.7557 692 107.085 424.581 471.425
2037 0 58.2825 10.1746 593 114.83 422.143 472.616
2038 0 60.2971 13.7984 832 107.881 421.841 469.846
2039 0 60.2096 9.7991 590 115.453 421.663 468.225
2040 0 62.1957 13.0234 810 110.221 420.338 467.99
2041 0 64.2329 13.093 841 108.945 421.847 467.742
2042 0 63.5747 11.8601 754 112.316 420.908 463.622
2043 0 68.3757 14.4788 990 107.895 421.241 462.38
2044 0 69.2322 19.0663 1320 101.701 420.837 462.683
2045 0 71.4491 13.1002 936 110.943 420.74 458.316
2046 0 76.2134 17.884 1363 102.861 420.735 459.292
2047 0 77.3461 13.5495 1048 110.269 422.318 454.926
2048 0 78.4384 13.8325 1085 111.483 422.299 451.003
2049 0 81.2616 14.1641 1151 110.353 423.692 453.242
2050 0 82.4642 13.9454 1150 111.127 423.47 449.862
2051 0 86.2555 15.7323 1357 108.87 424.079 448.472
2052 0 89.2661 12.4011 1107 113.584 424.259 444.366
2053 0 93.4209 15.5426 1452 108.387 426.692 445.072
2054 1 50.2805 11.058 556 110.75 427.14 466.234
2055 0 54.4834 11.5815 631 109.512 428.079 464.878
2056 0 56.0484 12.3821 694 106.277 430.879 465.638
2057 0 56.0785 11.6801 655 109.922 432.441 460.808
2058 0 57.0845 10.2129 583 112.094 431.573 459.973
2059 0 60.0352 12.6592 760 108.146 433.018 457.596
2060 0 62.1274 13.2309 822 103.236 432.562 462.92
2061 0 63.1004 11.0617 698 107.37 432.574 463.311
2062 0 68.1765 12.8783 878 104.059 432.528 463.006
2063 0 70.2018 14.3301 1006 102.154 432.456 463.418
2064 0 73.2813 15.0243 1101 101.831 432.614 463.607
2065 0 73.2081 13.5231 990 104.288 431.412 463.448
2066 0 77.2414 13.5808 1049 104.323 431.855 462.702
2067 1 40.1322 11.4372 459 108.329 431.364 477.484
2068 0 41.0599 8.28058 340 114.015 432.641 477.985
2069 0 41.0484 8.62397 354 111.91 432.353 483.449
2070 0 44.0475 8.60434 379 110.85 431.752 483.354
2071 0 47.1023 13.269 625 104.742 430.758 479.71
2072 0 46.125 10.8618 501 110.255 429.062 481.289
2073 0 47.1187 10.2083 481 111.1 429.719 482.699
2074 0 49.1144 9.65094 474 112.188 427.65 483.257
2075 0 51.1621 11.2974 578 110.337 427.408 480.206
2076 0 50.2863 10.4601 526 113.905 426.076 477.306
2077 0 50.2863 10.4999 528 121.246 426.097 477.366
2078 0 53.1462 10.8004 574 112.681 424.89 478.192
2079 0 58.3736 11.0152 643 112.594 424.306 472.722
2080 0 59.2622 13.685 811 109.178 423.81 473.281
2081 0 57.2746 12.3266 706 110.608 424.237 475.463
2082 0 54.2103 11.3447 615 114.26 424.411 471.667
2083 1 67.1994 11.1459 749 111.792 423.315 467.804
2084 0 68.3862 12.0785 826 108.754 423.32 469.046
2085 0 70.173 13.3527 937 108.959 422.977 463.676
2086 0 72.356 12.3418 893 110.198 422.929 462.144
2087 0 76.2557 13.7957 1052 107.529 422.988 461.439
2088 0 77.2763 14.8558 1148 107.395 422.76 457.258
2089 0 79.3808 13.366 1061 107.485 422.761 451.677
2090 0 80.2646 15.7604 1265 103.423 423.657 453.628
2091 0 82.4337 12.2523 1010 108.242 423.978 451.789
2092 1 42.1504 11.2929 476 105.208 425.941 471.015
2093 0 44.0562 11.213 494 107.016 426.573 466.99
2094 0 47.034 13.3946 630 105.56 426.849 467.562
2095 0 49.0341 12.6443 620 107.429 429.74 467.724
2096 0 52.2404 13.055 682 110 429.918 465.573
2097 0 50.0514 12.7469 638 112.865 429.582 467.047
2098 0 51.179 10.8638 556 116.736 430.142 463.203
2099 0 53.0638 11.2129 595 116.785 430.807 462.563
2100 0 54.0372 13.2686 717 113.815 431.616 464.515
2101 0 53.1498 11.0443 587 118.84 431.741 463.753
2102 0 60.1639 13.3136 801 113.417 432.439 465.216
2103 0 61.1657 14.0275 858 113.145 433.013 463.663
2104 0 64.1285 16.3266 1047 109.374 432.911 463.244
2105 0 63.3779 11.6602 739 118.217 434.604 460.624
2106 0 68.3639 11.0585 756 118.422 433.515 464.247
2107 0 69.282 15.6318 1083 112.425 431.436 461.346
2108 0 73.6588 11.947 880 117.007 432.078 460.668
2109 0 73.2697 11.6283 852 117.69 432.661 462.217
2110 0 80.1249 11.7691 943 117.512 432.122 459.469
2111 1 41.0763 9.88405 406 107.842 431.877 485.062
2112 0 44.1383 12.2116 539 106.937 430.276 481.193
2113 0 43.2506 15.9536 690 102.601 429.316 482.87
2114 0 46.1098 14.0534 648 106.829 429.495 481.377
2115 0 46.175 12.4743 576 110.568 429.132 481.658
2116 0 48.1217 11.6995 563 111.785 427.984 478.833
2117 0 49.2682 15.1822 748 105.778 427.164 480.861
2118 0 52.136 12.851 670 109.749 427.088 475.569
2119 0 54.1769 13.3083 721 107.326 425.775 479.078
2120 0 54.2381 14.7682 801 107.98 426.512 475.677
2121 0 60.1022 14.0261 843 108.786 424.657 473.319
2122 0 59.2675 11.1697 662 114.292 425.754 469.467
2123 0 62.2974 11.7822 734 112.909 425.191 468.963
2124 0 63.1154 11.7721 743 113.42 424.945 471.945
2125 0 62.1209 12.202 758 125.058 425.917 472.059
2126 0 69.3371 16.3837 1136 106.537 424.637 462.599
2127 0 70.2064 13.8164 970 110.757 422.876 463.304
2128 0 72.4757 13.163 954 110.942 423.81 461.638
2129 0 75.4743 11.1561 842 114.19 423.151 456.253
2130 0 76.299 10.5637 806 114.413 423.994 458.686
2131 1 39.0715 11.415 446 107.341 425.298 471.179
2132 0 39.1733 8.7049 341 108.859 424.296 471.065
2133 0 41.1536 8.48042 349 107.96 424.957 472.499
2134 0 42.1269 10.8007 455 105.629 424.879 468
2135 0 44.0596 9.05592 399 105.779 426.281 474.321
2136 0 42.1809 10.1231 427 107.379 425.389 467.932
2137 0 43.2528 9.84907 426 108.002 425.948 465.88
2138 0 41.2481 9.52772 393 110.188 425.934 468.359
2139 0 48.2459 13.0788 631 108.287 427.94 467.376
2140 0 51.2514 11.4533 587 110.414 428.441 468.118
2141 0 53.2432 12.0015 639 109.211 428.006 468.906
2142 0 53.173 13.0517 694 108.059 428.902 468.426
2143 0 54.3293 10.7124 582 113.289 428.586 466.754
2144 0 55.2606 12.812 708 111.114 429.537 468.073
2145 0 59.3744 11.6717 693 110.944 430.794 468.25
2146 0 62.2323 12.1802 758 110.443 430.811 467.629
2147 0 61.2326 11.2195 687 113.617 431.37 464.704
2148 0 64.4048 9.5645 616 114.476 430.916 467.653
2149 0 68.2017 10.1317 691 114.933 430.48 466.221
2150 0 72.3861 14.1464 1024 107.996 430.686 466.407
2151 0 73.4204 15.5406 1141 105.819 429.359 469.009
2152 0 74.2293 11.707 869 112.692 430.408 464.236
2153 0 77.4077 11.9239 923 112.754 428.86 464.798
2154 0 82.2872 12.4078 1021 110.815 428.907 466.833
2155 0 88.3122 11.2329 992 112.292 428.975 465.479
2156 0 87.3196 15.5635 1359 106.565 426.937 457.708
2157 0 91.363 14.5135 1326 108.753 426.553 459.216
2158 0 93.3878 11.4576 1070 113.796 424.294 457.18
2159 1 55.2137 8.15016 450 111.149 426.333 480.742
2160 0 56.1945 8.71971 490 112.229 424.543 475.327
2161 0 57.2267 11.4807 657 110.027 425.012 474.03
2162 0 59.1845 11.1516 660 109.379 424.1 474.641
2163 0 59.1845 11.1009 657 126.953 423.122 474.546
2164 0 66.321 8.68504 576 113.38 423.503 470.55
2165 0 67.1197 9.84808 661 111.782 423.225 472.234
2166 0 66.1019 9.16767 606 114.525 423.092 467.521
2167 0 71.2788 10.4239 743 113.646 420.386 462.709
2168 0 72.1803 13.5494 978 106.778 422.115 465.754
2169 0 75.1327 11.8457 890 110.034 421.802 464.861
2170 0 75.3787 13.1337 990 110.255 422.441 463.166
2171 1 143.087 9.3999 1345 123.63 422.226 427.415
2172 0 153.941 12.966 1996 117.765 421.73 424.929
2173 0 153.654 13.1073 2014 116.683 422.486 428.167
2174 0 157.873 11.7753 1859 120.505 421.871 418.891
2175 0 165.803 12.732 2111 116.253 421.745 422.111
2176 0 166.811 11.5759 1931 119.648 422.08 416.084
2177 1 93.5957 11.7527 1100 114.92 422.383 448.327
2178 0 98.5754 15.9168 1569 109.906 423.59 444.894
2179 0 100.502 14.0196 1409 113.402 423.424 444.256
2180 0 101.318 13.2059 1338 115.083 425.09 442.007
2181 1 54.1588 11.1709 605 112.347 428.707 467.95
2182 0 55.4998 12.5046 694 111.499 427.579 462.363
2183 0 60.0972 16.074 966 105.764 429.608 466.903
2184 0 60.3616 11.8287 714 113.164 429.169 465.888
2185 0 59.3848 11.9896 712 115.371 429.447 462.117
2186 0 65.3625 15.1463 990 106.826 430.675 464.895
2187 0 63.3352 15.5522 985 131.848 432.673 464.81
2188 0 67.2263 13.938 937 110.839 431.933 463.994
2189 0 67.4694 14.9253 1007 109.869 431.055 462.575
2190 0 68.5554 13.5365 928 113.002 431.009 464.186
2191 0 73.3255 12.9014 946 113.384 431.011 464.661
2192 0 74.4949 15.0346 1120 110.801 430.585 463.755
2193 0 76.4008 16.0993 1230 109.598 430.867 461.029
2194 0 78.3813 13.1154 1028 115.594 429.972 460.193
2195 0 82.5302 14.5038 1197 113.582 428.49 460.26
2196 0 83.4009 14.4723 1207 115.621 429.405 463.647
2197 0 90.4578 12.3815 1120 117.648 428.996 461.882
2198 0 91.3816 12.0484 1101 119.577 427.665 456.054
2199 0 94.4658 15.3071 1446 115.73 425.986 451.923
2200 0 96.7156 11.3219 1095 122.3 424.742 452.463
2201 1 49.2617 12.8903 635 114.844 424.967 476.51
2202 0 53.3574 14.6559 782 111.573 422.546 473.28
2203 0 54.1099 13.565 734 114.587 421.853 478.432
2204 0 54.1099 13.5835 735 144.03 422.863 478.392
2205 0 57.1541 13.2099 755 116.274 421.815 473.493
2206 0 59.36 17.3349 1029 109.224 422.681 472.731
2207 0 60.384 15.9314 962 112.088 421.571 471.545
2208 0 61.202 12.8427 786 116.618 421.444 474.737
2209 0 63.3396 14.8406 940 114.367 421.401 470.733
2210 0 65.1131 12.7317 829 118.648 421.238 467.784
2211 0 67.4066 14.8502 1001 114.323 421.781 467.971
2212 0 68.2181 13.2076 901 117.977 422.695 464.503
2213 0 69.2406 12.8249 888 118.579 421.741 462.909
2214 0 73.2172 15.4882 1134 113.123 422.392 461.907
2215 0 78.5303 15.5227 1219 111.656 421.472 461.874
2216 0 78.2577 15.2573 1194 113.988 422.822 457.577
2217 0 81.4014 15.356 1250 113.061 422.029 457.713
2218 0 82.4183 14.3536 1183 115.464 422.352 455.974
2219 0 84.1814 16.7971 1414 111.287 422.368 454.458
2220 0 89.3926 21.6685 1937 104.435 422.651 449.41
2221 0 88.383 15.3649 1358 115.556 424.225 447.802
2222 0 91.2414 15.7165 1434 114.529 424.423 445.964
2223 0 94.2762 14.1605 1335 117.442 423.418 446.438
2224 0 99.563 16.0702 1600 113.062 424.514 446.104
2225 0 104.452 16.3712 1710 110.75 426.485 447.188
2226 0 100.504 14.7158 1479 116.949 425.758 443.278
2227 0 108.565 19.7946 2149 107.535 426.634 440.72
2228 0 106.685 16.5628 1767 109.878 426.354 434.651
2229 0 110.524 15.2636 1687 110.58 428.133 439.225
2230 0 109.469 15.6392 1712 111.295 426.947 438.421
2231 0 111.512 14.3572 1601 113.453 429.097 436.567
2232 1 58.0974 11.8938 691 114.401 426.706 458.227
2233 0 61.0875 11.8027 721 113.777 427.162 460.247
2234 0 66.125 12.8393 849 110.154 427.525 463.21
2235 0 70.1816 16.2578 1141 105.507 428.056 462.096
2236 0 68.0705 14.72 1002 106.202 426.902 467.752
2237 0 70.1063 9.4856 665 115.532 427.762 462.377
2238 0 75.0883 11.573 869 112.448 426.904 460.929
2239 0 79.2832 12.2094 968 110.258 427.238 463.231
2240 0 82.0699 12.5868 1033 110.193 427.072 462.133
2241 0 87.2546 15.8387 1382 105.612 426.211 458.596
2242 0 86.2315 12.4664 1075 110.881 425.219 461.864
2243 0 94.1094 12.6767 1193 109.987 424.438 455.53
2244 0 96.2372 14.9111 1435 107.046 422.448 455.831
2245 1 52.0412 11.0874 577 107.78 422.953 475.969
2246 0 54.4651 10.4654 570 107.612 422.84 472.256
2247 0 55.1991 10.6705 589 108.701 421.584 473.659
2248 0 56.1972 11.513 647 106.096 419.955 470.374
2249 0 57.0696 13.7201 783 103.25 420.244 469.623
2250 0 63.071 11.3364 715 104.345 420.671 469.796
2251 0 61.171 12.2771 751 104.296 420.61 464.989
2252 0 65.1293 11.6384 758 104.199 420.112 464.823
2253 0 66.2244 12.1103 802 104.555 420.188 459.542
2254 0 68.1038 11.3944 776 105.747 419.799 462.044
2255 0 65.2137 9.04718 590 107.466 421.508 456.975
2256 0 70.3521 10.8454 763 105.62 421.63 453.159
2257 0 76.2081 12.9514 987 100.147 422.847 460.591
2258 0 76.4542 10.1368 775 106.543 422.101 453.23
2259 0 77.2323 10.7727 832 105.653 423.024 452.94
2260 0 81.3485 12.133 987 104.251 422.947 451.189
2261 0 83.2396 10.4758 872 107.235 423.864 448.161
2262 1 41.0834 10.9777 451 103.313 424.92 469.506
2263 0 46.0602 11.7238 540 102.506 425.885 467.619
2264 0 46.1216 14.9388 689 99.8505 425.383 464.17
2265 0 46.1646 12.2388 565 103.381 427.427 463.952
2266 0 50.0977 13.2341 663 99.5098 428.053 466.83
2267 0 51.1029 14.1088 721 101.54 428.04 462.541
2268 0 49.2301 10.1361 499 111.629 429.232 463.397
2269 0 52.1184 14.7549 769 105.511 429.906 460.936
2270 0 54.1373 10.9536 593 111.966 429.425 461.093
2271 0 54.2648 8.9008 483 114.785 429.004 461.379
2272 0 60.1285 13.9867 841 106.026 430.416 461.359
2273 0 62.1566 13.4982 839 108.163 430.69 462.659
2274 0 60.2134 8.83524 532 115.263 431.182 461.852
2275 0 67.4264 13.7928 930 107.738 431.384 461.184
2276 0 71.2809 12.2193 871 109.465 430.463 461.431
2277 0 70.2977 12.632 888 110.526 430.445 461.145
2278 0 74.1238 12.0069 890 111.316 430.456 462.819
2279 0 78.2679 15.4597 1210 105.969 429.996 461.437
2280 0 81.5292 12.4127 1012 110.212 431.162 460.604
2281 0 81.5292 12.4373 1014 139.651 433.2 460.709
2282 0 89.4325 14.5249 1299 109.751 430.042 457
2283 0 86.3791 15.3509 1326 108.443 429.505 460.15
2284 0 94.2968 16.5011 1556 108.206 428.483 450.949
2285 1 49.071 15.7119 771 101.393 427.333 480.518
2286 0 51.3166 13.9331 715 104.849 426.82 476.474
2287 0 51.1584 13.7416 703 105.605 425.57 477.22
2288 0 53.1297 13.5517 720 107.504 425.789 475.614
2289 0 55.133 15.8707 875 103.819 423.976 472.442
2290 0 58.4695 14.7769 864 105.541 424.5 473.027
2291 0 59.2443 12.0349 713 109.245 422.379 470.907
2292 0 60.4097 14.7658 892 105.99 423.715 469.572
2293 0 60.3004 15.9866 964 104.346 422.707 470.888
2294 0 64.2801 14.5146 933 106.688 422.735 468.021
2295 0 64.3787 14.0885 907 108.236 422.085 465.115
2296 0 68.207 13.4884 920 107.758 422.121 466.335
2297 0 70.3755 16.9945 1196 104.448 421.812 461.043
2298 0 69.6225 12.1512 846 112.879 421.694 458.186
2299 0 72.4866 13.2162 958 111.082 420.99 454.803
2300 0 76.1158 14.9115 1135 107.711 421.697 454.509
2301 0 79.2686 16.7784 1330 104.557 421.453 456.535
2302 0 82.3286 14.843 1222 108.682 421.554 451.268
2303 0 84.5358 19.6721 1663 101.278 421.648 451.703
2304 1 46.3557 12.2531 568 111.702 423.368 466.132
2305 0 48.3572 12.6972 614 111.399 424.158 465.438
2306 0 46.1288 10.8826 502 119.92 425.281 467.454
2307 0 47.0802 11.491 541 119.56 424.214 463.701
2308 0 51.2486 12.6247 647 108.447 425.711 463.669
2309 0 51.4755 14.1815 730 111.247 424.388 461.771
2310 0 53.7912 11.6748 628 112.061 426.282 461.256
2311 0 56.6236 14.5876 826 107.913 426.109 458.816
2312 0 59.2725 17.1749 1018 111.271 426.985 460.849
2313 0 60.4342 13.1383 794 114.914 429.427 460.087
2314 0 64.2896 13.9991 900 114.571 429.253 460.331
2315 0 64.435 13.6106 877 116.473 430.179 457.789
2316 0 67.313 15.3462 1033 113.237 429.866 459.382
2317 0 69.2942 13.421 930 117.386 431.053 460.063
2318 0 73.2825 14.4236 1057 115.323 431.664 457.249
2319 0 76.3874 16.9138 1292 111.646 430.303 458.092
2320 0 78.3078 13.8683 1086 117.458 429.899 457.374
2321 0 79.4446 13.9091 1105 118.123 430.077 457.664
2322 0 83.5587 14.4689 1209 116.141 429.293 458.727
2323 0 83.5587 14.5526 1216 150.789 429.268 458.776
2324 0 90.5992 16.126 1461 115.012 428.115 455.333
2325 0 93.0878 15.3189 1426 116.121 427.832 453.551
2326 0 95.8448 15.6816 1503 118.332 427.411 444.609
2327 0 97.4859 15.5099 1512 116.239 426.892 447.146
2328 0 101.313 13.1572 1333 121.23 426.639 448.854
2329 0 104.421 16.2324 1695 118.339 425.339 442.574
2330 0 104.421 16.2708 1699 145.145 423.365 442.664
2331 0 112.416 14.731 1656 119.352 423.831 440.728
2332 0 119.505 14.3257 1712 119.11 423.978 442.482
2333 0 121.46 15.1654 1842 119.071 423.896 438.393
2334 0 125.653 14.6912 1846 120.403 422.745 428.399
2335 0 133.01 15.9762 2125 118.474 423.12 433.263
2336 0 135.85 15.1785 2062 120.263 422.031 425.194
2337 0 139.89 14.7616 2065 122.975 422.309 420.361
2338 0 149.247 17.7156 2644 116.806 422.12 414.096
2339 0 152.014 18.1233 2755 116.284 421.359 416.943
2340 0 154.065 14.9288 2300 121.161 421.637 416.682
2341 0 159.9 15.0719 2410 121.566 423.339 411.759
2342 0 166.941 15.9517 2663 118.964 422.568 408.832
2343 0 167.924 15.2569 2562 119.822 422.303 407.046
2344 0 167.924 15.2212 2556 147.388 421.311 407.364
2345 1 184.078 18.5954 3423 114.966 422.672 389.281
2346 0 189.086 15.6596 2961 119.165 423.957 394.134
2347 0 190.019 16.3931 3115 119.013 424.48 396.944
2348 0 199.194 16.1903 3225 119.923 425.701 388.102
2349 0 202.908 15.2581 3096 122.443 425.211 376.737
2350 1 214.037 14.4134 3085 120.778 426.542 388.386
2351 0 224.345 18.6009 4173 113.997 426.346 380.877
2352 0 227.901 15.8315 3608 118.005 427.088 381.958
2353 1 328.267 11.4023 3743 124.255 426.824 354.078
2354 0 330.364 8.91441 2945 123.767 428.296 383.987
2355 0 328.658 26.3587 8663 101.97 426.944 304.486
2356 1 215.819 12.3066 2656 121.248 429.26 399.47
2357 0 215.733 14.8424 3202 120.59 429.733 384.935
2358 0 224.704 19.7682 4442 113.941 430.018 378.567
2359 0 230.708 13.697 3160 125.403 429.435 379.243
2360 0 241.765 17.0496 4122 120.472 431.368 367.852
2361 0 241.765 13.5503 3276 165.405 432.353 377.622
2362 0 241.779 13.5041 3265 165.093 433.37 377.522
2363 1 59.0433 7.77396 459 120.993 426.76 463.092
2364 0 64.2732 10.6576 685 115.95 428.382 457.508
2365 0 65.4131 11.5726 757 111.413 427.841 456.686
2366 0 66.2452 9.79693 649 112.689 427.461 460.055
2367 0 70.6148 12.9718 916 111.024 428.297 462.437
2368 0 78.3674 10.7698 844 112.278 427.615 465.145
2369 0 80.407 12.1383 976 112.273 425.287 458.98
2370 0 79.2335 10.9928 871 115.749 425.017 454.67
2371 0 85.3314 12.6917 1083 112.43 424.967 459.797
2372 0 91.4035 13.7084 1253 113.478 425.046 459.152
2373 0 96.3422 12.3622 1191 114.798 424.769 455.478
2374 0 95.3364 12.587 1200 114.928 423.854 453.415
2375 1 52.0947 11.9206 621 106.72 424.564 476.58
2376 0 53.1041 12.2966 653 107.799 423.605 475.859
2377 0 57.1839 10.7898 617 109.133 423.018 472.946
2378 0 58.2153 14.996 873 103.737 423.259 470.813
2379 0 58.0987 13.8213 803 105.939 423.422 469.259
2380 0 57.2302 11.6896 669 110.245 423.683 470.14
2381 0 60.1744 10.104 608 111.826 424.025 470.505
2382 1 123.246 4.68981 578 112.035 424.31 467.578
2383 0 120.505 7.39389 891 117.981 422.255 446.367
2384 0 122.717 10.1453 1245 114.407 422.562 445.532
2385 1 75.1175 16.5873 1246 101.941 423.86 459.677
2386 0 73.1829 12.8445 940 109.794 423.593 459.983
2387 0 76.1272 13.0571 994 108.122 424.66 458.19
2388 0 77.1709 13.8394 1068 106.94 423.977 456.864
2389 0 80.1674 12.2993 986 110.574 425.267 456.225
2390 0 80.1674 12.3367 989 135.074 424.28 456.058
2391 0 85.2959 15.4638 1319 107.055 424.52 451.315
2392 1 45.0877 11.156 503 110.056 425.879 472.296
2393 0 47.0691 9.02927 425 101.856 426.682 469.191
2394 0 48.0416 14.0087 673 96.1055 426.333 469.046
2395 0 49.0613 13.5749 666 98.3243 428.757 464.517
2396 0 48.0991 11.0189 530 103.915 427.777 462.785
2397 0 51.1149 8.96021 458 106.727 428.878 463.262
2398 0 52.201 13.6204 711 100.259 429.662 465.097
2399 0 52.1838 9.50486 496 106.22 429.833 463.968
2400 0 52.0884 11.6341 606 104.954 430.541 462.053
2401 0 53.0647 10.2705 545 106.024 429.475 468.536
2402 0 56.2203 10.8146 608 107.334 430.293 464.582
2403 0 58.1078 11.8229 687 105.408 429.665 467.141
2404 0 61.1381 9.86292 603 106.849 429.871 471.982
2405 0 58.0764 10.3829 603 107.411 429.03 471.25
2406 0 64.1507 9.25944 594 108.695 429.279 471.879
2407 0 66.2351 10.04 665 109.322 427.997 468.826
2408 0 69.2668 13.9461 966 106.07 427.48 463.458
2409 0 78.3274 14.4905 1135 108.604 427.602 473.771
2410 0 76.1906 10.8281 825 118.372 426.056 469.348
2411 0 78.2797 13.9883 1095 114.45 426.539 463.894
2412 0 81.2336 12.9995 1056 115.938 424.986 465.611
2413 0 85.4725 11.0796 947 118.695 424.871 465.011
2414 0 89.377 13.3927 1197 114.683 424.262 463.09
2415 0 90.2723 15.4865 1398 112.896 421.913 459.794
2416 0 96.456 12.6897 1224 115.673 421.789 459.661
2417 0 100.521 12.0572 1212 116.304 421.523 456.922
2418 1 55.3406 15.6124 864 107.927 421.198 471.455
2419 0 57.578 10.5596 608 116.951 420.516 474.429
2420 0 62.3927 11.8283 738 114.279 420.199 471.668
2421 0 62.4177 15.204 949 109.793 419.463 467.92
2422 0 62.4101 10.5111 656 118.855 420.864 467.7
2423 0 65.43 12.5478 821 115.418 420.519 465.501
2424 0 67.4913 14.0018 945 113.132 420.612 463.859
2425 0 69.3402 14.9408 1036 111.242 421.428 463.206
2426 0 71.2854 12.6674 903 115.152 420.732 461.008
2427 0 75.3453 15.3692 1158 110.226 420.342 457.849
2428 0 76.3215 12.788 976 114.139 421.742 457.132
2429 0 76.3215 12.8011 977 150.216 423.729 457.188
2430 0 80.3704 14.2217 1143 111.267 424.624 454.358
2431 1 42.0535 11.0098 463 107.413 426.95 474.374
2432 0 43.2027 9.95309 430 111.544 426.507 469.642
2433 0 43.3047 10.9919 476 109.296 426.983 466.968
2434 0 43.0449 8.7583 377 104.024 427.08 467.146
2435 0 45.1482 11.8056 533 99.6116 425.548 469.632
2436 0 44.1103 10.2244 451 103.264 424.778 467.173
2437 0 44.0423 8.3783 369 110.65 424.499 464.767
2438 0 46.1186 9.71408 448 109.616 424.777 465.402
2439 0 51.3251 11.6122 596 105.364 424.669 465.57
2440 0 52.2376 11.2754 589 106.16 426.542 466.652
2441 0 51.0358 13.1084 669 103.868 425.578 467.831
2442 0 55.1148 11.4851 633 106.583 427.36 469.504
2443 0 56.2003 14.0569 790 103.182 427.738 472.203
2444 0 56.2254 13.6415 767 105.557 427.42 467.909
2445 0 61.0752 11.3958 696 106.698 425.114 471.401
2446 0 61.1997 13.4968 826 105.778 426.719 467.323
2447 0 61.146 12.8054 783 105.632 425.531 472.957
2448 0 64.1933 14.0202 900 106.427 426.027 470.033
2449 0 69.4104 14.0613 976 105.254 425.26 471.786
2450 1 146.6 14.5293 2130 108.857 426.138 439.772
2451 0 149.25 12.3082 1837 113.716 424.569 432.054
2452 0 159.027 14.7837 2351 110.111 424.715 427.259
2453 0 162.089 12.5795 2039 113.456 423.608 427.015
2454 0 170.979 14.996 2564 109.716 422.923 425.762
2455 0 171.865 7.47098 1284 122.052 422.471 413.469
2456 1 85.3521 15.77 1346 104.656 422.744 464.493
2457 0 85.3521 15.8168 1350 120.97 422.766 464.646
2458 0 89.3175 13.8159 1234 109.024 421.074 454.395
2459 0 91.1946 11.0642 1009 113.726 421.227 452.207
2460 0 98.6202 13.9728 1378 108.832 421.117 453.227
2461 1 52.1143 14.0269 731 104.798 421.628 478.042
2462 0 55.1007 16.4063 904 101.348 421.912 472.667
2463 0 55.1849 12.3403 681 108.254 421.675 469.852
2464 0 56.125 13.3987 752 107.838 422.062 468.977
2465 0 60.2663 12.8762 776 107.803 421.812 467.701
2466 0 60.1126 14.7889 889 105.15 420.64 465.717
2467 0 63.3594 12.8 811 107.168 421.091 465.591
2468 0 61.2396 18.4195 1128 101.133 421.569 464.009
2469 0 66.3407 13.506 896 106.503 422.371 464.018
2470 0 69.2772 13.4388 931 106.925 422.546 463.916
2471 0 70.3503 15.3091 1077 105.077 422.522 456.838
2472 0 69.1647 12.5353 867 109.896 423.442 459.261
2473 0 74.2197 17.4482 1295 102.69 423.555 455.658
2474 0 76.3258 14.7132 1123 106.158 424.173 455.074
2475 0 81.2556 14.4728 1176 105.795 425.995 454.146
2476 0 82.378 13.4016 1104 107.869 426.766 452.859
2477 0 85.2392 13.3976 1142 106.322 427.501 455.098
2478 0 87.131 16.8252 1466 102.728 427.685 451.115
2479 0 90.3761 13.1008 1184 107.978 428.698 453.246
2480 1 48.053 10.9046 524 109.384 427.931 471.863
2481 0 49.1709 12.2227 601 106.561 429.727 472.879
2482 0 51.245 13.7184 703 105.269 429.131 470.619
2483 0 53.1011 12.5233 665 109.295 430.093 469.971
2484 0 56.3211 12.7661 719 108.487 428.77 473.744
2485 0 60.0984 14.2766 858 105.8 429.686 472.414
2486 0 62.0827 12.2095 758 109.017 428.88 474.051
2487 0 64.0374 15.2723 978 105.88 428.445 469.859
2488 0 68.1204 14.6946 1001 105.708 428.78 472.33
2489 0 68.0767 13.7933 939 107.051 428.765 470.416
2490 0 71.2337 16.8319 1199 103.82 428.515 468.888
2491 0 76.1587 14.7061 1120 108.322 427.24 468.163
2492 0 77.078 16.9958 1310 106.804 427.49 467.709
2493 0 77.1412 15.3614 1185 110.836 426.518 466.343
2494 0 77.1412 15.2318 1175 134.048 425.491 466.376
2495 0 87.0962 19.0364 1658 104.556 425.255 466.423
2496 0 88.3407 18.9494 1674 104.55 423.775 462.748
2497 0 87.2026 13.5202 1179 112.008 424.466 458.431
2498 0 94.2456 15.8416 1493 107.315 422.599 459.269
2499 0 96.2256 16.7315 1610 107.435 422.193 459.547
2500 0 96.3914 14.244 1373 112.736 422.583 454.068
2501 0 101.508 15.7721 1601 109.622 421.941 457.022
2502 1 54.0587 9.56369 517 117.992 422.818 475.851
2503 0 51.0283 10.1512 518 118.93 422.458 470.88
2504 0 58.1608 12.9813 755 110.505 422.156 468.878
2505 0 61.1221 13.6285 833 108.7 422.591 472.353
2506 0 64.0623 19.4966 1249 101.989 421.832 465.723
2507 0 64.0926 13.0904 839 112.49 422.948 465.54
2508 0 64.0644 14.2513 913 109.508 423.154 465.105
2509 0 67.2319 13.4609 905 111.345 422.302 463.888
2510 0 69.4043 18.947 1315 103.144 421.274 464.526
2511 0 71.212 16.3034 1161 107.786 422.03 462.294
2512 0 75.1831 12.9816 976 112.062 423.422 461.239
2513 0 74.1113 13.5877 1007 113.323 423.833 456.663
2514 0 78.1066 11.5611 903 115.37 424.104 450.607
2515 0 82.2687 14.9146 1227 110.085 424.769 451.244
2516 0 87.258 16.9612 1480 106.689 425.276 450.546
2517 0 88.5756 14.4735 1282 111.086 426.273 449.389
2518 0 90.4257 14.9073 1348 109.759 427.556 447.45
2519 0 92.346 15.5502 1436 108.749 426.997 444.315
2520 0 100.489 14.2602 1433 108.872 428.425 450.475
2521 1 48.2571 10.071 486 116.872 429.603 467.562
2522 0 49.1435 12.6772 623 113.045 428.181 466.13
2523 0 52.2149 14.2871 746 106.22 429.224 463.318
2524 0 54.0787 14.7933 800 105.334 429.019 467
2525 0 55.0863 11.2732 621 110.638 430.058 465.245
2526 0 58.1565 10.85 631 110.548 428.992 465.09
2527 0 59.1126 12.0279 711 107.755 429.339 469.776
2528 0 62.1661 12.1449 755 108.499 428.789 468.519
2529 0 65.2608 13.3005 868 107.667 428.301 465.498
2530 0 70.1808 15.9873 1122 102.857 428.414 464.955
2531 0 72.2017 12.105 874 108.025 428.281 465.157
2532 0 75.1166 13.8052 1037 105.59 427.337 463.849
2533 0 78.0968 15.1735 1185 103.028 426.986 465.624
2534 0 83.1849 15.4475 1285 102.728 426.869 463.758
2535 0 85.1785 12.6793 1080 106.414 424.683 461.724
2536 0 88.2516 12.9063 1139 105.847 424.104 457.753
2537 0 91.185 15.2657 1392 102.052 424.642 463.195
2538 1 45.1032 7.69346 347 103.049 423.876 483.104
2539 0 46.2646 10.0725 466 102.12 423.097 478.53
2540 0 52.2982 12.6582 662 104.559 423.002 472.42
2541 0 55.0829 14.3057 788 103.741 423.102 477.412
2542 0 57.1259 12.3762 707 105.583 422.733 475.124
2543 0 56.1115 10.6395 597 109.369 423.176 470.719
2544 0 60.0735 13.3337 801 105.266 422.236 470.486
2545 0 63.1412 13.0976 827 106.12 423.06 470.929
2546 0 62.0277 11.64 722 109.981 423.438 469.907
2547 0 66.1763 16.1992 1072 103.019 422.349 470.493
2548 0 66.0884 12.105 800 111.938 422.971 463.79
2549 0 69.0915 15.0236 1038 108.411 422.221 464.424
2550 0 70.1253 12.5632 881 112.154 422.896 460.688
2551 0 72.0926 12.803 923 111.856 423.322 460.372
2552 0 76.2133 13.3704 1019 112.033 423.204 457.482
2553 0 80.3422 14.3262 1151 109.805 424.484 457.269
2554 0 81.1281 15.3091 1242 109.28 422.754 454.831
2555 0 85.0561 13.6263 1159 112.662 425.133 450.382
2556 0 88.1624 14.5867 1286 111.105 424.768 450.845
2557 1 49.1446 11.7612 578 109.798 425.55 470.952
2558 0 49.1446 11.7205 576 133.819 425.554 470.877
2559 0 52.2199 11.758 614 108.415 427.511 469.818
2560 0 52.2199 11.7388 613 125.113 430.545 469.697
2561 0 51.2111 10.9351 560 109.477 427.125 467.723
2562 0 55.4238 12.0526 668 108.226 428.458 471.533
2563 0 56.4722 12.2538 692 108.263 427.23 468.903
2564 0 60.2571 14.1062 850 105.842 428.495 467.539
2565 0 62.3111 15.1819 946 104.856 427.996 466.023
2566 0 65.276 13.0063 849 107.737 428.45 466.38
2567 0 65.0507 10.1921 663 112.848 429.516 467.567
2568 0 68.2346 11.0941 757 111.439 429.93 470.943
2569 0 72.369 11.0545 800 112.065 428.231 466.936
2570 0 77.2502 16.0258 1238 105.021 427.487 468.068
2571 0 78.3861 13.6376 1069 110.18 427.029 463.059
2572 0 81.4056 12.837 1045 113.02 427.34 466.536
2573 0 83.3379 10.1034 842 119.078 425.805 464.954
2574 0 87.5932 14.887 1304 112.189 425.838 464.888
2575 0 90.2988 12.9791 1172 115.267 422.631 455.113
2576 0 94.644 12.0768 1143 116.513 422.393 452.797
2577 0 96.5454 14.1177 1363 111.935 420.616 457.759
2578 1 52.3707 9.24182 484 116.014 421.039 475.062
2579 0 55.2621 13.1012 724 109.506 419.863 475.333
2580 0 54.5529 13.6198 743 113.729 420.841 472.918
2581 0 58.6112 13.9734 819 113.893 420.531 470.853
2582 0 60.7488 11.671 709 118.044 419.929 468.566
2583 0 58.4715 13.4424 786 115.753 419.274 467.663
2584 0 63.8625 11.3838 727 116.689 418.552 469.297
2585 0 65.8042 14.7103 968 112.967 420.371 464.211
2586 0 67.5279 14.0238 947 111.911 418.361 464.315
2587 0 70.5674 14.1708 1000 112.622 419.641 459.073
2588 0 72.5695 15.2406 1106 110.682 418.87 458.797
2589 0 71.5776 17.1842 1230 132.23 417.734 460.128
2590 0 71.5776 17.2959 1238 131.49 416.765 460.048
2591 0 77.6548 16.9726 1318 108.855 420.039 450.259
2592 0 81.6465 12.9338 1056 114.528 420.691 449.478
2593 0 81.5218 13.8981 1133 113.634 421.124 449.957
2594 0 86.3849 14.065 1215 112.081 424.369 451.258
2595 0 88.145 14.5556 1283 112.05 425.021 449.651
2596 0 92.155 15.8863 1464 109.07 424.059 450.854
2597 0 98.1554 16.1377 1584 107.331 425.684 447.942
2598 0 95.2639 12.3237 1174 114.542 425.166 447.597
2599 1 55.1872 13.1733 727 108.337 426.667 468.289
2600 0 56.1736 16.093 904 103.188 427.607 467.188
2601 0 57.1753 12.8027 732 107.287 427.736 466.641
2602 0 59.0874 12.3207 728 108.133 428.224 468.287
2603 0 61.0712 13.0667 798 106.718 428.444 467.168
2604 0 60.08 16.9441 1018 103.517 428.687 464.501
2605 0 65.2386 14.2247 928 105.314 427.583 466.788
2606 0 65.167 10.8184 705 110.043 428.945 465.536
2607 0 71.1174 15.8049 1124 99.1646 427.505 468.432
2608 0 71.1174 15.847 1127 130.64 425.476 468.585
2609 0 77.2055 13.2892 1026 106.571 427.859 467.423
2610 0 79.2397 18.6775 1480 98.9736 426.8 466.154
2611 0 80.1737 14.6432 1174 105.946 427.286 461.812
2612 0 85.2364 14.759 1258 104.914 427.499 465.118
2613 0 87.312 14.3966 1257 104.701 427.292 466.152
2614 0 86.1276 13.5961 1171 108.609 426.716 463.697
2615 1 52.1143 13.835 721 105.659 426.696 481.472
2616 0 53.0857 11.0576 587 107.857 425.739 483.024
2617 0 55.1511 14.1248 779 102.315 424.706 481.783
2618 0 55.3376 13.7881 763 101.436 423.948 483.396
2619 0 58.0946 9.62224 559 107.213 423.705 480.814
2620 0 62.1722 12.1598 756 101.724 422.853 481.558
2621 0 63.2233 14.346 907 101.356 422.846 475.088
2622 0 61.1864 13.1565 805 102.43 423.073 476.928
2623 0 65.2344 12.6161 823 103.013 420.555 467.91
2624 0 70.156 11.4744 805 105.393 420.554 468.538
2625 0 75.2962 18.4471 1389 96.5133 420.198 468.192
2626 0 76.3159 14.5841 1113 101.385 420.03 465.063
2627 0 80.1752 16.0773 1289 98.7766 420.297 464.351
2628 0 81.1974 12.2664 996 104.75 419.813 462.237
2629 0 83.2621 11.734 977 105.553 419.94 459.261
2630 1 44.0497 13.3486 588 101.119 421.929 477.895
2631 0 47.108 12.9702 611 100.889 422.034 475.967
2632 0 45.0848 8.73908 394 108.855 422.64 472.7
2633 0 49.3605 10.555 521 105.282 421.94 475.19
2634 0 49.4058 11.112 549 104.539 422.616 470.235
2635 0 49.4058 11.1525 551 121.145 424.63 470.294
2636 0 53.3209 14.1783 756 101.11 423.639 468.192
2637 0 51.376 10.394 534 103.036 424.047 466.994
2638 0 57.1914 18.1671 1039 91.9211 423.865 467.148
2639 0 59.224 12.2585 726 100.339 424.463 463.326
2640 0 59.1574 8.7225 516 104.822 426.298 462.093
2641 0 60.2176 11.6743 703 101.976 426.037 460.001
2642 1 82.4074 13.858 1142 93.4597 428.172 459.184
2643 0 82.4013 13.0823 1078 95.7069 430.46 452.441
2644 0 83.2777 8.5377 711 101.117 429.776 455.679
2645 0 87.4405 12.7744 1117 99.5264 429.353 452.205
2646 1 45.1814 13.147 594 92.3754 430.258 479.845
2647 0 51.114 11.7776 602 94.9336 428.568 478.133
2648 0 49.2889 9.12985 450 100.056 428.676 475.262
2649 0 49.194 12.0543 593 95.8786 427.341 476.661
2650 0 54.4019 18.8964 1028 87.4786 426.14 479.094
2651 0 52.1253 12.3548 644 94.7547 425.829 477.528
2652 0 55.3685 16.1283 893 91.916 426.492 471.414
2653 0 60.5564 10.9154 661 96.5613 424.496 477.374
2654 0 59.3914 7.47583 444 133.52 421.318 472.993
2655 0 64.3612 15.4907 997 92.1946 422.63 470.439
2656 0 63.247 12.2852 777 95.1223 422.19 471.837
2657 0 66.1273 14.6838 971 94.6323 421.753 467.609
2658 0 71.311 16.2107 1156 93.0363 421.413 466.074
2659 0 69.3933 16.9901 1179 93.7201 420.39 461.512
2660 0 74.2567 14.0055 1040 96.2731 421.718 456.022
2661 0 76.1206 13.9121 1059 95.4079 420.118 459.957
2662 0 78.1539 21.8415 1707 87.9508 418.362 464.031
2663 0 84.2262 17.9635 1513 91.7931 418.401 460.507
2664 0 87.4085 26.3361 2302 86.3436 417.585 454.643
2665 1 44.1596 9.7827 432 101.481 418.669 469.725
2666 0 47.2726 13.5596 641 102.19 417.594 471.011
2667 0 47.0523 12.2417 576 106.01 416.524 469.812
2668 0 48.1392 13.1701 634 104.841 417.175 466.724
2669 0 50.1225 9.73614 488 108.422 416.26 471.512
2670 0 52.11 12.7039 662 106.044 418.498 464.73
2671 0 57.2049 12.901 738 104.507 417.955 465.446
2672 0 58.1551 14.341 834 102.466 419.494 464.743
2673 0 56.1013 14.1173 792 104.028 418.957 462.52
2674 0 55.1718 9.38885 518 111.595 420.102 462.085
2675 0 65.2986 12.9252 844 104.8 419.882 462.877
2676 0 64.2712 13.5364 870 104.284 420.693 461.966
2677 0 65.2589 17.7907 1161 99.5375 421.734 457.342
2678 0 70.2493 13.6087 956 103.499 421.969 456.808
2679 0 72.1617 16.3383 1179 100.201 422.898 456.071
2680 0 75.2696 21.0842 1587 94.4008 423.089 460.39
2681 0 74.1271 16.4312 1218 102.521 423.59 455.877
2682 0 73.1181 11.5019 841 110.898 423.699 451.933
2683 0 80.113 13.2937 1065 107.862 422.683 453.646
2684 0 82.18 13.9815 1149 106.172 424.788 456.292
2685 0 91.2062 18.6062 1697 99.7773 423.385 452.155
2686 1 47.0363 10.375 488 106.602 423.23 476.141
2687 0 50.1837 14.427 724 103.953 422.224 474.355
2688 0 52.3293 14.4661 757 102.783 423.314 474.362
2689 0 51.4583 11.7571 605 99.724 424.417 472.152
2690 0 53.2344 12.9991 692 101.056 423.686 474.769
2691 0 57.2858 12.9875 744 99.8105 423.832 474.761
2692 0 59.3126 12.5606 745 101.332 424.17 474.793
2693 0 61.2798 12.4511 763 101.345 423.548 470.212
2694 0 63.3234 15.255 966 98.853 424.482 475.648
2695 0 65.4035 14.1583 926 96.6944 424.743 477.937
2696 0 68.3608 16.4861 1127 94.1739 423.691 474.351
2697 0 71.4498 14.6536 1047 96.1815 423.6 470.281
2698 0 72.3503 13.2964 962 97.6445 422.042 471.683
2699 0 75.5525 13.9241 1052 93.1331 422.646 476.686
2700 0 80.4586 20.9922 1689 87.7466 422.285 467.774
2701 0 80.5169 13.6493 1099 94.3749 421.537 472.56
2702 0 83.4937 14.1448 1181 92.4953 420.443 467.356
2703 0 87.6027 24.7709 2170 78.3931 418.888 466.488
2704 1 46.2048 14.7387 681 82.6931 420.684 486.28
2705 0 47.0534 10.8175 509 85.1022 420.344 486.153
2706 0 52.1011 11.7464 612 85.7614 420.194 482.139
2707 0 52.2664 18.597 972 81.7521 418.292 476.461
2708 0 55.3292 18.4351 1020 80.3824 419.503 483.776
2709 0 55.4819 14.6715 814 84.199 419.533 479.176
2710 0 56.3131 17.2606 972 83.3344 418.772 475.118
2711 0 55.2415 12.4725 689 88.0566 420.727 471.546
2712 0 63.6797 17.007 1083 82.6297 419.72 474.637
2713 0 59.4128 16.8482 1001 84.5744 420.092 472.795
2714 0 64.679 14.2395 921 84.7796 420.222 469.554
2715 0 66.6917 16.8237 1122 82.4911 420.528 470.321
2716 0 64.4726 18.0697 1165 85.2343 420.997 461.589
2717 0 65.3669 12.1468 794 90.5756 420.712 462.737
2718 0 71.579 16.2338 1162 85.8795 422.681 462.953
2719 0 74.0767 12.5276 928 90.8103 421.963 460.634
2720 0 76.5493 10.2287 783 91.1686 423.285 462.226
2721 0 79.8106 13.1311 1048 89.7872 423.289 460.63
2722 0 78.4293 14.7394 1156 89.724 424.635 456.71
2723 0 79.2735 12.7281 1009 88.1516 424.428 467.846
2724 0 82.2963 15.0797 1241 89.6479 423.998 460.239
2725 0 87.6662 13.3233 1168 90.0248 424.902 461.532
2726 0 89.7088 14.1904 1273 89.1045 424.907 461.031
2727 0 91.535 17.6763 1618 87.5748 425.689 453.998
2728 0 96.4884 13.4213 1295 89.6301 426.737 456.69
2729 0 100.613 18.3873 1850 86.4243 426.658 453.656
2730 1 55.683 9.32061 519 92.2235 426.568 473.358
2731 0 57.4182 14.6643 842 85.7423 426.493 474.7
2732 0 54.1707 17.8325 966 82.3996 426.15 480.855
2733 0 57.2277 15.1325 866 85.6397 426.247 479.11
2734 0 61.3384 13.1728 808 90.125 427.297 475.379
2735 0 62.3421 13.1372 819 90.6911 426.513 476.388
2736 0 61.2489 17.7146 1085 86.2101 426.291 476.288
2737 0 66.3267 14.8357 984 88.4939 425.331 475.27
2738 0 64.1172 5.06884 325 98.5846 424.963 474.437
2739 0 69.178 7.64694 529 94.1796 426.227 478.805
2740 0 72.1857 15.0861 1089 89.7796 424.758 473.008
2741 0 74.1695 9.53222 707 96.3861 423.932 469.818
2742 0 79.1652 13.3897 1060 92.7132 422.136 468.197
2743 0 85.2097 12.5103 1066 91.9775 421.962 473.681
2744 0 87.9998 17.4205 1533 88.1937 422.273 467.26
2745 0 83.1817 16.3257 1358 90.1075 421.738 468.408
2746 0 91.3402 13.7508 1256 92.5788 421.299 456.408
2747 1 50.2398 19.7055 990 85.2152 421.407 477.546
2748 0 48.4974 14.1451 686 91.0612 419.773 478.844
2749 0 53.2833 14.6387 780 90.8615 420.765 475.403
2750 0 55.3306 15.7779 873 88.8935 418.903 475.434
2751 0 56.417 15.9349 899 87.9155 420.517 471.123
2752 0 56.3518 18.0828 1019 87.1639 420.11 470.087
2753 0 59.33 14.2087 843 90.3926 420.635 469.648
2754 0 59.33 14.2087 843 122.925 420.617 469.593
2755 0 65.3265 16.4099 1072 94.3078 420.784 465.754
2756 0 65.2582 12.9486 845 97.5432 422.356 468.338
2757 0 68.4056 13.3761 915 100.2 420.928 463.918
2758 0 71.5174 14.1364 1011 98.9238 422.397 458.632
2759 0 72.5141 12.5907 913 101.424 423.134 459.118
2760 0 74.4661 14.4495 1076 98.6468 424.279 460.199
2761 0 78.0238 14.8032 1155 98.4745 423.767 450.189
2762 0 80.8194 14.0189 1133 99.1297 424.253 454.282
2763 0 81.7204 13.8766 1134 98.3739 425.59 453.735
2764 0 86.5703 16.4837 1427 96.2642 426.865 451.268
2765 0 89.7177 17.3879 1560 96.2417 428.026 445.549
2766 0 92.2676 13.3416 1231 100.579 427.391 448.269
2767 0 98.0079 16.4375 1611 96.3234 428.968 449.669
2768 0 98.9724 12.6803 1255 100.259 427.785 449.934
2769 1 53.5864 11.5888 621 99.3672 427.992 468.837
2770 0 56.7551 12.1399 689 97.2221 429.614 472.286
2771 0 55.6526 14.4108 802 97.6808 428.898 468.556
2772 0 59.5657 14.7736 880 95.525 429.422 474.462
2773 0 63.7627 13.3307 850 96.9741 428.166 474.158
2774 0 64.7326 12.8529 832 99.8462 428.588 471.185
2775 0 69.6929 19.0981 1331 91.3306 427.667 474.944
2776 0 67.4848 13.8846 937 98.1953 427.334 470.886
2777 0 70.4918 12.0014 846 101.333 427.308 471.073
2778 0 74.3238 13.9525 1037 99.243 429.416 472.378
2779 0 73.491 12.5866 925 102.595 428.067 472.468
2780 0 79.8986 15.6073 1247 98.7739 428.022 470.03
2781 0 77.0304 13.5661 1045 103.84 428.017 465.346
2782 0 82.6318 20.0165 1654 95.0357 427.206 468.801
2783 0 85.1304 14.2957 1217 102.115 425.977 465.772
2784 0 86.2924 18.2519 1575 97.4483 425.164 467.938
2785 0 90.0792 14.787 1332 103.388 425.301 454.241
2786 0 97.383 19.0177 1852 97.365 424.473 458.933
2787 0 95.9911 14.2617 1369 105.082 423.852 451.66
2788 1 52.5919 11.4276 601 101.022 422.822 476.096
2789 0 51.3642 11.1362 572 103.243 422.488 471.993
2790 0 55.2875 10.7077 592 103.633 422.348 475.034
2791 0 62.7569 18.3247 1150 94.1217 421.779 474.301
2792 0 61.7458 12.9402 799 101.237 421.567 470.01
2793 0 63.5117 14.3596 912 97.5307 421.629 472.05
2794 0 65.6203 11.658 765 103.084 420.924 460.542
2795 0 70.4579 12.802 902 100.22 420.443 465.637
2796 0 71.3276 15.1134 1078 98.6707 421.115 460.988
2797 0 73.4839 14.5746 1071 99.5584 420.869 459.118
2798 0 73.609 13.1642 969 103.217 421.957 453.489
2799 0 79.9708 15.0305 1202 97.7479 422.732 459.169
2800 0 77.8602 9.70971 756 107.857 422.599 447.749
2801 0 81.6929 13.869 1133 102.708 422.694 450.061
2802 0 89.6234 16.4578 1475 100.372 424.275 447.3
2803 0 88.761 12.7421 1131 105.232 424.66 447.078
2804 0 91.5746 11.5643 1059 106.252 426.129 443.33
2805 0 101.044 17.3094 1749 97.4831 426.119 447.415
2806 0 97.956 13.0569 1279 102.721 427.219 442.299
2807 0 102.674 14.3366 1472 101.204 427.119 439.704
2808 1 53.3959 12.5103 668 99.3204 427.281 463.364
2809 0 54.2925 12.9484 703 99.5775 427.154 464.034
2810 0 54.4052 11.3408 617 101.647 427.575 462.583
2811 0 57.5084 13.7719 792 97.7904 427.247 465.78
2812 0 60.4445 12.4742 754 98.6578 428.093 465.942
2813 0 62.8831 14.2964 899 97.921 428.195 461.768
2814 0 63.7661 11.6676 744 101.954 428.515 458.933
2815 0 63.6984 15.2594 972 98.5082 429.25 459.901
2816 0 68.8605 13.1861 908 99.8943 428.989 463.393
2817 0 72.5118 14.6597 1063 97.0132 429.282 462.822
2818 0 74.7738 15.1524 1133 95.233 429.384 461.414
2819 0 77.8153 15.3697 1196 96.4306 428.829 461.049
2820 0 80.5574 14.4369 1163 99.2537 427.824 462.323
2821 0 81.5538 15.033 1226 100.021 429.09 460.169
2822 0 84.5557 18.2838 1546 96.5589 427.953 461.492
2823 0 91.7733 15.4075 1414 99.8897 428.303 456.32
2824 1 50.3346 9.57592 482 100.481 428.492 482.218
2825 0 51.3163 11.4194 586 101.292 426.947 480
2826 0 53.5215 16.7783 898 96.216 426.432 477.999
2827 0 54.2377 12.6112 684 100.993 425.56 479.839
2828 0 54.4693 16.4313 895 96.5318 424.804 479.073
2829 0 62.775 18.0645 1134 93.2222 424.38 474.7
2830 0 56.4746 8.09214 457 107.214 423.3 472.731
2831 0 60.4759 16.8497 1019 97.0393 422.808 475.02
2832 0 61.426 16.6705 1024 97.0801 423.219 474.044
2833 0 64.3747 16.435 1058 98.2722 423.563 469.608
2834 0 64.2916 13.3766 860 101.505 423.362 471.288
2835 0 66.2459 12.8914 854 102.263 422.431 468.896
2836 0 69.1826 18.1404 1255 98.259 421.287 465.931
2837 0 71.3087 12.4529 888 103.605 420.836 462.932
2838 0 76.3098 19.9581 1523 95.6225 420.406 459.72
2839 0 82.3809 13.7653 1134 101.011 420.661 460.54
2840 0 81.3232 15.629 1271 100.71 420.744 457.314
2841 0 80.1986 13.8032 1107 102.836 421.48 456.666
2842 1 46.1747 14.64 676 100.123 422.09 471.775
2843 0 45.2191 10.4823 474 105.977 422.54 469.717
2844 0 51.1024 14.3046 731 99.6772 422.689 468.442
2845 0 50.3082 14.1329 711 103.388 421.852 463.752
2846 0 52.4307 15.2773 801 100.638 423.491 463.112
2847 0 55.3975 20.7591 1150 93.6861 422.723 463.574
2848 0 58.2585 18.0918 1054 96.1983 424.899 463.188
2849 0 55.266 17.8591 987 96.074 425.8 464.383
2850 0 57.0815 15.8545 905 98.8232 426.614 463.548
2851 0 58.2404 14.0796 820 101.541 427.088 462.754
2852 0 60.5567 14.3172 867 101.469 427.652 462.43
2853 0 62.24 18.2037 1133 96.6249 427.237 465.794
2854 0 63.3321 13.4845 854 103.685 429.259 463.211
2855 0 64.256 16.73 1075 99.9163 429.738 463.307
2856 0 68.2242 18.0434 1231 99.801 429.488 463.578
2857 0 69.0582 19.4474 1343 98.9724 428.545 458.974
2858 0 74.5472 16.4996 1230 103.217 429.426 462.682
2859 0 73.3885 17.8093 1307 102.64 428.614 461.48
2860 0 78.3087 16.2562 1273 104.336 429.398 461.583
2861 0 79.5211 16.7251 1330 104.049 430.446 462.094
2862 1 41.0758 16.5791 681 101.559 429.736 483.628
2863 0 42.0776 15.4239 649 105.567 429.382 479.821
2864 0 41.2084 15.4337 636 107.374 428.737 479.316
2865 0 46.6332 15.4396 720 103.758 428.679 484.132
2866 0 45.2985 14.5259 658 106.664 427.239 483.438
2867 0 46.2616 17.7469 821 104.867 427.331 478.525
2868 0 48.3071 16.1467 780 106.945 425.731 480.705
2869 0 49.1913 16.0191 788 107.799 425.297 477.003
2870 0 51.2227 17.0237 872 105.009 424.781 480.853
2871 0 53.1884 15.8493 843 107.234 424.617 477.687
2872 0 52.1747 13.934 727 110.096 422.642 477.162
2873 0 55.2729 18.3634 1015 104.087 424.399 478.203
2874 0 58.1695 18.4461 1073 103.865 422.288 475.461
2875 0 58.581 19.7163 1155 102.975 422.296 473.874
2876 0 59.2292 20.1421 1193 103.26 422.34 471.075
2877 0 63.2362 15.2602 965 108.776 421.845 469.009
2878 0 63.1814 16.5872 1048 107.798 421.65 468.711
2879 0 68.2917 20.1489 1376 103.128 421.177 465.246
2880 0 71.4953 18.2669 1306 104.555 421.106 464.476
2881 0 73.4939 21.2671 1563 102.128 421.624 464.325
2882 0 72.5201 14.9752 1086 111.609 422.511 462.334
2883 0 75.7198 18.9646 1436 107.192 422.71 459.526
2884 0 78.1902 16.0378 1254 109.858 421.916 462.384
2885 0 79.6559 17.6258 1404 110.476 423.207 452.872
2886 0 82.85 18.1895 1507 109.273 423.824 455.344
2887 0 86.4462 18.9366 1637 109.4 424.99 450.813
2888 0 89.8741 19.0155 1709 108.72 424.624 451.07
2889 0 93.2841 17.8916 1669 112.189 424.462 446.005
2890 0 94.8436 19.5796 1857 111.647 424.97 444.877
2891 1 50.1868 17.7935 893 111.137 424.757 466.244
2892 0 49.6101 17.7383 880 114.295 426.124 465.84
2893 0 53.2602 18.6068 991 113.033 426.513 464.985
2894 0 52.4646 15.8964 834 117.914 426.781 461.999
2895 0 55.5089 15.475 859 117.99 427.31 464.503
2896 0 58.5047 19.6223 1148 111.73 427.75 462.926
2897 0 60.7607 18.8115 1143 113.917 429.62 461.376
2898 0 60.526 18.1244 1097 115.246 428.482 460.864
2899 0 64.4738 19.062 1229 113.09 429.004 460.134
2900 0 66.4474 16.72 1111 116.913 430.063 460.953
2901 0 66.54 15.8852 1057 119.294 430.301 461.111
2902 0 70.4283 18.7709 1322 116.148 431.592 459.07
2903 0 69.5471 17.8728 1243 117.372 430.039 459.764
2904 0 75.8047 18.086 1371 113.959 430.131 462.937
2905 0 77.3037 16.3382 1263 118.53 430.215 458.734
2906 0 80.7519 20.5939 1663 111.037 429.641 461.465
2907 0 81.8127 22.3804 1831 111.314 429.737 457.39
2908 0 86.0572 18.5807 1599 114.702 429.847 461.156
2909 0 92.939 20.8524 1938 111.678 428.717 456.924
2910 0 96.6891 20.3435 1967 112.244 429.225 457.139
2911 1 46.2969 16.4374 761 116.138 427.926 479.627
2912 0 45.3729 19.2626 874 114.062 428.07 477.699
2913 0 47.3977 17.3004 820 118.152 427.237 476.635
2914 0 50.5357 16.3251 825 119.895 425.652 476.185
2915 0 51.3351 19.811 1017 116.056 426.043 472.482
2916 0 55.7614 17.2341 961 118.664 426.337 473.02
2917 0 61.9498 18.5311 1148 115.193 425.775 472.229
2918 0 58.6509 15.7372 923 122.912 424.937 469.914
2919 0 59.6367 18.1097 1080 120.39 423.456 467.839
2920 0 61.8444 15.8462 980 124.463 423.654 464.534
2921 0 63.7316 23.9755 1528 111.835 422.45 467.611
2922 0 67.6126 19.2864 1304 118.822 423.068 465.14
2923 0 66.9816 16.079 1077 125.785 422.695 462.377
2924 0 70.2122 19.142 1344 121.715 422.458 458.983
2925 0 72.648 18.0734 1313 123.652 422.137 457.717
2926 0 74.3931 17.4882 1301 123.912 421.301 456.852
2927 0 78.7045 16.7843 1321 125.497 421.894 453.784
2928 0 78.4444 17.0694 1339 126.391 421.302 450.186
2929 0 85.7893 21.4362 1839 118.142 422.004 451.448
2930 0 84.7642 21.6011 1831 120.777 423.019 448.567
2931 0 86.4576 19.5125 1687 124.793 423.453 445.259
2932 0 92.7083 22.1555 2054 120.374 423.933 440.708
2933 0 95.5834 19.4804 1862 123.835 424.794 443.276
2934 0 95.7581 17.6591 1691 129.765 424.664 436.177
2935 0 100.596 19.1955 1931 126.928 426.262 440.393
2936 0 105.644 19.6793 2079 126.385 426.832 436.599
2937 0 109.598 20.2375 2218 125.251 426.522 435.806
2938 0 108.826 16.5586 1802 133.224 428.209 433.669
2939 0 114.05 17.9132 2043 130.915 428.096 431.989
2940 0 119.569 16.3838 1959 132.902 428.7 431.827
2941 0 124.706 17.2164 2147 131.477 429.581 428.326
2942 0 128.797 18.3467 2363 129.881 429.684 423.408
2943 0 132.837 14.9807 1990 134.847 430.152 428.592
2944 0 138.22 16.9078 2337 132.051 430.65 421.408
2945 0 144.613 19.2721 2787 125.746 430.954 428.146
2946 0 153.654 18.7044 2874 125.997 430.21 421.786
2947 0 156.847 17.3864 2727 129.574 430.06 418.732
2948 0 162.032 16.9041 2739 130.032 429.456 415.568
2949 0 166.862 17.5294 2925 130 429.82 410.836
2950 0 173.45 18.5817 3223 127.535 429.027 407.128
2951 0 182.647 17.553 3206 129.546 428.462 409.467
2952 1 136.654 14.9428 2042 134.586 428.619 428.277
2953 0 139.651 16.978 2371 130.988 428.11 428.332
2954 0 149.633 17.3758 2600 129.727 427.891 425.039
2955 0 153.8 15.7087 2416 133.01 428.815 422.409
2956 0 151.762 16.7697 2545 134.126 426.484 417.358
2957 1 115.053 13.3156 1532 133.112 427.443 437.221
2958 0 111.806 11.7704 1316 137.482 425.649 431.159
2959 0 119.119 14.6828 1749 128.563 426.802 440.627
2960 0 123.378 15.8537 1956 126.838 425.476 435.549
2961 0 127.615 14.9355 1906 129.419 425.249 426.629
2962 1 71.4867 11.4427 818 120.256 424.91 457.412
2963 0 70.6566 8.33609 589 128.964 424.81 448.615
2964 0 75.4383 13.521 1020 119.122 424.108 451.724
2965 0 75.6762 9.24993 700 125.899 424.499 444.233
2966 0 81.2641 9.58603 779 124.856 424.415 444.824
2967 0 83.5017 10.7543 898 119.859 424.128 451.018
2968 0 89.1854 10.4165 929 123.03 424.338 437.944
2969 0 90.5691 8.6895 787 125.546 423.795 438.729
2970 1 59.2484 10.3969 616 105.825 426.459 462.268
2971 0 59.322 9.17029 544 110.368 426.472 462.414
2972 0 63.085 7.64049 482 110.409 427.554 463.981
2973 0 66.4829 10.5741 703 106.609 425.427 461.592
2974 0 69.4633 14.0506 976 104.962 423.088 460.461
2975 0 71.3365 8.48093 605 112.311 424.187 458.711
2976 0 70.2455 9.50951 668 111.641 424.344 452.528
2977 0 73.3339 6.83176 501 113.978 426.639 457.483
2978 0 76.289 10.3685 791 110.321 426.594 453.314
2979 0 80.3786 11.4707 922 108.807 427.641 452.155
2980 0 82.3844 11.944 984 106.681 427.885 453.946
2981 0 85.3468 11.9981 1024 106.369 427.993 452.378
2982 0 90.503 12.2869 1112 104.839 429.343 453.14
2983 0 90.5051 8.94977 810 109.041 428.636 447.322
2984 0 97.4603 13.1541 1282 102.729 431.08 443.612
2985 0 92.724 4.69134 435 110.237 428.175 447.795
2986 0 95.5324 6.45854 617 107.655 429.36 443.055
2987 1 57.2124 14.6472 838 96.4069 431.902 469.797
2988 0 54.1131 10.4411 565 103.676 431.92 474.018
2989 0 57.4573 6.45697 371 110.779 432.41 465.881
2990 0 52.0856 7.77566 405 107.864 432.242 470.509
2991 0 55.2824 9.24344 511 106.994 432.053 470.07
2992 0 59.2269 8.50965 504 108.323 432.028 469.54
2993 0 56.3676 9.63319 543 107.818 431.389 471.337
2994 0 67.6197 9.05062 612 107.078 431.835 472.755
2995 0 63.4282 5.78607 367 113.142 430.763 470.283
2996 0 67.3509 9.59156 646 109.079 430.401 469.763
2997 0 67.2419 9.44352 635 108.95 430.805 468.595
2998 0 69.2515 8.79404 609 109.044 430.629 475.151
2999 0 69.1101 6.1062 422 113.934 429.827 468.4
3000 0 74.0585 10.8968 807 106.774 428.571 472.077
3001 0 78.2509 12.5622 983 104.457 427.969 473.333
3002 0 76.5465 10.0462 769 108.87 427.338 467.821
3003 0 83.2343 12.9394 1077 104.051 426.306 468.036
3004 0 80.296 11.3829 914 106.226 425.576 470.345
3005 0 81.8899 11.6864 957 105.298 422.388 460.916
3006 0 86.0472 14.0737 1211 101.936 422.346 461.755
3007 0 88.8183 11.5742 1028 103.979 422.064 465.158
3008 0 91.1374 12.7061 1158 105.386 421.189 458.557
3009 0 92.6474 8.22474 762 107.448 421.416 464.747
3010 1 43.421 9.28123 403 104.494 420.216 483.995
3011 0 47.6252 11.3385 540 101.665 421.257 481.309
3012 0 47.235 11.9403 564 101.89 419.388 478.989
3013 0 48.2475 6.90191 333 106.489 421.258 477.496
3014 0 50.242 11.6237 584 101.719 423.589 476.425
3015 0 54.056 15.373 831 103.075 424.312 474.686
3016 0 52.0557 9.89325 515 112.478 424.173 474.142
3017 0 54.0594 13.3927 724 107.474 425.488 474.128
3018 0 54.1292 11.528 624 109.314 424.463 472.707
3019 0 58.151 11.986 697 108.783 425.651 469.354
3020 0 59.0929 12.1504 718 108.032 425.847 470.642
3021 0 65.1627 14.8398 967 103.01 426.369 469.684
3022 0 66.3289 14.9709 993 101.943 427.822 471.788
3023 0 63.0769 13.0317 822 107.899 428.585 468.3
3024 1 138.127 14.5953 2016 106.969 428.296 430.939
3025 0 139.885 13.6326 1907 106.786 428.302 437.076
3026 0 143.215 11.7795 1687 110.871 429.315 430.295
3027 1 73.1569 16.5671 1212 103.028 429.581 463.091
3028 0 70.1738 9.78997 687 110.371 429.809 467.937
3029 0 76.1746 13.4166 1022 106.222 430.493 466.055
3030 0 77.097 12.6594 976 108.013 429.424 461.94
3031 0 80.4464 12.0701 971 108.123 429.426 460.671
3032 0 82.2195 16.3465 1344 101.729 430.194 468.474
3033 0 83.4568 14.163 1182 104.854 429.545 467.499
3034 0 82.2086 16.3 1340 102.193 429.64 469.007
3035 0 82.1884 15.2698 1255 103.166 429.668 469.053
3036 0 80.1922 7.27004 583 112.148 429.48 470.907
3037 1 98.3064 13.4579 1323 105.075 429.02 464.667
3038 0 99.2182 11.2782 1119 107.886 429.306 465.919
3039 1 159.06 13.8312 2200 108.099 426.786 434.467
3040 1 108.476 13.2656 1439 105.598 427.105 464.101
3041 0 108.476 13.9754 1516 146.187 426.109 462.676
3042 0 107.462 14.861 1597 106.337 426.077 456.407
3043 0 110.449 12.3225 1361 108.993 425.486 457.816
3044 0 115.465 15.9875 1846 103.44 423.896 460.215
3045 0 120.763 14.3338 1731 106.324 423.67 456.313
3046 0 123.398 15.5756 1922 104.77 421.741 451.026
3047 0 123.265 9.92984 1224 108.271 422.181 453.606
3048 1 273.379 14.6061 3993 108.812 422.972 390.081
3049 0 272.654 12.3967 3380 109.217 422.078 401.978
3050 0 271.366 11.4163 3098 111.377 422.737 392.867
3051 0 270.645 13.0097 3521 109.587 421.924 384.032
3052 1 233.668 15.736 3677 105.663 422.455 385.596
3053 0 243.233 13.5014 3284 105.149 421.119 410.721
3054 0 250.226 11.118 2782 108.347 420.457 399.288
3055 1 93.6505 17.1809 1609 100.605 420.961 458.807
3056 0 96.1731 15.0666 1449 102.133 421.719 456.798
3057 1 280.4 16.3802 4593 104.777 420.326 380.391
3058 1 97.7246 15.2776 1493 104.145 420.601 450.615
3059 0 102.767 12.0369 1237 108.235 420.918 449.408
3060 1 144.432 11.9641 1728 109.666 421.433 428.868
3061 1 111.001 12.9188 1434 107.625 422.115 445.555
3062 0 118.289 13.4079 1586 106.349 423.863 442.173
3063 0 116.946 13.2968 1555 107.343 424.365 440.995
3064 0 121.727 12.1748 1482 108.433 425.007 442.212
3065 0 124.988 18.0098 2251 102.302 425.191 440.12
3066 0 129.793 13.3213 1729 108.422 425.178 433.088
3067 0 136.917 16.4041 2246 105.219 426.069 433.55
3068 0 145.262 20.3633 2958 99.8239 426.315 431.698
3069 0 148.03 18.6178 2756 102.559 427.3 428.266
3070 0 153.878 18.3067 2817 102.781 427.807 422.386
3071 0 158.908 17.2049 2734 104.178 427.302 425.004
3072 1 93.9244 11.2963 1061 109.139 427.928 459.123
3073 0 97.9364 12.2631 1201 107.724 428.509 457.749
3074 0 99.9813 13.9426 1394 106.735 428.975 452.618
3075 0 104.796 13.3784 1402 106.915 427.454 455.118
3076 0 110.119 16.0644 1769 104.499 427.419 451.984
3077 0 109.701 17.1648 1883 103.536 428.467 449.031
3078 0 111.747 14.2912 1597 106.733 427.252 451.779
3079 0 115.906 13.9165 1613 107.929 427.621 446.836
3080 0 122.896 13.0272 1601 107.373 426.054 451.705
3081 0 130.841 19.3364 2530 100.202 426.287 448.827
3082 0 132.943 17.579 2337 103.701 426.325 444.569
3083 0 136.056 14.4867 1971 107.766 426.138 445.488
3084 0 140.104 14.689 2058 108.09 425.477 440.522
3085 0 142.798 19.0059 2714 103.401 424.451 431.557
3086 0 149.147 13.5504 2021 108.675 423.58 438.839
3087 0 153.969 17.5295 2699 104.117 423.62 435.621
3088 0 160.018 19.5666 3131 101.411 422.769 429.541
3089 0 166.219 18.7283 3113 102.624 421.934 417.518
3090 0 172.174 20.7116 3566 100.346 421.479 424.604
3091 0 173.966 15.2616 2655 106.732 420.234 426.368
3092 0 180.592 14.4912 2617 108.661 421.032 417.331
3093 0 187.812 17.3578 3260 105.713 420.015 407.311
3094 0 193.94 13.86 2688 110.266 418.607 409.511
3095 1 108.742 13.4446 1462 105.737 417.999 444.966
3096 0 108.742 13.3895 1456 138.161 416.998 444.893
3097 0 115.661 13.4964 1561 108.261 418.746 434.288
3098 0 121.797 15.3699 1872 106.112 418.795 431.435
3099 0 126.804 15.0232 1905 105.772 419.023 431.362
3100 1 55.1688 14.4103 795 97.073 418.049 471.347
3101 0 54.0727 13.0195 704 99.0824 417.986 471.26
3102 0 56.1994 11.8684 667 104.12 418.816 464.43
3103 0 62.1756 12.3521 768 102.68 419.188 467.897
3104 0 62.8887 13.6273 857 98.4131 419.888 470.618
3105 0 61.583 12.2436 754 99.8594 419.898 471.041
3106 0 67.6997 13.1315 889 100.286 420.919 465.588
3107 0 65.6742 12.9731 852 100.866 421.087 461.972
3108 0 73.452 13.6416 1002 98.2345 421.621 465.264
3109 0 75.4002 13.5676 1023 100.371 424.635 465.125
3110 0 77.4733 9.71948 753 103.928 425.871 465.673
3111 0 78.4442 11.0779 869 105.293 425.899 457.329
3112 0 82.3165 11.4679 944 103.365 426.846 460.945
3113 1 43.0731 12.4208 535 91.2336 426.759 482.062
3114 0 45.2419 11.7148 530 92.6528 427.334 480.766
3115 0 43.2761 11.5075 498 93.992 427.462 478.653
3116 0 45.5106 11.5797 527 95.6129 428.539 481.784
3117 0 44.2912 15.24 675 92.0356 427.021 481.898
3118 0 47.2526 11.2163 530 96.0774 428.475 481.372
3119 0 51.3658 12.4012 637 94.3564 427.465 482.619
3120 0 50.1813 10.3624 520 96.8212 427.533 484.248
3121 0 48.1562 5.17068 249 102.546 428.855 488.703
3122 0 52.3859 12.6943 665 95.9188 426.156 482.744
3123 0 56.2584 9.65189 543 97.2762 427.376 484.538
3124 0 53.2319 11.8914 633 97.5276 425.924 478.962
3125 0 57.4096 10.486 602 98.7409 427.178 479.515
3126 0 61.3759 12.3664 759 96.6232 425.223 482.485
3127 0 60.241 10.9394 659 98.481 425.587 483.235
3128 0 61.3018 10.9458 671 98.4173 424.966 483.604
3129 0 63.3994 14.3692 911 95.5499 423.818 478.065
3130 0 67.2957 12.1553 818 96.8386 423.115 479.621
3131 0 67.4049 12.1208 817 98.3917 423.127 475.479
3132 0 69.3261 11.9147 826 97.23 422.321 476.962
3133 0 74.2833 13.8255 1027 95.6894 421.244 470.543
3134 0 73.6459 9.43705 695 100.794 420.783 472.374
3135 0 77.221 10.6707 824 100.256 420.68 466.795
3136 0 79.3049 11.2225 890 100.092 419.948 468.408
3137 0 84.358 12.7315 1074 98.7942 419.659 463.674
3138 0 88.3834 11.0315 975 102.284 419.458 460.599
3139 0 85.486 10.5046 898 103.395 419.245 455.2
3140 0 93.4198 11.7962 1102 101.657 419.744 454.017
3141 0 93.0532 10.2522 954 104.582 418.959 445.963
3142 0 101.531 12.7548 1295 99.5066 418.4 451.003
3143 0 100.563 12.5195 1259 100.766 417.802 443.492
3144 0 107.456 12.5167 1345 98.9859 419.327 448.464
3145 1 59.2917 11.7554 697 97.812 417.25 460.933
3146 0 62.2661 11.8363 737 97.3256 419.209 461.436
3147 0 64.3619 19.8099 1275 89.1741 419.444 460.089
3148 0 66.2069 13.0802 866 95.2413 419.729 459.057
3149 0 66.667 14.2349 949 95.4489 419.857 458.941
3150 0 69.259 10.7856 747 98.2062 421.969 458.936
3151 0 72.3017 11.3275 819 97.5348 420.929 454.672
3152 0 76.4189 13.8971 1062 95.2815 421.786 448.705
3153 0 77.476 10.9582 849 99.5701 422.282 452.294
3154 1 36.5191 8.29703 303 101.726 421.564 472.195
3155 0 37.4294 9.08377 340 101.962 422.944 469.518
3156 0 43.27 13.9358 603 93.9386 422.97 470.77
3157 0 45.3257 12.8183 581 95.0052 425.181 478.604
3158 0 43.0906 10.6752 460 98.2326 429.796 477.993
3159 0 43.0812 10.2133 440 99.9159 428.83 478.23
3160 0 43.0494 11.3358 488 99.8709 428.295 478.111
3161 0 43.0494 11.3823 490 125.427 428.273 478.071
3162 0 48.0997 13.7007 659 96.4021 427.891 479.332
3163 0 48.1655 13.1007 631 97.691 427.804 478.376
3164 0 46.0555 8.66345 399 105.406 428.594 477.431
3165 0 56.374 12.151 685 97.3708 428.219 482.543
3166 0 55.1362 13.8747 765 96.0941 427.595 483.6
3167 0 59.2976 14.1827 841 96.1201 427.759 481.477
3168 0 53.1079 10.94 581 103.339 428.346 478.038
3169 0 56.1262 12.561 705 100.553 427.089 477.942
3170 0 59.2182 12.8339 760 100.253 426.796 480.296
3171 0 61.2284 11.5796 709 98.2496 426.401 481.945
3172 0 62.5255 10.6197 664 100.009 424.801 482.965
3173 0 62.5255 10.5877 662 130.781 422.805 482.82
3174 0 67.1051 13.68 918 97.9782 423.383 477.004
3175 0 71.2257 12.7201 906 98.3676 423.104 475.732
3176 0 71.1571 16.0068 1139 94.1396 421.789 476.693
3177 0 71.1705 10.6083 755 101.201 422.539 473.021
3178 0 76.3482 12.1417 927 99.4693 421.068 470.707
3179 0 76.2155 12.3072 938 100.534 421.816 468.484
3180 0 79.1648 16.6741 1320 95.4326 420.961 468.134
3181 0 82.2078 12.0305 989 99.6835 420.424 467.728
3182 0 91.2274 16.9028 1542 93.8191 420.662 464.377
3183 1 49.1164 13.9668 686 94.3265 421.232 481.187
3184 0 50.0997 11.3574 569 98.7294 421.431 475.294
3185 0 47.2594 13.246 626 91.1006 419.859 471.621
3186 0 51.3172 8.73002 448 92.5491 419.504 476.203
3187 0 53.3552 10.7768 575 91.6661 419.591 469.619
3188 0 52.2617 12.5331 655 89.6244 420.386 468.05
3189 0 56.4533 10.3625 585 90.9709 421.301 472.651
3190 0 61.5179 11.6064 714 89.8838 421.896 471.564
3191 0 56.1364 10.617 596 91.9597 421.091 466.705
3192 0 59.221 13.4412 796 89.1495 420.498 462.054
3193 0 64.1622 15.1179 970 87.7268 421.413 468.96
3194 0 64.2062 14.9051 957 88.7879 423.214 464.044
3195 0 64.2159 13.9374 895 89.1408 422.431 468.219
3196 0 68.2432 8.4404 576 92.0573 424.163 471.286
3197 0 66.2038 9.04781 599 95 424.306 459.22
3198 0 70.1272 15.3008 1073 89.2227 425.038 463.942
3199 0 75.1192 10.064 756 92.0198 424.049 468.052
3200 0 76.4578 11.4311 874 92.1796 424.664 457.132
3201 0 77.3407 11.3136 875 93.0709 425.714 454.917
3202 0 84.5599 13.6471 1154 89.9749 425.529 461.338
3203 0 85.3006 11.1957 955 92.2084 424.396 465.418
3204 0 87.7411 8.50228 746 96.4169 425.26 456.481
3205 0 91.1108 14.444 1316 90.9339 425.072 457.209
3206 0 94.1606 12.2344 1152 91.0547 425.618 463.739
3207 0 97.369 12.2318 1191 90.8934 424.851 464.661
3208 0 102.221 13.5295 1383 91.7578 426.899 454.579
3209 0 102.401 10.4003 1065 96.631 424.755 451.831
3210 0 110.322 16.7872 1852 90.0211 425.334 453.751
3211 0 109.656 13.7521 1508 96.0206 424.843 451.717
3212 0 112.952 11.7572 1328 97.8012 424.797 450.831
3213 0 116.66 12.5493 1464 96.8893 423.794 453.872
3214 0 117.79 13.1166 1545 97.2563 423.762 450.797
3215 0 118.909 7.95564 946 103.619 422.656 444.319
3216 0 130.727 16.5307 2161 93.5437 422.84 450.779
3217 0 129.935 15.223 1978 96.5288 421.04 438.69
3218 1 69.3685 11.9795 831 93.2154 422.091 473.022
3219 0 71.3095 12.3826 883 93.6217 420.776 469.599
3220 0 74.289 13.1917 980 92.1071 420.632 468.99
3221 0 76.4742 12.004 918 93.7854 421.203 467.923
3222 0 74.2176 9.93025 737 95.6866 420.682 469.362
3223 0 84.4185 17.2119 1453 90.1342 419.585 463.109
3224 0 82.2415 12.5241 1030 95.6728 419.308 458.671
3225 0 85.4992 15.2984 1308 92.9281 420.684 455.961
3226 0 89.3389 17.8981 1599 89.3927 418.512 462.97
3227 0 95.5174 11.7675 1124 95.46 420.35 457.157
3228 0 100.41 16.3529 1642 92.7899 419.155 451.649
3229 1 53.3034 12.9448 690 97.2826 420.786 473.261
3230 0 54.1431 10.6939 579 98.3126 421.342 475.86
3231 0 58.229 17.3281 1009 91.7502 421.442 472.873
3232 0 60.2274 12.7351 767 97.2568 422.113 472.064
3233 0 60.2274 12.8845 776 130.878 423.076 472.054
3234 0 60.1715 10.8357 652 101.391 422.748 468.825
3235 0 65.1642 18.5685 1210 90.9306 422.821 470.139
3236 0 66.1509 12.8343 849 97.4629 424.682 468.896
3237 0 66.2109 13.0341 863 98.2549 424.534 462.301
3238 0 70.2198 14.4119 1012 97.4002 424.313 464.771
3239 0 72.1521 14.22 1026 99.2651 425.254 460.169
3240 0 75.0713 19.3416 1452 93.3547 424.991 460.185
3241 0 75.0713 19.3682 1454 120.794 424.979 460.244
3242 0 80.1045 16.8155 1347 95.8649 426.488 458.897
3243 0 81.1262 16.5668 1344 96.5298 427.106 459.565
3244 0 85.324 14.0289 1197 100.981 427.431 459.057
3245 0 88.1688 15.1868 1339 100.163 427.326 457.822
3246 0 91.1447 17.0718 1556 97.9235 428.488 454.303
3247 0 91.2225 15.3909 1404 101.368 426.836 456.222
3248 0 92.1734 13.8001 1272 103.517 426.656 456.642
3249 0 94.3159 13.2003 1245 105.529 427.787 457.509
3250 0 98.2022 17.0872 1678 99.4017 427.867 456.518
3251 1 53.0809 12.5469 666 103.758 428.682 473.03
3252 0 53.0809 12.4527 661 136.676 427.696 472.968
3253 0 55.3781 11.4305 633 96.5213 427.42 476.36
3254 0 56.2967 6.94535 391 99.5422 427.269 482.862
3255 0 58.2719 10.9315 637 100.581 428 476.551
3256 0 64.2655 11.8104 759 98.61 426.982 473.723
3257 0 64.2881 12.8484 826 98.178 426.456 474.021
3258 0 65.3593 12.2094 798 98.2331 426.321 473.04
3259 0 70.342 10.1362 713 99.8696 426.09 474.32
3260 0 72.3582 14.3177 1036 96.4942 424.857 469.323
3261 0 75.5218 13.9827 1056 96.8201 424.234 464.091
3262 0 77.3065 11.7325 907 97.9526 424.365 471.101
3263 0 80.356 14.0998 1133 97.1589 423.654 463.509
3264 0 81.2662 9.8688 802 101.133 423.799 465.711
3265 0 86.3708 15.5724 1345 93.1517 422.827 465.77
3266 0 88.3012 14.0089 1237 96.2538 421.972 461.513
3267 0 92.5128 11.8362 1095 100.195 421.881 460.68
3268 0 96.3079 12.8961 1242 99.5974 420.89 451.062
3269 0 97.4302 10.5204 1025 101.731 419.94 451.755
3270 1 54.8158 16.2909 893 93.0134 420.125 469.188
3271 0 54.6248 9.72086 531 101.718 419.595 463.222
3272 0 59.3078 12.8651 763 94.4377 420.174 470.794
3273 0 58.5134 12.9372 757 94.749 420.034 463.884
3274 0 58.176 10.6573 620 96.7936 420.206 467.01
3275 0 62.3622 13.2292 825 94.9442 421.034 460.325
3276 0 61.1289 8.22852 503 100.39 420.402 459.266
3277 0 68.3897 15.0023 1026 93.231 422.174 457.942
3278 0 70.2796 10.7855 758 97.4578 423.908 456.881
3279 0 73.4657 12.482 917 96.5583 423.136 456.616
3280 0 72.4146 12.6632 917 97.4864 425.709 454.384
3281 0 75.3374 14.7868 1114 96.8995 424.669 451.906
3282 0 80.4076 13.3694 1075 98.4149 425.221 449.922
3283 0 80.4076 13.3818 1076 144.715 424.217 450.089
3284 0 82.3532 10.4307 859 101.383 428.163 456.542
3285 0 86.4076 8.84182 764 105.809 428.31 452.376
3286 0 91.3199 16.3601 1494 97.824 429.266 447.742
3287 0 94.4745 14.4166 1362 98.4501 429.014 456.059
3288 0 97.2362 13.9866 1360 100.278 430.512 449.96
3289 0 102.742 15.0766 1549 97.3196 429.648 448.779
3290 0 100.704 12.2239 1231 102.754 431.246 446.274
3291 1 54.2325 11.2294 609 95.3317 430.128 473.698
3292 0 56.5088 14.4933 819 98.2088 428.586 465.832
3293 0 58.2092 10.9948 640 107.059 427.777 468.57
3294 0 58.4547 14.353 839 103.487 428.327 470.901
3295 0 61.3357 12.7495 782 104.936 427.165 471.205
3296 0 65.35 20.3366 1329 94.4485 426.742 473.226
3297 0 68.5604 16.3068 1118 99.4911 427.171 470.279
3298 0 68.2953 15.3305 1047 100.989 426.877 470.907
3299 0 73.2409 18.2139 1334 97.6102 426.762 468.493
3300 0 74.3381 16.6671 1239 99.6376 426.704 467.63
3301 0 77.2832 16.0449 1240 100.217 425.638 463.865
3302 0 79.4988 16.5663 1317 99.221 425.843 466.332
3303 0 81.1936 14.373 1167 102.558 423.982 464.189
3304 0 82.3095 14.8585 1223 102.558 423.393 460.993
3305 0 87.3346 15.4234 1347 100.451 424.146 462.01
3306 0 91.4632 16.903 1546 99.2658 423.677 458.239
3307 1 45.1994 10.3541 468 105.635 423.297 477.912
3308 0 45.2796 10.6008 480 107.175 423.873 474.656
3309 0 49.1731 10.9613 539 104.891 422.837 477.694
3310 0 50.2072 14.9182 749 92.6115 421.263 474.056
3311 0 52.2972 10.5359 551 100.25 421.599 471.39
3312 0 52.1928 18.9107 987 90.3576 420.789 471.069
3313 0 54.2967 14.1813 770 96.7636 421.947 465.599
3314 0 55.2419 12.2009 674 99.2359 421.487 462.737
3315 0 60.1891 15.4845 932 93.5311 421.965 467.054
3316 0 60.2182 13.7002 825 96.5721 421.532 462.179
3317 0 61.1441 19.1515 1171 91.5611 420.813 462.878
3318 0 62.0738 13.6128 845 97.7669 421.906 459.491
3319 0 67.299 13.2989 895 97.9631 425.306 462.13
3320 0 69.3005 15.642 1084 94.6393 426.496 465.282
3321 0 71.0826 20.2018 1436 91.4875 426.775 460.4
3322 0 75.2288 15.3797 1157 95.6188 427.871 459.855
3323 0 77.1043 14.9927 1156 95.8426 427.33 459.262
3324 0 79.1585 14.9826 1186 98.0902 428.274 453.947
3325 0 83.1175 15.9654 1327 96.0656 428.629 456.732
3326 0 82.1511 13.2926 1092 99.8196 429.085 457.414
3327 0 85.2716 11.1057 947 103.331 429.872 453.003
3328 1 47.0483 14.0919 663 98.1312 430.827 470.677
3329 0 51.2049 16.5023 845 94.0166 429.579 470.45
3330 0 50.0525 17.2619 864 93.8669 430.042 471.567
3331 0 51.087 15.4051 787 95.878 430.435 471.728
3332 0 49.2085 12.6401 622 100.707 430.764 474.558
3333 0 50.0752 11.1233 557 104.056 430.688 471.792
3334 0 52.1021 12.5139 652 101.46 431.969 475.003
3335 0 54.087 17.7677 961 94.3892 429.762 474.998
3336 0 54.1116 11.3839 616 104.159 431.485 472.969
3337 0 60.1021 15.091 907 99.9813 430.935 471.628
3338 0 61.0967 13.405 819 102.706 430.956 470.557
3339 0 61.088 15.7314 961 100.155 429.265 474.152
3340 0 65.1864 13.5918 886 103.43 430.097 471.964
3341 0 66.2481 17.3137 1147 99.0758 428.298 472.087
3342 0 70.2096 15.7956 1109 101.112 428.61 472.016
3343 0 70.2192 11.8771 834 104.436 428.924 475.031
3344 0 72.1669 18.0692 1304 99.8136 427.26 469.989
3345 0 76.293 16.8036 1282 101.541 428.073 467.648
3346 0 75.1934 13.8177 1039 106.378 426.023 464.339
3347 0 81.3442 15.8708 1291 103.523 427.122 462.593
3348 0 82.3115 16.9964 1399 101.851 426.81 464.234
3349 0 83.1918 13.5831 1130 109.349 425.685 458.504
3350 0 89.2156 18.898 1686 99.7888 425.344 458.59
3351 0 90.2263 14.3196 1292 105.986 425.706 455.911
3352 0 94.2723 20.4196 1925 97.7958 425.758 449.622
3353 1 52.1089 12.7042 662 106.544 426.434 472.103
3354 0 55.0599 17.036 938 99.5853 425.434 471.255
3355 0 56.1198 18.0685 1014 99.6588 425.128 469.296
3356 0 57.1032 16.0236 915 101.365 424.975 469.509
3357 0 60.0684 17.58 1056 99.2775 424.895 466.259
3358 0 64.137 15.1707 973 101.086 425.099 466.909
3359 0 62.2049 14.2432 886 104.418 425.366 462.317
3360 0 66.1188 13.022 861 106 425.384 461.57
3361 0 71.1174 16.5782 1179 99.6421 426.851 463.46
3362 0 72.2869 17.8456 1290 99.6868 426.507 458.192
3363 0 72.1245 15.1959 1096 103.911 427.422 460.417
3364 0 73.2717 14.4258 1057 106.445 427.062 454.271
3365 0 78.2799 16.3899 1283 102.41 428.359 460.107
3366 0 78.5305 16.8342 1322 104.635 426.753 453.49
3367 0 82.5123 15.525 1281 104.585 428.382 459.249
3368 0 83.2369 16.6873 1389 106.291 428.871 453.441
3369 0 84.3135 15.2763 1288 109.292 428.869 450.249
3370 0 88.4837 15.2232 1347 109.627 429.574 446.281
3371 0 91.7056 17.578 1612 106.481 430.132 447.151
3372 0 96.4519 16.2568 1568 108.159 430.188 446.754
3373 0 97.3013 15.488 1507 109.994 430.124 446.823
3374 0 100.231 12.4513 1248 109.746 429.681 441.571
3375 1 51.1112 14.2043 726 100.515 430.452 470.446
3376 0 50.2404 11.1464 560 105.862 430.45 469.293
3377 0 52.4511 14.7375 773 101.017 430.201 470.268
3378 0 56.263 19.7643 1112 94.4829 429.37 468.369
3379 0 58.2933 14.8731 867 97.8927 428.678 472.316
3380 0 57.3316 14.4597 829 101.356 429.695 470.253
3381 0 60.2234 13.4997 813 101.797 429.727 467.993
3382 0 62.2354 14.1559 881 100.413 427.994 466.966
3383 0 67.3775 16.133 1087 98.333 428.105 464.692
3384 0 67.2379 20.1523 1355 94.1624 427.584 466.31
3385 0 70.1837 17.0837 1199 97.447 426.601 466.256
3386 0 73.4022 14.3047 1050 99.959 426.702 465.17
3387 0 71.3153 14.0643 1003 101.316 425.609 467.266
3388 0 75.1253 11.381 855 103.653 426.161 467.501
3389 0 80.2713 14.4759 1162 101.268 425.9 463.669
3390 0 82.1742 12.7412 1047 103.118 424.832 463.872
3391 0 84.324 15.8555 1337 99.3141 424.797 460.641
3392 0 87.3044 12.6454 1104 103.305 424.29 457.379
3393 0 88.177 16.3308 1440 98.9618 424.542 458.207
3394 0 90.2113 12.504 1128 104.932 425.412 456.23
3395 1 49.3488 15.1574 748 102.29 422.338 473.579
3396 0 49.6127 18.0196 894 97.2752 423.311 473.299
3397 0 52.4117 14.1571 742 101.982 422.292 471.224
3398 0 50.2044 12.9471 650 102.537 424.315 469.968
3399 0 54.3221 14.4692 786 99.8677 424.324 471.753
3400 0 56.7049 13.9847 793 102.203 424.685 467.216
3401 0 56.573 16.8632 954 98.9036 423.285 463.791
3402 0 62.3429 14.8373 925 101.337 422.613 463.035
3403 0 64.2918 15.2274 979 100.938 424.276 464.826
3404 0 67.6673 14.0245 949 100.541 424.325 465.003
3405 0 67.3521 11.3434 764 105.149 425.185 458.465
3406 0 71.3677 15.1749 1083 100.272 424.57 458.099
3407 0 74.7798 14.9907 1121 101.605 425.335 454.278
3408 0 77.5442 13.992 1085 101.997 427.498 454.62
3409 1 151.482 12.4635 1888 109.528 426.781 415.047
3410 1 79.4829 13.0594 1038 105.306 427.049 448.474
3411 0 88.8772 20.9053 1858 94.6851 427.554 444.605
3412 0 86.6995 15.4095 1336 102.565 427.406 443.838
3413 0 93.1169 18.4177 1715 98.0198 428.995 443.791
3414 0 93.1169 18.4284 1716 132.663 431.98 443.938
3415 0 98.5195 14.9615 1474 103.336 428.99 443.363
3416 1 53.6738 13.8056 741 100.166 430.513 465.055
3417 0 54.8186 14.3017 784 99.2219 428.917 463.809
3418 0 55.0729 10.0775 555 105.092 431.074 469.378
3419 0 60.1585 17.7531 1068 95.4485 431.607 467.18
3420 0 64.1686 16.5346 1061 95.9585 430.198 468.628
3421 0 63.313 15.2417 965 99.2632 429.801 463.806
3422 0 64.5255 14.5989 942 98.8758 429.374 466.381
3423 0 69.6025 13.4622 937 99.222 429.677 468.52
3424 0 71.4781 15.2914 1093 99.086 432.133 467.304
3425 0 69.374 11.82 820 106.002 431.15 464.389
3426 0 75.2962 12.8692 969 102.617 430.989 465.088
3427 0 74.653 11.6003 866 107.069 429.225 460.634
3428 0 80.3024 18.5175 1487 97.4412 429.65 462.742
3429 0 85.1631 17.0262 1450 97.7676 428.869 463.267
3430 0 88.0033 13.7949 1214 103.703 428.462 454.619
3431 1 48.4658 12.6481 613 100.835 428.959 475.284
3432 0 48.5422 12.793 621 100.684 426.51 474.333
3433 0 50.5363 12.7829 646 99.8266 426.842 475.56
3434 0 51.1379 12.8672 658 100.698 427.362 473.812
3435 0 57.3195 14.5151 832 97.756 428.155 472.983
3436 0 55.1206 10.1777 561 103.701 428.433 475.51
3437 0 55.3445 12.3228 682 101.842 426.729 471.723
3438 0 57.0861 13.3132 760 101.424 425.937 467.268
3439 0 62.1088 15.1025 938 98.1844 426.047 468.516
3440 0 60.2482 12.0335 725 103.239 425.69 465.481
3441 0 68.0959 16.6677 1135 97.704 425.944 466.971
3442 0 68.245 13.3929 914 103.844 426.538 460.449
3443 0 68.2825 10.2515 700 103.686 426.63 462.889
3444 0 71.4468 15.8719 1134 97.3889 425.377 460.014
3445 0 75.5398 17.5537 1326 95.9042 425.619 454.872
3446 0 73.2676 11.4512 839 103.841 426.528 456.585
3447 0 81.4385 17.547 1429 95.2169 426.82 455.378
3448 0 81.1895 14.5462 1181 101.43 426.633 447.801
3449 0 84.4902 23.6004 1994 92.1058 426.111 449.457
3450 0 90.3099 17.3292 1565 96.1182 427.505 455.173
3451 0 87.3044 14.8675 1298 103.71 427.748 444.119
3452 0 92.5156 17.3592 1606 99.8026 426.417 450.991
3453 1 50.1167 10.2162 512 104.926 429.65 463.92
3454 0 56.0747 12.4477 698 100.509 428.938 464.814
3455 0 53.1315 11.9138 633 99.8531 431.852 469.859
3456 0 53.128 11.8958 632 104.407 431.392 462.391
3457 0 58.1614 11.2446 654 102.405 430.251 465.518
3458 0 60.5336 14.5704 882 97.6122 429.408 464.053
3459 0 63.8089 12.6001 804 101.741 428.9 459.061
3460 0 63.2091 10.9794 694 103.212 430.51 464.873
3461 0 64.2881 10.7018 688 103.6 431.23 466.422
3462 0 66.3125 11.9284 791 102.315 431.492 464.446
3463 0 66.2651 13.5969 901 103.837 430.384 463.437
3464 0 70.226 13.9122 977 102.535 430.355 461.036
3465 0 75.3626 12.7384 960 102.798 430.942 460.776
3466 0 74.429 12.1727 906 105.31 430.161 462.387
3467 0 80.4842 15.941 1283 100.32 429.38 461.429
3468 0 81.1534 14.3186 1162 102.664 430.236 460.164
3469 0 83.197 10.974 913 107.206 428.893 459.417
3470 0 84.1852 11.4866 967 106.209 429.898 461.285
3471 0 91.3718 12.4437 1137 105.878 428.847 454.89
3472 0 94.4779 13.2518 1252 104.74 427.537 454.375
3473 0 92.1886 13.4507 1240 105.032 428.24 450.744
3474 0 98.4204 12.2028 1201 105.485 427.316 452.351
3475 0 103.452 11.9959 1241 105.777 424.962 454.777
3476 0 110.18 14.2221 1567 102.372 424.844 450.532
3477 0 110.409 12.9066 1425 104.827 424.644 448.909
3478 1 60.3322 11.6521 703 103.835 425.724 473.134
3479 0 63.4531 12.3241 782 103.125 424.171 471.65
3480 0 66.1276 11.9164 788 102.839 425.643 472.423
3481 0 67.1626 9.544 641 106.903 424.835 468.137
3482 0 64.2883 12.3506 794 104.549 423.128 461.904
3483 0 70.2205 14.8105 1040 101.462 423.263 464.317
3484 0 70.5641 11.2947 797 106.356 422.804 460.322
3485 0 72.5538 14.5409 1055 100.796 422.751 460.633
3486 0 76.4838 13.6238 1042 102.977 423.111 461.546
3487 0 80.421 17.2343 1386 98.0209 422.464 456.902
3488 0 80.5497 12.1043 975 104.657 425.115 456.47
3489 0 87.5433 10.6804 935 104.84 425.474 458.249
3490 0 84.6412 11.7082 991 106.124 424.879 450.676
3491 0 89.5437 15.0988 1352 101.61 425.058 448.031
3492 0 91.4695 10.8342 991 107.066 425.527 446.808
3493 0 94.4705 13.1046 1238 103.502 425.296 447.333
3494 1 52.0953 10.8455 565 100.504 427.86 468.088
3495 0 55.0427 10.2284 563 102.686 427.261 465.675
3496 0 51.2653 9.67517 496 105.417 428.419 463.476
3497 0 55.0529 12.0793 665 101.803 427.441 461.647
3498 0 61.3489 12.2089 749 99.8211 428.846 467.087
3499 0 60.1043 13.2437 796 98.0151 428.553 466.593
3500 0 59.1008 11.8273 699 99.4893 428.568 465.459
3501 0 56.0686 10.9687 615 102.758 429.07 462.398
3502 0 67.1694 8.81354 592 103.419 430.118 467.291
3503 0 68.3697 10.3701 709 132.542 432.007 464.221
3504 0 67.2356 12.9991 874 99.8867 431.229 461.931
3505 0 69.1204 13.5271 935 100.169 430.042 463.659
3506 0 65.2771 11.5967 757 103.959 430.318 459.478
3507 0 73.214 13.4401 984 99.9238 429.744 466.073
3508 0 73.1627 9.25335 677 107.31 429.722 464.09
3509 0 75.2339 12.614 949 103.662 429.545 462.303
3510 1 158.977 13.3542 2123 107.388 428.562 428.678
3511 0 163.878 8.64667 1417 112.093 428.675 435.337
3512 1 85.2616 13.8867 1184 99.973 429.252 466.486
3513 0 84.4821 10.3217 872 107.317 427.573 458.126
3514 0 88.2998 11.846 1046 104.292 426.781 459.085
3515 0 96.2478 14.6081 1406 100.087 425.746 454.237
3516 1 44.0914 12.2927 542 99.2841 427.142 477.948
3517 0 41.3323 11.9519 494 98.4595 425.095 474.794
3518 0 44.5489 10.1237 451 100.14 423.889 473.82
3519 0 46.1224 11.4261 527 97.3454 424.653 475.577
3520 0 48.086 9.10868 438 99.968 424.785 472.642
3521 0 49.0376 9.93115 487 98.9404 424.916 471.741
3522 0 54.1971 10.5725 573 96.3403 425.405 474.998
3523 0 56.1388 9.56558 537 97.5251 423.311 473.229
3524 0 59.1752 11.3899 674 96.4466 424.116 466.8
3525 0 51.1263 5.28104 270 105.944 423.767 464.748
3526 0 59.1372 13.2911 786 93.9873 422.901 464.999
3527 0 60.2158 15.7434 948 90.961 422.8 465.691
3528 0 63.0909 10.3977 656 97.0396 423.709 463.604
3529 0 59.1803 8.65153 512 100.393 423.228 460.85
3530 0 68.2908 11.4803 784 95.7066 423.496 461.77
3531 0 67.2154 9.80429 659 98.8725 423.533 456.622
3532 0 70.1429 10.4929 736 99.0571 423.931 450.55
3533 0 76.2553 18.3463 1399 88.8463 421.934 458.198
3534 0 76.2553 18.5036 1411 106.798 422.897 458.162
3535 0 80.0605 11.5163 922 99.3341 423.641 453.303
3536 0 85.1774 14.7692 1258 94.8084 424.661 449.713
3537 0 84.3408 12.2242 1031 98.0116 424.655 450.435
3538 0 91.2741 14.2099 1297 95.4958 425.106 452.229
3539 0 89.156 11.9678 1067 98.7891 426.27 449.973
3540 0 90.2658 11.6988 1056 99.946 426.469 448.666
3541 0 93.2989 13.5264 1262 97.2694 426.734 444.437
3542 1 54.081 15.5322 840 91.1964 426.235 468.895
3543 0 51.0942 7.90697 404 101.181 427.084 462.334
3544 0 56.2528 9.47508 533 97.3302 427.773 464.169
3545 0 56.1624 8.74251 491 99.0794 428.13 458.707
3546 0 60.1187 10.3628 623 96.7592 427.986 461.274
3547 0 61.2634 15.9639 978 90.229 426.677 462.42
3548 0 65.2263 5.74921 375 100.869 428.507 464.624
3549 0 66.3988 15.1057 1003 89.9741 428.183 464.225
3550 0 69.2646 12.6038 873 91.8408 427.024 468.17
3551 0 72.2155 12.3796 894 93.189 426.867 465.039
3552 0 73.1347 16.4081 1200 89.7833 426.926 463.583
3553 0 74.3362 18.3087 1361 89.2506 427.439 461.622
3554 0 77.2686 9.4605 731 94.9726 425.458 463.813
3555 0 77.5222 8.90067 690 95.7739 426.535 461.043
3556 0 85.3608 22.8559 1951 82.571 425.45 465.315
3557 1 161.461 10.7952 1743 99.7527 426.849 423.922
3558 1 92.289 13.0026 1200 92.3492 425.322 454.321
3559 0 93.3062 10.5995 989 95.4338 424.609 453.757
3560 0 99.3284 19.5714 1944 86.5329 424.225 454.42
3561 0 99.5279 12.5091 1245 93.5936 423.199 453.526
3562 0 99.2424 10.5096 1043 96.8447 422.453 450.747
3563 0 108.275 13.281 1438 92.8401 423.127 450.258
3564 1 54.5036 12.2744 669 91.1584 420.653 472.762
3565 0 59.1061 11.2002 662 91.5967 421.483 472.589
3566 0 60.3453 11.3679 686 95.4665 421.391 469.966
3567 0 64.1767 10.7048 687 91.5691 420.354 469.164
3568 0 63.2675 14.5256 919 87.7258 420.8 472.879
3569 0 65.353 8.87488 580 94.1466 420.334 466.812
3570 0 69.3324 18.707 1297 85.0116 419.514 465.403
3571 0 72.3487 12.9373 936 89.7639 419.279 462.224
3572 0 71.1952 12.2059 869 94.4281 420.42 458.979
3573 1 141.706 13.2951 1884 96.2845 420.26 431.69
3574 0 146.569 14.4642 2120 91.1415 420.527 446.829
3575 1 77.1182 12.7856 986 94.2992 421.552 460.88
3576 0 81.1761 16.5196 1341 90.5966 422.48 458.045
3577 1 149.443 6.12273 915 103.108 422.056 430.474
3578 0 165.875 15.4454 2562 94.8747 422.988 407.33
3579 0 173.691 14.877 2584 94.9892 422.774 406.364
3580 0 178.614 14.0303 2506 96.1054 422.002 402.916
3581 1 96.3007 10.9345 1053 97.8652 422.84 446.312
3582 0 98.4558 18.6886 1840 90.3022 422.708 441.812
3583 0 101.347 14.0408 1423 95.5425 423.722 444.299
3584 0 97.2867 12.9 1255 96.2327 425.029 445.64
3585 1 58.0889 11.0348 641 90.2465 424.348 470.48
3586 0 59.2159 13.5605 803 90.0262 425.362 465.229
3587 0 61.3723 19.064 1170 85.3641 425.119 462.837
3588 0 60.2532 21.4926 1295 84.8201 424.925 460.032
3589 0 65.1739 13.4103 874 91.2792 425.911 460.95
3590 0 67.2544 15.4934 1042 89.8608 426.074 462.131
3591 0 68.4595 12.3431 845 92.7775 426.916 463.033
3592 0 69.1264 17.7935 1230 88.352 427.081 465.209
3593 0 71.3976 13.4038 957 92.1411 426.933 466.68
3594 0 75.2078 16.6871 1255 89.9028 426.01 463.647
3595 0 77.4677 16.5359 1281 91.0523 426.379 463.813
3596 0 82.208 18.0031 1480 91.0054 426.512 460.73
3597 0 82.3212 14.2855 1176 95.2355 426.497 459.486
3598 0 83.2978 11.801 983 100.66 426.126 456.608
3599 0 89.8439 14.1913 1275 95.7741 425.202 461.25
3600 0 90.5656 16.2313 1470 95.1823 424.627 454.03
3601 0 95.5111 16.6787 1593 93.7439 425.186 456.979
3602 0 96.4111 14.1477 1364 98.7126 423.778 455.018
3603 0 97.2552 14.5185 1412 98.8463 424.326 450.487
3604 0 103.396 16.1128 1666 96.6855 422.56 448.33
3605 0 104.467 12.0325 1257 102.632 421.617 450.519
3606 0 108.646 13.162 1430 102.96 421.233 440.806
3607 1 68.0867 14.7018 1001 97.4216 420.166 464.887
3608 0 66.2543 12.5879 834 101.908 420.128 467.242
3609 0 69.4702 12.4514 865 100.762 420.017 463.142
3610 0 74.1135 13.4793 999 100.872 419.041 466.213
3611 0 75.1758 13.5815 1021 101.475 420.697 462.809
3612 0 73.1266 13.1826 964 130.35 421.584 461.937
3613 0 79.1655 17.1034 1354 97.2415 419.371 458.94
3614 0 81.4537 15.3093 1247 99.1588 419.174 457.265
3615 0 81.5309 12.7436 1039 103.009 419.601 454.982
3616 0 90.7369 15.4292 1400 97.9107 419.525 453.439
3617 0 88.1951 14.3205 1263 100.358 419.61 451.983
3618 0 92.3325 16.3539 1510 98.5404 419.739 445.634
3619 0 97.3456 18.2443 1776 93.5011 420.819 450.952
3620 0 101.54 14.7135 1494 98.0502 420.005 443.977
3621 0 99.62 16.9645 1690 96.855 420.124 436.957
3622 0 104.464 16.8958 1765 96.0181 420.944 437.665
3623 0 106.516 13.782 1468 101.008 421.515 433.58
3624 0 115.631 13.8717 1604 98.2263 421.522 440.433
3625 0 117.77 14.2397 1677 101.152 422.306 425.54
3626 0 120.592 14.8683 1793 99.86 422.502 428.754
3627 0 126.78 15.7911 2002 98.1563 423.275 430.389
3628 0 130.709 17.757 2321 97.751 426.036 424.47
3629 0 131.75 12.9108 1701 104.322 425.364 423.838
3630 0 129.67 14.2516 1848 103.389 426.72 421.386
3631 1 141.476 14.3982 2037 102.511 425.82 417.423
3632 0 146.554 16.151 2367 100.294 427.846 419.926
3633 0 149.422 14.0809 2104 102.149 426.626 416.784
3634 1 78.2792 7.85649 615 101.462 427.626 461.779
3635 0 82.3665 12.845 1058 97.7117 428.196 453.765
3636 0 89.3358 16.4772 1472 92.9096 428.058 459.232
3637 0 90.3952 13.6401 1233 97.3617 426.671 451.959
3638 0 93.4745 16.2932 1523 94.2994 428.146 455.201
3639 0 97.4341 12.1415 1183 99.4286 427.995 456.692
3640 0 99.2494 14.3578 1425 97.1102 428.125 453.923
3641 0 104.443 15.0512 1572 97.374 427.306 451.212
3642 0 107.564 13.7313 1477 98.3778 429.21 452.83
3643 0 113.36 13.6379 1546 98.815 428.272 445.572
3644 0 118.397 13.6068 1611 98.2216 427.914 446.994
3645 1 54.4604 9.7502 531 96.3051 426.832 474.857
3646 0 56.537 13.531 765 92.0261 424.248 474.441
3647 0 56.5458 12.1494 687 94.3057 423.656 473.096
3648 0 59.474 19.7902 1177 88.124 423.274 469.209
3649 0 59.5955 12.6184 752 95.9641 422.453 469.507
3650 0 60.5129 10.6589 645 96.8915 421.955 471.34
3651 0 64.4857 13.9721 901 94.1643 420.994 466.598
3652 0 61.2528 14.9054 913 93.9376 420.046 466.406
3653 0 70.2623 17.9755 1263 89.1853 420.489 464.576
3654 0 70.5547 12.997 917 94.5311 418.443 465.366
3655 0 70.3497 11.4713 807 96.8575 419.037 466.249
3656 0 76.265 13.0728 997 94.0411 423.393 471.158
3657 0 72.1384 12.2126 881 97.403 422.628 465.402
3658 1 180.582 24.2383 4377 89.6073 420.716 403.861
3659 1 78.1082 11.0232 861 94.8908 422.11 470.782
3660 0 85.4852 14.3768 1229 94.1497 423.165 460.83
3661 0 85.0992 13.6547 1162 94.5112 423.268 460.216
3662 0 87.4249 12.6966 1110 96.0018 424.288 460.639
3663 0 91.3976 15.4162 1409 92.5209 422.713 459.005
3664 0 93.2457 13.7272 1280 97.2852 422.459 447.801
3665 0 99.5191 14.5198 1445 98.8616 422.812 446.064
3666 0 98.3074 17.0791 1679 97.2406 423.924 444.619
3667 1 52.1254 16.3644 853 94.68 425.24 466.925
3668 0 54.207 13.4484 729 98.0864 425.545 466.844
3669 0 54.0726 10.8743 588 102.964 425.782 464.872
3670 0 59.0838 12.4061 733 99.3574 426.714 467.484
3671 0 61.0768 17.3716 1061 92.5467 426.299 471.77
3672 0 60.2143 14.9798 902 97.5443 428.406 468.43
3673 0 63.2514 15.1459 958 98.6743 428.469 463.776
3674 0 64.0516 19.375 1241 94.1902 428.645 466.023
3675 0 63.0805 12.5554 792 103.783 428.837 464.481
3676 0 66.262 16.8121 1114 99.0126 429.144 461.499
3677 0 67.1256 15.0315 1009 102.92 428.91 459.936
3678 0 71.1549 15.7403 1120 100.589 429.834 464.65
3679 0 71.0955 13.6999 974 103.344 428.713 463.423
3680 0 75.3293 15.4389 1163 99.4351 429.276 468.524
3681 0 75.2652 11.7717 886 105.567 430.114 468.728
3682 0 78.1862 13.1993 1032 105.87 428.981 463.1
3683 0 79.1577 15.0333 1190 104.71 429.709 458.645
3684 0 87.383 14.7855 1292 103.664 428.878 464.784
3685 1 46.2182 14.5181 671 100.599 429.155 485.566
3686 0 45.0951 10.1563 458 109.651 428.107 483.465
3687 0 50.1712 13.6732 686 103.248 428 481.921
3688 0 48.5542 12.6045 612 107.802 425.828 476.943
3690 0 51.3574 13.6105 699 106.119 425.319 479.634
3691 0 55.1837 12.993 717 104.791 425.644 481.649
3692 0 55.0418 16.1332 888 101.858 426.796 480.242
3693 0 59.2477 15.0723 893 102.972 425.776 479.778
3694 0 57.3949 19.4965 1119 100.042 424.366 476.928
3695 0 61.1515 15.2245 931 104.044 424.13 476.862
3696 0 67.1266 16.089 1080 103.546 423.762 472.112
3697 0 67.1798 14.8705 999 105.89 423.551 472.742
3698 0 67.1533 16.7378 1124 104.253 423.251 469.916
3699 0 69.2197 16.5849 1148 104.436 422.684 470.153
3700 0 70.161 13.2552 930 106.368 423.21 469.269
3701 0 70.2438 12.3854 870 107.968 422.616 468.699
3702 0 72.2814 15.2045 1099 105.4 422.74 463.584
3703 0 76.0864 15.167 1154 104.024 423.127 464.459
3704 0 79.2253 19.7917 1568 97.977 422.829 464.043
3705 0 79.2005 14.154 1121 105.107 423.551 453.667
3706 0 84.1395 13.5133 1137 105.009 424.025 457.696
3707 0 87.4026 12.8715 1125 106.498 422.651 455.806
3708 0 87.2009 17.0755 1489 101.302 422.548 456.369
3709 0 90.2611 13.7158 1238 107.189 423.371 451.924
3710 1 48.1945 15.5827 751 102.194 422.559 469.53
3711 0 51.0508 12.086 617 105.619 424.783 470.271
3712 0 55.2157 17.6761 976 97.1199 424.183 468.562
3713 0 56.1844 12.7438 716 105.596 425.443 467.135
3714 0 55.1665 13.0695 721 110.386 426.298 463.882
3715 0 57.1416 12.6003 720 109.408 426.178 465.899
3716 0 61.1932 12.6158 772 109.351 427.014 462.815
3717 0 60.0818 10.8685 653 113.092 426.786 464.002
3718 0 64.3109 13.1238 844 105.998 427.956 467.05
3719 0 69.1355 16.6485 1151 103.705 428.156 462.945
3720 0 69.2662 14.0328 972 108.186 428.537 461.468
3721 0 71.1232 15.0303 1069 107.442 429.335 461.249
3722 0 71.2398 14.9355 1064 107.906 427.166 460.911
3723 0 72.229 11.8235 854 112.345 428.657 458.447
3724 0 82.2356 11.5035 946 109.201 429.048 464.799
3725 0 84.4088 14.5009 1224 106.069 429.563 463.232
3726 0 85.3806 15.1908 1297 106.056 428.066 459.47
3727 1 48.0749 10.0676 484 105.903 428.907 482.335
3728 0 46.0784 10.6775 492 108.419 428.894 481.1
3729 0 50.2122 12.7459 640 105.219 428.614 478.981
3730 0 48.3584 12.9037 624 103.606 424.204 471.425
3731 0 49.3036 14.218 701 101.807 428.688 480.807
3732 0 51.1223 13.5557 693 102.636 427.584 477.964
3733 0 50.1256 14.743 739 101.272 425.915 476.478
3734 0 52.442 14.1299 741 102.227 424.896 478.135
3735 0 56.1181 16.8395 945 97.8286 425.249 477.688
3736 0 55.2487 17.4484 964 96.5996 423.421 478.252
3737 0 56.3341 13.5797 765 102.919 424.575 475.39
3738 0 60.2289 17.201 1036 97.6969 422.976 472.562
3739 0 62.4421 16.5113 1031 98.0126 423.63 470.657
3740 0 61.2229 11.6786 715 105.8 422.505 467.578
3741 0 61.3036 10.7661 660 107.206 422.394 467.173
3742 0 67.2479 14.0525 945 102.638 422.255 465.86
3743 0 68.1328 12.6371 861 104.328 422.706 465.725
3744 0 70.2618 14.5456 1022 101.872 421.677 464.605
3745 0 70.118 13.1207 920 104.891 420.692 460.784
3746 0 74.2047 15.7268 1167 100.747 422.632 460.713
3747 0 75.277 13.2843 1000 104.232 421.885 458.402
3748 0 80.2944 16.0534 1289 100.995 424.13 456.155
3749 0 82.1684 15.6264 1284 102.057 423.225 455.762
3750 0 82.205 10.8753 894 109.588 424.602 453.472
3751 0 85.0986 12.7617 1086 107.763 424.468 449.635
3752 0 89.0881 12.7963 1140 107.455 425.237 450.893
3753 0 91.3183 14.0388 1282 106.654 425.012 448.714
3754 0 94.252 15.7981 1489 104.818 424.49 445.021
3755 0 98.1487 15.8739 1558 104.648 425.908 444.06
3756 0 97.1591 11.7127 1138 112.456 426.223 442.156
3757 1 53.0839 15.4661 821 105.604 428.469 464.387
3758 0 54.3276 15.9955 869 106.934 427.226 462.549
3759 0 53.1845 11.3755 605 107.464 426.446 461.339
3760 0 57.2156 15.0134 859 100.269 427.18 462.425
3761 0 59.138 13.3924 792 101.986 427.112 462.754
3762 0 62.2354 15.4574 962 99.9543 428.392 461.519
3763 0 64.1921 14.2541 915 102.674 428.122 461.161
3764 0 64.2689 13.8481 890 104.289 428.963 462.04
3765 0 66.5033 12.7512 848 106.186 428.79 460.111
3766 0 70.383 16.6802 1174 99.5911 428.012 463.08
3767 0 69.446 11.5917 805 110.214 429.82 456.902
3768 0 72.352 14.0839 1019 105.897 427.642 459.202
3769 0 75.2544 12.4245 935 109.472 428.945 458.738
3770 0 80.4523 17.8366 1435 100.082 427.614 463.339
3771 0 79.521 14.7885 1176 106.605 427.742 461.052
3772 0 85.5059 18.794 1607 100.676 427.213 460.118
3773 0 87.1802 17.5728 1532 105.148 427.151 457.792
3774 0 86.3188 15.0025 1295 109.684 424.511 458.878
3775 0 90.1556 15.4067 1389 109.032 425.872 452.86
3776 0 92.3368 15.8767 1466 109.005 424.05 451.688
3777 0 97.5322 18.8553 1839 104.779 423.895 446.743
3778 0 100.707 13.1074 1320 111.508 423.712 451.242
3779 0 105.465 15.6734 1653 108.128 423.362 447.279
3780 1 56.29 15.1892 855 106.332 424.692 467.778
3781 0 61.0804 18.7785 1147 99.3034 422.437 465.371
3782 0 55.4224 12.0348 667 109.712 423.039 463.466
3783 0 60.1539 11.188 673 109.437 422.504 464.095
3784 0 65.4488 14.4388 945 104.646 422.22 463.187
3785 0 67.223 13.537 910 106.257 422.263 462.496
3786 0 67.3238 15.8785 1069 103.544 422.545 459.038
3787 0 70.5481 13.9196 982 106.48 420.598 457.459
3788 0 74.4478 16.5082 1229 101.924 421.236 455.594
3789 0 75.3983 13.5945 1025 106.413 422.028 451.852
3790 0 76.5052 13.5024 1033 108.737 421.421 449.348
3791 0 81.1826 14.5598 1182 103.8 422.568 456.069
3792 0 83.2233 15.164 1262 104.224 422.589 454.936
3793 0 84.3194 14.6941 1239 108.629 421.894 445.004
3794 0 90.7602 16.7144 1517 103.328 424.076 445.555
3795 0 89.6189 14.8741 1333 108.08 423.275 438.219
3796 1 49.3576 8.08386 399 106.722 423.727 461.419
3797 0 50.2155 14.9157 749 96.9866 425.089 462.31
3798 0 52.1079 12.1287 632 101.441 424.915 459.875
3799 0 53.0531 15.6635 831 95.0048 424.064 462.663
3800 0 55.0492 15.804 870 95.9598 426.805 459.393
3801 0 58.0289 12.511 726 99.7658 426.219 459.782
3802 0 60.0607 9.8234 590 104.203 428.098 460.154
3803 0 60.1668 15.1745 913 97.8653 428.177 461.243
3804 1 126.268 14.5563 1838 106.347 428.566 426.962
3805 0 130.518 19.5069 2546 99.1822 428.423 431.006
3806 0 131.65 15.0475 1981 107.42 428.514 423.93
3807 1 69.2392 12.9551 897 100.897 429.94 459.337
3808 0 72.2438 13.3437 964 101.223 430.166 455.112
3809 0 75.1328 12.7641 959 102.036 429.327 454.175
3810 0 75.1356 12.8035 962 101.967 429.339 457.324
3811 0 79.2785 11.92 945 104.516 429.653 451.811
3812 0 82.5129 18.385 1517 96.621 429.416 455.989
3813 0 88.2672 15.4871 1367 100.796 429.575 452.014
3814 0 92.9474 15.6863 1458 101.64 427.269 448.138
3815 1 52.2158 11.6057 606 101.559 428.543 475.122
3816 0 53.0789 9.90978 526 103.08 427.707 476.468
3817 0 53.1015 11.1485 592 101.569 428.605 473.1
3818 0 58.1495 16.3888 953 92.7503 426.24 478.418
3819 0 59.1557 11.512 681 101.112 426.031 472.07
3820 0 64.4222 13.7375 885 96.9006 423.427 470.137
3821 0 62.1829 10.9837 683 100.687 423.714 471.552
3822 0 66.2525 12.1958 808 100.371 423.527 470.418
3823 0 69.3025 12.0919 838 102.119 423.656 470.263
3824 0 71.1726 15.7364 1120 98.1438 423.039 468.024
3825 0 71.283 10.5214 750 103.876 422.813 470.057
3826 0 77.2653 18.4818 1428 93.9223 422.326 468.074
3827 0 77.2974 12.4066 959 102.739 423.043 461.018
3828 0 82.2748 14.1234 1162 100.583 422.472 459.71
3829 0 86.2404 16.2221 1399 97.4989 422.197 457.665
3830 0 86.2197 14.1731 1222 100.051 422.462 457.758
3831 0 91.2626 17.2798 1577 95.3684 422.204 457.613
3832 1 48.043 12.7594 613 99.1762 423.117 471.46
3833 0 50.1101 16.3041 817 94.5006 423.608 471.471
3834 0 52.0916 12.1325 632 97.1646 423.987 470.282
3835 0 52.1106 16.6569 868 93.4781 423.899 466.779
3836 0 55.3024 16.672 922 92.2701 424.257 469.039
3837 0 56.0922 17.2038 965 93.599 423.981 462.565
3838 0 60.1544 13.1329 790 99.0747 425.216 464.481
3839 0 60.1471 14.4978 872 98.2649 426.003 459.749
3840 0 57.1357 12.4091 709 102.781 425.37 457.911
3841 0 60.1072 13.1931 793 100.43 425.692 458.815
3842 0 63.1341 11.0717 699 102.492 426.928 460.76
3843 0 67.1172 17.0299 1143 95.0927 427.072 460.873
3844 0 67.2172 14.654 985 98.9117 427.189 458.331
3845 0 68.116 14.534 990 99.5586 428.807 454.307
3846 0 73.1427 20.3164 1486 91.8735 427.907 458.274
3847 0 71.1686 12.3369 878 104.028 429.47 454.886
3848 0 75.067 15.0799 1132 100.735 429.559 453.995
3849 0 80.1582 18.4261 1477 95.9438 429.277 459.395
3850 0 82.1204 18.96 1557 97.9679 429.563 454.414
3851 0 85.1717 21.5212 1833 94.0567 428.694 459.59
3852 0 86.1711 16.3396 1408 102.893 429.251 453.424
3853 0 91.1161 20.1391 1835 96.4796 429.07 460.993
3854 0 92.0781 20.9387 1928 98.7168 429.348 455.533
3855 0 97.1834 16.4226 1596 104.382 429.874 455.453
3856 0 99.206 17.5997 1746 104.004 428.76 453.174
3857 0 102.22 16.4841 1685 107.728 427.859 449.866
3858 0 105.372 17.5283 1847 104.452 427.726 451.186
3859 0 112.393 13.0702 1469 110.758 426.754 446.235
3860 1 62.2021 14.6458 911 107.749 426.289 471.73
3861 0 65.4802 15.9132 1042 104.798 423.948 471.843
3862 0 67.5187 15.9511 1077 105.069 424.281 471.29
3863 0 67.2376 17.2523 1160 104.316 422.905 469.941
3864 0 72.2708 16.9086 1222 104.765 421.974 469.124
3865 0 72.0946 17.7267 1278 104.543 422.987 463.318
3866 0 74.2076 15.241 1131 108.546 422.886 463.636
3867 0 77.1913 14.2503 1100 109.096 422.655 464.876
3868 0 78.049 14.619 1141 110.351 422.486 458.507
3869 0 81.1502 14.5163 1178 109.817 422.666 461.774
3870 0 84.2349 14.5071 1222 110.952 422.078 455.133
3871 0 87.2644 15.1494 1322 110.529 421.834 453.949
3872 0 90.1108 14.8817 1341 110.393 422.086 450.833
3873 0 93.3287 15.6972 1465 109.885 421.554 443.902
3874 1 50.1197 11.4925 576 115.273 423.79 469.925
3875 0 51.1152 12.286 628 112.597 423.559 468.975
3876 0 52.1623 13.0554 681 107.396 422.891 464.539
3877 0 52.2275 15.241 796 103.765 424.02 462.422
3878 0 53.0328 11.8606 629 108.785 422.844 462.033
3879 0 52.0563 10.431 543 112.63 423.16 460.482
3880 0 55.0572 10.6071 584 111.265 423.971 461.618
3881 0 58.1196 13.0421 758 108.198 425.249 459.599
3882 0 62.4611 12.9841 811 106.042 424.804 461.797
3883 0 64.0762 14.9353 957 104.564 425.979 458.244
3884 0 64.0892 8.69102 557 113.673 426.251 454.433
3885 0 68.1521 13.822 942 106.983 426.309 455.745
3886 0 72.1188 15.7379 1135 104.982 428.174 452.761
3887 0 75.0957 20.0677 1507 98.7578 428.769 453.429
3888 0 75.0639 12.7758 959 110.108 428.651 452.7
3889 0 79.1651 14.5771 1154 107.788 428.527 450.529
3890 0 82.1698 15.3949 1265 106.421 429.455 450.392
3891 0 88.3167 13.4969 1192 108.435 429.327 451.94
3892 0 90.1869 14.7915 1334 107.244 429.489 451.997
3893 0 90.1749 15.6696 1413 107.677 430.275 449.442
3894 0 96.1648 17.1892 1653 104.039 430.049 454.076
3895 0 94.2634 12.0195 1133 114.815 430.092 444.94
3896 0 100.097 14.446 1446 108.998 429.609 454.146
3897 1 58.0927 14.9588 869 103.177 429.114 475.072
3898 0 60.0956 12.3304 741 106.663 429.008 473.383
3899 0 59.5064 10.7552 640 109.873 426.556 466.131
3900 0 60.1247 9.11439 548 111.934 427.768 469.743
3901 0 65.0783 12.9536 843 106.056 426.838 467.535
3902 0 65.202 13.6652 891 105.809 426.787 466.196
3903 0 69.1315 14.7256 1018 103.311 425.398 466.208
3904 1 133.49 14.503 1936 109.763 424.668 435.755
3905 1 73.3561 11.9826 879 106.693 423.857 464.691
3906 0 73.1515 13.4652 985 104.618 424.01 463.894
3907 0 79.2559 17.0208 1349 99.6938 424.56 461.704
3908 0 80.181 15.465 1240 101.881 423.219 452.913
3909 0 84.3777 18.192 1535 97.9042 422.562 458.95
3910 0 86.2582 15.0015 1294 102.631 422.761 454.005
3911 0 86.0819 12.4881 1075 106.027 422.461 450.413
3912 0 92.1453 11.9485 1101 104.511 423.124 451.797
3913 0 95.1969 12.5739 1197 104.638 422.483 448.803
3914 0 95.1308 12.6773 1206 104.136 422.654 450.915
3915 1 51.0596 10.1058 516 105.002 422.205 466.721
3916 0 57.0568 11.8829 678 102.202 422.327 466.727
3917 0 58.6031 14.9651 877 99.3934 421.798 463.818
3918 0 55.3657 11.4873 636 105.533 420.414 461.807
3919 0 61.1486 14.1949 868 100.444 420.831 460.228
3920 0 66.299 13.6352 904 99.2412 421.118 462.549
3921 0 63.3531 16.3054 1033 98.12 421.866 458.839
3922 0 64.1754 11.8737 762 104.155 422.157 453.395
3923 0 66.0934 11.6804 772 104.131 422.361 454.018
3924 0 69.201 12.2253 846 102.226 421.904 453.428
3925 0 68.3532 20.2624 1385 93.6296 422.716 450.121
3926 0 73.1887 12.6932 929 102.253 425.38 450.851
3927 1 145.951 13.9636 2038 104.814 425.72 419.43
3928 1 76.1746 12.7208 969 103.107 426.301 446.124
3929 0 76.3441 11.5399 881 104.754 426.418 444.103
3930 0 83.3126 17.7284 1477 94.3318 426.349 451.94
3931 0 85.4145 13.2062 1128 103.787 427.629 439.115
3932 0 88.1734 14.6643 1293 102.633 427.097 442.459
3933 0 97.4598 18.0485 1759 95.7391 428.75 446.154
3934 0 96.4212 15.2249 1468 100.435 427.119 445.147
3935 0 95.379 15.884 1515 100.467 429.57 440.544
3936 0 96.2927 12.5451 1208 104.147 428.954 445.177
3937 0 99.5449 11.7133 1166 106.647 429.501 450.974
3938 0 102.822 12.011 1235 103.8 429.708 452.845
3939 1 63.6524 20.8162 1325 93.5676 429.658 467.379
3940 0 64.0934 18.5823 1191 96.6339 429.085 469.949
3941 0 65.1533 14.627 953 102.639 429.615 467.955
3942 0 68.2667 12.7295 869 105.388 428.785 465.407
3943 0 71.1422 15.9821 1137 100.482 428.814 466.923
3944 0 73.1229 16.315 1193 100.88 427.464 463.171
3945 0 75.1482 16.6604 1252 101.037 426.764 458.237
3946 0 76.2906 19.8845 1517 98.1727 426.557 463.08
3947 0 81.2557 18.6572 1516 99.4954 425.574 459.688
3948 0 84.1836 14.7535 1242 104.405 425.585 459.579
3949 0 84.4279 14.8529 1254 106.096 425.614 459.567
3950 0 86.2326 16.6758 1438 104.949 424.442 455.214
3951 0 91.3148 12.6814 1158 108.979 424.961 456.201
3952 0 95.3687 15.2146 1451 101.325 425.017 458.5
3953 0 97.4479 16.3164 1590 102.496 423.092 445.216
3954 0 102.383 17.2685 1768 100.533 423.665 449.552
3955 0 104.352 11.442 1194 108.28 423.137 451.952
