time division length width area intensity CMx CMy
0 0 48.3087 13.7863 666 145.725 510.36 473.063
1 0 47.3999 13.7131 650 143.948 508.591 471.998
2 0 50.35 15.0348 757 143.007 508.797 471.499
3 0 50.3206 13.8909 699 146.837 507.994 472.197
4 0 53.3742 14.2203 759 146.372 507.535 467.126
5 0 55.5097 15.2586 847 139.53 506.933 465.765
6 0 58.2908 15.0281 876 141.365 505.428 463.863
7 0 58.2908 15.0281 876 148.514 503.446 463.696
8 0 63.3534 14.8374 940 136.384 504.666 466.129
9 0 64.3079 15.4258 992 141.075 503.154 465.982
10 0 65.1219 15.6936 1022 139.809 503.162 466.474
11 0 65.3534 13.9243 910 144.785 502.245 463.737
12 0 70.3071 13.5975 956 138.976 501.953 460.824
13 0 73.2232 14.2714 1045 138.903 503.361 461.133
14 0 75.2992 14.7279 1109 133.927 501.454 458.069
15 0 75.3168 15.7999 1190 138.211 501.724 451.367
16 0 78.1858 12.547 981 142.25 500.408 451.637
17 0 81.3308 14.4472 1175 139.494 501.043 447.557
18 1 39.1123 12.4258 486 142.181 501.706 457.977
19 0 42.2114 11.8452 500 135.16 501.766 461.51
20 0 45.1853 14.2746 645 129.388 501.344 463.245
21 0 48.0835 14.0381 675 128.787 501.262 463.056
22 0 47.1934 12.2687 579 129.235 501.318 459.169
23 0 50.1381 14.2207 713 124.121 505.065 461.083
24 0 50.2559 13.1726 662 130.829 504.455 462.305
25 0 52.2175 14.995 783 129.691 505.204 458.386
26 0 54.2176 13.206 716 129.707 504.77 457.54
27 0 57.3771 16.9754 974 123.435 506.013 458.366
28 0 58.1845 14.8665 865 128.982 506.331 455.51
29 0 58.1845 14.9524 870 137.385 506.288 455.509
30 0 64.2189 16.9888 1091 123.954 509.164 453.89
31 0 66.2497 19.3812 1284 119.438 508.027 454.217
32 0 67.1838 17.3256 1164 120.603 509.346 456.169
33 0 70.1607 15.3932 1080 121.298 510.991 454.05
34 0 71.2259 14.1802 1010 126.434 511.559 452.49
35 0 74.2163 16.4384 1220 124.77 512.638 451.843
36 0 77.208 15.1927 1173 124.225 512.936 447.435
37 0 79.1837 16.3796 1297 120.361 514.417 450.554
38 0 82.1782 15.4177 1267 120.213 513.829 451.883
39 0 86.5167 17.407 1506 119.23 514.548 438.27
40 0 87.1794 16.1047 1404 116.026 512.808 439.692
41 0 90.553 13.9145 1260 119.223 512.533 439.836
42 1 45.4179 13.4749 612 116.224 511.243 466.054
43 0 49.6577 11.1765 555 113.832 511.142 469.391
44 0 50.68 13.7924 699 112.591 511.611 468.079
45 0 53.2299 14.7661 786 105.27 511.014 473.737
46 0 55.2219 14.4508 798 122.157 510.325 472.429
47 0 56.214 11.901 669 128.972 509.436 470.218
48 0 58.6225 12.9472 759 126.084 509.37 470.062
49 0 59.2688 15.9443 945 120.472 509.062 472.048
50 0 64.3661 16.5304 1064 120.225 509.831 469.376
51 0 63.3352 13.9417 883 129.727 507.752 467.591
52 0 66.3257 16.419 1089 125.928 507.285 463.453
53 0 70.4017 17.4001 1225 122.567 506.436 464.614
54 0 72.5545 16.4842 1196 123.25 506.885 451.817
55 0 74.2941 16.0982 1196 123.024 506.756 456.793
56 0 78.3021 15.0826 1181 126.514 506.795 451.725
57 0 82.4668 15.6184 1288 125.075 505.291 444.942
58 0 84.4324 18.725 1581 118.969 505.094 446.369
59 0 89.5101 15.7748 1412 123.401 503.5 443.43
60 0 91.2738 15.1632 1384 124.464 504.152 441.913
61 0 88.6242 14.5107 1286 127.566 503.89 439.406
62 1 52.2146 10.9356 571 123.326 502.718 460.089
63 0 53.3304 12.5444 669 120.274 501.782 459.842
64 0 54.1574 12.1682 659 123.652 502.077 460.297
65 0 57.1337 14.7724 844 121.578 502.181 462.956
66 0 58.2796 11.9253 695 128.056 503.255 460.279
67 0 61.1662 15.6622 958 121.924 503.687 459.414
68 0 63.2084 16.3269 1032 122.129 505.657 456.287
69 0 65.2211 15.1791 990 124.835 506.004 454.159
70 0 67.1564 15.65 1051 123.407 506.841 454.939
71 0 68.1867 14.0203 956 127.15 506.422 454.086
72 0 73.4177 16.7807 1232 123.034 507.957 451.383
73 0 73.0696 12.5634 918 129.793 506.509 448.607
74 0 77.0516 15.8206 1219 123.755 508.043 450.445
75 0 77.134 12.9644 1000 130.682 508.311 442.493
76 0 81.1587 14.6257 1187 127.495 508.412 443.34
77 0 83.2444 14.1151 1175 128.53 507.988 446.861
78 0 87.1851 16.2413 1416 123.477 509.674 445.925
79 1 47.1727 10.7477 507 128.284 510.237 466.183
80 0 52.1828 11.8238 617 122.616 513.457 467.76
81 0 49.3962 10.9725 542 120.22 513.69 467.389
82 0 52.2851 13.4264 702 121.261 512.677 467.536
83 0 52.0882 12.1141 631 121.91 510.374 469.377
84 0 55.0798 14.9238 822 120.247 509.715 466.726
85 0 57.142 13.4577 769 121.895 510.337 469.597
86 0 58.0755 11.8467 688 126.475 509.724 468.363
87 0 61.0532 13.9878 854 122.316 509.148 468.321
88 0 63.1661 14.1057 891 122.658 508.157 467.413
89 0 65.0456 14.8819 968 121.658 508.506 468.148
90 0 68.2356 13.7465 938 122.127 507.362 466.253
91 0 68.1229 12.1398 827 125.886 506.437 464.549
92 0 71.2217 13.5914 968 122.389 507.344 466.037
93 0 74.3772 13.3509 993 123.494 506.574 463.668
94 0 77.0736 12.1313 935 126.776 505.162 461.057
95 0 81.2332 15.3878 1250 120.39 505.567 457.634
96 0 81.132 12.3995 1006 125.772 503.945 458.172
97 0 87.4995 11.0401 966 129.386 507.225 459.513
98 0 90.7288 15.1551 1375 124.052 504.673 456.312
99 1 49.1999 12.7643 628 122.358 503.532 475.753
100 0 52.1405 13.1568 686 120.131 503.609 475.127
101 0 51.1424 10.0308 513 123.682 502.84 474.086
102 0 53.1198 13.0083 691 115.913 501.454 469.716
103 0 56.1328 14.5904 819 113.713 500.127 471.43
104 0 59.328 13.7372 815 116.583 500.038 470.512
105 0 58.1637 14.1153 821 118.586 500.179 465.571
106 0 62.1373 14.0334 872 118.065 501.204 466.08
107 0 62.0745 13.5966 844 119.598 499.543 464.953
108 0 65.0997 17.4194 1134 113.27 499.742 462.043
109 0 68.3709 17.0248 1164 114.903 500.265 460.431
110 0 68.1038 12.6571 862 123.477 500.63 456.955
111 0 71.1987 14.284 1017 119.44 501.396 458.16
112 0 73.2931 14.3806 1054 120.489 501.772 454.362
113 0 74.1545 11.8132 876 125.217 502.356 453.28
114 0 78.3723 15.8219 1240 117.635 504.219 445.441
115 0 78.2672 13.8117 1081 123.407 503.926 443.136
116 0 80.2693 13.3675 1073 122.472 503.849 448.234
117 0 83.1395 13.5555 1127 123.671 505.413 446.594
118 0 87.1132 15.7841 1375 118.827 506.423 446.726
119 0 91.1756 13.7756 1256 124.084 507.168 446.241
120 0 91.3234 10.972 1002 130.09 508.099 439.53
121 1 50.059 11.9059 596 119.435 507.857 466.982
122 0 50.2312 11.3276 569 121.332 508.274 466.362
123 0 54.8206 13.681 750 113.223 510.761 466.985
124 0 54.189 13.8405 750 109.499 509.404 464.936
125 0 57.1447 13.5621 775 109.088 510.564 467.719
126 0 58.2392 14.8182 863 113.226 512.123 466.833
127 0 59.2524 11.6113 688 118.094 511.458 467.192
128 0 59.4912 11.8169 703 122.326 508.768 465.04
129 0 63.416 13.4351 852 118.311 510.15 467.068
130 0 63.2584 12.2988 778 119.338 507.956 467.684
131 0 69.32 13.1564 912 117.98 508.849 464.254
132 0 70.6392 16.8178 1188 112.375 507.327 464.872
133 0 70.5274 12.6759 894 119.917 506.78 463.964
134 0 73.3908 12.958 951 120.036 507.063 464.571
135 0 77.4826 13.7321 1064 115.732 506.509 469.838
136 0 78.5592 14.2568 1120 120.104 506.966 462.508
137 0 83.6881 15.7012 1314 116.33 504.953 461.546
138 0 85.4779 13.8983 1188 121.363 506.432 458.572
139 0 88.6769 13.8706 1230 120.42 503.3 458.863
140 0 92.4442 13.7813 1274 121.47 504.456 456.968
141 1 48.1498 11.8796 572 117.79 503.325 479.587
142 0 48.1914 13.4049 646 116.257 502.689 475.971
143 0 50.3441 10.9646 552 120.793 504.736 470.587
144 0 52.0534 12.6409 658 116.746 506.147 471.201
145 0 52.1416 13.6743 713 118.428 503.728 471.44
146 0 55.1171 11.5572 637 120.242 503.064 472.289
147 0 55.1489 11.3148 624 121.857 501.853 472.087
148 0 56.1467 12.6989 713 120.139 502.592 468.663
149 0 57.0695 14.3684 820 117.166 502.793 468.582
150 0 61.1935 15.4592 946 116.711 501.867 463.969
151 0 62.0766 16.8985 1049 113.905 502.407 463.504
152 0 64.1279 13.5043 866 119.59 502.542 463.266
153 0 65.2767 12.4547 813 121.598 502.335 459.576
154 0 67.1784 11.9979 806 123.129 503.599 457.779
155 0 70.211 14.7983 1039 118.263 502.991 455.588
156 0 72.1292 13.5313 976 119.792 503.947 456.03
157 0 71.2084 12.0351 857 123.279 503.638 455.068
158 0 75.3721 11.9142 898 123.029 503.548 452.823
159 0 76.2663 13.9249 1062 121.796 503.661 448.831
160 0 79.3509 16.0301 1272 117.651 505.118 451.194
161 0 82.2456 14.6269 1203 121.296 505.008 450.758
162 0 85.2872 17.7518 1514 115.299 507.125 452.062
163 0 84.3482 15.2938 1290 121.122 506.587 447.499
164 0 87.3711 17.3055 1512 116.49 507.036 448.976
165 0 90.403 15.0438 1360 120.461 508.179 445.843
166 0 92.3418 16.688 1541 117.931 508.793 447.243
167 0 93.2859 15.9402 1487 119.354 508.981 445.944
168 0 96.3859 14.3486 1383 121.552 508.98 445.048
169 0 99.4636 15.4529 1537 120.172 509.22 446.993
170 0 103.261 16.2403 1677 117.809 509.599 447.03
171 0 109.428 15.2337 1667 117.691 508.838 446.527
172 1 63.1059 14.2142 897 117.488 509.331 467.87
173 0 64.5246 12.8168 827 118.952 510.259 467.29
174 0 66.2162 12.7008 841 119.196 508.063 470.219
175 0 71.1337 15.1827 1080 114.293 507.721 469.869
176 0 71.0897 13.9401 991 116.022 506.552 469.925
177 0 73.1384 13.5633 992 117.867 507.104 465.17
178 0 76.2345 13.4454 1025 117.739 507.163 467.396
179 0 75.1348 11.8188 888 120.93 505.203 466.998
180 0 80.08 12.8247 1027 119.026 504.12 463.268
181 0 85.2375 16.6124 1416 114.797 503.8 460.247
182 0 88.1066 16.4006 1445 113.667 503.107 463.466
183 0 90.2281 14.9732 1351 118.801 502.715 457.101
184 0 92.3016 12.5675 1160 120.656 502.141 458.081
185 0 96.4838 15.5052 1496 113.908 500.92 457.918
186 0 98.3639 13.8059 1358 118.775 500.443 452.697
187 0 100.354 12.3164 1236 120.717 501.123 451.007
188 1 55.3196 11.4968 636 119.465 498.709 473.156
189 0 59.3968 12.2734 729 118.941 500.084 470.091
190 0 59.1566 14.301 846 117.926 499.15 468.662
191 0 60.4566 14.9033 901 116.138 498.043 468.377
192 0 62.3155 13.3835 834 119.887 499.085 465.303
193 0 64.3261 11.9081 766 122.048 498.987 462.691
194 0 69.209 15.6194 1081 113.432 499.618 462.442
195 0 69.3032 14.5015 1005 116.308 498.863 459.014
196 0 73.5904 15.3145 1127 115.189 499.255 456.407
197 0 77.5113 15.4558 1198 112.727 499.701 459.84
198 0 74.3917 10.9959 818 123.963 500.766 453.639
199 0 81.5781 14.5627 1188 116.131 500.928 453.591
200 0 81.3687 14.8337 1207 117.525 502.229 449.798
201 0 85.4524 16.6291 1421 113.883 501.949 451.892
202 0 90.4933 15.5039 1403 115.378 502.478 448.862
203 0 90.656 14.6267 1326 120.114 503.376 444.548
204 0 95.382 15.4432 1473 118.259 505.451 444.623
205 0 97.5439 14.6088 1425 117.65 505.108 445.702
206 0 101.417 14.3369 1454 117.965 505.792 442.387
207 0 102.416 14.7634 1512 118.502 506.47 437.476
208 0 109.514 13.6239 1492 118.924 507.546 435.706
209 0 113.444 17.2684 1959 112.993 508.156 438.699
210 1 60.1977 13.6052 819 111.726 510.536 463.58
211 0 61.0754 15.5545 950 110.606 507.353 468.304
212 0 64.1581 16.7867 1077 109.497 507.677 466.249
213 0 67.1556 13.908 934 112.537 507.268 464.158
214 0 69.1415 16.2565 1124 110.512 507.695 464.335
215 0 69.13 13.4818 932 115.249 508.552 464.17
216 0 74.0482 14.1529 1048 113.355 508.232 465.454
217 0 75.1734 13.9411 1048 116.419 507.299 461.145
218 0 74.3356 11.2732 838 121.493 506.264 460.574
219 0 77.3878 13.1287 1016 118.842 506.212 458.708
220 0 80.2767 11.7344 942 121.024 506.013 460.548
221 0 83.5049 14.8854 1243 116.076 504.601 456.007
222 0 85.3594 12.5704 1073 120.592 504.413 455.513
223 0 89.521 14.4435 1293 116.404 503.798 455.869
224 0 91.6851 9.52172 873 122.513 502.549 459.18
225 0 95.5012 14.9003 1423 115.29 501.773 455.59
226 0 98.2942 14.9042 1465 115.088 500.533 456.906
227 0 101.39 12.1017 1227 118.685 500.584 450.694
228 0 105.517 12.7563 1346 118.894 499.071 449.728
229 0 115.439 16.1037 1859 112.259 498.72 448.656
230 1 57.0878 15.7302 898 105.97 497.392 474.403
231 0 59.1397 12.6818 750 112.159 498.761 477.06
232 0 60.058 13.9698 839 112.086 497.067 471.041
233 0 60.1225 10.8113 650 119.16 497.258 469.238
234 0 64.1496 12.5488 805 113.72 496.99 470.811
235 0 66.1739 14.5828 965 112.95 497.398 466.347
236 0 68.1431 12.9287 881 115.428 496.226 464.642
237 0 71.3071 15.1878 1083 113.232 496.199 457.493
238 0 73.1249 14.4684 1058 114.793 495.932 456.665
239 0 76.1862 14.6877 1119 113.407 496.719 455.836
240 0 79.1353 14.5826 1154 111.974 495.343 458.886
241 0 80.08 12.6499 1013 117.314 497.335 452.308
242 0 81.3625 13.3723 1088 115.815 498.228 448.404
243 0 85.2271 12.895 1099 115.818 498.009 448.336
244 0 88.1633 13.3956 1181 115.559 499.25 447.434
245 1 45.0377 11.4793 517 113.358 498.199 466.632
246 0 47.1588 10.2632 484 114.731 499.967 467.888
247 0 50.1463 12.0846 606 110.297 499.495 468.033
248 0 50.5405 13.3556 675 109.267 500.667 464.292
249 0 54.2044 14.021 760 107.059 502.424 467.617
250 0 53.125 14.3247 761 109.321 502.677 465.537
251 0 56.1026 12.4237 697 109.407 503.392 467.245
252 0 56.1306 11.5267 647 114.06 503.408 461.9
253 0 58.089 14.0646 817 109.116 505.046 464.289
254 0 62.1419 13.5174 840 109.296 505.182 464.933
255 0 62.0488 11.7327 728 112.992 504.816 461.096
256 0 61.1418 13.0026 795 112.292 506.332 464.522
257 0 65.2141 11.7766 768 111.607 506.374 467.253
258 0 66.1467 15.1784 1004 107.983 506.367 463.181
259 0 68.0751 15.8648 1080 106.805 505.682 465.725
260 0 70.1902 12.2382 859 113.865 504.881 463.605
261 0 70.2669 10.7163 753 117.592 505.208 460.3
262 0 75.1434 13.8668 1042 113.07 504.529 460.851
263 0 78.1381 13.7961 1078 113.569 505.273 458.982
264 0 78.2643 13.6716 1070 115.365 504.144 458.638
265 1 39.0834 8.69935 340 117.385 503.074 477.385
266 0 43.0711 13.0946 564 108.617 501.608 480.943
267 0 42.1812 8.81909 372 117.293 501.36 478.53
268 0 46.0338 12.795 589 110.136 499.849 478.321
269 0 45.1039 10.3982 469 114.625 499.731 478.584
270 0 47.2306 13.7834 651 110.998 499.69 477.636
271 0 50.0882 14.3547 719 109.89 499.154 478.128
272 0 50.0624 15.181 760 110.453 499.087 475.984
273 0 49.0796 12.4899 613 114.935 499.408 475.29
274 0 52.1674 14.0701 734 113.501 498.471 473.151
275 0 54.1294 13.4308 727 113.087 498.349 473.421
276 0 56.0652 15.1431 849 112.216 496.998 470.26
277 0 58.0647 15.7066 912 109.689 498.05 470.752
278 0 55.1333 11.5357 636 119.175 497.069 466.772
279 0 57.2715 11.5415 661 119.608 497.048 461.274
280 0 65.0807 16.2414 1057 109.724 497.835 463.757
281 0 65.0961 13.8257 900 114.104 496.884 461.329
282 0 66.1664 13.9648 924 113.914 498.449 460.01
283 0 69.1338 12.7579 882 116.149 498.195 456.758
284 0 71.155 11.1306 792 117.66 498.524 461.213
285 0 72.0566 12.393 893 118.972 497.959 454.112
286 0 76.2319 13.5245 1031 116.733 498.341 453.93
287 0 75.0913 10.8668 816 122.897 499.566 449.339
288 0 80.1619 14.0715 1128 116.762 499.492 446.386
289 0 80.1947 14.7765 1185 115.77 501.1 448.338
290 0 84.5356 13.6274 1152 118.285 502.309 445.915
291 0 87.3984 12.4144 1085 117.901 502.261 445.179
292 1 42.0795 11.7634 495 115.436 504.37 464.347
293 0 44.8402 12.3773 555 113.652 507.645 458.148
294 0 46.1676 15.6387 722 110.069 508.999 463.048
295 0 46.1676 15.5737 719 122.586 511.043 463.039
296 0 49.2029 11.9505 588 115.457 510.328 466.876
297 0 52.2545 13.1663 688 111.09 510.624 468.448
298 0 48.0674 9.5699 460 120.483 510.524 464.804
299 0 51.1055 12.0535 616 115.99 511.601 467.401
300 0 56.1286 13.9857 785 114.088 510.59 466.627
301 0 56.1286 14.0214 787 133.831 509.558 466.681
302 0 59.4643 14.1766 843 114.964 510.794 469.616
303 0 61.1329 13.9696 854 117.172 510.965 464.755
304 0 65.2033 12.9288 843 118.196 510.376 465.393
305 0 65.2694 13.3753 873 119.054 510.299 463.399
306 0 69.3606 14.0137 972 118.317 509.731 465.051
307 0 74.4747 13.0111 969 119.737 507.955 466.063
308 0 73.36 13.4133 984 120.517 506.816 465.258
309 0 74.6823 12.6268 943 120.994 505.53 466.999
310 0 77.5796 14.4883 1124 119.198 505.761 463.958
311 0 80.4347 17.3433 1395 113.457 504.917 466.376
312 0 82.294 13.0508 1074 123.05 504.356 458.191
313 0 83.5569 15.2591 1275 119.892 503.283 458.309
314 0 88.4144 16.3209 1443 117.382 504.052 458.85
315 0 91.6388 14.4589 1325 119.294 503.56 455.275
316 1 50.3309 13.4708 678 115.605 502.791 474.621
317 0 51.4374 12.2868 632 116.373 503.093 472.848
318 0 51.4212 11.2794 580 116.316 501.553 470.419
319 0 52.1648 11.5787 604 116.978 501.248 471.738
320 0 54.0503 13.9315 753 114.145 501.057 471.038
321 0 56.1297 14.413 809 114.216 501.15 468.586
322 0 60.0967 15.2088 914 112.903 500.77 466.678
323 0 60.0967 15.2587 917 132.612 499.779 466.728
324 0 62.1549 14.6087 908 117.825 501.557 459.606
325 0 65.1414 17.0398 1110 113.202 500.884 459.668
326 0 65.3396 12.8712 841 120.502 502.422 455.131
327 0 70.115 15.5316 1089 115.029 502.57 456.353
328 0 73.1939 12.2141 894 120.509 502.746 452.912
329 0 71.1487 11.3565 808 122.812 503.751 445.256
330 0 74.2733 15.3352 1139 117.478 504.069 450.798
331 0 78.2157 16.9276 1324 113.205 504.409 449.242
332 0 77.1195 13.4856 1040 120.255 506.437 445.286
333 0 82.1873 15.2092 1250 119.296 508.158 443.918
334 0 83.1652 12.2046 1015 122.247 508.112 445.564
335 0 86.1592 15.3669 1324 118.556 508.19 442.005
336 0 87.346 14.3567 1254 121.522 509.022 439.597
337 0 91.2203 15.4461 1409 119.485 509.19 438.045
338 0 95.3752 15.9056 1517 118.154 509.936 436.888
339 0 93.138 13.5927 1266 123.221 510.607 435.245
340 0 98.3965 14.5737 1434 122.552 511.362 437.096
341 0 101.344 13.2322 1341 124.42 512.744 435.104
342 0 103.314 14.5769 1506 122.105 511.308 432.341
343 0 107.431 14.2324 1529 122.279 511.738 434.362
344 0 109.3 12.2873 1343 124.068 512.104 438.472
345 0 112.572 14.222 1601 119.489 510.787 440.276
346 0 117.477 13.5941 1597 122.078 510.673 432.594
347 0 123.83 19.0584 2360 111.887 511.629 432.823
348 1 69.3469 14.1463 981 115.376 512.005 454.457
349 0 75.2304 14.6217 1100 113.285 512.536 458.696
350 0 76.2797 15.6529 1194 112.466 511.683 457.751
351 0 78.5479 16.0539 1261 111.144 509.939 458.831
352 0 83.399 18.5854 1550 107.703 509.992 454.028
353 0 84.4927 17.5518 1483 109.161 508.129 452.986
354 0 88.4214 17.1791 1519 107.709 507.218 449.875
355 0 91.4838 15.4126 1410 108.465 506.736 455.415
356 0 92.6644 12.8528 1191 112.94 506.326 447.642
357 0 96.6875 14.0246 1356 108.711 506.844 446.31
358 0 100.484 14.9377 1501 106.995 506.917 446.332
359 1 51.4573 12.593 648 107.412 506.818 470.804
360 0 52.2961 13.5957 711 104.435 505.508 475.079
361 0 54.5938 12.6022 688 106.06 506.452 471.238
362 0 56.1267 10.209 573 111.457 501.925 471.722
363 0 56.0979 10.2499 575 114.315 502.167 468.163
364 0 58.1237 13.11 762 111.26 502.138 465.451
365 0 64.1517 19.0798 1224 100.975 502.23 463.89
366 0 63.3279 20.2912 1285 100.321 502.377 463.415
367 0 64.1084 15.8482 1016 105.713 503.16 457.9
368 0 64.1857 12.8689 826 111.786 503.182 456.482
369 0 69.261 14.2071 984 111.473 505.768 453.052
370 0 73.2918 15.2814 1120 110.349 504.713 452.287
371 0 72.097 15.4237 1112 112.022 505.411 447.818
372 0 74.2111 14.0141 1040 114.495 506.249 448.62
373 0 76.1521 13.1054 998 117.029 506.631 444.202
374 0 76.1084 16.1612 1230 112.372 506.893 444.302
375 1 43.1027 11.577 499 114.07 508.112 461.14
376 0 42.1318 12.7457 537 112.456 509.574 458.665
377 0 44.0781 14.9507 659 108.568 508.159 462.768
378 0 42.0956 14.1583 596 108.007 506.982 462.297
379 0 47.0315 11.6518 548 109.235 507.307 465.157
380 0 46.0726 13.8043 636 107.585 508.66 465.591
381 0 47.0898 10.2145 481 111.472 508.526 466.096
382 0 48.1705 16.0887 775 104.319 510.28 465.156
383 0 48.1523 10.9652 528 110.623 510.405 466.884
384 0 51.0693 11.7879 602 108.623 510.686 466.588
385 0 55.2749 13.8761 767 106.115 510.412 462.069
386 0 57.3771 11.834 679 113.158 511.146 465.308
387 0 60.1456 11.5054 692 114.552 510.756 459.747
388 0 64.1156 12.961 831 109.699 511.049 463.001
389 0 65.1888 14.2816 931 109.524 509.916 459.827
390 1 36.1594 12.0024 434 109.373 508.892 477.274
391 0 35.0174 11.7941 413 109.746 509.964 477.947
392 0 37.0204 13.1549 487 106.581 508.384 480.181
393 0 36.0551 12.1203 437 112.263 508.627 476.034
394 0 38.045 14.5617 554 104.809 506.626 479.029
395 0 39.1584 11.1598 437 109.101 506.888 478.51
396 0 37.0203 9.37324 347 114.493 507.19 477.85
397 0 39.0671 13.336 521 108.267 507.012 476.605
398 0 41.0835 15.8701 652 102.578 506.798 474.64
399 0 42.085 12.95 545 106.666 505.598 479.802
400 0 44.0757 10.8677 479 111.937 504.743 479.566
401 0 42.2143 13.3604 564 110.229 504.988 476.074
402 0 45.4585 13.6828 622 108.175 503.883 478.722
403 0 48.1817 14.7359 710 107.942 503.728 474.432
404 0 47.1152 11.9919 565 113.71 502.667 472.485
405 0 48.1923 13.4461 648 110.258 502.835 474.519
406 0 50.1793 13.651 685 110.279 502.531 472.464
407 0 50.2141 11.4311 574 113.843 502.197 471.73
408 0 51.3393 14.9593 768 109.135 502.583 469.552
409 0 52.186 11.689 610 114.836 500.954 468.349
410 0 54.4944 12.2948 670 115.437 502.628 465.075
411 0 58.279 15.2371 888 110.663 501.954 461.876
412 0 60.3351 14.8835 898 111.926 501.845 462.595
413 0 62.3707 15.0551 939 111.182 502.709 463.03
414 0 64.3746 16.5593 1066 110.463 502.421 457.341
415 0 65.6104 14.9976 984 112.956 502.005 457.312
416 0 67.4577 14.0236 946 116.611 502.014 452.723
417 0 70.4883 16.1162 1136 113.24 503.072 448.055
418 0 73.3568 17.3126 1270 111.775 503.672 448.33
419 0 76.3087 15.7387 1201 114.481 505.356 447.863
420 0 80.2969 16.2522 1305 113.123 504.87 447.477
421 0 81.2721 14.4207 1172 116.775 505.561 447.462
422 0 82.3358 12.9591 1067 118.21 507.663 448.119
423 1 41.0536 12.6177 518 117.672 506.044 463.158
424 0 44.1488 13.6357 602 116.357 507.852 461.686
425 0 45.4929 14.6616 667 115.139 509.949 461.432
426 0 46.2985 11.7714 545 118.815 510.394 465.215
427 0 49.877 13.5734 677 117.105 511.084 461.631
428 0 51.651 14.1914 733 116.847 510.786 462.452
429 0 51.347 16.184 831 114.864 511.971 462.312
430 0 53.5128 15.1366 810 116.201 512.515 462.635
431 0 55.3431 13.588 752 118.779 512.237 463.698
432 0 58.2746 15.0666 878 115.457 511.946 466.166
433 0 60.3934 14.3062 864 117.296 511.794 466.363
434 0 62.2756 14.1629 882 119.712 512.178 462.135
435 0 65.433 16.4902 1079 115.119 511.711 464.359
436 0 66.3754 15.5329 1031 119.276 510.467 462.498
437 0 69.3475 13.3675 927 123.172 510.376 461.346
438 0 74.3505 20.2016 1502 109.697 510.366 463.111
439 0 75.4896 16.744 1264 115.352 510.349 463.674
440 0 76.5321 12.3739 947 122.618 509.567 462.469
441 0 82.2395 21.9602 1806 106.27 509.327 464.092
442 0 87.6632 15.7535 1381 114.737 508.036 452.597
443 1 46.3893 13.4945 626 113.089 506.596 475.789
444 0 46.1788 14.5954 674 114.16 505.45 474.401
445 0 50.052 13.8256 692 116.935 505.556 475.666
446 0 49.0817 11.7763 578 120.42 504.109 474.123
447 0 54.0719 17.2363 932 107.85 503.967 477.273
448 0 53.1102 13.3496 709 117.113 504.158 474.873
449 0 55.1551 14.287 788 116.746 503.491 469.819
450 0 57.0336 13.0625 745 120.193 503.015 469.548
451 0 61.1486 17.9563 1098 111.441 501.651 468.927
452 0 62.0831 12.1933 757 120.911 501.424 465.68
453 0 65.1352 15.3527 1000 116.661 501.941 465.106
454 0 65.1352 15.2452 993 154.217 502.969 465.142
455 0 69.1329 14.2479 985 120.19 501.274 458.639
456 0 71.0303 15.5427 1104 119.323 501.457 458.274
457 0 74.1334 17.2527 1279 115.801 502.174 458.524
458 0 78.0514 15.067 1176 119.389 501.725 453.877
459 0 80.2111 14.7984 1187 122.773 502.065 449.372
460 0 83.2949 20.3134 1692 112.137 502.664 448.215
461 0 87.4368 16.4347 1437 118.232 504.031 448.573
462 0 91.3398 15.623 1427 120.403 504.755 448.22
463 1 48.0971 12.5995 606 117.007 503.305 468.485
464 0 51.0746 13.6467 697 114.618 505.376 467.638
465 0 53.2174 14.4314 768 114.354 505.96 466.562
466 0 50.2345 13.0787 657 116.787 505.44 466.667
467 0 52.3649 12.9285 677 117.489 506.609 465.493
468 0 54.3356 12.0915 657 118.603 506.076 468.39
469 0 58.5994 11.7919 691 117.433 507.087 467.268
470 0 57.3958 11.2726 647 120.563 509.045 463.671
471 0 61.2636 14.3968 882 114.185 509.552 464.748
472 0 66.3112 12.4715 827 115.001 507.891 467.892
473 0 67.3329 15.7278 1059 111.135 507.903 465.284
474 0 69.5281 13.117 912 115.634 507.81 462.986
475 0 70.3291 15.6834 1103 112.2 508.889 463.278
476 0 73.4228 16.657 1223 110.658 507.946 464.002
477 0 73.4 12.248 899 117.591 507.293 466.833
478 0 78.3641 13.7563 1078 114.243 506.98 464.747
479 0 80.2619 12.6087 1012 115.648 506.251 464.712
480 0 83.2498 13.3093 1108 114.24 506.39 465.317
481 0 86.4917 14.1516 1224 112.56 506.728 466.732
482 0 87.27 13.8536 1209 114.288 505.207 464.726
483 0 92.2948 14.1611 1307 113.937 504.095 463.387
484 1 49.1252 12.7837 628 111.121 502.1 485.038
485 0 49.1252 12.7226 625 125.554 501.115 484.938
486 0 50.6278 10.6661 540 115.107 501.324 482.115
487 0 50.3284 12.4582 627 110.702 500.716 482.118
488 0 54.259 15.5366 843 105.925 501.166 477.711
489 0 55.3703 11.5947 642 113.009 499.821 476.974
490 0 57.5939 12.2582 706 111.63 499.703 479.397
491 0 59.342 13.5317 803 109.92 499.126 479.641
492 0 60.3442 14.931 901 109.355 499.119 474.563
493 0 61.7283 10.4328 644 114.13 498.13 477.457
494 0 66.5876 18.0064 1199 104.396 497.41 468.99
495 0 66.6764 13.1681 878 111.409 496.982 469.11
496 0 66.469 9.94449 661 116.785 497.139 468.086
497 0 71.4186 12.8678 919 112.901 497.104 469.211
498 0 72.3805 11.2047 811 117.222 496.358 462.286
499 0 77.1676 12.5182 966 115.22 495.784 459.513
500 0 79.2834 14.3914 1141 112.38 497.168 459.225
501 0 83.6096 14.7591 1234 111.558 496.262 459.24
502 0 85.7812 13.4528 1154 113.309 498.402 458.433
503 1 45.5997 13.2896 606 111.282 500.04 472.094
504 0 46.8922 10.812 507 111.045 501.333 466.56
505 0 45.5321 11.728 534 107.101 500.506 461.084
506 0 48.4425 15.0901 731 103.283 502.915 463.219
507 0 48.1179 12.2823 591 112.415 505.203 470.179
508 0 51.1336 12.7705 653 113.409 505.08 468.038
509 0 50.1636 10.4259 523 115.516 506.359 468.595
510 0 51.1214 12.9691 663 110.976 504.95 470.846
511 0 54.1236 13.0996 709 112.392 506.716 468.164
512 0 54.1838 12.3284 668 114.311 506.969 466.708
513 0 53.169 11.6797 621 117.061 507.457 468.481
514 0 60.3064 17.2453 1040 109.151 507.084 468.418
515 0 61.2798 14.5399 891 113.789 508.626 466.392
516 0 63.2508 11.8734 751 119.116 508.434 467.265
517 0 65.1939 13.6209 888 117.166 510.704 467.856
518 0 68.2488 15.0479 1027 114.916 508.705 466.491
519 0 66.124 11.675 772 123.988 511.324 466.079
520 0 71.4032 12.7585 911 121.913 510.134 463.884
521 0 73.4021 16.9069 1241 112.865 507.18 467.496
522 0 74.4126 12.1888 907 121.809 506.252 465.311
523 0 78.3276 14.8096 1160 117.313 505.411 464.912
524 0 77.4884 14.4925 1123 118.274 505.427 463.443
525 0 82.3871 16.7987 1384 114.313 505.169 460.791
526 0 84.3663 15.5038 1308 115.91 503.171 464.726
527 0 85.4046 14.7416 1259 114.925 503.797 463.904
528 0 90.5143 17.6768 1600 110.722 502.354 461.296
529 0 92.3422 17.2727 1595 110.453 502.568 463.88
530 0 95.3659 14.156 1350 113.749 501.3 460.81
531 0 98.4252 15.6972 1545 112.128 499.885 459.05
532 0 100.226 13.7788 1381 114.303 500.19 458.49
533 0 104.288 16.4737 1718 111.626 499.491 456.424
534 0 107.497 16.0656 1727 115.041 499.272 447.387
535 1 60.2624 13.5574 817 112.602 498.75 476.118
536 0 60.206 14.5833 878 111.794 500.45 472.008
537 0 62.3202 12.5642 783 112.856 500.581 474.341
538 0 66.344 13.6862 908 110.827 499.426 470.029
539 0 67.3987 14.8816 1003 114.612 499.476 465.776
540 0 70.3248 17.4761 1229 109.322 499.046 463.64
541 0 69.7314 12.4908 871 118.124 499.433 463.695
542 0 74.4399 16.1204 1200 110.302 499.662 460.471
543 0 75.6567 11.7769 891 116.863 500.191 462.002
544 0 79.4579 17.6194 1400 108.441 500.661 457.763
545 0 81.6084 12.8051 1045 114.678 499.34 454.361
546 0 87.9857 17.7415 1561 106.906 500.755 451.15
547 0 87.7757 14.2408 1250 112.182 500.487 448.822
548 0 90.555 17.0504 1544 107.834 500.856 449.499
549 0 92.777 15.672 1454 110.336 501.82 442.506
550 0 93.5107 14.0091 1310 112.843 502.34 445.437
551 0 98.5288 13.4986 1330 112.327 503.85 442.221
552 0 101.528 16.5964 1685 109.143 503.335 443.281
553 0 104.367 13.3376 1392 112.672 504.493 440.749
554 0 110.914 17.2927 1918 105.307 504.671 442.824
555 0 113.956 15.7518 1795 108.897 504.933 438.964
556 0 117.067 15.4612 1810 110.536 507.215 430.039
557 0 125.106 15.2431 1907 106.866 506.131 440.852
558 0 126.069 14.6904 1852 109.866 507.443 434.268
559 0 127.176 14.8848 1893 110.676 507.265 428.776
560 0 131.818 13.7007 1806 112.764 507.148 426.795
561 0 137.979 15.14 2089 110.679 507.907 431.37
562 0 145.231 16.1605 2347 109.566 507.82 423.159
563 1 71.6781 12.1376 870 110.483 507.923 460.73
564 0 76.619 14.3959 1103 107.028 508.082 463.981
565 0 82.4439 14.6766 1210 106.178 507.807 465.964
566 0 81.5453 15.66 1277 105.634 507.112 466.522
567 0 87.2692 16.9819 1482 103.967 506.905 465.191
568 0 88.756 13.5765 1205 109.647 507.256 461.138
569 0 87.4468 11.5956 1014 111.628 507.145 462.58
570 0 93.431 16.365 1529 106.03 506.142 458.54
571 0 99.8452 16.6558 1663 104.762 504.204 460.393
572 0 99.5541 15.2179 1515 106.92 503.851 458.273
573 0 103.681 12.5771 1304 112.422 503.873 450.315
574 0 107.422 14.2895 1535 110.351 503.02 451.059
575 0 117.669 12.4161 1461 110.064 501.915 452.988
576 1 58.5062 9.36653 548 114.577 500.495 473.378
577 0 63.3483 12.3602 783 108.815 500.563 470.7
578 0 66.1495 10.0228 663 112.237 501.544 469.638
579 0 69.2016 13.1066 907 109.932 501.838 467.227
580 0 73.1517 14.2717 1044 106.517 501.271 465.101
581 0 72.2172 12.1993 881 111.882 500.991 462.775
582 0 79.1672 14.3746 1138 109.396 500.009 461.197
583 0 81.2063 14.2969 1161 110.841 499.516 458.53
584 0 83.1379 14.061 1169 112.615 501.754 458.471
585 0 85.079 11.2836 960 115.694 501.023 459.678
586 0 86.1854 13.5986 1172 115.596 500.926 449.137
587 0 93.2984 15.2521 1423 111.841 501.511 450.295
588 0 95.2423 12.6309 1203 115.049 502.626 449.038
589 1 51.1268 14.2782 730 108.881 503.73 466.226
590 0 52.0833 11.7504 612 110.933 502.493 469.489
591 0 54.2648 16.7696 910 104.667 503.034 467.181
592 0 56.1891 11.924 670 113.473 505.912 469.133
593 0 59.146 16.8566 997 103.842 504.913 469.938
594 0 56.1202 11.9208 669 117.38 506.259 462.987
595 0 60.1162 13.7733 828 118.107 507.275 462.437
596 0 62.1226 14.906 926 115.825 507.552 462.789
597 0 63.1568 12.6827 801 120.341 506.775 464.198
598 0 64.3784 13.3119 857 120.113 506.65 462.45
599 0 67.3438 13.1118 883 120.785 507.874 462.888
600 0 68.2758 14.8369 1013 118.804 507.705 459.221
601 0 70.2825 14.5413 1022 119.46 509.569 459.766
602 0 70.2601 14.5032 1019 142.626 510.57 459.817
603 0 76.4985 14.0133 1072 119.266 507.978 463.138
604 0 79.1905 14.926 1182 119.213 507.634 459.187
605 0 83.2956 15.487 1290 116.905 505.7 458.252
606 0 87.3068 15.6689 1368 116.882 505.898 456.879
607 0 88.5102 12.2133 1081 122.883 505.971 456.054
608 0 92.3368 13.5699 1253 120.989 506.243 455.763
609 0 96.4314 18.5935 1793 111.343 505.225 459.896
610 1 50.1046 13.7911 691 116.653 504.98 480.78
611 0 49.0687 9.41537 462 124.801 503.297 480.887
612 0 52.1125 12.07 629 114.364 505.118 473.542
613 0 55.1367 13.5844 749 117.637 502.441 479.116
614 0 58.1052 12.6322 734 117.151 502.399 478.613
615 0 58.1004 14.8364 862 114.985 502.003 475.863
616 0 59.1136 13.3472 789 117.621 501.283 475.123
617 0 64.2697 15.5283 998 113.18 500.528 474.904
618 0 63.1028 11.9329 753 120.098 499.906 473.838
619 0 67.1999 16.4137 1103 113.623 498.953 470.79
620 0 68.2145 14.3664 980 117.092 499.058 470.802
621 0 72.0853 14.3719 1036 117.176 498.721 467.385
622 0 73.2076 14.7389 1079 116.471 497.78 469.191
623 0 75.2336 16.0301 1206 117.352 497.295 462.267
624 0 78.2077 14.9857 1172 118.586 497.596 460.822
625 0 79.2219 13.3044 1054 121.659 495.931 459.807
626 1 41.0721 10.9807 451 121.909 496.093 479.211
627 0 41.185 11.4119 470 122.46 496.549 476.226
628 0 43.288 12.9366 560 121.366 496.789 473.832
629 0 46.6442 11.92 556 122.899 498.3 474.209
630 0 48.2553 15.1279 730 118.077 498.827 470.779
631 0 48.2553 15.1071 729 134.575 499.813 470.8
632 0 50.3578 16.482 830 115.461 499.633 470.154
633 0 50.2357 11.5854 582 122.741 498.89 471.49
634 0 55.3036 16.9067 935 114.939 500.914 468.532
635 0 56.4434 15.4491 872 115.79 500.643 468.193
636 0 57.4875 15.9687 918 116.914 502.44 465.508
637 0 59.3422 13.7171 814 121.925 503.78 463.918
638 0 62.4112 17.9775 1122 114.668 504.308 465.78
639 0 63.5044 14.9123 947 120.752 504.216 463.166
640 0 66.3204 16.8274 1116 118.879 505.752 460.828
641 0 70.383 13.6112 958 125.54 505.634 462.659
642 0 71.3109 13.0415 930 126.839 506.851 460.413
643 0 73.8357 16.3742 1209 121.687 507.166 459.255
644 0 75.4534 18.2762 1379 120.305 507.447 456.086
645 0 78.497 15.5165 1218 123.925 507.486 457.614
646 0 80.5213 18.5913 1497 119.088 507.617 453.948
647 0 83.561 15.0908 1261 123.923 507.83 454.964
648 0 85.5058 16.3732 1400 120.374 507.572 454.919
649 0 87.6675 15.6044 1368 121.773 506.684 451.978
650 0 90.4977 15.6579 1417 121.807 506.434 453.34
651 0 94.3594 15.5152 1464 121.266 505.928 456.967
652 1 51.3283 14.5144 745 118.462 505.74 474.2
653 0 52.2362 12.118 633 119.218 505.488 473.311
654 0 53.1057 11.1664 593 117.666 505.933 472.223
655 0 57.473 13.3628 768 114.003 504.542 474.142
656 0 60.2557 15.6998 946 111.471 504.28 468.661
657 0 61.4902 12.1971 750 116.555 504.249 469.243
658 0 61.3574 16.9336 1039 111.277 502.557 466.786
659 0 63.3642 13.0673 828 117.814 503.74 469.466
660 0 68.3748 15.3273 1048 114.158 501.58 469.694
661 0 69.426 13.2227 918 118.794 500.79 467.634
662 0 72.1363 14.0567 1014 119.516 500.151 468.914
663 0 73.5593 13.4313 988 121.565 500.856 468.427
664 0 75.6268 14.7435 1115 120.699 500.28 463.682
665 0 76.625 13.4812 1033 139.5 499.162 464.744
666 0 80.4604 13.0499 1050 123.7 499.423 460.515
667 0 81.4192 14.4438 1176 122.224 499.748 456.827
668 0 84.6761 13.1796 1116 122.255 498.728 449.835
669 0 91.8347 16.8999 1552 115.557 499.161 450.35
670 1 45.4284 10.9403 497 117.92 500.465 473.716
671 0 47.3788 13.086 620 117.166 500.905 470.077
672 0 49.3291 12.7916 631 116.861 501.296 467.946
673 0 51.2082 12.8886 660 117.22 501.741 464.365
674 0 51.13 14.9423 764 117.249 500.531 470.255
675 0 54.1249 15.1132 818 117.046 501.713 468.935
676 0 57.2629 16.4679 943 118.568 501.376 466.488
677 0 57.233 16.9657 971 117.625 502.186 465.011
678 0 59.2737 15.2175 902 120.87 501.674 462.958
679 0 63.4186 12.8354 814 122.78 503.021 464.198
680 0 62.2385 15.7941 983 120.096 503.887 460.141
681 0 67.3953 15.9952 1078 119.121 504.924 459.944
682 0 68.2592 12.8334 876 124.121 505.05 461.103
683 0 71.4261 15.0785 1077 121.437 504.969 460.164
684 0 74.4913 14.5386 1083 121.955 505.938 459.699
685 0 77.5038 20.2571 1570 112.308 506.315 458.205
686 0 81.6335 21.082 1721 110.844 507.28 457.748
687 0 81.2434 19.0908 1551 114.646 507.237 458.433
688 0 86.5366 17.1373 1483 116.749 507.739 456.061
689 0 87.4326 13.4847 1179 120.919 507.219 455.906
690 0 92.0961 15.6358 1440 116.918 507.649 446.853
691 1 48.278 13.5051 652 116.002 506.471 472.132
692 0 50.2111 12.5868 632 116.008 507.19 475.641
693 0 51.2615 14.982 768 113.259 507.698 472.673
694 0 51.3772 12.6515 650 116.834 508.397 476.592
695 0 53.2101 13.1366 699 117.93 508.346 475.863
696 0 55.639 17.6674 983 112.918 507.85 473.872
697 0 56.254 14.9856 843 116.917 506.326 478.916
698 0 60.2388 16.4346 990 113.22 507.319 473.888
699 0 60.2012 15.9631 961 117.778 505.657 473.914
700 0 63.4583 16.0105 1016 117.55 505.241 470.684
701 0 67.4642 19.1954 1295 112.385 504.976 471.229
702 0 70.4175 16.7998 1183 115.637 504.003 467.306
703 0 69.6027 16.3356 1137 116.375 503.319 468.623
704 0 72.5505 15.2445 1106 118.353 502.703 464.973
705 0 77.7861 18.8208 1464 111.938 502.095 464.084
706 0 78.7126 15.3343 1207 118.278 500.862 463.683
707 0 78.7126 15.2199 1198 133.389 499.863 463.647
708 0 82.6006 17.7723 1468 115.487 499.457 458.301
709 0 86.7445 16.5313 1434 116.887 499.521 457.577
710 0 90.8277 16.4047 1490 116.519 500.529 455.936
711 0 95.917 14.8879 1428 118.338 499.93 450.739
712 0 98.0649 16.071 1576 114.826 500.676 456.914
713 1 47.3598 16.0474 760 117.532 499.913 473.891
714 0 47.5666 15.41 733 120.899 501.486 473.604
715 0 49.5799 15.9137 789 119.276 500.631 470.617
716 0 53.6177 14.8272 795 120.15 501.605 470.474
717 0 54.7935 14.4725 793 119.091 501.523 471.622
718 0 55.33 15.1636 839 119.872 501.69 467.709
719 0 59.9133 14.4375 865 120.524 502.397 465.319
720 0 60.6611 15.4629 938 120.396 503.206 465.276
721 0 60.6611 15.4135 935 139.821 504.22 465.163
722 0 65.1725 16.0804 1048 118.082 504.282 462.77
723 0 66.6661 14.8651 991 120.335 504.581 464.204
724 0 72.6047 19.0759 1385 113.353 504.565 457.91
725 0 73.7074 15.1681 1118 119.892 506.495 462.165
726 1 35.7477 14.994 536 121.11 507.599 476.847
727 0 38.775 15.6802 608 120.694 508.27 477.115
728 0 39.259 15.5124 609 119.649 508.236 480.46
729 0 45.5119 15.1169 688 120.913 509.122 478.353
730 0 42.4441 12.8404 545 129.771 508.673 477.259
731 0 45.3085 13.2205 599 129.559 509.619 480.172
732 0 45.3085 13.3088 603 153.134 510.625 480.247
733 0 47.3993 15.9918 758 125.201 509.05 479.863
734 0 49.6354 17.0846 848 124.025 508.402 479.317
735 0 49.5527 17.5167 868 125.273 508.902 479.372
736 0 50.5272 17.1789 868 127.453 509.226 479.606
737 0 53.4295 16.6949 892 127.485 507.665 481.626
738 0 52.4659 14.4284 757 133.061 508.135 481.806
739 0 53.4902 15.8721 849 131.715 507.146 481.807
740 0 56.3879 18.5323 1045 127.081 506.402 480.669
741 0 56.2182 18.2681 1027 128.574 505.817 480.872
742 0 61.1803 15.0539 921 134.674 506.53 476.587
743 0 59.6362 13.6159 812 139.713 504.498 475.182
744 0 64.3973 18.6033 1198 127.374 503.899 479.202
745 0 64.3973 18.448 1188 148.59 502.944 479.152
746 0 63.4055 16.1027 1021 136.363 504.121 471.553
747 0 68.8266 16.7522 1153 133.666 503.467 472.538
748 0 70.6342 17.6402 1246 131.84 503.587 471.948
749 0 74.5492 17.532 1307 132.087 503.306 468.835
750 0 75.3708 18.535 1397 131.165 502.54 467.896
751 0 78.4069 17.3582 1361 133.084 502.224 466.602
752 0 83.1773 17.0599 1419 133.512 501.724 465.165
753 0 84.8488 18.1028 1536 133.493 502.495 461.003
754 0 85.6001 16.0163 1371 137.949 502.395 459.127
755 0 94.0686 19.0074 1788 130.572 501.352 457.939
756 0 94.8928 18.3049 1737 131.753 501.764 456.027
757 1 56.3098 14.8465 836 140.603 501.472 470.559
758 0 60.3359 16.2258 979 135.091 502.611 470.531
759 0 56.6794 14.9084 845 141.614 502.515 469.531
760 0 59.597 16.1082 960 139.504 502.551 467.028
761 0 60.7056 17.5931 1068 136.85 503.309 464.761
762 0 64.5728 17.1434 1107 137.19 502.733 463.575
763 0 65.2633 17.1153 1117 137.818 504.238 464.252
764 0 65.5861 18.0221 1182 138.007 505.272 461.3
765 0 68.998 14.8265 1023 143.138 505.892 462.375
766 0 69.6593 18.0162 1255 140.916 506.602 456.737
767 0 74.7688 18.8046 1406 135.816 506.312 460.156
768 0 71.6853 15.9726 1145 144.621 506.914 456.843
769 0 76.0862 16.3104 1241 143.361 508.464 456.678
770 0 78.8319 17.7974 1403 141.841 507.855 458.784
771 0 80.9733 17.9936 1457 141.652 509.309 456.148
772 0 85.2529 17.9935 1534 140.432 508.42 457.058
773 0 87.4173 18.3373 1603 138.772 509.084 457.868
774 0 90.2059 18.6906 1686 136.678 509.062 455.395
775 0 94.519 18.4513 1744 137.485 509.113 454.059
776 0 95.1667 18.2522 1737 136.904 508.961 457.46
777 0 97.4052 18.151 1768 138.965 509.189 454.302
778 0 100.531 16.6416 1673 142.444 509.555 454.172
779 0 103.42 17.1533 1774 142.117 508.698 453.329
780 0 105.799 17.3725 1838 143.958 508.297 449.131
781 0 109.583 19.1544 2099 140.645 508.21 451.241
782 0 112.193 18.6376 2091 140.851 507.391 449.79
783 0 116.512 18.4788 2153 141.834 506.432 443.98
784 0 119.247 18.6922 2229 141.326 506.542 443.884
785 1 61.7911 14.3872 889 140.351 505.971 471.924
786 0 67.7319 15.3399 1039 138.409 505.564 469.94
787 0 69.8812 17.0003 1188 136.994 505.391 467.142
788 0 69.9905 15.2592 1068 141.741 503.99 464.974
789 0 71.7457 17.4087 1249 138.354 504.369 464.919
790 0 75.8447 16.3888 1243 139.229 503.097 462.649
791 0 81.414 16.5942 1351 138.009 504.738 463.022
792 0 80.1986 17.3694 1393 138.368 503.125 460.543
793 0 82.3791 16.3027 1343 141.472 503.331 458.289
794 0 83.9513 15.5924 1309 143.885 502.749 454.919
795 0 85.8298 14.9249 1281 146.016 502.19 449.15
796 0 89.117 15.0252 1339 146.459 502.238 445.824
797 0 94.286 14.9015 1405 145.424 503.177 444.833
798 0 93.1134 14.4985 1350 148.908 503.05 438.347
799 0 100.021 15.8267 1583 142.135 502.179 443.408
800 0 103.215 17.5361 1810 140.791 501.681 438.597
801 0 107.281 15.1844 1629 145.467 503.126 436.552
802 0 108.033 17.3095 1870 142.414 502.235 433.45
803 0 112.422 15.3262 1723 147.878 504.041 429.193
804 0 113.068 17.4143 1969 144.956 504.293 429.491
805 0 120.214 15.7552 1894 147.417 504.901 426.328
806 1 71.0653 12.5659 893 130.961 506.069 452.676
807 0 68.7428 7.2444 498 137.018 506.592 452.95
808 0 74.5893 9.37132 699 133.043 508.805 452.217
809 0 75.9325 9.15287 695 136.908 508.81 443.745
810 0 79.3536 10.762 854 132.1 508.717 447.689
811 0 80.8755 8.544 691 136.69 510.223 441.751
812 0 80.9528 7.15231 579 141.788 509.487 434.793
813 0 85.0115 10.4104 885 130.763 509.944 447.964
814 0 84.9708 4.46036 379 143.449 511.201 440.675
815 0 82.1734 7.07042 581 144.821 509.836 426.819
816 0 88.7108 4.82466 428 146.82 511.593 435.727
817 0 92.7274 6.25489 580 142.462 512.331 433.695
818 1 52.291 7.84073 410 120.498 508.702 466.71
819 0 55.2136 9.88886 546 115.357 506.685 473.396
820 0 52.9424 4.85433 257 123.65 507.942 470.872
821 0 56.3121 9.57166 539 117.217 508.145 472.004
822 0 58.0637 7.90511 459 119.978 507.126 469.802
823 0 62.3031 9.29328 579 118.385 508.214 465.986
824 0 60.5398 7.38357 447 121.311 508.743 468.866
825 0 64.0944 9.64202 618 117.408 507.201 466.437
826 0 66.6466 6.55697 437 120.378 506.867 472.082
827 0 67.546 9.3862 634 118.222 506.278 465.692
828 0 70.3734 7.34652 517 118.602 505.896 471.261
829 0 73.241 10.2811 753 115.183 504.883 463.584
830 0 75.7241 7.98953 605 118.481 504.451 462.489
831 0 75.126 6.65549 500 120.308 503.554 457.15
832 0 76.4046 5.70646 436 121.482 503.622 453.805
833 0 82.3451 12.4962 1029 111.117 501.859 456.795
834 0 83.094 9.02592 750 115.268 501.357 457.084
835 1 21.0262 5.99252 126 111.341 501.849 491.579
836 0 20.01 4.99749 100 115.38 501.46 489.02
837 0 29.164 4.5947 134 118.701 502.448 485.545
838 1 16.0046 6.37319 102 117.598 503.01 489.784
839 0 14.0023 2.571 36 125.583 502.361 491.222
840 0 12.0089 3.99702 48 123.25 502.833 489.062
841 1 23.028 8.29423 191 119.796 502.984 482.665
842 0 22.0922 5.92969 131 121.824 502.496 484.992
843 0 22.0199 8.03819 177 120.147 502.006 483.215
844 0 20.0073 5.84786 117 121.385 502.675 482.359
845 0 18.0142 5.05156 91 124.813 503.231 482.516
846 0 17.0105 10.9345 186 116.559 502.608 483.484
847 0 17.0077 11.7594 200 117.475 502.315 482.695
848 0 12.0024 7.58184 91 123.055 505.165 481.231
849 0 18.011 10.3826 187 118.711 505.861 481.508
850 0 19.0147 8.99302 171 121.708 506.825 478.83
851 0 18.0167 6.27196 113 122.867 505.398 483.549
852 0 16.0138 6.24462 100 125.27 506.71 481.68
853 0 18.0173 10.1569 183 120.437 506.005 482.519
854 0 18.0562 5.7598 104 126.721 508.442 482.683
855 0 18.0348 6.54289 118 123.432 507.703 484.042
856 0 18.0111 7.32882 132 121.068 508.364 485.864
857 0 16.0087 9.12006 146 120.466 508.726 485.993
858 1 156.54 14.3989 2254 138.325 509.232 417.408
859 0 161.639 15.349 2481 136.908 508.505 422.457
860 0 164.313 14.6306 2404 139.635 509.064 422.327
861 1 62.243 15.809 984 140.805 509.065 462.388
862 0 67.5755 14.5615 984 139.355 508.058 470.453
863 0 68.7935 16.5568 1139 140.4 508.65 466.14
864 0 66.5233 14.7618 982 145.172 507.675 468.181
865 0 68.7655 17.1888 1182 144.814 507.415 465.875
866 0 70.4854 15.8189 1115 147.44 508.092 467.828
867 0 70.7022 17.7929 1258 146.803 505.941 467.558
868 0 75.065 18.2908 1373 145.259 506.494 468.493
869 0 74.3354 15.1745 1128 150.251 505.684 467.98
870 0 77.8094 17.3758 1352 149.109 505.862 467.003
871 0 83.4718 17.7784 1484 144.83 504.46 466.807
872 1 217.715 18.9881 4134 131.34 504.49 410.18
873 0 224.864 16.8368 3786 136.345 504.109 407.069
874 1 265.291 11.9152 3161 139.732 503.273 412.945
875 1 59.2462 13.4355 796 143.141 503.078 478.544
876 0 57.1313 15.0005 857 140.259 502.72 480.072
877 0 55.6489 15.1306 842 141.79 502.144 478.013
878 0 64.0205 14.1049 903 144.909 502.79 473.827
879 0 63.9404 15.2017 972 142.976 501.565 472.102
880 0 62.2973 13.869 864 145.002 501.86 474.08
881 0 62.2373 16.7263 1041 138.118 501.539 470.546
882 0 60.7991 13.816 840 142.74 501.5 473.733
883 1 47.2741 13.5381 640 114.17 503.65 477.902
884 0 47.2367 12.5961 595 117.808 502.55 473.741
885 0 48.159 9.65551 465 120.017 503.256 474.492
886 0 49.0965 11.8542 582 118.323 503.534 471.028
887 0 50.2735 11.9944 603 119.181 504.282 470.091
888 0 55.3334 14.7108 814 114.119 503.371 468.215
889 0 53.1269 11.9149 633 121.139 505.088 468.654
890 0 55.2199 14.4694 799 115.522 504.202 469.025
891 0 61.0756 15.5872 952 113.074 504.868 465.656
892 0 58.2855 12.8677 750 119.277 505.943 464.883
893 0 60.2305 13.8302 833 121.341 506.403 460.792
894 0 62.1759 12.722 791 121.286 507.743 465.564
895 0 63.2352 11.5284 729 125.257 507.554 463.351
896 0 64.2008 12.6478 812 123.005 507.542 461.824
897 0 69.2083 14.637 1013 120.795 508.265 459.981
898 0 67.1104 9.56633 642 130.017 508.687 460.207
899 0 74.231 12.0031 891 123.038 508.079 462.868
900 0 75.2429 12.9846 977 123.646 509.08 458.471
901 0 79.3925 11.7517 933 128.568 507.856 454.254
902 0 79.0658 13.3307 1054 127.629 508.316 452.173
903 0 84.874 11.1224 944 123.091 507.185 454.647
904 0 87.5839 12.3881 1085 123.171 507.595 452.759
905 1 48.4482 15.3153 742 117.55 506.881 467.28
906 0 49.4826 13.7422 680 121.687 508.074 470.832
907 0 52.1601 10.3911 542 125.321 506.341 474.804
908 0 52.1282 11.2223 585 125.427 505.499 472.332
909 0 56.1511 12.4129 697 120.611 507.594 477.745
910 0 55.1768 12.5596 693 123.033 508.936 476.844
911 0 57.1443 11.4797 656 125.181 508.974 479.293
912 0 60.097 14.46 869 119.23 507.211 475.39
913 0 58.1036 9.25932 538 129.329 507.913 476.509
914 0 62.2124 12.9235 804 121.729 507.221 476.075
915 0 65.2199 13.4775 879 121.264 506.001 473.845
916 0 67.384 12.7478 859 121.704 506.183 476.397
917 0 68.1161 14.3872 980 120.578 504.586 469.07
918 0 72.2583 13.95 1008 120.467 503.064 471.167
919 0 73.2666 14.0173 1027 122.329 503.759 471.108
920 0 76.268 15.5766 1188 120.473 502.695 468.119
921 0 78.5841 13.6542 1073 124.185 503.307 462.982
922 0 85.0785 14.4455 1229 124.199 503.518 461.812
923 0 84.978 16.0748 1366 122.593 502.314 459.2
924 0 85.5526 16.3876 1402 121.453 502.201 455.2
925 0 88.5637 14.4416 1279 123.027 501.908 454.884
926 1 47.3067 13.7613 651 117.464 499.524 469.399
927 0 47.5342 11.1919 532 122.735 499.658 468.878
928 0 49.3622 13.9378 688 118.195 500.587 468.424
929 0 52.1337 16.1892 844 114.6 500.021 466.594
930 0 54.081 14.3858 778 118.774 500.008 467.546
931 0 55.0898 13.1603 725 117.534 500.989 466.472
932 0 55.1952 11.8307 653 119.636 501.363 467.208
933 0 58.1665 12.4642 725 116.781 505.065 466.994
934 0 59.2007 12.4323 736 118.568 504.959 463.476
935 0 61.0703 13.8529 846 115.199 506.274 463.921
936 0 62.0578 12.5367 778 123.156 507.236 461.8
937 0 66.0396 12.5531 829 122.142 507.548 460.458
938 0 66.036 13.2504 875 121.066 508.177 460.592
939 0 67.128 11.3515 762 123.396 508.303 459.375
940 0 69.1046 9.04426 625 127.062 508.565 459.328
941 0 75.2977 13.0681 984 118.581 508.744 458.446
942 0 79.125 14.0158 1109 116.947 509.835 456.718
943 0 81.0895 13.6023 1103 115.461 510.004 460.412
944 0 83.2117 13.5317 1126 116.677 510.698 456.655
945 0 85.123 13.874 1181 117.14 510.699 454.691
946 0 89.2378 14.3437 1280 113.927 510.723 454.626
947 0 89.0946 11.8301 1054 118.378 510.851 451.398
948 0 95.1816 14.5301 1383 113.522 511.196 450.163
949 1 51.1543 8.52323 436 116.94 511.617 476.55
950 0 53.1231 11.5392 613 112.558 511.038 475.721
951 0 53.1695 10.9649 583 114.501 510.544 471.606
952 0 59.1559 13.4391 795 111.231 511.288 470.186
953 0 61.6823 12.2888 758 112.012 508.34 471.884
954 0 62.0753 13.4031 832 110.144 505.412 476.477
955 0 65.1901 13.7598 897 109.591 505.32 474.866
956 0 64.2812 12.8498 826 111.653 504.775 470.948
957 0 65.2277 11.7895 769 113.042 509.212 467.944
958 0 69.1383 13.7261 949 109.372 507.845 467.936
959 0 72.2927 12.8229 927 109.972 508.176 468.713
960 0 72.1595 17.0733 1232 104.743 505.832 465.91
961 0 76.2159 12.0841 921 110.985 506.093 463.022
962 0 81.115 11.9213 967 108.264 505.42 467.846
963 0 83.1277 12.559 1044 109.564 505.73 458.691
964 0 87.3344 15.5494 1358 104.274 503.932 459.161
965 0 87.2602 15.0813 1316 104.993 504.043 459.036
966 0 90.2396 13.8077 1246 106.858 505.141 456.439
967 0 95.3716 15.2142 1451 104.906 503.495 449.077
968 1 51.2045 12.6747 649 103.78 503.915 474.676
969 0 51.2547 11.5892 594 105.65 502.813 471.63
970 0 53.4621 14.8329 793 100.904 501.477 469.715
971 0 52.2256 13.2119 690 104.57 500.288 470.991
972 0 55.2544 15.7634 871 101.518 500.208 468.332
973 0 55.317 14.2994 791 103.736 501.473 468.47
974 0 57.3255 12.8913 739 106.249 501.334 466.639
975 0 60.2281 13.15 792 105.89 500.984 463.809
976 0 59.2386 6.43162 381 115.696 500.685 459.958
977 0 65.239 14.9451 975 101.883 501.994 462.839
978 0 63.1264 11.3899 719 109.274 501.86 456.309
979 0 64.1806 11.826 759 108.162 502.825 455.395
980 0 70.551 16.0451 1132 100.53 505.013 458.366
981 0 72.6385 13.9733 1015 104.901 506.469 454.191
982 0 73.2935 15.5402 1139 103.421 505.646 455.834
983 0 76.4294 12.4167 949 106.991 507.403 455.626
984 0 80.5214 13.8224 1113 105.276 507.852 453.024
985 0 80.4234 12.4839 1004 107.998 508.758 451.539
986 0 87.5972 14.5438 1274 103.667 508.879 454.632
987 0 87.5313 15.3431 1343 107.306 509.427 447.81
988 0 92.5189 15.813 1463 105.638 509.926 450.252
989 0 91.5269 13.7774 1261 107.093 511.057 449.144
990 0 99.3213 16.4819 1637 102.224 510.689 447.746
991 0 101.438 15.1423 1536 104.368 509.386 449.527
992 1 57.1948 13.5851 777 104.158 511.238 472.162
993 0 55.1129 10.1428 559 106.218 511.216 475.442
994 0 60.1266 10.3448 622 105.246 510.352 474.376
995 0 57.0976 8.3366 476 113.126 510.34 473.309
996 0 64.0999 20.3744 1306 93.8966 507.668 468.795
997 0 68.2845 13.0044 888 102.809 509.691 472.408
998 0 70.3866 24.0671 1694 90.6612 508.009 467.779
999 0 71.1141 16.2696 1157 102.123 509.245 466.339
1000 0 72.2622 13.5894 982 106.601 508.486 468.478
1001 0 74.2782 11.6185 863 109.815 506.786 466.076
1002 0 74.2782 11.7262 871 150.839 504.775 465.904
1003 0 80.2514 13.4577 1080 106.865 505.559 466.516
1004 0 82.5276 18.0788 1492 101.573 504.618 464.475
1005 0 90.1622 12.1115 1092 104.272 505.49 465.693
1006 0 87.3321 12.1948 1065 107.761 504.275 459.817
1007 0 91.5263 20.2565 1854 97.6532 502.846 457.816
1008 0 93.293 17.5254 1635 102.492 503.868 451.938
1009 0 95.3374 13.0274 1242 106.667 503.503 456.858
1010 0 99.559 15.8298 1576 103.465 503.403 449.879
1011 0 100.516 14.8235 1490 106.125 503.681 450.738
1012 1 54.0522 10.5824 572 113.038 504.675 471.038
1013 0 53.1068 8.58647 456 118.904 505.088 469.018
1014 0 59.1857 16.0512 950 105.04 504.816 469.012
1015 0 58.2166 13.9994 815 110.498 505.906 463.07
1016 0 64.086 14.1997 910 104.145 505.203 465.592
1017 0 62.0541 12.4246 771 107.59 504.951 464.917
1018 0 65.0754 14.2911 930 103.913 505.373 465.426
1019 0 68.1847 13.9034 948 106.774 505.335 459.39
1020 0 70.1694 12.4271 872 114.433 506.55 458.569
1021 0 74.1407 13.906 1031 111.487 507.727 455.997
1022 0 74.0502 14.0715 1042 111.978 508.131 455.153
1023 0 74.1002 13.2253 980 114.47 508.426 454.146
1024 0 79.1804 13.7408 1088 114.421 508.986 452.47
1025 0 81.247 13.662 1110 115.279 508.554 449.939
1026 0 83.1092 14.2463 1184 114.781 509.538 450.482
1027 0 85.1991 14.4368 1230 114.89 510.293 450.328
1028 0 88.1623 14.5754 1285 114.274 510.229 451.156
1029 0 90.1585 13.0659 1178 116.375 512.054 451.696
1030 0 94.3767 14.6858 1386 114.893 512.519 449.47
1031 0 97.2414 15.8369 1540 112.844 511.825 451.65
1032 0 98.2776 13.3601 1313 118.324 512.49 448.196
1033 0 101.31 12.8418 1301 120.454 513.141 443.192
1034 0 104.126 14.3768 1497 117.806 511.792 442.456
1035 1 54.0462 9.89894 535 117.779 510.307 475.445
1036 0 56.7399 13.6764 776 112.439 508.326 469.415
1037 0 59.1466 13.4074 793 115.236 510.235 469.531
1038 0 59.1777 12.8427 760 115.797 512.295 471.349
1039 0 65.15 13.5533 883 113.375 510.309 472.954
1040 0 63.2718 14.1295 894 115.543 510.547 469.253
1041 0 67.4145 13.5727 915 115.62 509.989 471.243
1042 0 68.2787 13.2106 902 116.453 510.558 472.698
1043 0 70.2128 13.2882 933 116.798 507.779 469.602
1044 0 73.4026 12.4383 913 118.593 507.572 469.972
1045 0 75.2328 13.7972 1038 118.691 505.691 465.974
1046 0 80.3215 15.8488 1273 114.709 505.013 465.52
1047 0 82.205 16.0088 1316 113.681 505.822 467.056
1048 0 82.1035 15.5779 1279 116.489 505.124 462.545
1049 0 83.2987 12.4012 1033 122.182 504.894 463.402
1050 0 86.3515 14.5452 1256 118.258 504.699 463.018
1051 0 88.329 16.9027 1493 116.143 502.932 458.087
1052 0 92.383 15.9878 1477 118.125 503.942 457.503
1053 0 92.2554 13.9287 1285 123.109 503.752 452.293
1054 0 97.6138 15.4691 1510 119.157 503.436 456.438
1055 0 98.4533 18.4453 1816 116.009 503.099 452.561
1056 1 54.5148 11.7216 639 124.089 503.002 473.692
1057 0 58.3851 11.9209 696 121.149 503.083 473.714
1058 0 55.0474 10.6272 585 119.456 504.026 469.462
1059 0 60.4457 12.8545 777 117.104 501.705 465.116
1060 0 63.2759 13.8441 876 114.228 504.78 469.403
1061 0 63.2466 12.3169 779 118.439 505.284 466.813
1062 0 66.3557 15.5676 1033 112.008 504.308 466.546
1063 0 70.3215 15.1305 1064 112.258 505.058 459.892
1064 0 70.3891 13.6811 963 114.617 505.296 458.256
1065 0 71.2387 12.6616 902 116.812 506.122 459.165
1066 0 74.2383 11.2072 832 117.148 506.528 461.072
1067 0 77.277 16.7838 1297 109.968 508.419 454.034
1068 0 78.2507 13.7251 1074 114.671 508.692 453.183
1069 0 83.2206 19.5745 1629 105.31 507.929 450.926
1070 0 85.4045 13.6995 1170 114.182 509.297 452.847
1071 0 84.4081 14.0863 1189 116.197 509.294 450.988
1072 0 89.4508 12.3532 1105 118.457 509.549 450.412
1073 1 51.2996 11.813 606 118.102 511.114 472.736
1074 0 52.3987 11.2217 588 114.67 509.31 475.709
1075 0 50.457 11.0391 557 121.596 511.212 470.206
1076 0 50.457 11.1382 562 152.626 511.183 470.091
1077 0 54.4397 13.4461 732 116.499 509.933 468.764
1078 0 54.0993 12.6804 686 120.047 511.472 470.227
1079 0 58.4112 12.7544 745 117.443 510.392 475.655
1080 0 59.4001 13.8889 825 117.737 511.056 473.137
1081 0 62.1146 14.3766 893 114.976 510.192 472.134
1082 0 63.1825 13.7696 870 116.503 511.726 474.32
1083 0 66.221 13.0321 863 118.232 509.581 471.367
1084 0 68.2413 14.0677 960 116.243 510.272 471.504
1085 0 72.3805 14.4514 1046 116.167 508.961 470.684
1086 0 73.3333 14.3046 1049 116.086 508.348 470.676
1087 0 77.2366 14.4491 1116 115.985 507.002 466.894
1088 0 78.179 13.661 1068 116.617 507.378 465.61
1089 0 83.3286 17.149 1429 109.484 506.218 466.104
1090 0 86.3278 12.8464 1109 116.199 505.6 465.796
1091 0 87.2884 13.4268 1172 115.241 504.474 467.867
1092 0 92.2161 16.6782 1538 109.555 503.938 460.383
1093 1 50.1343 11.3495 569 110.424 504.692 483.301
1094 0 48.1169 10.8902 524 111.105 505.149 483.321
1095 0 49.0647 12.3307 605 110.519 503.681 478.674
1096 0 51.0779 11.3356 579 108.29 504.499 473.218
1097 0 53.1672 14.0688 748 105.943 502.424 477.531
1098 0 52.0883 9.13833 476 112.824 502.754 476.916
1099 0 55.2664 12.4669 689 109.212 502.711 473.171
1100 0 58.1337 14.8967 866 104.744 502.501 473.328
1101 0 60.2098 12.7554 768 106.962 503.016 471.888
1102 0 59.1366 9.77399 578 110.894 504.547 466.483
1103 0 61.0523 10.8759 664 110.224 503.983 465.267
1104 0 66.2464 13.2536 878 107.536 502.958 461.68
1105 0 68.118 12.493 851 108.249 504.122 460.785
1106 0 72.2123 13.5573 979 106.358 504.46 461.611
1107 0 72.1131 14.0335 1012 107.202 505.697 458.703
1108 0 75.2075 12.5253 942 110.425 504.87 452.479
1109 0 78.4285 14.357 1126 108.704 507.005 455.43
1110 0 83.1336 13.4843 1121 111.732 507.278 454.219
1111 0 77.2899 9.54847 738 120.115 508.16 449.818
1112 0 89.1305 15.7073 1400 108.969 507.416 451.944
1113 0 88.1598 12.8744 1135 113.86 508.897 451.163
1114 0 92.1506 14.3027 1318 111.437 508.574 450.792
1115 0 95.1644 13.6501 1299 111.668 509.495 449.39
1116 0 96.1525 12.7506 1226 114.029 509.348 445.733
1117 0 99.2148 12.9114 1281 113.434 510.459 447.631
1118 0 100.198 13.0342 1306 114.01 509.874 444.854
1119 0 107.274 13.554 1454 113.263 510.625 440.972
1120 0 106.169 11.6606 1238 117.26 510.418 437.044
1121 0 115.142 17.2135 1982 107.549 509.109 443.917
1122 0 117.319 13.8852 1629 113.362 509.548 441.327
1123 0 122.265 14.6403 1790 111.846 509.354 438.596
1124 0 124.605 16.1711 2015 110.151 506.626 443.974
1125 0 128.711 13.3943 1724 113.798 506.422 438.394
1126 0 134.596 16.152 2174 109.718 506.212 440.517
1127 0 143.919 12.0485 1734 119.67 505.252 438.474
1128 0 146.502 16.9895 2489 110.361 506.166 438.383
1129 0 146.494 16.5672 2427 112.939 504.307 438.287
1130 0 154.353 16.2549 2509 115.713 504.444 427.711
1131 0 152.473 12.2644 1870 119.712 503.613 429.209
1132 1 86.3038 12.1895 1052 112.856 504.32 456.794
1133 0 87.2993 14.8111 1293 109.323 502.521 453.046
1134 0 92.3796 14.2131 1313 114.018 503.65 460.071
1135 0 92.1852 13.8525 1277 115.116 501.906 457.497
1136 0 97.3523 17.4213 1696 108.449 502.379 453.654
1137 0 100.474 13.4562 1352 115.117 501.22 453.639
1138 0 103.361 13.7479 1421 110.526 500.137 457.499
1139 0 106.247 10.8239 1150 115.058 499.981 453.805
1140 0 108.35 13.4472 1457 111.487 500.235 444.348
1141 0 111.623 11.3417 1266 115.212 499.214 446.366
1142 0 114.6 11.6754 1338 114.196 499.709 447.54
1143 0 116.426 14.0948 1641 112.67 498.859 443.277
1144 0 120.411 14.6166 1760 111.626 499.045 445.339
1145 0 124.444 13.1465 1636 115.114 499.886 436.916
1146 0 129.663 16.4272 2130 111.065 500.11 434.27
1147 0 133.857 11.1611 1494 118.142 500.345 431.822
1148 0 140.905 13.5907 1915 114.859 501.068 426.385
1149 0 141.75 15.5132 2199 110.854 500.639 422.492
1150 0 146.89 11.9613 1757 118.626 501.269 415.339
1151 0 152.21 11.8323 1801 118.465 501.265 413.589
1152 0 159.142 13.3465 2124 116.1 501.376 414.361
1153 0 161.123 13.6355 2197 116.396 503.736 410.534
1154 0 164.821 11.8006 1945 120.101 503.059 403.762
1155 0 175.139 11.8877 2082 119.257 503.832 404.99
1156 0 175.488 11.3569 1993 121.297 504.372 404.357
1157 0 178.125 11.1719 1990 123.176 503.741 402.467
1158 0 187.087 16.7195 3128 115.467 505.901 396.275
1159 0 192.892 14.9099 2876 118.213 505.584 397.067
1160 0 196.92 14.4373 2843 119.213 506.861 398.728
1161 0 202.966 11.8936 2414 125.028 505.776 396.506
1162 0 210.692 13.1614 2773 123.953 507.615 387.873
1163 0 214.862 12.7058 2730 125.573 505.847 386.471
1164 0 222.754 13.0907 2916 125.212 507.309 376.75
1165 1 65.3799 12.9398 846 111.968 504.934 462.913
1166 0 69.1076 9.79632 677 116.836 503.678 467.442
1167 0 68.2318 13.0877 893 112.866 508.174 458.236
1168 0 71.1881 12.9376 921 113.463 503.948 462.451
1169 0 71.5035 10.7967 772 117.001 505.315 467.035
1170 0 73.3075 12.8636 943 114.232 505.689 467.855
1171 0 77.6285 11.014 855 116.317 504.829 469.44
1172 0 78.2154 12.8619 1006 113.357 505.375 470.442
1173 0 81.4439 11.9592 974 115.609 504.501 467.143
1174 0 86.3648 13.2809 1147 112.316 503.204 467.696
1175 0 89.5684 12.5826 1127 112.023 502.71 467.116
1176 0 91.4794 13.6206 1246 111.499 501.335 463.583
1177 0 95.9875 14.3977 1382 107.2 500.991 466.575
1178 0 97.2885 10.546 1026 112.121 500.466 468.187
1179 1 56.7835 10.6545 605 113.603 500.588 473.721
1180 0 60.5967 12.0799 732 113.402 498.381 476.743
1181 0 61.1675 11.1661 683 113.799 501.805 476.739
1182 0 62.1756 12.0465 749 112.802 502.79 472.774
1183 0 62.1756 11.9822 745 142.651 500.801 472.676
1184 0 66.0953 10.4546 691 114.525 500.959 474.632
1185 0 69.0959 11.4913 794 114.438 501.02 465.188
1186 0 69.0959 11.5202 796 141.075 502.023 465.248
1187 0 69.2539 10.9597 759 115.688 499.986 463.424
1188 0 73.2287 12.0171 880 114.059 501.509 460.506
1189 0 75.1583 14.077 1058 110.858 501.756 455.773
1190 0 84.0714 16.5336 1390 105.606 502.294 454.05
1191 0 82.2752 12.1665 1001 112.162 502.737 453.78
1192 0 81.4448 13.1746 1073 110.564 503.703 452.678
1193 0 83.379 11.4537 955 113.836 504.513 448.131
1194 1 95.4877 9.71853 928 114.286 503.75 451.508
1195 0 90.1905 12.5623 1133 111.647 505.586 441.554
1196 0 90.5018 12.7843 1157 111.196 505.135 442.611
1197 0 96.7863 14.4235 1396 109.067 505.633 439.304
1198 0 97.1081 13.4283 1304 110.518 505.849 442.714
1199 0 96.2371 8.04264 774 119.504 506.269 446.236
1200 1 52.5951 9.86784 519 109.607 508.158 466.524
1201 0 53.2433 10.236 545 109.629 508.262 466.345
1202 0 56.1723 10.9663 616 106.872 508.526 469.755
1203 0 58.138 12.2811 714 105.881 508.606 469.42
1204 0 57.1842 9.9503 569 111.058 509.404 469.532
1205 0 58.231 12.9313 753 107.68 509.773 467.255
1206 0 62.0781 15.1261 939 104.199 509.478 468.162
1207 0 63.2559 13.4059 848 106.729 509.914 471.967
1208 0 65.085 13.3825 871 107.949 509.217 468.321
1209 0 66.3482 15.1926 1008 105.715 509.298 467.762
1210 0 68.1421 12.4299 847 110.266 508.482 471.667
1211 0 69.2501 13.6462 945 109.39 508.66 467.815
1212 0 70.0652 13.4874 945 110.181 508.079 465.886
1213 0 73.225 13.3424 977 109.474 507.297 465.945
1214 0 76.27 13.2293 1009 109.881 505.77 466.283
1215 0 80.1419 12.2034 978 111.095 506.428 468.776
1216 0 82.3349 11.7812 970 115.474 505.418 468.596
1217 0 83.0584 14.0504 1167 114.292 504.937 461.243
1218 0 84.1826 10.3703 873 118.707 504.575 462.536
1219 0 91.4193 14.8328 1356 111.671 504.368 462.226
1220 0 91.1826 12.7437 1162 114.783 503.954 460.271
1221 0 92.2788 13.1016 1209 114.477 502.932 458.457
1222 0 98.2967 13.9984 1376 112.37 502.264 455.775
1223 0 98.2967 14.0086 1377 132.694 502.254 455.84
1224 0 103.164 11.9033 1228 110.765 501.864 457.322
1225 1 59.12 10.7916 638 111.379 502.42 473.837
1226 0 64.186 11.6692 749 109.259 502.601 476.718
1227 0 64.1678 14.4777 929 106.795 502.152 470.423
1228 0 66.1569 15.2063 1006 108.846 501.086 468.918
1229 0 67.2301 13.0001 874 112.991 501.437 466.822
1230 0 68.3548 12.0694 825 114.39 502.08 465.661
1231 0 73.2969 11.6512 854 112.418 502.456 467.042
1232 0 76.2971 15.1513 1156 109.254 503.002 462.391
1233 0 80.2576 13.9551 1120 109.9 502.254 457.841
1234 0 83.3439 13.9782 1165 110.3 502.576 456.484
1235 0 85.4293 14.7842 1263 107.777 502.968 457.793
1236 0 85.3101 13.1989 1126 111.361 505.071 453.299
1237 0 91.2153 12.7172 1160 112.221 504.492 447.828
1238 0 92.4634 11.4424 1058 113.425 505.849 450.667
1239 0 94.3747 11.1259 1050 115.747 505.489 445.171
1240 0 100.72 13.9 1400 111.436 505.824 444.921
1241 1 54.4276 10.5277 573 112.593 507.047 461.801
1242 0 59.3313 12.5398 744 108.55 507.163 465.211
1243 0 59.3822 12.7816 759 109.033 507.643 465.025
1244 0 59.3373 14.6282 868 106.067 508.256 464.609
1245 0 62.2302 12.5823 783 110.249 509.047 466.026
1246 0 65.4564 11.1983 733 113.161 509.804 463.783
1247 0 66.3222 10.5395 699 114.023 510.335 464.165
1248 0 66.3152 10.5406 699 113.828 510.356 461.808
1249 0 69.2796 13.294 921 109.567 510.293 462.368
1250 0 71.2984 10.954 781 111.097 509.858 461.141
1251 0 76.3725 15.0447 1149 105.164 510.272 465.07
1252 0 79.3142 11.0951 880 110.452 509.556 456.83
1253 0 78.3298 13.1751 1032 108.433 509.86 461.118
1254 0 78.3298 13.1751 1032 111.779 509.86 461.118
1255 0 85.2662 11.1299 949 110.982 509.224 458.175
1256 0 89.1804 12.9625 1156 108.47 507.817 463.894
1257 0 89.5222 12.2539 1097 108.217 505.425 452.498
1258 0 92.835 8.24042 765 113.531 505.905 453.352
1259 0 96.5322 11.5506 1115 110.098 505.604 447.87
1260 0 99.3864 12.2049 1213 108.788 504.441 447.8
1261 1 149.266 11.7911 1760 112.991 502.539 430.199
1262 1 105.812 11.8796 1257 110.628 501.972 447.917
1263 0 106.734 12.3766 1321 111.151 501.176 448.54
1264 0 111.803 11.6276 1300 112.139 500.679 447.985
1265 0 114.69 10.6896 1226 112.915 501.045 441.582
1266 0 117.454 14.8058 1739 108.272 499.618 439.486
1267 0 126.824 16.6057 2106 104.75 498.973 439.615
1268 0 123.475 11.5003 1420 113.031 500.122 430.57
1269 0 131.08 12.9005 1691 111.208 498.779 431.083
1270 0 139.265 14.0739 1960 109.167 498.375 426.908
1271 0 139.935 8.76834 1227 117.162 498.572 425.77
1272 0 143.705 14.8498 2134 104.996 499.585 432.383
1273 0 148.212 14.1284 2094 109.99 499.615 418.177
1274 0 151.89 13.7534 2089 111.011 500.239 422.406
1275 0 156.573 12.5501 1965 113.011 499.987 416.965
1276 0 164.764 10.3239 1701 115.55 500.511 419.697
1277 0 168.281 13.5725 2284 110.622 500.815 415.397
1278 1 100.975 11.379 1149 109.828 501.675 445.1
1279 0 103.903 10.837 1126 111.739 502.233 440.068
1280 0 110.416 15.505 1712 104.282 501.728 443.935
1281 0 112.23 12.5546 1409 110.773 502.752 435.529
1282 1 61.8808 12.5726 778 108.33 503.01 458.527
1283 0 65.5913 13.6756 897 105.273 503.48 461.945
1284 0 65.7895 13.376 880 105.822 503.514 462.282
1285 0 69.6464 14.0424 978 107.153 505.481 453.372
1286 0 66.5415 13.3451 888 113.769 505.632 456.957
1287 0 71.1484 13.4086 954 113.458 504.156 460.679
1288 0 74.186 15.2455 1131 111.878 505.397 454.143
1289 0 73.2198 12.7015 930 116.227 505.7 460.248
1290 0 78.1333 15.9343 1245 111.371 504.42 456.467
1291 0 78.2259 15.7109 1229 111.217 505.078 459.094
1292 0 83.1388 15.4561 1285 111.78 505.262 456.861
1293 0 86.2261 15.2158 1312 113.123 504.974 459.19
1294 0 88.1876 18.5287 1634 109.417 505.323 454.959
1295 0 91.301 17.7107 1617 111.607 504.55 453.17
1296 0 94.0921 13.3592 1257 119.232 504.591 454.975
1297 0 99.1999 16.5121 1638 112.551 504.364 461.524
1298 0 101.181 14.3901 1456 117.012 505.202 457.307
1299 0 99.2517 14.6395 1453 118.058 504.239 456.79
1300 1 58.0893 12.2742 713 118.212 502.349 477.09
1301 0 62.2109 11.2038 697 116.102 502.986 481.072
1302 0 59.5471 12.7462 759 116.04 502.65 474.531
1303 0 65.5045 14.2891 936 109.926 501.892 477.444
1304 0 63.7178 14.3131 912 114.283 502.071 469.355
1305 0 67.6502 15.5949 1055 111.118 500.907 473.383
1306 0 70.4952 13.8449 976 114.289 501.276 469.799
1307 0 70.5427 16.5999 1171 110.289 501.261 469.053
1308 0 76.4781 13.6379 1043 116.321 497.338 463.58
1309 0 82.5707 15.6835 1295 112.138 498.655 462.631
1310 0 82.3964 16.7847 1383 110.422 498.573 464.728
1311 0 84.3384 16.5761 1398 110.911 498.75 461.428
1312 0 93.6331 15.1763 1421 111.609 498.206 463.272
1313 0 89.3811 15.0591 1346 113.472 497.39 454.699
1314 0 90.3896 14.8136 1339 116.173 497.627 448.093
1315 0 93.3669 15.0374 1404 115.102 496.25 445.519
1316 0 94.4911 15.6946 1483 114.999 498.507 447.684
1317 0 99.2339 16.6375 1651 111.998 498.259 449.643
1318 0 103.631 13.6156 1411 117.531 498.592 440.063
1319 1 59.279 10.6277 630 117.003 499.387 467.144
1320 0 60.0976 11.7476 706 114.768 498.619 464.846
1321 0 60.0768 8.63894 519 117.95 498.965 463.324
1322 0 66.2267 23.4195 1551 97.7376 500.841 462.397
1323 0 65.0717 12.5093 814 112.195 500.921 462.149
1324 0 67.2008 15.476 1040 109.138 502.39 458.769
1325 0 67.2008 15.3421 1031 137.164 503.398 458.848
1326 0 73.1324 14.3849 1052 110.557 502.4 456.479
1327 0 75.2874 13.2426 997 113.171 503.942 456.964
1328 0 75.2874 13.3489 1005 151.249 505.926 456.902
1329 0 77.1042 12.4247 958 116.596 505.123 456.045
1330 0 83.102 14.5845 1212 112.091 505.428 458.268
1331 0 85.1149 12.7475 1085 114.404 504.853 458.567
1332 0 85.1666 11.6008 988 116.634 506.428 458.169
1333 0 91.2717 14.1665 1293 113.251 506.325 453.097
1334 0 95.1777 14.9615 1424 111.505 508.164 455.299
1335 0 93.2182 12.8945 1202 115.726 506.869 452.687
1336 0 98.2626 13.0467 1282 116.484 506.068 452.38
1337 0 102.193 14.864 1519 113.481 505.785 452.614
1338 1 55.0959 13.5582 747 106.841 506.62 480.447
1339 0 54.6274 11.2215 613 113.343 505.641 472.837
1340 0 54.622 10.1058 552 111.583 506.04 467.1
1341 0 55.4675 11.8628 658 102.147 506.261 467.845
1342 0 56.4307 10.7211 605 103.955 506.225 466.383
1343 0 55.3711 12.1363 672 101.896 504.954 469.103
1344 0 64.3408 14.4387 929 98.2637 504.402 468.533
1345 0 63.295 10.6643 675 104.815 502.745 468.484
1346 0 63.4386 9.12694 579 104.454 503.668 469.648
1347 0 69.3677 11.057 767 103.687 502.544 462.807
1348 0 73.2137 11.0089 806 103.583 502.071 461.881
1349 0 73.3306 13.5005 990 102.672 502.574 461.254
1350 0 74.3352 10.8697 808 106.739 502.183 462.23
1351 0 78.1965 11.177 874 109.637 502.82 466.997
1352 0 83.2966 13.3019 1108 106.628 501.682 462.333
1353 1 40.0389 8.14209 326 114.975 501.92 483.77
1354 0 42.2927 8.5121 360 114.367 501.603 481.697
1355 0 44.1195 11.6275 513 108.862 501.246 476.037
1356 0 46.1591 13.3235 615 105.633 501.166 475.672
1357 0 48.072 10.089 485 111.072 501.404 476.536
1358 0 49.128 13.821 679 106.641 500.853 472.309
1359 0 51.1556 16.0686 822 103.092 500.786 472.612
1360 0 51.1304 12.1259 620 110.319 502.034 470.865
1361 0 51.1017 12.0544 616 112.302 501.823 466.841
1362 0 51.2502 13.3658 685 110.034 501.165 468.505
1363 0 54.0961 12.7736 691 111.496 502.201 469.039
1364 0 57.1235 12.9544 740 111.584 502.005 464.447
1365 0 57.1748 11.631 665 114.074 503.208 464.829
1366 0 60.1305 11.791 709 110.542 505.001 469.272
1367 0 61.1593 15.1735 928 108.384 504.048 464.435
1368 0 61.2448 13.6501 836 112.282 504.894 465.51
1369 0 60.125 11.0437 664 117.98 506.715 464.974
1370 0 66.0992 14.6144 966 113.074 507.984 460.003
1371 0 68.1174 12.0674 822 116.916 507.476 461.858
1372 0 70.1071 12.267 860 117.656 509.072 460.1
1373 0 74.0851 13.255 982 115.232 508.422 460.986
1374 0 73.0814 11.494 840 119.612 509.795 463.223
1375 0 74.0861 13.1604 975 118.148 509.113 458.691
1376 0 79.1589 12.7718 1011 116.727 508.246 464.08
1377 1 46.1065 12.7965 590 118.2 508.375 479.89
1378 0 46.1107 10.8435 500 121.494 508.44 479.258
1379 0 47.1792 13.5653 640 119.425 507.395 479.403
1380 0 48.3668 13.8318 669 119.552 507.039 480.348
1381 0 51.6493 13.7659 711 119.823 505.916 478.305
1382 0 53.7698 14.9526 804 118.02 505.942 477.836
1383 0 54.4536 14.9669 815 119.198 504.751 477.004
1384 0 55.509 14.34 796 119.23 505.668 481.863
1385 0 57.7036 15.2677 881 117.603 503.621 481.564
1386 0 57.6923 13.2427 764 124.898 504.086 475.709
1387 0 59.7154 14.4184 861 121.833 503.146 475.765
1388 0 62.4127 15.4135 962 119.835 502.963 476.146
1389 0 60.1283 10.9765 660 124.167 503.292 476.868
1390 0 63.0421 12.5313 790 120.073 502.972 476.808
1391 0 68.3481 13.8555 947 115.656 502.263 474.899
1392 0 71.2056 13.2995 947 117.091 502.241 473.097
1393 0 73.0907 12.2998 899 118.948 502.661 470.929
1394 0 77.0856 12.5834 970 117.899 501.735 471.238
1395 0 79.0539 14.4332 1141 114.22 501.443 470.972
1396 0 83.0373 11.2239 932 119.813 502.027 468.853
1397 1 43.1815 13.7791 595 115.213 499.99 482.603
1398 0 44.0336 13.3534 588 118.247 501.423 479.582
1399 0 46.023 11.4725 528 117.188 497.936 480.405
1400 0 43.0535 7.99005 344 125.186 496.89 478.628
1401 0 48.046 14.0074 673 114.761 497.269 475.854
1402 0 49.104 14.9071 732 113.422 497.016 474.081
1403 0 49.0972 12.9743 637 116.325 497.345 472.989
1404 0 53.0835 13.6012 722 116.039 497.691 468.731
1405 0 55.0634 13.6207 750 116.479 499.139 465.977
1406 0 52.0941 11.556 602 120.983 501.219 467.236
1407 0 56.2161 11.0467 621 120.578 502.163 467.842
1408 0 57.1439 12.1448 694 119.927 502.653 464.853
1409 0 61.232 12.8201 785 117.721 502.731 465.175
1410 0 62.1855 11.6587 725 120.513 502.872 464.978
1411 0 68.3683 15.7968 1080 113.417 504.731 462.531
1412 0 68.1441 14.6161 996 117.423 506.378 459.021
1413 0 72.4583 13.3732 969 117.381 504.28 461.808
1414 0 75.1109 16.8018 1262 113.296 507.387 458.639
1415 0 77.0989 16.0962 1241 113.596 507.902 460.113
1416 0 80.215 14.2741 1145 116.84 507.825 458.847
1417 1 43.0769 13.8822 598 115.853 508.595 475.736
1418 0 44.0463 11.0565 487 115.152 509.704 472.834
1419 0 46.1176 13.0536 602 115.415 507.419 478.827
1420 0 49.0493 14.4956 711 111.848 509.051 478.515
1421 0 49.2127 15.179 747 110.317 508.216 480.541
1422 0 49.0881 13.3026 653 115.283 508.378 480.167
1423 0 52.0672 14.0972 734 114.134 508.035 480.215
1424 0 54.093 14.6784 794 112.733 507.515 479.195
1425 0 55.2618 21.0453 1163 102.06 506.416 482.446
1426 0 57.0608 15.0892 861 112.341 507.905 477.95
1427 0 56.1467 14.8896 836 120.097 501.913 480.185
1428 0 59.2228 15.6359 926 119.154 503.565 478.851
1429 0 63.1591 17.068 1078 115.954 501.134 476.923
1430 0 63.1591 17.1947 1086 139.481 498.104 476.884
1431 0 67.1115 16.5396 1110 117.307 499.353 474.844
1432 0 67.1115 16.4502 1104 145.274 501.34 474.844
1433 0 72.0621 15.0287 1083 119.196 498.657 470.558
1434 0 74.1213 15.2453 1130 119.265 498.953 469.158
1435 0 77.1247 15.0017 1157 119.717 498.511 467.123
1436 0 80.1848 13.0947 1050 123.893 498.462 466.237
1437 0 82.1932 15.7069 1291 118.68 497.857 460.794
1438 0 82.1932 15.8529 1303 137.421 495.904 461.031
1439 1 44.1096 12.3783 546 119.778 496.158 479.753
1440 0 44.0518 10.0109 441 125.02 496.245 481.045
1441 0 48.0539 13.8802 667 117.186 496.915 476.516
1442 0 49.0697 12.9815 637 118.305 498.292 477.553
1443 0 47.0582 13.2177 622 120.518 496.069 473.942
1444 0 53.0429 12.2731 651 120.387 497.237 472.395
1445 0 53.0292 12.5214 664 120.373 496.352 473.048
1446 0 56.119 14.2376 799 117.385 497.622 467.61
1447 0 55.0555 14.6398 806 118.751 497.284 465.228
1448 0 58.0662 14.1046 819 119.537 498.05 463.608
1449 0 62.1591 14.7042 914 116.219 498.067 465.012
1450 0 64.0422 15.927 1020 114.419 499.037 464.047
1451 0 62.0736 11.7925 732 123.642 500.631 463.904
1452 0 67.2409 14.3811 967 117.306 500.744 463.205
1453 0 67.0918 14.6814 985 119.06 501.386 459.516
1454 0 71.2504 17.3753 1238 114.477 501.483 456.358
1455 0 71.081 14.8704 1057 119.202 502.134 460.676
1456 0 74.2285 14.7518 1095 120.474 503.226 456.827
1457 0 77.2751 14.5713 1126 120.901 503.501 457.209
1458 0 78.4703 15.6238 1226 119.806 505.027 457.107
1459 0 81.4362 14.7723 1203 121.698 505.771 458.621
1460 0 83.3275 16.0331 1336 119.839 506.052 456.754
1461 0 86.4109 14.4195 1246 122.285 506.778 458.497
1462 0 90.509 14.4737 1310 121.435 506.837 459.447
1463 1 46.1078 12.8395 592 118.892 504.863 480.448
1464 0 47.0693 12.5559 591 122.951 504.007 476.437
1465 0 51.1254 13.5158 691 121.968 503.634 476.713
1466 0 50.115 11.6532 584 124.877 503.094 478.291
1467 0 51.5818 14.5206 749 119.626 506.327 470.204
1468 0 52.7836 12.3523 652 122.883 505.977 477.103
1469 0 56.2442 13.7792 775 122.005 505.021 477.201
1470 0 57.1259 12.7963 731 124.271 503.052 478.1
1471 0 60.028 14.5765 875 121.05 502.456 477.714
1472 0 59.0928 12.4719 737 124.9 500.446 480.71
1473 0 61.129 13.5942 831 123.953 499.828 475.366
1474 0 64.1652 14.1042 905 122.636 499.523 474.747
1475 0 67.132 18.6647 1253 114.385 499.551 474.004
1476 0 68.1184 16.1777 1102 119.1 499.925 471.809
1477 0 72.0731 18.287 1318 114.711 498.385 471.981
1478 0 74.3605 13.2463 985 122.728 497.996 471.325
1479 0 77.1538 16.344 1261 117.929 497.916 467.503
1480 0 79.1573 17.5473 1389 117.333 496.749 464.336
1481 0 80.1696 15.1055 1211 120.652 497.131 465.778
1482 1 41.0673 9.56967 393 125.684 497.005 481.802
1483 0 42.1945 11.1389 470 122.66 496.545 480.17
1484 0 44.4854 11.397 507 121.377 496.562 476.961
1485 0 46.0893 14.9492 689 114.533 497.319 477.041
1486 0 47.0968 13.0582 615 117.558 497.52 473.379
1487 0 47.2602 14.9809 708 114.924 498.503 474.972
1488 0 48.2555 14.6719 708 116.969 498.836 471.02
1489 0 50.547 12.5626 635 119.398 499.466 470.178
1490 0 52.2983 14.2261 744 114.866 500.09 472.188
1491 0 54.4117 13.9308 758 115.236 500.088 471.195
1492 0 54.6197 13.8228 755 117.972 499.817 465.344
1493 0 57.2208 15.047 861 115.916 501.135 464.34
1494 0 59.3785 15.9317 946 113.254 500.934 466.68
1495 0 59.6794 14.9298 891 116.456 502.625 466.324
1496 0 62.5754 13.5037 845 118.865 503.595 463.186
1497 0 66.2459 16.8765 1118 111.71 503.38 463.829
1498 0 63.4672 11.1711 709 122.739 503.913 463.463
1499 0 67.5784 14.0873 952 117.571 503.431 460.785
1500 0 67.4256 14.5494 981 117.93 505.775 460.777
1501 0 72.6121 17.3938 1263 111.786 505.725 457.766
1502 0 74.8832 17.4138 1304 112.842 505.852 458.054
1503 0 77.4302 14.5163 1124 116.254 506.23 464.484
1504 0 79.5648 14.0766 1120 118.543 506.863 460.856
1505 0 81.9547 14.7887 1212 117.607 506.4 459.016
1506 0 82.702 16.0697 1329 116.913 506.785 458.88
1507 0 86.7371 15.8525 1375 117.091 506.631 456.915
1508 0 88.5764 14.8347 1314 118.642 505.308 459.709
1509 0 90.5764 14.2421 1290 119.619 506.66 456.924
1510 0 92.635 15.1131 1400 119.018 505.201 457.196
1511 0 97.5098 16.142 1574 117.423 505.257 451.312
1512 0 99.7009 14.724 1468 119.255 504.73 448.828
1513 0 103.735 14.5949 1514 119.593 503.442 446.955
1514 0 107.663 14.1089 1519 120.781 503.932 447.338
1515 0 112.488 19.9933 2249 111.735 503.8 444.791
1516 0 111.452 16.8055 1873 117.439 502.891 434.016
1517 0 119.665 15.6854 1877 118.279 501.841 438.6
1518 0 119.492 15.4822 1850 120.964 500.688 434.057
1519 0 123.789 14.7428 1825 122.339 500.841 430.249
1520 0 131.301 17.2276 2262 116.164 500.576 435.688
1521 0 132.044 16.7141 2207 117.524 500.446 434.531
1522 0 137.577 17.9972 2476 117.485 500.237 425.818
1523 0 140.68 15.2687 2148 122.57 499.429 421.701
1524 0 148.023 17.4027 2576 119.069 498.781 420.422
1525 0 157.03 18.4932 2904 116.214 498.929 418.646
1526 0 157.401 14.5679 2293 123.621 498.246 417.312
1527 0 161.858 14.142 2289 126.094 499.311 405.485
1528 0 170.021 13.8042 2347 124.013 499.279 404.06
1529 0 174.916 15.8304 2769 123.942 498.941 401.151
1530 0 182.203 16.1633 2945 121.878 498.827 393.895
1531 0 188.129 15.7711 2967 121.373 500.134 394.057
1532 0 191.188 12.5008 2390 125.933 499.391 394.084
1533 1 110.002 12.9998 1430 120.436 501.189 430.574
1534 1 59.4218 10.8546 645 120.953 499.972 452.208
1535 0 61.5356 10.4167 641 120.36 499.456 451.189
1536 0 64.6875 9.47632 613 119.61 499.653 453.737
1537 0 67.4542 14.2022 958 114.413 501.543 447.619
1538 0 69.3428 13.0655 906 115.577 501.521 447.981
1539 0 74.9535 14.6758 1100 112.599 502.259 451.965
1540 0 79.8737 14.8109 1183 112.166 503.084 453.183
1541 0 78.7772 13.7984 1087 115.73 504.639 447.751
1542 0 82.7984 14.0583 1164 114.245 504.887 451.488
1543 0 83.6701 15.5731 1303 113.028 504.52 446.038
1544 0 84.0996 17.2652 1452 110.024 505.397 442.623
1545 0 90.2933 14.4418 1304 113.567 506.447 442.17
1546 0 90.2933 14.4307 1303 131.732 507.442 442.282
1547 0 97.0674 17.3488 1684 108.978 506.504 441.175
1548 0 90.4571 10.0711 911 122.809 506.431 439.008
1549 1 53.336 11.7369 626 113.963 505.842 463.607
1550 0 54.5226 12.0134 655 111.478 505.725 464.701
1551 0 55.3223 12.5085 692 110.899 506.842 461.02
1552 0 56.9458 12.4504 709 115.701 505.275 475.683
1553 0 59.1981 12.568 744 115.015 504.352 477.608
1554 0 60.3089 13.2319 798 115.771 504.887 475.924
1555 0 63.4738 12.2885 780 117.026 504.546 474.018
1556 0 67.7862 15.2096 1031 112.136 504.515 470.934
1557 0 71.508 13.9425 997 113.707 503.166 472.879
1558 0 73.6473 13.103 965 117.298 501.887 468.31
1559 0 74.6852 13.1619 983 116.942 501.356 467.68
1560 0 79.8272 14.1556 1130 114.182 501.786 467.837
1561 0 79.5961 15.1515 1206 113.557 500.585 465.828
1562 0 82.8167 15.0574 1247 113.836 501.476 463.169
1563 0 85.5605 13.359 1143 116.259 499.949 463.154
1564 0 92.0552 15.9361 1467 110.448 500.969 461.915
1565 0 92.7744 13.258 1230 115.199 500.516 461.316
1566 0 96.6914 13.4345 1299 114.028 500.385 452.55
1567 0 99.0138 14.8464 1470 110.335 500.418 443.452
1568 1 50.7561 8.49159 431 111.601 501.371 469.499
1569 0 52.3647 13.4251 703 106.98 500.957 471.778
1570 0 55.3079 11.5716 640 112.142 499.355 471.22
1571 0 56.1225 10.8691 610 115.189 496.326 465.389
1572 0 57.2044 12.6738 725 112.029 496.051 463.655
1573 0 59.0982 11.7939 697 113.838 496.278 463.943
1574 0 66.1463 13.9388 922 108.852 497.003 466.182
1575 0 65.2757 14.0787 919 109.987 496.838 459.876
1576 0 65.13 10.2564 668 116.054 497.96 457.41
1577 0 67.1563 11.9125 800 114.235 498.306 456.426
1578 0 71.1971 14.7337 1049 108.24 499.331 459.63
1579 0 74.1632 13.4703 999 110.929 499.809 457.037
1580 0 75.1182 11.5019 864 114.383 500.73 453.726
1581 0 76.3779 12.9357 988 114.321 501.587 446.95
1582 0 83.1362 17.766 1477 105.062 501.331 449.746
1583 0 82.0767 13.1097 1076 113.798 502.027 446.346
1584 0 86.1605 14.8676 1281 110.393 502.493 448.362
1585 0 88.2566 11.7951 1041 115.768 503.111 447.241
1586 0 90.2991 12.7576 1152 113.814 503.528 449.59
1587 0 95.0892 12.6723 1205 114.149 503.593 444.362
1588 1 48.1503 15.1193 728 106.617 503.394 467.493
1589 0 53.2053 10.9388 582 109.926 503.94 469.174
1590 0 54.1887 13.2869 720 106.694 503.882 470.05
1591 0 56.1196 12.0101 674 109.332 502.956 467.818
1592 0 54.1134 7.26252 393 116.888 503.789 470.272
1593 0 57.0439 12.5517 716 108.564 504.052 471.284
1594 0 57.0439 12.7446 727 129.437 504.037 471.428
1595 0 60.0822 10.4357 627 113.782 502.753 469.561
1596 0 62.1019 12.3668 768 109.872 503.826 467.315
1597 0 69.2367 13.6777 947 104.05 503.011 475.328
1598 0 67.1151 14.9445 1003 106.189 503.498 468.459
1599 0 70.17 12.7547 895 109.8 502.577 466.993
1600 0 71.1048 12.3058 875 109.815 501.362 467.578
1601 0 76.1413 14.4731 1102 106.47 500.916 467.008
1602 0 78.1431 11.4405 894 111.015 499.063 466.57
1603 0 79.1528 12.8865 1020 108.823 498.919 467.948
1604 0 83.22 13.7106 1141 107.724 497.832 465.74
1605 0 84.1786 13.5426 1140 108.286 497.748 460.545
1606 0 88.2834 13.7285 1212 106.853 497.492 459.304
1607 1 44.0454 12.8277 565 103.828 496.182 481.442
1608 0 46.0229 9.56047 440 111.37 496.775 477.67
1609 0 46.0579 13.2442 610 103.436 496.91 479.516
1610 0 50.0783 13.3391 668 102.614 496.44 476.492
1611 0 51.2893 13.6091 698 103.02 497.539 475.715
1612 0 52.0279 14.9151 776 103.818 498.054 470.29
1613 0 53.6507 13.271 712 106.226 499.09 467.699
1614 0 54.6865 18.9992 1039 98.6314 497.29 467.379
1615 0 55.7065 13.1583 733 106.806 498.857 466.558
1616 0 57.7933 14.0155 810 106.716 497.974 465.923
1617 0 59.7322 14.1465 845 105.741 498.16 464.46
1618 0 60.7136 16.3719 994 103.31 499.978 464.358
1619 0 64.5984 13.2975 859 108.52 499.533 457.275
1620 0 63.3816 13.3319 845 108.807 499.276 460.905
1621 0 67.3815 13.5942 916 108.891 501.162 454.385
1622 0 67.3544 10.4967 707 113.158 500.716 457.122
1623 0 72.503 13.7374 996 108.37 502.008 455.033
1624 0 74.2066 18.1925 1350 103.127 501.549 456.592
1625 0 77.5696 15.7278 1220 105.811 502.719 455.887
1626 0 78.4332 15.6056 1224 107.21 503.837 455.654
1627 0 81.3817 17.2766 1406 105.161 504.553 450.829
1628 0 83.4301 16.3131 1361 106.945 505.78 451.921
1629 0 83.4301 16.4569 1373 127.487 506.796 451.823
1630 0 89.3987 11.9241 1066 113.378 505.767 448.49
1631 1 44.1849 9.7771 432 111.644 504.495 473.495
1632 0 46.4757 9.91915 461 111.538 504.31 474.247
1633 0 46.149 8.77593 405 116.951 504.637 472.306
1634 0 49.247 9.38129 462 114.284 506.21 463.045
1635 0 49.1666 12.1424 597 112.95 506.414 472.234
1636 0 53.1349 12.4212 660 111.027 504.78 473.479
1637 0 56.3674 12.6314 712 111.406 505.198 474.052
1638 0 58.5505 16.4986 966 105.755 504.845 474.429
1639 0 62.4489 16.1892 1011 104.991 504.226 476.139
1640 0 62.4515 16.4608 1028 105.204 505.419 474.183
1641 0 66.7 14.5877 973 107.387 503.707 474.787
1642 0 66.6197 13.0892 872 110.06 504.055 475.175
1643 0 73.6692 15.0131 1106 105.711 502.793 476.038
1644 0 71.6759 13.0169 933 111.975 501.533 470.565
1645 0 73.5728 16.7317 1231 106.668 500.448 470.435
1646 0 79.6622 16.0679 1280 106.304 499.858 472.234
1647 0 82.5438 17.8693 1475 104.227 500.58 465.57
1648 0 81.5292 14.179 1156 110.167 500.646 462.916
1649 0 85.4664 13.3386 1140 110.368 498.806 467.785
1650 0 88.7765 13.6861 1215 111.322 499.828 458.49
1651 0 93.6584 14.3607 1345 109.432 499.237 462.355
1652 1 48.3831 15.832 766 105.312 498.757 476.384
1653 0 48.3866 11.8008 571 104.811 499.468 467.32
1654 0 52.1804 15.983 834 100.646 497.607 469.682
1655 0 52.0936 12.228 637 106.747 497.008 466.645
1656 0 52.0451 11.2979 588 111.361 495.313 470.367
1657 0 56.0459 15.0056 841 104.847 495.298 470.926
1658 0 56.1466 13.0017 730 109.093 495.142 465.877
1659 0 59.1963 17.3153 1025 101.136 495.155 467.08
1660 0 61.1085 17.3789 1062 101.229 496.333 463.202
1661 0 60.2999 13.3665 806 108.014 497.108 462.675
1662 0 62.1402 11.7798 732 111.627 496.638 455.816
1663 0 62.1402 11.7315 729 138.464 496.643 455.712
1664 0 68.098 17.6804 1204 102.339 499.306 455.438
1665 0 66.166 11.8339 783 112.218 498.705 450.959
1666 0 71.3093 14.6545 1045 108.632 499.789 448.671
1667 0 71.299 11.5009 820 114.95 500.527 448.857
1668 0 77.1863 15.7152 1213 107.073 501.291 447.97
1669 0 83.3423 11.8067 984 111.306 500.708 450.646
1670 0 83.4246 15.9186 1328 106.73 502.483 448.084
1671 0 84.5164 13.6423 1153 111.399 502.255 444.223
1672 0 84.2324 9.21261 776 117.582 503.396 444.923
1673 1 52.1859 9.69611 506 111.713 502.547 466.492
1674 0 50.1034 11.3565 569 111.775 502.946 464.968
1675 0 49.043 10.0932 495 113.713 502.95 465.956
1676 0 54.5201 13.3529 728 105.897 504.841 472.92
1677 0 55.2727 14.1299 781 104.786 506.033 471.921
1678 0 58.3046 14.5443 848 104.341 507.018 473.93
1679 0 61.2748 15.0959 925 103.381 505.612 470.658
1680 0 65.5732 13.7251 900 108.234 504.904 471.397
1681 0 67.5794 18.1268 1225 102.282 504.798 472.241
1682 0 67.6379 15.0951 1021 106.327 504.431 473.627
1683 0 71.5262 21.7123 1553 98.4668 504.226 470.856
1684 0 75.4785 12.9706 979 109.394 504.293 472.92
1685 0 79.4175 16.4447 1306 105.535 503.488 467.228
1686 0 80.4249 16.3134 1312 105.55 502.954 470.044
1687 0 79.6124 12.6237 1005 112.713 502.66 465.824
1688 0 85.4601 16.8968 1444 105.058 502.255 465.92
1689 0 88.9718 15.6454 1392 106.821 501.931 464.164
1690 1 44.3714 14.7843 656 105.181 499.248 483.549
1691 0 44.22 10.1312 448 111.931 498.033 483.804
1692 0 48.4525 14.6123 708 105.021 498.391 482.306
1693 0 45.247 13.2605 600 102.617 498.127 474.563
1694 0 48.0448 5.3908 259 110.645 497.757 474.475
1695 0 50.0297 12.7924 640 104.359 495.9 472.145
1696 0 51.0455 10.8727 555 108.668 496.351 469.283
1697 0 52.1712 10.9447 571 108.496 495.888 468.807
1698 0 54.0888 12.9232 699 108.943 497.529 471.076
1699 0 56.0863 13.1226 736 108.95 497.349 471.808
1700 0 58.2148 12.2478 713 109.561 498.471 471.934
1701 0 59.4868 13.1458 782 111.87 498.634 468.215
1702 0 63.6533 15.7887 1005 107.893 499.183 466.263
1703 0 63.9507 13.0413 834 111.433 498.351 466.284
1704 0 66.8278 16.4752 1101 106.665 499.335 463.803
1705 0 67.5013 12.9775 876 112.151 500.102 457.102
1706 0 72.3286 16.6601 1205 106.511 500.921 457.402
1707 0 71.6896 14.228 1020 109.9 500.593 458.012
1708 0 75.4657 14.0991 1064 108.668 501.529 460.105
1709 0 76.5194 15.8914 1216 107.556 501.733 456.062
1710 0 79.4188 15.1601 1204 109.347 502.531 452.708
1711 0 85.6188 16.9122 1448 105.344 503.027 453.973
1712 0 87.6057 16.2432 1423 106.81 503.958 449.329
1713 1 47.2476 13.2917 628 106.355 505.06 468.196
1714 0 48.2654 14.6067 705 103.797 505.105 469.733
1715 0 44.4196 8.91498 396 110.263 505.684 462.083
1716 0 48.3934 8.88552 430 110.37 505.567 461.377
1717 0 46.4227 11.4599 532 105.041 506.109 462.977
1718 0 51.2831 10.9978 564 105.965 506.642 461.19
1719 0 54.715 14.5664 797 104.789 507.745 465.609
1720 0 54.3851 11.2898 614 108.085 506.262 474.917
1721 0 57.2927 16.1626 926 102.195 506.469 473.475
1722 0 59.1738 15.108 894 105.81 505.813 472.482
1723 0 59.2749 16.6006 984 104.115 504.498 469.994
1724 0 63.2936 15.9732 1011 104.718 504.834 470.624
1725 0 64.3936 12.5012 805 109.929 504.519 468.016
1726 0 66.3009 12.5036 829 109.255 504.235 472.796
1727 0 67.3721 12.3493 832 111.337 505.151 466.637
1728 0 74.4142 14.6881 1093 106.299 504.82 469.723
1729 0 74.4384 13.5817 1011 108.761 502.756 470.345
1730 0 74.2282 14.6036 1084 106.292 502.599 471.076
1731 0 79.3511 12.703 1008 110.617 500.186 467.141
1732 0 81.3735 12.7314 1036 110.514 500.983 464.265
1733 1 44.0567 14.1863 625 104.608 499.605 484.248
1734 0 43.242 11.956 517 109.046 499.366 479.499
1735 0 48.3122 11.3015 546 109.075 499.538 481.603
1736 0 48.3076 11.7166 566 105.88 498.834 467.422
1737 0 54.1011 17.2455 933 99.2508 501.13 472.96
1738 0 50.1017 11.816 592 107.99 501.894 473.316
1739 0 52.1747 14.3556 749 105.413 501.708 470.973
1740 0 58.1303 16.7555 974 101.168 500.888 468.537
1741 0 55.216 11.12 614 111.179 501.889 466.055
1742 0 59.1634 13.6909 810 106.352 501.394 465.552
1743 0 58.1579 12.4145 722 110.048 501.676 459.435
1744 0 63.1905 19.9555 1261 98.7581 501.133 461.48
1745 0 63.2237 14.251 901 106.678 501.851 460.565
1746 0 64.1951 13.8173 887 108.301 502.685 457.637
1747 0 65.1459 13.8919 905 109.4 503.695 452.792
1748 0 68.1379 14.1771 966 109.476 502.623 453.345
1749 0 72.3825 17.4213 1261 104.521 503.19 452.471
1750 0 72.1564 18.1134 1307 102.27 503.322 454.299
1751 0 76.085 14.1552 1077 108.058 503.729 451.89
1752 0 76.2149 13.6194 1038 110.542 504.83 443.96
1753 0 80.4501 14.307 1151 108.89 505.092 446.268
1754 0 84.3623 14.8763 1255 107.867 505.521 444.69
1755 0 85.3025 13.6221 1162 108.889 506.58 447.268
1756 0 85.1193 13.7689 1172 110.799 507.503 442.843
1757 0 86.2451 12.3949 1069 111.916 507.378 444.701
1758 0 94.4306 15.0269 1419 107.258 508.672 439.643
1759 1 52.1685 9.66101 504 109.806 509.157 468.212
1760 0 52.2309 14.3785 751 108.043 505.945 467.832
1761 0 51.2905 11.0742 568 111.35 506.379 467.81
1762 0 54.4217 14.9389 813 104.972 506.71 467.924
1763 0 57.5194 14.2039 817 105.275 507.481 470.726
1764 0 57.5194 14.2213 818 129.612 508.451 470.664
1765 0 60.367 12.6725 765 107.996 505.454 469.118
1766 0 62.482 13.2518 828 109.622 505.667 468.915
1767 0 65.2953 12.8646 840 110.579 505.989 467.75
1768 0 65.2953 12.8799 841 140.247 505.969 467.654
1769 0 68.3111 16.8201 1149 104.453 505.207 467.178
1770 0 70.58 16.1802 1142 104.93 505.434 469.44
1771 0 71.4879 13.1491 940 109.569 503.529 465.998
1772 0 73.3882 13.2855 975 109.521 503.213 469.452
1773 0 73.3882 13.2583 973 135.554 503.196 469.454
1774 0 81.4704 14.2137 1158 108.095 501.758 462.896
1775 0 82.3539 14.9234 1229 107.007 500.527 464.224
1776 0 84.281 13.4194 1131 110.259 500.502 456.547
1777 0 88.3692 13.0702 1155 109.795 499.683 459.603
1778 0 88.3692 13.2286 1169 135.856 498.699 459.641
1779 0 92.2586 12.129 1119 112.164 498.922 449.157
1780 1 52.1181 10.9751 572 109.325 496.785 473.991
1781 0 53.0993 16.8552 895 101.438 497.711 475.073
1782 0 61.2982 11.599 711 106.674 497.871 472.873
1783 0 56.5457 12.5208 708 105.911 500.712 469.51
1784 0 59.4538 13.0185 774 106.349 500.441 465.171
1785 0 61.8758 17.325 1072 101.629 499.699 462.278
1786 0 63.6504 18.8373 1199 99.2944 499.815 461.7
1787 0 62.4238 14.3215 894 107.46 501.396 457.86
1788 0 65.5097 15.0054 983 106.188 500.244 459.948
1789 0 67.4573 13.5641 915 109.633 500.317 453.403
1790 0 70.727 18.6775 1321 102.255 501.492 457.821
1791 0 75.4413 21.1025 1592 98.152 500.358 454.945
1792 0 75.4413 21.1688 1597 118.497 499.364 454.97
1793 0 76.6809 13.9409 1069 110.463 501.86 449.43
1794 0 80.5082 13.5887 1094 109.913 503.987 447.974
1795 0 84.4666 16.03 1354 107.925 503.45 442.806
1796 0 83.54 16.7106 1396 107.886 503.796 440.794
1797 0 91.2492 15.4412 1409 109.104 504.962 441.571
1798 0 93.4152 16.1644 1510 108.585 505.079 445.779
1799 0 94.4368 13.787 1302 112.351 504.83 442.174
1800 1 47.1518 9.11949 430 115.667 507.686 464.446
1801 0 55.3679 14.196 786 107.664 507.674 460.274
1802 0 58.1781 12.4961 727 110.448 508.407 461.668
1803 0 57.0433 11.2721 643 111.883 508.826 470.241
1804 0 60.1017 15.923 957 105.293 508.48 468.013
1805 0 60.1724 14.1095 849 108.833 507.666 465.634
1806 0 64.231 17.1568 1102 104.086 508.066 469.502
1807 0 66.1513 16.9914 1124 104.353 507.847 468.91
1808 0 66.0639 14.0924 931 108.008 507.017 473.405
1809 0 70.1577 14.2536 1000 107.716 508.229 468.095
1810 0 70.1445 11.5476 810 112.393 507.841 467.71
1811 0 73.0688 12.1803 890 111.31 508.803 469.026
1812 0 78.3037 15.6698 1227 106.034 507.024 468.943
1813 0 80.234 17.5861 1411 103.24 506.718 465.261
1814 0 80.234 17.7232 1422 133.814 506.688 465.195
1815 0 86.3926 19.4808 1683 100.506 505.645 465.311
1816 0 85.2424 13.4558 1147 108.631 505.483 466.526
1817 0 89.1898 12.8378 1145 110.241 505.031 465.142
1818 0 94.2922 16.2474 1532 104.928 503.295 462.447
1819 1 50.1935 13.3882 672 107.646 502.699 479.728
1820 0 53.1773 11.8472 630 108.249 503 480.805
1821 0 53.7076 12.6053 677 102.396 499.801 474.225
1822 0 55.6073 11.1856 622 104.445 500.248 470.026
1823 0 55.6489 15.7595 877 100.905 499.62 469.44
1824 0 57.5222 13.108 754 107.008 498.692 475.891
1825 0 58.1788 12.9429 753 107.186 500.802 473.025
1826 0 63.1198 16.2706 1027 101.415 501.516 473.375
1827 0 63.1388 14.0959 890 105.576 500.922 467.334
1828 0 65.1061 14.0847 917 105.399 501.104 465.913
1829 0 67.2975 14.369 967 105.532 501.466 464.804
1830 0 71.2142 15.7553 1122 104.196 500.881 460.536
1831 0 72.3754 14.5491 1053 105.933 501.876 458.166
1832 0 77.2914 15.9785 1235 103.915 500.68 457.994
1833 0 77.5183 15.8414 1228 101.537 500.894 463.959
1834 0 81.2711 13.7564 1118 106.208 502.703 456.496
1835 0 85.6952 20.1878 1730 99.1647 501.259 448.71
1836 0 83.3879 14.0428 1171 107.514 503.261 451.155
1837 0 88.4071 12.8157 1133 109.508 503.136 446.614
1838 0 91.4376 11.4723 1049 110.381 504.692 450.113
1839 0 95.3255 15.7251 1499 103.579 504.608 445.65
1840 1 46.1677 7.90596 365 114.849 506.175 465.512
1841 0 50.1562 12.1022 607 109.041 506.638 463.03
1842 0 56.365 16.4286 926 102.795 506.116 462.222
1843 0 56.1394 15.5328 872 105.708 506.757 465.922
1844 0 59.292 16.7308 992 104.318 507.361 464.768
1845 0 62.1172 17.2738 1073 102.868 507.851 464.874
1846 0 61.4112 13.5154 830 110.624 507.012 462.06
1847 0 60.454 10.0572 608 119.373 505.811 460.257
1848 0 68.3743 18.5596 1269 104.416 505.928 465.299
1849 0 67.3988 15.6828 1057 111.489 505.633 463.66
1850 0 69.5373 12.6695 881 115.986 505.632 461.933
1851 0 72.5415 12.903 936 114.653 505.513 464.947
1852 0 74.5088 12.7904 953 115.252 504.869 467.669
1853 0 78.4696 16.5032 1295 109.916 505.866 464.385
1854 0 79.4303 13.0051 1033 116.888 504.647 463.179
1855 0 80.4774 11.6057 934 119.054 504.861 463.985
1856 0 88.4677 17.1362 1516 110.612 504.617 461.818
1857 0 90.4543 15.0463 1361 114.328 503.672 461.72
1858 0 85.6929 11.5879 993 119.419 502.674 458.128
1859 0 93.6081 13.3642 1251 115.763 502.47 459.352
1860 0 97.6569 12.9638 1266 115.427 502.181 457.946
1861 0 96.4839 14.873 1435 114.32 501 453.201
1862 0 103.692 13.7137 1422 116.987 500.347 448.961
1863 1 60.326 13.9078 839 112.125 499.719 468.123
1864 0 61.494 13.546 833 113.544 498.522 467.226
1865 0 62.4589 13.4008 837 113.723 498.474 463.86
1866 0 65.3624 11.9488 781 115.921 498.415 465.14
1867 0 67.0681 14.2393 955 115.861 497.311 461.027
1868 0 67.0553 11.7366 787 119.404 496.639 465.084
1869 0 68.0641 12.6792 863 119.962 496.563 460.854
1870 0 72.222 14.6908 1061 115.467 496.929 460.36
1871 0 77.0828 17.2412 1329 110.186 496.27 458.91
1872 0 78.0914 16.4807 1287 113.674 497.18 453.426
1873 0 76.1339 13.0559 994 121.234 496.987 448.938
1874 0 79.1664 12.4295 984 121.626 498.311 450.107
1875 0 81.2711 13.6826 1112 119.009 497.558 447.923
1876 0 87.2257 19.5928 1709 110 498.333 439.496
1877 0 91.2364 13.0102 1187 120.109 499.804 442.538
1878 0 92.3518 14.9753 1383 117.541 499.758 441.048
1879 0 96.2452 13.1435 1265 120.271 500.194 437.217
1880 1 49.1339 9.83029 483 121.66 500.234 459.271
1881 0 52.0214 13.4752 701 115.417 499.937 459.482
1882 0 55.2416 13.6129 752 115.513 504.27 457.487
1883 0 55.2842 12.1011 669 112.371 503.448 456.416
1884 0 59.2263 11.2112 664 110.578 505.583 461.018
1885 0 60.1221 15.2856 919 105.72 505.473 459.355
1886 0 62.1264 13.0057 808 110.26 505.365 464.173
1887 0 62.0615 12.1331 753 111.827 506.872 464.038
1888 0 63.1859 15.2882 966 108.123 506.261 463.982
1889 0 70.228 15.9481 1120 104.778 508.04 464.174
1890 0 71.0926 11.8156 840 112.025 508.142 460.13
1891 0 71.0926 11.8015 839 138.472 508.149 460.163
1892 0 74.0666 10.4501 774 115.319 507.484 461.784
1893 0 79.0528 12.5233 990 113.136 509.239 457.047
1894 0 81.1934 14.3238 1163 109.786 508.454 463.398
1895 0 84.2975 13.5235 1140 112.815 508.936 460.748
1896 0 87.0682 12.5419 1092 115.592 508.019 461.795
1897 0 91.2033 14.6267 1334 113.035 507.534 458.554
1898 0 90.1231 11.1403 1004 119.015 506.697 456.533
1899 0 96.7536 16.2991 1577 109.098 504.408 455.498
1900 1 51.3579 15.4991 796 107.134 504.644 476.437
1901 0 53.0303 13.8411 734 110.401 503.439 477.931
1902 0 57.3854 13.5052 775 113.763 503.637 475.397
1903 0 57.2801 15.2933 876 112.176 501.651 478.539
1904 0 57.2329 12.7025 727 117.486 499.996 477.978
1905 0 60.2737 15.778 951 110.886 499.019 478.634
1906 0 61.2975 18.9567 1162 107.243 499.083 474.954
1907 0 64.2912 12.5678 808 117.788 498.269 474.447
1908 0 63.2461 14.4199 912 114.492 498.305 474.039
1909 0 68.6965 15.2555 1048 112.989 497.709 470.648
1910 0 69.3131 13.9945 970 119.282 498.294 467.218
1911 0 70.6202 13.9762 987 119.733 497.693 463.578
1912 0 71.5636 13.247 948 121.292 497.586 462.09
1913 0 75.3833 14.3135 1079 118.034 497.26 464.164
1914 0 77.4753 14.9338 1157 118.042 497.884 457.896
1915 0 83.5931 16.8076 1405 112.563 498.721 460.628
1916 0 83.5931 16.8794 1411 133.763 498.712 460.636
1917 0 84.6254 14.4756 1225 118.966 498.307 455.042
1918 0 86.6624 15.7046 1361 116.006 499.328 458.722
1919 0 90.795 16.6749 1514 115.875 500.192 448.857
1920 0 91.7502 15.6185 1433 116.491 500.736 440.936
1921 0 98.7436 12.578 1242 120.725 501.525 439.039
1922 0 94.7014 11.172 1058 125.363 501.029 435.352
1923 1 51.2645 12.6208 647 117.607 501.464 461.287
1924 0 55.4107 10.9004 604 121.374 501.32 455.849
1925 0 59.485 11.8349 704 121.176 501.08 453.79
1926 0 59.5099 15.1403 901 116.03 502.41 453.283
1927 0 61.3168 13.5689 832 120.394 501.69 446.553
1928 0 66.1775 12.8442 850 119.333 506.432 456.827
1929 0 68.3372 17.238 1178 111.761 506.754 457.072
1930 0 68.2936 14.057 960 119.788 507.872 451.816
1931 0 71.224 15.3881 1096 116.391 507.157 455.969
1932 0 76.1564 15.6126 1189 116.867 508.938 453.064
1933 0 75.2374 13.5438 1019 122.459 507.942 453.5
1934 0 78.376 11.9169 934 125.166 508.547 449.032
1935 0 82.1776 15.8802 1305 118.343 507.501 447.392
1936 0 82.4972 15.3096 1263 120.828 508.379 446.298
1937 0 87.3599 13.0953 1144 124.55 507.812 445.312
1938 0 87.4101 13.4996 1180 124.691 508.637 447.389
1939 0 92.3734 12.2546 1132 127.622 507.881 446.386
1940 0 96.5038 12.7974 1235 126.979 506.09 448.932
1941 0 101.755 14.3581 1461 123.844 505.864 448.58
1942 0 106.875 14.4187 1541 124.921 506.513 445.481
1943 1 55.4236 12.8826 714 124.342 505.826 468.014
1944 0 58.3719 13.3968 782 122.665 505.238 469.731
1945 0 60.6264 11.4142 692 126.211 503.509 475.882
1946 0 64.4496 13.7317 885 117.675 503.859 476.424
1947 0 66.3168 15.6521 1038 115.421 502.308 473.359
1948 0 66.4863 12.9651 862 120.407 502.376 471.725
1949 0 70.4479 12.9883 915 120.309 503.191 469.212
1950 0 72.4848 13.1338 952 120.205 502.518 466.467
1951 0 75.6333 15.2314 1152 116.004 500.066 466.255
1952 0 75.6231 13.197 998 121.611 499.612 464.829
1953 0 81.7656 14.2603 1166 118.834 500.302 459.743
1954 0 81.7656 14.248 1165 140.262 501.291 459.645
1955 0 84.397 18.6618 1575 111.292 499.317 452.466
1956 0 88.6778 14.6034 1295 117.579 498.412 452.605
1957 0 91.2009 12.774 1165 119.189 498.641 453.367
1958 0 91.7671 14.2971 1312 117.48 498.748 446.876
1959 0 95.8598 16.1173 1545 113.732 498.535 444.723
1960 0 97.8312 13.881 1358 117.847 499.158 440.584
1961 0 102.956 14.5693 1500 114.779 499.51 437.349
1962 0 106.79 15.5258 1658 112.08 499.979 433.51
1963 1 57.4339 11.2825 648 115.86 500.369 457.934
1964 0 57.7729 12.376 715 113.954 500.627 453.362
1965 0 62.5672 14.1288 884 108.834 501.256 457.622
1966 0 64.5032 17.658 1139 105.927 501.11 459.439
1967 0 65.7852 13.012 856 113.925 502.338 456.751
1968 0 67.4231 14.016 945 111.571 502.779 457.534
1969 0 70.4242 15.6196 1100 109.214 503.913 454.092
1970 0 73.7163 17.6352 1300 106.192 504.672 453.908
1971 0 76.4982 15.9089 1217 108.762 505.381 453.735
1972 0 74.5419 14.6897 1095 112.813 506.107 451.584
1973 0 76.4617 13.1569 1006 115.23 505.91 454.746
1974 0 80.6492 15.772 1272 110.624 506.496 452.854
1975 0 86.5867 16.4113 1421 108.472 507.578 452.585
1976 0 82.3556 11.0254 908 118.808 507.735 454.146
1977 0 82.3556 11.0496 910 159.498 507.742 454.136
1978 0 93.3256 18.8051 1755 106.557 507.035 452.294
1979 0 97.8405 15.9341 1559 110.682 507.229 453.373
1980 0 97.8405 15.9545 1561 144.167 507.218 453.396
1981 0 102.603 17.7187 1818 106.568 506.934 442.503
1982 0 107.702 16.5921 1787 110.13 506.28 445.154
1983 0 110.678 15.9292 1763 110.109 505.662 441.655
1984 1 59.2232 12.7315 754 107.19 505.782 465.355
1985 0 59.3041 9.07189 538 113.606 504.719 464.546
1986 0 63.2281 12.2572 775 108.836 505.592 468.848
1987 0 65.3147 16.2904 1064 103.461 502.404 470.367
1988 0 67.3245 12.8779 867 105.686 502.957 476.03
1989 0 67.3305 13.0847 881 109.49 500.968 467.141
1990 0 71.4886 13.8763 992 107.574 501.778 468.524
1991 0 72.4929 13.022 944 110.129 501.06 466.755
1992 0 72.4929 13.1323 952 139.097 500.072 466.798
1993 0 78.3123 13.7016 1073 108.526 499.754 464.764
1994 0 80.4744 13.3583 1075 113.99 500.635 461.974
1995 0 85.3934 13.3734 1142 112.913 499.088 463.493
1996 0 87.6238 16.0573 1407 109.925 498.576 460.543
1997 0 88.5298 15.3282 1357 110.946 498.806 461.046
1998 0 94.4804 18.1307 1713 105.799 499.348 460.958
1999 0 91.9241 14.6425 1346 113.571 498.36 453.826
2000 0 94.5793 14.2632 1349 112.212 499.093 455.071
2001 1 50.455 13.081 660 114.521 497.23 473.129
2002 0 56.3144 14.2947 805 115.042 497.942 470.6
2003 0 54.334 15.2207 827 107.712 498.378 471.386
2004 0 57.2787 13.3907 767 110.858 500.119 466.992
2005 0 59.2833 14.962 887 110.003 500.828 463.479
2006 0 58.316 15.1931 886 108.775 499.077 466.809
2007 0 61.5882 11.6581 718 114.529 501.274 463.138
2008 0 63.2336 11.2124 709 114.788 500.986 464.781
2009 0 66.3851 16.5248 1097 107.991 501.369 460.132
2010 0 66.3851 16.57 1100 131.999 502.379 460.175
2011 0 72.1571 14.0942 1017 111.36 504.47 460.896
2012 0 73.035 13.4867 985 114.835 505.636 455.416
2013 0 71.1133 9.89969 704 121.114 505.408 452.626
2014 0 80.0644 14.7631 1182 112.363 507.452 457.106
2015 0 81.0891 14.6875 1191 112.894 506.621 453.481
2016 0 81.0891 14.6135 1185 132.824 506.631 453.381
2017 0 86.6577 14.6092 1266 113.547 506.174 450.185
2018 0 90.6759 15.594 1414 110.801 506.402 451.752
2019 0 89.915 12.7342 1145 116.072 506.565 447.314
2020 1 52.5755 12.7246 669 112.1 506.169 467.906
2021 0 53.9835 12.1333 655 111.295 506.081 471.368
2022 0 54.0124 10.979 593 114.479 505.889 471.302
2023 0 55.6532 13.0451 726 111.522 506.825 471.379
2024 0 59.2976 15.2114 902 105.38 505.298 473.155
2025 0 61.159 14.0781 861 108.546 506.995 471.691
2026 0 62.2693 10.9042 679 113.661 506.524 472.405
2027 0 67.1176 14.2139 954 110.69 506.486 470.958
2028 0 68.1417 14.2057 968 111.18 506.763 467.675
2029 0 69.0687 13.3056 919 113.215 506.35 466.819
2030 0 72.2651 12.4403 899 114.323 504.745 467.622
2031 0 73.1092 11.5717 846 116.207 504.868 466.836
2032 0 80.1403 15.1734 1216 109.59 503.925 465.522
2033 0 79.1047 12.4898 988 114.744 503.159 464.451
2034 0 85.1648 14.9827 1276 110.543 503.415 459.729
2035 0 85.0866 12.3639 1052 115.119 501.444 460.468
2036 0 87.153 14.6868 1280 111.707 501.062 455.991
2037 0 90.1506 10.9594 988 117.307 500.885 455.442
2038 1 50.034 7.61482 381 115.887 500.415 478.255
2039 0 50.0732 11.3034 566 112.806 500.276 474.834
2040 0 51.044 11.2256 573 113.182 499.061 475.208
2041 0 48.0298 10.9515 526 114.724 500.418 470.675
2042 0 53.0395 10.3696 550 115.038 496.242 473.418
2043 0 54.1964 12.6761 687 112.764 497.604 470.463
2044 0 57.0744 12.7553 728 113.122 495.427 469.21
2045 0 56.265 12.9743 730 114.045 495.556 467.46
2046 0 59.1359 11.1946 662 116.822 495.672 465.992
2047 0 59.1356 14.7288 871 112.668 497.355 462.52
2048 0 60.1306 11.8742 714 117.459 500.259 463.704
2049 0 63.1222 15.1135 954 112.703 501.836 461.37
2050 0 65.1887 13.0851 853 116.999 501.068 458.188
2051 0 70.7452 15.4781 1095 110.05 499.832 459.5
2052 0 68.3139 11.4325 781 117.96 500.1 454.77
2053 0 72.3225 14.5183 1050 113.39 502.608 451.554
2054 0 76.4396 15.8687 1213 111.148 502.618 453.312
2055 0 76.2242 12.765 973 117.175 504.472 448.987
2056 0 79.5822 14.463 1151 114.544 503.598 449.794
2057 0 81.2941 14.6382 1190 114.733 504.929 450.329
2058 0 86.3886 13.6245 1177 115.345 504.067 447.647
2059 0 89.4945 17.3195 1550 108.619 505.757 451.812
2060 0 90.2756 14.8213 1338 112.015 505.682 450.03
2061 0 93.3065 16.3761 1528 109.986 505.766 446.685
2062 1 52.1087 12.4355 648 111.565 504.866 471.361
2063 0 54.1916 14.0428 761 109.558 504.887 469.937
2064 0 54.3499 12.8427 698 109.183 506.6 459.652
2065 0 57.1679 10.3205 590 116.853 504.136 471.107
2066 0 60.1032 10.8147 650 117.152 503.685 467.595
2067 0 63.0907 13.5678 856 111.648 502.877 473.179
2068 0 65.1209 15.6325 1018 107.898 503.489 473.238
2069 0 68.273 13.3728 913 111.505 503.263 471.803
2070 0 69.2013 11.6327 805 115.8 502.636 469.021
2071 0 73.163 15.773 1154 107.886 502.622 471.373
2072 0 76.3424 18.8362 1438 104.04 500.891 467.495
2073 0 77.1381 11.5896 894 115.087 500.861 467.61
2074 0 82.2013 13.6129 1119 110.159 498.874 470.422
2075 0 82.2374 14.1906 1167 111.158 499.05 465.728
2076 0 86.3027 11.5176 994 114.974 497.739 464.679
2077 0 86.3027 11.7146 1011 143.561 496.762 464.842
2078 0 96.1874 12.1014 1164 115.2 496.812 456.37
2079 0 95.1907 14.2871 1360 112.378 496.511 453.09
2080 1 49.0627 9.51843 467 112.891 495.696 480.437
2081 0 51.0817 13.4882 689 106.344 496.675 480.176
2082 0 49.0923 11.1626 548 112.996 496.712 474.622
2083 0 50.0942 10.4803 525 113.52 495.661 474.381
2084 0 54.1544 13.1845 714 108.919 495.993 473.063
2085 0 55.046 12.8801 709 107.743 495.777 474.155
2086 0 55.1111 11.7399 647 109.164 496.564 469.972
2087 0 57.1509 16.4302 939 101.675 499.261 468.722
2088 0 56.3399 13.3298 751 105.543 498.907 471.562
2089 0 58.1786 10.1928 593 110.309 499.678 468.506
2090 0 59.1027 12.842 759 106.08 500.44 467.768
2091 0 62.1078 16.6807 1036 101.463 500.91 464.59
2092 0 62.1855 14.6336 910 105.087 501.191 462.731
2093 0 66.1161 17.2575 1141 101.19 501.851 462.86
2094 0 69.2403 16.45 1139 101.888 501.072 462.63
2095 0 69.2588 13.3557 925 108.177 503.849 456.558
2096 0 71.453 11.3641 812 111.268 502.374 455.95
2097 0 72.5326 13.4422 975 108.617 501.813 457.723
2098 0 76.4316 13.2798 1015 108.703 502.561 454.291
2099 0 75.501 11.9071 899 111.558 503.081 454.518
2100 0 80.4174 13.7781 1108 109.849 504.338 450.571
2101 0 83.2688 12.6578 1054 109.204 504.253 456.49
2102 0 84.362 13.2643 1119 109.159 504.475 459.816
2103 0 85.3213 12.5408 1070 111.605 505.196 457.182
2104 0 90.3938 10.6755 965 114.835 505.123 452.321
2105 0 95.4678 12.8001 1222 111.676 507.085 452.863
2106 0 99.4087 13.5602 1348 112.482 506.287 447.505
2107 1 48.3222 12.0028 580 111.467 505.929 476.298
2108 0 48.1722 11.3966 549 114.164 504.408 475.612
2109 0 51.1367 13.5323 692 110.432 504.451 477.035
2110 0 50.1407 13.4621 675 111.933 503.911 477.79
2111 0 55.0432 12.2994 677 113.609 503.346 476.518
2112 0 58.0672 16.7048 970 106.14 502.894 480.278
2113 0 57.0821 13.682 781 113.037 502.753 475.346
2114 0 61.1143 12.4848 763 113.349 500.966 478.923
2115 0 65.1048 13.4706 877 113.2 500.383 476.16
2116 0 68.3682 12.696 868 113.491 499.477 474.55
2117 0 65.1594 11.633 758 117.625 498.62 474.028
2118 0 66.0792 12.6212 834 115.995 498.481 472.018
2119 0 72.1597 14.6619 1058 111.131 497.198 471.016
2120 0 74.1096 15.2477 1130 111.047 498.289 469.927
2121 0 75.1013 14.6469 1100 113.148 496.413 466.794
2122 0 79.0754 15.5295 1228 110.583 497.421 467.982
2123 0 82.0869 19.5281 1603 105.684 496.991 462.795
2124 0 81.0712 14.2467 1155 113.878 496.57 461.772
2125 0 81.0712 14.3208 1161 145.339 496.59 461.71
2126 0 88.2798 13.2307 1168 114.942 496.855 454.889
2127 0 92.4674 12.599 1165 115.093 495.38 455.419
2128 0 94.2537 16.1373 1521 108.951 496.794 456.436
2129 1 49.0523 10.1117 496 112.623 496.405 477.571
2130 0 53.1385 14.02 745 108.621 496.556 473.071
2131 0 53.236 13.7689 733 110.947 496.999 470.281
2132 0 55.0586 13.5855 748 110.655 496.533 470.341
2133 0 54.0928 10.7593 582 115.966 496.756 469.088
2134 0 58.1992 14.5706 848 109.417 497.002 468.289
2135 0 59.1926 16.5054 977 106.73 498.515 465.548
2136 0 58.1576 12.2942 715 113.999 498.225 463.491
2137 0 62.2689 10.7598 670 115.519 498.972 462.646
2138 0 62.1462 12.1166 753 113.912 498.954 460.251
2139 0 64.1024 11.5596 741 113.907 500.424 462.19
2140 0 69.0658 14.783 1021 109.281 500.441 460.306
2141 0 72.2266 14.4684 1045 109.426 500.089 459.236
2142 0 74.3182 13.496 1003 110.323 501.227 460.402
2143 0 75.1785 11.6656 877 113.377 501.225 459.45
2144 0 80.3724 16.3862 1317 106.191 502.405 459.907
2145 0 79.3455 14.8339 1177 107.894 503.76 459.934
2146 0 85.2545 17.266 1472 104.489 503.822 459.191
2147 0 86.3075 11.9109 1028 114.313 504.637 452.905
2148 0 88.1383 13.9213 1227 110.231 504.152 456.178
2149 0 93.6082 16.943 1586 105.668 505.077 454.781
2150 0 97.5232 15.7193 1533 104.576 504.715 456.363
2151 0 99.4008 16.7705 1667 103.941 503.686 457.016
2152 1 50.1605 11.7024 587 106.17 504.572 475.496
2153 0 53.1199 11.4835 610 108.618 502.348 478.562
2154 0 57.1783 11.263 644 110.689 502.401 474.37
2155 0 56.1077 12.5473 704 109.51 502.446 476.886
2156 0 59.2107 14.6595 868 106.755 501.583 477.629
2157 0 63.2428 15.3693 972 104.36 501.382 477.647
2158 0 65.3162 14.2844 933 105.419 499.14 477.139
2159 0 67.513 20.6034 1391 96.9296 499.449 476.405
2160 0 70.6736 13.3713 945 106.251 497.884 473.085
2161 0 68.4715 13.0565 894 109.451 498.898 469.56
2162 0 70.4742 11.9193 840 110.327 497.832 467.039
2163 0 70.4742 11.8767 837 136.159 495.845 467.063
2164 0 77.715 15.6727 1218 103.524 497.08 468.303
2165 0 80.3219 16.1226 1295 103.146 496.768 468.279
2166 0 82.5384 14.8658 1227 106.751 496.675 458.22
2167 0 84.3714 12.8242 1082 107.047 496.372 464.84
2168 1 49.1399 14.8963 732 100.245 497.904 480.169
2169 0 48.0885 8.38039 403 110.561 495.834 475.05
2170 0 50.0872 13.1571 659 104.232 496.473 478.307
2171 0 51.1518 12.1012 619 105.459 495.42 473.934
2172 0 50.1016 10.5985 531 110.345 495.482 472.262
2173 0 55.0284 12.7207 700 106.126 496.563 473.014
2174 0 56.1175 12.6164 708 106.648 495.958 467.23
2175 0 56.067 11.3436 636 107.992 495.899 467.294
2176 0 58.1388 14.4654 841 100.805 495.397 470.414
2177 0 59.0552 13.8006 815 104.84 495.827 463.097
2178 0 62.2666 14.8394 924 103.316 497.39 457.619
2179 0 64.0965 14.8682 953 103.661 497.315 460.151
2180 0 66.0748 17.7829 1175 99.5481 499.049 459.549
2181 0 67.0919 12.5798 844 105.639 500.034 460.745
2182 0 70.1659 13.4538 944 105.349 500.114 456.909
2183 0 68.141 11.3881 776 109.903 501.219 456.481
2184 0 74.25 14.7879 1098 104.899 501.107 456.402
2185 0 79.1344 13.7235 1086 105.824 502.051 450.51
2186 0 81.1456 11.4362 928 109.182 503.25 450.35
2187 0 81.1456 11.5225 935 142.527 504.289 450.307
2188 1 43.0559 7.19994 310 109.697 503.571 476.642
2189 0 45.1708 10.6706 482 105.618 503.353 475.311
2190 0 46.0263 14.7742 680 102.924 503.16 476.432
2191 0 46.0376 10.1222 466 111.94 502.788 473.094
2192 0 50.1774 12.2166 613 108.866 502.812 473.91
2193 0 51.0317 10.5621 539 109.631 503.187 476.432
2194 0 53.3095 13.8624 739 106.835 502.582 475.022
2195 0 55.0567 13.2591 730 109.097 501.244 473.755
2196 0 56.0886 16.5631 929 104.712 502.051 473.878
2197 0 59.2637 13.0434 773 108.589 501.881 477.096
2198 0 58.1014 11.566 672 111.769 500.576 475.771
2199 0 60.1137 11.2287 675 113.452 500.683 477.313
2200 0 67.1858 13.4106 901 109.17 499.269 475.632
2201 0 66.1064 14.2346 941 110.25 500.102 469.866
2202 0 69.2845 13.5672 940 110.523 497.398 473.405
2203 0 71.1265 13.7501 978 110.867 497.509 471.427
2204 0 74.0367 12.9665 960 112.316 497.188 467.245
2205 0 78.148 15.1763 1186 108.531 496.876 468.601
2206 0 79.1378 14.6074 1156 109.811 497.671 466.124
2207 0 84.1298 15.7257 1323 108.052 496.536 463.103
2208 0 84.3137 16.1421 1361 107.691 496.511 465.416
2209 0 85.1578 14.9487 1273 109.704 496.509 459.734
2210 0 88.2175 12.7639 1126 112.574 496.469 459.809
2211 1 50.1407 12.4051 622 108.841 498.278 478.678
2212 0 51.2006 13.0467 668 106.723 498.808 474.472
2213 0 52.2487 15.9238 832 99.7897 497.666 472.542
2214 0 52.3272 15.2884 800 100.951 498.13 472.669
2215 0 54.334 13.3434 725 102.359 497.175 470.218
2216 0 56.1602 12.8561 722 102.938 498.488 468.456
2217 0 58.2154 12.0758 703 104.666 497.869 463.701
2218 0 58.4476 12.6609 740 103.986 497.968 465.214
2219 0 58.3845 10.8248 632 107.826 498.12 462.013
2220 0 63.3329 14.1001 893 100.953 498.806 465.24
2221 0 62.405 12.1785 760 106.762 500.274 460.991
2222 0 66.359 14.4517 959 102.575 500.601 459.664
2223 0 67.2932 12.4976 841 105.244 499.848 457.736
2224 1 136.557 13.0861 1787 108.443 500.373 432.569
2225 1 71.3103 11.3869 812 106.814 502.857 455.069
2226 0 74.4142 14.2446 1060 106.045 502.675 452.875
2227 0 75.3057 13.8104 1040 107.864 504.203 448.716
2228 0 79.352 15.3997 1222 104.885 502.89 450.2
2229 0 82.5275 12.6019 1040 109.367 504.787 453.321
2230 0 86.4164 12.5323 1083 109.331 504.081 446.464
2231 0 89.3928 11.9361 1067 110.659 506.057 446.186
2232 0 90.3746 13.3887 1210 107.087 504.967 453.006
2233 0 92.632 12.2528 1135 110.772 505.182 449.069
2234 0 97.4316 10.4073 1014 113.825 504.689 446.361
2235 1 53.393 13.0354 696 105.792 504.27 469.797
2236 0 53.3199 11.5529 616 106.945 503.523 474.11
2237 0 56.1725 13.6188 765 103.238 505.077 474.224
2238 0 56.3543 12.8828 726 105.029 504.201 473.006
2239 0 60.2305 11.5224 694 107.615 504.344 474.372
2240 0 60.2742 11.2652 679 108.975 504.174 469.461
2241 0 65.3116 15.1734 991 102.77 503.316 473.103
2242 0 66.2079 14.817 981 105.449 502.514 471.484
2243 0 66.375 12.0527 800 110.474 501.939 470.166
2244 0 71.2998 12.3002 877 109.344 499.644 471.303
2245 0 75.3656 15.5243 1170 107.552 500.313 464.857
2246 0 76.4113 13.8592 1059 113.317 498.112 466.068
2247 0 77.4434 14.2039 1100 114.543 497.193 459.845
2248 0 80.3934 13.72 1103 114.155 496.305 461.84
2249 0 80.3271 13.084 1051 116.625 496.778 457.112
2250 0 84.2974 14.2353 1200 113.822 497.386 458.098
2251 0 87.3672 15.2117 1329 111.639 497.384 456.084
2252 0 91.2691 15.909 1452 110.129 496.853 453.156
2253 0 93.4814 14.4949 1355 112.369 496.9 450.93
2254 0 98.3498 16.2583 1599 109.612 496.353 452.139
2255 0 100.465 17.7475 1783 107.313 496.788 450.412
2256 0 98.2478 14.9622 1470 113.217 496.843 447.899
2257 0 102.452 13.7821 1412 113.611 497.819 447.3
2258 0 109.275 12.5372 1370 115.551 497.09 441.955
2259 0 108.342 12.3774 1341 116.494 497.437 437.093
2260 0 113.449 13.1248 1489 109 498.999 447.085
2261 1 58.2123 12.5575 731 107.513 500.54 466.101
2262 0 61.0371 13.6966 836 107.036 500.42 462.331
2263 0 61.08 14.7184 899 106.07 501.692 458.755
2264 0 65.2262 11.8664 774 110.545 501.472 458.975
2265 0 65.2615 13.4076 875 108.202 503 459.624
2266 0 69.137 13.1478 909 108.696 504.441 456.889
2267 0 70.1228 11.7936 827 111.467 504.33 455.641
2268 0 71.1644 12.9559 922 112.575 505.595 451.91
2269 1 145.506 14.075 2048 114.807 505.367 415.592
2270 0 149.406 14.879 2223 114.518 504.824 415.928
2271 0 154.417 15.6848 2422 114.667 504.183 415.033
2272 0 153.374 14.0833 2160 117.815 505.749 416.697
2273 0 158.465 12.4318 1970 119.968 505.878 421.185
2274 0 155.419 6.59507 1025 124.969 506.791 438.569
2275 1 92.5339 12.3847 1146 117.317 507.298 449.195
2276 0 93.5806 15.2916 1431 113.458 505.399 451.426
2277 0 97.3501 14.0626 1369 113.459 505.606 454.726
2278 0 97.4809 12.3614 1205 118.562 505.762 450.097
2279 0 102.493 11.2398 1152 118.973 505.617 444.838
2280 0 109.411 13.3076 1456 114.94 506.501 444.793
2281 0 109.411 13.271 1452 141.069 506.528 444.528
2282 0 119.599 13.7041 1639 116.989 505.273 447.248
2283 1 65.1344 15.0305 979 111.726 505.728 473.402
2284 0 67.1222 14.5556 977 113.756 505.09 472.356
2285 0 69.2332 13.3029 921 114.73 504.312 472.985
2286 0 73.131 12.1016 885 117.13 503.453 470.185
2287 0 72.4087 12.098 876 118.516 503.002 466.582
2288 0 78.26 12.9696 1015 115.703 503.418 467.831
2289 0 80.1798 14.2804 1145 113.877 501.802 465.42
2290 0 81.413 12.3445 1005 117.645 502.479 463.459
2291 0 85.0812 13.8456 1178 115.937 500.25 461.587
2292 0 88.1986 15.9413 1406 112.915 501.611 455.292
2293 0 89.1316 11.4325 1019 120.618 500.783 458.785
2294 0 95.1891 14.634 1393 115.546 500.882 453.89
2295 0 95.3114 14.0802 1342 116.561 500.325 454.047
2296 0 99.2461 12.5849 1249 119.837 499.882 450.496
2297 1 53.2226 11.5177 613 117.824 499.256 472.7
2298 0 54.3477 12.2176 664 117.294 498.905 471.974
2299 0 53.1772 13.2199 703 115.807 496.238 465.219
2300 0 55.5009 10.5404 585 116.578 496.238 466.349
2301 0 54.4004 13.5845 739 113.12 496.886 464.192
2302 0 63.2084 17.2445 1090 109.46 498.701 463.165
2303 0 61.1218 11.698 715 120.341 500.134 462.804
2304 0 67.107 14.3651 964 114.985 500.908 456.074
2305 0 67.1605 13.1923 886 116.826 501.596 458.842
2306 0 69.035 11.1682 771 119.451 502.3 458.719
2307 0 70.1729 12.1699 854 118.841 501.41 455.622
2308 0 71.1037 13.192 938 115.897 503.638 455.953
2309 0 78.129 12.8889 1007 115.935 502.798 453.94
2310 1 40.0266 11.5923 464 111.972 505.034 472.302
2311 0 41.0657 8.98559 369 120.328 504.911 468.209
2312 0 43.0856 10.9085 470 116.421 505.672 467.432
2313 0 46.0806 14.0406 647 108.85 507.235 469.845
2314 0 44.136 11.3286 500 111.862 505.872 470.98
2315 0 45.112 11.9259 538 112.011 504.593 472.271
2316 0 45.0637 13.2479 597 111.353 504.486 471.787
2317 0 48.0742 12.8135 616 111.503 505.274 471.847
2318 0 51.0601 12.1034 618 112.617 505.285 471.28
2319 0 51.0484 12.5959 643 112.202 504.299 469.61
2320 0 52.13 10.1477 529 115.616 504.333 474.446
2321 0 56.0927 15.5635 873 111.246 503.526 472.235
2322 0 60.1586 15.1101 909 111.24 502.592 473.866
2323 0 60.1586 15.0436 905 132.733 501.59 473.787
2324 0 60.0913 13.779 828 115.441 501.88 472.953
2325 0 64.1774 16.5946 1065 110.306 501.808 468.026
2326 0 67.1694 12.9374 869 114.659 501.203 471.959
2327 0 68.4959 11.9861 821 117.695 501.392 464.879
2328 0 71.5362 12.9165 924 115.787 500.909 463.738
2329 0 73.4846 12.3971 911 116.998 499.124 465.007
2330 0 73.4846 12.4788 917 145.546 498.121 465.029
2331 1 41.141 9.43099 388 116.149 496.134 480.363
2332 0 42.1014 12.3274 519 112.973 496.588 478.796
2333 0 47.0723 13.6598 643 108.425 496.852 480.061
2334 0 47.1654 13.6965 646 109.947 495.181 474.463
2335 0 49.0546 13.8009 677 108.133 495.737 475.43
2336 0 48.0891 11.7698 566 112.378 494.567 472.247
2337 0 53.105 12.4847 663 109.962 495.018 472.317
2338 0 50.2126 9.79834 492 115.665 494.846 470.921
2339 0 52.0766 13.0961 682 105.956 498.372 476.172
2340 0 51.1139 13.0297 666 107.595 498.73 469.095
2341 0 53.0494 10.6693 566 110.668 500.498 469.56
2342 0 56.0918 11.499 645 108.735 499.862 469.676
2343 0 58.0964 14.0112 814 104.844 499.17 468.287
2344 0 58.0964 14.0284 815 126.602 499.171 468.339
2345 0 63.212 12.7666 807 107.037 500.46 465.076
2346 0 62.1788 12.2711 763 108.256 501.393 463.153
2347 0 66.271 11.8 782 110.419 501.821 456.578
2348 0 67.2976 15.2011 1023 105.431 503.105 457.47
2349 0 68.2766 12.6691 865 108.955 502.887 460.136
2350 0 72.2014 14.8751 1074 106.284 504.272 457.696
2351 0 75.3255 12.9173 973 109.048 504.476 459.599
2352 0 75.1618 12.5995 947 108.919 505.369 456.754
2353 0 76.192 11.5498 880 110.983 505.005 449.942
2354 0 84.1068 13.6493 1148 106.293 506.371 455.558
2355 0 85.1113 10.0574 856 110.661 506.471 456.954
2356 0 89.1004 13.7149 1222 107.981 507.139 449.433
2357 0 89.202 11.715 1045 110.657 507.698 448.659
2358 0 95.1416 15.2089 1447 104.746 508.165 446.296
2359 0 101.23 14.9758 1516 104.304 507.344 446.321
2360 0 102.143 13.5006 1379 106.739 508.779 446.596
2361 0 102.143 13.4908 1378 130.689 509.774 446.69
2362 0 102.14 13.4424 1373 130.347 510.774 446.713
2363 0 106.718 7.75878 828 118.912 503.819 460.435
2364 1 60.1605 14.0291 844 109.69 503.021 472.374
2365 0 64.1457 14.5294 932 107.29 502.055 474.028
2366 0 67.2245 12.3021 827 110.252 501.464 473.647
2367 0 68.1196 15.8985 1083 106.085 502.514 473.826
2368 0 71.0729 11.0309 784 112.48 501.64 473.253
2369 0 73.2022 13.6335 998 108.948 499.335 472.527
2370 0 78.257 14.3885 1126 108.679 498.928 469.767
2371 0 78.1759 11.2439 879 115.367 498.141 465.771
2372 1 41.031 8.11581 333 115.369 496.523 486.97
2373 0 46.0817 13.8233 637 106.867 496.659 485.51
2374 0 44.0749 13.7266 605 109.236 495.617 482.469
2375 0 47.0384 10.1194 476 115.326 495.803 480.557
2376 0 47.1797 10.0043 472 116.72 495.172 479.822
2377 0 49.0838 13.7928 677 110.911 494.812 476.892
2378 0 50.0716 12.0827 605 112.838 494.486 478.974
2379 0 52.0397 16.1415 840 107.506 494.78 474.098
2380 0 52.0787 13.518 704 112.561 494.993 474.156
2381 0 55.0498 18.3107 1008 105.438 495.77 472.85
2382 0 56.1004 15.9179 893 108.243 495.682 471.234
2383 0 56.1621 11.6627 655 116 494.786 468.69
2384 0 58.1668 12.3954 721 114.128 495.261 470.058
2385 0 60.0766 14.132 849 110.893 495.524 468.326
2386 0 61.0471 16.1678 987 109.429 495.212 463.548
2387 0 61.2099 12.547 768 113.923 496.31 465.104
2388 0 66.3218 15.9827 1060 106.454 495.858 464.455
2389 0 67.0409 13.5738 910 112.425 497.176 461.177
2390 0 67.0409 13.6931 918 146.059 498.158 461.149
2391 0 73.1039 16.8527 1232 106.883 497.727 457.627
2392 0 72.4047 14.0184 1015 111.603 498.859 458.38
2393 0 76.3037 16.4999 1259 107.939 500.714 455.268
2394 0 80.3486 15.8186 1271 106.674 500.431 460.094
2395 0 81.3832 13.0125 1059 112.208 502.516 457.246
2396 0 82.2569 12.6068 1037 112.776 501.558 456.637
2397 0 88.3672 16.1825 1430 106.876 502.584 453.869
2398 1 44.1176 7.52533 332 117.645 502.298 472.494
2399 0 50.1545 14.6148 733 107.598 503.098 469.218
2400 0 52.1162 18.1326 945 101.734 502.965 471.668
2401 0 53.1804 15.4192 820 104.832 502.987 470.382
2402 0 55.1668 12.6888 700 109 502.8 473.231
2403 0 57.3492 13.8973 797 107.016 502.807 470.371
2404 0 58.3207 17.0437 994 103.741 503.182 471.675
2405 0 55.3637 11.9754 663 112.659 502.937 473.262
2406 0 62.3256 15.6757 977 105.825 503.505 473.32
2407 0 64.5059 14.8514 958 108.113 502.102 468.639
2408 0 70.2621 18.189 1278 103.332 501.762 470.764
2409 0 71.1713 13.5307 963 109.718 501.665 472.338
2410 0 76.2434 14.8603 1133 107.398 500.269 472.252
2411 0 77.3273 14.3416 1109 109.005 500.013 465.898
2412 0 81.457 14.965 1219 107.673 498.185 466.968
2413 0 82.3867 12.5263 1032 111.984 498.083 463.509
2414 1 44.3132 11.3285 502 110.522 497.376 480.651
2415 0 45.2769 11.1315 504 110.841 497.105 482.242
2416 0 45.1404 13.9786 631 106.954 496.975 477.702
2417 0 50.524 13.4392 679 104.131 497.364 476.449
2418 0 50.1728 12.0384 604 107.419 495.283 475.717
2419 0 50.0956 16.0892 806 102.042 495.692 476.579
2420 0 53.0903 10.6799 567 108.503 494.716 476.487
2421 0 55.0817 12.7447 702 106.664 493.906 475.413
2422 0 59.1342 13.1227 776 107.218 495.222 474.037
2423 0 61.365 14.2915 877 106.774 494.957 465.317
2424 0 61.339 11.5261 707 111.842 495.011 466.72
2425 0 62.3824 14.1386 882 107.347 495.966 468.246
2426 0 66.229 14.8122 981 106.596 495.59 466.256
2427 0 69.126 14.2349 984 107.175 495.151 464.523
2428 0 70.1861 12.6663 889 110.001 495.873 462.237
2429 0 70.1861 12.8088 899 141.217 497.863 462.225
2430 0 71.2759 11.7571 838 111.976 499.023 458.021
2431 0 75.4485 16.0639 1212 106.047 499.306 456.381
2432 0 77.2561 13.5264 1045 110.77 499.482 454.815
2433 0 79.3634 15.8385 1257 107.136 500.721 455.358
2434 0 86.3732 20.6893 1787 100.519 500.578 452.189
2435 0 89.3896 11.7687 1052 114.145 501.64 449.542
2436 0 88.3655 13.2065 1167 113.506 501.039 450.603
2437 1 47.2269 9.57082 452 112.522 501.79 471.266
2438 0 50.2045 13.0666 656 106.451 501.62 471.14
2439 0 49.0749 10.3108 506 113.538 500.065 469.379
2440 0 52.1302 13.8307 721 108.904 502.103 467.264
2441 0 56.2494 12.729 716 109.13 500.93 471.406
2442 0 57.115 11.9583 683 111.944 502.221 469.457
2443 0 59.142 11.3118 669 113.731 501.972 469.26
2444 0 62.1399 17.9273 1114 103 503.155 469.411
2445 0 63.2987 12.0856 765 112.839 500.361 469.888
2446 0 65.1616 13.0752 852 110.842 501.876 472.006
2447 0 71.2093 18.0735 1287 103.354 500.921 469.633
2448 0 69.193 12.877 891 112.498 501.079 470.393
2449 0 72.1981 13.7123 990 111.743 500.139 469.436
2450 0 76.2774 12.3234 940 114.216 500.666 467.135
2451 0 80.2594 15.3502 1232 109.761 498.619 466.066
2452 0 84.3383 12.9834 1095 112.568 498.868 467.457
2453 1 44.1021 11.8815 524 112.592 497.525 480.372
2454 0 48.0568 14.691 706 107.564 501.572 481.228
2455 0 50.3611 12.5096 630 109.367 500.794 481.589
2456 0 50.1577 11.085 556 112.383 500.867 482.45
2457 0 50.1577 10.9853 551 129.755 501.88 482.655
2458 0 53.353 14.0948 752 109.342 499.529 475.581
2459 0 54.1468 13.3157 721 110.254 499.355 473.583
2460 0 56.2069 11.6534 655 112.084 498.939 476.227
2461 0 58.1006 10.9121 634 113.145 498.203 474.752
2462 0 59.2333 13.5397 802 108.974 498.572 471.434
2463 0 60.2479 11.7183 706 111.802 497.796 470.904
2464 0 61.4402 14.8274 911 108.139 498.203 465.429
2465 0 63.2624 12.2822 777 111.972 497.763 468.368
2466 0 64.2784 13.9238 895 109.692 496.731 466.052
2467 0 65.464 13.3967 877 110.249 496.921 463.315
2468 0 66.5608 11.8088 786 113.37 497.528 461.882
2469 0 70.4518 13.2005 930 110.296 497.967 459.751
2470 0 72.4136 12.8153 928 111.82 498.311 457.62
2471 0 77.38 13.3756 1035 109.347 498.756 457.836
2472 0 78.3787 14.2513 1117 109.331 499.078 454.514
2473 0 83.4628 18.1159 1512 103.576 499.096 452.181
2474 0 83.462 17.8165 1487 104.073 499.676 454.888
2475 1 45.1386 9.08314 410 111.937 501.812 474.644
2476 0 48.4641 12.9168 626 108.679 502.847 466.196
2477 0 48.3167 10.7416 519 112.312 503.118 469.46
2478 0 50.7049 12.9968 659 109.656 502.584 465.721
2479 0 53.8188 14.9204 803 104.858 502.737 469.878
2480 0 52.1736 12.0367 628 112.088 503.328 469.234
2481 0 56.1344 11.8109 663 112.014 505.243 470.493
2482 0 55.1064 14.9347 823 108.716 505.108 469.705
2483 0 58.1582 14.7529 858 108.418 505.631 469.804
2484 0 61.2002 13.7908 844 107.931 504.474 473.898
2485 0 62.085 13.3688 830 110.466 505.125 471.442
2486 0 65.1924 13.161 858 111.723 504.198 469.411
2487 0 67.3801 17.008 1146 107.002 503.599 470.093
2488 0 69.2801 15.0837 1045 109.736 503.344 469.27
2489 0 73.6633 14.5391 1071 111.133 503.755 468.013
2490 0 75.1791 12.7562 959 114.14 504.312 469.558
2491 0 77.226 15.6424 1208 110.845 502.597 467.142
2492 0 77.612 14.07 1092 113.568 502.74 469.608
2493 0 84.5974 15.627 1322 111.551 501.62 466.955
2494 0 84.5974 15.6388 1323 145.156 500.652 466.855
2495 1 46.4722 10.4579 486 118.051 498.243 480.492
2496 0 47.4051 13.3319 632 108.006 497.684 475.068
2497 0 47.2789 12.6695 599 110.603 498.831 473.457
2498 0 47.3286 13.0999 620 110.742 496.865 471.282
2499 0 52.3037 17.1881 899 103.08 495.656 476.968
2500 0 52.1035 15.9298 830 107.339 495.693 479.96
2501 0 54.2305 13.4795 731 111.856 495.259 477.244
2502 0 56.2676 14.8043 833 110.694 495.462 474.711
2503 0 58.3443 12.4262 725 115.134 495.252 473.263
2504 0 58.2996 14.7685 861 112.311 496.236 471.222
2505 0 62.2128 12.3769 770 112.684 497.183 462.109
2506 0 66.2176 18.3335 1214 102.858 496.012 463.349
2507 0 67.3292 14.5554 980 110.066 497.163 460.015
2508 0 65.3224 11.7111 765 115.993 497.778 454.329
2509 0 72.2685 16.3418 1181 106.992 496.437 458.729
2510 0 71.3558 12.1924 870 121.338 496.216 463.532
2511 0 75.4514 16.3151 1231 114.955 496.891 459.31
2512 0 78.4278 14.0512 1102 119.965 497.54 454.131
2513 0 80.4443 17.2293 1386 115.519 497.95 450.687
2514 0 85.3574 17.292 1476 114.305 498.451 452.275
2515 0 87.4132 13.5105 1181 121.194 499.016 449.424
2516 0 89.325 16.3224 1458 116.634 499.937 447.869
2517 1 48.2837 12.613 609 117.534 499.197 470.005
2518 0 47.1181 13.9649 658 115.912 501.21 469.027
2519 0 51.3197 14.1076 724 113.537 499.652 468.597
2520 0 50.1711 13.6334 684 115.044 500.711 468.237
2521 0 52.1747 15.0073 783 113.849 501.812 465.116
2522 0 55.0638 14.5831 803 113.908 501.071 467.431
2523 0 57.4106 16.6171 954 109.839 503.317 468.22
2524 0 57.5877 13.5619 781 117.782 502.138 465.629
2525 0 61.4457 13.9798 859 116.601 503.421 465.475
2526 0 63.3121 12.1462 769 120.355 502.429 467.049
2527 0 67.244 15.9122 1070 112.867 502.348 469.94
2528 0 70.3408 18.6378 1311 112.455 502.445 464.612
2529 0 74.4038 16.5717 1233 115.638 501.723 465.917
2530 0 76.1963 15.3026 1166 118.405 500.558 463.913
2531 0 81.2717 14.876 1209 118.677 500.513 465.175
2532 0 81.3525 15.1317 1231 118.803 499.713 466.082
2533 0 89.2936 16.5633 1479 115.663 499.327 462.746
2534 1 46.2066 10.9941 508 122.683 499.079 482.321
2535 0 48.3328 14.9174 721 117.209 498.644 479.634
2536 0 50.2674 16.1138 810 112.438 498.717 480.515
2537 0 52.1035 15.0853 786 114.599 497.461 479.426
2538 0 55.3128 14.9694 828 114.587 496.319 478.279
2539 0 54.4445 12.4898 680 119.621 496.481 477.997
2540 0 56.3065 14.5099 817 116.605 496.381 472.957
2541 0 59.4193 14.1368 840 117.286 496.092 474.29
2542 0 63.365 15.6711 993 113.366 495.244 472.977
2543 0 63.4167 12.6938 805 119.256 495.734 470.583
2544 0 65.4418 11.5217 754 122.113 495.153 467.519
2545 0 73.4929 14.4096 1059 117.952 495.96 465.296
2546 0 73.3492 14.4378 1059 118.504 496.245 465.012
2547 0 76.3584 16.9333 1293 114.096 495.503 462.293
2548 0 77.3406 15.7356 1217 116.191 495.868 462.985
2549 0 80.5341 15.0371 1211 118.785 495.112 459.979
2550 0 82.3959 14.4546 1191 119.335 495.868 457.967
2551 0 85.4458 14.0323 1199 119.637 496.173 455.319
2552 0 84.2644 11.4758 967 125.815 495.279 452.936
2553 0 91.3343 13.467 1230 122.044 496.732 448.4
2554 0 94.1407 12.8106 1206 122.43 494.819 448.558
2555 0 94.1766 13.6764 1288 121.944 497.286 447.654
2556 1 53.0328 13.1617 698 115.702 497.231 470.927
2557 0 50.3066 11.5889 583 116.611 498.196 464.631
2558 0 50.3066 11.5889 583 147.624 499.23 464.54
2559 0 57.375 16.732 960 103.761 501.071 463.292
2560 0 57.375 16.7494 961 119.775 502.079 463.317
2561 0 62.4296 12.5261 782 109.318 501.096 470.263
2562 0 63.4078 12.3486 783 110.289 502.683 465.852
2563 0 63.4322 12.2651 778 112.68 502.015 459.459
2564 0 69.774 14.16 988 108.159 503.41 462.478
2565 1 139.452 15.9338 2222 112.866 504.294 424.365
2566 0 143.564 14.8366 2130 116.373 504.642 421.172
2567 1 153.57 13.1797 2024 117.972 504.724 423.396
2568 0 156.702 14.9392 2341 115.966 505.177 420.304
2569 0 162.728 15.019 2444 116.125 504.211 418.476
2570 1 89.4333 12.076 1080 114.487 503.468 456.423
2571 0 90.4499 11.7081 1059 116.373 503.754 452.44
2572 0 96.3804 15.4284 1487 109.467 503.032 457.26
2573 0 101.65 18.0227 1832 105.661 500.94 455.599
2574 0 105.453 13.9493 1471 111.229 500.64 456.195
2575 1 57.8675 11.9411 691 112.955 499.344 478.912
2576 0 57.2684 12.8692 737 111.836 498.746 476.205
2577 0 60.5155 14.5252 879 109.667 497.009 475.059
2578 0 60.5155 14.5087 878 127.334 494.003 475.122
2579 0 65.5024 15.9078 1042 110.424 496.493 476.46
2580 0 66.6458 14.1344 942 113.987 496.272 472.986
2581 0 74.6201 14.0177 1046 113.758 496.389 470.526
2582 0 72.3701 13.956 1010 113.705 495.687 471.062
2583 0 74.4889 16.0695 1197 111.175 495.308 467.776
2584 0 78.3631 14.0117 1098 114.747 494.822 466.24
2585 0 75.3108 11.3131 852 118.62 495.863 467.421
2586 0 84.4714 13.9456 1178 112.963 494.556 462.985
2587 0 85.4501 14.289 1221 112.301 495.535 462.126
2588 0 86.3354 13.4244 1159 115.453 495.364 455.497
2589 0 86.3354 13.4591 1162 153.788 495.35 455.587
2590 0 86.3354 13.575 1172 152.954 495.337 455.438
2591 1 50.3774 13.0614 658 110.798 495.231 472.217
2592 0 50.3057 10.7145 539 114.338 495.212 472.425
2593 0 52.6732 11.9416 629 113.162 496.634 469.887
2594 0 55.6254 12.746 709 112.619 497.59 466.977
2595 0 54.3771 16.3304 888 107.824 498.477 468.529
2596 0 55.5366 14.819 823 110.886 497.921 464.733
2597 0 57.5684 15.7899 909 109.514 499.176 463.615
2598 0 58.3027 12.6066 735 114.063 498.452 464.755
2599 0 63.4436 14.2016 901 108.683 500.466 464.155
2600 0 64.7219 15.358 994 108.202 501.174 464.501
2601 0 65.2525 14.0225 915 109.769 500.89 464.652
2602 0 66.4572 12.9407 860 113.597 501.707 459.879
2603 0 67.4635 12.4067 837 114.36 502.213 459.006
2604 0 73.4094 13.9628 1025 111.552 502.634 460.604
2605 0 73.3184 13.8846 1018 111.49 501.149 460.321
2606 0 81.6359 13.499 1102 109.897 502.447 459.704
2607 0 81.4094 18.1552 1478 102.886 501.482 447.63
2608 0 81.4094 18.3026 1490 127.373 501.474 447.71
2609 0 87.3508 13.7263 1199 112.961 501.798 453.826
2610 0 90.4023 17.942 1622 107.373 501.269 454.326
2611 0 91.3153 13.9626 1275 114.282 501.676 455.034
2612 0 98.4652 16.7978 1654 107.256 501.807 460.343
2613 0 100.381 14.4849 1454 112.834 501.664 456.163
2614 0 104.631 15.6742 1640 111.443 501.541 454.906
2615 0 105.872 14.8576 1573 113.025 500.683 453.427
2616 0 114.572 12.5336 1436 113.196 499.919 458.195
2617 0 112.68 15.0338 1694 112.799 499.478 449.085
2618 0 118.478 15.6062 1849 110.852 498.85 446.992
2619 0 121.693 15.4898 1885 111.479 497.911 440.58
2620 0 125.445 12.6749 1590 116.637 497.402 436.608
2621 0 132.823 16.1719 2148 110.716 497.887 439.044
2622 0 137.923 17.0241 2348 108.45 497.783 437.595
2623 0 138.762 14.7302 2044 112.879 495.855 429.056
2624 0 145.811 17.5706 2562 108.219 495.948 429.013
2625 1 156.199 14.2703 2229 112.481 495.651 428.506
2626 0 158.828 18.2461 2898 108.055 495.527 423.78
2627 0 160.716 14.983 2408 114.069 495.597 419.532
2628 0 164.533 13.7723 2266 116.759 495.166 414.344
2629 0 170.541 16.2014 2763 111.559 494.902 406.244
2630 0 175.636 17.1775 3017 110.041 495.834 405.674
2631 0 175.703 14.5529 2557 113.508 495.939 408.677
2632 1 103.274 15.9478 1647 112.26 496.631 434.294
2633 0 106.284 15.4869 1646 111.666 497.57 439.829
2634 0 110.252 16.7071 1842 111.267 496.685 439.724
2635 0 110.252 16.689 1840 151.729 497.659 439.916
2636 0 116.366 14.0935 1640 116.809 498.885 429.48
2637 0 122.343 15.4484 1890 112.537 501.132 436.679
2638 0 123.246 12.8523 1584 116.481 501.316 436.167
2639 0 129.263 12.7879 1653 115.232 501.66 432.67
2640 0 134.381 16.5946 2230 107.63 503.035 436.772
2641 1 182.698 15.1671 2771 111.711 503.122 411.77
2642 0 186.739 13.8322 2583 105.937 504.661 419.083
2643 0 188.696 13.3972 2528 106.023 507.316 418.862
2644 0 187.541 15.57 2920 105.202 506.487 412.638
2645 0 192.73 12.1206 2336 110.292 506.577 411.691
2646 0 201.524 15.7252 3169 106.63 506.043 406.221
2647 0 211.739 16.8368 3565 105.15 504.344 406.815
2648 0 215.589 16.768 3615 105.585 504.152 404.728
2649 0 224.543 17.8317 4004 106.867 503.391 389.815
2650 0 231.655 16.7188 3873 106.239 502.517 394.046
2651 0 240.834 18.6851 4500 102.608 501.861 379.58
2652 1 256.298 11.9978 3075 109.202 502.595 393.898
2653 1 70.0666 12.1171 849 104.552 500.293 472.656
2654 0 70.1273 13.3044 933 129.486 498.277 473.79
2655 0 71.167 14.3044 1018 100.898 498.082 472.551
2656 0 74.3945 12.9983 967 103.947 497.486 465.532
2657 0 76.4414 15.4105 1178 97.8124 498.149 470.083
2658 0 78.285 14.3706 1125 99.2613 498.428 468.049
2659 0 84.6002 13.416 1135 99.2749 497.549 463.174
2660 0 84.424 14.9602 1263 100.264 498.08 457.21
2661 0 87.2576 14.7494 1287 99.6908 496.357 453.097
2662 0 88.7484 10.3326 917 105.978 494.66 451.699
2663 1 50.2238 8.16345 410 99.1 495.22 478.18
2664 0 52.2763 12.9695 678 94.1991 494.348 473.876
2665 0 52.082 13.3059 693 95.4545 496.216 472.83
2666 0 53.1674 9.47948 504 100.105 495.696 475.214
2667 0 56.22 12.6645 712 97.3188 497.028 468.531
2668 0 56.1412 12.0945 679 97.8704 496.935 468.864
2669 0 58.1025 11.5658 672 103.744 496.577 462.131
2670 0 64.0993 15.632 1002 97.0399 498.467 461.553
2671 0 63.1597 12.0172 759 102.279 498.456 458.78
2672 0 68.1879 14.5627 993 96.4542 498.606 465.681
2673 0 68.3351 15.3655 1050 97.1838 498.344 459.404
2674 0 71.3668 11.4759 819 101.744 499.521 454.919
2675 0 70.3007 10.8392 762 102.811 498.856 459.92
2676 0 75.3055 13.4519 1013 98.8203 499.83 459.347
2677 0 80.3472 17.5364 1409 93.3783 500.796 452.077
2678 0 81.2045 18.5704 1508 92.8236 500.87 450.152
2679 0 85.4902 15.6158 1335 95.1423 502.064 453.956
2680 0 83.4662 8.26682 690 101.82 502.067 454.03
2681 1 50.1546 12.9998 652 97.8528 504.21 467.406
2682 0 48.1082 10.6219 511 95.6986 504.558 474.209
2683 0 50.1407 11.2085 562 97.2206 503.073 469.055
2684 0 53.0419 11.293 599 95.6344 501.548 473.905
2685 0 52.1029 9.5964 500 99.404 499.496 469.35
2686 0 57.3171 13.3468 765 99.2418 499.328 471.329
2687 0 61.2396 13.1614 806 99.0794 498.762 471.645
2688 0 63.1957 13.8459 875 98.1909 500.537 470.25
2689 0 63.1484 12.4627 787 100.795 500.288 472.709
2690 0 65.1543 15.6398 1019 96.315 500.271 475.893
2691 0 67.2698 15.5196 1044 95.9291 500.503 473.911
2692 0 69.231 14.8922 1031 97.3123 500.992 474.491
2693 0 67.1253 11.2327 754 103.195 499.756 469.427
2694 0 72.1333 12.1303 875 100.889 500.067 469.945
2695 0 75.5493 10.7215 810 102.669 499.537 465.984
2696 0 78.3525 13.9498 1093 99.2809 500.015 465.174
2697 0 81.5859 14.5491 1187 97.6285 500.02 469.28
2698 0 86.4296 16.7535 1448 96.1761 498.336 463.298
2699 0 90.3005 19.5015 1761 90.4111 498.351 467.713
2700 0 89.4231 10.1875 911 101.61 499.79 462.833
2701 1 50.2768 13.3262 670 95.2164 498.912 483.731
2702 0 52.1983 11.5904 605 94.0612 497.359 479.367
2703 0 54.141 14.9979 812 83.8288 494.431 481.462
2704 0 50.1606 11.6227 583 85.9228 494.811 478.007
2705 0 51.0895 10.2369 523 86.0019 494.277 482.751
2706 0 57.337 16.185 928 81.4946 494.046 482.138
2707 0 55.3221 5.51317 305 91.8656 493.433 478.584
2708 0 65.4263 23.9353 1566 79.0709 492.165 474.337
2709 0 66.1771 18.8585 1248 83.1731 492.509 468.125
2710 0 65.1246 22.3111 1453 81.1287 492.149 468.648
2711 0 63.2481 14.8621 940 88.6245 493.06 462.9
2712 0 70.3934 16.2941 1147 83.6687 492.644 471.487
2713 0 68.149 10.8879 742 92.7601 493.83 461.602
2714 0 75.2655 14.5884 1098 88.1931 493.725 460.989
2715 1 142.853 17.1225 2446 89.6361 496.11 425.17
2716 1 76.0976 16.1109 1226 90.4592 495.068 454.085
2717 0 80.215 18.4255 1478 86.4411 494.472 461.791
2718 0 81.3426 17.998 1464 88.7452 496.365 455.195
2719 0 83.2381 19.3902 1614 87.5223 496.797 452.033
2720 0 85.2062 17.2053 1466 89.2681 496.893 451.082
2721 0 89.3398 13.7341 1227 92.2869 497.291 451.31
2722 0 89.2396 11.3515 1013 95.3633 498.758 446.877
2723 0 95.2885 13.8422 1319 92.1418 498.222 446.832
2724 1 54.3259 16.0513 872 87.9243 498.498 460.443
2725 0 54.5145 7.50259 409 94.89 498.841 468.54
2726 0 56.5672 11.4377 647 91.1963 501.207 468.654
2727 0 59.4863 20.6266 1227 80.2396 500.962 464.98
2728 0 60.5785 9.70642 588 86.0034 501.803 471.104
2729 0 64.3361 24.3565 1567 76.5329 501.398 470.04
2730 0 66.629 13.7478 916 83.2849 501.037 471.987
2731 0 64.4119 11.3178 729 86.6708 501.196 466.977
2732 0 66.4447 16.1036 1070 83.8364 501.878 466.507
2733 0 69.4199 13.4544 934 85.2602 501.016 469.266
2734 0 71.3623 12.1212 865 87.1422 501.666 468.268
2735 0 77.5745 15.0307 1166 84.9666 501.228 468.819
2736 1 139.829 16.5131 2309 87.4885 500.843 436.457
2737 0 147.271 13.4785 1985 89.3748 500.269 437.561
2738 1 84.4436 13.6778 1155 86.8251 499.797 464.622
2739 0 82.5309 11.317 934 89.076 501.091 458.317
2740 0 89.3662 20.3545 1819 81.6894 499.47 459.313
2741 0 88.54 11.2717 998 90.5271 498.209 457.054
2742 0 97.6775 15.6228 1526 88.3696 496.175 456.996
2743 0 96.6915 9.7113 939 92.5208 495.428 462.717
2744 0 96.427 8.61792 831 94.1937 496.189 456.463
2745 0 101.274 11.0097 1115 91.9641 495.306 450.031
2746 0 105.554 13.1401 1387 89.5141 495.868 452.567
2747 1 57.2902 16.3902 939 81.9979 495.646 478.156
2748 0 58.8772 17.0524 1004 86.0817 494.752 474.296
2749 0 57.5698 9.36255 539 94.1596 496.054 472.343
2750 0 60.6823 14.1063 856 89.3014 493.756 472.854
2751 0 65.3198 16.0595 1049 86.939 495.204 471.472
2752 0 64.427 16.9028 1089 87.0817 495.354 466.655
2753 0 65.3891 12.678 829 90.3004 496.027 468.078
2754 0 65.3891 12.6932 830 123.772 497.041 468.131
2755 0 69.368 17.1693 1191 92.5315 496.359 465.366
2756 0 73.392 17.318 1271 90.3847 496.713 468.52
2757 0 73.8121 15.9052 1174 92.431 496.798 458.014
2758 0 77.4021 15.7877 1222 93.099 498.176 453.288
2759 0 81.339 16.0809 1308 91.7592 498.702 459.442
2760 0 80.4133 11.8513 953 97.2004 500.224 452.6
2761 0 85.3601 11.3988 973 96.4872 500.119 454.179
2762 0 87.6178 10.4088 912 97.9452 500.556 454.535
2763 1 49.3816 16.1599 798 88.9424 499.643 467.206
2764 0 49.6252 12.2518 608 92.9836 501.724 468.646
2765 0 50.6184 12.9202 654 91.5031 502.034 472.15
2766 0 52.5655 17.1215 900 88.7756 501.407 472.021
2767 0 55.457 16.8599 935 88.9027 503.21 468.97
2768 0 55.3195 17.3538 960 88.5292 502.327 470.82
2769 0 59.395 12.8125 761 92.2181 502.703 469.813
2770 0 59.5694 14.907 888 91.58 504 466.735
2771 0 62.2435 21.4319 1334 85.7564 503.645 470.944
2772 0 65.4197 18.817 1231 87.4955 503.795 469.937
2773 0 64.4894 10.6374 686 96.4475 502.818 468.566
2774 0 68.5728 19.585 1343 88.6441 503.378 467.552
2775 0 70.9818 22.386 1589 86.4405 502.755 470.004
2776 0 70.3072 12.2889 864 98.5012 501.903 470.406
2777 0 74.5209 16.8812 1258 94.961 502.282 464.643
2778 0 75.4514 12.8692 971 99.5294 502.924 465.57
2779 1 42.126 15.2163 641 94.1201 501.009 484.836
2780 0 44.0785 11.298 498 98.7068 500.594 483.191
2781 0 46.1225 10.7973 498 103.181 502.363 482.165
2782 0 49.4152 12.486 617 98.7358 503.321 478.968
2783 0 52.2753 16.6044 868 95.3664 499.503 482.776
2784 0 49.5486 16.0449 795 97.4931 499.468 483.083
2785 0 51.8447 11.6887 606 102.599 499.977 479.523
2786 0 51.42 12.8744 662 99.5604 498.819 482.76
2787 0 54.4255 14.6071 795 99.9987 498.596 476.663
2788 0 58.5122 17.4664 1022 95.9628 497.243 476.038
2789 0 57.4751 18.1644 1044 95.5278 496.93 477.171
2790 0 57.288 13.0394 747 103.813 496.811 474.693
2791 0 62.6405 15.4852 970 100.643 496.904 468.74
2792 0 62.3406 12.3675 771 104.189 496.987 470.802
2793 0 70.6073 21.7825 1538 92.422 496.557 466.727
2794 0 69.3905 14.3968 999 102.186 496.839 461.368
2795 0 72.4649 21.8175 1581 93.4883 495.489 464.926
2796 0 73.191 18.3629 1344 97.3973 496.513 464.61
2797 0 76.4328 14.9282 1141 100.568 496.323 463.776
2798 0 76.334 15.5501 1187 102.401 497.557 455.054
2799 0 80.2946 15.9413 1280 101.066 498.102 456.943
2800 0 83.6723 17.4371 1459 100.114 498.251 454.132
2801 0 87.1391 15.8482 1381 101.08 497.683 455.615
2802 0 89.3098 17.5121 1564 101.157 499.458 446.721
2803 0 91.3746 17.7839 1625 100.383 499.8 449.947
2804 1 50.1147 15.9434 799 97.6608 500.438 471.257
2805 0 54.1899 16.0731 871 96.3387 501.091 467.555
2806 0 51.1741 11.6465 596 104.69 504.143 465.814
2807 0 54.2653 12.4205 674 97.9392 505.037 462.168
2808 0 57.1366 12.2688 701 98.4223 504.876 465.842
2809 0 58.3858 13.3423 779 98.6252 504.906 462.734
2810 1 114.494 10.3412 1184 103.964 504.56 441.603
2811 0 114.303 14.3303 1638 101.772 504.007 434.325
2812 0 123.031 18.0848 2225 96.9739 504.713 432.444
2813 0 124.385 15.4922 1927 99.3965 504.813 435.565
2814 0 131.96 19.0588 2515 95.0871 505.058 436.334
2815 0 136.616 20.3563 2781 94.7922 505.312 431.849
2816 1 74.1811 13.3188 988 101.736 506.473 458.969
2817 0 72.0684 15.6102 1125 99.4676 506.612 460.908
2818 0 75.4408 16.9669 1280 93.7461 506.266 469.562
2819 0 78.3474 13.6188 1067 100.423 506.287 465.029
2820 0 82.1847 15.0515 1237 102.357 505.6 457.857
2821 0 83.1204 13.294 1105 105.664 506.744 457.134
2822 0 91.1124 18.4607 1682 98.6433 505.179 463.61
2823 0 95.5247 19.7017 1882 98.0425 504.672 457.032
2824 0 96.6984 18.9765 1835 96.6174 503.547 457.446
2825 1 48.3322 13.4279 649 99.376 501.952 477.317
2826 0 50.0795 14.5768 730 100.19 500.586 478.919
2827 0 52.2643 17.8324 932 96.9185 500.314 475.643
2828 0 53.349 15.183 810 99.1383 499.819 481.304
2829 0 57.2722 13.9858 801 98.6792 500.253 480.194
2830 0 55.052 14.1139 777 100.793 499.162 474.512
2831 0 61.1543 16.2703 995 96.805 498.341 477.02
2832 0 61.659 12.9584 799 103.701 498.473 473.486
2833 0 65.3634 14.9931 980 101.976 498.701 469.749
2834 0 66.1936 13.3548 884 102.844 498.463 470.837
2835 0 68.3389 15.5109 1060 101.085 497.611 466.597
2836 0 67.305 13.0302 877 106.139 496.546 462.883
2837 0 72.9321 17.7974 1298 99.245 496.094 461.271
2838 0 71.9762 14.2964 1029 103.392 496.143 460.043
2839 0 75.5538 14.718 1112 101.901 497.579 461.355
2840 0 78.3655 18.5413 1453 99.3579 497.782 456.555
2841 0 80.7872 14.5444 1175 101.166 498.633 459.473
2842 0 82.2602 22.5261 1853 93.3832 496.882 457.414
2843 0 83.4186 15.0446 1255 99.9649 497.872 448.022
2844 0 84.1844 15.4304 1299 100.428 498.851 446.012
2845 0 91.6027 16.7899 1538 98.2978 498.315 444.149
2846 0 90.6922 12.9338 1173 103.223 499.504 439.194
2847 0 93.7296 16.8357 1578 98.3866 499.148 443.475
2848 0 97.5263 15.7394 1535 99.5134 501.62 442.635
2849 0 99.7531 14.4657 1443 101.009 501.681 439.488
2850 1 58.6121 15.1505 888 94.902 502.609 462.123
2851 0 58.2011 14.2609 830 100.822 504.428 465.019
2852 0 61.4277 17.3537 1066 96.5 504.165 466.11
2853 0 61.3953 15.4572 949 100.863 504.991 459.817
2854 0 64.7469 13.993 906 102.794 506.592 460.671
2855 0 68.3229 18.6906 1277 97.3203 506.714 456.312
2856 0 69.6007 13.52 941 103.704 507.202 459.688
2857 0 70.6312 15.7013 1109 101.365 505.759 457.089
2858 0 72.3171 15.8884 1149 100.121 506.584 463.258
2859 0 76.102 18.7774 1429 97.3317 505.759 461.721
2860 0 77.4653 17.027 1319 100.237 506.261 459.247
2861 0 78.5709 15.4128 1211 102.347 506.069 460.633
2862 0 83.4231 16.6141 1386 100.675 505.841 462.292
2863 0 85.3124 15.496 1322 100.94 505.55 461.897
2864 0 87.7636 15.6899 1377 101.102 504.857 453.867
2865 0 88.8674 10.0374 892 104.763 504.368 461.448
2866 0 91.4763 13.938 1275 103.82 503.263 449.056
2867 0 95.7065 20.7614 1987 94.4857 502.878 458.689
2868 1 51.6954 12.8058 662 98.7825 501.952 475.063
2869 0 54.8758 15.8904 872 94.9186 501.62 475.169
2870 0 56.6222 15.2767 865 96.6751 501.408 468.864
2871 0 58.5794 13.8957 814 98.4558 501.381 472.51
2872 0 63.4557 15.9324 1011 93.9248 499.606 475.42
2873 0 62.4221 15.9559 996 95.2912 501.205 474.187
2874 0 67.7257 16.3453 1107 94.7353 498.77 465.906
2875 0 68.6477 14.64 1005 96.8308 498.776 464.648
2876 0 69.4225 14.0877 978 98.1769 498.946 458.063
2877 0 71.5778 14.7252 1054 97.1793 498.547 459.17
2878 0 72.5469 9.1527 664 103.413 498.33 460.369
2879 0 77.4355 14.5282 1125 97.8053 497.464 456.607
2880 0 79.9881 11.9393 955 99.4597 497.162 455.156
2881 0 83.8856 18.561 1557 92.9268 497.446 455.458
2882 0 87.0669 16.3897 1427 95.9902 498.043 443.163
2883 0 90.0882 14.6301 1318 95.409 498.192 454.424
2884 0 95.4619 19.6518 1876 93.0357 497.045 448.285
2885 1 51.5675 12.0037 619 95.357 498.51 466.785
2886 0 51.9226 15.369 798 92.9561 499.467 466.06
2887 0 53.8509 11.0119 593 99.5211 501.339 463.653
2888 0 56.7943 16.5158 938 94.0181 500.928 464.357
2889 0 57.4985 14.9917 862 96.5487 501.003 463.287
2890 0 57.3498 13.1997 757 102.293 501.407 460.157
2891 0 59.4158 10.5191 625 103.579 502.04 462.234
2892 0 62.8129 17.9103 1125 94.6151 502.434 463.769
2893 0 65.7729 17.5148 1152 96.1016 502.983 459.574
2894 0 63.0266 10.7415 677 105.622 503.38 453.021
2895 0 70.2507 14.8611 1044 99.886 503.55 454.996
2896 0 69.8363 13.8467 967 100.629 504.352 457.836
2897 0 74.1438 14.4314 1070 100.583 505.447 454.942
2898 0 79.9183 14.9277 1193 98.2842 504.104 458.676
2899 0 77.1534 14.5813 1125 101.03 504.695 450.558
2900 0 80.3196 19.1859 1541 96.1415 505.075 454.616
2901 0 81.8328 15.9838 1308 100.428 505.932 444.592
2902 0 88.1941 18.8108 1659 95.8861 506.301 453.784
2903 0 89.2117 14.8075 1321 101.331 505.727 445.966
2904 0 94.7084 13.7052 1298 102.191 505.741 448.817
2905 0 97.1987 13.817 1343 102.609 505.887 443.69
2906 0 102.064 16.0487 1638 99.486 504.918 446.585
2907 1 58.0052 15.0331 872 96.7167 505.83 472.882
2908 0 58.8848 12.6858 747 102.15 506.4 467.548
2909 0 59.6518 13.21 788 100.788 504.93 470.484
2910 0 64.9624 14.316 930 99.3183 505.431 471.027
2911 0 63.6496 17.6435 1123 97.1977 504.209 470.762
2912 0 68.2745 14.5589 994 98.7012 504.432 472.966
2913 0 69.9519 14.2526 997 101.012 503.338 469.106
2914 0 73.3364 19.9355 1462 95.8338 501.161 463.709
2915 0 74.1615 15.7359 1167 100.719 501.817 463.286
2916 0 74.3043 14.4675 1075 102.517 502.284 461.48
2917 0 78.7285 15.2296 1199 96.9608 501.133 464.759
2918 0 81.0863 16.1433 1309 96.8892 500.137 457.749
2919 0 87.9008 18.7939 1652 93.2264 498.508 456.061
2920 0 88.1509 15.7344 1387 96.5905 498.965 453.082
2921 0 88.1481 16.3361 1440 97.2667 497.83 450.601
2922 0 93.3473 14.0229 1309 99.3858 498.328 448.414
2923 0 95.8652 13.373 1282 100.548 498.051 447.249
2924 1 50.7433 12.7702 648 96.5664 497.829 467.84
2925 0 53.8657 10.4334 562 99.9359 497.372 469.891
2926 0 55.6181 13.1252 730 98.5671 497.327 462.997
2927 0 57.2082 16.2914 932 97.1931 499.509 464.601
2928 0 61.241 15.937 976 95.2889 499.009 467.336
2929 0 60.5777 15.8309 959 95.366 500.074 469.242
2930 0 63.3811 11.4703 727 102.58 501.209 464.935
2931 0 65.3565 11.7356 767 102.867 499.709 462.244
2932 0 66.6174 12.6243 841 102.12 501.34 459.956
2933 0 68.6356 13.7684 945 99.6741 502.13 460.582
2934 0 70.4123 13.0091 916 103.084 501.702 453.818
2935 0 72.3887 12.3224 892 104.337 503.518 454.022
2936 0 78.3117 13.791 1080 101.171 503.767 455.549
2937 0 78.3142 13.1777 1032 102.193 503.63 455.474
2938 0 78.6952 11.589 912 105.746 505.042 449.259
2939 0 81.8678 11.6774 956 104.75 504.999 452.371
2940 0 85.9946 15.3963 1324 101.499 505.062 443.501
2941 0 90.7548 16.517 1499 98.0587 505.377 452.281
2942 0 91.5829 16.466 1508 99.7666 505.558 449.705
2943 0 96.969 11.5501 1120 104.426 506.478 448.162
2944 0 97.8994 17.8959 1752 97.5845 506.848 443.365
2945 0 99.8563 15.4722 1545 98.132 507.637 448.39
2946 1 57.1594 18.6671 1067 91.8041 504.358 471.668
2947 0 56.2359 14.0658 791 98.1833 504.15 470.592
2948 0 59.2486 12.4729 739 100.441 503.714 468.007
2949 0 62.1666 13.0778 813 99.6285 503.967 470.066
2950 0 64.1781 15.0519 966 96.9959 503.099 470.868
2951 0 63.0665 12.9546 817 100.676 502.514 466.639
2952 0 66.2992 13.2128 876 97.4201 502.713 476.076
2953 0 68.1514 14.0569 958 97.4332 501.563 473.346
2954 0 71.1614 22.8916 1629 88.07 502.029 473.829
2955 0 70.1652 13.1689 924 99.5325 502.428 468.482
2956 0 72.1331 7.86047 567 105.626 499.508 468.324
2957 0 74.4482 9.26819 690 105.107 500.893 459.823
2958 0 77.2842 13.8968 1074 100.226 499.46 462.231
2959 0 77.2247 8.48174 655 105.305 500.027 460.678
2960 0 82.1586 10.9666 901 100.663 498.774 464.469
2961 0 85.369 10.437 891 103.08 498.899 453.488
2962 0 88.4086 14.5348 1285 97.2887 497.932 454.576
2963 1 51.1299 9.17272 469 99.597 497.559 474.228
2964 0 53.6738 12.4828 670 94.4836 499.775 471.119
2965 0 56.6201 9.39596 532 94.4549 499.711 464.964
2966 0 60.1114 8.96668 539 94.2004 502.488 472.002
2967 0 57.1768 10.6512 609 94.2003 501.365 464.512
2968 0 64.1388 15.5444 997 89.4433 500.973 469.652
2969 0 63.1557 13.6171 860 91.6616 500.917 468.088
2970 0 63.1683 11.3506 717 94.8814 502.19 465.987
2971 0 59.172 3.87008 229 103.271 501.786 460.258
2972 0 64.0714 7.10146 455 98.4725 502.859 463.732
2973 0 66.2505 9.79615 649 96.4006 502.307 460.035
2974 0 71.2547 15.3393 1093 90.9844 501.059 458.946
2975 0 73.1773 13.2965 973 93.7133 502.121 456.843
2976 0 76.3257 11.8309 903 95.5969 502.517 452.134
2977 0 80.3187 12.4877 1003 94.2114 504.364 454.342
2978 0 80.228 14.2594 1144 93.8156 504.123 447.058
2979 0 84.1157 13.4101 1128 94.3617 505.502 449.053
2980 0 91.4242 13.9022 1271 93.7852 505.183 443.988
2981 0 91.1754 12.0208 1096 96.8422 505.339 440.955
2982 1 49.0936 7.57736 372 96.4274 506.86 472.61
2983 0 52.1521 9.72157 507 94.7574 505.799 465.998
2984 0 52.1071 8.73202 455 95.3055 506.796 473.198
2985 0 58.155 17.2986 1006 88.4483 505.903 469.258
2986 0 55.061 9.64386 531 95.9058 507.859 470.333
2987 0 59.1681 11.6955 692 95.4957 507.134 464.669
2988 0 57.196 11.7491 672 95.6994 506.946 471.841
2989 0 61.0773 11.0188 673 97.1605 507.208 468.333
2990 0 64.062 12.4723 799 94.806 507.398 470.484
2991 0 64.2456 14.2422 915 94.3639 507.052 469.56
2992 0 67.1506 16.2024 1088 92.4513 506.727 470.262
2993 0 69.2311 23.8766 1653 86.0635 505.762 471.018
2994 0 70.2215 15.978 1122 94.2549 507.098 468.865
2995 0 73.1448 16.2964 1192 93.8448 505.862 470.211
2996 0 74.193 19.4897 1446 92.2939 505.169 467.844
2997 0 74.1225 14.1523 1049 99.3794 506.131 464.472
2998 0 79.2939 12.1573 964 100.129 506.341 466.538
2999 0 78.1869 13.2631 1037 100.282 504.71 465.511
3000 0 82.3026 15.8683 1306 97.4364 503.725 464.191
3001 0 85.3674 13.0963 1118 101.1 503.743 459.74
3002 0 90.2716 11.2882 1019 101.268 503.019 462.98
3003 0 92.1336 15.5209 1430 97.8385 501.948 457.513
3004 0 93.5768 14.3625 1344 98.9963 501.799 457.037
3005 0 98.6027 16.8454 1661 96.0452 500.085 450.109
3006 0 102.611 14.1115 1448 99.5476 499.921 449.918
3007 1 57.1852 11.4015 652 99.4709 500.284 478.339
3008 0 56.1623 14.3869 808 99.8304 499.135 474.098
3009 0 60.1691 13.8111 831 95.9483 498.348 477.366
3010 0 61.2244 17.9014 1096 95.0182 497.903 469.412
3011 0 60.1561 15.9086 957 97.6176 499.256 469.878
3012 0 65.2503 14.5593 950 97.9021 497.568 470.886
3013 0 64.2904 14.7767 950 100.873 498.332 465.756
3014 0 67.5375 13.8145 933 102.195 498.958 463.646
3015 0 68.5585 20.6539 1416 94.5028 498.511 463.042
3016 0 70.3779 13.4417 946 103.998 499.077 458.458
3017 0 75.4464 19.1924 1448 96.297 499.251 456.048
3018 0 75.5864 12.8198 969 104.419 499.464 458.033
3019 0 82.4954 15.516 1280 99.8859 500.588 458.284
3020 0 82.4287 11.7677 970 104.11 500.853 457.924
3021 0 82.818 13.4512 1114 104.028 501.417 449.828
3022 0 90.0024 19.0884 1718 97.1601 502.102 449.854
3023 0 91.4504 19.311 1766 97.6319 502.615 443.546
3024 0 91.5889 16.3339 1496 97.1825 503.419 444.966
3025 0 93.609 11.313 1059 102.889 503.513 447.627
3026 0 101.627 13.8645 1409 100.99 504.578 444.627
3027 1 56.4799 15.4745 874 94.5584 503.517 470.453
3028 0 57.5661 15.4779 891 95.7823 503.538 465.166
3029 0 59.4359 12.9047 767 97.2386 503.502 473.368
3030 0 59.372 12.3796 735 98.6776 503.016 472.366
3031 0 61.5467 16.914 1041 94.9212 502.924 470.069
3032 0 64.4521 16.4308 1059 95.745 504.396 469.178
3033 0 65.4506 10.7868 706 102.837 503.735 468.622
3034 0 68.5715 13.1542 902 97.3592 503.687 475.476
3035 0 73.29 15.1726 1112 98.8903 504.031 466.538
3036 0 75.2604 15.0677 1134 99.3122 503.775 468.477
3037 0 78.4086 14.1566 1110 100.471 503.693 469.428
3038 0 78.6461 10.6553 838 104.066 504.026 465.883
3039 0 83.6631 18.192 1522 96.479 502.01 460.619
3040 0 85.5589 14.6332 1252 101.252 501.498 458.933
3041 0 85.5685 15.2393 1304 138.105 500.573 458.675
3042 0 88.6357 14.1478 1254 103.128 501.419 462.6
3043 0 92.9081 15.3808 1429 101.704 500.789 459.913
3044 0 95.6602 15.1892 1453 102.741 499.268 456.641
3045 0 97.7412 15.2546 1491 103.83 499.985 453.93
3046 0 102.702 14.7417 1514 103.927 497.991 454.308
3047 0 106.707 14.3665 1533 103.836 498.571 450.764
3048 1 60.4723 11.3937 689 99.4165 496.946 478.296
3049 0 62.377 16.6568 1039 95.5717 496.63 472.779
3050 0 64.3624 16.174 1041 94.2402 497.271 474.372
3051 0 65.572 8.50972 558 103.226 496.565 471.108
3052 0 68.548 11.9478 819 100.568 497.378 466.864
3053 0 71.6381 12.4654 893 102.459 496.35 460.782
3054 0 75.5749 12.4777 943 101.398 495.795 461.825
3055 0 76.4442 14.4942 1108 99.7581 496.111 458.92
3056 0 76.752 14.0061 1075 100.026 497.497 456.271
3057 0 79.2159 8.12968 644 108.556 496.894 447.953
3058 0 83.4167 14.6134 1219 100.539 496.035 448.888
3059 0 83.4843 9.8222 820 107.15 496.783 444.678
3060 0 88.3479 14.8164 1309 102.02 497.669 444.463
3061 0 93.2025 13.8837 1294 102.787 497.902 443.556
3062 0 97.3366 14.3728 1399 102.337 499.359 440.115
3063 0 100.015 17.8073 1781 98.3043 499.577 440.439
3064 0 101.51 13.2499 1345 104.436 500.868 436.732
3065 1 56.2602 10.3448 582 103.811 501.22 454.978
3066 0 60.4602 7.92257 479 101.77 500.622 470.37
3067 0 63.0637 11.4487 722 102.507 502.283 470.488
3068 0 65.3824 15.937 1042 102.052 503.082 463.866
3069 0 69.3276 13.9915 970 103.838 503.765 464.641
3070 0 71.1685 17.5639 1250 98.6296 504.486 467.972
3071 0 72.4673 12.9438 938 108.838 504.488 465.811
3072 0 74.1828 11.9839 889 111.161 505.417 461.557
3073 0 77.3021 14.01 1083 107.536 505.561 462.601
3074 0 83.1587 15.9454 1326 104.52 505.889 460.558
3075 0 83.5426 15.7165 1313 105.784 504.424 460.173
3076 0 86.283 15.1594 1308 106.325 504.25 463.091
3077 0 88.1854 14.0953 1243 108.842 505.364 463.225
3078 0 92.3817 17.3627 1604 103.783 503.714 453.582
3079 0 95.4394 17.2675 1648 105.028 503.589 458.774
3080 0 96.4545 13.0217 1256 110.778 502.404 459.456
3081 0 101.468 15.1575 1538 108.353 502.624 455.994
3082 0 105.391 13.0657 1377 110.744 502.57 458.87
3083 0 108.474 18.1334 1967 104.607 501.906 453.207
3084 0 109.503 14.0635 1540 109.855 501.789 457.777
3085 0 112.907 17.1911 1941 107.01 500.544 448.465
3086 1 65.7577 11.6184 764 109.555 499.424 475.942
3087 0 67.7725 9.87126 669 112.166 499.741 476.789
3088 0 70.9082 14.695 1042 107.236 499.682 469.785
3089 0 71.4249 11.2006 800 112.28 499.006 472.155
3090 0 75.4728 16.0853 1214 105.354 497.694 469.488
3091 0 76.307 15.2673 1165 105.775 497.657 472.797
3092 0 79.5807 14.5261 1156 107.929 498.29 467.769
3093 0 81.5296 13.9581 1138 107.739 497.728 468.487
3094 0 85.3833 14.6867 1254 106.927 496.633 465.274
3095 0 88.4517 13.2389 1171 109.009 496.4 461.805
3096 0 88.4517 13.2276 1170 147.816 496.403 461.644
3097 0 91.2256 11.8607 1082 113.302 497.332 457.876
3098 0 97.3356 15.1127 1471 108.68 497.184 453.055
3099 0 98.5554 11.7092 1154 113.612 497.382 453.25
3100 0 101.325 13.1754 1335 111.781 497.548 449.512
3101 0 107.712 15.3836 1657 106.208 497.266 452.263
3102 0 115.708 13.5773 1571 109.362 497.568 443.598
3103 1 62.7658 14.9922 941 105.649 496.954 466.004
3104 0 65.7911 14.3637 945 107.032 497.756 462.789
3105 0 69.9324 13.5988 951 106.635 497.897 462.53
3106 0 69.2005 14.6531 1014 107.787 500.451 463.93
3107 0 70.154 13.1853 925 110.402 501.143 460.501
3108 0 74.2163 14.3634 1066 106.792 501.093 463.852
3109 0 75.6716 11.3913 862 111.037 501.857 461.942
3110 0 79.2175 13.1663 1043 108.004 502.585 460.026
3111 0 83.3063 16.0372 1336 105.108 503.043 455.238
3112 0 88.3938 18.4515 1631 101.453 502.951 459.719
3113 0 90.3675 16.8202 1520 103.465 502.388 458.13
3114 0 85.2057 10.7622 917 113.725 503.552 452.277
3115 0 98.4444 18.8431 1855 100.737 502.203 453.438
3116 0 97.5662 17.4548 1703 103.486 503.765 454.313
3117 0 99.5755 13.8588 1380 108.08 502.641 452.901
3118 0 103.826 15.2659 1585 106.17 503.911 449.429
3119 0 105.529 16.6589 1758 102.829 503.376 459.321
3120 0 107.906 13.5118 1458 110.531 503.14 446.213
3121 0 114.645 15.692 1799 107.055 503.755 448.688
3122 1 65.7878 11.8715 781 105.738 501.685 476.307
3123 0 65.7072 11.7491 772 103.342 501.92 469.289
3124 0 65.4616 10.0517 658 102.812 500.57 473.178
3125 0 70.6108 14.3463 1013 97.5982 502.145 471.414
3126 0 70.4411 10.0226 706 103.065 500.374 468.797
3127 0 70.4411 10.1361 714 135.373 498.371 468.721
3128 0 74.1906 10.8909 808 103.161 500.671 471.408
3129 0 81.2368 13.2452 1076 100.435 500.513 470.21
3130 0 86.4549 18.6109 1609 93.8384 499.216 470.156
3131 0 89.3349 17.5743 1570 94.7306 499.25 468.086
3132 0 91.4738 13.3262 1219 100.807 498.913 463.21
3133 0 95.4636 12.2769 1172 102.219 498.096 456.765
3134 0 96.2854 13.273 1278 101.322 497.375 460.952
3135 0 103.415 20.703 2141 92.369 496.562 456.863
3136 0 103.208 19.5334 2016 92.9246 495.61 461.728
3137 0 107.687 13.6692 1472 100.4 496.052 450.559
3138 1 59.3209 11.0248 654 99.2125 494.633 470.887
3139 0 64.5102 12.4166 801 99.3433 494.104 468.963
3140 0 65.7492 17.1713 1129 94.6342 494.832 467.969
3141 0 69.6163 12.9998 905 95.5337 494.906 467.208
3142 0 68.2993 13.558 926 94.959 495.674 467.802
3143 0 73.6682 13.33 982 99.1894 495.245 464.702
3144 0 74.4299 10.7484 800 106.025 496.936 465.876
3145 0 77.2741 18.5185 1431 96.3571 495.783 463.773
3146 0 79.1423 14.7077 1164 101.509 496.076 459.32
3147 0 81.5054 12.4409 1014 101.646 495.841 463.078
3148 0 82.5242 13.4264 1108 101.524 496.481 457.335
3149 0 86.3947 12.4082 1072 104.433 495.991 453.178
3150 0 89.4746 14.2946 1279 102.21 497.895 449.791
3151 0 91.4131 14.6587 1340 101.14 497.246 453.193
3152 0 98.3168 19.0201 1870 93.5893 497.798 456.711
3153 0 98.1685 14.4038 1414 101.466 497.98 450.484
3154 0 100.414 14.4701 1453 101.871 498.339 450.303
3155 0 106.407 16.2865 1733 99.1916 499.731 446.47
3156 0 108.189 15.473 1674 99.2216 499.963 449.457
3157 0 115.822 17.9414 2078 97.8701 500.724 443.91
3158 0 114.704 13.2951 1525 105.064 503.414 442.885
3159 1 221.699 14.3483 3181 102.854 502.097 388.723
3160 0 225.906 13.0806 2955 103.714 501.363 388.132
3161 1 173.794 14.4424 2510 144.787 501.58 408.176
3162 1 127.881 12.6132 1613 103.52 502.383 431.205
3163 0 127.881 12.5898 1610 132.657 503.394 431.27
3164 1 74.3046 9.67638 719 106.675 500.695 466.869
3165 0 82.8847 13.2473 1098 100.26 500.607 469.748
3166 0 83.5857 16.1511 1350 97.737 500.194 465.848
3167 0 85.4453 12.0896 1033 103.142 500.228 464.339
3168 0 90.4438 14.1524 1280 100.905 501.005 461.327
3169 0 92.5937 22.5069 2084 91.369 500.47 465.58
3170 0 93.6348 14.5352 1361 99.9706 499.924 464.5
3171 0 98.62 14.6522 1445 99.3799 499.651 457.572
3172 0 103.934 14.413 1498 99.0614 498.166 459.215
3173 0 103.934 14.3456 1491 142.714 496.148 459.018
3174 0 109.033 12.6751 1382 101.349 497.103 449.847
3175 0 114.935 17.1227 1968 96.2658 497.127 450.137
3176 1 62.3862 13.6569 852 94.9542 496.674 465.331
3177 0 70.6379 15.2326 1076 89.8299 497.438 467.862
3178 0 71.1444 17.1763 1222 89.2946 497.228 465.595
3179 0 71.1006 15.6117 1110 91.1486 497.967 463.936
3180 0 72.3962 15.5257 1124 90.1521 497.452 469.716
3181 0 76.6586 12.9535 993 93.5025 496.916 462.974
3182 0 80.2318 18.7208 1502 87.3975 496.405 464.077
3183 0 84.4525 13.3566 1128 92.4832 496.765 453.623
3184 0 87.3222 12.9978 1135 92.3286 497.596 458.721
3185 0 86.4628 12.7338 1101 92.7657 497.485 455.98
3186 0 89.2845 11.3346 1012 96.0158 496.693 453.528
3187 0 90.4332 11.4338 1034 95.7311 497.331 453.846
3188 0 96.3003 15.1609 1460 91.0904 497.421 447.72
3189 0 98.2844 14.6615 1441 92.3636 498.251 450.1
3190 0 99.3219 15.6763 1557 92.2948 499.049 445.084
3191 0 103.243 14.6741 1515 93.4442 498.167 439.95
3192 0 107.32 12.076 1296 97.8326 498.234 439.674
3193 0 108.375 17.3102 1876 93.1354 498.957 441.6
3194 0 117.674 14.9566 1760 94.7335 500.893 440.695
3195 0 119.46 7.94405 949 101.517 500.428 444.153
3196 0 124.35 16.0113 1991 92.2602 501.261 433.564
3197 0 127.307 16.6762 2123 91.4776 500.848 433.312
3198 0 132.46 18.1262 2401 90.1862 501.578 432.773
3199 0 133.276 13.7534 1833 95.1309 502.014 424.358
3200 0 139.804 16.1226 2254 91.1517 501.659 435.709
3201 0 143.526 15.1819 2179 95.4823 502.989 422.2
3202 0 149.971 14.7228 2208 96.6762 502.769 413.057
3203 0 153.471 20.1601 3094 91.3782 501.645 420.393
3204 0 156.712 12.5899 1973 97.929 503.351 428.021
3205 1 93.3809 12.7435 1190 94.5891 502.64 457.087
3206 0 95.3222 10.5117 1002 96.8902 504.4 457.453
3207 0 96.2004 12.7026 1222 94.0237 502.712 459.765
3208 0 99.1273 9.43232 935 98.9636 504.676 457.58
3209 0 107.175 14.8262 1589 91.6558 502.087 460.823
3210 0 109.376 14.7931 1618 93.6193 503.297 448.163
3211 0 110.149 12.474 1374 95.8071 502.972 450.516
3212 0 112.244 15.2792 1715 93.9172 502.717 443.025
3213 0 115.282 14.226 1640 94 501.774 447.295
3214 1 214.025 13.5358 2897 101.578 500.714 392.288
3215 0 210.691 10.2378 2157 105.625 499.757 390.833
3216 1 123.343 13.5394 1670 95.5491 500.729 443.529
3217 0 130.551 11.8038 1541 98.159 499.03 438.336
3218 0 135.905 13.009 1768 97.2772 498.282 427.846
3219 0 139.783 13.013 1819 98.3002 495.905 432.322
3220 0 141.694 13.2892 1883 97.3208 495.104 423.066
3221 1 79.4168 11.3704 903 95.6656 495.251 457.708
3222 0 80.3364 17.0906 1373 91.0044 494.87 452.811
3223 0 83.7907 12.1732 1020 95.6529 494.415 458.057
3224 0 85.2828 14.7978 1262 94.7908 493.514 453.631
3225 0 89.4989 13.2069 1182 95.4924 495.036 454.574
3226 0 89.5364 14.374 1287 95.1064 493.121 452.426
3227 0 94.7962 16.277 1543 93.4621 494.511 451.344
3228 0 98.5077 15.948 1571 94.7651 494.203 445.903
3229 0 100.546 12.4719 1254 99.7161 494.242 441.681
3230 0 103.483 13.4805 1395 97.8315 494.379 444.571
3231 0 108.974 17.2702 1882 94.7179 495.251 455.773
3232 0 113.875 15.1657 1727 99.414 495.418 443.007
3233 0 113.875 15.2447 1736 150.732 495.427 443.091
3234 0 121.873 17.7234 2160 94.8167 496.58 439.948
3235 0 124.137 16.5382 2053 96.2031 497.528 439.401
3236 0 132.074 22.3133 2947 89.8731 498.232 438.676
3237 0 131.815 16.7811 2212 96.189 498.642 431.675
3238 0 137.975 17.2422 2379 95.3913 498.639 434.127
3239 1 74.2446 12.1625 903 99.5991 497.651 460.07
3240 0 81.4367 13.6302 1110 98.4478 498.823 458.625
3241 0 81.4238 13.5341 1102 150.025 499.836 458.571
3242 0 85.4589 15.095 1290 92.6969 502.717 450.913
3243 0 86.1035 12.9728 1117 95.3581 503.385 449.875
3244 0 88.3302 13.4835 1191 95.8984 503.655 452.34
3245 0 95.2304 16.0243 1526 93.9463 503.456 458.794
3246 0 97.3692 16.5453 1611 95.1409 505.029 450.924
3247 0 97.2039 13.6106 1323 99.7113 503.369 447.955
3248 0 100.232 10.7949 1082 103.21 503.053 449.071
3249 0 105.402 11.6791 1231 101.754 504.246 450.154
3250 0 110.229 14.3791 1585 97.9237 504.123 451.911
3251 0 112.23 15.6732 1759 95.7919 503.982 453.894
3252 0 112.23 15.6287 1754 136.154 503.969 453.873
3253 0 119.278 14.7973 1765 96.3501 503.369 444.006
3254 0 127.245 16.7629 2133 93.0511 502.938 448.224
3255 0 125.289 14.4226 1807 97.0122 504.039 440.36
3256 0 132.267 16.1114 2131 95.2726 502.563 436.727
3257 1 75.4255 10.3546 781 94.79 501.682 470.746
3258 0 82.7345 12.5462 1038 93.3516 501.709 460.998
3259 0 76.3797 8.81124 673 99.5126 502.052 457.021
3260 0 80.44 7.90652 636 101.818 500.906 450.756
3261 0 87.4707 17.5259 1533 90.6986 499.852 450.469
3262 0 92.7312 15.9709 1481 90.8548 499.242 456.141
3263 0 93.4585 17.3339 1620 91.058 499.013 448.21
3264 0 96.8235 13.5814 1315 92.8487 498.877 454.884
3265 0 98.4001 12.1748 1198 96.2596 499.055 437.171
3266 0 96.7028 13.8465 1339 95.2763 498.246 441.692
3267 0 104.621 12.9515 1355 95.217 497.638 444.892
3268 0 106.547 11.4504 1220 96.9639 497.076 437.384
3269 0 114.056 10.9069 1244 96.0498 496.409 435.623
3270 0 112.4 13.452 1512 95.2249 496.555 432.559
3271 0 113.323 11.8334 1341 98.3535 496.167 426.776
3272 0 118.024 14.7597 1742 94.2491 496.669 424.873
3273 0 127.702 15.6066 1993 93.1776 496.605 426.47
3274 0 132.612 13.7771 1827 95.9814 496.626 418.525
3275 0 128.656 14.7526 1898 95.4378 497.617 417.778
3276 1 139.776 15.2459 2131 95.2572 497.6 416.097
3277 1 79.5156 15.0034 1193 91.15 498.783 455.201
3278 0 79.5156 15.0914 1200 116.031 498.77 455.208
3279 0 85.3253 12.9504 1105 99.8552 500.393 447.043
3280 0 87.5134 12.5352 1097 100.768 502.541 442.769
3281 0 91.3739 16.6678 1523 96.0519 501.389 447.327
3282 0 93.4714 16.3579 1529 96.4088 501.951 447.368
3283 0 93.4714 16.3793 1531 135.696 500.927 447.544
3284 0 102.583 14.0276 1439 99.5865 503.864 445.502
3285 0 104.725 14.8866 1559 99.5362 504.715 440.721
3286 0 108.611 14.9801 1627 99.4057 504.936 445.159
3287 0 111.495 15.7855 1760 99.5523 504.601 438.161
3288 0 113.348 14.2923 1620 100.987 506.491 443.717
3289 0 121.388 16.8633 2047 96.9253 505.593 442.571
3290 0 119.246 15.12 1803 100.48 507.698 438.776
3291 0 123.161 16.5881 2043 98.5296 506.668 441.669
3292 0 127.295 14.2425 1813 102.386 505.405 432.842
3293 1 74.1743 15.4501 1146 95.6396 506.161 467.71
3294 0 73.4162 14.4246 1059 95.4986 504.549 458.924
3295 0 77.3288 15.9837 1236 94.5324 503.193 460.184
3296 0 79.1828 13.0331 1032 101.241 501.091 456.143
3297 0 85.434 12.8754 1100 100.464 501.46 458.345
3298 0 87.3858 18.2409 1594 95.4172 501.295 450.393
3299 0 89.3266 18.1805 1624 95.585 501.088 452.637
3300 0 92.2198 19.2367 1774 94.2435 501.069 454.851
3301 0 95.2926 19.162 1826 94.6271 500.175 451.389
3302 0 98.3631 19.2043 1889 95.1482 500.112 446.274
3303 0 101.232 18.6996 1893 95.888 498.669 447.855
3304 0 107.523 16.9823 1826 96.8877 498.089 440.828
3305 0 109.292 14.3378 1567 100.213 498.623 443.212
3306 0 111.254 15.7747 1755 98.7066 498.401 441.287
3307 0 116.349 14.6455 1704 97.4466 497.35 437.013
3308 0 120.126 15.8917 1909 96.6186 497.021 436.476
3309 0 122.252 11.4436 1399 101.385 496.936 423.442
3310 0 127.37 15.0113 1912 97.0141 496.768 430.215
3311 1 69.2278 10.5738 732 101.751 496.503 454.672
3312 0 73.3304 11.4141 837 99.6798 496.342 454.26
3313 0 74.3839 12.3548 919 99.8607 498.184 447.777
3314 0 78.247 14.3903 1126 96.754 496.552 452.107
3315 0 79.2871 14.088 1117 95.4978 498.766 452.84
3316 0 77.2189 10.7875 833 98.7755 497.604 453.938
3317 0 82.4024 20.6911 1705 89.112 496.59 453.119
3318 0 85.3248 12.0715 1030 96.6291 497.884 453.184
3319 0 94.3463 15.9095 1501 92.1599 497.77 451.385
3320 0 93.4186 19.1611 1790 91.4073 499.351 445.758
3321 0 97.4009 17.0122 1657 93.4943 500.415 443.817
3322 0 95.5557 14.5883 1394 96.7704 500.806 445.339
3323 0 102.58 13.9501 1431 96.9168 500.386 444.718
3324 0 104.491 17.322 1810 93.984 501.528 441.383
3325 0 107.487 13.0993 1408 98.6008 502.234 443.521
3326 0 113.628 17.1173 1945 94.7157 502.993 442.901
3327 0 113.274 15.0431 1704 97.5505 503.746 441.428
3328 0 113.173 12.1319 1373 100.896 503.81 442.822
3329 0 121.582 19.7644 2403 93.2942 503.394 437.857
3330 0 126.749 13.9882 1773 100.078 504.117 433.123
3331 0 131.732 18.7806 2474 93.8573 503.905 433.347
3332 1 79.741 15.1741 1210 95.0612 504.936 460.178
3333 0 79.4703 14.9364 1187 96.6622 503.482 454.027
3334 0 82.5993 16.7314 1382 93.7178 504.867 457.376
3335 0 81.4746 13.808 1125 97.9867 502.909 456.007
3336 0 86.6462 14.9458 1295 96.9884 504.249 451.2
3337 0 90.4801 17.9266 1622 93.5604 504.092 455.416
3338 0 94.7085 20.7479 1965 91.0356 503.916 451.465
3339 0 96.8227 15.8434 1534 95.1362 502.755 457.877
3340 0 98.5453 15.536 1531 97.083 503.639 454.838
3341 0 100.951 16.6418 1680 97.5566 502.467 446.015
3342 0 106.551 13.2519 1412 100.735 502.076 447.22
3343 0 108.138 15.6004 1687 98.1725 501.975 440.499
3344 0 108.521 19.1115 2074 95.7637 501.345 439.907
3345 0 113.695 18.3386 2085 96.3938 501.742 439.594
3346 0 115.488 17.872 2064 97.7728 499.769 433.658
3347 0 120.091 15.3884 1848 99.9443 501.53 435.607
3348 0 123.941 14.0631 1743 102.005 501.037 426.205
3349 0 127.43 17.6489 2249 97.1458 500.358 433.901
3350 1 68.5606 12.427 852 97.4237 499.082 457.834
3351 0 71.2985 13.9414 994 98.9256 499.031 446.908
3352 0 75.3209 13.7943 1039 98.2474 498.897 448.32
3353 0 75.1819 18.954 1425 92.9116 498.874 455.888
3354 0 79.0936 16.9167 1338 94.9933 498.191 452.28
3355 0 81.3442 15.8954 1293 97.2297 497.93 449.206
3356 0 82.1182 15.7578 1294 98.2141 497.641 444.271
3357 0 86.1688 13.7405 1184 101.014 497.371 440.981
3358 0 87.2426 16.9183 1476 97.3855 497.627 441.659
3359 0 90.1587 13.1989 1190 101.261 497.902 443.751
3360 0 96.3106 17.807 1715 95.7918 497.89 436.531
3361 0 94.1164 16.469 1550 97.0826 499.581 443.199
3362 0 100.287 21.5382 2160 92.8824 499.291 435.013
3363 0 101.273 14.9891 1518 101.154 500.708 426.48
3364 0 103.224 13.4368 1387 103.122 500.392 432.718
3365 0 107.602 17.2673 1858 99.9796 502.151 426.069
3366 0 111.524 18.5701 2071 99.0097 500.736 425.796
3367 0 113.423 18.2238 2067 99.7987 502.057 425.473
3368 0 117.719 15.4775 1822 103.63 503.177 423.587
3369 0 120.785 12.6092 1523 107.108 502.882 424.271
3370 0 126.734 15.6233 1980 103.516 503.921 417.38
3371 0 128.527 20.3693 2618 98.5626 504.726 419.036
3372 0 136.742 16.5933 2269 103.001 504.795 410.56
3373 1 81.5515 16.37 1335 100.01 503.814 450.292
3374 0 84.4094 12.5934 1063 102.364 506.24 449.325
3375 0 88.1723 13.4736 1188 98.7567 507.92 451.638
3376 0 90.2597 13.2839 1199 99.2102 508.155 451.379
3377 0 93.2708 12.3726 1154 100.657 507.704 446.133
3378 0 95.2433 8.54654 814 102.94 507.165 454.241
3379 0 102.426 13.2583 1358 97.9875 506.104 450.446
3380 0 104.456 14.9823 1565 96.6569 506.768 449.576
3381 0 105.262 13.1387 1383 100.361 506.497 440.458
3382 0 109.299 10.7229 1172 102.224 504.85 442.604
3383 0 113.643 10.3306 1174 101.298 505.657 451.746
3384 0 119.514 13.5717 1622 98.8859 504.681 439.854
3385 0 125.38 13.6545 1712 98.3137 503.833 443.679
3386 0 125.389 11.0935 1391 100.118 503.868 445.38
3387 1 74.4727 14.1126 1051 91.295 502.765 470.198
3388 0 74.8663 13.6377 1021 93.8296 502.763 457.265
3389 0 73.5404 10.5656 777 96.3539 500.795 462.366
3390 0 76.3954 12.4484 951 95.9064 499.735 462.712
3391 0 78.4323 12.1634 954 96.8805 500.406 456.8
3392 0 82.7043 14.8118 1225 93.9192 499.678 454.838
3393 0 81.3582 15.315 1246 94.2376 499.974 454.726
3394 0 87.5826 16.807 1472 92.4864 500.648 453.632
3395 0 87.6354 13.1682 1154 95.8744 499.539 456.167
3396 0 89.3767 14.299 1278 95.0274 500.157 454.949
3397 0 91.3486 14.0998 1288 97.1405 499.612 450.586
3398 0 96.5584 13.5876 1312 97.548 500.419 447.014
3399 0 105.613 19.1738 2025 90.8874 500.083 448.488
3400 0 102.565 12.2459 1256 98.3376 501.175 448.362
3401 0 106.57 16.2992 1737 95.1439 500.172 441.937
3402 0 109.553 17.0146 1864 95.405 499.541 437.292
3403 0 110.281 15.0796 1663 98.4925 500.987 437.989
3404 0 113.331 16.1915 1835 96.7095 500.775 439.423
3405 0 120.367 14.1983 1709 98.1252 503.054 433.472
3406 1 65.2053 19.0475 1242 89.7391 502.002 458.11
3407 0 69.2875 16.1934 1122 90.9501 502.349 460.289
3408 0 72.3526 15.3692 1112 92.6439 503.777 455.826
3409 0 73.2617 13.3767 980 96.898 505.069 452.144
3410 0 74.3116 13.5645 1008 96.7788 503.832 445.972
3411 0 78.9656 14.9559 1181 94.5292 504.237 443.368
3412 0 77.2971 17.1805 1328 94.2018 503.945 439.472
3413 0 79.5951 13.9456 1110 97.7874 505.656 440.596
3414 0 79.5951 13.9707 1112 130.038 508.62 440.635
3415 0 85.8805 14.3222 1230 98.9041 505.503 438.086
3416 0 87.4987 11.4173 999 102.276 505.795 438.197
3417 0 90.6134 16.2559 1473 97.8927 504.914 428.986
3418 0 94.434 20.0246 1891 94.1417 505.785 438.552
3419 0 97.9751 17.1778 1683 98.3981 505.7 446.134
3420 0 102.165 17.3836 1776 97.1926 504.739 448.099
3421 0 102.818 18.8683 1940 95.95 503.937 446.392
3422 0 105.377 13.7791 1452 101.925 504.015 444.865
3423 0 111.682 14.4786 1617 102.286 504.373 438.919
3424 0 116.808 17.1992 2009 98.4236 505.927 440.757
3425 0 118.448 16.598 1966 98.2162 505.211 441.496
3426 0 125.199 17.58 2201 96.4493 505.43 437.975
3427 1 68.5834 13.5893 932 98.8337 502.927 457.608
3428 0 70.4372 9.46943 667 104.861 503.196 454.106
3429 0 76.6919 17.6551 1354 90.774 503.224 462.117
3430 0 76.4131 15.8742 1213 97.0882 502.532 446.162
3431 0 74.7102 9.87817 738 104.267 502.446 452.562
3432 0 79.6577 11.4992 916 102.169 500.304 449.737
3433 0 83.5492 16.3377 1365 97.1897 501.021 445.851
3434 0 84.2194 13.1324 1106 100.48 500.733 448.684
3435 0 83.5898 9.3911 785 104.601 501.739 449.899
3436 0 93.922 14.7569 1386 98.3997 501.994 445.025
3437 0 94.0602 15.0329 1414 100.175 500.528 439.219
3438 0 96.6938 12.1828 1178 103.654 499.656 435.555
3439 0 102.873 12.4036 1276 101.672 499.733 439.079
3440 0 103.953 12.9096 1342 101.77 499.56 433.707
3441 0 105.827 16.0356 1697 99.4361 499.847 425.975
3442 1 63.8734 13.9808 893 96.2296 500.319 455.353
3443 0 68.6454 15.1795 1042 94.2917 501.131 452.64
3444 0 62.3392 20.2441 1262 90.4913 498.494 452.33
3445 0 69.5511 11.5311 802 96.8716 500.628 450.68
3446 0 69.5508 9.47509 659 101.693 501.255 445.187
3447 0 72.0399 9.92505 715 101.004 501.972 442.772
3448 0 77.6035 13.6721 1061 96.4797 501.788 448.994
3449 0 78.1983 11.1511 872 100.916 502.115 446.585
3450 0 82.2291 14.0948 1159 98.0828 502.736 444.659
3451 0 83.0863 15.6825 1303 97.1312 502.19 445.66
3452 0 81.4326 11.1872 911 104.221 500.757 440.628
3453 0 85.421 16.1202 1377 99.931 503.009 435.513
3454 0 92.2857 16.3189 1506 98.9183 502.813 435.796
3455 0 91.0409 14.2683 1299 101.986 505.708 438.075
3456 0 93.7234 13.4545 1261 103.982 505.274 436.047
3457 0 98.1846 14.3403 1408 102.72 504.313 433.646
3458 0 103.972 15.0714 1567 100.669 504.673 438.543
3459 0 98.038 15.8 1549 102.591 504.167 428.292
3460 0 105.487 16.3528 1725 100.297 504.649 435.495
3461 0 113.919 15.9762 1820 99.2863 505.634 437.64
3462 0 111.067 11.1734 1241 106.915 505.731 432.137
3463 0 118.875 17.2618 2052 99.6896 504.892 432.496
3464 0 118.875 17.3375 2061 134.413 503.919 432.729
3465 1 136.33 12.9025 1759 101.562 505.498 431.115
3466 0 136.001 16.0954 2189 100.239 504.635 425.161
3467 0 136.038 16.6571 2266 100.649 503.673 426.827
3468 0 144.452 15.1469 2188 102.605 504.583 422.371
3469 0 149.111 15.1632 2261 103.953 502.648 413.172
3470 0 153.038 11.2978 1729 107.349 503.297 418.487
3471 0 156.156 10.8737 1698 109.413 502.638 407.372
3472 1 95.6742 14.6434 1401 98.8594 501.632 450.011
3473 0 95.4842 12.2533 1170 103.326 501.354 435.277
3474 0 97.5558 13.0899 1277 101.645 500.948 440.067
3475 0 103.694 12.9516 1343 101.262 500.419 441.95
3476 0 102.703 15.9294 1636 98.2011 499.795 437.875
3477 0 109.05 12.7006 1385 102.317 499.451 437.337
3478 0 110.95 18.5219 2055 95.6599 499.49 439.042
3479 0 116.669 18.7367 2186 94.6144 499.163 434.415
3480 0 115.392 14.4637 1669 100.004 498.954 433.016
3481 0 122.967 14.4999 1783 98.9372 498.093 431.873
3482 1 226.436 13.8759 3142 103.051 498.482 374.122
3483 1 135.844 16.5705 2251 95.4371 498.737 434.54
3484 1 76.6409 13.1131 1005 94.3841 499.089 457.74
3485 0 80.384 12.5274 1007 92.8709 498.572 454.747
3486 0 80.1484 19.7384 1582 89.4962 496.957 451.485
3487 0 84.4268 13.0054 1098 94.3889 496.676 454.44
3488 0 86.2495 16.6957 1440 91.6382 497.704 450.208
3489 0 83.3326 11.4601 955 99.6272 497.643 441.352
3490 0 90.1353 14.1565 1276 94.4107 497.648 446.815
3491 0 97.7737 21.9282 2144 87.1684 498.016 442.498
3492 0 99.3135 17.1377 1702 93.926 498.146 441.205
3493 0 99.1013 13.1482 1303 97.5526 497.64 447.629
3494 0 104.296 15.4272 1609 96.3257 498.736 441.836
3495 0 104.398 13.9658 1458 97.5096 498.298 442.66
3496 0 110.397 17.3647 1917 94.9358 499.634 433.778
3497 0 113.227 15.756 1784 95.8644 498.835 436.759
3498 0 111.468 9.78754 1091 104.018 500.101 435.173
3499 0 121.234 16.4888 1999 95.2346 500.291 434.085
3500 0 122.453 17.1821 2104 92.8489 500.681 439.002
3501 1 65.2153 5.85752 382 102.644 503.406 446.008
3502 0 66.2285 9.95039 659 99.1684 504.947 443.695
3503 0 75.1583 15.6204 1174 89.3952 505.998 454.205
3504 0 80.557 10.8743 876 95.3767 506.802 455.372
3505 0 79.1515 12.3308 976 94.7541 506.148 458.547
3506 0 80.1457 11.2295 900 96.9978 505.964 454.831
3507 0 86.4269 10.7258 927 95.2805 505.413 463.31
3508 0 86.1756 13.2404 1141 93.4391 505.211 462.266
3509 0 88.1014 12.0656 1063 96.8485 505.153 456.287
3510 0 89.2094 11.4674 1023 97.4428 505.969 456.248
3511 0 97.1813 15.4145 1498 93.6696 505.118 450.808
3512 0 95.1462 11.7083 1114 96.9309 504.563 460.674
3513 0 100.19 15.0614 1509 94.9768 502.852 454.995
3514 0 105.454 15.6561 1651 94.4736 502.035 452.281
3515 0 106.219 13.2462 1407 97.6105 501.834 454.276
3516 0 113.312 16.459 1865 94.4568 501.431 452.501
3517 0 112.284 18.2573 2050 93.9283 500.813 451.869
3518 0 113.216 12.931 1464 101.397 499.781 445.375
3519 0 120.389 15.425 1857 98.7216 499.123 440.11
3520 0 123.444 15.3835 1899 97.9247 499.614 445.785
3521 0 130.413 19.0626 2486 93.9252 499.059 437.597
3522 0 134.553 16.6626 2242 97.5656 500.381 438.256
3523 0 139.354 15.9665 2225 96.9699 498.563 444.036
3524 1 84.4044 12.1202 1023 96.6051 499.647 465.76
3525 0 85.1723 13.1498 1120 96.4527 498.025 465.367
3526 0 88.5977 12.0883 1071 98.9188 497.082 451.264
3527 0 89.7156 10.1989 915 99.353 497.551 452.043
3528 0 88.4404 12.1664 1076 97.5019 497.924 442.991
3529 0 95.0111 11.1882 1063 97.6717 497.064 448.282
3530 0 94.4117 10.1259 956 99.3431 497.81 445.334
3531 0 98.6764 16.6301 1641 92.7386 497.249 446.142
3532 0 96.7863 13.7003 1326 96.454 497.608 443.917
3533 0 102.608 16.2755 1670 95.4162 496.459 438.214
3534 0 98.2458 9.1098 895 103.125 498.146 438.318
3535 1 112.767 15.4744 1745 96.8848 497.256 431.718
3536 0 116.615 13.5575 1581 101.361 498.592 430.41
3537 0 116.486 16.9892 1979 98.5912 498.17 429.648
3538 0 121.567 13.6139 1655 102.837 499.167 428.198
3539 0 124.583 15.0261 1872 101.302 499.322 431.676
3540 0 128.616 16.1956 2083 101.209 499.697 426.598
3541 0 136.917 18.6829 2558 97.518 499.344 435.217
3542 0 132.368 14.6788 1943 104.647 500.224 420.594
3543 1 72.2682 15.0135 1085 98.0986 500.503 457.204
3544 0 75.057 12.9235 970 104.09 499.354 457.701
3545 0 78.1794 15.0423 1176 102.507 499.743 454.321
3546 0 80.1193 15.3895 1233 101.932 500.037 454.553
3547 0 81.2258 12.4837 1014 106.2 499.238 452.444
3548 1 166.588 17.6303 2937 104.277 501.779 411.536
3549 1 90.5055 16.7172 1513 101.627 501.147 448.951
3550 0 90.4737 16.6899 1510 101.117 500.236 455.818
3551 0 93.2093 13.7003 1277 106.302 499.581 452.37
3552 0 94.3033 13.1385 1239 108.153 499.952 448.976
3553 0 100.375 14.3263 1438 105.793 500.607 451.604
3554 0 101.447 16.4914 1673 103.98 499.756 449.612
3555 0 103.398 18.7529 1939 101.381 500.981 449.134
3556 0 107.385 14.9835 1609 105.521 499.474 443.846
3557 0 109.343 16.1511 1766 102.16 500.809 452.496
3558 0 114.344 15.2784 1747 103.76 499.543 442.214
3559 0 120.494 14.4986 1747 102.951 498.779 449.373
3560 0 123.536 15.9711 1973 102.929 498.808 440.39
3561 0 131.346 16.2929 2140 100.806 497.692 446.376
3562 1 74.2236 14.9683 1111 103.03 495.977 465.594
3563 0 75.4036 13.1824 994 105.233 496.464 465.292
3564 0 80.4783 15.9298 1282 100.119 498.051 464.588
3565 0 80.1732 12.6975 1018 105.507 499.734 465.873
3566 0 83.2562 13.3684 1113 105.338 499.185 464.31
3567 0 87.2169 14.1486 1234 102.848 498.582 465.517
3568 0 86.2034 15.0574 1298 103.855 499.088 459.438
3569 0 92.1951 16.3675 1509 100.661 498.355 457.941
3570 0 90.141 12.8465 1158 106.151 497.847 453.423
3571 0 95.1936 20.0434 1908 95.4256 497.003 459.842
3572 0 99.1607 15.9337 1580 101.968 496.455 453.274
3573 0 100.221 17.162 1720 101.558 496.49 450.666
3574 0 105.357 15.6515 1649 101.666 497.318 454.21
3575 0 107.25 16.5221 1772 101.744 497.463 447.716
3576 0 109.173 16.8997 1845 100.58 498.276 447.571
3577 0 111.374 15.9642 1778 102.065 497.861 438.831
3578 0 116.168 18.0083 2092 98.7921 498.634 440.574
3579 0 116.183 14.3825 1671 103.71 498.686 438.664
3580 0 122.152 14.8094 1809 103.238 497.55 433.015
3581 0 125.404 15.3185 1921 102.525 498.311 433.984
3582 0 128.359 15.7448 2021 101.48 498.661 434.743
3583 0 135.396 18.1689 2460 99.2268 498.785 433.27
3584 0 139.389 13.7027 1910 105.598 501.034 427.566
3585 0 142.512 15.0162 2140 104.021 498.363 425.887
3586 1 80.3068 15.2291 1223 100.2 499.225 459.271
3587 0 81.0986 14.9448 1212 102.729 499.581 456.051
3588 0 83.3385 13.1512 1096 104.927 499.651 456.432
3589 0 87.2141 17.715 1545 99.2777 499.804 452.233
3590 0 91.3409 15.152 1384 102.357 500.059 453.432
3591 0 90.1948 13.3489 1204 106.937 501.295 449.266
3592 0 96.3254 14.4925 1396 105.247 501.335 450.34
3593 0 97.3783 12.2101 1189 107.916 501.521 451.433
3594 0 99.3781 16.563 1646 104.369 500.581 447.183
3595 0 99.3781 16.6435 1654 142.274 499.59 447.123
3596 0 108.421 18.6218 2019 102.144 500.874 451.034
3597 0 105.538 13.6349 1439 110.914 501.472 442.689
3598 0 114.44 16.926 1937 104.998 501.093 451.687
3599 0 120.697 17.9209 2163 103.552 500.2 446.538
3600 0 121.892 14.2914 1742 106.85 500.406 443.104
3601 0 124.78 13.3355 1664 109.281 500.716 437.946
3602 0 133.823 20.7289 2774 99.641 498.99 446.204
3603 0 136.734 16.2945 2228 107.443 500.055 431.302
3604 0 139.675 16.209 2264 107.292 498.254 435.072
3605 0 142.509 14.7289 2099 109.911 497.804 434.468
3606 0 149.716 16.2441 2432 108.114 497.016 430.518
3607 0 155.062 14.6457 2271 110.224 497.196 429.729
3608 0 159.048 14.3479 2282 112.219 497.568 420.139
3609 0 165.207 16.1374 2666 108.857 497.316 419.426
3610 0 170.738 18.9354 3233 105.276 496.335 419.273
3611 1 87.5555 14.7221 1289 104.988 498.222 458.9
3612 0 90.8239 13.0472 1185 107.084 495.933 456.724
3613 0 92.5871 15.3369 1420 104.513 496.654 455.489
3614 0 94.7888 16.753 1588 102.239 495.967 453.46
3615 0 93.526 14.0496 1314 107.485 496.545 447.417
3616 0 97.6242 13.3778 1306 108.377 496.3 448.165
3617 0 102.768 13.9732 1436 107.676 496.313 447.82
3618 0 105.734 13.657 1444 108.738 496.516 442.059
3619 0 111.102 15.7783 1753 102.958 497.546 441.869
3620 0 115.668 19.7202 2281 98.1982 496.433 436.032
3621 0 120.132 15.7326 1890 103.06 496.689 433.625
3622 1 55.3727 12.5152 693 103.848 496.737 461.674
3623 0 59.6664 13.7263 819 100.138 497.781 462.447
3624 0 59.4196 16.1731 961 98.2768 498.377 459.31
3625 0 59.5915 12.6864 756 104.655 500.655 456.108
3626 0 62.3348 15.0157 936 102.175 500.674 463.104
3627 0 66.2286 15.4616 1024 101.613 500.869 462.544
3628 0 64.2752 10.5328 677 110.366 502.542 462.177
3629 0 67.5333 14.8075 1000 103.377 501.453 463.767
3630 0 67.5333 14.8371 1002 132.177 500.455 463.628
3631 0 74.8775 16.1597 1210 102.032 501.389 459.469
3632 0 73.6809 15.9064 1172 104.059 503.573 458.233
3633 0 76.7512 15.3222 1176 104.975 501.974 455.024
3634 0 79.8853 17.2998 1382 100.769 502.41 459.599
3635 0 82.9308 16.158 1340 103.225 503.193 456.272
3636 0 85.2214 18.1292 1545 101.369 502.556 456.839
3637 0 85.7812 15.796 1355 104.044 502.185 451.818
3638 0 89.8857 14.1847 1275 106.025 504.002 444.272
3639 0 92.5395 14.9558 1384 105.209 503.37 449.204
3640 0 89.7667 10.3602 930 111.647 503.923 447.527
3641 0 97.6644 14.0788 1375 107.593 503.004 446.667
3642 0 102.428 11.4031 1168 109.615 504.811 447.835
3643 1 55.2508 9.30304 514 109.514 504.148 464.611
3644 0 58.2925 9.74396 568 108.412 503.588 464.148
3645 0 63.1646 11.478 725 102.429 502.741 464.701
3646 0 63.3084 10.4252 660 107.552 502.782 463.561
3647 0 64.2928 11.8831 764 105.626 502.275 463.702
3648 0 68.5712 14.4521 991 104.298 501.094 467.923
3649 0 73.2331 19.3219 1415 97.1293 499.955 469.105
3650 0 71.325 11.3565 810 107.34 499.82 465.663
3651 0 74.6253 11.216 837 107.693 499.52 463.657
3652 0 76.3216 13.1418 1003 105.446 498.476 461.612
3653 0 78.9024 13.1175 1035 105.11 498.462 460.757
3654 0 83.65 17.9677 1503 97.8144 496.305 462
3655 0 81.4729 15.318 1248 103.427 496.471 453.596
3656 0 84.4329 18.2038 1537 98.89 496.834 456.926
3657 0 88.6781 13.8366 1227 104.531 496.196 449.762
3658 0 92.8474 18.0511 1676 98.392 495.388 451.998
3659 0 92.9373 14.3538 1334 102.502 495.409 450.103
3660 0 91.7391 12.9062 1184 107.109 496.929 444.49
3661 0 99.2355 15.1659 1505 102.645 496.446 444.702
3662 0 98.9149 12.5057 1237 107.732 497.838 439.019
3663 0 104.857 18.1962 1908 97.6777 496.211 445.404
3664 0 102.743 15.1251 1554 103.077 497.324 439.605
3665 0 108.681 15.5317 1688 102.303 497.108 436.675
3666 0 113.781 17.6392 2007 98.8216 497.854 439.516
3667 0 113.573 15.2941 1737 103.029 498.359 434.801
3668 0 115.744 18.2385 2111 99.262 498.427 434.022
3669 0 118.674 13.1873 1565 106.792 499.034 425.746
3670 0 124.739 15.9212 1986 103.544 499.755 418.409
3671 0 130.854 18.0812 2366 99.9954 499.692 425.751
3672 0 129.652 13.5748 1760 105.999 501.733 421.468
3673 0 136.634 16.1014 2200 103.687 501.748 420.549
3674 0 143.879 12.7746 1838 107.797 502.254 417.372
3675 0 145.045 16.2708 2360 104.636 501.882 415.772
3676 0 150.713 16.4484 2479 104.263 502.457 417.025
3677 0 157.613 15.9949 2521 105.588 502.634 412.527
3678 0 164.718 13.1315 2163 109.762 503.89 402.777
3679 1 95.5167 11.621 1110 104.922 501.881 451.625
3680 0 98.2465 10.9826 1079 107.095 502.063 446.308
3681 0 103.327 13.888 1435 103.631 503.398 443.705
3682 0 105.342 15.8721 1672 100.604 502.529 451.459
3683 0 110.304 14.8407 1637 103.211 503.567 447.117
3684 0 113.672 14.7177 1673 103.048 502.28 450.83
3685 0 117.537 10.7286 1261 109.897 502.055 447.049
3686 0 121.328 14.2176 1725 105.79 501.386 443.386
3687 0 128.468 14.5328 1867 105.253 501.343 437.606
3688 0 129.486 15.0673 1951 105.101 500.73 438.834
3689 0 136.534 18.4203 2515 100.92 500.835 438.687
3690 1 76.1391 14.4341 1099 98.4295 497.626 469.145
3691 0 82.2406 12.5364 1031 102.218 499.318 462.49
3692 0 82.1233 13.2118 1085 102.162 498.14 461.139
3693 0 87.1328 13.795 1202 100.824 496.988 459.956
3694 0 88.3555 13.9776 1235 101.64 497 456.531
3695 0 88.455 8.79543 778 103.432 497.54 462.515
3696 0 89.372 17.1866 1536 96.1452 497.377 457.689
3697 0 92.4352 8.96845 829 105.84 496.828 455.064
3698 0 97.5089 11.4041 1112 102.636 496.532 454.528
3699 0 99.3915 14.7699 1468 99.7582 496.254 447.74
3700 0 100.585 9.42482 948 107.155 497.002 447.382
3701 0 101.318 12.7816 1295 103.854 496.396 445.593
3702 0 105.749 10.4965 1110 107.203 496.354 442.654
3703 0 106.57 14.2629 1520 102.052 496.764 442.098
3704 0 113.407 14.6199 1658 103.879 496.95 441.062
3705 0 113.395 14.5333 1648 103.072 497.69 434.374
3706 0 116.715 14.7368 1720 104.313 498.291 438.723
3707 0 122.576 15.729 1928 101.837 497.922 437.67
3708 0 125.381 14.4679 1814 105.599 498.128 431.396
3709 0 127.635 14.04 1792 105.018 498.689 430.945
3710 0 134.772 16.1087 2171 102.029 496.997 423.376
3711 0 133.791 12.7662 1708 107.626 499.27 424.174
3712 1 83.3201 9.21746 768 105.891 499.997 450.436
3713 0 83.1126 12.441 1034 103.662 501.409 448.784
3714 0 86.3258 13.2869 1147 101.69 500.612 452.063
3715 0 88.2691 11.6802 1031 104.782 501.11 444.831
3716 0 92.283 14.5422 1342 100.041 501.711 449.536
3717 0 95.312 13.0309 1242 102.024 502.564 448.267
3718 0 95.3437 10.2681 979 107.741 503.874 439.805
3719 0 101.56 10.9295 1110 106.552 504.294 443.072
3720 0 105.298 13.4 1411 103.764 504.663 441.987
3721 0 112.495 14.8807 1674 101.953 505.616 440.799
3722 0 113.469 13.3429 1514 103.612 504.221 442.249
3723 0 110.458 11.4795 1268 150.861 503.076 437.736
3724 0 118.333 14.3578 1699 103.838 505.417 438.211
3725 0 122.339 12.122 1483 107.443 505.673 437.442
3726 0 127.55 16.9973 2168 101.138 504.558 436.969
3727 0 135.497 18.5245 2510 97.698 504.205 440.892
3728 1 80.4111 13.1698 1059 102.092 502.962 462.498
3729 0 83.3577 11.9845 999 104.22 502.966 461.853
3730 0 85.7114 11.8187 1013 104.871 502.494 456.63
3731 0 87.5423 13.7419 1203 102.698 503.308 461.222
3732 0 87.7684 12.5102 1098 105.602 502.282 459.32
3733 0 91.6165 13.1745 1207 104.342 501.305 452.849
3734 0 95.6919 14.9542 1431 101.645 500.668 455.178
3735 0 99.3138 16.7348 1662 98.6167 500.693 458.569
3736 0 102.863 17.8198 1833 98.4795 499.147 449.195
3737 0 107.493 17.0151 1829 99.1624 499.865 453.207
3738 0 107.93 14.4167 1556 104.535 498.496 448.863
3739 0 111.867 14.0166 1568 105.138 499.41 438.325
3740 0 117.714 13.7537 1619 105.704 498.28 440.269
3741 0 118.718 14.6902 1744 104.212 498.162 443.627
3742 0 121.782 16.0368 1953 103.346 497.89 440.663
3743 0 125.229 15.8031 1979 103.941 497.608 435.28
3744 0 128.163 16.6351 2132 102.208 496.744 433.545
3745 0 126.56 13.1163 1660 109.092 496.296 419.164
3746 0 134.592 18.2403 2455 99.5006 497.406 430.422
3747 1 79.9566 14.4829 1158 100.33 497.888 447.838
3748 0 84.7214 13.6683 1158 100.81 498.848 452.748
3749 0 83.9519 13.2695 1114 102.823 498.388 444.846
3750 0 88.9541 14.0072 1246 101.93 499.169 446.803
3751 0 91.0272 12.6226 1149 104.032 499.183 444.291
3752 0 93.2722 15.7496 1469 99.1899 499.591 445.88
3753 0 95.4656 13.9108 1328 103.654 499.617 437.994
3754 0 97.7314 17.4867 1709 98.7092 498.779 437.93
3755 0 101.889 14.2312 1450 102.614 500.34 433.846
3756 0 105.597 14.4701 1528 103.792 500.793 436.029
3757 0 106.703 12.3801 1321 106.781 502.258 436.731
3758 0 110.877 17.1992 1907 99.8993 501.997 435.726
3759 0 115.885 19.9766 2315 97.2406 502.006 433.73
3760 0 119.742 15.1827 1818 103.096 502.774 431.683
3761 0 117.849 16.4278 1936 103.657 503.078 431.694
3762 0 123.213 14.1462 1743 108.602 504.885 424.154
3763 0 125.78 12.9035 1623 110.999 504.243 419.853
3764 0 133.858 14.8666 1990 104.866 504.708 428.794
3765 0 139.129 13.9727 1944 107.242 504.446 423.084
3766 0 147.349 15.9485 2350 102.739 503.307 427.991
3767 1 82.7044 14.5579 1204 102.81 505.552 450.506
3768 0 85.9339 20.027 1721 94.9727 503.508 455.472
3769 0 85.4474 16.8057 1436 100.609 504.678 453.573
3770 0 87.4817 15.5118 1357 102.918 503.435 454.101
3771 0 92.5801 14.9708 1386 103.455 503.512 452.427
3772 0 95.9228 12.7915 1227 107.483 503.278 446.338
3773 0 96.7903 11.0755 1072 109.599 504.076 449.111
3774 0 100.556 12.043 1211 107.848 501.628 449.292
3775 0 99.741 11.0185 1099 110.818 502.935 442.344
3776 0 104.863 10.5375 1105 111.498 500.795 443.575
3777 0 111.613 16.0555 1792 103.243 499.964 445.844
3778 0 116.674 16.4818 1923 101.214 499.649 438.937
3779 0 117.877 12.7421 1502 106.842 499.559 438.147
3780 0 123.848 20.1295 2493 96.9828 499.255 427.138
3781 0 119.844 10.7306 1286 111.457 499.052 428.058
3782 0 124.494 14.5549 1812 107.368 499.033 428.924
3783 0 129.667 12.3239 1598 109.288 498.001 426.66
3784 0 136.758 14.1344 1933 107.451 497.474 422.191
3785 0 138.828 13.333 1851 109.009 497.797 418.962
3786 0 145.974 14.8314 2165 106.783 497.737 414.858
3787 1 87.4572 9.99347 874 105.881 495.522 449.585
3788 0 92.6609 11.2669 1044 104.635 496.763 448.12
3789 0 94.2854 16.344 1541 99.1239 497.374 444.807
3790 0 97.2748 13.7754 1340 105.597 495.463 437.66
3791 0 102.492 13.006 1333 106.325 496.747 436.794
3792 0 99.3186 13.3308 1324 106.261 497.628 435.45
3793 0 104.298 12.1095 1263 106.934 496.31 438.318
3794 0 109.187 14.1409 1544 103.99 497.935 433.387
3795 0 109.263 15.8151 1728 102.328 497.337 430.069
3796 0 115.334 14.5924 1683 103.752 497.607 428.516
3797 0 118.636 16.0743 1907 101.123 499.281 428.261
3798 0 120.707 17.2235 2079 100.127 499.333 420.573
3799 0 121.683 17.036 2073 99.9725 498.858 425.298
3800 0 125.319 14.5229 1820 105.198 500.658 415.988
3801 0 127.304 10.848 1381 110.113 499.902 418.443
3802 0 134.551 15.3771 2069 103.685 502.245 419.004
3803 0 137.662 16.3298 2248 102.238 502.045 417.531
3804 0 142.575 13.9926 1995 105.491 503.353 413.938
3805 0 148.415 15.6925 2329 103.188 504.706 413.157
3806 0 155.548 14.2143 2211 104.388 504.402 416.821
3807 0 159.539 15.62 2492 100.383 505.962 415.813
3808 0 164.971 16.5847 2736 102.157 506.048 417.627
3809 0 170.795 18.8647 3222 100.472 505.466 409.03
3810 0 172.754 16.7695 2897 103.683 506.03 403.377
3811 1 103.513 11.8439 1226 103.658 506.793 447.408
3812 0 103.451 13.185 1364 103.747 506.617 444.659
3813 0 111.679 15.5982 1742 100.438 506.358 442.962
3814 0 112.398 15.0625 1693 102.129 504.483 440.817
3815 0 117.606 14.1319 1662 102.151 504.923 445.108
3816 0 120.445 13.9482 1680 103.819 503.728 436
3817 0 120.322 13.9377 1677 102.84 504.504 437.534
3818 1 178.366 12.7042 2266 107.298 502.095 416.914
3819 0 184.743 14.8152 2737 105.02 502.446 413.793
3820 0 192.693 14.562 2806 107.317 500.387 403.118
3821 1 136.391 15.4996 2114 103.107 500.97 425.517
3822 0 142.708 15.395 2197 103.515 499.694 424.39
3823 0 147.365 14.4539 2130 103.545 499.23 423.303
3824 0 154.447 15.3516 2371 101.815 499.172 424.779
3825 0 156.419 15.8548 2480 103.658 498.337 411.195
3826 0 160.393 17.7002 2839 101.887 498.135 410.154
3827 0 161.539 12.7956 2067 109.252 497.849 394.383
3828 0 164.647 14.9896 2468 106.314 497.464 390.274
3829 0 173.533 11.773 2043 109.947 497.45 388.646
3830 1 105.445 13.7797 1453 99.3985 498.21 426.16
3831 0 108.822 11.8358 1288 99.396 497.415 434.211
3832 0 113.19 14.7628 1671 96.6391 498.008 435.387
3833 0 117.338 15.2806 1793 95.4038 498.405 436.318
3834 0 121.313 17.088 2073 93.6363 498.871 432.528
3835 0 123.211 16.5083 2034 93.5442 498.342 438.567
3836 0 124.476 13.7296 1709 98.7771 499.335 431.178
3837 0 125.34 11.2574 1411 102.989 498.817 420.641
3838 0 128.516 10.8625 1396 104.21 499.713 420.694
3839 0 136.505 15.6478 2136 98.942 500.538 418.748
3840 0 140.39 14.5309 2040 100.528 499.663 421.65
3841 1 83.2189 11.5599 962 95.8108 499.018 445.347
3842 0 86.3858 15.0372 1299 92.3487 499.977 447.718
3843 0 90.2963 12.8355 1159 97.95 503.202 444.166
3844 0 91.4071 14.8894 1361 98.6201 503.372 443.629
3845 0 95.2684 14.223 1355 99.4745 504.892 439.929
3846 0 99.2272 15.2781 1516 97.0251 504.055 445.269
3847 0 101.449 14.5689 1478 97.6164 505.185 443.283
3848 0 101.498 14.6899 1491 98.0624 505.241 439.825
3849 0 104.394 12.3666 1291 101.248 505.471 443.172
3850 0 102.232 10.3295 1056 106.643 505.86 433.743
3851 0 109.716 12.5141 1373 103.028 504.95 434.235
3852 0 116.331 17.837 2075 95.6169 504.551 443.135
3853 0 118.549 15.6391 1854 99.9746 505.084 438.957
3854 0 121.43 13.9504 1694 102.498 504.917 432.923
3855 0 123.508 12.3392 1524 104.67 505.296 437.291
3856 0 132.193 17.3988 2300 96.6504 503.284 438.424
3857 0 140.282 14.2285 1996 97.6728 501.792 439.88
3858 1 76.647 17.0783 1309 95.7036 502.583 457.939
3859 0 82.6242 10.929 903 106.233 503.158 453.972
3860 0 86.5675 17.2467 1493 97.3945 502.137 457.561
3861 0 87.44 12.683 1109 104.135 497.994 453.634
3862 0 89.3461 14.9307 1334 99.6057 498.721 461.106
3863 0 93.5852 13.3248 1247 103.428 497.708 448.778
3864 0 97.3106 14.8802 1448 100.717 496.732 453.407
3865 0 100.521 18.225 1832 97.0726 495.747 453.177
3866 0 101.446 13.0809 1327 105.172 496.195 444.347
3867 0 106.599 13.0395 1390 104.203 498.152 444.12
3868 0 103.408 12.001 1241 107.091 498.649 441.473
3869 0 108.533 12.0792 1311 105.499 498.354 446.777
3870 0 102.158 10.2195 1044 109.432 497.824 378.914
3871 1 164.221 13.8107 2268 101.821 496.736 424.597
3872 0 167.874 10.7938 1812 107.711 497.305 419.129
3873 1 120.712 16.56 1999 99.3737 497.086 430.932
3874 0 125.403 16.435 2061 99.9558 498.678 430.396
3875 0 127.919 17.3313 2217 95.8976 497.739 433.194
3876 0 131.704 16.1271 2124 97.8974 497.648 422.221
3877 0 129.556 14.1637 1835 103.939 499.578 421.466
3878 0 135.523 14.5732 1975 102.977 499.826 419.326
3879 0 140.43 16.0079 2248 99.9871 499.953 414.696
3880 0 143.501 15.9859 2294 100.577 500.922 412.977
3881 0 147.591 12.9344 1909 104.242 502.247 413.204
3882 0 153.551 15.9817 2454 100.89 502.014 403.677
3883 0 154.756 14.5391 2250 102.721 502.864 404.692
3884 0 159.612 14.9362 2384 101.466 503.3 409.318
3885 0 165.539 16.3104 2700 100.184 503.108 407.845
3886 0 168.74 12.9845 2191 105.42 505.177 400.263
3887 0 175.619 18.9444 3327 97.3763 504.788 406.952
3888 0 178.71 17.0444 3046 100.002 505.555 402.632
3889 0 183.779 19.0827 3507 98.836 504.366 397.6
3890 0 190.675 17.9625 3425 99.5422 505.121 398.399
