time division length width area intensity CMx CMy
0 0 32.0357 13.7971 442 139.896 358.769 480.095
1 0 34.1023 12.4038 423 138.355 357.532 481.865
2 0 36.272 16.8174 610 127.046 357.264 483.9
3 0 34.1375 13.7385 469 142.588 357.35 479.68
4 0 37.168 16.6003 617 129.481 355.726 480.297
5 0 36.1 13.9889 505 133.347 354.396 478.869
6 0 39.1629 18.3847 720 123.179 352.518 481.15
7 0 41.0486 14.7386 605 132.481 352.977 479.43
8 0 41.1022 15.9359 655 125.49 351.844 478.998
9 0 44.0611 17.9978 793 125.269 350.267 479.707
10 0 44.0656 15.9762 704 130.435 350.087 478.534
11 0 44.0153 13.4499 592 136.373 349.042 477.035
12 0 48.0983 15.9673 768 124.409 348.969 473.871
13 0 46.1089 16.2441 749 127.645 350.164 472.936
14 0 50.1008 15.1095 757 125.02 348.602 470.835
15 0 52.0761 17.1096 891 123.862 348.689 469.237
16 0 52.0387 16.0458 835 126.438 348.616 467.479
17 0 53.0706 16.8832 896 125.398 348.773 466.398
18 0 54.0433 16.2832 880 126.88 349.206 464.509
19 0 61.2491 15.9839 979 118.746 349.16 467.044
20 0 58.319 15.4495 901 125.632 349.476 460.588
21 0 59.0908 14.9939 886 125.261 348.731 462.578
22 0 63.2 16.0759 1016 117.29 348.772 458.316
23 0 65.259 16.4882 1076 116.217 353.269 456.339
24 0 67.2101 15.5036 1042 123.348 352.493 454.44
25 0 70.1505 18.5601 1302 119.029 353.129 451.346
26 0 73.2661 16.8973 1238 120.701 353.099 447.927
27 0 75.3685 16.9434 1277 119.47 354.107 450.233
28 0 79.4007 17.6447 1401 116.086 354.418 451.539
29 1 38.0532 13.2446 504 120.774 354.357 467.587
30 0 39.0179 12.0714 471 122.259 355.93 467.299
31 0 40.0885 13.1459 527 120.869 354.882 466.391
32 0 43.2168 18.1642 785 111.396 356.679 466.013
33 0 44.5167 12.1303 540 118.239 358.037 466.191
34 0 45.3024 13.9728 633 118.513 358.923 464.441
35 0 47.1782 15.8336 747 116.321 359.946 467.088
36 0 49.2965 16.8978 833 112.721 360.505 465.911
37 0 52.1524 15.4547 806 113.909 362.195 466.586
38 0 53.1655 15.875 844 112.301 360.682 466.172
39 0 54.1411 16.5124 894 113.029 362.122 465.389
40 0 56.3585 16.0757 906 108.409 361.132 468.604
41 0 58.1094 14.0081 814 110.478 360.423 470.093
42 0 59.1972 15.9974 947 110.751 359.794 465.237
43 0 62.1936 14.069 875 106.985 359.568 466.794
44 0 64.2451 15.1607 974 108.166 359.723 467.75
45 0 66.1786 15.6093 1033 104.678 359.284 465.566
46 0 67.1044 12.637 848 123.875 358.761 468.749
47 0 71.4052 15.9932 1142 118.038 358.111 466.209
48 0 73.1292 14.7 1075 121.383 357.725 465.652
49 0 77.1975 14.1196 1090 121.433 357.345 464.255
50 0 80.4295 17.4563 1404 117.209 358.214 459.59
51 0 83.1296 15.3014 1272 122.536 356.185 460.731
52 0 85.3935 16.9919 1451 119.671 355.773 459.462
53 0 89.2009 14.1815 1265 123.63 355.111 457.638
54 1 44.326 13.0398 578 122.185 354.353 475.452
55 0 44.3412 11.3664 504 125.385 354.51 474.359
56 0 49.4217 14.6697 725 121.53 353.952 471.019
57 0 52.3378 16.1833 847 116.453 353.038 468.948
58 0 53.2599 13.7252 731 119.702 352.513 471.56
59 0 53.1212 13.6857 727 119.959 350.835 470.911
60 0 55.571 15.0618 837 118.584 351.797 467.572
61 0 57.1019 15.7963 902 114.956 351.222 469.747
62 0 59.2953 17.2526 1023 114.874 351.015 464.988
63 0 61.246 15.6255 957 116.845 350.004 459.55
64 0 64.3349 13.2743 854 119.67 350.587 460.321
65 0 67.2494 14.4834 974 118.185 350.676 458.433
66 0 71.1702 15.7088 1118 115.831 351.411 457.211
67 0 71.1455 14.0838 1002 121.021 351.823 454.33
68 0 72.1426 13.6812 987 122.147 352.873 453.189
69 0 77.34 15.9038 1230 118.211 353.033 451.014
70 0 77.1713 13.7098 1058 121.201 353.833 453.537
71 0 80.1703 15.5294 1245 120.803 353.77 446.98
72 0 83.1839 12.4784 1038 125.855 355.295 446.474
73 0 86.3381 14.8486 1282 121.051 355.347 447.551
74 0 90.4118 16.1705 1462 120.514 356.75 441.016
75 0 94.2301 12.1087 1141 126.154 357.568 445.214
76 0 97.2086 13.6305 1325 125.934 357.857 441.141
77 1 50.1508 10.5282 528 123.896 357.004 468.646
78 0 55.0473 14.0425 773 117.959 358.484 465.612
79 0 54.0313 11.1787 604 126.406 358.161 465.474
80 0 58.061 12.2457 711 119.648 359.556 466.603
81 0 60.0527 13.8545 832 119.083 360.416 465.897
82 0 59.0609 14.9845 885 119.662 360.003 461.621
83 0 62.1263 12.539 779 121.788 360.485 463.782
84 0 65.1773 16.6316 1084 116.594 359.719 461.907
85 0 68.3117 13.5116 923 119.702 360.429 465.572
86 0 69.3896 13.2152 917 121.194 360.004 464.234
87 0 72.1363 13.2804 958 116.865 357.506 466.249
88 0 76.2458 14.3352 1093 115.48 356.866 463.854
89 0 77.4542 10.0188 776 121.094 357.006 466.836
90 0 80.2337 12.4013 995 116.762 356.376 465.358
91 0 84.3806 16.7811 1416 110.496 355.974 461.83
92 0 86.3762 12.1561 1050 117.431 356.995 458.448
93 0 90.3734 15.9228 1439 113.573 356.22 457.531
94 0 93.3387 16.7562 1564 111.087 354.795 458.274
95 1 50.1584 11.8425 594 113.251 353.663 474.86
96 0 51.1126 11.0149 563 117.478 352.497 478.149
97 1 103.333 13.6356 1409 117.544 354.609 450.285
98 0 106.576 11.2783 1202 122.19 353.473 446.663
99 1 55.2151 13.5108 746 114.197 351.743 471.178
100 0 59.1682 13.7912 816 113.107 351.344 472.355
101 0 58.154 12.4669 725 115.788 350.651 470.636
102 0 59.3727 10.7625 639 118.347 349.69 466.16
103 0 65.4004 11.0397 722 115.526 349.651 469.298
104 0 69.291 11.9352 827 113.158 349.834 465.089
105 0 68.3917 11.6827 799 115.583 350.134 460.696
106 0 73.5227 14.2813 1050 111.304 351.007 460.884
107 0 74.2583 13.6146 1011 112.728 349.266 459.093
108 0 75.4248 11.1237 839 117.39 349.317 454.865
109 0 80.3694 14.9684 1203 112.599 349.84 449.344
110 0 87.4125 10.1587 888 115.868 350.461 451.92
111 0 87.298 13.1389 1147 112.127 350.918 446.796
112 0 88.503 15.5249 1374 107.483 351.317 449.622
113 1 178.977 14.3594 2570 118.174 351.886 402.791
114 1 190.838 10.7945 2060 121.98 353.662 406.147
115 1 97.6836 14.6186 1428 108.018 353.151 445.61
116 0 99.514 9.5263 948 117.696 353.127 434.358
117 1 51.2807 12.3048 631 111.887 354.079 465.227
118 0 52.3656 15.9456 835 106.044 354.94 464.241
119 0 54.3035 9.52056 517 115.747 355.298 465.017
120 0 54.7036 11.0596 605 114.35 355.782 464.577
121 0 57.4172 11.5297 662 115.107 356.597 463.224
122 0 57.3665 12.7949 734 114.232 357.307 462.147
123 0 56.3763 12.2924 693 116.228 357.443 460.481
124 0 59.3961 13.9235 827 111.931 357.148 464.393
125 0 61.4586 12.7078 781 109.821 357.433 465.64
126 0 59.323 10.7041 635 116.12 357.639 464.894
127 0 62.1794 15.4392 960 110.869 357.709 461.405
128 0 66.5658 14.4669 963 111.535 356.81 460.913
129 0 67.1852 12.979 872 114.789 357.999 464.009
130 0 68.3602 13.7946 943 114.046 355.948 461.15
131 0 68.503 8.49598 582 121.225 355.663 465.715
132 0 74.391 13.5635 1009 112.822 355.072 462.273
133 0 75.2717 13.976 1052 113.706 354.819 462.523
134 0 76.3313 12.485 953 116.558 355.313 462.965
135 0 77.3075 11.4995 889 118.483 354.303 462.627
136 0 82.7853 14.0484 1163 116.298 354.924 461.043
137 0 84.2839 12.1969 1028 110.081 352.396 462.631
138 0 90.6275 15.172 1375 107.972 354.243 456.7
139 0 90.2628 13.8595 1251 110.153 350.902 455.13
140 0 93.7725 12.9782 1217 111.884 351.941 454.727
141 0 95.2973 10.2521 977 114.851 350.542 455.36
142 0 100.406 13.7143 1377 110.599 350.971 451.394
143 1 53.1999 12.406 660 108.482 350.824 472.203
144 0 54.2313 13.4793 731 107.06 350.321 473.301
145 0 56.3017 11.9712 674 109.976 349.813 470.47
146 0 59.1588 14.2329 842 108.855 350.132 469.224
147 0 61.2162 18.6225 1140 102.197 347.728 471.01
148 0 61.0833 11.9182 728 111.85 348.001 467.214
149 0 62.3345 10.2512 639 113.723 347.928 468.21
150 0 65.2572 16.4273 1072 107.052 347.84 462.445
151 0 65.3569 13.1279 858 111.399 348.247 465.056
152 0 70.2287 16.2042 1138 107.055 348.576 461.281
153 0 71.302 18.3445 1308 104.622 348.21 461.206
154 0 71.256 14.5532 1037 111.272 349.656 454.585
155 0 76.3212 15.3299 1170 109.826 349.206 453.155
156 0 76.2218 12.1225 924 113.222 350 455.472
157 0 81.3228 14.3502 1167 111.266 350.328 450.978
158 0 83.3409 16.8225 1402 108.161 351.528 448.312
159 0 87.3153 16.9042 1476 109.022 351.653 445.078
160 0 89.2175 15.5351 1386 111.542 353.282 446.157
161 0 93.3966 15.5787 1455 111.424 353.009 444.854
162 0 94.1813 12.1256 1142 116.429 354.779 448.916
163 0 99.325 14.4979 1440 114.723 355.247 441.233
164 0 102.372 11.1456 1141 120.392 355.189 443.455
165 1 54.155 13.2952 720 111.258 355.45 466.281
166 0 55.0475 11.1177 612 113.739 355.972 468.502
167 0 57.0401 14.0953 804 112.848 355.726 465.746
168 0 56.204 11.4938 646 117.458 355.678 464.211
169 0 61.1527 12.5424 767 115.499 355.913 467.039
170 0 63.1334 13.0359 823 113.577 356.232 466.478
171 0 64.2479 13.0588 839 113.499 355.815 467.064
172 0 67.1616 12.6114 847 115.787 356.228 468.884
173 0 67.261 12.6819 853 116.784 355.55 466.256
174 0 70.0858 14.7819 1036 113.965 355.894 467.664
175 0 74.1314 12.6802 940 115.221 355.052 470.735
176 0 76.2136 15.5484 1185 111.562 354.457 468.724
177 0 79.2783 13.7743 1092 115.096 354.971 465.678
178 0 81.0979 11.8622 962 117.608 355.003 469.106
179 1 41.0365 10.381 426 119.308 352.843 485.559
180 0 44.0974 12.7672 563 115.181 351.51 481.593
181 0 46.0464 11.8142 544 117.068 350.812 481.026
182 0 48.1975 15.2082 733 111.332 354.106 481.967
183 0 48.1312 9.57799 461 123.161 353.857 477.872
184 0 49.2429 11.7784 580 116.862 353.1 478.903
185 0 52.1718 12.2863 641 115.042 351.693 478.331
186 0 52.1047 11.0163 574 119.467 350.512 474.699
187 0 56.1155 13.098 735 114.814 351.136 473.042
188 0 56.1528 11.1838 628 116.597 349.553 472.349
189 0 58.1527 11.8309 688 115.539 350.301 470.246
190 0 59.1602 14.3678 850 112.332 349.761 469.078
191 0 58.2857 13.2451 772 112.85 348.554 470.386
192 0 61.1091 11.3731 695 117.397 349.469 461.22
193 0 65.0632 13.8327 900 112.591 349.452 462.978
194 0 69.1987 14.4078 997 108.549 349.121 463.346
195 0 69.1662 13.8652 959 110.485 348.592 457.847
196 0 72.2164 14.1242 1020 110.709 349.485 455.01
197 0 77.1852 13.0984 1011 110.841 349.963 454.012
198 0 77.2142 13.6244 1052 111.336 350.971 449.139
199 0 78.1419 11.8758 928 114.074 351.438 448.561
200 0 84.142 10.411 876 114.328 351.995 450.398
201 1 45.0896 11.333 511 111.677 351.566 466.135
202 0 47.1361 11.6471 549 110.275 349.078 466.978
203 0 45.1653 15.9636 721 104.025 351.498 467.581
204 0 49.1996 14.3497 706 111.217 355.118 464.888
205 0 53.2945 13.4535 717 109.958 354.888 463.618
206 0 55.1311 15.5811 859 107.217 355.403 461.173
207 0 56.1652 15.7571 885 107.944 355.983 462.123
208 0 54.2314 13.2027 716 112.482 356.392 462.888
209 0 58.1164 14.0236 815 111.832 357.719 460.828
210 0 60.0733 10.354 622 116.047 358.577 466.568
211 0 60.3335 14.3204 864 112.24 358.126 465.167
212 0 61.172 11.6883 715 116.951 358.295 464.29
213 0 63.351 12.7386 807 114.177 358.002 461.73
214 0 67.2646 14.2869 961 111.248 357.843 465.986
215 0 69.0758 11.4946 794 114.991 358.722 468.048
216 0 72.4512 15.0584 1091 110.841 357.906 466.175
217 0 73.4207 15.8402 1163 110.5 355.707 466.003
218 0 72.1233 13.5324 976 113.907 356.397 463.598
219 0 79.306 15.4717 1227 111.095 356.092 462.685
220 0 81.3437 13.7319 1117 113.126 356.629 465.372
221 0 87.4289 17.0195 1488 107.697 352.948 461.54
222 1 44.1014 11.2241 495 114.644 351.727 479.671
223 0 45.0559 12.4068 559 111.767 351.605 481.565
224 0 50.049 12.1281 607 105.598 350.89 483.847
225 0 50.1571 11.6235 583 108.257 351.424 485.027
226 0 49.1306 12.0699 593 109.194 348.221 483.152
227 0 50.2951 13.5003 679 108.44 349.044 481.979
228 0 51.274 11.0387 566 111.933 346.159 482.081
229 0 50.3185 12.9177 650 111.723 346.22 477.095
230 0 52.1825 14.8901 777 108.708 346.942 477.782
231 0 54.135 13.6141 737 109.795 347.543 478.894
232 0 55.4461 13.9956 776 111.711 345.599 473.302
233 0 57.3692 13.2127 758 112.656 345.616 472.818
234 0 60.3156 16.7452 1010 106.874 345.364 471.74
235 0 64.2543 19.5629 1257 102.818 345.081 470.613
236 0 65.1364 14.462 942 111.047 344.293 464.521
237 0 68.2689 16.7866 1146 108.324 344.305 460.521
238 0 70.2238 18.7116 1314 104.016 344.182 465.396
239 0 72.2945 13.196 954 113.93 345.319 458.091
240 0 74.1678 13.6717 1014 112.655 343.899 460.442
241 0 77.4716 16.9094 1310 108.333 345.75 460.347
242 0 79.559 16.4406 1308 109.414 346.941 455.551
243 0 80.5712 18.2696 1472 107.082 346.752 456.762
244 0 78.4287 16.3078 1279 111.617 347.888 454.563
245 0 77.5439 14.4176 1118 115.313 347.367 457.194
246 1 39.0329 14.1163 551 116.871 350.822 474.053
247 0 43.727 14.0874 616 113.92 350.456 469.997
248 0 42.4741 13.6554 580 117.255 351.162 468.622
249 0 42.4367 12.9134 548 118.748 352.553 470.182
250 0 46.5348 17.1485 798 112.277 351.979 469.956
251 0 44.651 13.6167 608 120.919 353.278 466.982
252 0 50.46 13.258 669 115.83 353.096 465.049
253 0 45.5808 11.9348 544 121.279 353.89 460.419
254 0 49.631 13.3989 665 117.331 354.702 462.185
255 0 51.4139 10.2891 529 120.473 354.374 464.246
256 0 53.5464 14.7349 789 114.219 355.522 463.942
257 0 57.4134 14.9442 858 109.845 355.939 467.449
258 0 57.6033 10.3814 598 116.027 356.44 465.841
259 0 59.6972 13.7527 821 112.678 355.973 463.692
260 0 60.3592 12.0777 729 117.082 354.908 464.498
261 0 63.5315 11.207 712 117.711 355.188 464.928
262 0 64.6408 12.7783 826 116.701 354.122 460.086
263 0 70.5541 12.0758 852 117.202 354.793 459.137
264 0 71.6669 13.6744 980 114.584 353.694 461.668
265 0 76.5175 10.5074 804 115.756 353.525 464.138
266 0 79.388 9.92594 788 115.14 352.641 467.622
267 1 41.0397 12.1346 498 107.647 353.787 480.307
268 0 43.122 10.4123 449 109.347 351.592 477.909
269 0 42.0577 12.4115 522 109.902 348.86 481.406
270 0 43.1626 10.9122 471 110.263 347.792 480.121
271 0 49.1611 17.107 841 102.064 347.076 475.497
272 0 50.117 15.364 770 104.012 347.683 478.032
273 0 49.049 15.2704 749 105.224 348.25 476.913
274 0 51.2031 12.968 664 106.661 346.122 476.024
275 0 53.1304 13.0999 696 107.487 346.782 473.062
276 0 56.308 15.8947 895 109.582 345.533 471.441
277 0 57.1466 15.4515 883 109.465 346.387 468.719
278 0 52.2951 12.2765 642 116.667 345.447 463.354
279 0 58.0979 13.5289 786 112.955 346.033 463.709
280 0 60.099 11.6807 702 115.161 346.188 465.205
281 0 64.1307 14.2366 913 111.329 346.118 465.718
282 0 60.1336 11.1252 669 115.713 346.163 461.987
283 0 69.0626 13.9294 962 111.424 346.4 458.362
284 0 70.05 14.7894 1036 111.681 346.38 457.348
285 0 73.1481 16.0633 1175 110.163 346.013 454.621
286 0 75.1078 17.2286 1294 108.287 346.315 456.538
287 0 75.0862 14.4634 1086 113.787 347.723 453.506
288 0 77.1767 11.1303 859 119.293 347.359 446.562
289 0 82.2451 13.9461 1147 109.991 349.48 448.569
290 0 86.2071 15.3468 1323 108.397 350.503 448.653
291 1 44.0248 12.7882 563 107.361 350.14 465.364
292 0 45.1294 14.0707 635 109.438 354.35 465.06
293 0 47.0984 11.9537 563 112.465 355.46 464.767
294 0 48.1397 15.3096 737 112.927 356.676 464.068
295 0 50.0353 14.3699 719 114.138 356.615 464.22
296 0 51.1468 11.555 591 118.066 357.592 465.937
297 0 53.1492 13.3962 712 113.525 358.081 465.635
298 0 53.2703 12.0142 640 117.28 357.895 465.459
299 0 58.0846 16.9752 986 108.885 358.878 466.861
300 0 56.261 13.1174 738 117.214 358.218 466.084
301 0 56.261 13.6684 769 136.819 357.166 465.632
302 0 63.2004 18.0695 1142 109.734 358.034 467.31
303 0 63.1373 12.4649 787 118.597 358.572 465.229
304 0 66.1026 14.8557 982 114.716 358.106 464.869
305 0 69.1462 13.4642 931 116.961 358.189 462.986
306 0 71.088 17.8793 1271 111.413 358.19 460.609
307 0 77.1638 18.7782 1449 109.646 357.029 460.962
308 0 77.1814 15.2628 1178 115.506 356.123 463.723
309 0 81.1505 20.0738 1629 107.594 354.946 464.443
310 1 42.0577 11.2227 472 116.854 355.542 482.432
311 0 45.0874 14.7935 667 111.741 354.324 478.862
312 0 44.2466 14.2384 630 112.14 352.948 480.383
313 0 47.1699 14.734 695 111.249 351.96 479.66
314 0 48.1658 15.4882 746 109.562 350.993 480.291
315 0 51.142 13.746 703 110.872 350.326 476.993
316 0 51.1622 13.2715 679 112.455 349.196 476.355
317 0 54.3026 13.3879 727 113.757 349.429 473.085
318 0 55.1188 14.2964 788 109.666 347.834 473.335
319 0 58.361 15.1642 885 110.277 348.37 468.977
320 0 58.3628 18.3336 1070 106.842 347.864 468.856
321 0 62.3092 15.2626 951 108.926 347.536 466.037
322 0 64.2403 13.8542 890 110.739 346.949 462.824
323 0 64.2403 13.7608 884 136.949 346.988 463.001
324 0 69.1426 15.6633 1083 106.314 347.854 458.199
325 0 74.3926 16.7759 1248 103.517 347.398 458.535
326 0 75.2273 16.0979 1211 103.751 348.534 457.625
327 0 77.2666 14.4694 1118 107.174 348.8 452.347
328 1 43.0492 13.4033 577 104.484 348.419 469.879
329 0 44.2473 12.6787 561 104.351 349.46 469.216
330 0 46.2412 16.1977 749 103.661 350.477 466.821
331 0 46.2095 13.9149 643 104.03 350.109 466.226
332 0 45.1148 12.0803 545 108.138 350.549 466.123
333 0 49.4168 14.8735 735 105.927 352.947 463.656
334 0 49.325 12.1034 597 109.985 352.75 461.162
335 0 51.3016 11.5981 595 109.365 353.17 461.721
336 0 54.3099 14.4173 783 105.255 353.964 463.215
337 0 55.2591 16.6308 919 103.429 354.34 455.96
338 0 57.5164 15.4043 886 104.767 355.376 460.42
339 0 55.3296 10.7718 596 111.159 355.812 461.22
340 0 57.3438 10.9341 627 113.247 356.482 458.759
341 0 62.2181 14.0795 876 108.31 357.965 459.131
342 0 62.3262 12.6592 789 110.454 356.583 457.054
343 0 62.2025 9.13146 568 116.4 356.995 458.722
344 0 68.388 12.9994 889 110.641 358.479 460.452
345 0 71.498 13.0913 936 112.281 357.707 457.959
346 0 70.3206 9.55623 672 119.405 358.052 456.234
347 0 76.1808 13.9274 1061 111.893 358.989 459.158
348 0 78.3139 12.3988 971 115.185 358.848 456.644
349 0 83.2452 15.3282 1276 111.267 358.26 456.152
350 0 86.8721 12.5932 1094 115.7 358.046 452.302
351 0 90.6428 16.9787 1539 108.443 357.742 456.539
352 0 91.522 12.2703 1123 116.349 358.143 448.358
353 1 49.4135 13.0733 646 108.105 356.964 474.2
354 0 51.5587 14.275 736 106.53 356.332 471.003
355 0 53.272 14.3978 767 105.044 355.158 469.156
356 0 56.1344 14.3762 807 106.234 354.114 470.605
357 0 56.1957 12.6166 709 108.09 354.24 471.872
358 0 57.1048 11.8554 677 108.278 353.734 471.541
359 0 58.1662 11.4671 667 108.501 351.847 471.513
360 0 60.1404 12.1216 729 109.436 352.443 468.604
361 0 63.3571 15.8625 1005 104.015 353.108 463.869
362 0 64.1368 13.9234 893 106.284 351.193 460.641
363 0 69.1984 15.7518 1090 104.85 351.902 460.089
364 0 69.2042 18.9295 1310 102.317 350.735 460.073
365 0 76.5848 16.4001 1256 103.014 350.596 459.885
366 0 77.2001 17.4093 1344 102.662 350.719 454.722
367 0 79.372 11.276 895 107.555 350.825 458.411
368 0 79.4265 10.1352 805 111.399 352.252 451.88
369 0 84.2991 13.9266 1174 106.491 351.663 451.917
370 0 88.2438 14.5166 1281 106.183 350.889 444.633
371 0 92.2197 11.581 1068 109.625 352.113 446.557
372 0 95.44 13.9774 1334 106.975 352.286 444.79
373 1 49.1806 10.0649 495 110.998 353.024 463.275
374 0 53.1837 9.81504 522 108.709 353.964 464.716
375 0 51.154 10.7127 548 106.761 354.808 462.142
376 0 55.4696 10.4562 580 105.979 356.122 460.114
377 0 58.2589 14.0751 820 100.34 354.85 462.571
378 0 58.0552 12.2814 713 105.151 357.839 456.365
379 0 59.1633 12.5754 744 104.016 356.532 458.227
380 0 64.35 13.1935 849 104.075 358.091 453.459
381 0 63.286 10.2708 650 107.517 359.069 456.671
382 0 66.2862 13.9697 926 102.946 359.846 454.96
383 0 69.3047 14.025 972 103.186 360.692 453.518
384 0 73.2569 12.8316 940 104.857 360.585 451.452
385 0 75.3221 16.1838 1219 100.381 360.043 450.672
386 0 75.303 9.6809 729 105.827 361.723 460.075
387 0 83.4496 14.308 1194 99.7722 360.874 458.598
388 0 83.3503 13.7852 1149 101.712 361.565 456.198
389 0 86.5624 12.2571 1061 104.243 360.421 455.362
390 0 89.2962 15.107 1349 103.441 359.559 449.91
391 0 92.3893 13.4864 1246 105.884 360.695 453.884
392 0 96.2724 13.4514 1295 106.263 359.26 449.415
393 0 100.443 12.415 1247 106.293 358.845 451.417
394 0 103.489 8.47435 877 110.388 357.685 452.886
395 0 107.679 11.5528 1244 111.216 357.182 451.228
396 0 108.647 15.3157 1664 107.406 356.365 443.004
397 0 112.668 14.7158 1658 106.226 355.633 446.411
398 0 115.972 13.8051 1601 104.878 355.959 451.217
399 1 62.1832 15.8403 985 98.7919 353.886 468.601
400 0 62.116 13.0079 808 103.464 352.849 469.761
401 0 65.0555 10.1606 661 106.372 352.923 469.342
402 0 66.1785 12.6627 838 104.465 351.98 464.562
403 0 70.2074 12.1782 855 102.908 351.285 470.52
404 0 72.2432 19.3236 1396 97.2966 350.753 463.133
405 0 74.1469 12.4348 922 105.959 350.782 461.464
406 0 75.2796 14.0011 1054 104.898 350.261 460.562
407 0 80.1688 15.0183 1204 104.929 350.13 456.498
408 0 81.0804 9.25007 750 111.836 349.777 458.096
409 0 86.1697 11.3381 977 107.263 348.067 457.061
410 0 87.256 11.2199 979 109.527 349.664 447.114
411 0 90.472 12.5011 1131 106.929 349.042 447.535
412 0 96.4183 13.7941 1330 105.877 349.176 442.874
413 0 100.408 14.3017 1436 105.407 350.195 438.88
414 0 100.52 9.93831 999 112.008 349.621 435.163
415 0 105.723 12.5611 1328 109.453 350.893 438.525
416 0 107.784 14.761 1591 109.147 350.187 437.419
417 0 114.404 17.3246 1982 105.51 350.896 435.853
418 0 113.589 10.8725 1235 115.1 351.52 432.563
419 0 116.204 11.5486 1342 113.763 353.405 433.583
420 0 119.588 15.3862 1840 110.552 352.796 423.367
421 0 128.115 17.8043 2281 105.58 353.436 430.879
422 0 130.877 13.1956 1727 112.366 355.992 426.69
423 1 63.8138 13.2573 846 105.381 356.053 457.807
424 0 64.5723 12.4821 806 106.854 356.68 456.377
425 0 64.6943 14.0352 908 105.163 357.622 456.616
426 0 70.5115 15.9832 1127 103.579 359.104 454.977
427 0 70.5896 11.1065 784 109.875 359.327 451.597
428 0 72.7304 12.4845 908 108.781 358.865 452.787
429 0 75.6734 14.0208 1061 106.989 359.69 455.062
430 0 78.6365 13.5433 1065 108.593 360.636 454.177
431 0 81.0102 15.1956 1231 106.817 359.73 452.216
432 0 86.7802 16.3056 1415 104.697 359.168 450.422
433 0 87.733 16.5274 1450 104.921 359.348 452.457
434 1 42.6712 10.2411 437 111.259 359.142 473.005
435 0 46.3098 16.2169 751 102.989 358.819 469.292
436 0 45.79 12.9941 595 110.066 357.975 467.855
437 0 49.4454 12.0133 594 111.572 357.534 469.753
438 0 50.1231 14.1252 708 107.364 357.35 474.102
439 0 51.1269 15.706 803 103.669 356.653 477.902
440 0 53.1343 13.6258 724 107.68 355.785 474.883
441 0 55.2846 16.1347 892 104.017 355.386 471.711
442 0 55.0269 13.9023 765 106.248 354.069 474.701
443 0 57.377 14.6923 843 106.651 354.884 470.594
444 0 62.259 15.5158 966 104.417 354.559 471.28
445 0 60.2263 13.3497 804 109.399 354.077 472.57
446 0 63.3205 17.2772 1094 104.359 353.176 467.088
447 0 66.4427 16.0138 1064 104.393 352.792 467.7
448 0 67.4203 14.061 948 108.383 352.994 465.122
449 0 68.1515 15.8177 1078 105.812 352.166 465.669
450 0 70.3082 15.3325 1078 108.487 351.772 460.791
451 0 72.3115 18.5724 1343 103.529 350.469 463.24
452 0 74.4786 16.7699 1249 106.404 350.466 456.93
453 0 78.4254 20.121 1578 102.662 351.15 457.922
454 0 78.4254 19.9553 1565 124.534 352.134 457.945
455 0 78.2931 16.7575 1312 107.211 350.777 457.714
456 0 85.2716 14.5769 1243 108.739 351.526 452.15
457 0 86.245 13.624 1175 110.231 352.294 450.051
458 0 87.4564 14.4186 1261 110.35 352.001 447.514
459 0 91.1767 12.92 1178 112.745 352.191 444.879
460 0 93.5817 17.2256 1612 106.344 352.395 443.368
461 0 98.3181 12.7037 1249 110.614 353.531 445.826
462 0 101.371 15.7145 1593 109.117 354.006 440.1
463 0 104.357 15.4278 1610 108.855 353.648 438.089
464 0 104.357 11.8344 1235 113.405 355.493 434.631
465 0 108.429 10.5783 1147 113.541 356.55 440.42
466 0 112.409 15.5148 1744 107.834 356.102 436.783
467 1 61.3013 13.246 812 105.685 357.47 463.643
468 0 65.0742 11.4638 746 105.921 357.146 466.761
469 0 66.1641 15.5976 1032 100.899 357.275 464.254
470 0 70.0708 14.6851 1029 102.579 359.244 458.401
471 0 73.1567 20.3946 1492 96.7996 358.312 456.479
472 0 72.1936 14.0594 1015 105.729 358.316 459.322
473 0 74.0698 13.9868 1036 106.338 357.996 459.19
474 0 75.1682 14.0086 1053 107.769 357.796 458.538
475 0 78.1317 13.6308 1065 108.059 358.614 463.417
476 0 80.2384 12.1513 975 110.423 357.866 461.432
477 0 82.1461 10.883 894 112.34 357.361 466.04
478 0 84.4198 12.8524 1085 110.835 356.926 464.34
479 0 89.1682 16.6427 1484 106.126 355.925 464.513
480 0 90.3569 13.4909 1219 111.624 356.283 458.306
481 0 96.3128 15.3874 1482 107.511 356.491 463.155
482 0 99.2454 16.1116 1599 107.652 354.916 459.078
483 0 101.231 14.1755 1435 109.508 353.925 462.751
484 0 104.205 13.4351 1400 110.796 352.681 459.465
485 0 110.178 18.1525 2000 104.264 352.34 455.08
486 0 110.37 15.149 1672 107.763 351.084 458.641
487 0 116.339 14.2343 1656 110.229 350.851 449.724
488 0 120.501 13.6264 1642 112.633 350.259 446.049
489 0 124.188 14.0674 1747 113.827 349.543 440.192
490 0 130.444 18.8127 2454 107.281 349.436 441.073
491 0 135.484 18.2974 2479 107.227 348.464 444.259
492 1 70.4714 15.7936 1113 109.03 348.005 475.461
493 0 69.289 14.1437 980 110.863 348.606 473.615
494 0 72.1468 15.0388 1085 112.843 347.065 469.242
495 0 76.328 13.8088 1054 112.933 347.028 468.94
496 0 80.5351 15.8068 1273 111.54 347.212 464.026
497 0 80.2348 14.8439 1191 115.465 347.516 459.109
498 0 84.5983 16.3715 1385 112.583 346.221 456.853
499 0 86.3677 15.6077 1348 113.403 345.622 456.37
500 0 88.42 18.5931 1644 108.115 346.258 455.342
501 0 90.3591 17.3419 1567 112.181 345.479 449.043
502 0 92.413 14.024 1296 115.191 347.555 447.527
503 0 96.4384 14.6518 1413 113.47 348.449 450.362
504 0 102.438 15.3751 1575 111.614 349.114 444.58
505 1 61.4726 12.5747 773 109.364 349 469.251
506 0 58.2311 15.6102 909 109.006 350.758 463.428
507 0 58.4246 13.6415 797 110.936 352.143 463.976
508 0 62.25 17.494 1089 104.076 351.773 465.214
509 0 63.1847 14.513 917 109.409 353.077 463.733
510 0 64.2051 12.9429 831 112.081 354.256 463.154
511 0 68.3855 12.4149 849 110.906 355.817 463.69
512 0 72.709 17.6182 1281 104.791 355.275 458.033
513 0 74.3952 16.2242 1207 107.054 355.626 460.603
514 0 76.6384 15.9189 1220 107.565 355.191 459.811
515 0 77.3396 12.5421 970 111.588 356.297 462.381
516 0 81.3962 14.153 1152 109.782 355.858 458.554
517 0 85.6262 15.8363 1356 108.487 356.469 455.761
518 0 85.5554 11.8637 1015 114.107 356.375 458.818
519 0 90.5532 15.4053 1395 109.469 356.88 459.492
520 1 47.2447 10.5409 498 111.446 355.805 483.082
521 0 50.2668 13.2493 666 109.734 355.736 480.068
522 0 50.4884 13.2704 670 109.072 354.672 480.81
523 0 57.6602 12.3309 711 110.395 353.823 478.167
524 0 56.3012 11.847 667 107.988 352.426 479.657
525 0 60.1492 17.5065 1053 100.849 352.869 476.884
526 0 61.1374 12.2511 749 106.965 350.77 480.414
527 0 63.1146 14.4657 913 109.113 350.646 480.772
528 0 64.0583 12.7072 814 113.575 349.214 477.219
529 0 71.074 13.493 959 111.264 349.052 477.937
530 0 66.0973 11.0292 729 116.133 348.42 473.904
531 0 74.1076 14.9782 1110 109.858 346.768 472.873
532 0 77.308 15.9621 1234 109.672 347.301 467.557
533 0 78.1726 15.7856 1234 110.073 346.541 467.482
534 0 81.1446 13.3835 1086 114.334 346.491 467.874
535 0 85.1165 14.8267 1262 114.807 346.196 462.028
536 0 87.4777 13.1462 1150 116.712 345.284 463.903
537 1 46.022 13.776 634 112.858 344.924 480.721
538 0 48.0923 14.3266 689 112.456 344.933 479.399
539 0 49.2087 16.8466 829 104.238 345.083 476.316
540 0 50.1408 13.2427 664 110.983 344.682 475.733
541 0 52.2823 13.1976 690 118.53 344.774 474.607
542 0 52.1006 17.6389 919 105.761 346.218 476.027
543 0 56.3982 13.7948 778 111.744 346.405 473.618
544 0 59.2261 14.5882 864 109.721 346.369 470.089
545 0 59.1605 13.8606 820 111.761 344.524 466.41
546 0 60.2114 12.7717 769 112.71 348.189 467.341
547 0 63.0728 16.2511 1025 108.874 345.956 460.767
548 0 67.0733 18.0698 1212 105.297 346.957 462.686
549 0 68.1071 14.624 996 109.643 347.214 464.358
550 0 70.0872 13.5831 952 112.413 347.918 462.402
551 0 73.1318 15.6156 1142 109.862 349.706 460.984
552 0 76.1254 15.8029 1203 111.645 349.33 457.007
553 0 79.271 15.7939 1252 111.282 350.5 457.715
554 0 80.0752 14.5114 1162 113.978 350.965 455.762
555 0 84.1342 12.5989 1060 115.952 351.399 459.056
556 0 87.5348 14.9426 1308 111.025 353.966 460.161
557 0 90.2068 12.5157 1129 117.505 352.899 455.925
558 1 46.0349 13.7722 634 115.295 354.407 476.047
559 0 48.3276 12.6222 610 115.395 354.577 477.169
560 0 49.3015 13.8738 684 116.069 354.425 475.332
561 0 52.1994 16.5519 864 111.655 355.3 475.76
562 0 53.1018 15.9317 846 112.936 354.989 477.414
563 0 53.5248 15.9739 855 109.184 355.243 480.361
564 0 55.2511 15.7825 872 108.287 354.704 479.685
565 0 56.1391 16.8688 947 106.826 354.007 479.676
566 0 59.3454 14.5588 864 110.409 353.677 479.396
567 0 61.2526 14.3341 878 108.31 354.085 484.779
568 0 61.2704 16.1742 991 107.085 353.988 479.864
569 0 65.367 16.0784 1051 107.937 353.865 476.259
570 0 67.2827 16.126 1085 106.463 352.898 478.152
571 0 68.8249 15.3578 1057 108.445 351.09 478.69
572 0 70.6237 15.5472 1098 108.427 350.546 474.844
573 0 72.6486 13.5034 981 112.118 350.425 475.076
574 0 75.6517 14.4742 1095 111.882 349.626 469.102
575 0 78.806 16.0394 1264 111.123 349.757 466.4
576 1 40.2128 13.4285 540 117.041 347.659 487.148
577 0 41.3077 14.6946 607 113.643 347.443 487.145
578 0 43.4448 14.6853 638 115.826 347.4 484.408
579 0 43.1872 14.4024 622 116.252 346.969 481.167
580 0 44.1668 11.5924 512 120.092 346.77 483.77
581 0 45.2142 15.0616 681 115.536 345.764 481.385
582 0 49.2193 15.4614 761 113.97 345.222 480.916
583 0 49.3306 15.2441 752 117.75 344.573 477.17
584 0 52.1359 17.2818 901 114.466 346.717 476.525
585 0 52.1578 14.3794 750 119.664 345.541 475.927
586 0 56.1814 17.8173 1001 114.048 345.608 470.796
587 0 59.4412 17.8832 1063 114.186 346.65 469.181
588 0 58.2025 16.288 948 119.004 347.748 467.719
589 0 61.162 20.9444 1281 109.379 347.944 470.548
590 0 62.2322 16.9848 1057 117.986 347.741 466.217
591 0 65.4119 16.6789 1091 117.731 348.984 463.599
592 0 66.0608 17.0146 1124 118.019 350.461 467.643
593 0 68.3379 17.6769 1208 118.274 349.924 462.076
594 0 69.214 16.7885 1162 121.799 350.892 459.859
595 0 73.4344 17.4578 1282 120.149 351.72 458.952
596 0 74.4612 16.4112 1222 122.408 351.9 460.009
597 0 78.2589 17.2376 1349 122.05 353.234 460.012
598 0 81.4181 19.9587 1625 116.505 352.847 459.02
599 0 83.4201 18.257 1523 120.823 354.024 457.152
600 0 88.0022 17.6132 1550 122.186 353.945 454.125
601 0 88.6963 15.2543 1353 126.865 355.613 450.134
602 0 88.6963 15.3107 1358 161.307 356.625 450.068
603 0 99.5335 18.7274 1864 118.851 354.721 447.373
604 0 100.698 15.6309 1574 124.36 354.194 444.813
605 1 50.3013 14.0951 709 129.394 354.035 467.281
606 0 51.3285 14.904 765 127.664 354.009 468.57
607 0 55.5217 16.1378 896 124.865 354.068 469.454
608 0 56.1793 13.9553 784 129.83 354.212 469.44
609 0 58.5786 15.2957 896 127.997 353.122 468.688
610 0 61.3435 16.9863 1042 124.11 353.102 470.049
611 0 65.6994 14.4446 949 128.376 352.226 471.567
612 0 65.989 15.1389 999 127.686 353.136 471.392
613 0 68.7805 16.5599 1139 124.328 351.596 471.46
614 0 70.8894 17.351 1230 123.467 351.823 468.731
615 0 72.721 20.8606 1517 117.694 350.955 469.649
616 0 73.3826 15.0308 1103 129.23 350.578 469.152
617 0 74.4832 18.8096 1401 124.941 349.72 463.555
618 0 78.6981 16.4934 1298 128.616 349.302 463.23
619 0 80.5035 17.639 1420 128.285 348.29 460.689
620 0 84.2737 16.1735 1363 131.097 348.365 461.404
621 0 88.8168 21.1221 1876 121.572 347.907 458.026
622 0 89.0929 18.3629 1636 127.491 347.114 454.067
623 0 91.8169 19.0379 1748 126.284 346.491 455.586
624 0 96.1915 18.0889 1740 127.776 346.818 452.709
625 0 101.079 18.5894 1879 126.289 345.358 448.538
626 0 103.845 18.0654 1876 127.176 345.8 447.833
627 0 107.649 18.3002 1970 127.654 345.924 445.812
628 0 111.897 17.9183 2005 128.103 346.097 444.819
629 0 118.618 18.7745 2227 125.452 345.667 443.756
630 0 119.575 16.2074 1938 132.091 346.24 433.651
631 0 124.76 17.8823 2231 129.281 346.063 428.654
632 0 129.553 17.0973 2215 131.223 347.594 429.497
633 0 137.9 18.6294 2569 126.67 346.824 428.188
634 1 73.7583 15.1034 1114 133.935 348.18 454.853
635 0 76.7217 18.4302 1414 126.727 347.934 455.172
636 0 81.6292 20.4094 1666 123.903 349.002 452.546
637 0 78.6554 14.6589 1153 137.995 350.841 447.917
638 0 83.9087 17.6859 1484 130.763 351.645 448.226
639 0 86.5126 15.9168 1377 133.595 351.419 448.247
640 0 90.5373 17.3409 1570 130.656 352.677 447.818
641 0 93.6187 16.6206 1556 131.829 352.998 446.166
642 0 97.5605 15.2213 1485 133.131 354.034 447.004
643 0 100.425 18.4018 1848 126.75 354.139 445.562
644 0 106.63 15.6898 1673 132.267 354.295 440.732
645 0 110.389 16.768 1851 129.019 354.515 441.243
646 0 114.434 19.3823 2218 123.86 354.521 439.591
647 0 119.454 17.6638 2110 126.221 354.97 439.532
648 0 124.424 16.8135 2092 126.582 354.745 439.862
649 0 129.601 17.8393 2312 125.152 354.186 439.048
650 0 132.671 16.1603 2144 129.083 354.364 434.226
651 1 74.5104 14.3067 1066 125.958 352.902 465.583
652 0 74.708 12.9303 966 129.506 352.944 465.418
653 0 78.5191 16.2254 1274 121.811 352.809 464.997
654 0 79.52 13.5941 1081 127.458 352.922 462.099
655 0 83.5993 16.6987 1396 120.521 351.168 465.484
656 0 85.5398 13.5376 1158 127.205 351.105 462.055
657 0 87.605 15.1818 1330 125.607 351.223 458.197
658 0 89.614 15.656 1403 126.062 349.434 458.053
659 0 94.0213 14.9541 1406 126.894 350.228 459.172
660 0 94.6286 13.833 1309 131.717 348.236 453.176
661 0 100.682 14.2131 1431 130.708 347.98 449.804
662 0 106.05 14.7383 1563 129.752 347.713 449.602
663 0 109.841 16.014 1759 128.279 348.001 447.023
664 1 61.3162 10.4703 642 124.438 347.329 468.997
665 0 63.3518 13.5119 856 118.814 347.61 467.039
666 0 64.5166 11.2529 726 123.631 346.877 465.499
667 0 66.1383 12.4739 825 118.778 346.002 465.034
668 0 66.1952 10.8467 718 118.231 346.315 466.497
669 0 69.2878 10.276 712 119.888 346.624 460.198
670 0 72.227 13.3191 962 115.413 347.612 460.284
671 0 75.2367 14.2484 1072 113.115 347.912 462.118
672 0 76.4516 10.7257 820 120.19 348.105 452.728
673 0 80.4732 11.0844 892 117.729 347.885 459.348
674 0 81.2707 8.13332 661 122.392 348.452 454.139
675 0 85.3358 9.40988 803 119.965 349.401 453.402
676 0 89.2886 10.1469 906 120.384 349.155 450.284
677 0 91.3862 10.7237 980 119.333 349.755 447.804
678 0 92.3929 6.494 600 124.77 349.315 445.397
679 1 54.3478 10.672 580 112.509 349.41 464.443
680 0 56.1977 10.3563 582 117.473 352.065 465.462
681 0 52.3004 8.12613 425 123.209 352.508 462.991
682 0 56.2907 10.3747 584 112.913 355.241 465.586
683 0 58.3572 11.8066 689 109.698 354.948 468.63
684 0 56.2006 6.26328 352 118.986 356.062 465.406
685 0 61.0806 7.85847 480 116.154 356.535 463.783
686 0 58.4096 3.86922 226 122.496 357.845 470.558
687 0 63.3861 8.96095 568 114.303 357.028 470.393
688 0 66.4998 5.68423 378 117.751 357.386 475.058
689 1 126.906 10.8584 1378 122.176 355.746 438.582
690 0 133.839 7.87515 1054 124.861 355.949 442.163
691 0 138.04 5.70126 787 132.543 354.644 423.474
692 0 141.122 9.61576 1357 127.421 355.588 417.517
693 0 148.044 9.03784 1338 125.54 355.911 431.641
694 0 152.847 10.4222 1593 123.581 356.139 430.992
695 1 79.2141 8.06675 639 117.441 356.393 457.28
696 0 87.5094 10.1589 889 113.79 356.559 464.871
697 0 86.4607 10.0624 870 115.11 355.39 460.445
698 0 91.4034 7.33014 670 113.569 354.431 464.387
699 0 98.2842 11.6194 1142 109.294 352.835 456.961
700 1 55.0736 8.96982 494 109.036 352.071 476.775
701 0 57.2593 12.749 730 103.54 351.475 482.273
702 0 58.2715 11.0002 641 106.866 350.934 476.757
703 0 56.4083 8.36757 472 109.788 350.191 479.258
704 0 62.1595 7.04639 438 112.587 349.514 470.685
705 0 63.3361 7.94175 503 110.455 348.827 469.819
706 0 68.2381 4.03001 275 116.393 346.647 468.215
707 0 67.2242 3.62965 244 108.025 345.611 469.242
708 0 71.6777 10.4775 751 105.76 345.683 468.822
709 0 70.3327 9.31288 655 107.779 345.501 467.876
710 0 72.3258 6.52602 472 111.619 346.65 465.985
711 0 77.3947 11.2023 867 105.85 345.848 462.397
712 0 78.4915 7.79702 612 110.449 346.137 461.551
713 0 82.4743 6.03824 498 112.697 346.54 456.769
714 0 87.4668 11.0899 970 107.129 347.636 458.659
715 1 50.0725 7.66888 384 105.409 346.214 477.518
716 0 47.0857 11.0225 519 102.62 347.168 471.665
717 0 47.1696 12.19 575 100.346 347.974 473.995
718 0 53.1534 12.1723 647 99.8006 347.873 472.176
719 0 51.2314 10.6185 544 103.603 346.399 468.393
720 0 52.1514 12.3678 645 102.766 347.667 469.741
721 0 54.7612 12.9654 710 100.751 348.469 467.168
722 0 54.7306 9.30011 509 106.864 348.589 468.587
723 0 55.384 12.2599 679 103.508 349.29 469.035
724 0 55.2774 10.4021 575 111.358 349.125 469.054
725 0 57.1141 12.7289 727 108.901 350.96 468.072
726 0 56.189 9.41465 529 112.866 352.079 467.42
727 0 61.5345 14.9185 918 105 353.795 465.137
728 0 65.5034 12.6711 830 107.895 353.353 462.881
729 0 65.2209 12.4193 810 109.446 354.612 465.344
730 0 68.2169 15.3188 1045 106.392 353.678 463.612
731 0 68.4008 12.3829 847 112.028 354.656 462.676
732 0 68.4008 12.3244 843 114.015 355.665 462.707
733 0 72.4161 10.8677 787 113.484 353.926 465.208
734 0 76.5618 14.903 1141 107.889 353.975 456.045
735 0 77.5348 12.8845 999 111.744 354.873 461.565
736 0 78.4196 9.75521 765 117.252 354.736 456.135
737 0 79.4616 9.01064 716 118.166 352.548 460.61
738 0 84.3888 8.78079 741 118.306 352.652 457
739 0 89.4915 14.94 1337 108.472 352.678 465.272
740 0 91.6199 13.043 1195 111.451 352.119 465.555
741 0 94.7648 13.0006 1232 112.269 351.675 457.609
742 0 95.5091 16.2393 1551 108.159 352.502 459.926
743 0 97.5537 11.5526 1127 114.902 349.873 460.084
744 0 102.653 13.1998 1355 113.486 349.813 455.308
745 1 48.1903 5.51979 266 122.233 350.605 470.876
746 0 55.7431 9.57966 534 111.996 351.277 468.135
747 0 57.5541 15.8807 914 102.707 350.352 472.434
748 0 63.464 14.5594 924 108.545 350.561 469.973
749 0 64.1438 16.2448 1042 106.211 348.19 472.185
750 0 65.1029 19.9991 1302 100.64 347.815 474.63
751 0 68.1719 13.774 939 110.046 346.548 468.997
752 0 69.0872 11.8112 816 113.806 346.478 466.246
753 0 71.0634 11.0183 783 115.181 347.589 466.931
754 0 76.1151 15.135 1152 109.805 347.348 463.511
755 0 76.1359 12.4383 947 114.49 346.035 462.818
756 0 76.0774 11.462 872 116.435 346.335 460.283
757 0 78.3293 11.8091 925 118.077 346.076 453.277
758 0 83.1878 13.2712 1104 114.25 347.514 453.458
759 0 86.097 15.1689 1306 111.044 347.304 456.627
760 0 88.2294 14.383 1269 113.314 347.118 451.504
761 0 91.2785 17.0577 1557 107.701 348.28 453.851
762 0 93.1404 11.8853 1107 117.323 347.693 447.123
763 1 46.0552 8.1424 375 118.893 349.224 468.685
764 0 52.2476 13.8954 726 108.442 350.769 467.146
765 0 53.057 11.0636 587 110.39 351.463 470.881
766 0 55.0506 13.1879 726 107.441 351.014 466.293
767 0 57.0444 10.4655 597 108.652 350.757 469.786
768 0 53.1212 8.2453 438 114.162 352.194 467.55
769 0 59.1302 18.4846 1093 100.259 353.423 465.644
770 0 61.2496 11.6735 715 109.622 352.345 467.498
771 0 65.21 14.0163 914 105.721 354.838 466.472
772 0 63.1496 12.1616 768 110.415 353.079 464.508
773 0 71.3529 13.8747 990 104.962 355.201 469.688
774 0 68.116 12.1557 828 109.161 353.934 461.884
775 0 72.1606 16.6711 1203 103.03 354.144 466.115
776 0 72.2574 14.822 1071 106.526 353.91 466.142
777 0 74.1892 11.875 881 110.243 354.091 466.928
778 0 77.1555 15.7604 1216 106.228 356.219 465.886
779 0 77.3012 13.8678 1072 109.07 355.6 467.256
780 0 83.2132 12.9186 1075 110.34 357.273 466.12
781 0 83.2545 14.2815 1189 109.393 357.04 466.327
782 0 83.1834 10.567 879 113.832 356.348 463.646
783 0 89.1932 14.1042 1258 108.873 355.097 460.634
784 0 92.3713 12.9369 1195 110.705 355.368 460.346
785 0 97.2244 15.3048 1488 105.789 354.067 460.707
786 0 98.3421 12.0396 1184 110.158 353.859 454.17
787 0 100.328 9.58855 962 112.561 353.699 458.87
788 0 105.404 12.0584 1271 109.009 351.907 458.419
789 0 109.327 13.9673 1527 107.236 352.399 450.884
790 0 112.351 11.5175 1294 109.926 351.166 451.038
791 0 115.477 12.9031 1490 109.815 353.164 450.703
792 0 119.312 10.8455 1294 112.355 351.474 448.556
793 1 62.0458 16.8102 1043 106.589 352.268 469.537
794 0 65.0778 19.5766 1274 101.659 351.062 466.015
795 0 66.0908 15.2215 1006 107.111 350.914 465.659
796 0 69.1402 14.3332 991 108.407 350.944 465.824
797 0 70.131 12.0061 842 112.595 351.679 462.534
798 0 73.0996 20.8483 1524 101.382 350.91 457.595
799 0 74.1105 12.225 906 112.646 350.723 454.865
800 0 78.0812 12.5382 979 111.906 350.338 457.938
801 0 81.14 16.6132 1348 105.647 351.366 456.835
802 0 82.0602 15.5252 1274 109.343 350.734 447.979
803 0 86.1134 17.1634 1478 106.521 352.278 451.952
804 0 88.0868 16.3475 1440 108.742 352.69 448.395
805 0 92.4062 19.1113 1766 103.577 352.679 450.958
806 0 93.3116 13.7925 1287 112.009 353.142 445.656
807 1 46.0662 11.8525 546 112.09 353.832 466.295
808 0 49.1394 14.1434 695 107.452 355.994 465.705
809 0 50.2037 13.5249 679 109.361 355.987 463.455
810 0 53.08 14.0166 744 104.215 355.866 466.036
811 0 53.1005 15.4989 823 103.81 357.018 465.123
812 0 50.1532 10.6673 535 112.779 355.972 466.712
813 0 56.1118 13.6691 767 106.874 357.507 466.519
814 0 57.058 15.458 882 104.528 358.07 467.375
815 0 60.2469 14.9883 903 105.471 357.033 465.014
816 0 59.3982 13.8051 820 107.874 358.596 466.937
817 0 63.177 11.5232 728 109.411 357.636 469.5
818 0 67.1447 14.1188 948 107.069 357.944 466.943
819 0 68.3818 15.6474 1070 105.049 356.7 464.595
820 0 68.1504 13.1474 896 109.22 357.792 463.586
821 0 71.1263 15.4936 1102 105.306 357.765 470.267
822 0 75.1609 13.9567 1049 108.647 356.994 461.257
823 0 78.1687 13.4453 1051 109.432 357.464 463.523
824 0 81.1617 14.1939 1152 108.613 358.182 465.14
825 0 86.1143 15.2472 1313 108.445 356.711 463.575
826 0 86.0918 15.0421 1295 109.144 356.585 464.834
827 0 88.2675 15.8835 1402 108.389 355.798 463.023
828 0 94.6258 12.4596 1179 111.923 355.643 462.979
829 0 94.363 14.2429 1344 110.132 354.165 459.295
830 0 98.1759 17.489 1717 105.581 353.688 454.663
831 0 99.2044 10.2919 1021 113.731 353.125 455.131
832 1 54.2926 13.4272 729 106.818 352.844 475.668
833 0 55.3368 11.5294 638 106.382 351.768 477.244
834 0 57.143 16.4674 941 101.219 350.948 473.891
835 0 60.2526 11.0203 664 106.962 352.014 471.19
836 0 61.1038 12.5197 765 105.601 351.225 469.46
837 0 64.4328 14.1077 909 103.563 352.057 467.768
838 0 69.0769 14.8964 1029 103.155 351.56 467.623
839 0 68.2754 13.5188 923 107.079 350.703 462.224
840 0 75.1473 17.0864 1284 99.6355 350.98 466.163
841 0 74.4539 16.3323 1216 102.931 350.956 455.881
842 0 76.4014 14.7118 1124 105.091 350.447 454.599
843 0 83.4047 13.2367 1104 105.672 348.605 455.332
844 0 88.5383 10.8879 964 106.254 348.895 455.22
845 0 86.2753 18.2439 1574 100.215 349.936 449.082
846 0 91.3823 14.7074 1344 104.772 348.689 444.514
847 0 92.37 15.3513 1418 103.633 348.815 447.901
848 1 47.3077 13.6976 648 100.563 350.219 469.781
849 0 52.1705 12.6892 662 103.85 351.009 465.509
850 0 53.241 13.8803 739 104.05 352.177 463.686
851 0 56.6102 14.6617 830 100.52 350.452 465.778
852 0 54.1287 12.4148 672 107.339 352.44 461.702
853 0 59.1383 18.685 1105 99.4299 351.682 466.847
854 0 55.0414 9.95615 548 113.712 353.341 465.823
855 0 62.1361 13.9371 866 105.262 352.886 463.239
856 0 64.1841 18.4002 1181 98.6876 354.435 465.976
857 0 64.1164 11.4167 732 108.012 354.447 466.027
858 0 69.1366 12.685 877 106.089 355.031 464.005
859 0 71.1652 14.3047 1018 105.164 354.503 463.035
860 0 70.1965 12.8069 899 108.981 354.741 461.684
861 0 73.1835 14.4158 1055 106.495 355.718 462.867
862 0 79.2005 15.5807 1234 105.191 355.252 460.546
863 0 80.1118 18.1372 1453 102.523 355.773 460.116
864 0 82.1574 13.0725 1074 108.161 354.538 465.242
865 0 84.43 12.8035 1081 110.549 354.107 461.021
866 0 88.2072 11.1442 983 112.679 355.144 454.688
867 0 90.286 13.6123 1229 110.008 353.266 457.314
868 0 95.3453 13.8234 1318 109.54 354.277 458.734
869 1 50.2478 13.4931 678 108.316 354.95 478.68
870 0 51.1672 12.5471 642 105.796 356.107 479.137
871 0 52.0279 11.7437 611 107.301 354.689 480.959
872 0 54.0695 13.1497 711 105.664 354.018 472.599
873 0 55.0623 13.5664 747 107.046 353.208 475.751
874 0 56.1806 10.929 614 110.503 352.511 476.816
875 0 57.1908 12.537 717 107.788 353.294 475.69
876 0 59.3115 11.7347 696 109.356 350.655 477.757
877 0 63.1983 15.3327 969 104.529 350.52 473.313
878 0 62.2302 12.6787 789 107.477 349.782 472.016
879 0 70.5026 13.7442 969 105.085 348.674 469.381
880 0 70.292 14.9092 1048 104.632 349.279 467.415
881 0 75.3305 19.1423 1442 98.3176 349.145 466.179
882 0 75.5305 12.9484 978 107.888 348.412 464.24
883 0 78.2843 15.2138 1191 104.9 348.745 461.491
884 0 78.195 11.5225 901 110.27 347.607 459.655
885 0 81.3031 14.8949 1211 105.833 348.376 453.975
886 0 88.1484 14.85 1309 105.613 348.979 453.426
887 1 47.107 13.8408 652 105.268 349.034 472.959
888 0 48.0618 13.9612 671 105.358 348.407 471.088
889 0 48.3181 15.4393 746 102.991 352.109 471.342
890 0 50.8273 12.3752 629 106.585 352.39 471.161
891 0 51.1602 13.6043 696 104.639 352.96 471.431
892 0 53.2076 14.6971 782 105.655 353.753 464.935
893 0 50.285 12.1308 610 112.823 354.087 467.492
894 0 55.171 16.4942 910 105.769 355.514 468.052
895 0 54.1855 11.4422 620 113.482 355.181 468.994
896 0 57.1829 12.8185 733 112.014 355.31 464.484
897 0 58.3855 11.15 651 113.27 356.25 467.707
898 0 63.2729 14.2241 900 110.028 356.56 462.561
899 0 64.1651 13.2938 853 111.402 356.326 465.223
900 0 66.3309 16.7494 1111 107.792 357.154 462.697
901 0 69.2496 14.2239 985 110.125 357.109 464.088
902 0 71.2693 12.4317 886 113.361 357.957 466.84
903 0 73.2316 16.6185 1217 108.143 356.826 462.203
904 0 75.1899 16.1059 1211 109.868 358.069 464.054
905 0 79.1898 14.4589 1145 113.802 357.097 461.963
906 0 81.1855 15.2121 1235 114.31 357.91 460.52
907 0 86.1875 15.0022 1293 114.509 357.558 464.674
908 0 88.1227 14.1734 1249 116.113 357.005 463.709
909 0 91.4283 14.8094 1354 115.624 358.623 461.439
910 0 93.3558 13.3254 1244 116.568 357.085 464.696
911 1 49.1439 14.6712 721 113.972 356.779 483.487
912 0 50.1705 14.8693 746 113.993 355.209 481.849
913 0 50.1987 15.0402 755 113.081 355.534 482.364
914 0 54.3548 13.0255 708 116.312 352.373 480.064
915 0 55.1398 13.7287 757 114.55 350.997 480.67
916 0 57.057 16.0015 913 110.996 351.29 479.452
917 0 59.2865 14.6914 871 112.467 352.464 475.682
918 0 61.184 15.4125 943 110.328 351.005 475.891
919 0 62.168 13.7691 856 112.29 351.801 477.297
920 0 62.2163 11.669 726 117.428 350.862 471.964
921 0 64.3781 13.7003 882 112.989 351.477 474.078
922 0 69.3722 13.5213 938 112.968 351.542 468.391
923 0 70.1685 13.7954 968 112.699 350.838 468.387
924 0 73.2097 14.356 1051 112.394 350.354 462.395
925 0 75.2136 13.2024 993 114.07 350.039 462.194
926 0 79.3497 15.0347 1193 111.506 349.814 458.801
927 1 42.087 11.4049 480 112.633 351.102 477.96
928 0 43.03 13.0374 561 111.9 351.592 475.317
929 0 45.0201 12.2834 553 112.872 352.403 475.528
930 0 46.0906 14.363 662 112.689 351.492 472.813
931 0 48.0995 14.5324 699 110.587 351.928 474.042
932 0 50.0601 13.284 665 113.292 353.015 471.432
933 0 48.0543 12.0905 581 117.188 353.539 470.711
934 0 50.229 13.1996 663 116.367 352.596 467.537
935 0 52.2787 13.8489 724 113.012 353.816 469.228
936 0 52.4268 14.0959 739 113.321 353.727 465.426
937 0 53.1906 14.0626 748 113.751 352.338 467.213
938 0 58.1052 14.7319 856 110.507 351.968 465.21
939 0 59.2002 12.5844 745 114.191 352.387 463.239
940 0 60.1717 13.7108 825 112.821 352.195 463.141
941 0 61.1789 11.8015 722 116.724 352.5 464.31
942 0 64.2216 14.6057 938 111.72 353.811 464.059
943 0 67.1908 12.3082 827 113.653 354.285 464.99
944 0 67.2626 11.5071 774 114.382 355.618 462.872
945 0 68.2556 14.5336 992 111.958 355.805 460.724
946 0 71.4278 13.8601 990 111.915 356.152 458.301
947 0 73.3771 14.6367 1074 110.682 355.848 463.516
948 0 78.0921 12.0883 944 115.766 355.289 465.06
949 0 82.3899 21.4347 1766 102.267 355.046 460.513
950 0 83.245 16.013 1333 109.967 354.773 461.647
951 0 85.2239 13.4939 1150 114.563 354.04 457.663
952 0 88.1049 13.7109 1208 114.038 354.681 460.345
953 1 48.251 13.9064 671 110.352 352.77 480.259
954 0 50.346 16.327 822 107.302 353.119 479.416
955 0 51.1721 16.1612 827 106.804 353.103 477.849
956 0 48.2517 11.9167 575 115.56 352.473 478.816
957 0 53.1377 16.3349 868 106.825 352.265 479.531
958 0 54.1012 16.1549 874 107.112 351.207 479.411
959 0 53.0704 11.758 624 112.96 351.236 483.107
960 0 57.1525 12.4054 709 112.065 349.371 477.64
961 0 61.1659 14.9103 912 107.434 349.242 475.846
962 0 61.1962 14.8212 907 107.7 348.735 476.036
963 0 60.1224 13.4392 808 111.124 349.802 474.245
964 0 64.2044 17.3041 1111 102.702 348.498 477.365
965 0 64.1777 16.1738 1038 106.145 348.243 471.847
966 0 66.3414 13.8375 918 110.686 349.29 467.602
967 0 70.2642 16.993 1194 104.688 347.844 467.622
968 0 70.2841 14.8967 1047 106.829 348.32 461.713
969 0 73.3434 13.9481 1023 107.807 348.959 459.34
970 0 72.5318 10.4782 760 114.316 348.47 457.489
971 0 77.2662 17.7568 1372 103.171 348.862 459.979
972 0 79.4249 14.0258 1114 109.869 348.417 456.216
973 0 81.3769 14.5987 1188 119.507 350.598 454.566
974 0 86.3938 16.7142 1444 113.749 349.846 457.699
975 0 91.5293 13.9409 1276 118.35 349.869 450.589
976 0 89.2792 15.0987 1348 112.636 349.421 448.622
977 1 45.1599 11.7361 530 119.296 349.315 468.6
978 0 47.3162 12.7229 602 116.198 349.924 470.028
979 0 50.3615 14.4753 729 113.435 351.032 466.598
980 0 49.5061 10.7057 530 113.862 350.409 467.458
981 0 52.8888 19.645 1039 102.199 352.676 466.045
982 0 54.3305 17.3199 941 105.482 351.544 467.529
983 0 56.4079 14.8029 835 108.829 353.42 461.962
984 0 58.4117 15.6304 913 107.015 353.871 462.596
985 0 63.4191 12.9456 821 109.292 354.714 463.359
986 0 63.3108 12.4781 790 111.41 355.034 462.6
987 0 66.326 15.6047 1035 107.177 355.423 462.552
988 0 67.518 13.3298 900 109.382 356.186 462.43
989 0 70.4704 11.6645 822 107.684 356.667 465.917
990 0 71.2964 11.6836 833 106.739 356.664 463.987
991 0 76.2071 13.8701 1057 104.166 355.058 463.73
992 0 80.4128 16.092 1294 104.505 355.671 456.806
993 0 82.6334 14.4978 1198 103.416 355.119 461.967
994 1 42.1123 9.47466 399 108.328 353.401 480.01
995 0 43.0876 11.6507 502 112.94 357.771 480.018
996 0 47.0719 14.3822 677 102.124 355.92 481.408
997 0 48.1169 10.62 511 110.652 357.264 480.225
998 0 47.0939 13.2289 623 105.551 356.698 480.226
999 0 52.0696 11.1389 580 111.884 356.814 480.94
1000 0 51.0512 10.7343 548 115.354 355.64 479.265
1001 0 55.0456 13.7522 757 110.608 354.053 475.123
1002 0 57.125 14.302 817 110.116 354.834 478.53
1003 0 61.0381 14.794 903 107.952 352.908 476.669
1004 0 59.0753 12.7464 753 113.039 352.567 474.838
1005 0 63.1232 13.8301 873 106.684 352.841 473.647
1006 0 64.1803 17.3418 1113 103.504 351.409 469.072
1007 0 66.0902 14.7526 975 107.865 351.519 469.604
1008 0 67.251 13.1448 884 109.865 352.165 471.766
1009 0 71.3232 15.1423 1080 106.439 351.089 467.76
1010 0 73.1309 14.768 1080 105.783 351.387 468.069
1011 0 71.1592 11.411 812 114.574 351.793 463.041
1012 0 76.0951 15.9537 1214 107.348 350.72 462.019
1013 0 80.1034 17.3151 1387 105.872 350.877 458.621
1014 0 83.0771 16.2259 1348 107.947 351.134 459.235
1015 0 82.0662 13.9034 1141 113.308 352.771 455.074
1016 1 43.1269 13.7038 591 109.966 352.799 477.371
1017 0 44.3038 13.1591 583 110.341 348.931 470.129
1018 0 46.3426 16.6585 772 105.751 350.083 466.955
1019 0 48.1046 13.5538 652 112.781 348.81 467.782
1020 0 49.0387 13.6219 668 112.422 349.256 469.425
1021 0 50.0299 15.3708 769 109.339 350.64 468.057
1022 0 53.1763 12.7501 678 113.959 350.805 466.209
1023 0 53.1449 12.7388 677 115.281 351.458 467.222
1024 0 55.1904 12.2123 674 116.387 352.039 463.593
1025 0 58.3193 14.8836 868 112.048 351.78 463.91
1026 0 59.2322 13.962 827 113.809 352.674 465.595
1027 0 61.1318 12.5139 765 116.622 353.571 464.48
1028 0 63.197 14.6051 923 112.874 353.742 462.735
1029 0 65.2261 16.2818 1062 109.965 355.843 462.494
1030 0 67.1502 13.1198 881 115.569 356.319 458.536
1031 0 69.1053 16.3663 1131 110.991 356.027 462.664
1032 0 76.1987 15.0921 1150 110.566 356.343 463.208
1033 0 76.2537 14.9894 1143 112.255 357.303 456.761
1034 0 79.3735 15.1814 1205 111.632 356.504 455.374
1035 0 81.4327 14.6133 1190 112.701 355.347 460.635
1036 0 84.7206 14.7072 1246 111.654 356.295 457.761
1037 0 87.3269 16.2264 1417 108.957 355.056 458.644
1038 1 47.1012 11.4222 538 115.612 355.68 479.615
1039 0 47.1803 14.6035 689 112.932 355.688 477.502
1040 0 51.4534 14.2459 733 113.85 356.415 478.422
1041 0 48.4553 11.5364 559 119.034 355.522 476.24
1042 0 53.6897 12.833 689 115.624 356.425 480.325
1043 0 54.4763 11.5096 627 118.791 353.405 478.317
1044 0 55.1219 15.4929 854 108.669 351.485 479.025
1045 0 56.277 15.0861 849 111.41 349.654 479.161
1046 0 60.1203 15.2195 915 109.604 349.223 476.75
1047 0 60.1506 13.1836 793 112.731 349.793 478.81
1048 0 61.2909 13.6236 835 113.94 348.855 473.914
1049 0 64.2508 14.0076 900 112.964 348.426 471.77
1050 0 68.166 14.0539 958 112.468 348.401 471.863
1051 0 68.1238 11.5378 786 117.003 347.006 467.073
1052 0 72.2573 13.4935 975 113.778 348.022 466.892
1053 0 74.4091 12.3238 917 114.445 347.768 467.143
1054 0 77.0886 14.1525 1091 112.675 347.31 465.231
1055 1 39.0219 10.5582 412 116.68 347.381 484.359
1056 0 41.0999 11.5816 476 115.12 346.523 482.712
1057 0 48.3434 14.8934 720 106.59 346.894 481.426
1058 0 46.0635 10.2467 472 109.655 348.347 477.735
1059 0 47.1322 12.8999 608 108.52 351.276 477.002
1060 0 47.3733 12.3909 587 109.853 352.235 479.17
1061 0 49.353 17.4863 863 103.022 352.149 473.579
1062 0 50.1527 14.2565 715 107.937 351.874 475.109
1063 0 52.345 13.2009 691 108.889 352.611 470.595
1064 0 56.1967 13.6841 769 106.407 352.627 470.716
1065 0 57.0655 11.2152 640 110.181 353.558 470.856
1066 0 59.4714 15.2342 906 104.417 353.711 467.624
1067 0 61.4561 14.01 861 105.247 355.936 469.785
1068 0 62.2097 15.8818 988 103.781 355.829 465.045
1069 0 66.2128 14.106 934 103.173 355.676 468.392
1070 0 67.2553 16.6084 1117 102.231 356.338 461.551
1071 0 68.2067 13.5031 921 107.179 356.635 462.785
1072 0 71.2795 13.1735 939 107.263 356.612 458.884
1073 1 36.1474 12.3937 448 109.42 358.536 481.35
1074 0 40.3002 11.464 462 109.632 357.866 479.229
1075 0 42.0407 13.9865 588 105.721 359.446 479.238
1076 0 42.0407 13.9151 585 140.485 361.429 479.244
1077 0 43.2483 11.3762 492 105.348 354.28 481.217
1078 0 44.3324 11.301 501 107.116 355.83 478.697
1079 0 46.342 15.5151 719 101.924 354.972 481.686
1080 0 46.3385 13.984 648 110.566 355.09 483.347
1081 0 50.2132 14.5579 731 106.93 354.416 482.112
1082 0 50.286 14.9942 754 107.992 355.997 482.358
1083 0 53.5033 12.0366 644 111.55 353.686 483.441
1084 0 53.4368 14.4657 773 110.881 354.646 480.18
1085 0 56.3737 12.7719 720 111.542 353.888 480.474
1086 0 59.2999 15.43 915 107.37 353.464 479.894
1087 0 60.4074 11.1576 674 115.004 352.138 477.88
1088 0 65.1969 16.3812 1068 106.452 352.815 475.143
1089 0 65.284 13.4183 876 111.668 351.289 475.252
1090 0 67.502 13.1848 890 112.355 351.374 471.922
1091 0 70.2925 18.4941 1300 103.214 349.878 478.184
1092 0 72.2541 14.7535 1066 109.232 349.146 474.749
1093 0 73.3932 12.8486 943 114.148 349.497 471.08
1094 0 75.2687 13.7507 1035 113.136 349.478 469.34
1095 0 78.2969 14.4322 1130 112.191 349.169 465.506
1096 0 81.3827 11.8084 961 114.931 349.069 466.426
1097 0 84.3801 14.6954 1240 112.11 348.31 461.977
1098 0 87.4938 13.681 1197 113.733 348.177 463.064
1099 0 90.3083 14.1183 1275 112.31 348.181 458.485
1100 1 44.057 11.8483 522 115.479 347.565 477.851
1101 0 48.2437 17.1007 825 106.205 348.068 477.251
1102 0 50.0358 13.3704 669 111.066 348.314 473.315
1103 0 49.3362 9.50619 469 114.045 347.67 469.463
1104 0 52.4135 13.7178 719 116.574 347.893 473.946
1105 0 53.2992 12.3454 658 122.231 350.266 474.044
1106 0 56.4319 12.2448 691 124.127 350.472 472.321
1107 0 60.5072 15.932 964 116.312 351.447 472.693
1108 0 62.2768 15.7201 979 119.085 350.609 464.253
1109 0 61.4905 19.1899 1180 113.369 352.184 465.951
1110 0 63.5253 14.7973 940 121.511 351.994 464.326
1111 0 64.4933 12.2493 790 125.758 352.716 465.862
1112 0 67.3951 15.1049 1018 121.787 352.378 464.277
1113 0 69.3059 14.1258 979 122.391 353.591 464.896
1114 0 72.3337 13.5898 983 122.476 353.737 463.195
1115 0 77.6245 15.137 1175 118.386 354.893 460.466
1116 0 78.329 15.7668 1235 117.05 354.466 460.754
1117 0 79.46 15.6053 1240 118.367 355.785 457.352
1118 0 85.4272 15.3113 1308 116.828 355.086 457.268
1119 0 86.321 12.9285 1116 120.781 355.79 458.348
1120 1 46.2046 15.1284 699 113.409 354.14 476.928
1121 0 45.2558 15.2025 688 113.241 353.369 477.661
1122 0 48.2102 15.8265 763 106.844 354.28 477.986
1123 0 48.2582 13.407 647 109.68 354.58 476.329
1124 0 49.3536 11.8127 583 111.705 353.518 479.448
1125 0 54.528 13.0942 714 108.689 353.322 476.602
1126 0 53.7032 13.3884 719 109.846 353.185 479.712
1127 0 54.2138 11.9527 648 115.252 352.273 477.386
1128 0 55.3542 9.62889 533 118.248 353.287 478.27
1129 0 59.3985 14.4953 861 110.053 351.099 476.963
1130 0 60.4486 12.7877 773 114.926 350.435 475.164
1131 0 63.2162 12.2753 776 112.537 349.432 476.719
1132 0 65.2603 12.0441 786 112.433 350.145 475.374
1133 0 69.3672 13.0321 904 110.793 348.711 475.282
1134 0 69.1823 13.2115 914 110.931 349.267 474.528
1135 0 75.2443 21.3571 1607 100.133 348.063 470.23
1136 0 76.3187 16.1821 1235 106.138 348.519 465.932
1137 0 80.3153 13.4346 1079 108.615 347.245 468.965
1138 0 82.3935 16.1299 1329 104.743 346.523 461.423
1139 0 85.2908 12.3694 1055 108.814 345.63 467.672
1140 1 40.0584 10.4348 418 111.78 345.067 486.191
1141 0 44.2686 13.0341 577 109.73 344.329 478.563
1142 0 44.3278 10.8059 479 113.549 345.042 480.674
1143 0 46.1424 12.3964 572 110.645 344.816 479.862
1144 0 49.3339 14.6755 724 107.188 344.896 477.989
1145 0 47.3225 12.0027 568 113.019 345.887 473.345
1146 0 49.3188 15.7141 775 107.004 346.618 471.092
1147 0 51.2784 11.6033 595 112.667 346.392 473.469
1148 0 53.2155 14.0561 748 109.683 347.568 470.003
1149 0 54.258 14.5048 787 107.294 347.9 468.883
1150 0 54.2497 15.7052 852 106.045 348.971 469.228
1151 0 54.3454 14.7759 803 108.452 349.276 465.702
1152 0 55.2685 12.1588 672 112.994 349.353 465.57
1153 0 60.2182 12.7868 770 111.105 351.761 465.91
1154 0 63.2098 16.8803 1067 106.953 350.647 462.373
1155 0 64.2056 13.083 840 112.431 351.15 466.618
1156 0 66.3205 14.3998 955 111.562 351.944 460.469
1157 0 67.2081 15.1023 1015 112.123 351.498 464.052
1158 0 71.1603 14.7414 1049 113.433 353.866 459.397
1159 0 72.3653 14.1228 1022 113.853 353.293 464.743
1160 0 74.1575 11.7857 874 117.911 354.683 459.312
1161 0 78.2636 11.8957 931 117.995 353.55 466.143
1162 0 78.2562 14.2481 1115 115.467 355.466 461.916
1163 0 82.4106 12.5469 1034 117.701 353.76 466.104
1164 0 85.5891 15.8198 1354 114.406 355.349 459.708
1165 1 47.458 15.1924 721 114.209 355.252 477.067
1166 0 46.4587 12.4411 578 119.728 355.227 475.446
1167 0 49.2807 14.2043 700 115.386 355.414 475.284
1168 0 51.6038 15.0183 775 114.379 355.395 477.387
1169 0 52.3472 12.0541 631 119.279 355.436 477.444
1170 0 54.3559 12.0134 653 119.793 355.23 475.655
1171 0 56.3063 14.9717 843 115.295 354.031 476.568
1172 0 57.1786 9.49656 543 123.287 354.928 480.7
1173 0 57.3582 11.1579 640 121.955 353.795 479.581
1174 0 62.399 15.9938 998 113.686 352.558 475.637
1175 0 68.8566 23.1496 1594 101.906 351.775 472.779
1176 0 67.4887 18.8476 1272 109.208 350.771 472.945
1177 0 68.3008 15.4317 1054 114.277 349.948 475.759
1178 0 72.5556 17.2833 1254 111.289 348.857 471.548
1179 0 73.3162 15.1945 1114 118.531 349.08 471.329
1180 0 74.282 15.7104 1167 116.696 348.25 468.552
1181 0 75.4244 13.497 1018 118.153 348.478 470.95
1182 0 80.6315 15.1678 1223 115.268 347.175 464.907
1183 0 83.6764 13.7554 1151 118.648 346.706 464.883
1184 0 86.2836 15.2752 1318 115.212 346.426 464.013
1185 1 43.3329 12.9232 560 116.243 347 481.462
1186 0 42.1292 15.6186 658 112.74 347.792 479.802
1187 0 44.4247 14.654 651 113.349 346.883 476.659
1188 0 45.2876 14.0215 635 113.712 346.795 475.521
1189 0 48.1697 12.8712 620 111.266 346.135 477.903
1190 0 50.4557 14.9636 755 108.732 346.633 475.356
1191 0 52.1829 12.8586 671 111.537 346.879 474.158
1192 0 53.192 16.9198 900 108.283 348.278 470.306
1193 0 54.1581 16.5442 896 109.148 348.927 468.286
1194 0 55.4589 14.6595 813 111.121 348.964 470.234
1195 0 55.1562 13.8516 764 113.415 350.614 465.832
1196 0 58.1861 16.2238 944 110.137 350.463 465.82
1197 0 61.2678 15.065 923 111.855 351.458 462.696
1198 0 64.1309 18.3531 1177 105.83 351.752 466.468
1199 0 65.3769 16.076 1051 111.202 352.658 465.362
1200 0 66.16 14.737 975 117.939 353.243 461.956
1201 0 69.307 14.3853 997 118.635 353.162 461.436
1202 0 71.4042 16.3576 1168 115.368 353.88 461.487
1203 0 71.2672 14.6912 1047 120.157 353.665 459.04
1204 1 37.145 13.6492 507 116.838 353.42 482.606
1205 0 38.1894 12.8832 492 119.839 354.211 481.244
1206 0 38.0457 10.7765 410 123.507 354.188 480.99
1207 0 40.4326 13.6771 553 120.17 354.94 479.139
1208 0 42.2398 13.3287 563 120.146 354.426 477.897
1209 0 41.4334 13.1778 546 123.584 354.716 476.484
1210 0 48.3949 13.5551 656 119.832 354.441 476.177
1211 0 47.315 15.661 741 117.881 355.096 457.078
1212 0 50.3286 16.7102 841 114.793 354.528 459.055
1213 0 52.2172 15.0142 784 120.264 353.895 457.254
1214 0 53.2678 14.3614 765 123.314 352.322 467.217
1215 0 58.4974 17.676 1034 115.92 352.814 475.256
1216 0 58.3266 16.7676 978 119.232 351.826 473.932
1217 0 60.0611 15.5175 932 121.898 351.65 475.164
1218 0 61.5773 15.8338 975 122.242 351.267 472.195
1219 0 64.5982 15.9602 1031 121.971 351.148 471.845
1220 0 65.6381 18.541 1217 117.604 350.854 469.277
1221 0 67.6388 16.7064 1130 120.842 349.984 470.985
1222 0 70.3426 15.7657 1109 121.559 349.461 470.94
1223 0 70.3426 15.6662 1102 153.54 348.457 470.912
1224 0 75.6486 16.0347 1213 121.322 349.308 468.885
1225 0 75.5656 14.3981 1088 127.256 349.263 464.225
1226 0 81.0272 16.0934 1304 123.183 349.284 464.607
1227 0 80.9263 15.7798 1277 125.723 348.865 459.828
1228 0 85.5357 16.9871 1453 123.363 348.169 455.301
1229 0 91.0261 15.6329 1423 124.761 348.298 453.882
1230 1 45.9936 13.3062 612 128.051 348.435 474.039
1231 0 46.9029 12.1314 569 130.663 348.821 472.877
1232 0 50.4855 17.094 863 119.846 349.279 475.552
1233 0 52.6067 14.1997 747 125.803 348.878 463.849
1234 0 55.6487 15.6697 872 121.219 348.994 465.217
1235 0 54.3669 14.5309 790 124.427 349.675 464.895
1236 0 59.7777 15.6246 934 118.13 351.632 466.09
1237 0 58.813 13.9085 818 123.726 351.318 464.561
1238 0 61.0182 14.4383 881 123.373 352.597 461.293
1239 0 63.9353 16.6887 1067 118.464 352.339 460.246
1240 0 63.0682 15.063 950 123.16 352.545 458.018
1241 0 66.9167 15.7509 1054 120.56 353.407 457.265
1242 0 67.8213 13.2259 897 124.09 354.372 459.959
1243 0 70.4301 13.7015 965 125.112 354.441 457.32
1244 0 74.1257 13.9763 1036 122.955 355.329 456.861
1245 0 76.063 13.3705 1017 124.841 355.504 457.877
1246 0 78.8528 16.2962 1285 121.447 356.1 453.482
1247 0 81.7695 15.7027 1284 120.993 356.711 457.125
1248 0 82.8083 12.704 1052 126.773 356.529 454.856
1249 0 86.7448 13.776 1195 125.662 356.64 454.284
1250 0 90.8852 15.6461 1422 122.324 356.006 452.962
1251 0 91.8041 13.5179 1241 126.902 356.859 453.981
1252 1 48.5708 11.509 559 121.138 355.925 476.694
1253 0 51.2509 11.9022 610 118.91 356.643 472.361
1254 0 51.2509 13.2876 681 129.866 358.72 473.432
1255 0 51.2765 11.6818 599 119.962 356.523 472.583
1256 0 56.3314 13.5804 765 116.675 354.558 474.486
1257 0 58.4764 12.2101 714 118.343 353.224 477.424
1258 0 58.6453 12.1237 711 119.682 353.845 470.8
1259 0 63.4683 15.362 975 113.683 353.233 468.937
1260 0 63.4993 13.071 830 118.094 352.448 472.331
1261 0 68.5727 14.0581 964 117.162 351.008 466.143
1262 0 71.7278 16.1304 1157 114.011 350.104 465.562
1263 0 69.5076 15.0919 1049 117.982 349.81 466.191
1264 0 71.9443 12.5653 904 121.636 349.881 465.073
1265 0 74.565 14.0817 1050 117.915 350.478 462.946
1266 0 77.4411 13.1326 1017 119.23 349.317 462.222
1267 0 79.6522 12.7052 1012 119.821 348.608 460.939
1268 0 81.624 13.2804 1084 119.771 349.285 456.985
1269 0 85.0124 13.0452 1109 117.59 347.976 460.213
1270 0 84.5225 12.0086 1015 120.175 347.642 456.27
1271 0 90.5406 15.3522 1390 114.563 347.522 452.953
1272 0 92.865 13.5573 1259 118.033 349.005 448.487
1273 0 95.5112 15.1082 1443 116.325 348.773 446.893
1274 1 53.4209 12.6542 676 112.799 348.916 469.854
1275 0 56.1842 13.5625 762 112.316 348.293 465.444
1276 0 57.1619 15.1674 867 107.865 349.792 467.901
1277 0 59.0598 11.9032 703 111.859 350.962 466.707
1278 0 62.0616 9.39389 583 113.497 352.173 465.606
1279 0 63.2237 12.9382 818 106.352 352.423 460.658
1280 0 66.1849 12.9486 857 105.565 352.203 462.326
1281 0 68.2397 11.6794 797 108.859 352.856 459.758
1282 0 69.6686 10.3633 722 111.675 352.765 459.529
1283 0 71.5105 10.6838 764 109.916 353.518 464.5
1284 0 74.7757 11.8354 885 109.817 353.29 458.321
1285 0 73.4115 9.48081 696 114.447 354.82 457.82
1286 0 78.4325 11.7043 918 110.113 355.076 458.174
1287 0 82.2667 13.7358 1130 108.535 355.077 455.781
1288 0 82.7263 13.0188 1077 112.445 356.295 451.586
1289 0 83.4405 11.8168 986 113.351 356.705 453.957
1290 0 89.4303 11.6739 1044 113.078 354.961 455.076
1291 0 93.4925 14.1723 1325 109.374 355.713 452.534
1292 1 51.2796 10.55 541 108.261 356.168 474.148
1293 0 52.2358 11.9841 626 107.118 356.101 474.161
1294 0 55.316 9.87055 546 109.035 356.932 471.537
1295 0 55.2749 10.7282 593 110.003 355.523 473.941
1296 0 56.1492 13.9628 784 104.815 354.239 474.051
1297 0 59.1755 12.032 712 104.538 356.899 479.886
1298 0 58.243 8.27567 482 110.297 357.687 480.392
1299 0 61.094 11.7851 720 108.007 356.639 473.715
1300 0 57.2748 7.0188 402 115.201 354.761 472.851
1301 0 67.2735 13.2147 889 105.345 354.756 474.99
1302 0 68.3476 10.0516 687 111.274 354.306 472.288
1303 0 65.5149 7.69291 504 114.026 353.536 473.81
1304 0 71.3404 12.0128 857 107.786 352.336 469.457
1305 0 77.3005 5.92493 458 112.991 352.12 475.638
1306 0 79.4248 13.1193 1042 105.812 351.404 460.754
1307 0 81.3525 10.3623 843 108.796 351.765 464.998
1308 0 88.3094 8.97979 793 112.414 348.125 459.494
1309 0 93.6036 9.61501 900 112.076 348.856 451.422
1310 1 47.0317 11.8431 557 111.399 348.23 477.095
1311 0 48.2075 8.13151 392 116.464 348.913 473.367
1312 0 53.1089 10.8268 575 107.428 349.76 479.188
1313 0 52.066 7.31763 381 112.341 349.157 473.73
1314 0 53.146 10.9322 581 109.028 349.63 470.045
1315 0 54.0584 11.5061 622 108.719 343.588 471.362
1316 0 56.1637 11.876 667 107.654 344.895 468.702
1317 0 57.0671 9.3574 534 108.152 344.307 473.124
1318 0 58.0693 10.6252 617 109.433 346.152 466.088
1319 0 60.1585 9.90716 596 110.43 346.653 460.458
1320 0 61.0663 11.5612 706 108.511 347.698 461.416
1321 0 64.1017 11.1229 713 108.254 347.755 461.95
1322 0 65.1749 9.62026 627 106.239 349.222 467.069
1323 0 71.1293 11.9501 850 104.038 349.361 462.429
1324 0 72.4714 16.8342 1220 100.435 350.416 455.562
1325 0 79.1874 10.4183 825 106.996 351.28 459.233
1326 0 76.215 11.8874 906 106.268 349.294 454.455
1327 0 80.149 12.7762 1024 107.395 351.146 450.896
1328 0 83.143 10.957 911 109.178 352.483 453.48
1329 1 46.0425 10.8161 498 110.118 351.55 472.02
1330 0 47.0492 11.2648 530 107.649 351.683 475.951
1331 0 48.131 10.7 515 106.802 351.08 474.932
1332 0 52.0929 11.2683 587 106.516 352.632 470.543
1333 0 52.0425 11.3753 592 106.998 352.01 471.382
1334 0 55.1467 14.5249 801 101.599 354.273 472.082
1335 0 55.0922 10.9453 603 107.879 352.574 474.502
1336 0 59.2114 12.1767 721 106.605 352.34 474.434
1337 0 57.1952 9.59871 549 111.344 351.791 477.687
1338 0 62.1271 11.396 708 107.802 350.339 476.958
1339 0 62.1634 11.0193 685 109.619 351.635 475.296
1340 0 66.1043 16.8975 1117 100.133 351.5 476.644
1341 0 65.1283 10.9476 713 110.457 351.111 474.921
1342 0 69.1341 13.6112 941 106.074 351.453 472.189
1343 0 73.13 13.2094 966 105.663 350.213 471.533
1344 0 74.0672 12.5832 932 106.981 349.928 470.853
1345 0 73.1215 10.8176 791 109.86 347.671 472.55
1346 0 80.1162 13.755 1102 104.342 349.004 470.657
1347 0 83.057 11.4981 955 106.6 347.457 468.933
1348 1 41.0586 8.93844 367 110.662 346.564 483.815
1349 0 41.0586 8.88972 365 141.047 345.562 483.789
1350 0 47.0273 11.6315 547 104.02 346.656 486.077
1351 0 45.0943 11.9084 537 104.791 346.48 485.873
1352 0 48.049 14.2355 684 102.709 345.75 479.804
1353 0 50.471 15.9498 805 99.1652 346.496 477.289
1354 0 52.1856 11.7082 611 105.3 345.682 474.175
1355 0 54.3289 13.7864 749 101.619 346.08 474.303
1356 0 56.3538 13.0071 733 101.317 345.217 475.735
1357 0 58.2507 13.0814 762 102.231 345.73 470.094
1358 0 58.2795 13.298 775 102.739 345.292 467.043
1359 0 60.2442 15.2214 917 99.4864 345.745 469.143
1360 0 62.1394 13.2766 825 103.032 346.328 466.008
1361 0 63.1724 11.5873 732 104.292 346.35 462.865
1362 0 67.1096 16.5848 1113 98.292 346.212 460.271
1363 0 67.1672 10.1538 682 107.494 347.213 461.754
1364 0 70.0802 17.8082 1248 97.3349 347.452 457.001
1365 0 70.1877 12.6803 890 103.809 348.074 457.057
1366 0 76.2409 16.2773 1241 97.4811 350.398 457.496
1367 0 79.2151 12.8763 1020 101.511 349.293 456.108
1368 0 78.1342 10.6483 832 105.663 350.498 452.02
1369 0 85.1438 15.9377 1357 98.5527 351.612 452.424
1370 0 84.0869 14.3542 1207 100.896 352.087 455.443
1371 1 45.1532 15.3921 695 99.4849 351.397 471.658
1372 0 43.0373 9.7125 418 109.167 352.569 471.292
1373 0 46.1444 11.204 517 105.364 352.288 471.449
1374 0 48.5126 10.8425 526 105.53 354.35 472.515
1375 0 51.239 11.2414 576 104.814 352.741 471.606
1376 0 48.2415 10.3438 499 107.369 354.078 472.094
1377 0 52.2381 12.5962 658 105.246 352.796 473.318
1378 0 52.1395 12.4665 650 105.777 352.831 471.42
1379 0 55.2964 14.3047 791 102.829 351.427 474.134
1380 0 56.334 11.4851 647 107.717 352.756 476.003
1381 0 59.2378 13.775 816 104.65 352.642 473.409
1382 0 62.2566 14.0547 875 104.389 352.633 474.409
1383 0 63.2214 14.5204 918 105.08 351.654 472.868
1384 0 63.3437 13.04 826 107.912 352.626 476.203
1385 0 66.2852 15.1919 1007 104.758 351.18 475.107
1386 0 68.3423 17.7782 1215 101.423 351.002 474.734
1387 0 67.3505 13.8974 936 107.232 349.972 469.884
1388 0 71.3024 14.7541 1052 106.279 349.375 468.954
1389 0 74.5297 12.5856 938 109.809 348.432 472.148
1390 0 77.4682 16.0582 1244 103.385 348.67 472.052
1391 0 77.404 13.914 1077 106.636 348.161 470.042
1392 0 81.2242 17.4455 1417 103.445 348.153 467.927
1393 0 83.4056 10.8866 908 114.062 348.579 460.517
1394 0 86.3151 18.8727 1629 103.616 347.831 457.87
1395 0 87.5334 14.7144 1288 109.06 347.217 464.554
1396 0 91.4024 15.4263 1410 108.25 347.557 457.755
1397 1 47.1106 11.5261 543 113.059 344.138 479.142
1398 0 49.136 13.9205 684 110.686 345.851 474.87
1399 0 51.2348 12.9209 662 111.636 344.627 474.35
1400 0 55.0787 15.378 847 106.378 343.692 473.514
1401 0 52.1238 11.1274 580 112.969 343.859 474.045
1402 0 55.1196 13.6612 753 109.544 344.019 468.923
1403 0 58.2487 13.5797 791 109.919 344.685 464.834
1404 0 59.3258 16.6538 988 105.54 345.015 465.599
1405 0 61.1464 15.0622 921 106.911 346.567 460.856
1406 0 62.3829 14.2186 887 108.958 347.789 460.632
1407 0 64.2962 14.4954 932 108.462 348.151 459.702
1408 0 69.185 12.6184 873 109.316 348.584 462.246
1409 0 69.2752 16.1963 1122 103.634 348.9 463.922
1410 0 68.3454 14.6462 1001 108.029 348.996 458.645
1411 0 71.3536 16.0048 1142 107.511 351.005 459.888
1412 0 74.0965 13.4824 999 111.126 353.004 460.717
1413 0 73.2258 14.3392 1050 111.275 352.271 457.018
1414 0 78.1911 19.0175 1487 104.684 353.486 459.503
1415 0 81.3368 15.9338 1296 109.529 353.983 457.954
1416 0 83.302 12.7008 1058 114.404 352.945 456.994
1417 1 42.1274 11.4177 481 116.805 353.794 473.734
1418 0 46.1052 13.1872 608 112.541 353.951 471.867
1419 0 47.091 15.2471 718 106.595 353.33 477.935
1420 0 49.0701 11.7179 575 112.863 356.09 476.367
1421 0 46.0429 12.7924 589 113.297 356.192 475.891
1422 0 49.1517 13.6313 670 111.348 355.297 479.152
1423 0 52.0874 13.0742 681 113.344 356.543 479.006
1424 0 52.0628 14.7322 767 111.4 356.051 475.937
1425 0 57.1526 14.8375 848 109.087 355.281 477.453
1426 0 58.1595 13.1363 764 112.195 356.283 474.504
1427 0 57.1007 12.2065 697 116.911 353.749 476.316
1428 0 64.1157 13.6472 875 113.526 355.318 477.411
1429 0 65.1244 12.8677 838 116.468 352.752 475.547
1430 0 66.1239 13.3386 882 114.098 352.052 478.222
1431 0 66.0696 13.8036 912 114.137 351.18 475.825
1432 0 66.0696 13.7431 908 135.35 350.183 475.768
1433 0 73.106 16.6881 1220 108.548 350.048 472.198
1434 0 75.1606 15.0478 1131 110.849 350.616 466.561
1435 0 77.1093 15.4326 1190 109.184 350.121 468.144
1436 0 83.2728 16.8963 1407 108.361 349.971 460.371
1437 0 85.2991 12.5558 1071 112.767 349.408 463.101
1438 0 86.347 14.0248 1211 112.353 349.543 458.476
1439 0 90.261 14.0038 1264 110.206 348.454 460.422
1440 0 90.3807 11.5179 1041 116.017 348.643 460.018
1441 1 48.1219 10.4526 503 115.161 349.475 475.582
1442 0 51.1311 11.9497 611 114.998 350.255 471.34
1443 0 52.1054 12.5323 653 114.588 345.6 471.913
1444 0 53.139 14.208 755 108.119 345.095 472.707
1445 0 54.3194 12.1872 662 108.816 344.154 471.607
1446 0 56.4205 15.4554 872 104.005 345.606 465.487
1447 0 58.176 14.5421 846 105.152 345.515 467.499
1448 0 60.1731 17.3001 1041 100.889 346.236 469.049
1449 0 61.207 15.6681 959 104.202 346.273 463.642
1450 0 64.1378 13.0344 836 107.614 347.14 465.431
1451 0 64.3872 11.9744 771 110.361 348.894 460.41
1452 0 65.2516 12.1989 796 110.221 348.898 461.525
1453 0 69.0751 12.4357 859 110.893 349.549 459.692
1454 0 73.2137 13.2489 970 109.476 349.373 462.184
1455 0 74.1148 15.3411 1137 108.199 350.384 458.398
1456 0 77.1211 15.0672 1162 109.44 351.189 459.59
1457 0 78.2391 13.037 1020 112.645 351.327 459.078
1458 0 81.2748 12.71 1033 113.811 352.222 456.748
1459 0 83.3642 12.4274 1036 115.381 352.981 459.491
1460 0 83.1374 14.5783 1212 113.597 354.233 459.399
1461 0 88.2827 14.3176 1264 113.093 354.616 458.05
1462 0 90.2466 12.9312 1167 115.258 354.554 458.409
1463 0 93.3346 15.1605 1415 110.712 354.035 459.864
1464 0 94.2807 12.3885 1168 117.379 353.694 455.4
1465 1 47.212 8.68424 410 119.854 351.744 479.732
1466 0 51.2038 16.1316 826 108.023 351.656 477.145
1467 0 56.1941 11.923 670 115.542 351.993 478.687
1468 0 52.5132 10.3022 541 119.12 351.203 479.641
1469 0 56.1813 13.1894 741 113.968 351.43 476.44
1470 0 58.1036 13.0973 761 114.639 351.034 481.49
1471 0 57.1005 12.2065 697 119.108 350.281 478.882
1472 0 61.1343 13.1187 802 117.281 348.414 478.241
1473 0 63.1241 16.3804 1034 111.419 347.858 475.71
1474 0 66.0454 15.4591 1021 111.998 347.533 472.963
1475 0 67.135 13.4952 906 116.979 347.464 474.71
1476 0 71.1135 16.551 1177 111.191 347.665 475.052
1477 0 73.1689 15.0474 1101 115.076 346.1 468.867
1478 0 74.1203 14.3416 1063 116.349 345.812 467.784
1479 0 77.1721 13.1135 1012 119.199 345.67 465.934
1480 0 80.1755 15.3912 1234 115.213 344.532 466.445
1481 0 83.1865 14.4374 1201 115.043 345.041 466.411
1482 0 87.1742 16.8743 1471 110.481 344.922 463.165
1483 0 89.1222 14.1491 1261 116.085 344.542 457.235
1484 0 91.228 14.7542 1346 114.808 344.49 451.78
1485 0 94.1179 16.2668 1531 113.153 345.152 451.666
1486 0 98.2286 14.7106 1445 115.219 345.486 450.296
1487 0 101.306 19.1302 1938 108.415 346.178 450.463
1488 0 104.183 14.6953 1531 115.717 346.755 444.862
1489 0 106.362 14.5729 1550 116.055 347.409 444.321
1490 0 109.412 15.4645 1692 115.595 348.037 440.072
1491 0 113.455 15.125 1716 115.887 348.051 441.166
1492 0 116.476 15.2907 1781 115.783 348.409 436.53
1493 0 118.388 12.138 1437 121.795 349.615 431.821
1494 0 124.492 16.9007 2104 114.165 349.357 431.568
1495 0 129.523 16.2364 2103 114.493 351.47 438.454
1496 1 69.313 11.3831 789 122.997 353.548 462.096
1497 0 70.5716 12.8522 907 119.986 353.071 458.518
1498 0 76.3595 14.5365 1110 114.661 353.425 462.832
1499 0 79.1132 15.56 1231 116.122 353.747 461.794
1500 0 79.1809 13.2987 1053 123.731 356.155 453.424
1501 0 81.2253 15.02 1220 120.016 355.897 455.566
1502 0 85.1553 17.6384 1502 115.672 355.985 454.222
1503 0 86.1319 12.9569 1116 124.282 356.414 455.004
1504 0 89.195 15.0121 1339 120.8 356.913 457.827
1505 0 92.1085 14.6783 1352 122.394 356.359 454.104
1506 0 91.2682 13.3343 1217 126.007 356.654 452.081
1507 0 98.181 16.2251 1593 118.54 356.439 457.362
1508 0 102.526 13.9574 1431 122.771 354.959 456.361
1509 0 105.522 17.8636 1885 117.007 355.862 451.361
1510 0 106.519 12.2326 1303 128.241 354.593 451.872
1511 0 111.523 15.5304 1732 121.932 354.331 448.335
1512 1 54.1535 12.7785 692 121.801 355.017 477.72
1513 0 55.2832 11.4863 635 123.909 352.814 477.343
1514 0 57.0344 11.3616 648 124.052 354.56 477.787
1515 0 60.3488 12.7923 772 123.64 352.934 475.894
1516 0 61.2859 10.3286 633 128.003 352.929 476.664
1517 0 61.2254 12.6908 777 123.717 351.73 476.19
1518 0 62.2763 11.4329 712 127.753 350.889 472.907
1519 0 66.1547 14.3754 951 121.128 350.77 471.812
1520 0 68.1684 12.3518 842 122.534 350.781 467.472
1521 0 74.1793 12.4698 925 119.305 350.644 468.88
1522 0 75.067 14.9999 1126 117.679 350.396 460.699
1523 0 76.1549 12.7241 969 122.619 350.019 458.161
1524 0 79.2341 11.4723 909 123.96 349.359 460.948
1525 0 84.0922 12.9739 1091 121.207 349.423 454.895
1526 0 84.3608 13.2407 1117 119.753 345.404 457.817
1527 0 85.5029 9.0991 778 121.733 346.509 451.015
1528 0 89.4157 13.8454 1238 112.12 346.522 452.456
1529 1 48.0893 9.7319 468 113.705 346.9 472.389
1530 0 50.5 9.98019 504 115.151 348.613 467.236
1531 0 54.3356 14.6129 794 106.291 349.586 470.875
1532 0 54.3968 13.3831 728 109.032 348.88 470.065
1533 0 55.2676 13.2085 730 108.937 351.026 468.827
1534 0 58.3632 15.7634 920 105.24 351.246 468.005
1535 0 57.3115 10.7657 617 112.441 350.671 461.567
1536 0 60.2323 10.858 654 113.638 350.769 463.268
1537 0 64.3782 14.4148 928 107.162 352.231 460.839
1538 0 59.3513 12.1817 723 112.494 352.361 461.158
1539 0 61.1582 11.364 695 112.799 352.459 464.286
1540 0 67.2539 13.5011 908 110.517 353.054 463.724
1541 0 69.438 11.2618 782 113.967 355.003 461.804
1542 0 70.2806 12.2936 864 113.552 354.87 462.218
1543 0 72.2607 12.4549 900 113.059 354.551 462.173
1544 0 75.399 11.5651 872 113.068 355.447 463.18
1545 0 81.3852 16.3912 1334 106.672 356.078 458.02
1546 0 79.3773 16.3397 1297 127.907 356.975 457.293
1547 0 82.2506 12.9482 1065 113.138 355.759 459.121
1548 1 45.1092 9.37724 423 116.241 356.033 480.858
1549 0 46.1024 12.4505 574 112.171 356.064 479.274
1550 0 48.403 13.0364 631 109.537 352.236 476.165
1551 0 49.2957 13.2263 652 110.339 353.537 481.003
1552 0 52.0371 18.0832 941 103.231 353.198 481.665
1553 0 52.1926 12.6646 661 111.697 352.294 478.617
1554 0 55.1215 15.0939 832 107.513 352.401 482.087
1555 0 55.1701 15.3525 847 108.42 352.357 478.408
1556 0 57.4141 12.6624 727 112.699 351.356 478.403
1557 0 56.373 13.0027 733 112.497 350.169 480.049
1558 0 58.0446 10.802 627 120.496 352.204 479.73
1559 0 61.1671 15.2206 931 112.391 351.26 479.779
1560 0 63.1547 11.8756 750 116.948 352.196 476.331
1561 0 65.1481 12.8937 840 116.54 350.65 470.644
1562 0 67.3491 13.9571 940 115.53 351.447 470.462
1563 0 69.179 14.542 1006 112.243 350.123 473.794
1564 0 70.1799 13.1377 922 115.739 350.98 469.38
1565 0 74.1418 15.0388 1115 111.307 350.362 469.875
1566 0 75.3725 18.9326 1427 106.374 349.366 466.794
1567 0 75.5304 12.5248 946 112.822 349.576 462.997
1568 0 80.2916 16.1163 1294 107.317 349.907 460.648
1569 0 82.2778 14.9494 1230 108.109 349.715 456.885
1570 0 86.3641 13.9526 1205 109.107 349.992 458.724
1571 0 90.2279 18.4644 1666 103.032 348.074 456.246
1572 0 92.3358 18.6168 1719 104.458 347.64 455.733
1573 1 51.2414 14.539 745 110.337 348.635 472.091
1574 0 52.3467 15.894 832 108.51 346.144 471.734
1575 0 52.3223 11.3145 592 119.225 348.816 471.846
1576 0 56.1955 15.9443 896 111.548 349.719 469.404
1577 0 59.4093 14.1729 842 113.35 350.171 469.281
1578 0 58.0946 13.5985 790 117.405 351.508 465.235
1579 0 59.094 12.0994 715 120.193 352.138 465.631
1580 0 61.1989 13.7094 839 117.801 352.894 460.836
1581 0 65.2386 14.332 935 116.273 352.911 460.875
1582 0 69.3082 13.2596 919 117.063 353.219 462.65
1583 0 71.0897 16.8801 1200 112.012 353.836 460.854
1584 0 73.1165 14.7162 1076 115.019 354.327 462.179
1585 0 74.3475 15.6159 1161 114.429 354.771 464.333
1586 0 75.2952 13.9982 1054 119.632 355.184 459.324
1587 0 79.1775 19.5258 1546 109.53 355.122 461.14
1588 0 82.3747 14.3126 1179 117.223 355.421 460.929
1589 0 87.155 16.7518 1460 112.882 355.699 455.892
1590 0 88.2997 14.179 1252 117.557 356.002 457.973
1591 0 89.3239 14.6881 1312 118.134 355.399 454.178
1592 0 93.296 16.4637 1536 115.251 356.185 456.702
1593 1 46.2137 11.4035 527 119.573 356.271 478.351
1594 0 46.2137 11.3386 524 143.288 356.284 478.261
1595 0 47.5246 11.8255 562 116.463 353.788 473.336
1596 0 51.1772 16.5308 846 107.056 352.596 480.688
1597 0 53.0427 13.9133 738 111.579 352.016 481.35
1598 0 52.1239 12.6621 660 116.217 352.635 484.215
1599 0 56.1243 15.1093 848 112.054 351.428 481.144
1600 0 58.2132 14.9451 870 112.034 350.209 477.222
1601 0 59.2871 12.7684 757 114.07 349.556 483.374
1602 0 59.2328 10.7879 639 120.117 348.183 478.534
1603 0 63.1872 13.0723 826 114.925 348.211 476.73
1604 0 64.1938 12.8361 824 115.681 346.795 477.712
1605 0 67.3569 11.1941 754 119.626 346.883 472.931
1606 0 71.2297 14.0251 999 113.738 346.832 473.899
1607 0 76.3517 17.3146 1322 108.067 346.338 472.491
1608 0 77.3019 13.8936 1074 113.415 346.818 471.967
1609 0 78.3456 13.6319 1068 113.947 347.122 468.775
1610 1 44.2246 12.8888 570 114.561 346.012 483.044
1611 0 45.1284 9.55054 431 116.617 345.599 484.216
1612 0 47.102 11.5282 543 114.866 344.729 479.243
1613 0 49.2872 13.9184 686 111.243 345.347 477.656
1614 0 51.481 16.2001 834 114.929 344.761 476.065
1615 0 52.3078 14.7206 770 117.471 346.283 472.29
1616 0 52.4347 12.6443 663 122.443 345.403 469.712
1617 0 54.4085 14.1522 770 118.514 345.44 469.7
1618 0 57.3257 15.7347 902 114.591 347.688 468.668
1619 0 58.5656 13.6087 797 118.031 346.34 466.912
1620 0 58.4116 14.2095 830 116.431 346.522 468.389
1621 0 60.2317 12.0867 728 120.093 348.126 462.852
1622 0 63.4521 12.734 808 117.386 348.376 461.139
1623 0 67.5509 11.991 810 114.369 349.994 457.968
1624 0 67.4557 9.22086 622 119.391 349.312 460.399
1625 0 71.265 10.4118 742 116.504 350.198 461.213
1626 0 74.3463 13.3699 994 114.074 351.779 457.487
1627 1 40.1306 11.7865 473 109.442 350.467 478.188
1628 0 39.1045 12.863 503 109.964 351.976 474.748
1629 0 39.1045 12.7862 500 126.188 352.968 474.754
1630 0 44.4336 11.5903 515 108.742 352.124 475.608
1631 0 48.0709 17.6198 847 101.342 352.542 473.972
1632 0 45.1441 13.468 608 108.885 352.4 478.051
1633 0 45.0747 9.80594 442 116.054 352.676 477.272
1634 0 48.0414 15.6323 751 106.204 353.378 477.863
1635 0 48.1283 12.4459 599 110.885 354.968 480.352
1636 0 51.2462 12.0789 619 118.42 354.228 478.388
1637 1 103.927 11.5466 1200 121.19 355.351 456.574
1638 0 106.718 11.5351 1231 121.219 354.907 458.431
1639 0 107.865 11.4032 1230 122.458 354.224 455.063
1640 1 57.2365 14.7633 845 114.127 354.992 477.49
1641 0 58.2871 14.2742 832 115.797 353.196 478.573
1642 0 61.7468 12.9723 801 117.325 353.851 478.266
1643 0 61.3145 12.6561 776 115.981 352.398 475.26
1644 0 64.643 16.3514 1057 108.309 350.71 471.783
1645 0 64.4911 15.0563 971 110.719 349.748 473.122
1646 0 70.7748 14.2565 1009 109.426 348.922 476.013
1647 0 71.5535 15.4989 1109 109.048 349.612 471.967
1648 0 74.0361 11.7915 873 114.03 349.761 473.241
1649 0 75.6801 15.4862 1172 110.418 348.166 468.051
1650 0 79.024 14.0337 1109 111.655 348.657 463.336
1651 0 83.8562 18.7106 1569 104.973 347.403 458.848
1652 0 84.9375 16.989 1443 107.935 346.983 458.795
1653 0 86.5546 14.4649 1252 112.236 347.42 454.959
1654 1 46.1736 11.0236 509 114.444 348.026 479.78
1655 0 46.4012 12.2411 568 110.952 346.65 477.238
1656 0 47.5336 11.5918 551 114.74 345.617 471.218
1657 0 50.6491 15.1829 769 109.194 345.182 470.663
1658 0 53.1276 13.4205 713 111.175 347.104 473.627
1659 0 52.0617 11.3327 590 119.244 347.839 468.712
1660 0 56.0964 14.9742 840 110.924 348.78 468.026
1661 0 57.226 14.1719 811 112.364 349.497 469.92
1662 0 58.0727 15.6356 908 111.434 349.05 464.574
1663 0 58.0727 15.6184 907 137.778 348.026 464.476
1664 0 63.2175 11.8005 746 116.926 351.932 458.802
1665 0 64.0418 14.2095 910 112.004 351.042 460.798
1666 0 68.1349 12.9449 882 113.002 351.625 460.438
1667 0 69.1709 12.4763 863 114.615 352.266 460.66
1668 0 69.1525 11.077 766 117.798 352.854 459.021
1669 0 71.1372 12.9046 918 114.44 352.083 456.986
1670 0 74.3809 14.9097 1109 111.523 353.399 455.673
1671 0 77.2162 12.8082 989 114.147 353.433 456.625
1672 0 81.1597 14.0341 1139 111.763 354.362 457.132
1673 0 84.1041 15.0884 1269 108.061 353.927 460.032
1674 0 85.4987 12.7721 1092 114.08 354.917 456.712
1675 0 89.3305 15.7057 1403 110.108 354.763 454.193
1676 0 91.508 13.201 1208 114.467 354.962 451.719
1677 1 47.149 11.8773 560 110.998 352.545 473.823
1678 0 49.3613 11.4259 564 107.814 354.172 476.897
1679 0 51.6103 14.0863 727 112.887 353.007 474.118
1680 0 50.8228 11.1958 569 120.65 351.866 474.888
1681 0 53.4254 14.0944 753 115.054 351.77 476.959
1682 0 55.4033 14.4937 803 116.146 351.446 473.934
1683 0 58.4631 15.1891 888 114.511 351.593 474.458
1684 0 59.3708 13.222 785 118.446 350.825 478.638
1685 0 62.6096 14.1512 886 117.843 350.035 474.234
1686 0 62.5728 11.8742 743 124.052 349.699 473.082
1687 0 63.4356 9.97863 633 126.904 348.968 472.599
1688 0 68.4793 14.6176 1001 117.196 348.527 473.113
1689 0 70.4623 13.1418 926 120.506 348.335 469.668
1690 0 73.488 12.1516 893 121.671 347.185 467.355
1691 0 76.5198 17.6425 1350 112.018 346.367 467.35
1692 0 76.3954 12.1211 926 123.116 346.618 460.003
1693 0 81.5418 14.6183 1192 117.621 345.876 463.722
1694 0 83.5334 17.2027 1437 113.914 346.459 462.285
1695 0 83.4556 12.977 1083 121.469 345.045 458.643
1696 1 44.1422 11.1005 490 118.494 343.808 478.627
1697 0 47.0393 12.1388 571 117.785 343.755 473.189
1698 0 47.0702 12.3645 582 112.502 344.787 470.491
1699 0 48.3845 15.2942 740 112.397 347.241 470.626
1700 0 51.5021 13.5723 699 114.951 348.389 471.106
1701 0 50.4972 14.0602 710 117.404 347.513 466.901
1702 0 54.313 14.8215 805 114.231 347.969 468.742
1703 0 56.2157 13.4304 755 116.803 347.542 467.004
1704 0 59.4999 14.437 859 112.907 348.467 467.155
1705 0 61.2295 12.7389 780 116.374 349.064 463.685
1706 0 62.2438 13.656 850 116.306 349.72 460.304
1707 0 63.166 13.3141 841 116.334 349.394 458.117
1708 0 67.2316 13.2527 891 114.178 350.952 461.845
1709 0 69.295 14.6764 1017 113.445 350.791 459.308
1710 0 69.2921 14.0853 976 115.868 351.811 456.092
1711 0 72.1472 14.8031 1068 110.764 351.434 456.658
1712 0 73.1917 12.0779 884 113.374 350.281 456.215
1713 1 155.725 15.2191 2370 115.287 352.471 420.515
1714 1 80.0804 11.5634 926 114.767 351.147 454.797
1715 0 83.1367 14.6265 1216 111.275 351.473 452.434
1716 1 45.0944 12.5736 567 110.637 350.965 471.801
1717 0 43.1782 9.42604 407 116.4 351.432 472.759
1718 0 50.0723 10.1653 509 112.815 351.798 470.519
1719 0 46.0403 8.3188 383 112.099 353.003 472.747
1720 0 51.1408 12.4362 636 108.503 352.552 474.915
1721 0 51.2419 15.7293 806 102.169 353.046 471.117
1722 0 52.0524 12.8717 670 110.133 351.169 475.579
1723 0 54.1291 12.23 662 111.166 350.488 475.089
1724 0 57.1749 12.6979 726 108.771 351.096 476.624
1725 0 59.1606 20.9092 1237 97.9361 351.106 474.935
1726 0 60.0893 13.4633 809 109.361 351.016 474.976
1727 0 59.054 14.0888 832 110.013 351.512 472.838
1728 0 63.1738 13.5658 857 109.662 351.385 476.389
1729 0 65.1001 11.2442 732 113.818 349.4 474.645
1730 0 70.1724 14.4501 1014 108.38 349.564 471.389
1731 0 73.0946 13.6399 997 109.965 347.447 473.979
1732 0 74.209 13.8124 1025 109.447 347.996 473.781
1733 0 75.0795 16.1962 1216 107.789 347.269 465.192
1734 0 78.1856 14.8365 1160 109.915 347.156 465.175
1735 0 78.1416 14.0002 1094 112.635 346.917 466.201
1736 0 82.1182 14.8323 1218 111.356 345.812 461.792
1737 0 85.0684 14.1416 1203 112.291 345.24 459.763
1738 0 87.1031 14.213 1238 112.918 345.097 461.746
1739 0 86.07 13.2567 1141 115.864 345.072 456.025
1740 0 91.2273 15.0284 1371 112.861 344.934 453.657
1741 0 93.1808 14.8636 1385 114.754 345.549 454.108
1742 0 95.2789 10.4745 998 119.8 344.995 454.812
1743 0 100.196 12.3758 1240 114.468 345.247 449.199
1744 1 51.1568 12.2564 627 107.128 345.502 466.707
1745 0 54.4787 11.0686 603 114.932 347.363 459.048
1746 0 57.4357 13.0755 751 109.441 346.578 465.505
1747 0 58.2501 14.3519 836 109.61 347.679 464.675
1748 0 61.3782 14.1744 870 109.264 346.745 465.522
1749 0 63.2275 12.0201 760 112.905 348.013 465.297
1750 0 64.3079 13.7153 882 110.379 348.405 458.277
1751 0 65.5482 12.1132 794 113.571 348.15 459.815
1752 0 69.4463 15.062 1046 108.071 349.529 454.533
1753 0 69.2823 12.6872 879 112.182 350.287 452.301
1754 0 70.3249 10.7786 758 115.868 350.714 454.848
1755 0 75.3151 14.7514 1111 109.641 351.932 452.634
1756 0 76.324 13.4689 1028 111.823 352.703 454.395
1757 0 78.41 12.6897 995 113.443 352.626 451.905
1758 0 82.4269 12.2411 1009 113.65 354.367 450.162
1759 0 84.3743 15.4905 1307 109.288 353.825 450.3
1760 0 90.3753 15.5684 1407 108.773 354.658 452.518
1761 0 90.4506 14.8258 1341 110.643 354.823 453.828
1762 0 94.6101 15.4952 1466 110.538 355.018 448.922
1763 0 94.407 11.5458 1090 118.166 355.733 451.15
1764 0 94.4003 11.5042 1086 133.855 356.75 450.939
1765 0 99.2625 14.4667 1436 115.357 353.902 446.746
1766 1 54.1183 9.71945 526 115.736 353.289 476.01
1767 0 59.3509 14.2205 844 108.981 355.668 471.722
1768 0 59.3509 14.2205 844 126.008 355.691 471.677
1769 0 63.1831 18.4226 1164 101.06 355.503 469.312
1770 0 62.1397 11.7477 730 112.348 356.03 473.258
1771 0 64.1064 11.4965 737 113.199 353.954 471.924
1772 0 70.0337 17.6629 1237 103.414 353.513 471.756
1773 0 70.0337 17.5773 1231 113.849 353.465 471.749
1774 0 72.0939 11.8318 853 111.825 351.763 473.579
1775 0 76.492 16.3416 1250 104.822 350.956 471.399
1776 0 77.1089 13.1502 1014 110.388 350.843 461.737
1777 0 80.199 14.0276 1125 109.174 350.372 458.556
1778 0 83.1146 15.9418 1325 107.002 349.321 462.084
1779 0 84.0672 14.31 1203 110.249 348.732 459.845
1780 0 87.1499 17.0396 1485 105.312 348.008 458.062
1781 0 92.3631 12.5266 1157 111.389 348.688 459.835
1782 0 93.4178 12.7706 1193 110.038 348.475 456.298
1783 0 97.4152 16.3116 1589 105.522 349.129 457.12
1784 0 97.2523 11.1874 1088 113.115 349.72 451.958
1785 1 54.1426 11.0634 599 110.634 349.885 470.486
1786 0 55.0765 11.6928 644 108.911 350.297 471.581
1787 0 57.0674 12.3012 702 106.349 351.436 468.952
1788 0 58.0562 13.3836 777 104.705 349.766 468.651
1789 0 59.0832 11.3399 670 108.757 350.412 466.302
1790 0 64.1401 14.9984 962 102.491 352.036 468.894
1791 0 64.0901 13.7775 883 104.388 350.502 455.547
1792 0 68.2401 17.4824 1193 99.3638 350.682 463.236
1793 0 68.0838 12.8665 876 106.805 351.119 458.045
1794 0 69.1903 12.7041 879 108.385 353.272 456.059
1795 0 74.1244 14.1384 1048 105.275 352.812 454.261
1796 0 75.1229 11.0885 833 108.864 354.036 459.13
1797 0 75.1725 10.7353 807 111.035 354.834 457.064
1798 0 78.1585 12.4363 972 109.961 354.951 454.716
1799 0 83.3115 13.0594 1088 107.984 354.586 451.136
1800 0 86.407 14.0382 1213 106.561 355.232 445.247
1801 1 45.1023 10.9529 494 109.998 356.399 467.67
1802 0 49.0291 13.1759 646 107.006 356.364 470.211
1803 0 52.0698 16.4011 854 103.11 356.403 472.953
1804 0 53.0343 15.292 811 104.443 356.792 471.226
1805 0 51.0551 11.9479 610 111.952 356.102 469.443
1806 0 54.1191 14.1355 765 108.595 356.512 474.247
1807 0 58.0877 13.9961 813 106.635 356.14 476.819
1808 0 57.1713 10.11 578 115.434 355.266 472.135
1809 0 58.0697 10.143 589 116.328 356.839 472.268
1810 0 58.0911 10.2081 593 116.334 355.98 472.531
1811 0 61.1131 12.1251 741 112.864 356.911 474.371
1812 0 61.2067 12.2372 749 108.523 354.127 476.008
1813 0 64.3437 5.93686 382 114.157 354.406 481.372
1814 0 64.3437 5.8747 378 129.286 354.402 481.524
1815 0 71.2797 11.5601 824 107.971 352.965 475.854
1816 0 71.3372 12.6021 899 106.426 352 473.406
1817 0 74.208 14.082 1045 104.669 351.323 473.123
1818 0 81.4611 11.5761 943 105.277 349.601 472.584
1819 0 79.5245 12.9646 1031 105.011 348.496 463.993
1820 0 84.4098 12.8184 1082 104.074 348.947 467.863
1821 0 83.4718 10.5065 877 106.43 348.544 464.157
1822 0 85.4684 13.0809 1118 102.223 348.569 465.874
1823 1 48.4267 10.5314 510 104.833 348.294 480.159
1824 0 49.3641 12.6408 624 101.861 348.18 478.054
1825 0 48.4089 11.754 569 104.102 347.664 475.295
1826 0 51.2667 14.883 763 99.5754 348.755 474.042
1827 0 54.3711 13.1688 716 101.267 348.184 476.14
1828 0 54.3015 14.6036 793 100.174 348.14 470.015
1829 0 57.5172 13.0048 748 101.551 348.287 472.116
1830 0 58.1962 11.0488 643 104.725 348.235 469.187
1831 0 62.305 16.1624 1007 97.6296 348.664 467.575
1832 0 59.3901 10.591 629 104.413 347.982 467.385
1833 0 63.1641 12.3488 780 102.208 349.008 466.536
1834 0 69.5016 12.5896 875 101.642 350.481 462.615
1835 0 70.1238 14.4174 1011 98.2048 349.548 461.735
1836 0 71.2785 9.04901 645 103.366 351.516 464.267
1837 0 70.1557 6.84193 480 108.05 351.098 457.044
1838 0 73.1765 16.3987 1200 96.93 352.177 460.665
1839 0 79.2741 15.0238 1191 99.9018 352.982 455.04
1840 0 84.2384 14.6964 1238 99.1979 353.779 458.544
1841 0 79.154 9.03302 715 108.87 354.327 450.2
1842 0 88.273 12.4953 1103 104.181 354.722 446.129
1843 0 87.4057 11.9901 1048 105.276 354.594 451.683
1844 0 94.2584 12.593 1187 103.287 355.534 453.451
1845 0 96.4221 12.829 1237 104.981 356.064 448.555
1846 0 100.476 13.5157 1358 103.982 356.218 446.464
1847 1 50.1771 15.6047 783 102.041 355.659 470.373
1848 0 49.038 10.4409 512 108.518 356.439 469.957
1849 0 54.2138 14.9777 812 101.345 355.528 474.67
1850 0 51.3132 7.58089 389 110.147 355.92 473.902
1851 0 55.2491 11.4029 630 105.684 355.465 472.887
1852 0 57.2206 10.5556 604 107.24 354.719 472.947
1853 0 57.2745 9.76002 559 107.968 355.304 470.218
1854 0 60.3056 12.9175 779 102.054 354.832 479.935
1855 0 63.1592 7.97983 504 109.24 355.036 476.508
1856 0 66.2178 13.5915 900 103.406 354.484 472.062
1857 0 71.1824 12.6436 900 104.141 353.093 471.47
1858 0 73.3694 11.04 810 106.33 352.386 470.637
1859 0 75.483 10.042 758 108.256 352.111 473.945
1860 0 78.2025 14.13 1105 103.606 351.219 469.485
1861 0 82.4418 14.7983 1220 102.37 349.905 466.339
1862 0 85.5915 16.4152 1405 101.226 349.011 464.399
1863 0 85.5509 17.6386 1509 100.575 348.779 461.408
1864 0 87.666 13.4716 1181 105.625 347.428 458.29
1865 0 90.808 10.5718 960 109.176 346.958 461.882
1866 0 94.6981 12.0383 1140 111.204 346.855 455.803
1867 0 97.8783 15.0697 1475 107.106 347.067 447.765
1868 1 55.7872 11.2212 626 105.792 346.39 474.698
1869 0 53.7463 10.4937 564 137.555 345.567 473.606
1870 0 58.8671 13.8787 817 101.504 346.067 467.523
1871 0 57.2086 11.9213 682 106.616 347.262 472.944
1872 0 61.2744 10.8202 663 105.584 349.136 473.897
1873 0 62.2907 15.7969 984 100.886 345.55 470.168
1874 0 66.5361 15.9312 1060 100.426 347.04 466.035
1875 0 66.3555 12.8098 850 104.512 346.478 460.674
1876 0 70.3998 15.5398 1094 100.376 347.181 458.195
1877 0 73.2885 13.9722 1024 101.098 348.104 465.531
1878 0 71.2802 11.2373 801 106.908 348.301 459.806
1879 0 79.3856 12.8109 1017 102.929 348.886 460.138
1880 0 78.6168 16.7903 1320 99.4538 349.786 457.119
1881 0 81.5108 11.6058 946 106.567 350.391 450.335
1882 0 85.6706 10.6338 911 107.827 351.281 454.108
1883 0 89.3606 12.8468 1148 105.902 350.716 450.998
1884 0 91.5696 11.3466 1039 108.745 351.71 446.729
1885 0 96.5602 13.401 1294 105.144 351.919 449.368
1886 0 94.0015 9.58495 901 111.899 353.398 444.304
1887 0 99.6906 12.4284 1239 108.056 354.638 442.08
1888 0 103.724 12.3501 1281 108.197 354.224 441.032
1889 0 106.652 13.6331 1454 106.811 356.009 439.032
1890 0 111.523 14.0061 1562 106.51 355.71 441.881
1891 0 111.523 13.9254 1553 129.361 355.704 441.784
1892 0 119.896 11.9687 1435 109.323 355.095 439.399
1893 0 124.029 13.7307 1703 105.738 356.561 443.088
1894 1 66.1627 13.0134 861 103.056 356.519 465.892
1895 0 66.0987 11.6492 770 105.44 357.03 470.425
1896 0 68.2541 11.5744 790 105.696 356.004 471.429
1897 0 70.1532 10.3915 729 107.922 355.767 466.018
1898 0 73.2139 13.8225 1012 102.383 354.854 471.484
1899 0 74.1976 12.0624 895 105.393 354.397 468.883
1900 0 80.1046 18.2886 1465 97.3822 354.393 465.106
1901 0 81.2042 13.8909 1128 104.123 353.38 466.146
1902 0 81.384 15.4453 1257 102.698 354.214 463.446
1903 0 86.2389 14.9932 1293 101.936 352.54 468.387
1904 0 89.132 15.5724 1388 101.592 350.726 467.111
1905 0 92.338 16.3205 1507 102.447 349.753 459.914
1906 0 93.1658 13.3096 1240 108.89 349.885 461.056
1907 0 96.3776 14.6507 1412 107.821 349.035 457.974
1908 0 101.143 18.0141 1822 103.71 348.918 450.908
1909 0 103.152 15.9764 1648 106.928 348.499 450.896
1910 0 107.129 15.2433 1633 108.949 349.03 445.998
1911 0 109.165 11.9085 1300 111.995 348.255 453.003
1912 1 60.1878 14.8701 895 103.768 348.273 467.002
1913 0 61.7059 12.4786 770 110.171 345.377 467.895
1914 0 63.8717 14.9518 955 106.948 346.227 461.634
1915 0 63.618 13.9269 886 107.708 346.589 461.227
1916 0 66.6608 13.8912 926 106.281 346.654 462.735
1917 0 68.4271 14.541 995 106.387 345.887 459.692
1918 0 70.4337 15.6175 1100 105.355 346.981 457.976
1919 0 70.4211 13.3625 941 109.134 347.375 457.394
1920 0 71.2949 17.1681 1224 103.619 347.591 457.873
1921 0 75.4765 13.9381 1052 108.741 349.094 451.617
1922 0 79.3645 15.1705 1204 107.271 348.772 449.41
1923 0 83.4433 14.9443 1247 107.441 349.332 455.508
1924 0 83.3046 12.2202 1018 112.44 350.021 446.962
1925 0 84.4434 10.1843 860 115.299 350.391 441.933
1926 0 90.3882 14.5594 1316 108.909 350.891 446.133
1927 0 92.3315 15.2494 1408 107.19 350.9 443.832
1928 0 94.5068 12.2213 1155 112.214 352.12 444.606
1929 0 101.522 14.9918 1522 107.814 353.355 441.479
1930 1 58.1645 12.052 701 109.618 351.267 464.642
1931 0 55.1458 14.2712 787 104.286 350.713 460.395
1932 0 59.1826 16.711 989 97.4651 353.411 467.119
1933 0 60.5071 13.8992 841 101.049 352.404 466.675
1934 0 61.1681 11.9343 730 102.189 353.037 473.334
1935 0 63.4744 13.9741 887 102.025 352.593 462.674
1936 0 65.2318 12.9691 846 103.327 353.348 469.207
1937 0 67.1492 12.1223 814 104.663 352.703 465.437
1938 0 71.1013 12.5736 894 104.181 353.597 465.699
1939 0 70.1467 11.1053 779 107.389 352.714 465.95
1940 0 75.1081 18.2803 1373 98.4501 352.412 459.952
1941 0 78.1373 14.3721 1123 102.409 352.21 464.717
1942 0 79.1654 13.8697 1098 104.462 352.515 461.961
1943 0 87.1575 15.6154 1361 101.087 351.876 459.867
1944 0 86.2332 14.7739 1274 102.419 351.265 463.566
1945 0 90.0947 12.6977 1144 105.513 348.592 458.047
1946 0 96.3878 16.3506 1576 99.5869 350.287 455.252
1947 0 100.362 13.0727 1312 103.585 348.685 457.675
1948 1 51.1814 9.84733 504 104.339 347.879 477.663
1949 0 51.159 7.34964 376 108.226 348.665 475.529
1950 0 55.2854 11.721 648 103.307 347.656 479.252
1951 0 58.3365 12.2222 713 101.623 345.234 473.795
1952 0 58.3213 14.7459 860 99.5093 344.465 473.671
1953 0 60.3694 12.291 742 101.817 345.47 470.336
1954 0 62.2139 13.6304 848 99.9811 344.539 470.744
1955 0 65.3615 15.8962 1039 96.5265 344.675 471.795
1956 0 67.3846 14.766 995 98.4724 343.892 467.777
1957 0 67.2757 13.021 876 100.951 344.049 464.724
1958 0 67.306 9.3751 631 105.878 344.41 458.842
1959 0 71.1638 12.9279 920 101.293 344.211 464.168
1960 0 74.1935 14.287 1060 101.197 344.975 457.108
1961 0 75.477 21.5033 1623 92.6987 345.128 460.154
1962 0 80.7728 11.6871 944 103.717 345.286 455.126
1963 0 84.8973 14.9828 1272 100.088 345.769 452.953
1964 0 83.7927 15.3713 1288 100.71 346.533 447.074
1965 0 84.5176 12.7429 1077 104.617 348.06 449.726
1966 0 87.9568 14.6322 1287 102.834 348.4 446.302
1967 0 90.3771 10.7771 974 108.364 349.469 438.752
1968 0 93.4597 11.299 1056 108.575 350.061 438.213
1969 0 94.785 11.3942 1080 109.646 351.299 437.57
1970 0 101.002 13.8513 1399 106.458 352.424 439.744
1971 0 103.866 13.2863 1380 107.638 353.011 433.952
1972 1 57.9746 8.1415 472 105.934 353.638 466.536
1973 0 58.8986 9.3211 549 106.317 353.592 464.184
1974 0 59.7556 13.003 777 103.318 354.552 454.13
1975 0 63.5196 15.019 954 99.3208 355.503 460.319
1976 0 66.3038 13.3778 887 101.962 355.334 450.493
1977 0 69.0709 15.8967 1098 99.0893 354.619 453.494
1978 0 73.4705 14.6317 1075 100.083 354.545 454.825
1979 0 73.4937 12.9807 954 103.336 354.714 455.16
1980 0 76.1626 17.5152 1334 98.0922 353.957 455.846
1981 0 77.9023 10.3078 803 106.381 354.467 452.369
1982 0 82.7577 14.7902 1224 99.8284 353.597 457.961
1983 0 87.5775 14.1817 1242 101.048 353.014 453.702
1984 0 88.1435 13.2965 1172 103.058 353.418 452.583
1985 0 90.8582 15.5627 1414 100.791 352.037 451.052
1986 0 97.505 13.6403 1330 101.986 352.904 453.085
1987 0 98.3453 12.4866 1228 103.771 350.329 453.042
1988 0 102.365 14.4678 1481 102.353 351.167 444.995
1989 0 107.303 17.856 1916 98.2818 348.648 443.823
1990 0 110.42 13.0412 1440 103.598 349.701 447.503
1991 0 113.065 13.1782 1490 103.98 348.977 442.263
1992 0 117.891 14.7085 1734 100.916 348.474 445.854
1993 1 61.6131 13.6822 843 97.739 347.404 466.127
1994 0 63.6696 13.0046 828 98.2198 348.634 465.557
1995 0 65.6376 13.1327 862 98.4965 346.606 460.896
1996 0 69.3026 13.001 901 98.3274 345.969 469.466
1997 0 69.4047 18.4281 1279 93.0023 346.332 467.681
1998 0 70.1841 13.1226 921 98.4995 346.899 466.581
1999 0 74.2045 9.51425 706 103.363 345.772 463.018
2000 0 77.5356 12.1751 944 100.254 346.81 461.739
2001 0 81.6184 12.4482 1016 99.9547 345.715 460.16
2002 0 84.1853 11.0114 927 101.058 346.642 463.94
2003 0 84.7621 12.8595 1090 99.4468 346.96 453.395
2004 0 88.9705 15.005 1335 96.8015 348.682 454.227
2005 0 91.85 15.1116 1388 98.3256 349.356 450.253
2006 0 93.7653 17.4265 1634 95.6297 348.058 447.258
2007 0 97.0379 11.2946 1096 105.61 350.096 436.682
2008 1 51.4286 12.6778 652 98.8052 349.799 461.551
2009 0 53.7095 17.2595 927 91.5404 349.66 466.076
2010 0 53.7095 17.2037 924 113.85 349.67 466.123
2011 0 56.8476 14.706 836 101.316 350.525 461.695
2012 0 58.886 18.7481 1104 96.7962 351.548 462.353
2013 0 58.8222 14.0423 826 102.656 351.288 461.772
2014 0 60.6282 12.0901 733 105.49 353.321 459.195
2015 0 59.811 14.4288 863 104.804 352.517 456.35
2016 0 60.6604 13.0398 791 107.039 352.786 450.958
2017 0 65.4759 14.891 975 102.421 353.497 455.689
2018 0 63.9313 10.1828 651 112.177 353.682 452.393
2019 0 67.5444 13.295 898 107.559 354.303 454.508
2020 0 72.3453 13.9885 1012 106.543 354.626 454.784
2021 0 73.0915 14.8444 1085 107.112 354.932 451.198
2022 0 72.9393 11.2833 823 114.081 354.479 448.866
2023 0 78.1169 16.3985 1281 105.585 355.6 453.419
2024 0 81.8002 15.4034 1260 107.906 353.993 452.894
2025 0 82.9328 11.5153 955 113.385 352.928 455.362
2026 0 90.2542 16.2098 1463 106.355 353.623 452.752
2027 0 88.7919 12.2534 1088 113.806 351.944 451.056
2028 0 95.8333 13.9513 1337 110.07 352.594 454.403
2029 0 94.8568 13.3675 1268 112.894 351.998 451.262
2030 0 104.91 19.1879 2013 103.958 350.825 445.481
2031 0 106.713 16.1273 1721 109.705 350.98 442.234
2032 1 57.5577 12.5787 724 109.802 349.809 469.141
2033 0 61.7991 11.3756 703 113.196 349.599 463.555
2034 0 64.2911 14.5588 936 107.298 349.792 465.793
2035 0 65.3949 13.5485 886 111.716 346.94 463.55
2036 0 66.333 13.1156 870 112.086 346.572 471.202
2037 0 70.3496 14.3 1006 111.684 346.709 466.91
2038 0 70.4566 13.0009 916 112.83 346.755 464.612
2039 0 74.7164 17.2653 1290 106.506 347.116 460.754
2040 0 77.0314 11.372 876 115.334 345.559 458.944
2041 0 77.9294 13.8074 1076 111.707 347.263 458.967
2042 0 85.7457 16.1757 1387 108.21 346.679 456.104
2043 0 82.8132 14.0437 1163 112.154 346.594 456.264
2044 0 84.8474 13.5891 1153 114.604 346.023 451.514
2045 0 87.1451 13.8849 1210 114.622 346.077 449.837
2046 0 91.0754 16.0417 1461 110.87 346.182 448.293
2047 0 92.74 12.9825 1204 117.21 347.831 443.439
2048 0 95.6241 14.9126 1426 114.587 347.938 438.166
2049 0 99.745 14.7877 1475 114.908 349.346 439.47
2050 0 102.047 15.3556 1567 113.981 349.027 439.723
2051 0 104.787 17.1395 1796 112.172 349.468 435.106
2052 1 62.6202 15.7457 986 104.957 350.719 459.032
2053 0 60.499 12.2316 740 112.03 353.355 457.586
2054 0 63.5549 14.9634 951 107.161 351.342 457.486
2055 0 63.3972 12.9659 822 111.217 351.257 460.637
2056 0 65.2667 12.5945 822 111.46 350.468 459.555
2057 0 67.5871 12.7983 865 111.053 351.895 459.499
2058 0 70.4072 13.1379 925 109.35 350.977 460.205
2059 0 73.4025 14.8905 1093 107.328 352.847 459.451
2060 0 72.2799 11.0957 802 114.854 352.863 460.248
2061 0 76.4164 13.2171 1010 112.624 353.622 459.005
2062 0 77.2961 9.21134 712 118.129 353.36 461.053
2063 0 79.1942 12.9555 1026 114.102 353.585 456.009
2064 0 85.4621 13.1871 1127 113.709 354.586 455.752
2065 0 85.6077 12.9661 1110 112.594 353.736 461.047
2066 0 90.3759 11.7067 1058 116.379 354.45 455.478
2067 0 92.6131 12.9571 1200 115.951 352.469 450.936
2068 0 97.4807 12.6487 1233 114.561 353.934 458.063
2069 0 97.4227 12.8615 1253 116.963 353.568 450.076
2070 0 105.51 14.7664 1558 112.66 352.802 456.073
2071 0 106.446 13.9695 1487 114.233 352.077 450.786
2072 1 58.0786 11.846 688 110.871 350.664 477.054
2073 0 59.3984 10.0676 598 113.537 350.396 475.982
2074 0 60.0923 9.53534 573 115.789 349.438 477.599
2075 0 64.1409 15.2477 978 106.294 348.81 476.802
2076 0 66.3186 13.028 864 111.881 349.633 469.367
2077 0 67.3851 13.6825 922 119.195 348.541 468.188
2078 0 72.1225 11.7578 848 114.697 348.811 469.917
2079 0 76.086 16.5208 1257 108.043 348.364 466.983
2080 0 77.1784 13.9676 1078 112.392 348.023 467.775
2081 0 76.3153 16.6284 1269 109.432 348.371 466.794
2082 0 79.2217 14.7308 1167 113.048 348.953 462.147
2083 0 81.2079 14.5675 1183 113.212 347.39 461.321
2084 0 84.147 17.719 1491 109.046 347.418 454.795
2085 0 88.4532 13.5552 1199 114.923 347.39 458.833
2086 0 87.2742 15.4914 1352 113.297 347.428 456.217
2087 0 91.1179 14.1026 1285 114.125 347.739 453.152
2088 0 90.1817 13.3952 1208 116.866 347.733 449.904
2089 0 94.2899 15.0281 1417 113.742 345.589 450.178
2090 0 97.2433 14.2323 1384 115.075 346.379 446.219
2091 0 96.2146 12.4098 1194 116.75 346.853 448.3
2092 0 101.3 13.4452 1362 116.481 347.369 441.685
2093 0 104.338 15.9865 1668 114.378 349.16 442.734
2094 0 106.518 16.5418 1762 114.788 349.478 438.428
2095 0 108.444 13.9334 1511 119.725 352.277 439.42
2096 0 107.627 13.7047 1475 121.956 351.885 435.732
2097 0 115.307 13.7285 1583 114.857 351.308 433.383
2098 0 120.367 13.2179 1591 114.938 351.948 433.451
2099 1 61.2754 10.3304 633 114.559 353.107 463.682
2100 0 67.4035 10.4742 706 113.057 352 455.241
2101 0 71.3757 11.1663 797 112.488 350.989 463.67
2102 0 72.4213 14.968 1084 108.039 352.484 461.974
2103 0 76.3817 14.1788 1083 109.567 353.483 457.904
2104 0 77.4949 16.414 1272 107.287 353.548 454.92
2105 0 79.4571 10.4333 829 116.372 355.252 456.72
2106 0 84.4482 14.7191 1243 109.787 355.013 456.719
2107 0 85.3818 11.1968 956 114.162 352.354 460.577
2108 0 88.3332 14.2302 1257 110.407 352.412 455.317
2109 0 91.5293 13.2854 1216 112.85 352.783 451.802
2110 0 96.6292 14.6747 1418 110.713 352.47 449.307
2111 0 96.3326 12.0935 1165 116.639 352.293 452.188
2112 0 100.345 14.1512 1420 112.596 351.18 453.866
2113 0 102.502 13.9705 1432 114.124 351.256 452.567
2114 0 103.526 11.089 1148 121.352 349.487 456.603
2115 0 111.35 13.4891 1502 117.67 349.535 455.784
2116 0 117.305 13.4691 1580 114.585 348.987 449.582
2117 1 67.145 12.9421 869 114.907 347.403 472.035
2118 0 68.3523 11.7187 801 113.63 348.462 464.084
2119 0 72.7027 11.6915 850 112.74 347.486 465.066
2120 0 72.4981 13.2417 960 116.285 347.948 461.773
2121 0 75.2372 14.9527 1125 114.091 344.768 465.267
2122 0 78.1114 12.5206 978 118.007 345.801 462.465
2123 0 83.2566 17.2239 1434 109.103 345.6 463.887
2124 0 82.2379 13.3515 1098 116.74 345.07 459.378
2125 0 82.2379 13.3515 1098 138.077 345.07 459.378
2126 0 89.2845 16.4082 1465 110.377 345.339 459.982
2127 0 91.3268 18.9868 1734 107.785 343.778 456.458
2128 0 92.4558 13.52 1250 117.086 344.931 452.56
2129 0 97.6795 14.2609 1393 115.269 344.688 449.452
2130 0 96.6513 11.6605 1127 120.933 345.314 447.692
2131 0 99.5851 14.6508 1459 117.108 345.933 439.746
2132 0 101.367 13.3278 1351 118.603 345.979 440.191
2133 0 101.677 10.7891 1097 122.27 346.821 442.097
2134 1 55.4526 11.5774 642 117.058 346.188 464.181
2135 0 58.4482 11.4289 668 117.132 347.925 463.262
2136 0 60.3094 14.3427 865 111.725 347.558 464.465
2137 0 63.3114 12.1937 772 111.319 348.089 458.6
2138 0 64.194 12.4778 801 110.578 347.643 459.508
2139 0 65.3385 11.3409 741 110.565 349.329 461.453
2140 0 67.1759 12.966 871 107.963 349.656 456.882
2141 0 72.1461 12.5579 906 106.583 349.304 463.374
2142 0 72.1788 11.0005 794 109.69 350.593 461.851
2143 0 76.1464 12.2133 930 107.999 350.512 459.903
2144 0 76.2351 8.0278 612 112.946 350.987 462.588
2145 0 82.2489 11.9515 983 108.381 352.654 455.934
2146 0 82.2604 7.97467 656 114.049 352.819 451.48
2147 0 88.2582 13.5738 1198 105.982 353.614 456.121
2148 0 90.4764 12.2021 1104 108.525 352.997 449.006
2149 0 94.1755 13.7828 1298 105.747 353.381 456.22
2150 0 95.3976 10.3147 984 110.637 353.496 454.342
2151 0 98.4978 10.6398 1048 110.976 353.001 450.253
2152 0 104.464 12.3584 1291 109.607 354.448 452.408
2153 1 59.1953 11.9435 707 107.223 353.508 476.809
2154 0 62.2096 12.49 777 106.026 353.351 475.373
2155 0 64.1416 11.88 762 105.711 354.035 472.518
2156 0 65.3246 11.7567 768 107.467 352.16 473.207
2157 0 69.2625 14.8998 1032 103.017 351.872 472.869
2158 0 69.0937 13.9955 967 105.448 349.683 470.957
2159 0 77.2694 10.9746 848 108.021 349.562 465.584
2160 0 75.2392 11.7226 882 107.66 348.128 465.863
2161 0 81.303 12.5334 1019 106.222 348.971 467.906
2162 0 82.343 16.832 1386 101.666 347.805 464.601
2163 0 82.343 16.832 1386 117.949 345.816 464.574
2164 0 88.2877 13.1955 1165 106.897 347.196 462.906
2165 0 92.2124 12.2435 1129 109.804 346.748 460.047
2166 0 91.3647 13.5501 1238 109.099 346.407 451.821
2167 0 96.3195 14.0262 1351 110.725 346.561 454.323
2168 0 101.247 17.3733 1759 103.649 347.048 453.791
2169 0 100.393 12.5705 1262 110.463 346.176 452.598
2170 0 104.31 13.8625 1446 110.934 346.524 448.422
2171 0 105.417 14.4759 1526 110.482 346.756 446.069
2172 0 108.358 12.3572 1339 115.028 346.282 443.58
2173 0 113.553 14.4602 1642 112.665 346.78 441.245
2174 0 116.23 12.7076 1477 114.975 345.326 435.321
2175 0 116.23 12.6646 1472 133.486 343.334 435.488
2176 1 69.3571 13.2214 917 108.128 345.058 458.832
2177 0 70.5293 17.0567 1203 104.358 345.471 455.594
2178 0 73.183 14.17 1037 111.457 345.459 458.284
2179 0 75.0858 16.4079 1232 109.055 345.448 457.089
2180 0 76.0904 14.0622 1070 113.564 346.996 454.887
2181 0 82.0808 12.8288 1053 114.065 348.199 454.206
2182 0 83.1939 15.1453 1260 111.249 348.347 450.733
2183 0 85.0692 15.552 1323 111.099 349.357 452.728
2184 0 85.2577 13.0663 1114 117.136 348.99 451.407
2185 0 90.1022 17.6022 1586 107.943 350.045 454.566
2186 0 91.0999 12.6894 1156 117.75 351.379 448.878
2187 0 91.0999 12.7333 1160 148.447 351.382 448.677
2188 0 100.093 16.175 1619 109.094 352.176 455.93
2189 1 51.4162 11.086 570 116.468 352.395 470.798
2190 0 55.4671 10.0781 559 120.231 353.005 471.787
2191 0 57.4169 13.2539 761 112.038 353.477 465.595
2192 0 57.2607 11.893 681 110.405 352.142 468.441
2193 0 60.401 12.2183 738 108.963 353.201 462.16
2194 0 64.1739 14.5386 933 107.193 351.226 470.563
2195 0 64.1299 14.7825 948 111.839 353.522 468.891
2196 0 65.0872 11.016 717 117.887 353.556 473.372
2197 0 71.2829 14.9826 1068 111.775 354.075 471.272
2198 0 74.1573 15.2783 1133 111.15 352.804 472.538
2199 0 76.335 13.2967 1015 115.101 352.644 469.822
2200 0 80.2579 13.3694 1073 111.898 351.185 475.419
2201 0 82.195 14.5264 1194 111.25 351.664 469.68
2202 0 81.2338 12.9503 1052 112.575 349.107 470.445
2203 0 86.3105 13.3124 1149 114.548 348.852 462.751
2204 0 91.2231 15.2154 1388 109.254 348.385 466.842
2205 0 92.1638 16.156 1489 108.932 348.131 463.49
2206 0 92.15 13.4021 1235 114.022 348.913 457.24
2207 0 96.1892 12.3507 1188 116.309 347.85 460.112
2208 0 102.119 12.9751 1325 115.915 347.34 455.967
2209 1 54.1628 11.2808 611 117.84 347.646 475.959
2210 0 56.0564 10.1862 571 122.278 347.708 476.172
2211 0 60.1046 11.8127 710 116.244 347.777 474.049
2212 0 61.1165 14.906 911 111.067 348.857 471.506
2213 0 62.0621 11.7624 730 116.075 348.068 471.023
2214 0 64.266 13.3819 860 120.53 345.554 467.04
2215 0 65.094 12.0595 785 121.902 344.838 467.448
2216 0 67.1506 13.1644 884 118.989 345.02 463.68
2217 0 71.0874 14.1235 1004 116.993 343.975 459.014
2218 0 73.0909 14.5572 1064 116.161 344.321 455.341
2219 0 71.1313 11.9357 849 121.713 344.221 456.678
2220 0 74.0605 12.2602 908 120.052 345.358 453.807
2221 0 77.2804 14.5315 1123 118.064 346.511 455.038
2222 0 80.2173 12.8401 1030 118.666 346.533 457.115
2223 0 83.2827 13.4722 1122 118.571 345.785 454.822
2224 0 84.1027 13.5549 1140 117.786 346.78 454.007
2225 0 88.2459 12.0799 1066 118.424 348.911 448.196
2226 0 91.326 14.618 1335 116.394 348.957 445.174
2227 0 93.3537 13.5185 1262 118.623 350.237 443.689
2228 1 52.3839 14.4892 759 109.614 349.175 470.779
2229 0 51.2492 9.40503 482 119.284 353.465 472.124
2230 0 55.537 12.2261 679 116.112 351.694 465.259
2231 0 57.5171 16.3951 943 109.762 353.78 464.1
2232 0 60.2045 14.9823 902 111.755 354.662 467.469
2233 0 60.1951 15.9814 962 110.706 355.181 467.063
2234 0 62.161 15.1381 941 112.474 355.066 467.777
2235 0 65.0932 16.4226 1069 110.576 355.514 469.141
2236 0 66.1218 12.2199 808 118.014 354.609 467.526
2237 0 69.2042 13.2651 918 114.936 355.529 471.807
2238 0 71.1195 14.7217 1047 113.718 354.235 467.849
2239 0 74.2897 18.199 1352 108.093 353.097 471.171
2240 0 73.353 11.7514 862 119.258 352.957 466.16
2241 0 79.2259 13.3668 1059 116.756 351.992 465.076
2242 0 82.428 17.5183 1444 109.809 350.84 469.94
2243 0 83.3202 13.5861 1132 110.446 350.305 466.575
2244 0 87.1655 14.4553 1260 109.537 348.341 461.783
2245 0 88.1807 14.3682 1267 110.609 348.594 460.635
2246 0 91.2113 14.0443 1281 113.151 347.176 458.057
2247 0 95.2452 15.1084 1439 112.644 346.265 452.63
2248 1 54.2914 14.6064 793 107.537 344.536 477.016
2249 0 52.0439 11.4519 596 115.975 344.376 474.633
2250 0 53.0454 13.4036 711 114.326 344.581 469.978
2251 0 55.2301 14.4849 800 109.651 345.055 471.52
2252 0 57.1316 15.123 864 109.944 344.613 468.986
2253 0 57.0586 13.7403 784 113.055 344.746 467.253
2254 0 58.1356 15.567 905 110.84 343.825 467.462
2255 0 61.2037 12.9567 793 114.303 344.343 465.4
2256 0 60.1036 12.6448 760 114.278 344.112 468.734
2257 0 63.2163 15.6605 990 111.664 345.097 460.559
2258 0 63.1106 13.9755 882 115.467 344.7 462.702
2259 0 64.168 16.5036 1059 110.95 345.578 462.355
2260 0 68.2354 13.9077 949 114.502 345.815 460.018
2261 0 71.2423 15.9737 1138 111.435 346.628 462.494
2262 0 70.3243 13.779 969 119.408 346.44 460.11
2263 0 74.2193 14.1742 1052 117.551 348.053 454.886
2264 0 76.1873 17.7589 1353 114.266 347.99 449.824
2265 0 78.2221 17.1307 1340 116.834 349.466 446.661
2266 0 78.2155 14.703 1150 123.453 350.671 441.994
2267 1 38.1306 12.9817 495 120.166 349.764 461.711
2268 0 40.1158 10.3451 415 122.458 350.795 457.402
2269 0 40.126 13.2333 531 121.153 352.316 456.497
2270 0 44.1869 13.9408 616 119.068 351.049 463.914
2271 0 45.1848 14.0755 636 120.278 350.657 464.725
2272 0 46.1313 13.8951 641 119.786 351.635 463.551
2273 0 48.2401 14.7181 710 117.67 351.806 467.33
2274 0 49.1772 15.4747 761 118.084 352.963 464.361
2275 0 52.2118 16.7203 873 116.254 354.204 462.959
2276 0 51.1687 12.9376 662 121.538 353.157 468.042
2277 0 54.1573 17.8554 967 115.307 352.959 467.181
2278 0 55.2467 15.3674 849 120.17 353.117 469.143
2279 0 56.3471 13.9315 785 123.936 352.995 467.927
2280 0 58.2791 15.9234 928 120.041 354.001 467.058
2281 0 58.2791 16.0092 933 144.197 355.015 466.994
2282 0 62.3568 14.8821 928 123.323 352.484 468.983
2283 0 60.3862 15.6824 947 123.602 351.792 469.086
2284 0 64.4637 15.1093 974 125.731 351.18 465.542
2285 0 66.391 17.7132 1176 121.855 350.226 464.128
2286 0 66.3308 17.262 1145 125.292 349.388 461.302
2287 0 69.4482 18.647 1295 124.276 348.758 467.168
2288 0 72.4281 16.0435 1162 128.799 349.429 465.495
2289 0 73.6136 18.2439 1343 124.933 347.663 459.702
2290 0 75.4659 18.1141 1367 125.792 348.256 458.967
2291 0 76.0833 19.2552 1465 124.312 346.12 458.826
2292 0 77.4114 17.5555 1359 128.79 347.698 456.722
2293 0 80.3746 17.9908 1446 127.577 346.53 458.284
2294 0 81.4684 17.4546 1422 129.866 346.439 456.167
2295 0 81.4441 13.7272 1118 125.402 345.994 456.081
2296 0 84.4062 18.328 1547 118.25 345.687 449.673
2297 0 82.4572 16.6874 1376 120.421 345.588 451.171
2298 0 79.3735 12.6365 1003 125.729 345.508 452.251
2299 0 82.3671 14.3625 1183 121.463 344.562 453.769
2300 0 83.3553 17.4314 1453 117.981 345.308 448.344
2301 0 81.4085 16.4479 1339 119.384 345.344 450.274
2302 0 82.2932 16.7329 1377 119.099 345.314 448.293
2303 0 82.444 16.302 1344 120.231 345.629 446.607
2304 0 82.3195 14.4559 1190 120.864 346.711 449.013
2305 0 82.7008 17.4001 1439 118.329 347.421 443.595
2306 0 82.2402 17.0719 1404 117.231 347.989 445.179
2307 0 81.4586 18.4388 1502 116.618 347.079 441.352
2308 0 81.219 15.5259 1261 119.293 349.479 445.111
2309 0 81.2692 15.9101 1293 118.551 348.537 444.821
2310 0 81.3797 17.1296 1394 116.291 350.132 447.643
2311 0 81.4041 15.552 1266 119.975 350.071 444.942
2312 0 80.228 16.6775 1338 118.752 350.592 441.732
2313 0 79.5663 16.4266 1307 118.967 352.78 444.658
2314 0 83.7003 15.1134 1265 118.817 352.787 442.274
2315 0 82.3593 18.5893 1531 114.077 353.551 443.734
2316 0 80.2338 15.405 1236 120.104 353.574 445.824
2317 0 78.4034 17.5885 1379 117.6 354.328 447.263
2318 0 80.1935 16.323 1309 117.595 354.567 448.809
2319 0 79.7068 16.4352 1310 117.145 353.568 450.669
2320 0 81.1996 17.1676 1394 115.958 353.329 447.924
2321 0 79.4268 15.1838 1206 118.903 353.527 452.652
2322 0 80.3927 13.3594 1074 120.729 352.709 454.272
2323 0 82.5009 16.4847 1360 117.885 351.515 457.368
2324 0 80.3159 17.1199 1375 116.801 351.609 455.599
2325 0 79.4835 14.8081 1177 119.411 351.464 457.174
2326 0 79.527 16.7993 1336 115.342 350.945 461.311
2327 0 79.2921 16.5464 1312 117.344 350.05 458.13
2328 0 81.3638 17.1083 1392 115.423 349.69 458.373
2329 0 80.6519 15.7963 1274 119.133 348.557 457.325
2330 0 80.6519 15.7591 1271 149.781 347.559 457.207
2331 0 80.2761 15.945 1280 117.924 346.826 460.75
2332 0 81.4273 18.4336 1501 114.771 347.149 458.458
2333 0 80.3719 14.9555 1202 119.908 347.171 457.053
2334 0 78.1546 16.5953 1297 116.978 346.072 457.759
2335 0 78.378 16.0249 1256 118.373 346.512 452.001
2336 0 80.4244 21.3741 1719 108.579 345.101 454.428
2337 0 75.2631 14.0972 1061 120.605 345.623 451.795
2338 0 79.4257 15.2218 1209 116.323 345.547 456.847
2339 0 79.1024 16.9401 1340 113.732 344.746 457.041
2340 0 78.3602 18.3767 1440 112.323 345.029 453.294
2341 0 81.5606 17.4594 1424 113.734 346.718 448.738
2342 0 79.4282 17.903 1422 114.181 345.911 448.84
2343 0 79.2234 16.0054 1268 114.447 345.8 452.386
2344 0 79.3178 18.5709 1473 112.245 346.524 446.657
2345 0 80.4088 20.3336 1635 108.732 346.465 450.629
2346 0 80.3743 16.448 1322 114.273 347.362 447.97
2347 0 79.4743 17.4773 1389 114.198 347.801 448.897
2348 0 78.3456 18.6481 1461 113.556 349.321 444.051
2349 0 79.2168 17.8498 1414 114.62 348.879 445.987
2350 0 79.2063 14.3297 1135 119.019 350.596 447.5
2351 0 80.2853 17.8987 1437 113.676 350.589 446.932
2352 0 77.1716 16.8326 1299 116.369 351.333 445.628
2353 0 79.4299 17.9278 1424 111.824 350.477 448.028
2354 0 78.4378 15.9872 1254 115.379 352.322 448.466
2355 0 82.4359 16.6311 1371 112.342 352.045 449.978
2356 0 82.4359 16.7645 1382 144.891 353.059 449.996
2357 0 76.3802 15.0039 1146 118.365 353.368 448.854
2358 0 78.3998 16.9516 1329 114.453 354.27 450.753
2359 0 79.4747 17.9428 1426 113.42 353.705 447.486
2360 0 79.2909 19.4348 1541 110.694 354.964 454.386
2361 0 79.2909 19.3086 1531 142.868 355.965 454.334
2362 0 79.2834 19.3105 1531 142.397 356.965 454.334
2363 0 77.4034 17.4023 1347 115.109 352.577 458.364
2364 0 79.3885 19.3353 1535 112.194 352.842 457.635
2365 0 76.1444 19.5812 1491 112.153 351.999 459.064
2366 0 76.2466 20.9583 1598 109.688 351.332 459.504
2367 0 79.4603 20.5637 1634 109.389 351.939 460.382
2368 0 78.4938 18.7786 1474 111.902 351.509 460.135
2369 0 81.5061 20.6856 1686 107.375 349.22 465.942
2370 0 77.4159 18.885 1462 112.59 348.561 462.027
2371 0 79.3941 21.6263 1717 107.024 347.736 464.607
2372 0 77.1372 17.1253 1321 116.011 346.677 462.926
2373 0 78.5206 19.1924 1507 111.534 346.544 462.518
2374 0 82.3408 21.9089 1804 106.455 345.399 455.884
2375 0 82.1223 19.8241 1628 108.211 345.623 458.037
2376 0 82.4238 19.6181 1617 108.189 345.026 458.482
2377 0 82.385 17.8309 1469 110.468 344.84 454.873
2378 0 75.956 15.6143 1186 91.1121 344.308 453.567
2379 1 99.4999 13.99 1392 108.068 345.624 371.122
2380 0 96.4944 16.7264 1614 106.022 345.486 372.138
2381 0 100.396 15.0405 1510 109.427 345.989 368.244
2382 1 58.0646 13.1233 762 109.822 347.345 387.238
2383 0 61.2007 19.6076 1200 99.7167 345.657 387.516
2384 0 62.2323 13.9156 866 109.699 346.379 379.187
2385 0 64.2582 15.0487 967 104.417 343.855 384.288
2386 0 62.3224 11.0875 691 110.86 343.32 384.521
2387 0 61.2395 11.7571 720 111.146 344.578 382.797
2388 0 66.2723 11.1057 736 110.266 343.961 382.126
2389 0 69.248 19.8129 1372 101.052 345.087 378.64
2390 0 69.248 19.9861 1384 130.998 347.098 378.608
2391 0 72.5719 14.372 1043 109.665 345.522 376.597
2392 0 72.2927 14.3721 1039 110.669 346.039 377.5
2393 0 74.4123 15.8979 1183 108.352 347.857 380.403
2394 0 75.299 14.3561 1081 113.062 347.918 375.262
2395 0 79.3452 13.9265 1105 113.251 349.752 376.845
2396 0 83.3618 16.3024 1359 111.489 348.918 375.373
2397 0 81.3024 12.7057 1033 119.742 349.69 376.552
2398 0 88.3964 18.4397 1630 110.427 350.772 376.947
2399 0 90.468 13.4191 1214 117.049 351.681 378.008
2400 0 94.3209 17.0164 1605 113.275 351.571 378.021
2401 0 98.3968 17.7242 1744 112.257 351.775 378.409
2402 0 101.543 15.7766 1602 116.777 351.767 375.566
2403 0 106.497 19.2587 2051 111.719 351.106 374.69
2404 1 58.1505 14.3937 837 117.047 350.283 398.442
2405 0 58.1806 14.3519 835 109.998 352.583 402.659
2406 0 63.1422 14.7128 929 110.67 353.793 405.259
2407 0 64.1297 13.2544 850 114.148 351.935 404.196
2408 0 68.1169 12.5079 852 112.989 351.582 408.385
2409 0 71.3854 13.3361 952 114.745 350.816 403.534
2410 0 72.372 12.2976 890 117.236 349.355 401.113
2411 0 76.3219 14.2816 1090 112.606 349.415 405.076
2412 0 77.2694 15.3877 1189 112.131 347.239 402.889
2413 0 81.6416 21.2147 1732 103.274 346.84 403.221
2414 0 86.5352 17.1375 1483 108.007 346.773 402.917
2415 0 85.4148 14.1896 1212 113.991 346.237 396.916
2416 0 89.4967 19.4085 1737 104.687 345.88 401.347
2417 0 91.5714 14.9392 1368 112.042 346.287 396.932
2418 0 95.3742 14.6581 1398 110.501 345.703 400.086
2419 1 47.1336 10.9264 515 112.761 346.53 417.082
2420 0 49.0694 12.8186 629 107.588 346.579 419.13
2421 0 53.2433 13.8985 740 109.007 345.895 414.85
2422 0 53.265 13.7802 734 107.902 347.196 415.974
2423 0 53.1695 14.6701 780 107.277 346.736 411.854
2424 0 55.2475 14.4984 801 107.022 346.968 413.788
2425 0 56.3026 12.3262 694 112.271 347.631 412.886
2426 0 55.1542 11.9483 659 113.845 347.47 409.545
2427 0 61.234 15.0243 920 107.366 347.036 408.291
2428 0 63.1847 13.057 825 113.765 347.962 392.985
2429 0 63.1847 13.057 825 145.847 347.97 393.086
2430 0 64.148 13.5 866 111.962 350.181 395.008
2431 0 68.2741 15.6282 1067 107.826 350.463 389.642
2432 0 70.4856 13.6056 959 112.321 350.623 385.358
2433 0 72.3527 14.4017 1042 111.813 351.421 381.666
2434 0 76.3941 14.4514 1104 111.465 350.717 376.509
2435 0 76.6718 12.7557 978 113.518 352.298 383.951
2436 0 79.5329 17.389 1383 107.048 351.283 385.821
2437 0 84.4411 15.2769 1290 110.036 352.134 387.067
2438 0 85.3991 15.9369 1361 110.522 352.083 382.631
2439 0 87.4428 15.9647 1396 111.165 351.774 368.438
2440 0 91.3235 16.6332 1519 108.313 353.489 372.224
2441 0 93.1856 14.0902 1313 111.404 352.693 371.103
2442 0 98.6276 13.5256 1334 115.969 353.918 368.756
2443 0 105.557 15.5556 1642 112.157 353.472 368.144
2444 1 55.2147 14.9417 825 108.669 355.011 386.005
2445 0 55.3134 11.2089 620 111.956 351.326 380.202
2446 0 61.5753 15.3471 945 106.951 352.294 387.158
2447 0 61.4296 19.1439 1176 105.228 351.192 386.419
2448 0 61.526 11.8486 729 117.642 351.549 381.645
2449 0 66.4338 12.7947 850 116.538 350.565 375.095
2450 0 69.4407 16.5177 1147 110.5 351.24 378.687
2451 0 71.3565 19.4656 1389 107.803 349.522 374.341
2452 0 75.5781 18.8679 1426 106.254 349.289 369.614
2453 0 76.3477 17.3548 1325 111.086 348.209 356.921
2454 0 76.3477 17.1321 1308 142.596 347.234 356.891
2455 0 78.3926 15.8178 1240 114.515 347.435 357.1
2456 0 82.351 12.0581 993 118.897 347.243 360.493
2457 0 82.351 12.0096 989 159.215 346.228 360.605
2458 0 90.2071 13.5244 1220 114.355 346.962 365.257
2459 0 93.2318 15.1772 1415 111.669 346.895 367.035
2460 1 47.1536 12.2366 577 115.464 347.047 374.718
2461 0 49.1563 13.5283 665 110.371 346.071 364.922
2462 0 52.4784 15.2444 800 106.605 344.984 365.358
2463 0 51.2448 15.1625 777 105.987 344.92 372.461
2464 0 52.3864 15.882 832 105.974 345.4 374.072
2465 0 58.2964 15.7814 920 104.4 345.251 370.395
2466 0 53.1704 13.8423 736 111.727 345.178 361.633
2467 0 54.4129 11.376 619 114.756 345.302 360.457
2468 0 59.3132 15.0894 895 108.221 345.869 366.108
2469 0 58.2258 16.1784 942 107.156 346.318 373.134
2470 0 58.3235 12.2421 714 113.662 346.545 380.766
2471 0 61.399 11.7266 720 115.201 347.065 389.21
2472 0 64.4532 13.6843 882 114.21 346.679 396.425
2473 0 67.3872 13.4447 906 113.502 346.778 405.759
2474 0 66.3068 10.3458 686 115.926 347.085 367.57
2475 0 72.513 12.3564 896 113.843 348.356 349.06
2476 0 72.1134 10.3864 749 117.904 348.764 340.202
2477 0 73.3234 10.9106 800 117.119 349.711 338.142
2478 1 41.0863 9.24882 380 109.337 349.561 366.442
2479 0 43.1121 11.5745 499 108.333 350.13 368.637
2480 0 44.5358 12.0577 537 107.378 349.818 371.799
2481 0 44.2153 11.4892 508 109.169 350.978 376.4
2482 0 45.1236 13.9173 628 104.717 350.844 382.72
2483 0 46.2498 10.1622 470 111.36 351.126 385.66
2484 0 47.4049 11.3912 540 108.385 350.574 398.135
2485 0 50.0363 14.5894 730 104.862 350.415 375.205
2486 0 50.0571 11.7466 588 107.786 350.718 370.08
2487 0 52.2538 13.5875 710 107.231 349.821 364.272
2488 0 56.1528 14.2468 800 105.926 350.1 365.658
2489 0 53.2503 8.16897 435 117.726 350.462 361.745
2490 0 61.0785 20.1708 1232 99.1412 350.144 360.756
2491 0 62.1668 12.6917 789 109.683 349.124 360.323
2492 0 62.295 12.5853 784 111.028 349.249 363.736
2493 0 67.1065 13.0241 874 109.992 347.928 355.705
2494 0 67.1065 12.9347 868 143.826 345.881 355.634
2495 0 71.3693 15.3427 1095 106.267 347.239 363.342
2496 0 71.2239 10.6987 762 113.289 345.403 371.612
2497 0 75.7155 11.8602 898 110.021 346.69 379.582
2498 0 79.1463 11.8009 934 110.517 345.108 380.379
2499 1 54.2682 8.51328 462 114.784 344.524 365.894
2500 0 44.2058 14.2968 632 109.334 344.413 360.926
2501 0 45.5218 13.0487 594 111.601 343.951 361.906
2502 0 45.1469 11.673 527 109.983 343.888 359.199
2503 0 50.2132 14.2194 714 104.843 344.234 363.923
2504 0 50.2108 13.3637 671 106.145 344.693 364.616
2505 0 49.2534 11.7758 580 111.717 344.41 358.759
2506 0 53.1618 14.3336 762 107.134 343.84 357.706
2507 0 54.1744 13.8442 750 106.287 345.047 365.787
2508 0 53.2869 12.3483 658 110.901 345.324 364.348
2509 0 57.2393 15.1469 867 106.829 344.121 357.84
2510 0 54.2306 12.3178 668 112.987 344.775 356.892
2511 0 60.2604 14.0225 845 110.118 345.053 358.525
2512 0 62.2549 11.8063 735 113.261 345.948 367.45
2513 0 63.1434 12.5745 794 113.383 346.686 374.943
2514 1 122.587 14.6182 1792 115.892 346.527 350.216
2515 1 66.3442 11.1238 738 116.038 347.583 391.314
2516 0 69.2374 13.0565 904 117.105 349.462 398.912
2517 0 71.089 12.0272 855 116.151 348.505 341.342
2518 0 74.1189 13.5458 1004 115.058 349.796 340.434
2519 0 71.2509 13.2349 943 117.265 349.221 340.698
2520 1 41.1166 9.65547 397 113.965 350.962 368.091
2521 0 44.4981 12.2702 546 113.507 350.952 370.815
2522 0 44.1118 12.8084 565 109.867 350.441 378.119
2523 0 47.119 14.3467 676 107.33 352.599 365.683
2524 0 45.3006 12.5164 567 111.952 351.296 372.39
2525 0 49.2739 12.116 597 111.538 352.766 376.916
2526 0 51.0531 14.7494 753 109.116 350.995 365.57
2527 0 52.1893 13.0295 680 113.649 351.409 363.212
2528 0 55.17 14.1563 781 112.232 351.031 363.105
2529 0 57.1595 11.7741 673 114.713 350.553 365.235
2530 0 58.127 14.0382 816 110.357 351.01 372.362
2531 0 60.2949 12.1735 734 114.296 350.775 366.752
2532 0 62.1515 13.9659 868 112.403 349.979 363.4
2533 0 65.1401 15.9195 1037 109.449 349.36 361.955
2534 0 67.159 14.3689 965 112.055 349.455 362.59
2535 0 68.1326 11.1841 762 117.343 347.699 365.669
2536 0 70.253 11.4159 802 115.994 347.668 368.58
2537 0 78.3495 13.5547 1062 109.725 348.107 379.594
2538 0 77.2608 11.8559 916 118.231 346.67 363.427
2539 0 80.2034 14.1515 1135 114.625 346.656 356.308
2540 0 84.3651 12.6356 1066 118.424 344.902 346.187
2541 0 87.1349 13.9095 1212 115.724 344.876 344.771
2542 1 47.1195 11.7149 552 111.375 344.344 360.38
2543 0 48.204 9.39755 453 114.748 345.17 355.894
2544 0 52.2492 12.9763 678 111.056 344.047 363.19
2545 0 54.4781 12.6656 690 109.02 344.952 370.788
2546 0 54.5549 11.9696 653 111.527 345.623 372.636
2547 0 54.4586 11.4399 623 115.811 344.443 379.989
2548 0 56.1365 14.1975 797 112.25 344.512 356.971
2549 0 58.1449 17.5424 1020 108.025 343.728 358.594
2550 0 60.3259 13.9575 842 112.658 344.549 358.715
2551 0 62.3273 12.9157 805 114.507 344.998 357.896
2552 0 65.2099 14.5683 950 112.389 344.475 346.859
2553 0 66.2116 12.8376 850 115.304 345.854 341.041
2554 0 69.14 12.9592 896 113.693 344.507 346.441
2555 0 70.485 18.4862 1303 107.552 346.534 345.328
2556 0 72.2992 13.2643 959 114.862 346.908 353.93
2557 0 73.1916 14.3186 1048 113.443 347.987 354.81
2558 0 77.2745 14.5456 1124 112.876 348.496 354.507
2559 0 78.3477 11.5638 906 117.677 350.376 348.625
2560 0 78.3477 11.7425 920 141.746 351.325 348.89
2561 0 83.0478 12.7156 1056 115.634 350.677 364.653
2562 1 47.1339 9.67456 456 111.728 352.535 395.322
2563 0 49.4471 13.3476 660 107.718 351.12 404.626
2564 0 49.5046 11.9787 593 115.11 352.975 416.464
2565 0 52.3029 11.9879 627 110.928 351.617 386.072
2566 0 50.2915 8.09281 407 118.464 351.553 391.047
2567 0 54.2104 11.8058 640 112.808 352.089 374.578
2568 0 57.4144 14.9962 861 108.7 352.539 364.596
2569 0 58.1518 11.4872 668 113.347 351.338 371.527
2570 0 61.1523 11.9865 733 114.87 349.791 379.645
2571 0 64.1862 16.7482 1075 105.159 349.696 392.42
2572 0 66.2732 12.3881 821 112.929 350.039 375.107
2573 0 68.2025 13.284 906 111.726 349.095 370.102
2574 0 71.3634 12.7797 912 112.264 349.174 363.887
2575 0 71.383 12.552 896 114.008 348.381 368.282
2576 0 77.2194 17.7028 1367 104.564 347.155 378.4
2577 0 79.3159 11.8135 937 114.177 345.05 380.175
2578 0 83.3744 16.5039 1376 107.339 345.499 370.005
2579 1 45.216 11.9427 540 107.457 344.45 399.778
2580 0 45.1612 13.0643 590 106.819 343.924 409.097
2581 0 48.0583 12.797 615 104.896 346.283 415.823
2582 0 47.1725 9.64546 455 113.424 345.196 420.301
2583 0 52.2145 13.1573 687 102.994 343.392 401.696
2584 0 51.2891 10.9965 564 105.654 342.966 401.443
2585 0 52.3777 10.7107 561 108.825 344.784 396.082
2586 0 54.2108 9.75821 529 109.095 343.204 393.792
2587 0 57.264 14.3546 822 101.971 343.294 390.333
2588 0 56.1699 10.2724 577 108.738 342.837 380.898
2589 0 56.1699 10.2546 576 142.033 340.823 380.898
2590 0 56.1667 10.2196 574 141.674 338.822 380.84
2591 0 61.1483 9.9921 611 107.494 344.463 368.021
2592 0 63.2587 17.0411 1078 100.781 345.117 355.264
2593 0 73.2404 11.865 869 106.196 345.338 350.865
2594 0 65.1677 13.2428 863 105.054 345.625 347.643
2595 0 70.3042 13.6834 962 105.05 347.2 332.427
2596 0 73.3029 13.1373 963 106.7 346.021 321.493
2597 0 75.2724 13.8165 1040 104.803 347.431 320.024
2598 0 75.2484 12.2395 921 108.039 346.988 319.745
2599 0 80.4349 14.2476 1146 103.668 348.861 319.476
2600 0 83.3849 13.2398 1104 104.125 348.916 325.853
2601 0 88.5214 15.6008 1381 98.8726 349.159 331.804
2602 0 91.327 14.6288 1336 104.709 349.645 323.82
2603 1 47.0978 8.91761 420 105.112 349.214 359.626
2604 0 50.3001 16.8588 848 102.358 349.031 363.358
2605 0 51.1691 15.8299 810 102.346 347.483 372.023
2606 0 55.2367 14.1211 780 103.585 348.608 374.537
2607 0 56.2856 14.9416 841 100.376 347.4 374.092
2608 0 56.2856 15.0305 846 136.403 345.4 374.268
2609 0 49.0829 12.9984 638 107.928 347.619 370.94
2610 1 63.2793 13.8276 875 105.943 347.259 351.101
2611 0 64.2033 13.1769 846 107.566 347.666 353.96
2612 0 65.1582 13.4135 874 107.428 347.765 358.948
2613 0 72.3448 15.8685 1148 103.874 347.601 362.259
2614 0 72.1788 13.5635 979 108.104 347.558 369.389
2615 0 76.219 13.8286 1054 106.928 346.75 381.868
2616 0 77.1813 16.8175 1298 102.396 345.977 389.461
2617 1 92.2914 13.1973 1218 105.804 345.846 365.025
2618 0 90.391 24.9693 2257 93.3057 344.515 356.634
2619 0 86.2635 15.2092 1312 106.204 343.716 357.357
2620 0 92.3554 20.551 1898 100.102 343.311 349.57
2621 0 96.3586 16.1895 1560 106.57 343.519 338.149
2622 0 99.3138 18.94 1881 103.348 343.408 320.362
2623 0 98.3338 16.5355 1626 105.789 341.499 324.082
2624 1 52.2198 13.2708 693 107.242 340.837 337.882
2625 0 54.103 12.9937 703 109.811 340.854 326.805
2626 0 57.2804 17.3183 992 99.6462 340.565 330.827
2627 0 58.2324 15.0088 874 104.034 341.306 330.407
2628 0 60.1857 15.4854 932 103.69 340.636 333.113
2629 0 63.212 18.0029 1138 99.9622 341.247 334.413
2630 0 63.0675 17.6636 1114 101.842 341.807 339.533
2631 0 63.1756 16.6204 1050 103.146 341.475 343.181
2632 0 68.219 16.6523 1136 101.724 342.614 347.195
2633 0 69.1025 17.3366 1198 101.376 342.336 350.542
2634 0 71.1175 14.2159 1011 105.689 343.211 352.174
2635 0 74.264 21.3832 1588 98.7991 343.843 356.642
2636 0 74.191 15.2444 1131 106.452 344.743 360.616
2637 0 78.2526 18.517 1449 103.027 345.409 346.657
2638 0 83.2673 19.4914 1623 99.496 345.896 358.186
2639 0 83.1856 14.7982 1231 107.158 346.217 362.439
2640 0 85.2128 17.6617 1505 102.861 347.74 369.476
2641 0 89.2006 14.6412 1306 106.693 347.708 375.613
2642 1 108.601 14.3092 1554 102.042 350.93 376.242
2643 1 62.743 20.0341 1257 91.5099 352.893 388.475
2644 0 62.7274 16.8188 1055 95.345 352.695 390.724
2645 0 65.7494 17.9469 1180 94.4585 352.503 395.251
2646 0 66.7733 13.8828 927 99.4337 352.673 393.881
2647 0 67.5408 14.6134 987 98.5968 350.617 391.409
2648 0 76.075 22.4384 1707 89.164 350.398 384.231
2649 0 78.609 14.1841 1115 99.0933 349.878 376.877
2650 0 71.5212 15.5758 1114 99.1966 349.041 373.693
2651 0 74.3441 18.0108 1339 96.8043 348.732 376.249
2652 0 74.6877 12.9205 965 103.679 349.304 376.976
2653 1 108.58 7.70858 837 103.906 347.376 389.074
2654 0 108.573 10.7301 1165 147.17 345.1 380.288
2655 1 96.2355 23.0372 2217 89.7668 345.261 362.415
2656 0 94.2476 18.4196 1736 95.5576 345.044 359.45
2657 0 92.0536 21.3463 1965 94.3344 345.034 354.955
2658 0 91.223 18.6905 1705 98.4557 344.508 355.17
2659 0 94.1654 14.7082 1385 101.788 344.02 358.192
2660 0 98.8467 17.7345 1753 95.3468 345.038 354.104
2661 1 109.798 22.2409 2442 86.4398 343.631 330.453
2662 0 105.939 20.7573 2199 88.0628 341.466 336.703
2663 1 76.5909 12.4688 955 94.4 341.228 349.391
2664 1 57.1425 11.6201 664 97.4925 341.107 333.956
2665 0 58.1343 13.056 759 97.8116 342.472 326.627
2666 0 63.8124 19.1812 1224 90.8023 342.132 325.971
2667 0 63.1528 11.6701 737 99.5957 343.335 324.7
2668 0 64.3879 16.2453 1046 95.2237 343.324 320.539
2669 0 71.5585 17.8036 1274 92.124 342.144 329.078
2670 0 68.4507 15.5148 1062 96.0141 344.295 309.251
2671 0 73.2112 20.2838 1485 90.9859 343.747 311.963
2672 0 75.246 13.7017 1031 96.7672 345.059 308.663
2673 0 74.5917 15.6184 1165 95.4077 344.596 308.381
2674 1 144.19 14.8485 2141 100.173 345.35 279.263
2675 0 151.347 17.7804 2691 96.8844 344.93 276.561
2676 1 77.4307 11.0034 852 100.894 346.326 307.427
2677 0 86.453 16.7837 1451 94.0034 346.839 312.748
2678 0 90.0538 15.5907 1404 95.8576 347.293 286.897
2679 0 89.4741 14.1941 1270 99.8661 348.515 281.724
2680 0 98.483 19.7902 1949 92.3309 348.009 295.01
2681 0 96.3037 13.2809 1279 100.592 349.009 291.564
2682 0 104.648 16.6464 1742 94.5666 349.763 278.575
2683 1 58.3202 19.9073 1161 88.54 349.463 307.378
2684 0 57.59 14.829 854 93.3466 351.158 309.944
2685 0 56.1929 18.8992 1062 89.9105 349.098 313.046
2686 0 62.591 21.0094 1315 88.6662 349.088 308.957
2687 0 63.3967 17.3511 1100 90.2255 349.121 318.815
2688 0 66.5016 14.0297 933 93.9121 350.242 320.711
2689 0 67.5282 14.8086 1000 94.117 349.382 329.28
2690 0 71.6045 20.7389 1485 88.9609 349.448 327.562
2691 0 72.2996 19.433 1405 89.1601 349.124 337.581
2692 0 68.3912 12.6186 863 97.0012 350.048 343.778
2693 0 79.6875 13.829 1102 93.716 348.42 350.212
2694 0 76.163 16.3071 1242 91.9573 347.541 360.206
2695 0 81.352 15.7956 1285 91.9642 347.173 342.55
2696 0 84.3955 14.5624 1229 94.5045 346.347 332.977
2697 0 85.6328 20.3193 1740 90.4701 346.557 326.155
2698 0 90.3851 18.4876 1671 91.0646 344.822 332.428
2699 0 92.1144 24.5564 2262 85.3289 344.325 338.248
2700 0 94.9248 18.3619 1743 90.1302 345.621 343.313
2701 0 95.64 17.6182 1685 90.7804 344.139 348.5
2702 0 100.812 18.2618 1841 89.484 343.113 345.948
2703 0 202.539 20.0061 4052 82.772 342.42 313.033
2704 0 201.293 13.3835 2694 87.7379 342.468 317.345
2705 0 206.609 12.4486 2572 84.5906 341.693 332.007
2706 1 169.787 22.6224 3841 82.0594 341.513 319.279
2707 0 177.141 16.5687 2935 86.8477 340.749 313.395
2708 0 179.041 14.2314 2548 87.8399 341.402 334.402
2709 0 186.036 15.8626 2951 88.1135 341.569 329.486
2710 0 192.065 20.5451 3946 85.4422 341.045 334.352
2711 0 182.464 15.4715 2823 83.1612 341.833 348.383
2712 1 161.099 11.7754 1897 87.2736 342.222 318.126
2713 0 164.22 13.8229 2270 84.448 343.155 336.315
2714 1 74.8134 22.6697 1696 79.2895 342.481 365.379
2715 0 81.0557 17.7902 1442 82.1519 343.562 362.74
2716 1 98.8009 22.8945 2262 79.5553 343.297 346.824
2717 1 83.451 19.0531 1590 83.0239 343.862 333.36
2718 0 83.3595 16.4948 1375 84.8444 345.932 307.403
2719 0 88.5687 10.5003 930 92.1323 346.262 286.097
2720 0 91.4323 21.0757 1927 84.1095 345.534 294.39
2721 0 91.5824 14.719 1348 89.4703 346.585 297.523
2722 0 93.4399 13.1635 1230 90.2447 347.52 304.772
2723 0 100.354 17.797 1786 86.304 346.243 306.917
2724 1 59.8613 12.7294 762 86.6903 347.812 311.942
2725 0 57.3394 22.2884 1278 80.2934 346.947 322.192
2726 0 56.3192 16.4065 924 85.8138 349.105 319.029
2727 0 60.5636 13.9193 843 87.4947 350.351 327.562
2728 0 64.3908 16.8813 1087 83.0745 350.688 337.998
2729 1 116.3 13.9983 1628 89.9165 350.05 309.843
2730 0 109.63 14.029 1538 89.8745 349.666 307.155
2731 0 120.68 19.0835 2303 85.7464 349.303 320.502
2732 1 78.4091 14.4881 1136 84.632 349.945 357.206
2733 0 72.6136 21.0016 1525 82.3672 349.098 364.929
2734 0 74.2929 19.9346 1481 83.6624 349.577 369.243
2735 0 75.719 14.501 1098 89.3625 349.7 352.057
2736 0 80.7752 13.7914 1114 90.3528 349.396 358.122
2737 0 78.2606 14.0045 1096 91.729 348.554 366.761
2738 0 82.7105 23.3344 1930 84.6513 347.77 372.004
2739 0 87.4845 12.9966 1137 92.504 349.351 382.465
2740 0 91.294 18.7526 1712 88.0204 348.14 388.85
2741 0 91.3612 13.7257 1254 93.5797 347.28 399.237
2742 0 93.3763 14.8432 1386 92.6912 344.734 408.058
2743 0 98.3682 16.672 1640 90.2152 344.344 409.629
2744 1 52.3593 17.972 941 87.745 345.392 409.92
2745 0 55.2329 15.4437 853 90.279 344.395 408.953
2746 0 55.8956 17.0496 953 89.5897 344.431 409.782
2747 0 56.4802 16.7846 948 90.7162 344.394 403.352
2748 0 62.3735 17.2028 1073 87.3784 343.056 413.849
2749 0 59.1744 13.0631 773 93 343.179 396.737
2750 0 65.3158 20.4698 1337 86.6485 341.497 389.352
2751 0 62.4784 10.3396 646 94.6625 342.729 395.858
2752 0 69.3822 15.4074 1069 90.0374 342.948 387.127
2753 0 71.7847 17.0789 1226 90.3809 343.464 378.86
2754 0 71.7847 17.2042 1235 140.352 343.458 378.891
2755 0 76.3702 16.6295 1270 99.1433 343.591 362.908
2756 0 77.3714 15.8069 1223 100.737 344.944 362.683
2757 0 84.3261 18.132 1529 97.1929 344.033 367.763
2758 0 85.4386 17.5097 1496 99.2059 345.538 370.118
2759 0 86.4042 18.4713 1596 98.4812 345.887 377.66
2760 0 87.2219 13.2879 1159 103.094 347.538 382.5
2761 0 91.6555 16.7911 1539 99.8882 347.526 388.98
2762 0 92.3318 17.8703 1650 97.7358 347.805 396.204
2763 1 80.2559 16.2605 1305 100.014 348.768 385.962
2764 1 104.23 16.5404 1724 99.8295 350.028 360.263
2765 0 104.269 16.9561 1768 100.876 350.87 364.799
2766 0 107.693 21.4962 2315 96.0557 350.679 364.806
2767 0 108.425 21.2496 2304 97.4926 351.129 359.151
2768 0 116.352 19.2863 2244 99.5927 350.643 336.723
2769 0 122.649 20.3019 2490 97.7442 350.849 341.291
2770 0 126.884 23.0367 2923 96.8833 351.698 328.742
2771 0 126.666 17.3685 2200 104.186 352.465 319.945
2772 0 127.984 21.745 2783 97.6389 352.573 328.987
2773 0 132.376 22.7911 3017 98.1687 351.465 321.07
2774 0 135.519 18.027 2443 103.024 352.247 323.051
2775 0 141.967 18.8072 2670 102.221 351.131 330.037
2776 0 146.548 18.9631 2779 103.031 350.964 326.309
2777 0 155.373 17.4998 2719 103.02 350.923 341.752
2778 0 161.213 18.8881 3045 103.571 351.753 323.479
2779 0 164.711 14.8321 2443 109.287 351.627 331.405
2780 0 171.858 21.8843 3761 100.951 350.957 340.64
2781 0 177.776 20.7733 3693 101.318 350.693 352.494
2782 1 75.2776 14.3602 1081 106.241 351.619 401.26
2783 0 78.4346 19.4939 1529 100.636 349.992 406.425
2784 0 68.4617 12.5179 857 109.76 349.089 404.398
2785 1 255.484 13.86 3541 110.897 348.815 327.835
2786 0 265.949 15.4203 4101 110.491 347.83 310.789
2787 0 267.7 14.4303 3863 111.397 347.03 318.797
2788 0 269.033 19.689 5297 102.524 346.031 327.779
2789 1 234.278 23.4593 5496 99.4472 345.33 323.159
2790 0 238.292 18.7081 4458 104.726 345.517 325.574
2791 1 287.362 12.5173 3597 108.186 345.2 333.806
2792 0 290.504 28.0099 8137 90.822 344.588 294.44
2793 1 239.341 14.285 3419 100.752 344.691 347.923
2794 1 70.7134 19.3174 1366 100.593 345.062 402.756
2795 0 73.3283 16.3239 1197 104.1 344.49 400.064
2796 0 76.3865 15.7358 1202 104.247 345.365 400.422
2797 0 76.5983 16.0839 1232 104.196 345.189 397.398
2798 0 81.6534 19.1541 1564 100.506 345.762 391.624
2799 0 85.618 18.1153 1551 101.598 346.7 389.422
2800 0 87.7692 19.0272 1670 100.277 346.837 394.043
2801 0 89.7331 15.7244 1411 104.331 346.419 392.136
2802 0 95.6415 17.346 1659 103.051 348.008 387.647
2803 0 101.619 20.0849 2041 97.9339 347.621 388.189
2804 0 111.879 24.7768 2772 90.7857 346.929 385.77
2805 0 112.696 20.6307 2325 95.4413 348.772 380.682
2806 1 53.4298 16.6761 891 100.738 351.973 409.507
2807 0 56.2547 13.5989 765 105.626 352.171 400.024
2808 0 62.47 17.8325 1114 97.3932 351.977 405.864
2809 0 61.1612 14.6825 898 98.0557 351.51 392.545
2810 0 67.3531 13.3327 898 99.0011 351.586 379.596
2811 0 67.5712 13.8077 933 99.5316 351.293 372.535
2812 0 72.4481 18.358 1330 95.0556 351.387 371.064
2813 0 72.8476 18.8613 1374 95.7198 351.344 367.784
2814 0 74.6039 14.6373 1092 100.732 352.126 366.283
2815 0 77.1002 16.07 1239 99.8345 352.069 362.569
2816 0 81.5339 12.5715 1025 102.566 351.969 363.363
2817 0 84.6853 13.19 1117 101.973 352.441 361.891
2818 1 179.227 22.6138 4053 91.9082 351.917 334.032
2819 1 95.7783 19.8584 1902 93.1388 352.192 374.513
2820 0 95.6669 16.2334 1553 99.4153 351.5 373.959
2821 0 95.3832 15.5059 1479 101.018 352.236 369.523
2822 0 102.965 15.7334 1620 97.5623 350.903 383.86
2823 1 54.5303 13.8272 754 99.0186 351.95 403.962
2824 0 51.3021 18.8686 968 94.7676 351.6 406.595
2825 0 54.611 21.6257 1181 91.1346 350.534 400.272
2826 0 55.5835 17.4512 970 96.2763 349.687 394.162
2827 0 58.2686 18.6378 1086 93.9052 348.678 392.042
2828 0 62.3411 22.3929 1396 89.553 347.479 390.981
2829 0 66.3164 18.7284 1242 92.7987 347.438 389.596
2830 0 63.4741 18.4957 1174 94.2036 347.164 382.708
2831 0 65.1588 21.7776 1419 91.439 346.402 382.143
2832 0 67.3995 19.1544 1291 93.7529 346.923 383.303
2833 0 68.512 22.4778 1540 91.1591 347.268 383.07
2834 0 69.4195 23.6245 1640 92.6817 346.548 372.056
2835 0 72.3936 18.0265 1305 97.8176 345.149 373.037
2836 0 83.039 22.8086 1894 91.5449 343.8 368.639
2837 0 80.5681 20.343 1639 94.5814 343.099 367.69
2838 0 83.8802 17.525 1470 97.9551 343.424 369.098
2839 0 81.5976 15.8461 1293 100.881 343.418 364.986
2840 0 85.3149 24.8726 2122 91.3478 343.198 359.843
2841 0 88.2223 22.7833 2010 92.9159 344.403 363.926
2842 0 90.5881 19.9585 1808 95.6698 344.047 364.652
2843 0 94.0355 15.7387 1480 101.228 345.486 357.303
2844 0 95.7701 17.4794 1674 98.7372 346.048 362.305
2845 0 97.8064 19.0274 1861 98.8812 345.859 355.384
2846 0 102.575 19.8489 2036 96.5133 346.522 359.26
2847 0 108.281 25.1383 2722 91.5698 345.908 348.245
2848 1 56.3739 11.2641 635 104.893 348.635 378.091
2849 0 54.7897 16.2439 890 99.5438 348.158 378.982
2850 0 60.8656 15.5917 949 101.858 348.74 376.002
2851 0 61.5502 25.1502 1548 91.969 348.45 377.117
2852 0 62.1843 18.7668 1167 99.4516 349.586 376.167
2853 0 65.457 15.0939 988 103.73 349.961 376.772
2854 0 70.2835 20.8868 1468 96.9877 350.905 376.021
2855 0 70.6675 18.679 1320 100.534 351.924 373.305
2856 0 73.3105 15.4002 1129 104.82 352.445 376.958
2857 0 71.3741 18.4801 1319 99.6558 351.479 383.269
2858 0 79.39 16.2489 1290 104.219 352.433 377.054
2859 0 80.5996 14.4294 1163 107.169 351.711 378.423
2860 0 81.588 25.8984 2113 94.6517 351.277 382.148
2861 0 83.4932 20.0256 1672 101.927 352.716 377.194
2862 0 89.3364 20.0702 1793 100.293 352.658 384.908
2863 0 94.9825 25.8363 2454 95.4886 352.303 374.776
2864 0 95.7426 20.6805 1980 101.682 351.985 380.162
2865 0 95.3168 19.2096 1831 104.837 351.804 380.406
2866 0 100.294 19.4827 1954 105.38 350.845 375.853
2867 0 104.52 25.9471 2712 97.2006 350.764 376.005
2868 1 55.3336 17.2409 954 107.356 349.27 400.87
2869 0 55.4753 14.1324 784 111.209 349.051 404.093
2870 0 54.2915 16.9271 919 110.069 348.326 401.689
2871 0 60.152 26.5328 1596 96.0357 347.81 402.12
2872 0 62.2606 17.5392 1092 107.583 346.501 400.55
2873 0 65.4419 19.1926 1256 105.184 348.209 397.332
2874 0 75.0968 24.262 1822 96.1652 346.027 395.246
2875 0 75.9049 25.6769 1949 95.6234 345.452 393.942
2876 0 78.6715 23.6808 1863 97.8706 345.538 395.579
2877 1 131.545 13.2426 1742 104.817 345.449 388.804
2878 1 173.825 14.8828 2587 105.611 345.63 358.813
2879 0 178.3 17.1228 3053 102.082 345.313 361.078
2880 1 197.5 15.6709 3095 103.341 344.59 349.234
2881 0 194.452 13.8389 2691 106.935 345.597 352.803
2882 1 95.9701 19.2873 1851 103.286 345.419 387.498
2883 0 95.7649 22.4613 2151 101.144 345.146 394.733
2884 0 94.0733 19.8569 1868 107.791 345.224 388.183
2885 0 92.5634 16.2915 1508 113.206 346.332 391.684
2886 0 91.653 20.2503 1856 109.149 346.826 389.787
2887 0 101.443 21.7166 2203 105.973 347.388 382.007
2888 1 206.748 13.2432 2738 110.385 347.683 358.179
2889 0 208.077 13.0481 2715 109.031 347.284 364.737
2890 0 208.724 14.076 2938 108.296 348.412 360.643
2891 0 206.99 9.38694 1943 116.063 349.031 371.528
2892 0 209.589 11.0979 2326 114.146 350.184 361.186
2893 1 145.898 29.0889 4244 94.3551 348.619 365.1
2894 0 151.042 28.694 4334 95.2107 349.546 362.644
2895 0 157.017 25.4814 4001 98.5031 350.147 365.179
2896 0 153.572 21.6185 3320 104.357 350.925 370.25
2897 1 77.0932 23.6208 1821 102.622 351.758 406.642
2898 0 76.3261 19.4298 1483 108.248 351.544 409.377
2899 0 73.3344 21.1497 1551 108.66 351.716 407.348
2900 0 77.554 16.4144 1273 115.493 353.185 405.665
2901 0 80.9112 17.4018 1408 113.379 353.287 408.823
2902 0 82.4684 19.8136 1634 110.102 354.656 411.536
2903 0 86.3652 20.1239 1738 109.25 353.318 409.903
2904 0 85.3567 16.4603 1405 115.439 353.409 408.115
2905 0 90.4495 18.9608 1715 111.408 353.195 407.063
2906 0 96.8781 20.7477 2010 106.234 352.391 412.088
2907 0 100.603 18.6276 1874 110.458 352.86 409.151
2908 0 102.834 19.7696 2033 110.046 352.898 403.844
2909 0 108.598 18.2601 1983 110.22 351.792 405.197
2910 0 113.564 21.5122 2443 106.004 352.494 396.257
2911 1 57.1998 17.2378 986 109.623 351.547 427.78
2912 0 60.4782 21.3465 1291 104.805 351.311 428.019
2913 0 60.4814 15.4924 937 112.97 350.607 426.281
2914 0 63.2725 15.8995 1006 113.776 349.02 425.254
2915 0 64.4293 18.594 1198 110.053 349.533 422.908
2916 0 70.2393 20.4302 1435 106.622 349.54 418.259
2917 0 70.5374 21.2653 1500 106.369 349.303 415.451
2918 0 81.8077 25.8044 2111 98.027 347.846 414.875
2919 1 183.771 14.5235 2669 109.45 346.847 368.111
2920 0 182.44 14.3828 2624 110.383 347.209 371.843
2921 0 176.634 14.765 2608 112.094 346.411 366.831
2922 1 89.9377 24.0944 2167 101.293 345.893 413.065
2923 0 83.4025 23.4166 1953 106.937 346.142 405.813
2924 0 86.0126 16.2069 1394 116.727 346.351 404.887
2925 0 90.4126 17.2432 1559 114.755 345.947 404.038
2926 0 93.4066 21.0263 1964 109.862 345.172 400.535
2927 0 94.735 18.5042 1753 115.126 345.717 396.126
2928 1 51.5856 14.3839 742 108.802 344.95 422.863
2929 0 54.3744 17.8393 970 105.264 346.214 421.895
2930 0 57.0682 14.8944 850 113.631 347.124 415.446
2931 0 60.6316 18.1259 1099 108.839 347.073 414.51
2932 0 58.5565 14.533 851 115.615 347.458 412.911
2933 0 62.4721 14.2784 892 115.434 348.441 411.336
2934 0 64.5618 15.4116 995 115.648 348.381 409.859
2935 0 67.2673 17.1703 1155 114.121 350.087 409.483
2936 0 67.5789 15.8334 1070 117.769 350.817 404.117
2937 0 71.0446 15.075 1071 117.087 350.393 409.513
2938 0 72.6917 15.6001 1134 119.25 352.113 403.802
2939 0 75.9145 16.0312 1217 117.224 351.772 408.251
2940 0 75.7075 15.0447 1139 120.097 352.543 406.303
2941 0 78.8274 17.2021 1356 116.711 353.379 405.846
2942 0 80.6419 17.4103 1404 117.301 353.516 403.302
2943 0 86.7109 15.3383 1330 118.514 353.989 403.956
2944 0 89.4399 15.6642 1401 118.273 354.469 401.991
2945 0 91.6838 14.5609 1335 120.286 355.002 399.846
2946 0 93.5777 14.8326 1388 118.548 354.05 401.12
2947 0 99.729 16.7053 1666 116.106 353.812 399.055
2948 0 98.5304 12.8793 1269 123.024 353.781 392.111
2949 0 105.744 17.8166 1884 115.475 353.72 394.815
2950 0 109.982 18.4121 2025 114.321 352.881 394.729
2951 1 62.6469 14.3024 896 111.594 352.237 414.61
2952 0 67.9418 13.6735 929 113.009 352.53 418.147
2953 0 67.4615 13.8301 933 112.144 351.867 413.419
2954 0 69.71 8.76488 611 117.627 351.453 416.262
2955 0 73.4602 13.3814 983 112.816 352.495 414.741
2956 0 76.952 14.3076 1101 112.692 350.124 409.666
2957 0 78.7773 13.443 1059 113.281 350.838 411.499
2958 0 80.8007 12.4009 1002 115.19 349.368 408.785
2959 0 86.8814 14.3069 1243 112.219 350.009 407.664
2960 0 85.9935 16.6873 1435 108.9 348.693 407.798
2961 0 89.8924 14.1502 1272 112.634 348.755 405.058
2962 0 94.1306 13.3432 1256 112.923 347.772 407.814
2963 0 93.4924 11.5731 1082 116.075 348.003 405.585
2964 1 54.6817 12.4173 679 104.557 347.654 420.916
2965 0 55.504 12.1793 676 105.401 348.129 417.902
2966 0 59.5049 12.7889 761 109.536 348.846 418.047
2967 0 62.7956 12.676 796 110.525 348.219 415.163
2968 0 63.1598 13.0146 822 109.269 348.237 417.135
2969 0 68.0705 12.9865 884 109.609 347.713 413.463
2970 0 68.5695 12.367 848 111.483 349.018 409.221
2971 0 63.5217 7.11568 452 117.031 348.584 413.091
2972 0 69.7794 13.643 952 112.216 348.924 405.181
2973 0 71.8339 16.566 1190 108.266 348.682 405.039
2974 0 77.0828 16.9558 1307 108.281 347.989 401.122
2975 0 75.0103 12.2516 919 116.229 349.135 396.172
2976 0 77.7664 14.0163 1090 113.432 349.477 399.224
2977 0 81.642 13.204 1078 110.498 349.793 401.981
2978 0 81.7502 15.7553 1288 105.615 350.664 401.159
2979 0 85.2133 9.79894 835 113.622 351.329 399.182
2980 0 86.828 11.9086 1034 112.54 350.773 397.133
2981 0 89.8311 11.3992 1024 111.917 351.034 399.835
2982 0 95.037 16.9092 1607 105.296 352.103 397.719
2983 0 99.1738 14.7015 1458 108.194 352.089 391.316
2984 1 53.9751 11.1903 604 105.028 354.947 415.27
2985 0 57.7788 18.6574 1078 94.8674 352.693 418.373
2986 0 55.3762 7.11497 394 107.858 351.721 414.551
2987 0 59.1977 11.2673 667 104.291 351.153 412.973
2988 0 61.2642 12.4053 760 102.555 350.78 414.886
2989 0 60.3219 10.7755 650 105.472 351.294 412.154
2990 0 64.1481 12.6894 814 101.026 351.204 418.595
2991 0 67.2034 14.5082 975 98.1251 351.583 419.484
2992 0 67.3437 12.4139 836 103.272 351.372 411.97
2993 0 69.2363 13.6345 944 102.224 350.976 411.883
2994 0 72.2365 11.5316 833 102.903 351.343 418.95
2995 0 74.1959 15.0278 1115 99.5722 350.482 417.944
2996 0 77.5199 12.887 999 102.656 350.211 414.025
2997 0 79.3588 11.3031 897 104.649 350.548 412.378
2998 0 84.2064 18.989 1599 96.5998 350.547 410.047
2999 0 85.2507 14.3811 1226 101.763 348.96 407.944
3000 0 84.4512 11.3083 955 105.651 348.379 412.641
3001 0 88.4556 14.5384 1286 102.2 349.145 403.921
3002 0 92.6047 11.8137 1094 106.132 347.525 408.402
3003 0 95.6789 11.0369 1056 106.556 347.686 409.292
3004 0 100.79 15.0213 1514 98.4221 347.332 413.581
3005 0 103.659 12.1649 1261 102.849 345.93 395.623
3006 0 107.282 21.0008 2253 94.423 345.15 394.79
3007 0 103.185 4.39016 453 105.852 344.91 405.57
3008 0 102.147 1.64469 168 105.44 343.28 420.179
3009 1 75.4508 18.0648 1363 86.416 343.418 411.574
3010 0 78.5343 13.8029 1084 90.8773 342.993 411.765
3011 0 78.0968 13.8418 1081 91.3802 343.818 410.677
3012 0 74.2464 15.0041 1114 91.7783 342.92 408.22
3013 0 71.3304 22.4729 1603 85.66 342.766 403.905
3014 1 95.4682 15.4397 1474 88.0665 343.694 399.338
3015 0 94.5914 15.8365 1498 89.1749 344.435 400.501
3016 0 93.955 17.6042 1654 87.7606 344.045 392.282
3017 0 93.334 17.4534 1629 89.0589 345.252 391.22
3018 0 94.6369 21.3447 2020 87.3728 344.237 392.222
3019 0 91.2074 13.5077 1232 97.4115 346.007 400.281
3020 0 89.1449 20.7527 1850 91.8827 346.182 392.875
3021 0 87.2434 21.6062 1885 92.3151 346.653 395.022
3022 0 87.3896 14.3266 1252 100.71 348.812 396.664
3023 1 44.2465 13.583 601 98.218 349.078 415.631
3024 0 46.2002 17.9436 829 91.8926 350.293 413.464
3025 0 47.0315 15.3514 722 94.6427 350.999 417.517
3026 0 50.0553 16.8813 845 96.6698 350.802 424.427
3027 0 52.4875 14.7464 774 98.9897 349.95 422.27
3028 0 54.3757 18.5745 1010 93.5832 350.957 414.402
3029 0 56.3228 16.1214 908 96.8469 351.334 412.063
3030 0 55.3761 10.8711 602 103.311 350.364 417.47
3031 0 60.3361 14.7341 889 98.7008 350.516 419.793
3032 0 58.3039 20.1702 1176 93.4889 351.358 421.265
3033 0 61.3227 16.2746 998 97.8136 350.826 421.009
3034 0 62.1255 18.3338 1139 96.7006 351.09 412.748
3035 0 63.1479 21.3942 1351 92.1214 351.853 406.036
3036 0 67.266 17.3639 1168 96.0625 351.7 407.779
3037 0 63.2227 15.0262 950 97.6337 351.936 408.117
3038 0 72.4628 16.7948 1217 95.5029 351.928 406.193
3039 0 71.1872 15.8596 1129 98.6687 350.136 399.659
3040 0 77.2445 18.435 1424 95.5899 349.729 384.589
3041 0 77.2445 18.5126 1430 119.436 348.776 384.427
3042 0 78.288 16.5032 1292 98.5728 348.896 399.937
3043 0 77.2073 11.9289 921 104.919 348.68 404.81
3044 0 81.1422 13.236 1074 101.76 347.033 414.794
3045 0 90.3245 16.6511 1504 98.3969 347.66 393.372
3046 0 88.2632 15.2612 1347 102.203 345.845 393.276
3047 1 48.3007 11.7182 566 101.641 346.53 414.776
3048 0 49.2194 12.4544 613 105.514 345.08 416.524
3049 0 51.1929 16.1155 825 100.105 344.273 413.264
3050 0 51.1835 18.7756 961 99.2175 344.271 407.214
3051 0 55.529 21.8264 1212 95.2748 344.119 409.587
3052 0 56.1968 21.745 1222 95.4894 343.986 408.351
3053 0 59.4272 14.7239 875 102.56 342.786 405.595
3054 0 65.2211 10.8247 706 106.288 342.251 395.765
3055 0 59.2793 20.9517 1242 97.38 342.732 387.532
3056 0 63.3386 18.1722 1151 98.9592 343.282 386.039
3057 0 66.1691 13.6166 901 105.58 342.454 379.552
3058 0 66.2905 18.4944 1226 98.4282 342.374 382.218
3059 0 69.3728 17.9177 1243 100.629 342.726 377.87
3060 0 71.4055 23.1355 1652 95.2609 343.344 377.081
3061 0 75.2052 20.0119 1505 98.1615 344.248 365.537
3062 0 75.2598 15.5329 1169 103.645 345.554 360.107
3063 0 79.2849 20.4453 1621 97.7464 345.692 356.089
3064 0 86.3529 20.3236 1755 97.3077 346.773 353.422
3065 1 43.2858 13.8845 601 104.521 346.343 380.353
3066 0 45.4048 18.8967 858 98.1748 347.006 389.752
3067 0 46.3373 12.2364 567 100.996 348.397 399.153
3068 0 50.5802 17.4377 882 95.5544 348.579 410.206
3069 0 47.2587 14.6428 692 101.056 349.311 415.38
3070 0 49.5234 16.4972 817 98.4113 350.524 422.519
3071 0 51.3069 16.9178 868 98.6071 350.001 416.918
3072 0 54.309 14.8962 809 100.443 350.565 412.481
3073 0 51.4116 10.698 550 106.849 351.178 403.993
3074 0 58.1411 16.3568 951 98.6498 351.422 400.134
3075 0 57.3051 19.2304 1102 97.7995 350.309 397.799
3076 0 60.3128 15.602 941 100.886 350.34 399.845
3077 0 66.5578 21.3949 1424 93.717 350.639 398.614
3078 0 66.6313 19.8705 1324 96.0317 349.535 391.033
3079 0 67.3174 17.4546 1175 99.2868 349.791 389.657
3080 0 68.2414 18.288 1248 99.004 348.611 385.847
3081 0 71.4263 16.9965 1214 101.373 349.386 381.562
3082 0 74.4088 14.1919 1056 104.222 348.847 384.82
3083 0 74.4316 18.7958 1399 100.401 349.109 384.365
3084 0 77.3482 16.3934 1268 103.009 348.358 386.329
3085 0 78.5059 18.47 1450 101.359 347.22 385.681
3086 0 80.2657 21.2544 1706 98.7433 347.176 378.556
3087 0 81.3487 16.8411 1370 102.761 347.345 380.615
3088 0 86.287 17.2216 1486 104.275 346.472 370.903
3089 0 86.346 15.5653 1344 106.513 345.545 368.897
3090 0 91.212 19.3176 1762 103.162 344.485 359.498
3091 0 95.3216 16.1139 1536 105.144 343.413 369.051
3092 0 99.376 20.6287 2050 100.563 344.456 374.272
3093 0 102.313 18.7464 1918 102.63 343.788 377.648
3094 0 107.602 17.6112 1895 104.14 342.854 377.163
3095 1 57.4424 13.4569 773 105.607 342.101 402.605
3096 0 57.4424 13.6136 782 163.235 342.114 402.574
3097 0 65.3444 19.0682 1246 95.2737 343.404 376.901
3098 0 67.2777 13.7044 922 101.085 343.463 378.381
3099 0 70.1563 17.518 1229 96.7819 343.709 371.676
3100 0 70.2746 21.971 1544 93.8575 343.679 364.829
3101 0 70.3883 18.0854 1273 98.2632 344.163 365.794
3102 0 75.1738 13.4488 1011 103.6 344.77 366.934
3103 0 76.3675 17.1801 1312 99.8133 344.588 371.295
3104 0 78.2493 17.8787 1399 98.1115 345.246 379.877
3105 0 81.5467 15.8192 1290 101.312 345.276 370.594
3106 0 82.3081 17.3494 1428 98.0217 345.947 381.636
3107 0 85.342 15.971 1363 100.497 346.741 384.802
3108 0 86.2861 15.5529 1342 101.719 347.196 392.832
3109 0 90.6449 17.1769 1557 99.4117 346.782 400.595
3110 0 97.4761 22.0875 2153 95.7552 346.9 401.007
3111 0 101.487 18.6921 1897 101.4 348.266 375.585
3112 0 101.388 17.6451 1789 104.421 348.739 374.097
3113 0 108.425 17.874 1938 102.62 347.793 377.43
3114 1 55.0868 13.1973 727 105.726 347.564 394.128
3115 0 58.3206 13.4601 785 106.302 348.538 388.832
3116 0 60.1113 14.6062 878 102.53 349.421 384.816
3117 0 62.0905 15.1714 942 101.193 348.163 388.428
3118 0 65.5073 14.5938 956 99.1098 349.659 396.25
3119 0 68.5742 13.7661 944 99.2426 348.385 402.308
3120 0 66.1355 12.4441 823 103.739 348.565 391.529
3121 0 68.2056 13.4007 914 98.1783 348.55 405.208
3122 0 74.2855 18.1731 1350 96.1993 347.929 398.078
3123 0 75.3862 14.2997 1078 100.337 348.428 395.437
3124 0 67.3732 10.2415 690 103.477 346.803 395.914
3125 1 81.3163 19.172 1559 95.5901 348.947 388.868
3126 0 82.2799 15.8483 1304 97.786 346.934 403.123
3127 0 83.4006 15.8033 1318 99.5144 347.682 399.015
3128 0 86.443 16.346 1413 97.719 346.725 413.245
3129 0 90.2234 15.384 1388 97.4416 346.174 408.066
3130 0 94.6058 15.5382 1470 98.0088 345.229 412.174
3131 0 97.6393 16.0694 1569 99.9426 345.893 410.428
3132 0 104.804 16.7837 1759 95.3331 344.786 406.412
3133 1 52.8116 13.2736 701 94.7261 343.623 427.044
3134 0 52.352 18.1082 948 91.8165 342.635 426.536
3135 0 56.4934 14.9575 845 94.3231 343.083 422.955
3136 0 58.676 16.7701 984 92.0711 342.137 427.128
3137 0 60.3629 9.16125 553 99.8879 341.944 421.358
3138 0 59.5401 14.1417 842 96.228 342.062 419.31
3139 0 61.3776 11.8284 726 99.5096 342.083 403.693
3140 0 66.4644 12.3675 822 98.4258 342.367 402.414
3141 0 68.5891 12.7425 874 97.992 342.287 397.66
3142 0 73.256 15.8895 1164 95.0258 343.1 392.613
3143 0 74.4955 12.0947 901 97.7703 342.355 396.56
3144 0 76.6024 17.1796 1316 94.3685 344.069 381.683
3145 0 78.3119 15.3361 1201 96.1815 342.819 383.718
3146 0 80.4586 13.2863 1069 98.8475 344.387 375.048
3147 0 82.4011 11.444 943 97.895 343.72 389.416
3148 0 85.4591 16.5225 1412 94.3924 344.974 392.178
3149 0 88.4503 10.9101 965 101.536 345.739 393.658
3150 1 110.741 10.502 1163 102.263 346.966 394.094
3151 1 96.5826 6.56433 634 104.339 346.377 393.366
3152 0 101.837 14.3465 1461 97.2553 348.112 377.365
3153 0 101.798 18.134 1846 94.13 348.543 375.354
3154 0 106.549 9.9954 1065 100.357 349.657 384.124
3155 1 56.3314 12.7638 719 96.3783 350.836 401.669
3156 0 58.4136 25.833 1509 85.1637 349.386 387.962
3157 0 50.2724 12.3527 621 100.233 352.264 382.095
3158 0 58.6645 15.6483 918 95.6024 353.138 387.418
3159 1 71.2143 13.34 950 92.461 352.146 406.625
3160 0 65.2189 14.735 961 95.9875 351.86 407.745
3161 0 65.2171 14.6894 958 126.986 350.9 407.71
3162 1 54.3564 15.5271 844 94.6351 352.387 401.975
3163 0 46.3813 13.2165 613 94.9299 352.529 400.016
3164 0 38.088 11.2896 430 99.5233 353.156 393.026
3165 1 85.7975 20.6649 1773 89.4411 351.53 364.055
3166 0 84.2616 18.5138 1560 92.4237 350.501 372.81
3167 0 83.1911 18.4876 1538 94.498 350.25 353.996
3168 0 82.5805 13.5625 1120 101.15 351.012 350.436
3169 0 82.5419 15.7617 1301 98.8886 350 354.644
3170 0 85.3917 14.7438 1259 101.135 349.243 356.304
3171 0 88.3866 14.7873 1307 99.9281 348.946 361.05
3172 1 185.006 20.3183 3759 98.0418 346.611 328.652
3173 0 185.006 20.4588 3785 139.212 345.622 328.737
3174 1 150.015 16.9783 2547 100.56 345.55 308
3175 0 151.688 17.7931 2699 101.234 345.087 307.086
3176 0 157.894 17.1317 2705 103.225 344.199 297.616
3177 1 103.533 19.6458 2034 96.7399 344.534 325.163
3178 0 104.469 16.4642 1720 101.005 343.698 327.772
3179 0 109.634 14.5119 1591 102.725 344.207 316.243
3180 0 114.637 18.0133 2065 98.1293 343.523 320.352
3181 0 123.915 21.5147 2666 94.5244 343.038 318.618
3182 0 122.948 16.9746 2087 98.1184 342.875 309.15
3183 1 69.4269 12.2143 848 96.4564 342.534 338.033
3184 0 71.3689 16.9261 1208 92.4164 342.284 341.285
3185 0 75.1614 14.2227 1069 92.7456 343.783 343.128
3186 0 76.2723 12.8225 978 94.6483 343.444 345.231
3187 0 81.2656 11.1978 910 96.3154 344.198 350.69
3188 0 81.396 15.2956 1245 92.3293 344.132 350.501
3189 0 85.6971 14.8196 1270 92.4598 344.906 356.776
3190 0 88.2661 12.0658 1065 94.7484 345.107 362.086
3191 0 92.4557 13.1739 1218 93.8883 343.871 363.755
3192 0 95.3786 17.5092 1670 89.0108 343.669 349.284
3193 0 99.2649 13.6403 1354 95.24 345.231 342.223
3194 0 99.2346 15.2668 1515 93.2587 346.413 356.583
3195 0 104.498 21.2636 2222 88.4176 346.171 345.447
3196 0 106.365 12.2033 1298 96.7481 348.072 332.193
3197 0 112.5 15.1288 1702 94.0082 347.71 328.55
3198 0 114.593 13.945 1598 95.9406 349.093 333.925
3199 0 116.932 14.2989 1672 95.8828 348.114 338.992
3200 0 122.58 11.7637 1442 97.7822 348.534 347.172
3201 0 125.442 10.7938 1354 99.6573 348.841 364.009
3202 0 132.668 16.5753 2199 91.0869 348.688 364.09
3203 1 76.4654 15.4972 1185 88.8582 348.546 383.969
3204 0 80.2967 13.338 1071 92.1242 349.245 361.294
3205 0 81.387 16.3417 1330 87.6466 347.689 370.42
3206 0 82.3482 13.1393 1082 92.3447 349.379 378.052
3207 0 85.2586 13.2421 1129 92.372 347.565 372.959
3208 0 88.3652 13.6479 1206 92.7222 349.532 371.706
3209 0 89.3348 10.9924 982 94.8534 347.021 390.275
3210 0 92.6458 17.3456 1607 89.2452 348.721 395.42
3211 1 104.172 6.86364 715 92.1469 346.406 424.264
3212 0 95.3934 8.96289 855 95.1158 346.924 420.747
3213 0 95.3934 8.99434 858 132.977 347.89 421.01
3214 0 103.687 14.6499 1519 94.4536 347.826 407.059
3215 1 74.1716 16.4483 1220 88.6254 347.472 395.657
3216 1 113.486 12.0984 1373 97.6613 346.812 370.095
3217 0 117.745 17.0199 2004 90.7585 345.656 370.03
3218 1 61.2646 14.9189 914 88.4825 344.528 382.729
3219 0 62.3603 12.3797 772 90.6386 343.662 385.926
3220 0 66.4516 17.3359 1152 86.6884 343.054 382.809
3221 0 66.442 8.38325 557 93.5619 344.289 386.44
3222 0 70.6664 17.4765 1235 87.1134 343.483 375.505
3223 0 72.6787 16.0019 1163 89.9897 342.215 364.756
3224 0 72.4013 20.0411 1451 86.6782 341.478 367.834
3225 0 76.4924 18.1848 1391 89.2308 342.311 358.843
3226 0 76.4949 13.4911 1032 94.0058 340.63 359.077
3227 0 82.4542 18.7498 1546 88.5809 342.529 359.557
3228 0 81.4574 16.8554 1373 89.284 341.701 365.672
3229 0 85.3665 13.975 1193 96.3764 342.307 330.537
3230 0 88.2057 14.8857 1313 95.265 340.817 324.504
3231 0 92.176 15.3402 1414 94.8748 341.663 328.376
3232 0 96.2108 24.9348 2399 86.6178 341.579 329.865
3233 0 96.2108 24.9556 2401 123.465 341.579 330.097
3234 0 100.336 15.4182 1547 93.8112 342.268 334.063
3235 0 105.491 15.461 1631 94.2955 343.188 331.086
3236 0 105.139 14.1907 1492 95.9062 344.458 330.56
3237 1 55.125 19.8639 1095 87.2612 344.647 343.947
3238 0 57.3857 14.115 810 96.8185 344.728 323.957
3239 0 64.6072 22.4897 1453 87.5719 345.451 328.74
3240 0 58.4168 16.4679 962 93.8867 346.058 328.798
3241 0 58.4168 16.6048 970 120.543 345.047 328.829
3242 0 62.5217 16.2504 1016 92.1142 347.133 348.292
3243 0 61.343 17.0028 1043 91.3854 348.125 357.142
3244 0 70.8528 14.1985 1006 93.4791 348.579 362.092
3245 0 69.484 16.7089 1161 92.8725 348.4 349.857
3246 0 72.1641 16.4763 1189 91.6939 349.471 361.625
3247 0 64.2489 11.0041 707 97.5262 347.262 357.242
3248 1 166.312 25.1095 4176 85.4765 347.796 278.856
3249 0 162.076 16.5417 2681 94.6863 349.137 265.498
3250 0 172.865 25.5575 4418 84.8615 348.343 273.839
3251 0 169.427 26.2532 4448 85.5371 348.442 277.446
3252 1 90.247 17.4189 1572 89.9593 348.991 320.071
3253 0 91.5459 15.3584 1406 91.6878 350.127 323.55
3254 0 95.2949 17.2202 1641 89.2041 349.801 332.195
3255 0 98.4143 14.6523 1442 93.242 350.813 334.854
3256 0 103.251 19.0701 1969 89.4297 349.553 336.435
3257 1 57.3788 13.8204 793 90.6532 349.484 360.131
3258 0 58.1892 13.9717 813 91.1722 349.411 355.156
3259 0 55.2004 12.5724 694 93.4856 349.036 357.483
3260 0 59.2285 13.6421 808 92.0804 347.933 352.23
3261 0 61.2534 19.6397 1203 87.6176 346.989 337.613
3262 0 63.2131 21.6253 1367 84.8998 346.583 342.256
3263 0 64.1748 13.6658 877 93.1505 346.431 337.024
3264 0 64.4325 15.7995 1018 91.8035 346.314 341.118
3265 0 69.4945 20.016 1391 87.6334 345.361 344.848
3266 0 70.3483 12.367 870 94.5667 345.2 343.368
3267 0 70.2936 13.4294 944 94.4682 344.984 347.153
3268 0 77.6466 22.3577 1736 85.9003 343.692 343.113
3269 0 80.4701 18.8393 1516 88.6313 343.723 347.678
3270 0 82.5201 22.4067 1849 86.2071 343.601 350.28
3271 0 85.5208 17.8202 1524 92.3819 343.856 333.726
3272 0 84.8893 19.3428 1642 91.2259 343.7 329.995
3273 0 87.2245 15.7295 1372 96.0729 344.104 329.41
3274 0 90.7839 21.6999 1970 91.1609 342.842 325.996
3275 1 52.8351 16.1067 851 94.6498 344.179 346.415
3276 0 52.5392 15.398 809 96.7478 344.302 342.407
3277 0 56.7412 14.3811 816 96.5453 345.06 348.203
3278 0 59.3649 13.8971 825 95.8582 346.53 348.816
3279 0 60.5359 19.3439 1171 91.076 345.535 350.783
3280 0 54.3242 9.4249 512 103.742 348.117 352.055
3281 0 64.5467 23.7503 1533 88.1598 347.601 348.823
3282 0 66.391 17.7886 1181 94.525 347.674 343.073
3283 0 66.391 17.7886 1181 143.288 347.674 343.073
3284 0 66.3002 17.828 1182 95.9729 350.019 348.442
3285 0 71.5657 16.2368 1162 96.5972 350.52 347.59
3286 0 74.3049 11.224 834 101.983 350.151 346.465
3287 0 76.3813 17.6352 1347 95.4566 350.445 345.819
3288 0 79.4737 18.0437 1434 95.4833 351.626 345.16
3289 0 83.5664 16.5258 1381 97.3671 351.57 340.777
3290 0 82.3672 14.8603 1224 99.29 352.306 319.331
3291 0 87.365 17.7302 1549 96.0336 351.25 320.98
3292 0 88.4565 15.4765 1369 98.9971 350.59 323.812
3293 0 90.3836 17.3151 1565 97.0767 351.391 328.748
3294 0 93.2708 15.6641 1461 99.9268 351.641 321.182
3295 1 53.318 15.4732 825 98.8812 350.559 334.085
3296 0 52.2886 10.6333 556 107.149 348.612 337.48
3297 0 51.1102 16.8068 859 97.7776 348.944 350.454
3298 0 55.1722 16.4575 908 98.7533 349.013 351.256
3299 0 57.0686 17.5753 1003 97.4656 349.023 352.981
3300 0 59.1608 14.2831 845 102.586 348.77 350.768
3301 0 60.1839 14.6883 884 102.707 347.851 347.045
3302 0 62.3707 14.6543 914 101.577 347.821 349.212
3303 0 64.174 17.1721 1102 99.9483 346.276 344.02
3304 0 64.2263 16.1772 1039 98.1444 345.911 347.301
3305 0 66.4184 17.9769 1194 97.026 346.198 344.934
3306 0 72.2138 13.2939 960 102.817 345.89 342.283
3307 0 75.4272 14.6234 1103 100.67 344.596 340.907
3308 0 77.2517 19.4818 1505 95.6671 344.83 333.654
3309 0 77.2388 15.0831 1165 100.415 344.856 319.743
3310 0 80.4405 18.896 1520 96.0599 344.955 320.87
3311 0 84.6136 16.664 1410 98.261 345.261 316.364
3312 0 85.5596 15.4162 1319 101.259 345.149 311.87
3313 0 88.6162 17.0398 1510 98.7444 345.564 309.381
3314 0 90.4558 18.3183 1657 97.6089 345.144 306.49
3315 1 55.1106 10.1251 558 102.106 346.102 327.473
3316 0 53.2864 20.8496 1111 91.3294 345.434 326.15
3317 0 54.2425 13.3659 725 96.1572 344.79 330.847
3318 0 52.2505 15.6745 819 92.8181 345.399 340.43
3319 0 59.1208 14.4281 853 95.7304 345.599 339.091
3320 0 57.1408 18.9007 1080 93.0444 346.996 335.373
3321 0 60.1331 12.7717 768 98.3529 347.837 333.419
3322 0 60.1762 14.5573 876 97.3219 348.395 333.984
3323 0 65.146 20.3696 1327 90.7302 347.914 329.44
3324 0 66.1735 17.3483 1148 92.8545 348.657 336.002
3325 0 66.1256 14.7749 977 95.6049 349.354 336.976
3326 0 69.2209 13.4642 932 99.0225 349.829 331.418
3327 0 71.4097 13.4296 959 100.625 350.849 323.878
3328 0 72.1436 16.2177 1170 96.1991 351.087 330.885
3329 0 78.139 18.6591 1458 93.5316 350.266 327.968
3330 0 79.3565 15.0712 1196 98.1564 350.548 299.265
3331 0 83.1418 19.8937 1654 93.1076 350.069 298.323
3332 0 84.2257 16.7882 1414 100.199 351.494 296.294
3333 0 87.3225 18.0022 1572 97.3225 350.323 303.047
3334 0 90.2155 17.5912 1587 99.0548 351.715 298.544
3335 0 89.0869 16.7589 1493 101.348 350.259 290.578
3336 0 93.2486 20.5043 1912 96.4686 351.464 295.781
3337 0 97.2934 20.3097 1976 97.789 351.336 293.47
3338 0 98.1668 15.9626 1567 102.978 351.234 297.394
3339 0 101.533 22.7218 2307 95.4647 350.43 292.606
3340 0 101.447 14.1355 1434 105.813 350.886 301.305
3341 0 110.384 17.4936 1931 101.241 349.664 305.405
3342 0 110.939 17.2437 1913 102.128 349.901 300.448
3343 1 61.1838 12.8465 786 102.327 349.494 332.729
3344 0 64.2088 14.4061 925 102.136 348.125 324.408
3345 0 66.114 18.4984 1223 99.1308 349.123 328.963
3346 0 68.2848 17.632 1204 98.686 347.362 326.999
3347 0 71.2935 13.6618 974 103.069 349.136 322.539
3348 0 71.3388 17.1996 1227 99.3089 348.209 319.499
3349 0 74.238 22.2662 1653 94.4271 347.08 317.002
3350 0 75.582 14.5802 1102 102.748 347.095 324.501
3351 0 77.2364 15.4979 1197 103.714 346.998 323.697
3352 0 78.3172 17.2504 1351 101.921 347.646 330.09
3353 0 82.3583 14.7769 1217 105.325 347.306 332.306
3354 0 82.129 12.6508 1039 108.959 346.89 326.031
3355 0 86.3335 17.9884 1553 102.833 346.695 321.277
3356 0 90.631 14.2115 1288 106.495 346.61 324.637
3357 0 91.263 18.2549 1666 103.189 346.457 319.549
3358 0 97.3049 18.2108 1772 100.435 346.365 326.991
3359 0 99.318 18.5465 1842 101.923 346.526 322.784
3360 0 102.715 16.8232 1728 104.164 346.639 323.458
3361 0 103.308 16.0782 1661 106.971 348.043 313.816
3362 0 107.311 17.6682 1896 102.997 347.723 316.117
3363 0 114.309 21.4856 2456 99.0916 348.346 318.732
3364 1 62.1448 12.9375 804 111.051 348.027 318.194
3365 0 66.2239 14.6775 972 106.785 349.479 321.852
3366 0 69.4352 19.2554 1337 103.687 348.473 315.58
3367 0 75.1987 19.8541 1493 99.3992 350.2 288.363
3368 0 70.1293 14.3307 1005 110.116 350.177 284.422
3369 0 77.3759 15.1856 1175 107.437 350.105 286.996
3370 0 77.5227 15.518 1203 106.286 351.2 289.732
3371 0 82.3346 16.7609 1380 101.436 353.038 306.709
3372 0 84.2164 20.7442 1747 97.8512 352.68 304.993
3373 0 85.3052 17.2205 1469 102.788 352.433 304.146
3374 0 91.5582 14.428 1321 106.304 353.915 303.533
3375 0 92.4498 15.1217 1398 105.956 353.985 299.609
3376 0 96.4756 18.5747 1792 101.641 354.42 302.783
3377 0 97.3516 21.3145 2075 99.8048 353.887 294.991
3378 0 101.588 16.0157 1627 104.947 353.458 303.64
3379 0 101.588 16.0747 1633 141.796 352.47 303.773
3380 1 176.692 8.35353 1476 113.818 353.67 297.886
3381 0 172.054 18.7383 3224 101.383 353.622 270.932
3382 0 159.28 12.6821 2020 102.936 353.155 290.382
3383 0 124.416 20.1663 2509 98.511 353.278 278.98
3384 1 66.3972 12.0939 803 103.461 353.285 305.645
3385 0 68.5676 13.1257 900 99.8233 352.3 317.713
3386 0 69.305 12.1203 840 101.404 351.599 314.425
3387 0 71.0963 14.9234 1061 97.6221 351.414 319.894
3388 0 75.5192 18.8429 1423 93.5699 351.672 321.632
3389 0 72.1664 13.1779 951 100.069 350.414 323.138
3390 0 77.2593 15.105 1167 98.4662 349.267 324.967
3391 0 79.2521 14.927 1183 99.1919 347.634 321.916
3392 0 77.2808 11.4129 882 104.32 346.941 320.666
3393 0 82.2758 19.4711 1602 94.1099 347.041 326.095
3394 0 91.2741 15.7876 1441 98.5802 348.212 324.448
3395 0 90.2513 16.31 1472 99.7018 347.255 322.345
3396 0 92.4394 18.8015 1738 98.3705 347.314 322.014
3397 0 95.524 22.654 2164 94.1876 347.16 327.467
3398 0 98.6894 22.1098 2182 94.7067 347.068 323.826
3399 1 121.054 21.5605 2610 92.1728 347.179 281.105
3400 0 113.757 26.4775 3012 89.833 347.292 274.021
3401 0 112.938 24.2965 2744 92.363 346.618 270.418
3402 0 114.915 15.655 1799 102.622 345.988 272.909
3403 0 111.152 20.0447 2228 98.5566 346.946 269.073
3404 0 113.869 18.0558 2056 100.164 347.303 276.649
3405 0 127.832 23.1162 2955 91.5073 346.569 270.057
3406 0 135.422 28.1269 3809 88.9737 346.58 272.861
3407 0 135.57 22.4902 3049 93.8557 347.676 268.881
3408 0 134.786 16.4631 2219 101.39 349.422 269.088
3409 1 75.2484 15.5352 1169 99.0548 349.269 303.79
3410 0 76.1428 19.2533 1466 96.2053 349.355 299.882
3411 0 78.3877 12.3999 972 102.533 349.668 300.094
3412 0 78.5142 15.0291 1180 101.269 349.645 307.23
3413 0 88.2977 18.3583 1621 93.8766 351.057 315.362
3414 0 88.2977 18.2677 1613 138.322 354.068 315.307
3415 0 91.5429 16.5496 1515 99.4528 351.836 301.293
3416 0 93.1589 23.1111 2153 93.249 352.135 290.012
3417 0 101.347 17.0503 1728 98.0255 351.792 268.854
3418 0 128.043 23.5702 3018 88.5467 351.894 253.625
3419 0 135.58 24.1555 3275 86.3069 352.476 248.27
3420 0 131.968 25.635 3383 86.5625 351.824 257.636
3421 0 135.598 26.9399 3653 85.4719 351.676 262.782
3422 1 60.224 19.9256 1200 93.9942 351.872 301.73
3423 0 62.1104 16.841 1046 99.5306 351.567 306.512
3424 0 61.116 15.626 955 98.7518 353.344 305.497
3425 0 64.115 22.1789 1422 91.6245 353.12 303.345
3426 0 66.4439 16.2694 1081 97.6698 353.046 314.571
3427 0 69.1448 12.7848 884 103.066 351.926 316.821
3428 0 69.2885 15.0241 1041 97.9126 352.664 315.568
3429 0 74.4346 16.9276 1260 97.496 352.049 312.291
3430 0 73.5126 15.6708 1152 100.809 351.363 305.977
3431 0 74.1296 17.6718 1310 98.2893 351.531 312.16
3432 0 78.2798 16.9009 1323 99.3537 349.191 309.064
3433 0 80.3434 17.3007 1390 99.5504 349.114 308.532
3434 0 84.4966 15.184 1283 104.463 348.95 307.052
3435 0 85.6656 16.1208 1381 103.941 350.094 298.173
3436 0 88.4474 17.4793 1546 101.451 349.904 303.352
3437 0 69.3717 6.83276 474 105.517 348.909 305.084
3438 0 72.4363 9.78792 709 106.063 348.501 299.993
3439 0 77.3131 9.86896 763 107.506 348.52 301.702
3440 0 74.3228 10.1315 753 105.169 348.374 304.1
3441 0 65.3643 14.2585 932 100.989 347.399 305.271
3442 0 58.5622 13.5412 793 104.794 347.942 297.219
3443 0 57.3485 15.5366 891 102.596 348.485 295.657
3444 0 64.2873 12.1175 779 103.65 347.458 300.9
3445 0 60.4642 15.6291 945 101.267 347.977 298.023
3446 0 65.3456 13.5128 883 105.07 348.684 296.379
3447 0 64.1604 15.7262 1009 104.196 349.322 292.756
3448 0 68.2474 14.3742 981 108.432 347.692 293.68
3449 0 74.5452 17.2513 1286 101.855 347.93 300.921
3450 0 75.185 15.7345 1183 106.254 348.937 295.984
3451 0 80.3876 17.0797 1373 104.469 349.047 298.304
3452 0 77.1462 17.3437 1338 106.022 348.353 298.635
3453 0 78.2617 13.1993 1033 113.773 350.24 292.054
3454 0 83.2117 17.6898 1472 106.585 349.796 292.224
3455 0 88.2586 17.7207 1564 105.35 352.291 299.503
3456 0 105.942 24.0321 2546 93.8288 351.115 284.081
3457 0 91.3549 20.6119 1883 101.721 351.148 270.295
3458 0 95.5014 20.073 1917 102.642 351.878 266.536
3459 0 101.703 22.605 2299 98.3867 351.202 266.211
3460 0 102.398 22.0025 2253 99.8047 351.611 265.801
3461 0 104.51 20.4191 2134 101.87 353.449 267.297
3462 0 107.187 18.5004 1983 104.705 353.945 265.248
3463 0 111.404 21.3009 2373 100.178 351.224 274.44
3464 1 58.4453 15.5872 911 107.211 352.273 304.431
3465 0 62.4556 14.3462 896 106.529 352.124 299.746
3466 0 69.2193 21.7569 1506 96.9495 351.706 298.916
3467 0 67.2527 14.4976 975 109.516 351.281 301.36
3468 0 67.2787 16.5877 1116 106.049 351.54 313.064
3469 0 73.7561 17.5714 1296 103.461 351.129 316.805
3470 0 74.374 15.0725 1121 108.933 351.657 315.013
3471 0 80.614 24.8964 2007 94.8635 351.477 316.108
3472 0 79.2664 15.4038 1221 107.847 349.862 312.201
3473 0 84.4127 16.1232 1361 105.802 350.333 307.043
3474 0 88.6638 21.9594 1947 98.4011 349.761 309.522
3475 0 91.6156 21.8958 2006 97.7881 348.955 305.818
3476 0 93.7236 19.3868 1817 99.2367 348.228 300.261
3477 0 96.4286 20.0667 1935 98.9674 348.062 304.718
3478 0 100.957 24.862 2510 93.094 347.666 304.297
3479 0 106.065 24.1173 2558 93.4875 347.334 295.538
3480 0 108.574 25.0982 2725 91.9494 347.499 302.756
3481 0 109.732 26.6923 2929 90.8464 347.157 296.64
3482 0 111.699 20.1971 2256 97.3812 347.082 295.678
3483 0 118.526 21.354 2531 95.6199 346.953 286.304
3484 0 120.637 28.4988 3438 88.5486 347.257 291.33
3485 1 62.6133 17.3126 1084 99.4207 345.138 319.87
3486 0 66.454 15.5747 1035 101.558 345.978 317.464
3487 0 71.6932 25.0373 1795 90.7376 345.968 315.075
3488 0 70.5045 17.2471 1216 99.8898 347.133 306.598
3489 0 74.2509 20.1075 1493 95.0188 347.091 318.476
3490 0 76.7079 25.5124 1957 90.6428 346.757 316.641
3491 0 78.8124 15.6447 1233 102.281 347.139 312.244
3492 0 84.8569 20.5051 1740 96.0379 347.674 312.13
3493 0 81.8771 17.1843 1407 101.434 347.168 310.519
3494 0 83.6027 15.9684 1335 101.614 347.825 315.386
3495 0 83.608 12.7978 1070 106.909 347.226 311.185
3496 0 87.7328 21.6111 1896 95.2911 348.551 313.377
3497 0 94.5868 21.9904 2080 94.2918 348.282 310.429
3498 0 98.9195 17.489 1730 99.4884 349.425 308.932
3499 0 104.693 26.4773 2772 89.7742 348.954 305.102
3500 1 60.1999 11.0798 667 101.552 350.27 309.994
3501 0 58.2235 12.1944 710 103.565 350.779 297.382
3502 0 59.2106 14.4231 854 100.827 351.084 295.707
3503 0 65.1921 17.1186 1116 92.5367 351.778 308.586
3504 0 66.1754 18.4661 1222 93.0393 352.229 309.999
3505 0 66.2671 12.7665 846 100.144 351.715 311.559
3506 0 72.2322 19.6588 1420 92.569 351.72 314.007
3507 0 71.0903 13.4617 957 101.072 351.826 313.863
3508 0 75.2232 11.539 868 104.501 351.657 316.141
3509 0 80.3914 15.5489 1250 98.44 351.254 323.599
3510 0 79.3109 13.7938 1094 101.901 351.952 324.496
3511 0 83.2021 18.3289 1525 95.5423 351.379 330.066
3512 0 87.5911 11.8962 1042 105.717 350.625 324.311
3513 0 92.338 18.1074 1672 95.5389 349.043 333.37
3514 0 82.2491 9.95756 819 102.724 348.446 329.526
3515 0 96.2603 21.6808 2087 94.2046 347.595 298.247
3516 0 97.4031 21.0671 2052 95.4479 347.346 295.169
3517 0 103.464 25.0619 2593 91.275 345.801 292.546
3518 0 108.177 22.2506 2407 93.8583 345.552 294.682
3519 0 111.471 21.4406 2390 94.5929 344.966 289.985
3520 0 117.655 24.9287 2933 90.1657 345.158 289.956
3521 0 118.539 19.9681 2367 94.9746 345.262 286.221
3522 1 64.6087 16.0195 1035 96.9459 346.18 313.558
3523 0 68.5233 14.7103 1008 96.7272 344.056 318.387
3524 0 70.0902 15.7083 1101 97.4723 346.697 323.12
3525 0 72.1134 18.0133 1299 95.3487 346.475 326.43
3526 0 73.3154 17.1997 1261 96.6757 345.828 325.07
3527 0 75.2134 16.5396 1244 97.754 345.74 325.158
3528 0 77.1896 14.3543 1108 100.614 346.367 328.282
3529 0 80.1871 20.2277 1622 94.2935 345.151 329.821
3530 0 80.5067 14.0982 1135 101.982 345.263 314.488
3531 0 86.4626 20.078 1736 95.5288 344.848 275.242
3532 0 91.591 18.67 1710 94.0532 345.541 262.705
3533 0 94.4397 27.9543 2640 86.1114 344.625 274.435
3534 0 99.4321 27.2246 2707 87.406 344.898 261.775
3535 0 98.2424 17.9352 1762 96.7787 345.78 270.565
3536 0 105.451 20.6067 2173 93.7538 346.215 271.762
3537 0 108.942 24.3801 2656 89.3445 345.578 268.405
3538 0 106.596 20.3197 2166 94.6731 346.689 269.764
3539 0 117.748 22.6247 2664 90.3998 346.506 269.851
3540 0 118.583 16.8152 1994 98.1374 347.519 279.596
3541 1 65.2775 15.7635 1029 95.587 347.961 309.254
3542 0 67.5358 19.7969 1337 92.8743 347.622 299.619
3543 0 68.3599 20.0849 1373 92.4953 348.206 305.156
3544 0 70.5347 17.5091 1235 96.1158 349.753 302.62
3545 0 73.5743 15.6169 1149 99.9722 349.575 310.285
3546 0 75.3238 14.1522 1066 101.371 350.285 311.07
3547 0 79.7523 22.1436 1766 91.6653 348.976 288.497
3548 0 81.9042 23.6007 1933 90.1899 349.505 293.341
3549 0 85.0154 20.1022 1709 94.5038 350.143 288.79
3550 0 97.6739 20.9677 2048 91.145 349.497 293.312
3551 0 93.6401 21.7108 2033 92.7009 349.208 292.161
3552 0 90.8677 22.8684 2078 92.8383 349.438 300.877
3553 0 98.8078 20.2413 2000 94.965 350.164 298.282
3554 0 93.3388 15.9526 1489 101.121 349.453 297.24
3555 0 101.075 24.5858 2485 91.4519 349.6 293.772
3556 1 53.3078 16.6392 887 96.8918 349.715 330.339
3557 0 54.3979 15.5888 848 100.509 350.88 326.283
3558 0 58.2964 15.8843 926 99.8434 349.4 326.755
3559 0 59.0779 15.4542 913 101.456 349.014 328.289
3560 0 58.123 22.6416 1316 92.4878 347.465 331.895
3561 0 65.1173 20.3018 1322 94.7148 346.989 323.909
3562 0 64.5026 18.6504 1203 95.6525 346.248 331.002
3563 0 66.4531 17.9525 1193 96.6077 346.381 326.609
3564 0 71.5393 18.2417 1305 96.0628 345.398 322.654
3565 0 71.1872 17.4891 1245 96.6755 345.669 323.568
3566 0 80.3405 23.6742 1902 88.6966 346.056 318.427
3567 0 78.4524 23.2753 1826 89.1062 345.855 321.246
3568 0 78.3553 21.4663 1682 92.717 346.04 317.348
3569 0 84.3365 25.1611 2122 87.77 345.785 311.12
3570 0 88.486 24.2637 2147 87.9115 345.243 311.201
3571 0 88.3926 21.3593 1888 90.4131 344.874 313.105
3572 0 88.492 21.8212 1931 90.7488 344.349 308.586
3573 0 92.531 24.1 2230 88.4843 344.998 304.001
3574 0 91.4664 18.6407 1705 95.3683 343.532 306.962
3575 0 99.9002 24.3743 2435 88.2341 343.011 298.459
3576 1 48.3724 19.2259 930 96.9667 344.574 326.578
3577 0 51.2217 15.9112 815 97.8712 344.085 329.225
3578 0 53.3093 15.9822 852 99.169 345.547 325.347
3579 0 56.4159 13.755 776 100.976 345.201 326.626
3580 0 54.1158 20.8627 1129 94.2206 344.345 326.463
3581 0 58.4949 13.779 806 102.582 345.261 325.223
3582 0 57.3958 17.4229 1000 100.029 345.393 321.203
3583 0 60.5024 19.3215 1169 97.3533 345.636 324.896
3584 0 63.3434 17.6972 1121 100.744 347.175 320.825
3585 0 69.5291 18.8842 1313 97.8873 347.301 325.595
3586 0 66.3047 14.4635 959 106.459 348.765 322.083
3587 0 70.3869 18.6682 1314 100.759 348.816 322.573
3588 0 72.525 21.5512 1563 97.5739 349.098 326.905
3589 0 74.381 16.9936 1264 104.856 349.623 321.825
3590 0 77.5471 20.9034 1621 98.9161 350.039 327.927
3591 0 77.549 17.8597 1385 104.792 351.234 324.143
3592 0 82.4527 20.157 1662 99.2918 351.134 327.455
3593 0 83.5083 19.543 1632 101.863 351.26 320.36
3594 0 86.6547 22.9993 1993 98.426 350.705 321.033
3595 0 89.2455 18.5556 1656 104.769 350.531 322.017
3596 0 92.3648 21.2743 1965 101.845 350.812 320.886
3597 0 97.7411 20.4725 2001 101.799 350.832 324.061
3598 0 100.602 22.077 2221 99.8735 350.616 326.011
3599 0 105.631 21.4805 2269 100.052 350.011 321.337
3600 1 54.1688 11.3349 614 113.717 348.954 338.45
3601 0 58.2276 12.537 730 108.464 349.508 342.336
3602 0 62.3356 14.9513 932 106.871 348.637 342.646
3603 0 65.3547 15.1634 991 105.478 349.446 343.317
3604 0 65.3547 15.2705 998 154.659 350.464 343.372
3605 0 74.366 18.1266 1348 98.4451 347.07 349.461
3606 0 71.1203 13.7092 975 107.843 345.94 343.385
3607 0 69.5761 15.4507 1075 106.728 345.794 339.559
3608 0 74.1338 15.3776 1140 106.496 346.241 339.448
3609 0 78.4272 19.6488 1541 98.2914 345.7 346.219
3610 0 78.3813 16.1518 1266 104.227 345.194 341.735
3611 0 80.2271 15.3439 1231 106.287 346.755 340.539
3612 0 84.4741 19.4734 1645 98.4401 344.707 343.783
3613 0 85.3009 16.9752 1448 104.414 345.236 334.416
3614 0 90.3092 17.7723 1605 102.063 344.894 336.779
3615 0 100.532 24.2212 2435 92.0756 344.884 333.463
3616 0 95.6932 17.577 1682 101.551 345.291 331.849
3617 0 99.2368 18.8841 1874 100.603 345.536 327.647
3618 0 103.212 22.507 2323 95.8321 344.641 325.468
3619 0 106.563 22.8034 2430 94.2613 345.103 323.19
3620 1 61.2615 14.6095 895 97.3028 344.28 351.228
3621 0 64.2924 15.5073 997 93.7713 345.117 357.452
3622 0 63.0927 14.978 945 100.665 346.533 349.941
3623 0 66.2665 13.2948 881 102.028 347.03 338.457
3624 0 64.3431 12.5421 807 104.449 346.907 336.98
3625 0 68.516 12.2745 841 104.249 347.81 342.366
3626 0 74.5659 15.6238 1165 99.9846 347.385 342.394
3627 0 73.4219 14.9683 1099 103.058 347.906 342.065
3628 0 78.4224 20.6956 1623 96.7554 348.892 346.585
3629 0 75.7957 12.4941 947 109.56 348.92 337.631
3630 0 84.3864 20.7498 1751 96.301 349.167 346.154
3631 0 83.5539 14.4099 1204 105.122 348.806 347.96
3632 0 84.5536 13.6954 1158 107.576 350.895 351.101
3633 0 89.3265 16.5125 1475 102.692 348.993 359.481
3634 0 93.7917 16.3021 1529 103.306 349.861 354.33
3635 1 47.4414 7.65154 363 105.711 349.733 382.854
3636 0 49.2173 7.51768 370 105.976 349.97 382.846
3637 0 52.4606 10.6937 561 105.043 350.54 382.513
3638 0 54.3153 13.7162 745 105.188 352.489 370.117
3639 0 56.3784 13.6754 771 101.071 352.429 342.431
3640 0 57.3997 14.0942 809 100.658 352.528 341.672
3641 0 61.572 15.3804 947 100.43 351.046 346.823
3642 0 61.3189 14.4327 885 103.475 353.177 346.145
3643 0 63.5217 14.6407 930 103.711 352.018 346.132
3644 0 68.6752 12.3917 851 104.606 352.051 349.777
3645 0 68.6575 16.8955 1160 100.859 351.211 348.676
3646 0 70.843 15.9649 1131 102.811 350.377 346.359
3647 0 74.8009 13.9303 1042 105.865 349.904 345.684
3648 0 76.6818 17.5531 1346 98.8447 349.214 350.805
3649 0 79.9414 16.5621 1324 101.178 348.113 347.369
3650 0 82.0268 14.1539 1161 104.761 347.975 347.916
3651 0 80.8398 16.477 1332 101.838 347.542 349.946
3652 0 91.5125 16.5005 1510 101.528 346.985 344.228
3653 0 89.9306 20.6381 1856 96.5048 347.161 341.295
3654 0 89.9128 23.8676 2146 93.3495 345.897 345.258
3655 0 90.8597 20.0529 1822 99.3946 346.035 339.521
3656 0 97.317 21.3529 2078 96.5746 346.657 339.506
3657 0 94.8901 18.3581 1742 102.488 345.729 335.177
3658 0 97.3823 21.4721 2091 98.2386 345.182 334.583
3659 0 100.661 19.2826 1941 100.759 345.076 332.394
3660 0 101.735 20.0225 2037 101.716 346.054 329.856
3661 0 108.849 23.8403 2595 95.5048 346.306 331.533
3662 1 60.6958 18.3868 1116 98.8378 346.715 357.982
3663 0 62.662 15.4799 970 103.266 345.561 354.513
3664 0 60.5889 14.5241 880 107.836 345.869 348.315
3665 0 63.4123 19.5073 1237 95.8723 345.565 348.693
3666 0 64.2701 16.8508 1083 100.067 346.345 346.757
3667 0 65.4763 13.3789 876 106.677 347.024 343.999
3668 0 74.4422 18.0274 1342 99.3182 347.039 344.857
3669 0 71.9106 17.4105 1252 103.367 347.23 337.203
3670 0 74.7926 13.6778 1023 108.48 348.166 343.637
3671 0 77.6658 13.777 1070 108.46 348.516 343.791
3672 0 78.6334 15.1971 1195 106.975 350.105 344.783
3673 0 83.672 13.6246 1140 109.039 350.007 344.916
3674 0 87.5874 13.0384 1142 108.405 350.485 350.954
3675 0 88.5585 13.9908 1239 109.491 350.235 343.565
3676 0 88.617 13.5866 1204 110.623 350.694 343.383
3677 0 95.6005 14.592 1395 108.453 350.605 345.558
3678 0 96.2865 17.3649 1672 104.124 351.826 350.973
3679 0 103.483 21.3271 2207 97.7372 351.345 349.008
3680 0 103.483 19.5587 2024 140.844 350.124 349.876
3681 1 60.1979 10.4489 629 100.765 351.011 367.211
3682 0 64.154 17.5671 1127 89.6256 351.762 358.165
3683 0 66.1378 13.3358 882 95.4206 353.018 350.17
3684 0 65.113 10.8273 705 100.155 352.099 347.06
3685 0 67.1593 11.8375 795 97.5572 351.849 355.425
3686 0 71.1246 13.1319 934 96.8972 350.961 357.206
3687 0 75.127 14.5354 1092 94.6218 350.718 358.568
3688 0 77.2633 10.0177 774 99.7817 349.921 362.351
3689 0 81.1619 11.4463 929 97.7104 350.771 365.947
