time division length width area intensity CMx CMy
0 0 42.1341 11.7245 494 143.648 816.753 474.753
1 0 42.1269 12.9846 547 139.283 815.007 473.316
2 0 44.0891 11.9531 527 141.731 814.989 474.412
3 0 43.2514 10.9129 472 146.61 814.608 473.608
4 0 47.2344 14.2481 673 134.467 813.361 473.366
5 0 49.2646 14.2293 701 131.134 812.789 472.705
6 0 52.1149 13.7964 719 134.071 810.752 471.526
7 0 52.1149 13.8924 724 145.035 807.762 471.471
8 0 52.1013 13.9344 726 144.438 804.762 471.453
9 0 54.0759 12.0201 650 139.638 808.963 469.783
10 0 56.1956 14.2894 803 131.405 809.097 471.714
11 0 59.4656 13.9745 831 132.765 808.31 466.943
12 0 63.2585 20.3293 1286 114.524 807.772 465.161
13 0 62.0806 14.6584 910 128.198 809.036 463.012
14 0 66.3736 12.0831 802 128.648 807.257 461.132
15 0 66.1066 13.4177 887 129.443 807.228 461.419
16 0 70.1105 15.1475 1062 126.384 807.406 455.056
17 0 73.157 15.4326 1129 125.536 807.629 455.938
18 1 158.081 14.3661 2271 129.724 808.286 413.999
19 0 161.775 14.5758 2358 125.341 807.932 409.112
20 0 167.974 10.6267 1785 133.049 807.395 414.898
21 0 175.594 13.1895 2316 130.388 807.093 395.761
22 1 46.1707 15.486 715 119.375 806.696 460.573
23 0 50.1353 14.6603 735 119.335 811.664 462.313
24 0 50.1759 14.9873 752 124.54 810.946 458.44
25 0 48.0918 11.9563 575 131.384 811.897 459.821
26 0 54.0592 14.3176 774 124.982 811.823 456.382
27 0 56.036 12.6883 711 125.284 812.755 458.613
28 0 57.1271 16.8046 960 119.097 813.147 452.585
29 0 57.1271 16.9972 971 117.94 813.161 452.701
30 0 59.0905 13.4539 795 122.819 815.27 454.086
31 0 63.0873 12.554 792 124.516 814.644 450.077
32 0 63.158 11.3683 718 124.074 815.755 454.247
33 0 66.086 13.7851 911 117.986 817.799 451.944
34 0 71.1819 11.8148 841 122.187 818.183 452.489
35 0 72.1141 13.2845 958 121.946 819.25 449.986
36 0 78.1694 16.2596 1271 113.422 819.235 450.071
37 0 80.1266 15.3507 1230 118.135 821.128 446.177
38 0 83.183 13.861 1153 119.822 819.521 447.003
39 1 45.124 13.0308 588 115.804 821.73 467.68
40 0 45.12 14.0071 632 110.226 820.665 469.907
41 0 49.2073 16.4407 809 104.504 819.952 468.702
42 0 49.3033 14.1776 699 109.07 818.876 466.08
43 0 51.2904 15.11 775 106.988 819.186 466.844
44 0 53.2921 13.7356 732 109.689 819.343 469.169
45 0 54.3709 13.6838 744 105.945 818.812 469.31
46 0 53.1282 14.2109 755 120.909 817.909 470.281
47 0 55.3365 13.1017 725 122.418 816.883 469.581
48 0 61.2895 13.9339 854 116.109 816.658 473.089
49 0 60.2471 13.5442 816 118.284 816.501 470.712
50 0 63.1631 14.8346 937 116.818 816.715 467.39
51 0 64.2547 15.1273 972 118.97 815.01 468.55
52 0 64.1322 11.9597 767 124.609 814.515 465.129
53 0 68.2349 14.626 998 119.683 813.817 463.262
54 0 74.3349 17.0714 1269 115.341 813.006 458.337
55 0 74.1073 15.3561 1138 118.959 813.023 457.29
56 0 75.3809 13.7435 1036 122.192 812.78 459.036
57 0 79.348 14.0646 1116 122.028 811.484 453.075
58 0 83.2239 15.5484 1294 119.481 811.886 454.125
59 0 83.2695 15.0835 1256 121.661 809.854 450.724
60 0 87.2402 16.5978 1448 119.848 810.706 449.259
61 0 91.2281 13.9869 1276 122.071 810.073 450.042
62 0 93.2014 15.3324 1429 119.609 809.607 447.637
63 0 96.451 14.287 1378 121.064 807.728 443.575
64 0 102.272 19.5752 2002 113.965 808.281 434.738
65 0 102.246 14.4357 1476 124.372 808.154 436.236
66 0 109.343 16.1053 1761 122.241 808.832 432.192
67 0 110.321 13.4698 1486 126.692 809.176 433.324
68 1 58.356 11.704 683 123.442 809.69 457.051
69 0 62.3563 13.7436 857 118.767 810.37 455.581
70 0 64.4829 13.8176 891 119.415 810.95 454.691
71 0 68.2665 14.5166 991 118.784 810.687 452.662
72 0 67.2191 13.4188 902 120.785 812.303 454.635
73 0 71.2685 15.0978 1076 118.993 812.514 450.574
74 0 75.188 15.7206 1182 117.594 813.91 450.503
75 0 74.2687 13.3569 992 122.896 814.678 448.049
76 0 78.2664 16.4438 1287 118.459 815.172 443.054
77 0 81.2279 13.9238 1131 122.912 814.54 443.828
78 0 84.2075 16.1743 1362 118.341 815.929 449.283
79 0 87.2382 13.2855 1159 126.335 815.87 443.128
80 0 91.2891 16.026 1463 122.182 817.415 445.53
81 0 94.3983 14.8732 1404 124.674 817.036 446.08
82 0 100.418 18.4229 1850 118.406 816.676 443.508
83 1 57.128 13.1459 751 122.241 815.904 462.419
84 0 60.3673 15.1903 917 117.356 815.619 462.993
85 0 64.1429 14.0312 900 118.44 818.829 465.263
86 0 63.2682 12.3285 780 123.195 817.841 465.196
87 0 63.1018 13.1533 830 122.936 817.298 466.202
88 0 65.1216 14.3731 936 122.689 815.95 464.713
89 0 70.1251 16.2281 1138 117.868 817.326 463.384
90 0 72.0851 15.0239 1083 120.119 816.341 461.42
91 0 74.1521 14.268 1058 121.517 815.768 460.916
92 0 78.3613 14.5097 1137 119.356 816.411 459.93
93 0 80.1289 15.3503 1230 117.771 815.812 460.381
94 0 82.1463 13.7681 1131 120.928 814.33 458.911
95 0 86.1757 14.2616 1229 119.848 814.116 456.206
96 0 90.5071 16.8716 1527 114.891 811.959 457.987
97 0 91.1418 17.204 1568 115.848 813.591 453.434
98 0 95.2753 16.4156 1564 117.685 811.574 452.75
99 0 96.1844 12.9023 1241 124.562 811.219 450.172
100 0 97.2567 11.7421 1142 125.645 810.969 449.406
101 0 105.138 14.0291 1475 124.523 809.939 444.928
102 0 109.371 12.6176 1380 126.424 808.843 438.829
103 0 113.299 13.6453 1546 124.756 807.528 433.939
104 0 117.596 14.1161 1660 122.37 807.396 435.94
105 1 49.335 8.77673 433 120.716 807.513 468.49
106 0 53.5717 14.4293 773 113.833 807.819 463.159
107 0 55.7393 14.3346 799 113.492 805.96 460.188
108 0 57.0784 11.055 631 117.312 808.837 462.344
109 0 58.1495 11.3845 662 116.393 809.424 463.959
110 0 58.1223 11.6134 675 118.061 810.11 459.13
111 0 58.1516 11.642 677 122.719 811.111 459.118
112 0 64.2144 12.832 824 115.273 810.695 455.365
113 0 67.212 10.3404 695 118.319 811.54 456.17
114 0 72.2096 14.1671 1023 110.895 812.952 456.613
115 0 71.1423 13.3676 951 113.707 812.931 454.238
116 0 72.2401 11.3926 823 118.482 813.317 452.837
117 0 74.2324 14.4681 1074 115.251 814.189 446.632
118 0 80.1312 12.829 1028 114.478 815.346 453.156
119 0 80.0801 11.8756 951 119.249 816.107 450.066
120 0 84.301 11.3047 953 119.437 816.591 449.295
121 0 86.3435 12.5198 1081 120.266 816.899 445.066
122 0 86.1791 11.4761 989 121.14 817.682 447.519
123 0 93.1438 10.0168 933 122.426 817.654 441.817
124 0 95.4725 13.606 1299 116.81 817.303 440.91
125 1 52.0552 11.7183 610 116.392 818.879 467.052
126 0 50.0318 10.5933 530 117.498 819.317 467.674
127 0 53.1034 13.3513 709 114.231 818.767 467.111
128 0 52.3473 13.697 717 113.537 816.801 468.121
129 0 53.2228 10.7848 574 118.143 818.143 469.721
130 0 57.6104 13.6434 786 113.139 815.942 467.346
131 0 57.3128 15.8254 907 111.35 816.019 468.498
132 0 56.2505 10.4355 587 119.945 815.288 469.051
133 0 59.4197 12.8577 764 115.721 814.921 468.306
134 0 60.248 12.183 734 117.36 815.356 469.831
135 0 65.3669 13.799 902 114.768 814.304 466.181
136 0 66.285 15.4334 1023 113.47 814.63 468.165
137 0 67.3391 12.8603 866 117.324 812.569 465.822
138 0 70.1863 14.0626 987 116.879 813.637 462.94
139 0 72.2164 13.875 1002 115.553 810.851 466.413
140 0 76.4286 14.5103 1109 116.616 811.415 461.305
141 0 78.4128 13.4927 1058 117.594 810.68 465.17
142 0 81.1948 13.4245 1090 119.835 810.287 458.686
143 0 83.4593 12.7128 1061 120.878 809.938 457.893
144 0 86.1658 14.356 1237 116.701 810.703 456.057
145 0 87.247 14.2011 1239 118.41 809.291 456.73
146 1 50.1687 12.9563 650 120.198 809.268 470.862
147 0 50.2428 13.9522 701 118.117 808.094 470.709
148 0 53.1762 13.2014 702 117.774 808.667 469.081
149 0 56.1051 15.168 851 115.261 808.933 468.23
150 0 54.1262 12.9882 703 121.448 807.62 464.548
151 0 58.3388 17.7926 1038 111.388 808.063 464.938
152 0 58.1388 14.5858 848 117.269 808.33 463.283
153 0 58.2219 12.5898 733 121.164 808.45 461.442
154 0 64.2746 17.083 1098 109.9 809.364 460.222
155 0 64.1795 16.485 1058 110.716 809.469 457.732
156 0 65.19 13.9899 912 114.836 810.379 456.459
157 0 67.1324 13.6 913 115.425 810.296 456.242
158 0 69.1655 14.1834 981 114.906 811.407 453.624
159 0 70.1261 13.0907 918 116.935 811.325 452.394
160 0 73.2243 16.1285 1181 113.539 812.934 451.947
161 0 74.0904 16.048 1189 114.659 812.547 450.473
162 0 76.1901 12.7313 970 120.329 814.696 451.286
163 0 76.3655 10.9866 839 122.943 814.54 450.129
164 0 78.2447 10.8506 849 121.974 814.756 451.928
165 0 82.2531 14.3703 1182 117.843 815.19 445.845
166 0 86.2152 13.0487 1125 120.327 815.781 442.38
167 0 91.2271 11.5755 1056 119.821 815.452 452.421
168 0 91.2378 12.6263 1152 119.458 814.301 448.116
169 0 97.6824 12.684 1239 120.672 814.418 447.709
170 0 100.211 15.637 1567 117.232 815.07 444.18
171 0 104.741 19.0374 1994 112.122 814.602 442.571
172 0 107.995 14.121 1525 121.241 815.44 436.559
173 1 164.418 15.266 2510 121.732 814.779 417.248
174 1 115.276 14.1747 1634 120.745 814.821 438.851
175 0 119.131 14.1945 1691 121.37 814.108 435.895
176 0 123.191 11.8434 1459 123.582 812.966 441.805
177 1 62.2679 12.8316 799 115.278 815.317 468.663
178 0 68.1528 15.1571 1033 110.736 815.238 472.62
179 0 70.3739 18.4159 1296 107.089 813.336 471.682
180 0 69.3829 14.701 1020 111.963 812.099 472.243
181 0 72.2878 11.3297 819 120.937 811.807 466.158
182 0 75.3424 13.8169 1041 118.131 811.067 464.432
183 0 77.1828 14.226 1098 119.359 810.553 462.774
184 0 81.453 10.9388 891 118.898 809.969 467.167
185 0 78.1888 10.7049 837 122.988 808.069 463.098
186 0 86.7355 15.1149 1311 116.982 806.53 458.172
187 0 85.5015 10.994 940 124.45 807.19 455.112
188 0 90.56 13.03 1180 120.64 805.231 451.064
189 0 87.8942 12.0827 1062 123.913 806.12 448.078
190 0 97.5928 13.4744 1315 121.44 805.44 445.113
191 0 101.35 15.5994 1581 117.777 804.498 443.446
192 0 104.278 13.253 1382 121.983 805.003 441.866
193 0 106.99 13.59 1454 122.803 805.089 437.401
194 0 110.861 12.6285 1400 124.43 805.486 431.636
195 0 116.005 13.8528 1607 121.494 804.785 430.865
196 0 116.734 12.9011 1506 124.575 805.315 428.433
197 0 122.072 12.5418 1531 125.005 805.875 427.956
198 0 124.845 13.4567 1680 125.792 807.058 421.805
199 0 131.027 14.6458 1919 122.609 807.028 421.257
200 0 133.123 12.8828 1715 126.165 808.456 414.399
201 0 139.257 15.5898 2171 121.165 807.908 419.793
202 0 145.284 16.1064 2340 122.042 808.803 413.553
203 0 147.391 13.6847 2017 127.939 809.632 408.546
204 0 154.088 15.5755 2400 125.601 811.69 407.008
205 0 158.457 15.6635 2482 122.934 811.278 411.342
206 0 163.267 14.9509 2441 125.219 812.152 403.519
207 0 167.902 14.8003 2485 125.807 812.864 402.095
208 0 174.201 14.5924 2542 125.972 813.814 397.907
209 0 179.266 14.5091 2601 127.106 814.089 388.529
210 1 189.059 12.5887 2380 129.089 814.668 396.102
211 0 192.102 16.6318 3195 123.525 814.379 389.454
212 0 197.138 14.8424 2926 127.212 814.665 387.612
213 0 204.992 14.3762 2947 126.82 814.265 382.761
214 0 214.983 15.871 3412 123.503 814.504 388.876
215 1 300.708 13.1357 3950 129.934 815.794 347.811
216 1 180.001 10.8388 1951 128.667 814.971 405.53
217 0 186.948 18.8073 3516 117.887 814.087 400.587
218 0 196.022 14.8759 2916 125.012 813.014 398.024
219 0 203.135 15.123 3072 124.7 812.942 394.115
220 0 209.925 15.3674 3226 124.742 812.846 396.966
221 0 219.015 16.1359 3534 124.861 811.24 387.215
222 0 222.122 13.9743 3104 129.577 811.089 385.007
223 0 234.324 18.978 4447 119.932 810.446 385.376
224 1 64.6367 12.5625 812 112.83 808.17 466.054
225 0 66.521 13.725 913 113.673 807.307 463.718
226 0 66.7146 11.8415 790 118.153 806.229 468.894
227 0 69.2613 12.2435 848 114.897 808.758 470.234
228 0 71.3405 12.7838 912 114.307 806.712 464.912
229 0 74.1688 9.73455 722 116.591 806.529 466.731
230 0 76.3584 11.9306 911 113.805 806.6 462.734
231 0 78.3174 9.28274 727 113.641 807.636 460.937
232 0 79.4288 11.7967 937 109.134 803.422 451.69
233 0 85.3648 11.1287 950 110.318 803.61 455.019
234 0 87.5763 14.9584 1310 108.683 803.04 452.142
235 0 88.2795 12.4378 1098 115.294 802.322 449
236 0 89.6282 10.5882 949 116.338 802.173 444.463
237 0 89.6557 12.8603 1153 110.865 802.667 436.907
238 0 97.6715 12.8185 1252 110.377 803.484 442.071
239 1 47.0839 6.26541 295 116.536 806.529 470.424
240 0 49.3055 11.662 575 110.383 805.036 465.01
241 0 51.0748 11.4538 585 109.45 807.046 465.836
242 0 52.2095 9.74918 509 110.914 807.86 462.063
243 0 54.1022 8.07731 437 115.222 808.181 456.082
244 0 58.188 11.3941 663 109.621 808.584 460.719
245 0 58.4061 9.82774 574 110.401 807.72 459.469
246 0 62.2344 11.9548 744 107.892 810.754 458.539
247 0 61.3168 11.0736 679 109.093 809.695 455.233
248 0 65.3444 12.3959 810 106.463 810.201 454.906
249 0 67.5311 12.5276 846 107.309 811.629 455.921
250 0 67.349 13.2148 890 106.52 811.335 452.511
251 0 67.3558 7.4975 505 108.174 812.295 463.616
252 0 72.3936 10.6501 771 109.324 812.446 456.174
253 0 74.5346 11.5651 862 107.307 813.319 457.451
254 0 76.7415 11.871 911 105.986 813.563 457.839
255 1 42.5012 9.12915 388 107.76 812.08 473.629
256 0 46.3547 10.8943 505 106.586 812.762 472.252
257 0 42.6167 11.0989 473 106.691 813.691 470.243
258 0 47.1835 11.2963 533 106.06 816.764 470.702
259 0 45.058 13.5159 609 101.704 815.915 472.969
260 0 47.2082 10.7608 508 105.669 815.092 476.545
261 0 49.0401 11.9698 587 104.453 815.157 474.641
262 0 48.0325 7.66147 368 111.247 814.584 469.788
263 0 50.2706 10.3241 519 106.74 815.046 471.969
264 0 52.2624 14.0828 736 102.514 813.31 474.897
265 0 53.1817 10.5675 562 106.32 813.29 474.424
266 0 55.1251 11.2109 618 104.741 812.008 476.587
267 0 58.1382 11.3178 658 104.357 811.77 474.524
268 0 58.209 11.9913 698 104.514 810.278 473.774
269 0 60.1542 11.67 702 103.946 810.493 475.952
270 0 59.1025 9.03515 534 108.981 809.331 470.732
271 0 63.2209 15.1058 955 102.217 808.103 467.428
272 0 64.2476 11.5024 739 105.82 808.517 469.254
273 0 66.1878 10.3644 686 107.375 808.87 468.385
274 0 70.1727 17.7134 1243 99.6629 807.562 464.163
275 0 71.3553 15.2617 1089 102.775 807.2 461.987
276 0 71.1068 15.6244 1111 104.401 805.538 456.607
277 0 78.2443 12.4993 978 104.748 803.408 454.81
278 0 79.1201 13.8271 1094 104.616 802.828 453.383
279 0 83.1684 18.697 1555 99.0103 803.79 450.241
280 0 83.0903 11.7342 975 108.882 803.423 450.041
281 0 85.1805 14.616 1245 104.541 802.941 453.248
282 0 92.1562 21.0946 1944 97.2371 804.106 451.237
283 1 47.0503 14.4739 681 102.508 803.893 466.718
284 0 49.0603 10.6196 521 107.042 804.211 466.501
285 0 50.0703 13.4012 671 107.45 803.428 463.384
286 0 52.2187 17.6182 920 99.4685 807.239 460.22
287 0 53.0528 11.5545 613 107.47 809.018 460.783
288 0 54.316 8.85559 481 112.096 808.884 457.025
289 0 58.0556 14.1761 823 104.424 810.064 456.943
290 0 58.207 12.2322 712 107.256 810.451 457.25
291 0 61.1011 16.6609 1018 100.724 810.665 453.463
292 0 65.0879 14.4113 938 103.437 812.882 455.197
293 0 65.1851 13.8989 906 104.853 813.383 455.983
294 0 68.1853 16.7485 1142 101.898 814.662 451.26
295 0 68.1853 16.7485 1142 118.687 816.669 451.393
296 0 71.3543 14.393 1027 105.185 815.942 456.029
297 0 73.6071 15.4469 1137 104.582 816.413 450.519
298 0 76.1154 17.6443 1343 102.026 815.75 450.869
299 0 78.2534 14.0186 1097 106.538 817.428 451.917
300 0 78.2534 14.0186 1097 120.288 818.401 451.969
301 0 78.2534 14.0569 1100 119.655 819.396 451.995
302 0 88.1852 12.5871 1110 109.771 816.925 450.499
303 1 44.0535 15.9579 703 102.054 817.296 472.073
304 0 46.1218 12.9006 595 105.59 816.644 470.108
305 0 48.1691 14.0754 678 103.966 812.786 468.391
306 0 49.0841 13.487 662 109.909 812.816 469.565
307 0 52.047 13.4494 700 107.973 811.644 475.044
308 0 53.1014 14.5571 773 108.376 810.668 468.783
309 0 53.0849 14.0718 747 109.408 809.782 470.15
310 0 55.2774 12.9709 717 109.947 809.664 471.658
311 0 55.1497 15.5758 859 106.391 809.205 473.326
312 0 58.1082 9.74045 566 115.435 808.558 468.246
313 0 61.2538 12.1299 743 111.75 807.38 469.521
314 0 65.1429 16.1031 1049 104.385 808.434 471.115
315 0 65.2232 15.9146 1038 106.458 807.83 463.494
316 0 67.1396 15.4007 1034 106.945 806.907 463.198
317 0 68.2264 12.5171 854 112.27 806.082 464.358
318 0 70.1022 15.9481 1118 108.804 806.137 457.355
319 0 72.2434 14.0082 1012 112.721 806.085 458.99
320 0 73.228 12.6318 925 114.998 805.855 459.957
321 0 77.1308 12.4853 963 116.58 804.816 453.436
322 0 79.0604 15.1277 1196 113.518 804.168 449.63
323 0 79.0604 15.1024 1194 129.984 804.178 449.454
324 0 86.2711 18.5926 1604 107.565 804.387 450.855
325 1 45.0988 10.7542 485 115.614 803.318 465.012
326 0 45.0323 11.8804 535 115.654 804.122 461.093
327 0 47.0802 13.0203 613 113.693 804.558 461.188
328 0 51.0479 12.8703 657 112.489 804.985 461.151
329 0 51.1239 12.2643 627 113.174 805.434 459.07
330 0 54.1251 14.1894 768 112.277 806.197 459.293
331 0 57.2129 13.4235 768 111.587 806.777 456.91
332 0 59.1022 15.3294 906 109.106 807.593 456.496
333 0 58.1428 15.9263 926 109.188 809.501 460.41
334 0 62.1088 16.8575 1047 108.751 809.48 453.925
335 0 65.046 12.422 808 111.708 809.696 458.537
336 0 68.1965 15.1181 1031 110.016 810.767 453.986
337 0 67.1883 13.0529 877 114.692 810.6 452.007
338 0 70.197 13.0205 914 116.48 811.513 448.016
339 0 75.3601 14.2781 1076 112.648 812.318 451.719
340 0 78.2124 10.1007 790 120.901 812.995 450.838
341 0 78.0827 12.7173 993 117.249 814.455 447.757
342 0 82.105 14.8225 1217 113.426 813.132 447.769
343 0 85.1209 16.1887 1378 111.012 813.798 448.221
344 1 42.0624 8.84401 372 118.884 814.516 469.96
345 0 48.2157 11.9878 578 113.012 814.478 469.426
346 0 48.0767 14.1857 682 110.562 814.881 469.021
347 0 50.1457 12.2842 616 109.635 814.732 469.07
348 0 51.0811 12.5487 641 109.084 814.465 470.78
349 0 52.0598 14.5794 759 106.379 814.325 470.374
350 0 53.1301 11.5001 611 109.863 813.588 468.718
351 0 54.3266 13.787 749 108.315 813.088 469.17
352 0 57.1345 16.2949 931 103.701 813.454 471.106
353 0 59.0783 12.5765 743 109.443 811.828 468.034
354 0 59.0939 19.9513 1179 98.8219 812.048 469.264
355 0 62.1506 13.2581 824 107.225 810.728 467.297
356 0 64.1027 15.7092 1007 104.504 810.292 465.446
357 0 66.1396 13.1691 871 107.865 810.253 464.048
358 0 66.2324 18.1331 1201 101.089 810.597 456.417
359 0 69.1415 11.0353 763 110.906 808.661 464.189
360 0 71.1129 13.5278 962 107.797 808.491 461.29
361 0 73.1606 11.9873 877 109.754 809.195 461.485
362 0 76.1528 15.2325 1160 104.408 808.26 459.609
363 0 79.2465 13.0984 1038 107.009 808.441 459.649
364 0 82.1104 11.7768 967 110.195 806.776 453.603
365 0 84.2574 18.5503 1563 102.309 807.419 447.264
366 0 87.244 13.5024 1178 108.885 807.053 450.234
367 1 47.0775 13.8708 653 108.45 807.201 467.291
368 0 47.0927 10.2564 483 114.133 807.101 467.592
369 0 50.0441 11.6098 581 116.575 809.196 465.248
370 0 50.2095 13.5831 682 109.937 810.522 462.321
371 0 51.1352 17.5417 897 105.449 811.517 459.389
372 0 52.0565 12.0638 628 115.231 812.17 460.174
373 0 53.0425 14.2339 755 112.06 812.49 458.417
374 0 56.3225 16.4588 927 106.384 812.287 460.711
375 0 58.1058 14.7662 858 110.239 812.866 454.851
376 0 59.0964 11.4389 676 112.324 814.577 460.328
377 0 62.4259 17.4767 1091 105.673 813.278 453.781
378 0 62.2549 11.8224 736 115.03 816.084 454.842
379 0 64.1042 13.4937 865 112.868 816.458 452.081
380 0 67.2518 15.1223 1017 110.009 817.199 451.433
381 0 70.3548 22.2728 1567 100.445 816.38 448.722
382 0 71.2029 14.1708 1009 111.92 818.927 449.58
383 0 73.2529 14.9482 1095 110.311 819.492 450.097
384 0 76.1402 13.4357 1023 111.895 819.859 451.322
385 0 81.2333 12.0394 978 114.154 819.363 450.222
386 0 82.1196 14.3815 1181 111.766 820.266 447.216
387 1 43.0454 13.2883 572 110.771 820.685 470.533
388 0 46.2089 8.50485 393 121.707 821.529 463.224
389 0 46.1744 8.53288 394 117.591 820.079 472.444
390 0 48.0437 12.7592 613 109.199 819.07 468.587
391 0 49.1455 9.23787 454 113.996 819.211 469.203
392 0 51.0798 11.1199 568 111.866 817.363 471.484
393 1 103.435 10.9344 1131 116.065 816.059 447.406
394 1 55.1918 11.8315 653 110.322 815.357 467.685
395 0 57.302 11.7273 672 111.479 812.878 468.643
396 0 59.154 14.4031 852 107.665 813.495 466.924
397 0 61.2863 15.3215 939 105.376 812.753 465.073
398 0 61.2718 10.7554 659 111.065 812.452 466.842
399 0 65.0812 11.6316 757 108.756 811.156 463.828
400 0 68.2664 13.6524 932 106.133 810.497 468.041
401 0 69.2412 12.3626 856 108.752 810.626 464.54
402 0 73.1624 10.5245 770 110.769 809.399 462.356
403 0 75.2015 11.8881 894 109.327 809.167 460.236
404 0 78.2314 12.0795 945 110.104 808.126 456.144
405 0 81.2343 11.2391 913 111.261 808.208 456.606
406 1 45.2273 9.83918 445 113.73 807.247 472.391
407 0 48.078 12.9165 621 107.375 807.285 469.953
408 0 49.0888 12.9765 637 108.62 807.234 467.491
409 0 50.0699 14.28 715 103.705 805.813 467.987
410 0 54.096 15.5095 839 101.077 807.374 466.03
411 0 55.1078 16.4949 909 100.046 806.756 465.074
412 0 55.1252 13.6961 755 104.494 806.305 462.849
413 0 56.1167 9.83665 552 109.938 807.004 464.964
414 0 56.1247 11.4032 640 109.728 806.82 459.944
415 1 215.749 14.5215 3133 115.109 808.533 383.749
416 1 62.079 14.3044 888 106.964 806.778 455.199
417 0 65.1511 14.0289 914 106.109 808.846 455.966
418 0 66.2697 11.9663 793 109.103 809.697 455.343
419 0 67.2344 13.7281 923 107.902 812.78 448.712
420 0 69.2939 12.0934 838 110.314 812.551 450.697
421 0 73.4284 12.8016 940 108.606 813.574 451.87
422 0 75.2254 14.1309 1063 108.534 815.751 445.781
423 0 77.4356 9.51759 737 113.855 815.411 451.763
424 0 81.3203 13.5637 1103 109.334 815.666 445.194
425 0 85.2886 14.7499 1258 106.77 816.868 445.714
426 0 85.3715 12.4749 1065 110.938 818.596 446.856
427 1 170.274 15.4574 2632 112.318 818.262 407.281
428 0 166.812 11.462 1912 117.666 818.446 412.624
429 1 98.295 14.1818 1394 109.676 818.893 442.253
430 1 53.0676 11.9659 635 111.906 820.802 462.624
431 0 56.2024 16.0847 904 104.678 820.575 462.569
432 0 58.1382 12.6079 733 109.936 820.311 461.573
433 0 58.0891 13.0489 758 109.673 820.247 463.15
434 0 62.1948 14.4867 901 107.573 819.88 465.938
435 0 65.1649 14.5784 950 108.608 819.856 462.111
436 0 68.0868 20.1361 1371 100.225 818.147 466.022
437 0 66.0896 14.1928 938 109.559 815.204 464.18
438 0 69.1068 13.7903 953 109.539 817.182 463.084
439 0 70.236 15.1062 1061 107.193 816.584 461.38
440 0 73.1319 11.992 877 111.751 815.545 464.384
441 0 76.2373 14.4811 1104 108.147 813.496 454.992
442 0 79.1268 18.6662 1477 102.288 812.283 459.129
443 0 81.2522 15.6919 1275 106.343 811.708 459.653
444 0 79.3935 13.918 1105 109.731 811.094 459.52
445 0 87.1719 17.3106 1509 105.003 811.351 456.709
446 0 88.2912 14.5428 1284 108.927 810.085 447.789
447 0 88.1223 13.3564 1177 111.566 809.473 449.841
448 0 94.2407 16.4472 1550 106.274 809.701 454.368
449 0 97.4442 14.2543 1389 109.25 809.652 450.089
450 1 52.1163 10.8795 567 115.217 807.506 469.123
451 0 53.0696 10.8348 575 114.955 806.144 470.183
452 0 54.2745 12.4184 674 112.785 808.307 469.295
453 0 57.0786 13.1748 752 114.305 806.807 465.11
454 0 57.0786 13.2799 758 140.459 805.823 465.169
455 0 60.1762 11.7156 705 118.295 806.035 461.257
456 0 62.1913 15.0343 935 114.11 807.311 461.59
457 0 64.1354 13.8301 887 117.177 807.016 458.902
458 0 65.3232 14.9258 975 115.289 806.68 457.392
459 0 68.1124 15.3129 1043 114.151 806.738 457.747
460 0 70.1861 13.5924 954 116.782 807.203 456.456
461 0 70.0791 13.6703 958 118.461 808.493 452.067
462 0 71.1815 13.88 988 118.036 809.468 456.697
463 0 73.4748 12.4669 916 121.026 809.82 453.678
464 0 76.2917 11.5609 882 121.333 811.753 454.152
465 0 80.2408 17.0985 1372 110.906 812.805 451.249
466 0 84.3322 13.3875 1129 115.971 812.165 450.686
467 0 85.3084 15.2271 1299 114.189 812.142 448.604
468 0 87.2918 12.7045 1109 118.576 811.812 449.285
469 0 89.3736 12.1848 1089 116.636 812.388 451.505
470 0 96.4516 16.1428 1557 109.368 814.548 447.956
471 1 49.1303 11.2761 554 114.722 814.132 466.099
472 0 52.2013 13.2947 694 108.602 813.238 470.911
473 0 53.091 10.077 535 113.729 811.903 468.331
474 0 57.0687 12.8266 732 110.096 811.443 467.686
475 0 57.1037 10.192 582 115.012 812.553 469.113
476 0 59.2406 13.6731 810 109.209 811.51 469.906
477 0 59.0929 10.052 594 115.897 811.2 466.786
478 0 62.1154 15.3746 955 106.734 811.559 473.764
479 0 60.0892 12.1985 733 108.363 810.787 476.359
480 0 62.1905 10.291 640 109.442 810.252 476.203
481 0 68.1854 11.2927 770 109.43 811.02 472.362
482 0 68.1555 13.924 949 105.865 809.389 472.375
483 0 71.164 13.7991 982 106.758 808.368 473.728
484 0 71.1393 13.326 948 108.611 807.423 468.137
485 0 71.1393 13.2697 944 128.45 806.417 468.171
486 0 76.1756 15.2017 1158 105.494 806.642 464.788
487 0 77.049 12.3688 953 110.198 806.176 464.701
488 0 82.1526 14.0227 1152 107.998 806.007 465.951
489 0 81.1845 14.9659 1215 108.781 805.187 462.525
490 0 84.3037 11.9568 1008 112.051 804.727 461.436
491 0 87.1871 13.8323 1206 109.207 803.998 461.575
492 0 87.0909 11.5511 1006 112.01 803.444 461.098
493 1 47.0388 5.82498 274 114.584 802.474 479.971
494 0 46.1491 8.77591 405 107.348 802.027 475.225
495 0 51.7173 9.89997 512 105.592 804.113 466.084
496 0 51.4868 12.6052 649 99.1957 804.67 468.814
497 0 52.2701 10.8475 567 101.515 805.198 472.279
498 0 54.4466 9.018 491 104.996 803.629 461.721
499 0 59.3535 14.4052 855 97.0316 803.84 469.085
500 0 59.3535 14.4221 856 108.536 802.856 469.051
501 0 60.2728 11.8461 714 102.021 803.622 460.905
502 0 64.4276 13.488 869 99.9597 805.203 459.484
503 0 66.5838 15.7696 1050 107.001 806.469 460.04
504 0 66.2858 13.0797 867 111.809 807.224 458.556
505 0 68.4358 12.9172 884 110.57 807.173 458.773
506 0 72.4012 14.4887 1049 110.309 808.766 454.572
507 0 76.3782 14.4413 1103 110.075 809.597 455.562
508 0 76.367 15.7267 1201 133.94 810.595 456.447
509 0 81.3987 12.1009 985 113.556 810.966 453.224
510 0 80.465 12.8006 1030 114.576 812.101 449.466
511 1 44.0623 10.7802 475 111.244 815.198 472.291
512 0 45.1319 14.646 661 106.44 815.238 471.281
513 0 46.1433 13.6314 629 111.197 815.364 468.401
514 0 47.2953 11.6502 551 108.904 811.178 469.267
515 0 50.4577 17.0836 862 101.897 812.48 469.438
516 0 51.2191 14.9358 765 107.639 811.523 469.729
517 0 51.0312 13.7367 701 108.725 812.324 470.425
518 0 53.0838 14.4865 769 107.921 811.942 472.701
519 0 52.2076 13.8102 721 111.419 812.589 472.792
520 0 54.0692 14.389 778 110.716 811.545 473.994
521 0 57.1061 12.1178 692 112.736 811.468 475.77
522 0 58.0869 14.5816 847 110.468 810.965 474.162
523 0 58.1237 13.3681 777 111.695 810.138 475.952
524 0 63.1486 13.3336 842 111.265 810.246 471.216
525 0 62.2191 12.3274 767 112.917 810.17 476.962
526 0 65.4878 13.9263 912 109.152 808.501 478.51
527 0 68.2523 15.9555 1089 108.93 808.831 471.542
528 0 67.3971 11.6177 783 115.45 807.252 472.342
529 0 72.2774 15.067 1089 110.561 807.944 468.63
530 0 76.3845 12.712 971 113.232 806.942 471.238
531 0 82.4356 11.2209 925 113.517 805.097 472.467
532 0 82.2607 14.6729 1207 111.117 805.897 465.738
533 0 82.5076 13.6593 1127 113.219 805.136 463.642
534 0 88.7366 14.6276 1298 110.391 805.431 464.297
535 0 88.5216 13.8271 1224 114.949 805.065 457.729
536 1 48.634 12.3782 602 112.515 805.008 477.643
537 0 49.5779 12.4451 617 107.159 806.173 475.267
538 0 52.2724 14.9601 782 101.077 806.095 476.101
539 0 51.1848 15.571 797 103.206 805.915 473.415
540 0 54.1383 13.6502 739 105.467 806.051 472.296
541 0 55.5566 13.4997 750 105.481 805.961 472.505
542 0 56.1209 13.3284 748 107.039 806.638 470.243
543 0 58.1206 14.0914 819 107.476 806.777 466.706
544 0 62.2865 15.814 985 104.691 807.783 467.432
545 0 61.0798 13.4578 822 108.891 806.126 462.414
546 0 65.194 16.3819 1068 104.659 807.77 462.453
547 0 67.1926 17.9037 1203 100.934 806.879 465.342
548 0 68.1469 15.7747 1075 106.001 807.827 457.474
549 0 74.169 17.6489 1309 102.19 808.179 460.146
550 0 74.0957 17.7338 1314 103.872 808.821 459.978
551 0 73.2983 12.5515 920 111.196 810.885 458.849
552 0 77.4494 14.758 1143 109.514 810.2 455.588
553 0 78.1843 15.1821 1187 109.711 811.281 452.113
554 0 80.4315 12.9054 1038 111.973 811.75 454.934
555 0 84.2136 13.2758 1118 110.837 811.896 457.357
556 0 85.1617 15.1124 1287 111.152 814.354 454.669
557 0 86.1592 15.0767 1299 112.984 813.51 450.779
558 0 92.4655 14.7623 1365 111.196 814.627 456.233
559 0 92.3788 14.7003 1358 111.533 814.302 454.626
560 0 96.2677 11.1044 1069 118.831 814.408 450.874
561 0 99.3782 14.4901 1440 114.922 814.936 451.771
562 0 103.49 13.18 1364 116.931 814.913 450.068
563 1 55.1305 14.0394 774 112.792 815.548 475.258
564 0 56.1032 10.8728 610 116.752 814.869 471.985
565 0 57.076 14.6647 837 109.671 814.081 469.865
566 0 60.4817 12.2516 741 111.236 812.642 466.619
567 0 61.4494 13.0677 803 106.742 812.65 465.66
568 0 64.4032 14.6732 945 103.614 812.37 468.382
569 0 65.4796 9.62131 630 110.538 812.479 467.94
570 0 70.2738 13.6182 957 104.432 811.858 470.858
571 0 69.3324 12.9954 901 107.403 810.039 468.829
572 0 75.2991 16.6005 1250 101.966 809.498 468.081
573 0 77.2598 13.9659 1079 107.105 809.239 464.728
574 0 80.3444 17.3752 1396 103.592 808.338 460.67
575 0 77.2492 10.5891 818 114.05 808.395 458.867
576 0 83.1985 13.9185 1158 108.708 806.56 461.256
577 0 85.3239 11.3567 969 112.73 806.452 454.095
578 0 87.2396 13.0904 1142 112.234 806.005 450.999
579 0 91.282 13.0365 1190 112.538 805.787 453.288
580 0 94.2783 14.2026 1339 110.255 805.452 451.695
581 0 97.2772 14.7414 1434 114.329 805.339 452.733
582 0 99.2401 14.611 1450 114.731 804.888 452.448
583 1 55.1115 11.6491 642 116.838 804.757 473.044
584 0 57.2922 11.4675 657 120.56 807.306 471.391
585 0 58.0982 11.9109 692 120.289 805.806 467.159
586 0 58.0905 11.9297 693 136.447 804.807 467.164
587 0 66.2089 12.7022 841 116.395 807.145 464.065
588 0 66.2089 12.7173 842 138.557 810.11 464.153
589 0 69.4438 14.6017 1014 113.582 808.536 459.786
590 0 70.5865 13.2462 935 117.263 807.616 458.203
591 0 73.4821 15.6501 1150 112.868 808.891 454.295
592 0 76.6432 14.0652 1078 114.576 810.593 454.571
593 0 76.7354 11.5201 884 118.343 809.891 453.859
594 0 79.7497 14.696 1172 114.312 810.845 451.621
595 0 84.3652 13.489 1138 115.594 811.638 448.189
596 0 87.7659 14.3678 1261 113.206 811.155 448.598
597 0 90.4083 12.7754 1155 113.7 812.417 446.088
598 0 94.7103 13.7366 1301 111.226 811.967 445.81
599 0 95.6165 10.3016 985 115.684 812.638 447.616
600 1 52.4422 11.5556 606 106.79 812.465 471.518
601 0 53.4287 12.2968 657 107.289 813.889 465.559
602 0 53.4287 12.3529 660 129.505 814.917 465.592
603 0 57.1008 15.9192 909 105.532 811.026 470.248
604 0 59.1378 11.2618 666 112.872 810.736 467.887
605 0 64.1866 16.5143 1060 101.832 810.837 471.968
606 0 65.288 12.9273 844 107.946 810.899 468.934
607 0 67.3947 14.0812 949 106.907 811.091 468.333
608 0 68.3278 14.4012 984 107.299 811.459 466.083
609 0 71.4395 14.5438 1039 105.871 810.032 470.676
610 0 73.3165 15.3581 1126 105.171 810.084 468.389
611 0 75.6126 14.7859 1118 106.805 810.02 466.2
612 0 79.5915 16.346 1301 104.372 811.143 463.899
613 0 81.6131 13.6375 1113 108.009 809.06 466.272
614 0 82.3803 11.6897 963 110.651 808.887 466.846
615 0 86.7046 16.2621 1410 104.418 808.687 465.143
616 0 86.241 13.5434 1168 108.806 808.216 464.112
617 0 89.6397 14.1121 1265 109.91 807.104 458.349
618 0 95.5192 15.578 1488 106.576 806.649 458.153
619 0 96.4736 20.2853 1957 101.03 805.686 460.65
620 1 48.1686 11.958 576 109.016 804.108 479.852
621 0 47.0507 9.81918 462 108.463 804.316 478.197
622 0 49.4857 12.5289 620 104.165 805.694 473.46
623 0 48.0199 12.6614 608 103.34 802.757 475.018
624 0 49.119 9.79255 481 106.894 803.254 473.665
625 0 52.0739 12.2134 636 104.036 801.88 472.171
626 0 54.128 15.9067 861 99.194 802.576 471.6
627 0 54.149 11.7269 635 106.093 802.806 469.263
628 0 56.0933 13.6202 764 104.148 802.945 467.236
629 0 58.1768 13.5793 790 104.585 802.654 465.58
630 0 64.1598 15.5549 998 102.101 803.189 460.101
631 0 62.1592 10.6018 659 106.328 803.033 466.722
632 0 64.0442 14.2714 914 105.8 804.591 459.265
633 0 65.3186 13.0744 854 107.43 803.943 456.322
634 0 68.1242 13.4314 915 107.607 805.616 455.892
635 0 71.084 16.5297 1175 102.652 805.659 458.974
636 0 72.1168 11.6339 839 111.031 806.802 452.714
637 0 75.3989 12.4538 939 110.05 808.144 452.963
638 0 80.2522 14.1928 1139 107.155 809.151 454.21
639 0 80.2522 14.3049 1148 133.625 809.138 454.176
640 0 84.2171 15.8281 1333 105.563 810.46 450.752
641 1 42.0581 10.3191 434 106.889 810.362 473.664
642 0 47.1172 13.6681 644 101.707 811.663 472.61
643 0 49.1696 12.7315 626 103.879 814.733 470.471
644 0 51.2188 14.5454 745 102.781 814.396 468.177
645 0 55.2251 12.8022 707 105.424 815.191 476.965
646 0 54.1604 14.9925 812 105.581 814.804 472.759
647 0 55.1372 15.3073 844 105.148 815.197 472.942
648 0 55.5144 15.5275 862 105.614 814.34 472.508
649 0 55.2843 14.9952 829 104.995 814.058 477.914
650 0 61.5667 15.804 973 103.461 813.839 473.206
651 1 71.1994 10.8287 771 108.307 813.89 486.246
652 0 64.36 13.2225 851 106.805 813.603 475.818
653 0 69.3211 18.1186 1256 97.9371 813.503 476.456
654 0 68.2428 16.1043 1099 102.821 813.657 469.985
655 0 70.2359 13.597 955 104.428 812.171 477.061
656 0 73.3781 14.6774 1077 104.988 811.95 469.572
657 0 74.2433 9.9807 741 111.421 812.356 474.722
658 0 76.2061 12.4137 946 109.511 810.32 468.873
659 1 41.1173 12.4522 512 110.615 811.754 486.23
660 0 40.0391 12.338 494 113.739 809.828 487.113
661 0 41.2333 14.5271 599 113.367 807.855 482.364
662 0 44.1586 13.4289 593 115.315 808.545 485.044
663 0 43.0803 13.0222 561 119.481 808.84 481.442
664 0 45.0358 14.4774 652 118.291 808.209 480.643
665 0 45.0792 13.4652 607 120.152 808.381 479.634
666 0 47.1714 14.7123 694 118.61 807.509 478.242
667 0 49.0406 15.2731 749 118.099 807.797 475.339
668 0 51.4377 11.1202 572 126.698 806.414 475.762
669 0 51.1962 18.3217 938 114.179 806.494 475.043
670 0 54.1451 18.1364 982 115.43 807.598 472.919
671 0 53.0937 13.2408 703 126.115 808.448 471.767
672 0 56.1685 12.872 723 125.795 808.3 470.775
673 0 55.1396 14.8169 817 123.968 808.689 470.738
674 0 58.1673 15.2491 887 123.193 808.888 466.86
675 0 62.1181 17.338 1077 118.662 809.954 465.467
676 0 64.2309 15.6778 1007 122.461 809.605 463.717
677 0 63.2249 15.089 954 124.13 810.294 464.056
678 0 67.2439 15.7635 1060 122.025 809.767 461.682
679 0 68.1012 15.8734 1081 122.426 811.124 460.918
680 0 70.1294 14.2308 998 126.139 812.014 458.598
681 0 74.1574 18.9866 1408 117.798 812.697 456.04
682 0 76.0847 15.325 1166 124.434 813.134 457.931
683 0 80.2865 15.9304 1279 118.228 812.482 455.134
684 1 43.0515 13.7045 590 121.759 813.541 474.839
685 0 45.0257 15.902 716 117.193 813.758 475.809
686 0 50.0988 17.5653 880 115.3 815.027 471.766
687 0 45.1803 15.1172 683 121.934 812.265 475.632
688 0 47.6521 13.9343 664 123.393 812.836 476.142
689 0 52.2978 17.7828 930 115.148 812.678 473.152
690 0 50.3578 12.5105 630 125.137 812.298 475.776
691 0 55.3295 16.6999 924 117.811 811.87 473.713
692 0 57.2125 13.948 798 120.835 812.79 472.825
693 0 59.3772 15.0394 893 117.515 813.063 473.739
694 0 60.1714 16.9516 1020 115.254 813.63 472.083
695 0 63.3287 14.4484 915 118.886 812.893 470.544
696 0 65.1904 13.8517 903 120.482 812.959 473.545
697 0 66.1939 15.9984 1059 116.549 811.671 471.893
698 0 71.1559 16.2741 1158 114.437 812.142 475.888
699 0 71.2236 13.8156 984 120.463 810.566 471.896
700 0 75.1941 16.4242 1235 115.489 810.006 470.24
701 0 78.2009 15.3323 1199 117.239 809.566 470.377
702 0 80.1679 15.1557 1215 117.504 808.696 467.424
703 0 83.1675 13.8275 1150 118.879 808.15 466.624
704 0 85.1928 15.6821 1336 116.963 807.397 463.285
705 0 90.1564 15.0738 1359 116.847 807.079 462.869
706 1 43.1408 12.9807 560 120.932 805.312 480.655
707 0 43.1408 13.0039 561 140.738 803.323 480.816
708 0 50.0693 14.5598 729 116.704 803.284 479.656
709 0 50.1829 14.1881 712 123.889 803.541 477.087
710 0 52.3792 13.7841 722 118.913 805.925 470.81
711 0 52.1539 13.5369 706 119.636 805.82 470.36
712 0 57.4404 14.6413 841 115.797 804.687 473.01
713 0 59.1307 15.3727 909 115.165 804.116 470.191
714 0 60.2687 15.4807 933 116.464 805.496 469.393
715 0 61.2805 12.4673 764 121.183 804.36 470.007
716 0 64.463 13.8219 891 119.039 805.585 468.276
717 0 66.2587 15.9224 1055 117.153 805.626 463.078
718 0 70.3572 15.2081 1070 116.836 805.928 462.826
719 0 73.3063 16.8744 1237 115.036 806.494 461.511
720 0 76.3845 16.7835 1282 115.877 807.44 458.708
721 0 79.3823 15.1293 1201 116.702 808.019 459.749
722 0 80.3635 14.7828 1188 119.049 808.508 453.986
723 0 86.4343 17.1575 1483 113.208 808.879 455.201
724 0 85.2538 13.3132 1135 120.604 808.923 452.023
725 1 44.1822 13.1954 583 115.417 810.194 476.887
726 0 45.3739 15.2731 693 110.227 812.003 473.508
727 0 47.4403 13.0058 617 112.263 812.708 469.358
728 0 46.0638 12.9603 597 115.442 811.591 473.524
729 0 48.0618 15.2304 732 113.154 812.51 471.783
730 0 50.0856 12.6184 632 116.435 812.1 473.903
731 0 53.6239 15.4222 827 112.093 813.191 474.287
732 0 52.557 15.1454 796 121.364 815.039 473.751
733 0 56.2568 14.3805 809 113.952 812.729 473.555
734 0 61.1365 16.226 992 109.237 812.248 471.79
735 0 61.121 14.3486 877 113.77 812.873 474.753
736 0 63.1386 14.5869 921 113.708 813.196 474.833
737 0 64.1991 15.0469 966 113.752 811.584 474.414
738 0 64.1991 14.8756 955 119.095 809.574 474.605
739 0 72.3853 13.7873 998 114.921 811.096 473.31
740 0 71.358 12.9068 921 117.024 810.486 472.873
741 0 76.1806 15.1482 1154 113.251 809.636 471.341
742 0 77.3036 15.1869 1174 116.413 810.556 466.983
743 0 80.3708 14.3833 1156 117.752 808.239 465.172
744 1 39.1352 12.7762 500 117.362 809.246 485.518
745 0 39.1352 12.8018 501 138.395 809.267 485.439
746 0 39.1284 11.9862 469 119.733 809.247 483.418
747 0 46.1352 16.1048 743 111.258 808.088 482.276
748 0 44.3032 13.2722 588 120.483 808.294 480.869
749 0 44.1557 15.9436 704 116.145 808.774 476.641
750 0 48.2432 14.3025 690 118.909 807.884 477.248
751 0 48.2432 14.3854 694 141.575 807.869 477.297
752 0 51.4841 14.5288 748 120.287 807.229 476.531
753 0 52.1495 13.2887 693 123.462 808.26 474.925
754 0 53.2496 11.2301 598 127.614 808.299 473.853
755 0 58.5289 14.4886 848 121.138 806.784 469.032
756 0 60.1058 16.3878 985 118.828 807.399 464.353
757 0 62.3659 15.1525 945 120.15 806.75 466.222
758 0 63.512 13.0841 831 124.73 808.075 463.761
759 0 63.512 13.0841 831 153.549 808.076 463.717
760 0 69.6888 14.3352 999 126.977 807.383 458.904
761 0 72.5908 16.5172 1199 122.31 808.234 457.117
762 1 35.4138 14.6836 520 124.273 808.527 473.663
763 0 39.3418 11.3874 448 126.978 809.859 475.656
764 0 38.2727 12.7506 488 125.057 810.951 475.004
765 0 40.5317 15.42 625 120.123 811.547 474.8
766 0 43.2189 13.1655 569 126.452 811.821 472.035
767 0 42.5809 16.0636 684 119.311 811.751 472.75
768 0 44.2202 14.8122 655 123.134 811.918 470.544
769 0 44.2552 13.8289 612 125.871 813.799 472.825
770 0 42.075 11.7885 496 132.738 813.042 472.595
771 0 46.2659 13.444 622 127.397 814.518 474.191
772 0 46.1086 13.5116 623 129.823 813.421 469.732
773 0 48.2739 12.3669 597 130.107 814.302 473.68
774 0 52.4189 15.1091 792 121.771 813.84 472.55
775 0 53.405 12.7142 679 127.134 813.913 474.244
776 0 56.3808 14.8809 839 123.493 813.838 475.002
777 0 57.3464 13.0435 748 127.186 813.913 475.246
778 0 59.3435 16.295 967 123.717 814.092 473.596
779 0 60.9167 15.1847 925 127.564 813.051 471.955
780 0 63.4989 14.8506 943 128.657 812.716 472.171
781 0 64.5813 14.1992 917 132.772 812.618 469.204
782 1 30.6351 10.217 313 133.997 812.307 488.69
783 0 34.268 10.4762 359 133.972 810.916 486.797
784 0 35.4425 13.8816 492 127.244 810.913 488.12
785 0 37.2705 13.4691 502 128.478 810.205 488.506
786 0 39.5486 14.0839 557 125.061 809.899 485.697
787 0 39.0831 13.9958 547 127.616 810.415 485.57
788 0 39.231 14.2744 560 128.13 808.705 483.021
789 0 41.3291 13.9611 577 129.059 809.542 481.419
790 0 41.3291 14.0095 579 145.649 810.546 481.461
791 0 44.3131 14.9617 663 125.935 810.116 481.261
792 0 46.2017 15.7137 726 124.408 808.266 480.697
793 0 47.3925 15.8675 752 124.816 808.711 479.511
794 0 47.3801 14.9008 706 126.438 807.966 478.042
795 0 49.2371 17.4462 859 122.432 807.288 475.107
796 0 51.1465 16.1106 824 125.244 807.331 471.232
797 0 51.4783 15.8513 816 126.369 808.195 470.801
798 0 54.3566 14.8648 808 127.689 808.165 469.181
799 0 55.3823 13.8673 768 128.704 807.734 469.641
800 0 57.3797 18.6303 1069 121.088 807.065 466.71
801 0 59.4102 17.4886 1039 123.497 808.316 464.563
802 0 59.4102 17.3203 1029 149.995 809.331 464.414
803 0 62.6377 16.1404 1011 127.628 809.255 461.892
804 0 62.4939 15.3455 959 131.778 809.509 459.55
805 0 64.3667 14.7903 952 133.045 810.076 458.743
806 0 69.2487 15.0905 1045 129.717 810.085 456.829
807 0 70.4568 13.7531 969 132.752 810.389 456.87
808 0 73.545 16.7924 1235 126.785 812.64 453.942
809 0 73.545 16.7924 1235 143.302 815.629 454.021
810 0 75.5946 12.8713 973 135.761 812.845 454.034
811 1 38.1996 11.5184 440 135.77 814.884 470.748
812 0 41.1221 11.8914 489 131.91 813.959 474.393
813 0 42.4107 12.3318 523 132.579 815.122 473.159
814 0 45.1742 15.6284 706 123.483 815.619 473.035
815 0 43.1124 13.3836 577 129.721 813.792 475.478
816 0 44.1716 13.2438 585 128.703 815.708 475.942
817 0 44.1716 13.2438 585 147.947 817.733 475.903
818 0 44.167 11.298 499 133.523 815.321 477.367
819 0 45.0777 10.9367 493 134.314 814.207 477.351
820 0 49.2247 12.7172 626 130.097 815.12 476.422
821 0 51.2185 14.3112 733 127.454 815.28 477.505
822 0 53.2435 15.4573 823 126.493 814.367 473.287
823 0 55.3368 14.222 787 127.393 814.864 475.823
824 0 57.1173 13.4285 767 127.565 815.511 478.229
825 0 55.2716 12.8999 713 131.717 813.872 473.494
826 0 61.3379 15.3902 944 125.139 813.811 474.808
827 0 63.2434 14.373 909 126.108 813.23 476.596
828 0 62.3648 13.9502 870 129.745 813.02 471.934
829 0 67.4957 13.6009 918 128.964 811.683 472.124
830 0 68.4743 12.6909 869 129.527 811.544 472.709
831 0 69.4372 11.55 802 132.618 810.454 469.319
832 1 42.0989 13.302 560 124.423 810.745 485.589
833 0 40.2029 13.3075 535 129.256 809.69 481.572
834 0 42.1456 14.9007 628 125.747 809.003 482.901
835 0 42.1456 15.0905 636 132.885 808.017 482.899
836 0 40.0437 12.0618 483 128.275 808.466 480.83
837 0 40.1536 13.3487 536 128.407 809.703 478.106
838 0 42.2768 13.1751 557 132.614 809.124 476.673
839 0 44.158 13.4517 594 131.872 807.983 474.493
840 0 47.6208 13.9225 663 127.667 808.753 474.652
841 0 48.3066 15.5465 751 126.292 808.882 472.586
842 0 51.1854 17.9348 918 122.552 808.388 469.785
843 0 51.403 12.9564 666 130.029 807.859 471.869
844 0 52.3625 14.0559 736 128.007 808.332 468.106
845 0 56.1862 15.769 886 124.221 808.909 465.64
846 0 56.4066 14.2714 805 128.393 808.379 465.453
847 0 61.5988 13.4418 828 128.484 808.58 463.699
848 0 60.6103 10.7573 652 134.486 810.782 462.63
849 0 63.7461 16.0951 1026 125.525 811.401 459.409
850 0 62.491 11.4417 715 134.371 812.531 463.148
851 0 67.8804 13.5974 923 131.475 810.65 456.505
852 1 35.3797 13.6236 482 131.803 812.363 473.313
853 0 35.3797 13.8215 489 134.444 814.397 473.348
854 0 37.2994 11.85 442 134.726 814.14 473.493
855 0 37.3686 12.0422 450 132.629 813.491 472.269
856 0 41.0333 11.381 467 129.621 814.724 475.105
857 0 39.0562 15.1065 590 124.068 814.905 476.07
858 0 39.2252 12.6194 495 127.653 815.139 476.842
859 0 40.0711 11.5046 461 129.193 814.56 476.842
860 0 41.2943 13.3675 552 128.42 815.205 475.284
861 0 40.163 9.08796 365 135.082 816.285 480.025
862 0 45.4032 11.0345 501 132.838 815.439 476.349
863 0 46.0976 14.2958 659 126.906 815.721 476.039
864 0 47.357 12.6908 601 127.441 814.639 478.609
865 0 50.3138 15.0853 759 125.565 813.986 475.524
866 0 52.1153 12.1653 634 129.91 815.073 477.989
867 0 52.3067 13.8032 722 129.503 812.658 475.627
868 0 56.6283 14.1802 803 127.75 813.101 473.844
869 0 57.3301 12.8379 736 129.414 812.216 476.446
870 0 59.3376 14.645 869 128.985 812.188 473.781
871 0 60.464 13.8926 840 131.465 810.814 473.161
872 0 62.5544 14.5793 912 131.054 810.057 471.916
873 0 65.3878 13.4123 877 132.041 809.595 471.286
874 1 36.1516 12.3369 446 130.715 809.52 487.43
875 0 34.2921 12.3352 423 132.806 810.35 486.054
876 0 36.3548 12.8456 467 131.597 810.227 484.991
877 0 37.3118 14.0974 526 127.019 809.2 485.631
878 0 40.3445 13.2608 535 129.886 809.763 481.959
879 0 39.487 13.3968 529 130.21 808.374 480.72
880 0 40.3412 13.2123 533 130.255 808.917 480.201
881 0 39.0476 13.7269 536 131.338 808.284 478.267
882 0 42.2384 14.7733 624 128.236 808.694 478.05
883 0 43.1929 14.6783 634 129.098 808.669 475.453
884 0 47.1164 10.0814 475 136.105 807.901 473.739
885 0 47.2418 10.9014 515 131.124 808.318 474.926
886 0 47.3443 14.8909 705 125.177 808.352 473.513
887 0 49.5052 15.1095 748 126.477 809.063 470.048
888 0 50.5946 14.2703 722 128.485 808.273 468.949
889 0 52.5108 14.2828 750 129.185 809.581 467.417
890 0 54.6463 16.927 925 122.613 808.771 467.715
891 0 55.4139 15.8805 880 127.603 809.597 460.636
892 0 58.8134 15.2006 894 127.536 810.182 463.43
893 0 61.233 14.9593 916 130.288 810.485 459.061
894 0 62.0688 13.8717 861 130.904 811.937 462.89
895 0 63.0573 12.6076 795 134.425 811.643 461.269
896 0 65.9028 18.3756 1211 125.22 811.404 458.397
897 0 69.1566 16.1662 1118 130.627 812.259 456.669
898 0 71.5322 15.0422 1076 133.555 813.062 454.545
899 0 73.7572 16.5408 1220 130.298 813.006 457.098
900 0 75.9421 14.9456 1135 133.663 814.054 455.897
901 0 79.1546 15.236 1206 133.138 813.833 453.829
902 0 80.2419 13.8456 1111 137.364 814.649 455.628
903 1 48.5477 13.1211 637 132.149 814.491 470.385
904 0 43.4697 9.59289 417 138.228 815.775 471.638
905 0 46.3344 12.7335 590 131.2 814.681 470.476
906 0 47.257 10.7074 506 137.324 815.674 470.182
907 0 51.1427 13.1984 675 134.807 814.861 475.317
908 0 52.2082 12.0862 631 133.266 813.669 475.339
909 0 53.1999 12.2933 654 132.578 815.37 475.951
910 0 55.196 14.6388 808 126.504 814.128 475.344
911 0 56.2703 14.4303 812 128.083 814.064 474.406
912 0 60.3769 11.6932 706 133.05 812.888 474.449
913 0 63.3314 14.9847 949 127.164 813.243 472.616
914 0 65.4447 13.5229 885 130.872 812.661 471.545
915 0 67.4734 15.369 1037 125.811 811.401 472.882
916 0 67.546 11.977 809 131.806 811.716 472.465
917 0 71.4146 11.6223 830 132.271 810.048 469.654
918 0 72.2557 12.3589 893 129.624 808.419 471.215
919 1 40.0943 11.7224 470 126.274 808.932 484.192
920 0 42.03 12.0628 507 123.905 807.623 484.444
921 0 44.1965 14.2772 631 117.36 807.192 481.06
922 0 40.0899 11.6239 466 124.219 807.371 479.292
923 0 45.1533 15.9014 718 115.213 806.731 479.907
924 0 46.0644 14.1324 651 118.777 806.456 475.759
925 0 46.2795 12.122 561 122.217 806.002 475.201
926 0 47.06 10.9647 516 124.921 806.186 473.764
927 0 49.1189 13.0907 643 119.289 806.264 475.226
928 0 51.2517 11.2777 578 123.934 806.708 471.414
929 0 52.0868 11.2313 585 123.643 807.205 469.822
930 0 54.0922 9.63171 521 126.382 806.868 472.263
931 0 56.0753 11.1992 628 125.091 807.619 465.318
932 0 55.0726 10.6223 585 127.128 807.923 464.202
933 0 60.081 9.38732 564 127.266 808.583 464.363
934 0 61.131 10.3221 631 124.945 808.485 465.455
935 0 64.3349 10.7096 689 123.984 809.672 460.958
936 0 66.0866 13.331 881 118.331 809.656 463.459
937 0 67.048 9.441 633 125.744 809.907 458.795
938 1 34.0151 10.1425 345 124.667 810.783 475.78
939 0 36.035 10.7118 386 122.57 811.259 475.101
940 0 37.0097 11.6996 433 121.695 811.404 474.023
941 0 38.0645 13.1881 502 118.757 811.964 474.598
942 0 40.1088 13.7376 551 117.49 814.123 474.118
943 0 39.5372 11.9381 472 125.282 814.42 474.443
944 1 78.5899 11.4264 898 126.964 814.217 457.075
945 0 80.8929 11.917 964 125.862 814.002 457.922
946 0 80.9752 10.5711 856 128.102 814.258 455.742
947 1 43.1223 10.0412 433 124.169 812.725 475.594
948 0 44.0252 12.2657 540 119.417 813.006 476.646
949 0 44.0677 10.2116 450 123.471 813.027 478.591
950 0 48.0951 9.33567 449 122.59 812.699 480.673
951 0 47.048 11.5414 543 119.823 812.068 478.232
952 0 50.0396 13.4294 672 116.464 812.449 475.775
953 0 48.026 9.5365 458 121.965 810.672 481.013
954 0 48.0148 7.49769 360 126.833 810.85 478.072
955 0 54.0713 11.3924 616 118.709 810.805 477.933
956 0 54.0846 11.8518 641 117.599 810.248 480.17
957 0 58.0251 11.3572 659 118.777 809.994 478.457
958 0 58.1968 9.70843 565 122.064 808.927 479.384
959 0 58.1198 8.37924 487 124.622 809.074 476.904
960 0 58.1709 10.366 603 121.32 807.134 472.595
961 0 64.0969 8.59636 551 123.878 807.24 475.419
962 0 68.2977 10.381 709 121.419 806.26 469.281
963 0 74.213 8.63731 641 122.638 806.764 465.253
964 0 76.0739 9.53021 725 121.407 805.188 465.817
965 0 77.1276 9.37408 723 119.675 805.346 472.253
966 1 39.1141 13.2433 518 119.189 806.164 479.552
967 0 41.2556 14.9798 618 114.138 805.424 478.246
968 0 45.37 12.6074 572 114.15 806.274 479.142
969 0 45.37 12.6074 572 122.093 807.274 479.142
970 0 46.4871 14.7353 685 117.286 806.412 475.428
971 0 47.5607 13.9611 664 119.285 806.809 473.584
972 0 53.6493 12.88 691 119.42 806.511 472.486
973 0 50.2909 14.2372 716 119.302 807.892 470.973
974 0 50.4694 15.4153 778 117.337 807.445 472.211
975 0 50.5732 12.6549 640 123.662 807.531 467.714
976 0 52.4578 13.7253 720 120.392 807.342 467.203
977 0 53.3666 12.8545 686 123.187 808.593 461.977
978 0 54.3574 13.1905 717 121.598 807.983 466.382
979 0 57.4174 12.4353 714 122.665 809.162 462.804
980 0 59.5559 11.4011 679 123.29 809.998 463.87
981 0 60.6226 15.1923 921 118.365 812.049 462.907
982 0 62.4107 13.6996 855 122.705 810.871 459.667
983 0 65.5095 14.1201 925 121.206 813.013 457.262
984 0 67.7936 13.0543 885 121.098 813.557 459.686
985 0 67.5077 13.3614 902 122.048 814.57 456.399
986 0 69.661 14.226 991 121.007 814.834 457.89
987 0 73.0526 14.0036 1023 124.384 815.384 455.515
988 0 74.7202 15.4175 1152 122.663 816.422 453.152
989 0 78.9412 16.8733 1332 116.217 817.095 453.929
990 0 81.9032 15.8236 1296 115.391 817.245 454.793
991 0 85.8354 16.5433 1420 113.985 815.849 455.339
992 0 87.8345 15.5406 1365 120.218 815.91 450.935
993 0 91.0302 16.1375 1469 115.169 815.848 451.575
994 1 45.5062 16.3934 746 111.538 815.362 473.558
995 0 47.9474 14.8496 712 118.421 815.146 473.593
996 0 52.1028 14.932 778 112.946 813.954 472.802
997 0 51.5299 13.6038 701 122.615 814.783 471.823
998 0 53.7183 18.2061 978 111.425 815.041 473.892
999 0 55.1357 14.8724 820 123.632 814.544 470.391
1000 0 57.816 15.4801 895 121.872 813.454 471.354
1001 0 58.5461 15.5092 908 123.545 811.789 468.086
1002 0 60.6325 14.2168 862 126.375 812.3 468.513
1003 0 61.833 12.9057 798 127.648 810.876 467.999
1004 0 63.9659 15.8209 1012 124.208 809.989 467.376
1005 0 66.7576 17.5111 1169 118.161 810.508 462.688
1006 0 67.9486 14.5846 991 124.181 809.297 462.11
1007 0 72.7246 15.0018 1091 122.201 809.258 463.962
1008 0 73.7622 16.4312 1212 121.677 809.825 459.876
1009 0 76.0205 16.9033 1285 119.795 809.012 460.005
1010 0 77.9808 16.145 1259 121.302 809.332 458.485
1011 0 77.8715 15.8852 1237 123.975 809.599 455.808
1012 0 82.8759 17.7977 1475 120.144 808.812 455.062
1013 0 83.5597 17.2332 1440 121.365 808.973 455.143
1014 0 87.9192 16.4014 1442 124.046 809.247 450.968
1015 0 90.6508 13.3369 1209 129.644 810.548 448.191
1016 0 94.5517 15.8643 1500 124.981 810.387 446.593
1017 0 98.5947 17.8103 1756 117.699 809.969 449.835
1018 0 98.5344 15.9538 1572 124.281 810.749 441.821
1019 0 98.6551 15.3869 1518 126.871 810.341 436.385
1020 0 105.731 18.5281 1959 119.477 810.885 437.946
1021 0 108.918 17.5086 1907 120.331 812.101 436.837
1022 0 112.772 16.8836 1904 120.814 812.42 430.327
1023 1 59.219 13.1883 781 120.27 813.16 460.809
1024 0 61.2443 12.8175 785 120.898 813.502 457.938
1025 0 63.2103 15.3931 973 118.087 811.361 459.102
1026 0 63.2103 15.4405 976 134.336 810.369 459.053
1027 0 65.3291 13.409 876 122.305 813.459 455.2
1028 0 68.2236 12.6496 863 122.847 813.561 454.611
1029 0 72.385 15.238 1103 115.846 815.4 457.403
1030 0 73.3176 15.6034 1144 116.323 816.27 452.895
1031 0 77.2069 17.0581 1317 113.953 816.665 453.146
1032 0 78.1246 14.8993 1164 117.178 817.119 452.705
1033 0 81.1352 13.5453 1099 118.065 817.823 455.135
1034 0 81.236 11.6697 948 123.237 816.976 451.787
1035 0 81.236 11.7928 958 132.026 815.967 451.69
1036 0 89.3075 14.8812 1329 115.108 816.313 456.562
1037 0 91.1162 17.6917 1612 113.604 815.221 448.053
1038 0 95.3205 17.5618 1674 113.501 816.977 449.881
1039 0 98.3664 14.1207 1389 119.805 815.48 448.193
1040 0 100.312 14.4948 1454 119.568 815.844 453.363
1041 0 105.171 12.8932 1356 121.461 815.37 452.454
1042 0 109.312 14.5181 1587 120.457 815.982 448.746
1043 0 115.315 15.3146 1766 119.634 813.204 448.664
1044 1 55.1299 9.97644 550 118.522 813.462 466.129
1045 0 59.4597 12.2268 727 119.927 809.851 469.761
1046 0 62.082 9.21361 572 116.628 811.491 472.161
1047 0 63.1502 11.3381 716 115.303 810.137 471.592
1048 0 66.2095 12.3547 818 114.268 809.24 467.057
1049 0 72.2902 14.179 1025 110.861 808.86 467.633
1050 0 71.2171 11.1771 796 115.386 809.087 468.763
1051 0 73.1871 11.6687 854 115.725 807.57 463.7
1052 0 76.2439 13.8109 1053 109.856 808.589 469.175
1053 0 78.5605 12.9836 1020 112.864 808.351 464.734
1054 0 78.1405 10.7755 842 118.954 807.992 458.534
1055 0 82.242 14.2871 1175 111.649 808.477 460.518
1056 0 85.3251 13.22 1128 114.71 807.484 455.542
1057 0 87.1908 13.6941 1194 113.592 807.474 451.982
1058 0 93.3818 13.6108 1271 112.327 808.552 448.46
1059 0 95.1839 12.2395 1165 114.931 808.753 445.942
1060 0 97.4266 11.4958 1120 114.187 809.875 453.13
1061 1 54.1312 9.62477 521 112.299 811.163 467.747
1062 0 54.2342 9.82776 533 110.961 809.154 467.379
1063 0 54.7423 12.7872 700 107.557 808.286 454.734
1064 0 59.1617 12.1531 719 106.62 806.655 459.458
1065 0 60.2428 10.3913 626 109.535 807.545 461.272
1066 0 61.2935 9.85422 604 110.432 808.002 460.642
1067 0 65.2174 9.89 645 109.167 810.409 458.811
1068 0 67.2094 13.3761 899 104.257 810.822 453.867
1069 0 65.2289 12.6938 828 106.275 810.64 456.021
1070 0 68.2906 10.9678 749 109.585 811.111 456.244
1071 0 71.1257 13.8628 986 112.998 815.455 454.096
1072 0 74.1493 11.7466 871 116.489 816.093 452.896
1073 0 74.1256 10.4417 774 119.404 817.801 451.747
1074 0 76.1496 11.7532 895 117.035 817.022 455.475
1075 0 81.1882 14.1769 1151 112.311 818.089 452.79
1076 0 81.1882 14.1892 1152 123.966 818.081 452.793
1077 0 81.2639 8.26936 672 121.415 815.792 459.357
1078 0 84.1104 11.8416 996 119.024 816.878 453.453
1079 0 91.3303 14.4092 1316 113.761 816.393 448.935
1080 0 95.2577 15.4108 1468 112.609 816.986 453.037
1081 1 50.1684 13.0959 657 109.126 815.298 476.712
1082 0 52.141 10.7785 562 110.71 817.6 475.778
1083 0 55.3908 13.9373 772 102.615 815.438 473.987
1084 0 56.076 11.3952 639 107.474 816.387 476.502
1085 0 55.1073 12.1037 667 108.642 814.853 474.139
1086 0 58.0552 12.6259 733 107.251 814.371 475.748
1087 0 60.1042 14.009 842 106.044 813.201 472.71
1088 0 62.1353 13.4545 836 105.938 813.493 469.988
1089 0 64.2149 16.2268 1042 102.059 811.972 468.491
1090 0 63.169 12.4903 789 110.224 811.066 469.492
1091 0 67.1934 12.5607 844 108.27 809.924 473.377
1092 0 70.2919 13.0456 917 107.04 808.995 472.289
1093 0 73.125 13.4564 984 105.195 810.043 472.756
1094 0 75.3073 12.8274 966 107.553 810.148 464.725
1095 0 77.1228 11.5271 889 110.081 809.607 459.893
1096 0 77.1228 11.5011 887 131.295 808.607 460.062
1097 0 83.1251 13.9789 1162 106.559 808.718 460.077
1098 1 42.1485 10.1308 427 109.276 809.342 479.663
1099 0 39.0996 9.05381 354 111.749 809.153 476.743
1100 0 42.2872 10.7834 456 108.068 809.035 475.377
1101 0 46.3294 11.6557 540 104.352 805 476.719
1102 0 46.0457 11.5972 534 105.614 806.15 472.858
1103 0 48.2206 12.7746 616 103.534 805.029 470.735
1104 0 49.2121 12.3344 607 105.85 804.438 466.834
1105 0 50.1225 12.3098 617 106.073 805.929 468.507
1106 0 51.1279 11.6766 597 107.643 805.868 469.209
1107 0 54.0624 13.5029 730 105.003 807.284 467.296
1108 0 53.1246 10.4471 555 111.036 806.09 464.533
1109 0 55.1001 11.7423 647 110.201 808.223 463.402
1110 0 56.1848 12.3699 695 109.177 808.085 462.488
1111 0 57.0802 12.5262 715 109.371 809.124 463.234
1112 0 60.2357 12.9491 780 108.449 808.463 464.817
1113 0 63.0878 15.1535 956 104.951 810.052 463.06
1114 0 67.173 12.9665 871 107.881 809.84 460.861
1115 0 67.1184 12.4407 835 108.916 811.089 456.442
1116 0 70.2495 14.8898 1046 105.185 810.794 458.325
1117 0 70.2152 12.7038 892 108.349 811.584 462.259
1118 0 72.0963 12.8301 925 108.306 810.938 460.918
1119 0 77.3248 17.3942 1345 101.779 812.126 460.639
1120 0 79.2205 16.3973 1299 104.069 812.043 456.396
1121 0 81.252 15.4089 1252 105.908 811.208 456.254
1122 0 86.2178 16.9919 1465 102.845 811.659 455.865
1123 1 43.2125 12.7509 551 108.278 810.359 475.893
1124 0 43.3209 11.5879 502 109.406 809.783 478.556
1125 0 44.3925 9.97917 443 113.273 810.045 478.463
1126 0 47.3078 13.7187 649 103.943 810.114 474.143
1127 0 49.1853 11.3449 558 109.142 808.167 480.475
1128 0 51.3175 13.5626 696 105.237 809.826 480.073
1129 0 52.1365 15.632 815 103.157 807.552 478.346
1130 0 51.1786 10.6294 544 113.257 806.691 476.066
1131 0 51.1089 10.5852 541 111.287 805.264 479.146
1132 0 55.2957 13.256 733 107.321 806.334 476.847
1133 0 56.1686 12.8008 719 108.729 804.716 478.515
1134 0 60.1105 15.6711 942 104.363 805.796 473.049
1135 0 61.3025 12.3975 760 109.645 803.521 473.826
1136 0 62.3052 13.0487 813 108.148 804.45 472.743
1137 0 65.1688 13.0584 851 108.408 803.588 468.575
1138 0 66.1596 12.0617 798 109.388 802.48 472.495
1139 0 68.1512 13.3673 911 108.199 802.088 469.122
1140 0 68.1685 12.6892 865 109.658 802.725 467.934
1141 0 70.1779 14.0215 984 109.393 801.777 462.083
1142 0 73.135 16.2986 1192 105.637 802.597 458.061
1143 0 75.1952 15.5329 1168 107.086 801.996 459.983
1144 0 76.2351 12.2516 934 111.633 801.844 462.136
1145 0 80.2059 14.8992 1195 107.385 802.987 460.736
1146 0 81.3502 10.6207 864 113.558 803.318 458.461
1147 0 82.1353 12.8934 1059 110.469 803.533 458.518
1148 0 88.3171 13.3043 1175 109.193 807.773 462.597
1149 0 86.1842 11.3942 982 116.991 809.129 447.233
1150 1 45.314 6.88529 312 113.442 807.337 463.446
1151 0 47.5418 12.2839 584 104.793 807.68 462.322
1152 0 48.0488 12.5914 605 108.162 805.329 469.86
1153 0 49.1685 11.125 547 109.843 807.59 469.746
1154 0 53.127 13.9665 742 106.496 807.151 466.915
1155 0 53.1304 12.1776 647 108.904 807.589 469.029
1156 0 54.0946 11.8681 642 109.597 808.193 468.913
1157 0 55.0727 9.67812 533 113.004 807.572 470.983
1158 0 60.132 13.0047 782 109.416 810.289 463.345
1159 0 59.2729 12.3834 734 107.05 809.326 471.279
1160 0 61.095 11.9977 733 109.78 810.765 464.688
1161 0 64.244 11.3474 729 109.38 809.713 469.232
1162 0 65.222 12.1738 794 109.826 811.911 465.387
1163 0 66.297 13.6959 908 108.453 810.345 464.665
1164 0 70.3003 12.4039 872 109.555 811.469 466.338
1165 0 72.1055 18.362 1324 101.224 811.195 468.821
1166 0 75.1592 15.2343 1145 105.769 810.654 468.314
1167 0 74.1947 13.3568 991 111.364 811.292 463
1168 0 77.1728 13.567 1047 111.8 811.726 465.278
1169 0 80.2661 12.4461 999 110.589 810.857 469.002
1170 1 43.023 11.8076 508 110.846 810.392 483.181
1171 0 46.066 12.6775 584 105.596 809.25 484.368
1172 0 45.5019 15.0983 687 102.392 810.552 481.336
1173 0 45.6122 12.7378 581 107.346 809.661 478.358
1174 0 48.3509 14.8291 717 103.996 808.548 479.639
1175 0 48.2583 13.8215 667 105.543 808.106 479.316
1176 0 49.1556 11.0059 541 109.25 806.253 482.048
1177 0 53.3644 14.4853 773 103.886 806.303 474.452
1178 0 51.5364 11.1766 576 110.127 804.938 477.497
1179 0 53.1274 13.9852 743 106.748 804.786 477.616
1180 0 58.3535 16.8113 981 101.63 804.35 475.622
1181 0 57.1805 12.5043 715 107.2 804.095 476.476
1182 0 59.2653 17.3457 1028 100.88 803.567 473.762
1183 0 58.2655 13.8675 808 128.761 801.437 470.797
1184 0 63.3153 14.7831 936 104.894 802.535 470.96
1185 0 64.1772 11.7331 753 109.574 802.268 468.218
1186 0 64.1772 11.7955 757 128.024 802.277 468.12
1187 0 69.2782 12.5292 868 107.99 802.314 461.932
1188 0 69.2329 11.9596 828 108.388 802.919 464.708
1189 0 74.3053 14.6154 1086 106.262 803.6 457.565
1190 0 76.3842 13.0132 994 108.334 804.024 453.667
1191 0 77.1346 15.285 1179 105.858 803.831 456.27
1192 0 79.202 12.1588 963 109.834 804.782 458.436
1193 0 82.2903 13.6711 1125 109.852 805.806 447.936
1194 1 44.1069 11.8575 523 108.75 804.855 471.727
1195 0 43.9839 14.0961 620 109.684 808.434 463.624
1196 0 48.7099 12.6874 618 104.916 806.846 468.374
1197 0 49.0558 14.9218 732 103.925 807.586 466.697
1198 0 51.046 10.9117 557 109.725 807.632 465.754
1199 0 51.2003 13.164 674 107.142 808.675 468.272
1200 0 53.2002 11.2594 599 110.551 809.521 467.058
1201 0 54.131 11.9155 645 109.04 809.398 466.456
1202 0 55.0478 10.827 596 110.928 809.997 466.624
1203 0 61.2474 13.9924 857 105.869 810.238 466.069
1204 0 62.2001 14.0997 877 104.958 811.108 467.991
1205 0 59.1796 9.36134 554 111.686 811.197 470.677
1206 0 65.1266 13.7271 894 106.185 811.28 466.756
1207 0 68.2262 12.6931 866 108.667 811.649 465.641
1208 0 69.1059 11.6199 803 110.379 810.89 464.222
1209 0 69.2245 9.10083 630 113.337 810.964 466.536
1210 1 40.0493 12.4097 497 105.419 809.286 482.765
1211 0 42.1382 13.1947 556 103.151 809.309 481.671
1212 0 42.1629 11.1235 469 106.124 808.493 483.07
1213 0 43.2407 14.1071 610 100.967 807.969 481.057
1214 0 45.3086 11.3223 513 105.296 806.647 478.328
1215 0 45.1999 11.1947 506 106.107 806.915 482.876
1216 0 44.0497 11.3962 502 108.084 807.151 484.004
1217 0 45.0671 5.9023 266 114.801 806.451 488.259
1218 0 48.2157 9.1464 441 110.268 805.209 481.952
1219 0 49.3892 9.63773 476 109.706 805.059 481.496
1220 0 52.2455 12.0393 629 106.453 805.154 474.41
1221 0 54.4586 9.2731 505 108.586 804.02 481.376
1222 0 53.345 8.79183 469 110.964 803.655 479.742
1223 0 53.345 8.88556 474 128.679 803.705 479.705
1224 0 54.1838 12.1623 659 107.7 804.158 475.737
1225 0 59.0598 12.1064 715 107.659 804.596 473.814
1226 0 61.3058 12.5274 768 107.186 803.82 472.909
1227 0 64.6278 9.16014 592 108.995 802.868 475.051
1228 0 64.4079 9.85903 635 110.512 802.82 468.783
1229 0 70.3171 11.8606 834 105.647 802.983 466.847
1230 0 73.3599 11.6003 851 103.081 803.223 472.228
1231 0 74.3269 13.9384 1036 103.912 804.145 461.67
1232 0 78.3175 17.1481 1343 99.0961 804.758 464.243
1233 1 38.1047 10.8648 414 107.696 802.599 475.292
1234 0 42.3321 11.7169 496 105.562 803.385 473.042
1235 0 42.0507 13.5789 571 101.832 808.49 472.112
1236 0 45.0881 11.9322 538 104.297 811.048 470.574
1237 0 46.1 11.4317 527 105.175 810.406 469.158
1238 0 46.0358 13.4461 619 102.805 811.732 466.864
1239 0 48.0521 14.734 708 100.76 811.494 467.903
1240 0 49.1734 14.7437 725 102.21 811.866 465.978
1241 0 51.0816 9.49461 485 109.256 812.755 466.243
1242 0 53.0729 13.5097 717 103.562 813.623 464.877
1243 0 56.0581 14.7704 828 101.407 813.586 468.457
1244 0 54.088 12.3318 667 106.178 814.825 466.312
1245 0 53.1492 7.73295 411 114.173 815.221 470.467
1246 0 54.0811 14.3118 774 105.372 815.523 470.059
1247 0 57.0847 12.0348 687 109.422 816.141 467.05
1248 0 61.104 16.0055 978 102.074 816.063 470.296
1249 0 62.0317 12.6226 783 109.148 816.37 466.538
1250 0 63.1231 9.52108 601 113.842 815.461 467.438
1251 0 68.2189 14.5414 992 106.511 816.289 467.225
1252 0 71.1835 16.3381 1163 104.41 815.107 466.218
1253 0 71.2033 12.4432 886 110.337 815.668 466.555
1254 0 71.2033 12.5275 892 126.519 815.634 466.388
1255 0 77.4444 12.9383 1002 110.955 814.806 467.291
1256 0 79.1033 15.524 1228 108.511 813.822 464.812
1257 0 80.1166 11.7079 938 114.905 812.322 466.515
1258 1 46.0796 10.2214 471 116.414 813.14 482.108
1259 0 48.1484 11.7138 564 114.5 812.527 480.089
1260 0 48.4039 14.9162 722 109.084 811.163 477.425
1261 0 53.4378 12.7251 680 111.462 810.048 476.915
1262 0 52.1025 13.9533 727 108.626 809.425 479.642
1263 0 50.1388 9.81276 492 117.356 809.146 478.663
1264 0 54.0396 12.8424 694 112.024 808.641 478.151
1265 0 55.1719 12.1982 673 114.192 809.284 468.845
1266 0 60.1798 14.5896 878 108.9 807.869 471.466
1267 0 60.2516 13.2113 796 109.982 807.903 471.695
1268 0 62.248 13.9442 868 110.356 808.317 467.938
1269 0 60.2489 14.4235 869 109.306 807.371 471.218
1270 0 64.4525 10.8762 701 114.058 806.76 467.662
1271 0 67.5036 14.5177 980 109.981 806.255 458.358
1272 0 67.42 11.8807 801 114.233 807.918 460.37
1273 0 70.2842 13.7869 969 110.927 807.79 460.148
1274 0 71.2611 11.4087 813 115.574 808.304 458.747
1275 0 74.1815 12.7525 946 113.437 807.512 453.221
1276 0 74.1815 12.8064 950 133.369 806.536 453.287
1277 0 82.2874 14.4007 1185 108.703 808.108 455.861
1278 0 83.3141 13.3711 1114 111.25 809.537 450.879
1279 1 46.2041 14.5009 670 105.597 811.119 472.722
1280 0 45.1265 13.3846 604 109.176 810.74 466.078
1281 0 46.2437 11.115 514 114.86 811.498 462.002
1282 0 50.3936 13.6922 690 109.509 812.068 462.732
1283 0 50.1018 12.7141 637 112.757 813.29 463.204
1284 0 50.1018 12.6343 633 135.464 814.288 463.161
1285 0 52.0508 16.0036 833 105.396 813.735 471.414
1286 0 54.1904 14.6336 793 110.644 815.024 462.731
1287 0 55.1312 15.581 859 108.494 814.996 464.988
1288 0 58.1455 15.7192 914 108.744 816.487 462.016
1289 0 55.1181 12.5186 690 115.543 816.894 460.078
1290 0 59.0967 13.4694 796 112.268 815.294 462.139
1291 0 59.0693 15.084 891 110.21 816.054 463.313
1292 0 59.2055 11.9414 707 114.982 816.047 459.86
1293 0 67.0794 15.4891 1039 108.14 815.511 464.5
1294 0 67.2324 14.2491 958 110.592 815.942 464.71
1295 0 68.1191 14.0636 958 111.786 814.952 464.192
1296 0 71.0909 15.853 1127 107.728 815.345 466.615
1297 0 73.0526 10.6362 777 117.516 815.179 466.268
1298 0 76.2766 13.7132 1046 112.413 815.822 466.23
1299 0 79.1106 13.9678 1105 112.681 814.519 459.013
1300 0 81.2032 13.8541 1125 112.068 813.23 467.533
1301 0 82.3179 13.4479 1107 114.601 814.055 462.057
1302 1 44.0517 10.919 481 114.655 811.64 486.249
1303 0 48.1449 13.2517 638 110.458 811.737 475.649
1304 0 49.4198 15.6415 773 105.503 809.374 476.682
1305 0 50.0506 16.5632 829 103.85 810.229 476.739
1306 0 51.223 11.9282 611 110.856 810.62 475.48
1307 0 53.4452 13.6963 732 108.568 810.281 473.69
1308 0 57.2812 12.7092 728 111.419 806.595 470.622
1309 0 57.1502 11.2511 643 115.33 807.605 466.316
1310 0 60.2924 12.4228 749 112.648 807.669 465.81
1311 0 64.2352 17.5605 1128 104.204 807.729 466.72
1312 0 66.2323 18.6616 1236 103.477 807.308 467.041
1313 0 67.2266 14.1908 954 110.303 807.037 460.595
1314 0 68.1571 17.1515 1169 107.229 807.328 459.142
1315 0 69.2097 14.7667 1022 111.023 805.808 455.924
1316 0 71.1546 14.1804 1009 112.234 807.76 449.362
1317 0 73.2367 13.4495 985 112.869 807.371 457.031
1318 0 78.3373 14.3737 1126 111.392 807.606 447.844
1319 0 78.2798 12.2509 959 115.983 808.316 448.344
1320 0 81.2282 14.6993 1194 112.679 807.302 451.925
1321 0 85.6448 14.4084 1234 113.449 806.228 448.709
1322 1 42.1375 10.9878 463 115.181 805.741 469.002
1323 0 42.1375 10.9167 460 128.624 806.787 468.841
1324 0 46.0932 12.67 584 112.659 807.277 465.31
1325 0 46.0932 12.7134 586 120.075 807.283 465.14
1326 0 46.2128 10.5166 486 105.305 807.747 460.916
1327 0 48.0227 12.3483 593 105.511 809.651 462.147
1328 0 47.0403 10.5867 498 114.98 811.709 460.064
1329 0 54.0698 12.5209 677 111.222 810.604 469.337
1330 0 52.1338 10.0127 522 118.077 810.615 467.59
1331 0 56.1735 13.4227 754 111.231 809.993 467.16
1332 0 58.047 12.7655 741 110.9 811.283 470.243
1333 0 59.087 12.1008 715 112.65 810.748 468.178
1334 0 62.1304 12.9083 802 111.67 812.893 466.057
1335 0 64.062 12.4098 795 111.914 811.462 467.259
1336 0 66.1729 10.8655 719 114.085 811.106 466.878
1337 0 68.0769 11.1198 757 113.316 810.894 471.177
1338 0 71.1069 12.6148 897 111.906 809.613 464.687
1339 0 73.1848 10.535 771 113.39 810.013 464.284
1340 0 78.2544 11.8843 930 111.243 809.681 463.027
1341 0 84.365 12.0074 1013 109.58 809.777 461.19
1342 0 85.425 12.4671 1065 107.723 811.032 452.911
1343 0 88.3585 12.9133 1141 105.598 809.21 460.254
1344 1 49.0652 8.56003 420 109.75 807.583 478.962
1345 0 51.0257 12.2095 623 106.891 806.376 480.957
1346 0 52.4118 11.0281 578 109.189 806.915 470.178
1347 0 54.1058 11.6254 629 107.498 805 473.962
1348 0 54.3965 12.556 683 106.745 804.757 470.767
1349 0 58.2422 14.7316 858 103.829 805.759 469.114
1350 0 59.0921 12.0828 714 110.525 804.826 472.129
1351 0 62.2079 12.5547 781 110.273 804.584 471.567
1352 0 61.1674 11.444 700 113.486 803.286 470.376
1353 0 63.156 12.5562 793 111.604 803.724 469.117
1354 0 63.0566 12.687 800 112.576 803.439 468.154
1355 0 70.0413 15.9192 1115 106.95 804.056 462.157
1356 0 71.1214 15.4665 1100 107.771 803.265 463.67
1357 0 73.1725 11.9307 873 114.478 803.383 459.486
1358 0 76.2867 13.9081 1061 111.087 803.325 456.232
1359 0 78.2488 12.7925 1001 113.541 803.838 453.365
1360 0 80.5741 15.0793 1215 110.455 804.549 458.208
1361 0 81.2483 8.9725 729 120.409 804.041 450.737
1362 0 83.4342 8.29396 692 120.145 803.595 450.803
1363 1 47.4551 11.7795 559 114.047 804.995 467.068
1364 0 46.4914 12.6905 590 110.747 805.839 463.088
1365 0 48.5623 11.8816 577 111.177 805.667 462.607
1366 0 50.3639 13.8989 700 107.81 807.583 466.387
1367 0 50.0883 9.58308 480 115.127 806.525 466.698
1368 0 54.1516 13.2591 718 108.769 807.733 466.357
1369 0 54.1516 13.2037 715 114.652 808.731 466.429
1370 0 56.2759 10.6084 597 113.608 809.417 464.436
1371 0 58.2582 15.8089 921 107.065 809.325 463.109
1372 0 57.1757 8.97235 513 118.133 810.458 463.86
1373 0 64.2262 13.1255 843 109.298 810.853 459.223
1374 0 65.4595 15.0933 988 106.922 812.317 462.351
1375 0 66.3175 15.8631 1052 103.797 811.471 468.22
1376 0 68.4887 12.0312 824 110.147 812.176 467.216
1377 0 71.2399 15.5812 1110 106.069 811.364 465.496
1378 0 74.3462 13.2354 984 108.489 811.295 467.818
1379 0 75.3173 14.5252 1094 109.03 810.134 463.534
1380 0 75.3991 13.3423 1006 111.343 811.128 464.377
1381 0 80.3453 12.6205 1014 111.169 811.064 466.06
1382 0 85.7604 15.0885 1294 107.852 811.251 459.701
1383 0 82.3441 13.7229 1130 110.857 809.604 466.792
1384 0 85.4329 12.3255 1053 113.896 810.899 465.37
1385 0 91.6852 14.2226 1304 111.147 809.724 460.099
1386 1 44.2386 10.1721 450 116.418 808.136 482.629
1387 0 46.3387 10.3585 480 116.746 806.7 481.017
1388 0 45.0437 9.01346 406 120.534 805.404 478.256
1389 0 49.3381 14.5729 719 110.166 805.851 479.491
1390 0 48.1151 11.8882 572 115.434 804.855 478.654
1391 0 52.2642 11.0018 575 112.487 804.398 478.226
1392 0 53.1333 12.0828 642 112.285 804.315 478.064
1393 0 57.3593 11.0357 633 114.179 804.524 473.766
1394 0 59.1025 16.226 959 105.808 804.102 473.641
1395 0 61.2275 22.7676 1394 97.9577 804.039 472.187
1396 0 69.2097 14.969 1036 105.512 804.694 475.168
1397 0 63.1606 12.017 759 114.225 802.15 470.206
1398 0 63.1606 11.922 753 129.59 801.155 470.096
1399 0 67.1139 13.2461 889 113.64 802.485 463.822
1400 0 69.2351 12.4214 860 115.584 801.792 461.007
1401 0 71.1573 14.208 1011 113.195 801.876 460.133
1402 0 76.2999 15.7405 1201 109.513 801.832 458.55
1403 0 80.1593 11.2152 899 116.204 802.195 461.661
1404 0 79.2732 12.438 986 116.911 802.701 456.791
1405 0 79.151 11.8381 937 119.464 803.902 455.477
1406 0 83.282 15.3695 1280 111.152 805.23 459.126
1407 0 87.6006 13.2191 1158 116.414 805.824 451.315
1408 0 90.2046 13.4694 1215 115.554 806.228 452.638
1409 0 96.513 13.3557 1289 115.389 806.461 452.11
1410 1 47.1656 11.0886 523 119.74 806.229 470.12
1411 0 48.2718 14.1905 685 112.324 808.336 469.016
1412 0 50.2338 13.7358 690 112.201 811.739 458.322
1413 0 50.4252 10.6098 535 117.222 809.449 459.703
1414 0 52.6414 12.8226 675 113.51 813.27 467.997
1415 0 53.372 15.6824 837 110.096 813.618 468.364
1416 0 54.3981 14.2652 776 113.439 812.836 468.237
1417 0 57.7949 12.5444 725 114.941 814.083 471.179
1418 0 58.6103 16.4476 964 110.391 813.926 468.157
1419 0 60.3211 14.7046 887 113.351 813.523 468.374
1420 0 61.3886 12.429 763 118.651 814.305 466.59
1421 0 64.2097 15.0912 969 113.595 814.186 470.336
1422 0 65.4662 12.2201 800 118.568 813.609 473.295
1423 0 65.3125 12.0345 786 120.365 813.433 471.663
1424 0 68.5923 9.59291 658 122.12 812.98 471.219
1425 0 74.5128 14.7089 1096 114.419 811.963 468.43
1426 0 75.4848 12.3469 932 117.85 812.954 469.549
1427 0 77.7772 13.603 1058 118.069 810.045 468.76
1428 0 80.596 16.1547 1302 113.305 811.498 468.568
1429 0 83.308 13.192 1099 118.52 808.915 466.106
1430 1 42.2262 12.1015 511 120.045 809.268 482.898
1431 0 46.3538 11.4554 531 118.177 807.134 483.36
1432 0 46.3538 11.6064 538 133.539 806.128 483.314
1433 0 50.7623 16.2325 824 111.262 806.124 473.96
1434 0 49.7201 11.6452 579 118.313 806.468 474.181
1435 0 52.2777 10.2147 534 119.052 806.388 477.191
1436 0 52.2546 13.4725 704 113.92 807.197 472.168
1437 0 53.2419 12.9973 692 113.198 806.514 473.094
1438 0 53.2419 13.0912 697 124.286 806.528 473.242
1439 0 58.457 10.1784 595 115.466 805.674 471.76
1440 0 59.2897 13.1726 781 113.259 805.374 469.326
1441 0 64.3393 13.1335 845 110.74 805.477 464.988
1442 0 64.3119 14.212 914 110.009 806.393 463.426
1443 0 65.4552 11.7027 766 114.103 805.035 460.008
1444 0 70.4157 15.0819 1062 108.421 806.158 458.477
1445 0 72.2373 12.5281 905 111.47 804.845 456.054
1446 0 75.3125 14.9112 1123 107.709 806.084 453.733
1447 0 77.382 13.9826 1082 107.95 805.738 446.06
1448 0 77.5111 14.0109 1086 107.488 805.876 445.788
1449 0 79.5796 18.6229 1482 102.997 805.669 440.982
1450 0 78.3848 13 1019 111.88 806.474 440.668
1451 0 88.067 14.137 1245 109.058 808.427 438.458
1452 1 43.385 10.0035 434 108.113 809.984 463.935
1453 0 43.3155 8.05716 349 115.132 811.06 466.456
1454 0 45.1072 11.8606 535 112.95 811.095 467.813
1455 0 47.2043 12.6683 598 113.788 812.629 461.574
1456 0 49.0663 14.083 691 111.68 813.229 464.314
1457 0 51.0453 12.8317 655 113.089 813.466 465.478
1458 0 51.1463 11.0272 564 116.53 814.048 467.723
1459 0 54.1977 10.1296 549 117.042 814.69 470.658
1460 0 57.0667 12.3189 703 113.506 814.558 467.127
1461 0 57.1261 11.8335 676 115.354 815.305 466.901
1462 0 60.2101 14.0674 847 111.191 815.182 466.251
1463 0 62.1274 13.6816 850 111.807 814.558 464.707
1464 0 65.2185 12.9411 844 111.963 814.153 464.814
1465 0 64.3286 14.2239 915 111.564 813.555 464.282
1466 0 66.2281 12.9552 858 112.866 813.59 467.733
1467 0 71.3135 14.8079 1056 110.144 813.905 462.322
1468 0 73.393 12.7941 939 113.708 813.033 465.297
1469 0 76.1915 16.6554 1269 108.088 812.79 463.446
1470 0 80.2344 19.119 1534 104.053 812.288 460.983
1471 0 82.2976 12.9651 1067 114.189 812.049 464.021
1472 0 84.4305 15.2315 1286 110.247 810.075 461.687
1473 0 83.2763 10.4472 870 118.413 809.571 464.717
1474 0 87.2558 14.2913 1247 113.249 808.981 456.973
1475 0 91.2916 15.6531 1429 111.337 808.869 460.213
1476 1 49.0828 11.9594 587 113.055 809.562 481.789
1477 0 51.2567 12.5642 644 115.026 807.102 476.901
1478 0 52.3491 14.9191 781 111.896 806.524 474.232
1479 0 54.6045 12.6913 693 114.662 805.365 468.076
1480 0 56.6833 12.8786 730 113.879 804.66 468.385
1481 0 56.1346 9.40597 528 116.527 805.53 478.422
1482 0 59.0327 12.5693 742 111.934 805.896 473.372
1483 0 61.2843 12.7439 781 111.953 805.593 470.521
1484 0 63.1009 12.377 781 111.451 805.421 467.602
1485 0 67.2683 14.851 999 106.694 805.784 468.467
1486 0 71.3866 13.0137 929 109.168 806.287 466.051
1487 0 74.3316 14.2201 1057 108.279 806.855 463.415
1488 0 73.1895 14.5649 1066 109.315 806.948 460.288
1489 0 76.2259 15.2835 1165 108.236 807.215 458.877
1490 0 79.8096 10.2243 816 115.623 807.764 458.618
1491 0 83.4142 14.458 1206 110.183 807.492 451.716
1492 0 86.4626 16.3076 1410 106.994 807.304 455.463
1493 1 44.3258 11.5734 513 112.628 809.643 472.986
1494 0 46.1854 13.9221 643 111.698 809.991 471.044
1495 0 46.0152 12.083 556 115.455 812.617 470.969
1496 0 49.0771 12.409 609 115.445 814.033 467.844
1497 0 49.0674 16.7525 822 108.167 812.996 466.167
1498 0 51.0683 13.1393 671 115.215 813.025 469.802
1499 0 51.0758 12.3933 633 117.365 812.033 469.529
1500 0 54.093 13.4398 727 115.314 814.385 468.597
1501 0 54.093 13.2365 716 135.162 816.451 468.549
1502 0 56.097 12.7458 715 116.456 814.494 470.466
1503 0 56.0527 13.7371 770 117.122 814.729 470.717
1504 0 56.0527 13.6657 766 134.936 814.742 470.824
1505 0 56.067 12.3959 695 122.44 814.777 468.255
1506 0 58.0933 11.3782 661 123.778 815.466 466.101
1507 0 61.1389 12.6433 773 121.631 815.545 467.349
1508 0 64.1174 12.5239 803 119.767 813.897 473.293
1509 0 67.2489 14.0225 943 118.085 815.493 468.655
1510 0 67.2781 16.3054 1097 115.003 814.025 467.644
1511 0 70.094 13.382 938 120.434 813.702 467.224
1512 0 73.2034 16.4063 1201 113.683 813.489 470.002
1513 0 74.2591 13.9781 1038 118.26 812.673 468.773
1514 0 76.2364 12.2383 933 122.473 812.363 464.938
1515 0 79.1472 14.2898 1131 118.796 811.854 463.882
1516 0 82.2567 15.9379 1311 115.996 810.709 463.62
1517 0 85.2754 15.1744 1294 116.903 809.91 464.56
1518 0 89.2151 14.3474 1280 119.104 808.718 460.995
1519 0 90.3158 13.1981 1192 120.25 808.903 461.446
1520 1 50.0984 10.2199 512 124.865 809.193 478.619
1521 0 53.0282 13.1062 695 120.517 808.958 476.799
1522 0 51.1009 11.3305 579 124.204 808.497 476.732
1523 0 56.0472 12.9355 725 122.994 808.308 473.103
1524 0 55.1021 13.3207 734 121.022 807.499 474.038
1525 0 57.0314 10.6257 606 123.739 807.193 472.221
1526 0 58.0684 14.8273 861 116.739 806.441 469.369
1527 0 63.0701 14.365 906 114.539 807.187 472.028
1528 0 65.0996 14.5623 948 114.75 807.507 470.392
1529 0 64.1233 13.3337 855 119.936 807.124 464.377
1530 0 67.1009 14.6794 985 121.769 807.507 460.188
1531 0 68.1319 14.3692 979 122.05 808.407 460.947
1532 0 72.1912 15.9161 1149 118.28 807.386 458.466
1533 0 75.1621 14.1162 1061 120.556 809.633 459.274
1534 0 75.0445 13.6852 1027 123.016 809.944 452.994
1535 0 80.0738 16.0976 1289 117.889 809.366 452.665
1536 0 82.043 14.0902 1156 122.624 809.535 451.077
1537 0 82.1909 12.9211 1062 124.321 811.236 451.924
1538 0 87.1726 14.3738 1253 120.683 811.3 451.704
1539 1 45.103 14.4336 651 119.111 811.049 467.942
1540 0 48.1927 11.7653 567 123.508 811.984 471.097
1541 0 47.0587 13.4725 634 121.036 813.577 469.92
1542 0 49.0423 12.7849 627 118.788 813.292 470.018
1543 0 51.1243 11.5992 593 121.179 812.885 468.209
1544 0 52.0508 14.14 736 116.247 813.841 469.552
1545 0 55.1424 14.4172 795 115.391 814.282 467.683
1546 0 55.1633 14.3755 793 122.656 814.303 467.677
1547 0 58.1467 13.7067 797 117.661 814.37 470.563
1548 0 62.087 13.4006 832 116.992 814.381 470.198
1549 0 62.136 14.3878 894 115.925 814.123 467.397
1550 0 63.0836 19.7516 1246 108.444 813.45 467.974
1551 0 66.1305 13.9572 923 117.139 814.571 468.978
1552 0 69.1134 13.7889 953 117.36 813.935 466.753
1553 0 73.0935 15.0492 1100 114.273 813.296 469.575
1554 0 75.2826 17.4808 1316 111.378 813.29 468.635
1555 0 77.1673 14.6824 1133 116.74 813.43 465.165
1556 0 82.2287 14.7394 1212 115.664 812.903 467.267
1557 0 81.1795 17.6646 1434 112.706 811.856 465.017
1558 0 85.1927 15.3534 1308 116.371 810.365 460.482
1559 0 87.2174 14.332 1250 117.976 809.702 464.387
1560 0 89.2663 12.2891 1097 121.204 809.908 462.673
1561 1 47.0529 10.7326 505 124.35 809.279 479.034
1562 0 47.1181 10.6753 503 124.61 810.171 481.366
1563 0 52.0711 11.3883 593 123.796 808.531 479.449
1564 0 52.1756 13.4929 704 120.02 809.239 476.511
1565 0 54.0194 14.106 762 118.619 808.962 477.81
1566 0 54.0739 14.6651 793 118.837 808.536 473.077
1567 0 57.0506 12.9534 739 121.225 808.44 472.594
1568 0 60.0604 16.2337 975 114.168 808.947 473.502
1569 0 60.1456 13.4673 810 120.077 808.716 469.796
1570 0 61.1473 11.4968 703 123.411 808.501 466.936
1571 0 62.0924 13.1417 816 122.036 807.274 464.387
1572 0 65.0899 13.8731 903 120.186 806.764 463.518
1573 0 66.2151 13.0786 866 123.203 807.037 462.45
1574 0 70.1213 16.1149 1130 117.986 807.496 462.617
1575 0 72.0993 14.91 1075 120.831 807.316 457.423
1576 0 73.2311 13.9148 1019 122.836 808.331 455.878
1577 0 76.1353 13.5154 1029 122.791 808.84 455.504
1578 0 83.1142 15.3283 1274 118.546 809.546 454.344
1579 0 82.2519 15.1121 1243 121.614 810.194 450.162
1580 0 83.1466 13.8671 1153 124.221 810.943 449.052
1581 1 45.0275 11.3708 512 125.016 811.053 467.584
1582 0 48.0331 13.2201 635 121.117 811.416 468.191
1583 0 50.0705 17.4753 875 110.417 811.461 470.157
1584 0 50.0291 12.9724 649 123.467 812.243 469.854
1585 0 51.1472 15.5629 796 118.438 812.332 472.952
1586 0 52.0515 16.8679 878 117.107 812.795 470.695
1587 0 52.1003 14.3761 749 122.712 812.742 470.052
1588 0 56.0412 14.8284 831 121.067 812.73 470.344
1589 0 58.0341 14.1124 819 120.987 813.027 470.393
1590 0 60.1152 16.9342 1018 116.405 813.223 469.54
1591 0 61.3485 16.0232 983 118.49 812.425 469.146
1592 0 61.3485 15.958 979 132.786 812.421 469.107
1593 0 64.2777 16.1642 1039 118.41 813.313 467.803
1594 0 64.2664 16.027 1030 139.672 814.318 467.789
1595 0 69.1847 15.1045 1045 120.647 811.888 469.766
1596 0 71.3315 14.0751 1004 122.463 810.969 465.971
1597 0 75.2187 15.2223 1145 120.477 809.962 470.653
1598 0 77.1115 16.1714 1247 119.799 810.481 471.647
1599 1 42.0524 13.3167 560 124.514 809.673 485.841
1600 0 41.0826 10.272 422 128.941 810.223 487.486
1601 0 45.3572 12.9638 588 125.204 807.913 482.869
1602 0 46.373 14.0383 651 124.456 806.066 482.032
1603 0 45.4567 12.6274 574 128.74 806.483 480.47
1604 0 48.4005 13.0577 632 127.046 804.775 481.28
1605 0 51.7963 14.6149 757 123.003 805.205 476.918
1606 0 52.4914 12.4782 655 126.386 805.331 479.049
1607 0 51.6282 14.4882 748 124.389 804.091 476.356
1608 0 56.3344 15.3192 863 120.798 804.749 475.533
1609 0 57.4665 13.1207 754 123.992 804.623 475.056
1610 0 59.3714 14.6198 868 121.634 804.104 471.616
1611 0 61.2435 15.4955 949 120.653 803.938 469.392
1612 0 62.3766 14.6209 912 122.57 803.812 466.901
1613 0 67.229 16.0496 1079 118.982 804.722 464.025
1614 0 69.1683 14.9635 1035 120.753 803.36 464.529
1615 0 73.5295 15.1504 1114 120.407 805.135 458.183
1616 1 37.067 10.5215 390 124.3 803.315 477.882
1617 0 42.0999 15.3445 646 116.232 803.537 473.632
1618 0 39.1069 11.2256 439 124.802 804.845 474.005
1619 0 43.0574 15.0032 646 118.676 803.975 470.282
1620 0 45.1535 14.6389 661 118.368 806.404 470.675
1621 0 49.411 16.5348 817 111.798 807.526 469.312
1622 0 50.287 16.0081 805 114.338 807.52 465.887
1623 0 47.282 14.9951 709 119.082 808.308 465.997
1624 0 48.4593 13.9292 675 122.569 807.947 462.757
1625 0 51.2241 16.6719 854 116.766 808.847 464.758
1626 0 52.297 14.1691 741 121.34 810.072 465.211
1627 0 53.2478 15.719 837 119.771 810.691 464.092
1628 0 56.1659 12.3028 691 124.388 812.226 465.844
1629 0 56.1659 12.3562 694 156.128 814.213 465.817
1630 0 61.1913 20.1826 1235 110.479 811.907 465.742
1631 0 60.0942 19.2032 1154 114.496 812.237 460.402
1632 0 65.277 15.9627 1042 118.171 811.624 462.341
1633 0 67.2135 13.8216 929 122.551 812.18 464.497
1634 0 69.2215 14.403 997 122.074 812.321 460.175
1635 0 69.2215 14.403 997 143.753 812.321 460.175
1636 0 71.133 15.5062 1103 121.22 811.947 464.162
1637 0 74.1993 13.1538 976 125.608 811.993 463.012
1638 0 79.3883 15.5187 1232 121.013 811.478 464.317
1639 0 82.1765 17.2921 1421 118.029 810.9 462.746
1640 1 45.0934 13.1283 592 121.39 813.223 480.274
1641 0 47.1159 13.2864 626 121.966 811.791 479.518
1642 0 48.0173 12.4122 596 121.341 812.215 479.631
1643 0 49.0518 13.8425 679 120.94 808.912 472.39
1644 0 49.0676 14.9793 735 119.437 807.124 476.619
1645 0 52.1513 14.247 743 119.832 805.935 474.316
1646 0 54.168 12.9781 703 121.209 805.533 473.804
1647 0 57.2458 15.0754 863 115.489 806.414 470.608
1648 0 57.1627 13.9252 796 118.788 806.57 467.752
1649 0 59.3216 15.9807 948 116.383 805.046 464.685
1650 0 60.2132 15.3289 923 117.353 805.488 464.841
1651 0 64.1423 14.3587 921 118.752 804.688 462.738
1652 0 65.4319 14.58 954 119.243 804.029 460.068
1653 0 66.2206 15.3125 1014 118.439 804.538 456.021
1654 0 72.4058 15.9932 1158 114.27 804.567 461.18
1655 0 72.2693 16.0372 1159 116.133 804.069 456.721
1656 0 77.2181 14.349 1108 119.81 803.165 448.963
1657 0 77.1723 13.891 1072 120.419 802.705 453.149
1658 0 80.3557 14.8963 1197 119.49 802.579 447.427
1659 0 82.3471 13.1759 1085 122.952 802.715 444.839
1660 0 83.6233 14.5653 1218 120.502 803.91 442.903
1661 0 87.7176 13.7601 1207 122.739 804.755 441.679
1662 0 91.4712 15.7864 1444 119.151 804.26 440.679
1663 0 91.4712 15.7864 1444 145.324 804.276 440.648
1664 1 51.3555 13.2995 683 122.987 806.094 457.113
1665 0 53.3947 13.9527 745 122.456 805.695 455.663
1666 0 55.693 14.975 834 120.083 806.317 457.793
1667 0 57.4298 15.8106 908 118.209 806.523 457.545
1668 0 59.4589 14.8506 883 120.672 807.47 451.584
1669 0 60.3575 14.994 905 121.137 806.757 454.881
1670 0 63.5932 13.319 847 123.556 808.295 456.819
1671 0 65.4684 13.3958 877 124.731 808.409 453.422
1672 0 67.7031 13.3229 902 125.622 809.466 450.713
1673 0 71.4999 18.4196 1317 116.249 809.117 450.443
1674 0 72.6301 14.9387 1085 123.401 810.136 450.886
1675 0 74.778 15.2719 1142 123.762 810.334 450.607
1676 0 76.6641 15.3657 1178 123.707 810.213 451.303
1677 0 80.4965 15.5783 1254 122.707 810.901 453.377
1678 0 85.3984 17.272 1475 120.308 812.178 453.604
1679 0 86.189 17.9373 1546 120.877 810.515 456.706
1680 0 86.2966 14.3691 1240 129.194 809.542 455.165
1681 0 91.758 15.6826 1439 125.711 809.589 453.045
1682 0 94.993 13.4852 1281 131.006 809.278 450.088
1683 0 100.464 19.171 1926 121.092 809.461 449.072
1684 0 102.632 15.7651 1618 129.036 809.059 447.761
1685 1 59.4579 10.8816 647 129.921 807.255 470.994
1686 0 60.5517 12.5017 757 127.151 806.11 470.853
1687 0 62.3534 14.7546 920 123.827 805.863 467.515
1688 0 62.3534 14.7867 922 133.317 804.86 467.523
1689 0 66.1041 14.6133 966 125.808 805.434 469.169
1690 0 70.1687 14.6932 1031 125.178 804.258 467.414
1691 0 71.1077 12.8678 915 129.844 803.505 466.497
1692 0 73.135 15.0407 1100 126.342 803.617 463.456
1693 0 75.2503 13.0896 985 130.489 803.014 463.86
1694 0 79.1932 13.7764 1091 127.829 803.331 463.459
1695 0 79.1507 15.3378 1214 127.088 801.844 457.755
1696 0 82.188 12.6417 1039 131.972 802.174 458.933
1697 0 84.3875 15.8317 1336 125.337 802.137 457.991
1698 0 88.4551 15.4429 1366 127.675 803.141 451.209
1699 0 90.371 12.2606 1108 132.929 803.14 451.496
1700 0 95.405 11.8442 1130 133.639 804.313 450.95
1701 0 98.2819 12.4133 1220 132.655 804.331 447.732
1702 0 99.278 15.4415 1533 128.702 805.088 442.25
1703 1 57.0747 9.91683 566 127.866 803.337 464.783
1704 0 58.5582 12.9956 761 121.7 806.318 459.372
1705 0 61.2824 14.6208 896 114.999 807.846 461.348
1706 0 60.1441 11.6387 700 122.684 805.52 456.714
1707 0 62.0447 12.491 775 120.516 805.329 457.418
1708 0 68.1596 11.7225 799 120.163 808.477 456.914
1709 0 69.1259 13.743 950 116.551 806.5 457.26
1710 0 71.2234 12.6223 899 118.43 807.227 456.146
1711 0 69.1395 10.0955 698 124.87 807.689 453.831
1712 0 76.2524 13.2192 1008 117.995 808.586 452.966
1713 0 79.3196 13.0863 1038 117.546 809.767 453.183
1714 0 80.1279 9.98404 800 123.851 809.305 446.852
1715 0 80.3016 10.8342 870 122.724 809.948 449.847
1716 0 86.429 12.4727 1078 117.55 810.166 454.957
1717 0 90.6737 12.8042 1161 117.681 810.722 451.264
1718 0 92.4107 12.6933 1173 118.604 811.666 448.032
1719 1 48.5096 8.90546 432 120.282 813.12 471.877
1720 0 51.2686 11.9957 615 115.902 812.059 472.941
1721 0 51.4438 13.4321 691 114.214 811.674 467.155
1722 0 53.1004 12.1468 645 117.316 809.088 468.296
1723 0 56.0944 13.7982 774 113.778 808.724 470.903
1724 0 57.1721 12.8734 736 116.572 809.189 468.319
1725 0 58.1058 11.0488 642 118.05 808.77 472.757
1726 0 59.2483 9.13106 541 120.351 809.994 469.702
1727 0 59.0898 11.4571 677 114.48 810.386 471.164
1728 0 62.1677 11.7907 733 113.643 810.121 471.363
1729 0 63.1846 8.8471 559 117.692 807.912 471.021
1730 0 65.108 8.90827 580 118.043 808.136 466.734
1731 1 138.48 11.9151 1650 119.799 807.705 433.757
1732 1 69.3017 13.0444 904 111.743 806.129 461.198
1733 0 73.4003 13.7193 1007 109.766 805.138 464.254
1734 0 73.4454 13.0709 960 109.979 805.07 464.834
1735 0 79.4072 12.9207 1026 109.871 804.727 462.759
1736 0 81.4718 9.32838 760 115.191 804.146 453.407
1737 1 44.0626 9.30495 410 109.978 801.312 478.293
1738 0 43.0999 9.11834 393 111.43 801.333 476.964
1739 0 43.1311 9.66819 417 109.065 801.199 477.324
1740 0 46.0881 13.0619 602 105.62 801.231 473.561
1741 0 45.0837 10.6469 480 108.819 802.006 475.523
1742 0 48.0806 11.2519 541 110.322 800.959 469.105
1743 0 48.0125 12.0594 579 108.642 801.461 471.598
1744 0 47.0681 10.8566 511 111.335 802.151 472.401
1745 0 51.1239 10.8364 554 111.852 802.049 468.097
1746 0 51.0461 13.5368 691 107.42 803.075 466.896
1747 0 51.1384 10.2663 525 112.804 804.143 462.417
1748 0 50.1317 12.9259 648 109.255 805.293 464.094
1749 0 59.0784 13.7614 813 106.629 804.587 460.458
1750 0 59.0971 13.5032 798 107.727 804.79 460.786
1751 0 59.1642 11.4934 680 110.69 804.681 460.124
1752 0 59.1381 8.6577 512 114.334 805.842 459.566
1753 0 63.231 12.7469 806 108.566 806.589 456.978
1754 0 63.2379 13.9315 881 107.32 807.375 455.448
1755 0 66.1034 11.8602 784 110.145 808.232 455.917
1756 0 68.276 15.0712 1029 105.565 809.328 454.419
1757 0 70.198 14.5873 1024 105.812 809.11 454.759
1758 0 73.1612 17.1949 1258 100.983 810.817 458.262
1759 0 74.2027 13.5305 1004 106.916 810.48 454.088
1760 0 79.2319 16.1046 1276 103.068 811.64 451.307
1761 0 78.1877 12.8025 1001 106.517 811.347 453.809
1762 0 82.2186 13.683 1125 105.121 811.386 450.989
1763 0 83.1059 9.95116 827 111.982 811.748 454.254
1764 0 83.1059 9.92709 825 124.224 812.755 454.216
1765 0 90.2226 10.6404 960 109.734 810.275 454.235
1766 0 90.2226 10.6958 965 126.208 807.224 454.609
1767 0 98.3445 11.8563 1166 105.96 810.268 455.9
1768 0 98.3445 11.8461 1165 130.148 813.283 455.85
1769 1 53.083 12.0189 638 105.06 808.616 476.418
1770 0 53.244 13.2409 705 104.692 808.83 476.231
1771 0 56.1297 15.0188 843 102.113 807.192 474.433
1772 0 56.1822 10.3236 580 109.609 807.316 474.807
1773 0 56.1822 10.2168 574 127.512 807.287 474.679
1774 0 61.0729 15.9154 972 101.477 805.699 472.865
1775 0 61.329 15.0989 926 103.918 804.67 469.728
1776 0 64.1464 14.7007 943 103.418 804.28 471.374
1777 0 66.1663 12.8766 852 106.923 803.834 465.803
1778 0 66.1663 12.9522 857 138.596 802.84 465.767
1779 0 67.2167 12.3035 827 109.175 802.674 464.71
1780 0 69.2028 11.4735 794 110.81 802.112 462.816
1781 0 72.5324 12.1739 883 109.471 802.977 460.266
1782 0 74.1035 20.6738 1532 99.0078 802.961 461.755
1783 0 74.1036 12.1587 901 111.077 803.47 461.885
1784 0 75.0818 15.33 1151 106.371 803.462 458.832
1785 0 75.0818 15.2634 1146 135.389 803.465 458.729
1786 0 82.0719 14.6091 1199 106.666 803.485 455.588
1787 0 86.2581 15.6391 1349 104.901 804.962 453.608
1788 0 87.2041 17.5565 1531 101.234 803.413 455.583
1789 0 90.1735 12.4094 1119 109.775 803.734 449.586
1790 0 92.7105 12.6846 1176 109.467 807.31 441.931
1791 0 94.8889 12.5621 1192 110.313 805.751 441.27
1792 1 50.5878 10.7536 544 138.388 803.893 463.307
1793 0 51.4464 12.5568 646 107.675 806.532 460.429
1794 0 54.2549 12.3123 668 108.268 808.85 457.639
1795 0 57.5546 10.6681 614 110.58 808.575 455.518
1796 0 57.3289 12.437 713 109.063 809.334 457.447
1797 0 62.2398 12.3394 768 108.643 810.099 456.475
1798 0 62.4114 12.0651 753 109.29 810.396 456.309
1799 0 65.469 12.8763 843 108.405 810.502 452.846
1800 0 64.5685 11.7085 756 110.47 811.585 453.429
1801 0 69.3193 12.9545 898 108.094 811.637 453.981
1802 0 71.4088 14.9982 1071 106.184 811.929 454.529
1803 0 74.3273 13.0235 968 107.604 812.201 457.397
1804 0 78.3965 13.8144 1083 106.931 811.946 455.903
1805 0 83.3324 15.0962 1258 105.161 811.076 456.852
1806 0 85.4051 15.0811 1288 106.232 812.008 455.554
1807 1 38.0072 7.39333 281 108.132 810.142 480.847
1808 0 45.0994 12.4614 562 101.532 809.507 480
1809 0 44.4945 11.9116 530 102.406 810.838 478.717
1810 0 46.1947 11.7113 541 107.841 809.107 480.037
1811 0 48.1851 14.2783 688 104.267 810.52 481.031
1812 0 50.1929 12.5914 632 106.614 808.791 480.128
1813 0 51.172 14.5196 743 105.215 808.712 478.369
1814 0 51.172 14.5196 743 116.003 807.712 478.369
1815 0 56.1101 15.8617 890 103.745 807.919 479.904
1816 0 57.1057 12.3455 705 109.169 807.226 479.021
1817 0 61.0864 14.3731 878 105.631 806.739 476.412
1818 0 61.0791 14.7514 901 106.414 805.032 475.219
1819 0 62.088 14.0124 870 107.769 804.358 474.463
1820 0 65.1013 12.3193 802 109.809 804.522 472.606
1821 0 68.1655 14.1567 965 106.742 803.752 472.361
1822 0 70.1969 14.4593 1015 106.955 803.815 470.481
1823 0 74.1744 16.0298 1189 104.447 803.153 470.194
1824 0 73.0684 17.0115 1243 105.028 803.284 464.057
1825 0 76.2446 14.4141 1099 107.487 802.44 466.275
1826 0 80.1329 11.4809 920 111.865 803.364 463.609
1827 0 82.0949 14.4223 1184 107.918 802.721 460.323
1828 1 44.0285 12.4919 550 109.795 802.42 477.564
1829 0 43.1091 11.8536 511 113.376 802.624 476.748
1830 0 43.0548 12.8441 553 111.696 802.186 476.065
1831 0 44.4237 11.7055 520 104.6 805.419 467.385
1832 0 46.3798 9.57313 444 105.345 803.811 468.536
1833 0 48.4557 12.1967 591 102.65 805.152 468.538
1834 0 47.1426 16.2698 767 106.522 805.099 469.192
1835 0 49.0761 11.2275 551 113.762 804.131 470.076
1836 0 53.1553 15.3889 818 107.699 805.537 463.081
1837 0 52.1992 10.6707 557 115.941 804.815 464.792
1838 0 55.1365 13.8384 763 111.638 807.079 464.398
1839 0 55.1357 16.5591 913 109.067 807.815 464.527
1840 0 55.0868 12.7798 704 117.547 808.401 464.357
1841 0 61.3821 14.9392 917 110.158 808.375 463.43
1842 0 63.1267 14.4471 912 114.637 809.398 460.83
1843 0 64.1588 15.2123 976 112.421 809.045 459.756
1844 0 66.136 13.7898 912 116.541 810.022 458.652
1845 0 68.118 9.98268 680 122.103 810.094 461.644
1846 0 72.1545 15.9242 1149 112.279 810.996 459.555
1847 0 72.1305 12.2417 883 118.541 809.845 464.368
1848 0 78.1054 12.3423 964 118.398 810.554 463.043
1849 1 44.0539 12.4166 547 119.305 810.311 479.126
1850 0 43.0607 12.1921 525 120.872 811.139 478.375
1851 0 42.0201 12.9224 543 118.958 812.784 479.228
1852 0 45.0148 11.885 535 119.127 810.856 480.944
1853 0 45.0673 12.7143 573 118.824 810.677 479.86
1854 0 46.2725 13.7014 634 117.733 810.937 481.445
1855 0 45.1147 11.4153 515 120.909 811.602 484.074
1856 0 54.3297 13.7494 747 115.416 808.948 478.929
1857 0 53.1559 13.6015 723 115.426 807.853 480.057
1858 0 53.1609 13.6755 727 134.135 806.853 480.081
1859 1 64.6537 11.1517 721 119.064 807.075 478.657
1860 0 55.1309 11.8808 655 121.518 806.638 471.721
1861 0 62.1716 17.0657 1061 111.887 805.762 475.158
1862 0 60.1553 13.1825 793 120.272 804.638 475.987
1863 0 62.1353 13.9534 867 120.869 804.927 470.235
1864 0 63.1605 14.0594 888 120.635 803.564 471.069
1865 0 65.148 13.6152 887 122.522 803.063 468.238
1866 0 68.1232 14.738 1004 119.01 803.128 472.865
1867 0 68.0545 13.5333 921 123.15 803.444 462.729
1868 0 71.2055 14.732 1049 120.051 802.857 463.242
1869 0 72.2607 15.1811 1097 121.037 802.702 458.568
1870 0 76.1576 15.7962 1203 119.993 802.765 456.526
1871 0 79.3662 16.0396 1273 118.928 802.244 457.038
1872 0 81.5281 15.05 1227 122.242 803.05 454.688
1873 0 82.1991 13.0537 1073 125.563 802.617 455.377
1874 0 85.2509 13.4544 1147 124.285 803.764 454.772
1875 0 89.2847 15.2546 1362 123.007 803.49 444.639
1876 0 90.2608 14.1701 1279 125.27 804.009 446.556
1877 0 95.1477 15.4917 1474 121.955 805.072 445.615
1878 0 94.3642 13.0558 1232 126.073 805.01 447.273
1879 1 51.1629 13.0759 669 124.254 805.28 467.398
1880 0 53.2937 15.8931 847 123.563 808.26 466.133
1881 0 56.4568 15.1975 858 119.697 808.308 462.69
1882 0 59.2302 14.0469 832 121.516 809.077 462.345
1883 0 58.1847 13.8181 804 118.831 808.674 461.702
1884 0 62.2144 15.6073 971 115.061 809.611 458.415
1885 0 64.3413 15.7131 1011 115.329 809.592 459.144
1886 0 66.3957 15.9197 1057 114.299 810.182 460.276
1887 0 69.2012 17.3263 1199 111.612 811.626 462.349
1888 0 70.2672 14.5445 1022 116.758 810.944 458.875
1889 0 74.1942 15.5672 1155 114.759 811.68 456.571
1890 0 76.1474 16.2973 1241 112.558 811.251 459.152
1891 0 76.1458 16.3634 1246 124.098 811.256 459.083
1892 0 82.3977 20.0855 1655 107.244 810.805 460.258
1893 0 82.4661 14.4059 1188 117.004 812.358 457.108
1894 0 84.2692 14.2994 1205 117.914 811.913 457.023
1895 0 92.3955 15.1198 1397 116.417 812.366 456.431
1896 0 92.3559 14.7256 1360 119.599 812.043 452.379
1897 0 97.8298 16.6412 1628 115.472 811.491 452.679
1898 1 49.6144 10.7227 532 122.521 809.545 478.342
1899 0 50.4703 11.5712 584 122.592 809.646 476.031
1900 0 54.34 17.6665 960 111.999 810.109 475.819
1901 0 55.4438 15.1685 841 119.342 809.251 477.149
1902 0 59.5133 14.9546 890 119.473 810.248 475.13
1903 0 59.2294 13.0172 771 123.912 808.971 474.791
1904 0 64.0324 15.0236 962 118.423 806.89 465.706
1905 0 67.0139 15.5192 1040 116.934 805.83 465.694
1906 0 67.4785 15.1011 1019 118.928 805.486 463.923
1907 0 69.4958 14.3894 1000 120.164 804.772 463.015
1908 0 71.6396 16.9459 1214 117.035 804.502 461.953
1909 0 75.6218 14.956 1131 119.967 803.988 460.227
1910 1 37.778 12.8911 487 119.425 804.039 476.472
1911 0 40.5437 10.7292 435 122.253 803.053 476.653
1912 0 40.7876 10.5915 432 121.625 803.032 476.683
1913 0 40.7657 10.4499 426 123.131 802.838 474.216
1914 0 42.5057 14.1393 601 117.255 803.313 473.243
1915 0 45.7173 14.5459 665 116.54 804.362 470.962
1916 0 45.7173 14.5022 663 142.697 805.382 470.913
1917 0 47.6913 15.3487 732 117.085 804.063 468.643
1918 0 48.8085 14.3623 701 118.555 805.091 467.02
1919 0 53.5163 14.3508 768 117.284 803.978 467.12
1920 0 52.4302 14.6099 766 118.121 804.478 464.504
1921 0 55.4378 14.2141 788 118.586 805.888 461.25
1922 0 56.4467 13.9778 789 119.762 805.548 460.39
1923 0 54.2081 12.4889 677 123.371 806.241 464.885
1924 0 57.5497 14.5613 838 120.516 806.451 457.084
1925 0 61.4603 15.5873 958 118.68 806.311 457.608
1926 0 63.3775 13.4748 854 122.842 807.622 455.166
1927 0 65.3762 14.776 966 120.152 807.338 455.993
1928 0 68.8039 14.4614 995 120.406 808.56 454.288
1929 0 68.426 13.0214 891 124.534 809.728 453.772
1930 0 71.5785 14.781 1058 119.542 809.962 454.96
1931 0 73.4784 16.3994 1205 118.181 809.412 451.246
1932 0 76.5538 15.3226 1173 119.601 811.377 451.83
1933 0 80.7843 18.209 1471 114.5 810.673 451.736
1934 0 83.1072 14.8603 1235 121.079 811.381 450.683
1935 0 84.8342 15.324 1300 120.772 810.735 449.432
1936 0 87.8991 14.0502 1235 122.601 811.845 447.097
1937 0 92.8724 15.8282 1470 119.308 811.343 446.445
1938 1 46.6968 10.4718 489 122.513 811.526 472.037
1939 0 50.653 12.1217 614 116.319 810.358 475.564
1940 0 50.6717 9.37407 475 124.442 810.724 467.461
1941 0 52.2405 11.0642 578 120.619 809.827 467.289
1942 0 58.2775 15.7694 919 109.933 809.828 477.108
1943 0 59.2527 11.5438 684 117.348 809.186 475.263
1944 0 61.3716 9.23879 567 120.561 808.358 475.243
1945 0 65.4085 14.2642 933 112.294 805.968 473.207
1946 0 66.3707 14.3437 952 112.855 806.936 468.147
1947 0 68.3986 14.0939 964 113.377 805.499 468.477
1948 0 71.5749 12.8537 920 112.915 805.479 470.743
1949 0 74.4115 15.1858 1130 109.003 806.194 470.705
1950 0 77.4541 14.9895 1161 110.491 805.796 464.401
1951 0 79.3448 14.04 1114 112.853 804.163 459.473
1952 0 79.239 16.4187 1301 110.827 803.713 457.483
1953 0 80.5345 14.0933 1135 114.569 804.139 459
1954 0 80.544 12.1424 978 126.525 805.379 456.314
1955 0 86.3406 12.1148 1046 117.88 803.683 453.83
1956 0 91.4289 11.4953 1051 118.957 802.791 452.154
1957 0 93.2674 11.5046 1073 119.621 803.128 450.435
1958 1 50.1312 9.87409 495 110.978 801.624 473.218
1959 0 53.2058 9.92374 528 111.466 801.905 469.188
1960 0 54.2691 11.9221 647 107.065 803.238 463.261
1961 0 58.3038 9.02172 526 108.517 803.589 466.221
1962 0 59.4548 12.2782 730 104.852 804.407 461.925
1963 0 61.5254 12.0763 743 106.409 804.941 459.168
1964 0 62.2799 13.4393 837 104.937 805.055 455.597
1965 0 65.4192 9.72192 636 109.226 805.991 457.447
1966 0 68.4446 11.6883 800 106.43 806.035 457.808
1967 0 71.4691 13.5863 971 104.9 807.272 452.109
1968 0 74.3558 12.5478 933 106.733 807.611 452.294
1969 0 76.3107 13.5892 1037 105.148 808.972 448.803
1970 0 77.3186 11.873 918 108.794 810.025 447.587
1971 0 80.2375 10.6933 858 111.232 809.802 451.86
1972 0 83.3308 12.2404 1020 109.133 810.574 446.662
1973 1 45.0834 12.976 585 104.009 809.099 471.246
1974 0 45.069 11.5822 522 107.487 809.481 467.534
1975 0 48.0681 10.714 515 107.216 810.887 470.414
1976 0 48.138 10.7192 516 108.091 815.816 468.859
1977 0 48.138 10.4699 504 124.024 815.849 468.946
1978 0 50.4938 12.3381 623 104.644 814.586 469.891
1979 0 54.4926 14.3873 784 101.96 811.499 470.497
1980 0 53.4851 14.677 785 105.315 810.506 470.349
1981 0 56.4735 10.5005 593 107.548 810.632 470.469
1982 0 57.4884 13.6549 785 103.433 810.422 469.224
1983 0 59.3602 9.70348 576 108.67 810.031 470.594
1984 0 60.5255 11.5323 698 106.319 810.064 472.95
1985 0 62.6011 10.8624 680 107.812 808.869 470.46
1986 0 67.2634 16.1158 1084 100.641 810.037 468.98
1987 0 68.3469 11.7782 805 106.407 806.842 473.615
1988 0 69.6491 11.1128 774 109.311 807.911 468.641
1989 0 72.5114 19.5555 1418 98.6276 805.793 466.233
1990 0 76.5549 13.1148 1004 107.401 806.606 464.379
1991 0 79.7715 15.394 1228 104.455 806.042 465.987
1992 0 79.7811 15.5927 1244 108.291 806.037 465.989
1993 0 83.478 12.3625 1032 110.409 804.515 457.313
1994 1 43.1238 11.1539 481 109.958 805.977 480.056
1995 0 44.2229 11.2838 499 115.431 803.659 477.122
1996 0 44.2019 9.45661 418 118.301 803.414 478.311
1997 0 45.5224 11.2472 512 116.148 803.568 476.746
1998 0 47.2348 10.8818 514 118.06 803.916 473.619
1999 0 48.38 14.8822 720 110.042 803.175 474.369
2000 0 50.2016 15.0991 758 110.224 803.892 473.328
2001 0 49.1618 12.286 604 116.007 802.29 469.647
2002 0 53.2011 14.3606 764 114.022 803.81 468.216
2003 0 53.2011 14.5674 775 121.439 805.848 468.164
2004 0 56.1705 14.3492 806 112.898 805.287 464.093
2005 0 54.2404 12.3524 670 118.543 805.994 463.013
2006 0 59.23 11.4469 678 117.81 804.665 465.184
2007 0 60.6007 14.4058 873 114.749 807.904 456.7
2008 0 62.5874 11.3761 712 119.434 808.226 456.858
2009 0 62.7373 13.2298 830 115.998 808.701 458.486
2010 0 62.7373 13.1501 825 131.084 808.674 458.293
2011 0 67.5362 13.2225 893 116.524 810.578 456.459
2012 0 69.7088 12.0214 838 119.229 810.371 449.518
2013 0 73.2221 11.827 866 118.781 808.728 455.682
2014 0 76.1 14.678 1117 113.653 808.842 455.577
2015 0 76.1792 14.0327 1069 114.72 808.041 456.849
2016 0 77.1804 14.2135 1097 144.679 807.072 456.29
2017 1 40.2968 11.2664 454 114.85 809.11 470.313
2018 0 41.7866 13.6168 569 111.682 810.425 469.822
2019 0 44.2273 11.26 498 111.709 809.843 473.554
2020 0 44.1785 11.9515 528 110.665 809.886 474.178
2021 0 44.1392 11.9169 526 111.829 810.359 472.994
2022 0 47.3143 13.9281 659 108.029 810.464 473.352
2023 0 50.1894 12.6919 637 109.765 811.005 473.981
2024 0 50.0933 13.4349 673 109.126 809.632 473.14
2025 0 53.162 16.9106 899 103.563 808.645 475.883
2026 0 53.169 12.9399 688 109.722 808.828 477.1
2027 0 54.144 12.2266 662 111.752 807.659 476.071
2028 0 56.1896 13.6502 767 109.091 808 479.492
2029 0 58.1228 12.3531 718 112.699 807.759 476.815
2030 0 63.203 15.9011 1005 105.36 806.496 473.359
2031 0 61.3157 12.2155 749 113.081 806.343 474.196
2032 0 65.2011 14.3863 938 109.141 805.449 472.86
2033 0 68.2023 15.8646 1082 106.543 804.822 471.889
2034 0 69.3785 12.5543 871 112.862 804.956 468.409
2035 0 71.2075 15.6585 1115 108.434 802.966 467.361
2036 0 72.2737 13.2552 958 113.041 802.915 463.812
2037 0 75.1758 16.5612 1245 107.259 802.884 463.641
2038 0 78.2055 17.6586 1381 105.395 802.794 459.345
2039 0 75.1458 11.125 836 115.842 802.087 465.004
2040 0 80.2651 12.4836 1002 115.268 801.109 461.17
2041 0 81.2209 14.0235 1139 112.069 802.618 460.78
2042 0 81.2209 13.925 1131 140.44 803.602 460.79
2043 0 88.449 14.8786 1316 111.006 802.79 457.445
2044 0 91.4062 15.1193 1382 110.537 802.236 455.954
2045 1 46.0945 10.2615 473 119.833 800.996 471.26
2046 0 51.0896 11.5483 590 114.827 800.997 471.685
2047 0 51.0896 11.5288 589 137.698 801.007 471.613
2048 0 54.121 13.2111 715 113.208 808.032 468.452
2049 0 54.0176 12.5515 678 115.174 808.965 467.33
2050 0 56.0915 12.9788 728 115.625 809.037 463.389
2051 0 57.138 13.1261 750 115.951 809.349 460.993
2052 0 60.2022 13.272 799 114.607 809.965 460.522
2053 0 63.1868 14.7816 934 113.569 811.877 458.228
2054 0 64.204 13.8153 887 114.64 811.932 459.782
2055 0 67.1955 14.242 957 113.604 813.41 458.745
2056 0 68.119 14.7683 1006 113.36 812.543 457.408
2057 0 69.1113 13.8472 957 116.618 813.674 454.72
2058 0 70.0776 13.7562 964 117.013 812.946 454.176
2059 0 74.1489 14.6057 1083 114.688 814.629 456.483
2060 0 77.25 14.2265 1099 114.617 814.626 457.295
2061 0 79.185 14.1062 1117 116.707 814.997 452.131
2062 0 85.2149 17.6964 1508 109.611 814.649 454.58
2063 0 86.2498 13.3566 1152 117.862 814.49 450.984
2064 1 49.1244 11.6032 570 116.16 815.633 476.214
2065 0 49.0918 12.5887 618 115.215 814.361 477.21
2066 0 51.3288 12.1569 624 114.705 814.673 475.776
2067 0 52.25 11.9234 623 115.881 809.254 476.318
2068 0 50.1524 10.9267 548 123.374 809.889 478.529
2069 0 52.0694 12.2145 636 119.038 809.181 482.486
2070 0 57.0666 13.528 772 117.567 808.285 478.315
2071 0 58.1603 13.1877 767 119.069 807.52 476.492
2072 0 60.1142 12.8256 771 117.908 805.978 477.014
2073 0 61.1301 11.271 689 121.07 806.45 473.967
2074 0 60.1803 11.4323 688 122.676 804.656 472.776
2075 0 65.141 12.7109 828 118.795 804.588 468.832
2076 0 67.1614 13.1028 880 118.409 803.608 466.624
2077 0 67.1614 13.0432 876 136.614 802.626 466.573
2078 0 72.1897 11.1789 807 120.019 802.424 466.776
2079 0 75.1395 12.6964 954 118.842 802.364 459.649
2080 0 79.0753 13.4302 1062 116.771 802.103 461.031
2081 0 80.0814 13.6361 1092 117.219 802.59 459.62
2082 0 84.1918 12.2696 1033 118.839 802.913 457.192
2083 0 89.1752 16.9666 1513 111.11 801.925 453.859
2084 1 45.0837 9.82617 443 119.445 801.212 472.271
2085 0 43.0597 8.36049 360 121.058 801.583 472.269
2086 0 46.0618 9.53066 439 120.836 801.565 466.132
2087 0 48.5004 11.0927 538 115.885 803.786 466.673
2088 0 49.1684 12.8741 633 115.273 802.453 462.163
2089 0 50.4363 11.5988 585 111.169 803.973 462.371
2090 0 52.2964 11.1289 582 111.851 804.978 458.361
2091 0 54.536 9.02157 492 114.931 805.051 459.528
2092 0 56.4144 13.0286 735 109.295 805.269 458.234
2093 0 56.4042 12.6764 715 110.98 806.28 454.011
2094 0 58.3045 11.4571 668 112.253 805.852 457.814
2095 0 63.507 15.1322 961 110.692 807.787 459.488
2096 0 64.3114 14.3365 922 112.741 807.277 458.499
2097 0 64.3481 12.0439 775 116.925 806.968 457.514
2098 0 68.224 11.9606 816 115.988 807.368 457.65
2099 0 71.3178 14.8771 1061 111.68 808.378 459.171
2100 0 74.4561 14.3037 1065 113.876 809.598 455.034
2101 0 73.3894 12.9038 947 116.827 810.122 454.871
2102 0 76.4321 13.3059 1017 116.9 810.593 456.651
2103 0 79.5341 16.3326 1299 112.923 811.435 455.02
2104 0 82.4644 14.6851 1211 116.196 811.197 455.409
2105 0 83.505 14.5021 1211 116.202 812.631 458.652
2106 0 88.29 17.3859 1535 112.907 812.622 454.289
2107 0 91.301 15.4763 1413 117.661 811.21 451.313
2108 0 95.3909 15.5151 1480 118.035 811.453 452.157
2109 0 100.559 15.9807 1607 117.734 811.341 454.278
2110 1 51.0434 15.2419 778 117.356 809.422 477.184
2111 0 56.0584 11.9161 668 121.871 808.955 480.798
2112 0 58.1415 14.3615 835 118.656 807.958 479.481
2113 0 56.1553 11.1833 628 128.494 808.274 477.925
2114 0 63.6213 14.602 929 120.066 810.211 473.31
2115 0 65.3885 12.8769 842 125.492 808.873 473.234
2116 0 65.4421 15.6016 1021 121.838 808.302 466.317
2117 0 70.5401 13.5384 955 123.863 807.582 468.851
2118 0 72.5613 14.8977 1081 121.892 807.592 465.473
2119 0 74.5876 13.2998 992 123.97 806.324 465.684
2120 0 77.4777 14.2622 1105 123.453 807.024 462.193
2121 0 77.5825 13.4438 1043 125.63 805.07 459.852
2122 0 81.3121 14.1922 1154 123.997 806.256 459.736
2123 0 84.3725 13.2982 1122 124.318 805.985 460.039
2124 0 90.6572 15.3104 1388 118.697 805.49 460.757
2125 0 90.6572 15.2884 1386 135.854 804.468 460.586
2126 0 92.6178 12.665 1173 125.695 805.128 451.241
2127 0 97.4037 16.1493 1573 117.852 803.589 451.381
2128 0 103.415 14.7078 1521 120.298 804.656 448.36
2129 1 49.1288 9.68882 476 127.569 806.534 469.687
2130 0 53.2 12.7068 676 120.608 807.05 467.611
2131 0 51.2979 12.0278 617 123.925 806.619 466.901
2132 0 56.7032 15.4136 874 114.547 805.851 465.986
2133 0 57.0733 15.3662 877 115.989 807.455 466.18
2134 0 59.1549 13.4562 796 118.396 807.416 465.416
2135 0 61.2828 15.4203 945 115.205 808.758 463.838
2136 0 60.0644 15.4334 927 116.243 808.746 461.597
2137 0 63.0936 14.2804 901 117.266 809.628 459.441
2138 0 64.0609 14.7048 942 117.686 809.488 458.242
2139 0 65.1453 12.971 845 121.673 810.807 458.372
2140 0 67.0818 14.8923 999 118.972 810.743 454.953
2141 0 71.1759 13.6282 970 120.469 810.44 457.379
2142 0 72.178 13.5914 981 122.005 811.754 455.117
2143 0 77.0741 13.3767 1031 120.275 811.716 458.017
2144 0 78.1156 13.1344 1026 121.781 812.458 456.829
2145 0 80.2484 11.1778 897 124.526 813.61 456.068
2146 0 83.1671 13.6953 1139 120.945 813.45 452.982
2147 0 89.1752 15.5537 1387 116.027 814.191 455.766
2148 0 89.2752 12.9487 1156 121.815 813.327 449.313
2149 0 97.4523 12.7447 1242 120.972 812.694 455.01
2150 1 50.1984 13.8052 693 114.586 814.072 475.271
2151 0 52.061 12.639 658 113.831 812.77 476.375
2152 0 54.1174 14.3762 778 115.258 814.166 476.29
2153 0 53.1594 10.3462 550 124.302 812.849 476.962
2154 0 55.1684 12.5072 690 120.722 812.504 475.471
2155 0 55.11 9.23606 509 127.018 812.697 475.876
2156 0 61.2612 13.8913 851 116.085 811.36 479.543
2157 0 62.1931 13.233 823 120.79 811.176 473.857
2158 0 63.1513 11.2112 708 124.702 808.992 472.274
2159 0 66.2271 12.6383 837 122.186 809.012 471.515
2160 0 70.2025 10.7689 756 124.242 807.415 470.189
2161 0 72.1566 13.8033 996 119.671 808.216 468.031
2162 0 77.1972 16.7752 1295 112.906 806.967 469.701
2163 0 77.1972 16.9566 1309 120.685 804.924 469.749
2164 1 40.5014 12.0736 489 116.427 805.581 482.491
2165 0 39.1752 10.3637 406 119.914 805.108 482.332
2166 0 44.092 12.9502 571 113.569 804.599 482.611
2167 0 39.3382 11.2359 442 120.468 804.278 479.493
2168 0 42.2261 11.4384 483 116.549 805.994 480.056
2169 0 45.2077 12.6748 573 116.909 804.59 475.426
2170 0 46.2415 13.6457 631 116.407 804.802 473.154
2171 0 47.0428 13.7959 649 115.122 806.314 470.713
2172 0 49.289 16.7786 827 109.274 805.692 471.902
2173 0 49.0764 12.6945 623 116.833 806.783 472.955
2174 0 50.135 12.0674 605 118.879 806.099 468.174
2175 0 53.0376 12.8965 684 115.95 805.949 467.42
2176 0 53.1142 15.1937 807 112.392 806.378 465.02
2177 0 55.0812 14.1791 781 114.763 806.274 465.881
2178 0 55.0567 14.3852 792 114.455 807.851 465.987
2179 0 57.1123 14.0425 802 115.561 807.618 461.995
2180 0 60.3404 13.689 826 115.065 808.665 463.63
2181 0 60.1588 14.2789 859 114.573 809.964 460.318
2182 0 64.3642 16.36 1053 110.739 809.934 458.966
2183 0 63.2487 13.9924 885 115.704 811.012 461.765
2184 0 64.2124 14.8414 953 115.149 810.436 460.809
2185 0 68.2102 15.5402 1060 114.089 811.389 459.332
2186 0 69.3796 15.3071 1062 113.962 812.59 459.364
2187 0 69.3796 15.235 1057 126.199 814.593 459.415
2188 0 74.4943 14.0682 1048 115.735 813.478 458.793
2189 0 73.5485 12.6855 933 119.422 813 458.967
2190 0 79.6802 15.5497 1239 115.573 812.702 455.267
2191 0 80.5384 12.0936 974 121.861 812.839 457.313
2192 0 83.6462 13.3658 1118 120.868 812.064 455.728
2193 0 88.3936 13.949 1233 119.054 812.762 457.444
2194 0 91.7212 12.0256 1103 121.841 811.936 459.556
2195 1 53.2874 13.6805 729 121.805 811.081 474.281
2196 0 53.2552 14.008 746 122.729 811.231 473.521
2197 0 56.4626 15.0896 852 119.714 810.991 476.714
2198 0 59.5161 14.5339 865 120.951 809.731 477.498
2199 0 59.3817 13.3038 790 125.182 809.565 475.98
2200 0 61.562 14.1159 869 124.348 808.353 473.329
2201 0 64.2984 15.6925 1009 121.093 808.942 472.853
2202 0 67.543 15.0275 1015 121.979 806.403 471.78
2203 0 68.5312 16.8682 1156 120.585 806.228 467.326
2204 0 73.5202 17.8454 1312 117.796 805.951 468.602
2205 0 76.5403 16.1353 1235 120.581 805.714 467.194
2206 0 78.4881 16.9325 1329 119.585 806.414 462.525
2207 0 78.2933 12.4021 971 127.095 805.368 465.281
2208 0 83.6511 16.1743 1353 120.948 804.637 461.471
2209 0 87.531 15.9144 1393 120.602 804.647 459.839
2210 0 86.7043 13.4595 1167 126.064 804.667 457.85
2211 0 89.6253 15.2189 1364 123.398 804.895 454.595
2212 1 49.3575 12.6627 625 121.746 806.445 473.104
2213 0 52.2098 13.0818 683 121.41 805.738 470.034
2214 0 53.4567 13.6746 731 120.008 805.666 467.123
2215 0 51.2775 13.0272 668 120.698 805.657 465.418
2216 0 57.2564 14.339 821 115.894 806.906 466.236
2217 0 55.32 13.8106 764 117.817 805.923 464.592
2218 0 58.2526 13.0981 763 118.384 805.904 463.486
2219 0 59.1972 14.3926 852 115.472 805.423 458.924
2220 0 62.3104 15.5512 969 112.819 806.404 461.106
2221 0 63.6919 12.9687 826 116.208 807.61 462.171
2222 0 67.2554 13.2034 888 115.288 807.365 456.845
2223 0 70.6919 15.3907 1088 110.645 806.247 459.569
2224 0 68.4605 13.044 893 115.545 807.232 453.91
2225 0 73.6952 12.1039 892 115.288 809.193 447.718
2226 0 75.9147 13.2385 1005 116.036 809.04 451.562
2227 0 76.3276 10.848 828 119.021 810.429 452.698
2228 0 77.3145 14.6674 1134 113.481 809.424 449.904
2229 0 85.3157 15.7298 1342 109.233 812.489 450.568
2230 0 84.5075 11.7741 995 116.206 811.225 446.773
2231 0 89.9233 10.0419 903 116.265 813.138 451.654
2232 0 92.6434 11.7548 1089 115.693 812.279 444.541
2233 1 52.1029 12.245 638 108.517 813.196 471.79
2234 0 52.2278 10.5882 553 112.542 813.483 472.919
2235 0 51.1139 10.9755 561 113.512 814.77 467.189
2236 0 55.0313 13.5559 746 109.444 814.064 470.571
2237 0 54.0675 11.0048 595 113.929 814.731 469.04
2238 0 59.1356 13.2238 782 108.037 813.753 473.464
2239 0 62.2182 13.8545 862 107.655 813.853 472.705
2240 0 62.0499 12.7478 791 109.029 813.453 472.86
2241 1 132.471 14.0031 1855 110.151 812.139 443.319
2242 1 64.1159 9.90394 635 113.69 811.691 468.542
2243 0 71.129 14.1152 1004 104.639 810.591 467.77
2244 0 73.2159 18.6435 1365 97.9004 808.221 467.018
2245 0 76.2943 12.0586 920 106.727 808.349 465.727
2246 0 80.47 13.794 1110 104.506 806.903 463.134
2247 0 84.4021 14.111 1191 104.088 805.68 458.421
2248 0 88.8088 16.3723 1454 100.604 804.977 460.243
2249 0 88.8088 16.3948 1456 115.991 803.984 460.237
2250 0 91.865 13.5634 1246 106.66 804.933 448.301
2251 1 47.4044 10.7796 511 107.523 804.963 471.928
2252 0 46.5551 12.1576 566 106.283 804.466 472.786
2253 0 53.5185 14.0512 752 101.875 804.612 471.249
2254 0 54.3195 9.35207 508 110.211 803.776 471.927
2255 0 55.3152 17.0297 942 102.803 803.328 468.121
2256 0 54.5939 11.7412 641 111.579 803.654 466.189
2257 0 55.4473 12.2278 678 111.184 804.709 465.302
2258 0 57.4542 14.1678 814 109.136 804.039 463.826
2259 0 59.5492 15.2311 907 107.082 804.588 462.063
2260 0 62.5968 12.4767 781 110.154 804.524 459.083
2261 0 65.657 13.2964 873 107.797 805.308 461.907
2262 0 67.6003 16.1686 1093 104.797 805.091 457.397
2263 0 69.142 14.7378 1019 106.888 806.098 453.249
2264 0 70.7308 12.7667 903 109.783 806.121 454.041
2265 0 72.5243 13.4438 975 109.251 807.512 450.307
2266 0 75.6532 16.3906 1240 104.744 808.305 451.773
2267 0 76.6324 15.7897 1210 106.103 808.174 450.334
2268 0 75.686 14.2563 1079 112.508 809.658 448.413
2269 0 81.7047 13.1327 1073 112.918 810.392 448.302
2270 0 86.7006 16.8626 1462 106.728 809.35 450.598
2271 0 87.7632 14.1631 1243 111.36 808.672 447.647
2272 0 88.1954 13.7535 1213 113.724 810.385 443.162
2273 1 51.5317 13.351 688 104.578 808.763 469.353
2274 0 52.8441 13.5304 715 106.74 809.961 463.78
2275 0 55.7465 14.2072 792 105.087 810.395 463.309
2276 0 55.955 11.4735 642 111.642 809.327 467.896
2277 0 59.855 14.1843 849 108.027 809.389 466.881
2278 0 59.6026 12.0465 718 113.081 810.327 465.167
2279 0 63.7784 12.857 820 110.287 809.417 466.462
2280 0 65.6393 13.3609 877 109.905 810.705 466.251
2281 0 65.6393 13.3304 875 128.895 810.73 466.146
2282 0 68.698 13.4356 923 110.014 809.676 465.482
2283 0 73.4714 15.3257 1126 106.307 808.947 465.724
2284 0 78.6102 15.5323 1221 106.852 808.373 462.082
2285 0 81.5477 15.2426 1243 107.024 807.348 462.302
2286 0 84.5944 15.5211 1313 106.141 806.171 462.981
2287 0 86.5202 13.9621 1208 108.031 806.036 455.1
2288 1 43.0759 9.23952 398 109.427 804.058 482.008
2289 0 48.1142 12.0339 579 105.867 802.387 478.62
2290 0 46.1037 9.9992 461 109.764 803.148 477.152
2291 0 50.1663 15.0499 755 101.407 801.548 474.225
2292 0 50.1663 15.1097 758 112.363 799.55 474.058
2293 0 53.1403 14.5088 771 103.345 801.738 474.816
2294 0 52.1774 12.3042 642 107.706 801.617 471.347
2295 0 56.1862 13.0281 732 106.566 801.188 471.434
2296 0 58.1948 13.7813 802 105.971 801.266 466.829
2297 0 61.0846 13.9315 851 105.515 800.964 468.089
2298 0 61.1509 16.2876 996 102.804 800.803 466.035
2299 0 63.1326 17.3444 1095 101.568 800.002 464.818
2300 0 64.3497 13.0848 842 107.544 800.618 463.026
2301 0 67.0813 12.4923 838 109.362 800.922 457.548
2302 0 70.0759 16.5392 1159 102.791 800.915 459.969
2303 0 72.0593 13.4195 967 107.828 801.136 456.202
2304 0 74.1221 16.1895 1200 103.938 802.146 454.467
2305 0 75.2124 12.7904 962 108.155 802.733 456.768
2306 0 77.1267 14.4567 1115 106.738 803.51 452.646
2307 0 80.1733 12.8472 1030 108.945 802.532 448.075
2308 0 83.1377 16.0818 1337 104.293 805.126 451.208
2309 0 85.2098 14.611 1245 107.347 804.296 446.194
2310 0 89.2719 12.9268 1154 108.146 805.909 451.415
2311 0 89.2142 9.88632 882 107.705 806.054 451.802
2312 0 90.0946 8.13589 733 111.308 808.322 448.805
2313 0 93.4092 11.7976 1102 106.623 811.685 440.874
2314 0 93.6143 12.0601 1129 109.855 810.791 446.272
2315 1 105.116 10.3219 1085 111.853 811.157 443.329
2316 0 103.757 12.1245 1258 108.623 810.785 446.343
2317 0 106.766 12.813 1368 109.459 811.778 440.732
2318 0 111.519 17.1181 1909 103.11 811.883 441.928
2319 0 114.987 15.1495 1742 106.332 811.02 441.44
2320 1 61.0571 15.9523 974 101.218 809.423 467.17
2321 0 62.1736 14.6043 908 102.87 809.638 469.838
2322 0 67.2951 12.0811 813 107.031 808.777 467.935
2323 0 67.2951 12.2149 822 125.657 807.818 467.944
2324 0 70.0966 15.8068 1108 103.547 808.023 464.566
2325 0 75.1038 9.74651 732 107.59 807.406 474.495
2326 0 75.2625 11.5064 866 109.167 807.197 465.622
2327 0 77.307 12.431 961 108.313 806.254 463.514
2328 0 83.4866 13.7507 1148 106.462 805.916 464.645
2329 0 86.4387 12.8646 1112 108.968 805.067 463.206
2330 0 86.4387 12.9225 1117 128.657 805.04 463.247
2331 0 88.385 14.2784 1262 108.07 803.6 456.479
2332 0 94.4185 12.3281 1164 110.158 803.814 455.651
2333 1 49.0807 10.7578 528 113.311 802.455 473.9
2334 0 50.0565 14.4836 725 106.975 801.466 473.926
2335 0 52.2243 12.5612 656 106.919 806.192 468.916
2336 0 55.103 11.2517 620 107.529 805.139 471.561
2337 0 58.0678 11.8999 691 112.331 802.1 468.706
2338 0 58.1984 12.1309 706 111.382 801.008 468.885
2339 0 62.3599 13.6787 853 108.77 800.392 465.469
2340 0 63.132 12.957 818 108.601 800.376 466.375
2341 0 62.202 13.6812 851 110.787 802.337 458.484
2342 0 63.1271 12.1659 768 112.986 801.841 457.521
2343 0 61.0555 7.7798 475 118.676 801.234 461.112
2344 0 65.134 12.2517 798 137.95 800.677 455.682
2345 0 69.1671 16.8288 1164 106.78 802.556 452.414
2346 0 70.1505 12.2166 857 113.333 803.296 451.434
2347 0 71.2156 12.5815 896 113.77 803.546 451.425
2348 0 76.1777 13.2322 1008 111.31 805.022 452.391
2349 0 78.1732 14.8261 1159 109.337 804.698 450.659
2350 0 80.2969 16.6258 1335 106.225 806.218 450.094
2351 0 82.1526 15.2156 1250 109.198 806.423 449.512
2352 0 88.1186 14.1968 1251 110.145 807.071 449.241
2353 0 88.3201 14.7079 1299 111.252 806.522 442.309
2354 0 93.2457 16.301 1520 107.851 808.195 443.803
2355 0 94.1917 14.1945 1337 112.352 808.025 441.933
2356 0 99.3015 13.7762 1368 113.98 808.662 438.616
2357 0 102.152 13.2548 1354 114.569 809.095 438.72
2358 1 54.161 13.8292 749 107.395 809.454 465.407
2359 0 56.1896 13.1875 741 109.391 808.965 463.232
2360 0 56.2718 14.8032 833 104.466 811.34 466.629
2361 0 56.2718 14.7143 828 132.316 813.371 466.565
2362 0 56.2864 14.7105 828 131.836 815.371 466.565
2363 0 62.1036 11.4486 711 110.866 808.35 468.288
2364 0 66.2386 16.1386 1069 103.229 808.982 470.518
2365 0 70.3023 16.4006 1153 102.378 807.922 466.461
2366 0 70.2035 13.6603 959 107.365 807.409 465.909
2367 0 75.1941 15.0278 1130 105.173 808.295 465.277
2368 0 76.1101 12.8761 980 108.482 807.754 463.566
2369 0 78.1313 13.7461 1074 107.577 805.318 463.296
2370 0 79.2105 13.1675 1043 109.475 804.822 460.742
2371 0 86.133 17.5078 1508 102.995 804.157 461.628
2372 0 87.1343 15.0343 1310 107.595 803.04 459.773
2373 1 44.0872 13.4506 593 107.85 801.818 481.356
2374 0 45.1178 9.41979 425 116.035 800.612 476.659
2375 0 48.0745 16.1416 776 103.804 801.568 478.53
2376 0 49.0669 15.8355 777 102.788 801.359 480.602
2377 0 49.2225 14.404 709 106.676 800.561 475.815
2378 0 51.1307 11.1675 571 111.834 800.14 475.319
2379 0 52.082 14.0932 734 107.237 800.469 475.73
2380 0 53.0578 14.2486 756 107.683 800.775 471.511
2381 0 55.1756 12.4512 687 111.309 801.304 470.099
2382 0 58.091 14.6494 851 106.778 801.388 469.19
2383 0 57.101 15.026 858 107.711 800.494 466.254
2384 0 60.1381 13.3526 803 110.081 800.807 466.014
2385 0 60.1434 12.1875 733 112.613 800.971 462.735
2386 0 62.1401 14.0328 872 109.734 800.889 461.447
2387 0 64.1414 12.566 806 111.385 802.067 460.54
2388 0 69.3265 16.2853 1129 104.796 801.694 456.594
2389 0 69.263 14.25 987 109.258 802.894 459.61
2390 0 70.2875 12.705 893 132.091 803.853 458.437
2391 0 75.1577 17.43 1310 104.599 803.096 450.894
2392 0 76.3338 15.8252 1208 107.514 803.659 450.227
2393 0 78.24 15.184 1188 108.579 805.583 451.075
2394 0 82.208 15.9109 1308 107.716 805.19 449.639
2395 0 82.2557 13.3 1094 112.081 807.022 452.598
2396 0 85.203 9.50671 810 117.694 805.97 453.928
2397 0 88.2046 12.4483 1098 116.098 806.974 446.243
2398 1 49.1471 13.4087 659 110.927 807.308 469.549
2399 0 49.0817 6.82535 335 117.137 811.669 464.14
2400 0 54.3254 14.7261 800 106.195 812.501 465.099
2401 0 52.2629 10.562 552 115.611 810.748 470.411
2402 0 59.0749 14.507 857 108.889 812.702 466.951
2403 0 57.1891 11.4532 655 115.116 812.226 468.075
2404 0 61.261 11.1327 682 114.33 812.452 470.89
2405 0 67.1748 15.4969 1041 108.306 812.086 469.163
2406 0 67.1029 13.606 913 112.122 812.498 468.165
2407 0 73.2362 18.215 1334 103.645 810.683 471.831
2408 0 73.2754 13.2377 970 114.449 810.633 464.524
2409 0 77.1972 15.7907 1219 109.989 810.83 466.861
2410 0 79.0908 12.0621 954 114.22 809.507 470.548
2411 0 85.2734 15.3858 1312 110.527 808.608 464.833
2412 1 43.0564 10.4979 452 117.429 807.25 483.022
2413 0 46.0667 13.6107 627 112.298 807.169 481.477
2414 0 43.1483 9.87293 426 119.995 804.979 481.448
2415 0 45.0513 10.4769 472 115.53 801.924 478.712
2416 0 47.1061 11.8456 558 112.862 801.724 474.993
2417 0 51.107 12.2488 626 112.355 804.074 479.695
2418 0 52.1576 15.1272 789 107.772 800.995 476.853
2419 0 55.1133 11.0137 607 113.9 800.369 477.502
2420 0 54.1049 13.5293 732 111.878 800.104 472.292
2421 0 56.0876 9.89523 555 117.35 799.409 474.38
2422 0 56.0419 12.3122 690 114.629 800.846 472.213
2423 0 56.0419 13.5077 757 136.554 801.844 473.288
2424 0 62.0942 14.8162 920 111.654 800.923 468.09
2425 0 62.0784 14.3528 891 113.415 801.403 466.574
2426 0 65.0188 12.6271 821 116.084 801.142 464.648
2427 0 70.0532 12.8474 900 114.979 800.824 463.309
2428 0 69.0926 13.2576 916 114.337 801.632 462.072
2429 0 69.0926 13.1563 909 135.51 803.666 462.146
2430 0 76.2096 14.014 1068 115.079 804.313 456.046
2431 0 79.1007 14.0075 1108 114.739 804.486 456.921
2432 0 79.2536 12.1635 964 118.007 805.04 453.768
2433 0 83.2189 15.4893 1289 111.732 805.93 453.649
2434 0 86.5224 13.1411 1137 115.223 805.345 451.718
2435 0 89.1004 13.3108 1186 115.877 806.601 448.368
2436 0 93.0835 13.8048 1285 114.408 806.12 449.826
2437 1 50.0618 12.165 609 115.351 806.296 468.777
2438 0 51.1306 13.1624 673 112.817 806.108 467.205
2439 0 53.1587 14.3533 763 109.647 806.166 470.206
2440 0 54.0689 13.6308 737 110.512 808 471.13
2441 0 55.2439 13.5762 750 111.496 806.721 469.24
2442 0 55.1751 13.0675 721 112.906 808.215 468.712
2443 0 61.2028 13.2347 810 111.995 808 470.265
2444 0 61.1201 15.4777 946 109.645 808.868 468.475
2445 0 65.1706 15.4364 1006 109.196 806.746 468.015
2446 0 66.1944 12.4784 826 114.521 807.986 470.05
2447 0 66.1944 12.5237 829 145.3 808.978 469.908
2448 0 71.2966 12.3849 883 115.921 807.564 468.078
2449 0 72.2436 14.3681 1038 113.675 806.761 469.618
2450 0 78.453 12.4661 978 116.084 807.589 467.802
2451 0 81.3302 17.3367 1410 108.945 806.287 465.892
2452 0 85.3358 15.1519 1293 111.858 806.62 466.948
2453 1 41.3494 7.7873 322 125.168 806.879 483.894
2454 0 51.2697 16.618 852 108.293 806.256 480.697
2455 0 51.182 12.0941 619 115.759 806.612 477.651
2456 0 52.3387 13.5846 711 114.554 805.918 475.173
2457 0 52.3387 13.6228 713 148.565 804.913 475.171
2458 0 56.1972 13.7729 774 118.209 800.721 473.496
2459 0 56.2148 11.2248 631 123.105 800.681 473.943
2460 0 59.0903 13.2678 784 119.153 800.218 474.858
2461 0 61.1309 14.1663 866 117.792 799.748 472.948
2462 0 64.1017 14.2586 914 116.218 800.177 472.342
2463 0 63.218 12.9552 819 120.168 799.683 469.676
2464 0 65.264 13.0547 852 121.403 800.302 465.021
2465 0 68.3369 14.5748 996 118.507 800.144 463.856
2466 0 66.4623 13.0149 865 123.274 800.906 460
2467 0 72.6713 11.0635 804 123.433 800.72 461.391
2468 0 73.6538 14.3509 1057 119.757 801.729 455.841
2469 0 75.692 14.81 1121 119.897 802.107 453.08
2470 0 81.4543 14.0815 1147 120.717 802.349 451.553
2471 0 80.3236 13.1842 1059 123.136 802.109 451.704
2472 0 83.5208 13.0746 1092 123.227 802.523 450.226
2473 0 86.4835 16.5234 1429 117.925 803.148 448.075
2474 0 87.3811 12.7831 1117 124.759 803.675 447.743
2475 0 91.4361 13.7582 1258 123.916 805.119 443.296
2476 1 50.2122 11.3319 569 122.975 804.538 465.429
2477 0 53.2098 10.9754 584 121.211 807.142 468.555
2478 0 53.0705 14.151 751 119.431 810.313 467.122
2479 0 55.7277 13.1891 735 117.51 808.362 464.082
2480 0 60.5886 17.2145 1043 108.191 807.037 462.917
2481 0 59.1599 13.3874 792 114.842 807.51 466.16
2482 0 63.2058 13.7487 869 114.32 808.016 459.796
2483 0 65.3767 15.4948 1013 111.501 807.889 462.205
2484 0 67.2512 15.9997 1076 110.439 806.957 463.52
2485 0 70.4231 13.6177 959 114.325 807.673 460.408
2486 0 73.2394 14.7052 1077 113.206 807.034 461.667
2487 0 73.2017 12.2265 895 118.234 806.461 460.769
2488 0 77.1242 13.6403 1052 115.145 806.59 462.915
2489 0 80.2909 11.5081 924 118.897 806.766 462.486
2490 0 86.2504 19.339 1668 107.219 806.558 460.016
2491 0 89.3686 18.8769 1687 108.052 805.623 459.876
2492 0 92.3097 18.4488 1703 108.972 805.604 460.637
2493 0 95.2968 18.8779 1799 109.301 804.624 456.733
2494 0 95.2968 18.8989 1801 133.388 803.599 456.845
2495 1 52.158 11.7336 612 117.94 802.778 475.771
2496 0 53.334 15.4311 823 113.541 801.095 472.751
2497 0 56.23 10.4926 590 118.995 803.592 478.976
2498 0 58.1753 14.2672 830 113.923 804.506 475.017
2499 0 61.2706 16.1415 989 111.787 803.874 474.871
2500 0 60.3317 10.9727 662 120.624 804.878 474.341
2501 0 62.0973 12.9474 804 116.882 804.175 473.689
2502 0 66.1964 18.3847 1217 106.071 804.011 472.131
2503 0 67.1879 17.3394 1165 109.179 803.815 465.606
2504 0 70.1106 15.9462 1118 110.741 804.41 466.485
2505 0 66.1274 11.8861 786 118.768 804.43 461.627
2506 0 74.3907 15.4455 1149 111.54 803.641 462.527
2507 0 75.1465 14.3586 1079 113.74 804.34 459.79
2508 0 77.3731 15.0181 1162 112.928 804.534 459.683
2509 0 80.0904 16.1193 1291 111.452 803.754 454.099
2510 0 82.5132 14.5431 1200 113.83 804.224 456.06
2511 0 84.2024 14.2158 1197 114.847 804.542 454.596
2512 0 88.376 14.9814 1324 113.942 804.818 450.786
2513 0 90.3845 13.2434 1197 117.549 805.194 444.977
2514 0 93.5348 14.7859 1383 115.132 805.654 442.983
2515 1 49.221 10.9912 541 118.754 806.007 467.368
2516 0 52.255 15.0416 786 112.079 806.668 466.732
2517 0 54.6096 11.7745 643 115.813 806.577 465.872
2518 0 54.2949 12.5794 683 113.937 808.204 466.726
2519 0 58.0865 14.2374 827 110.985 809.103 463.179
2520 0 60.0648 12.8361 771 112.777 810.152 464.47
2521 0 61.1348 14.329 876 110.382 808.86 467.016
2522 0 62.1688 12.0318 748 114.257 807.829 464.955
2523 0 66.2408 14.87 985 109.727 809.874 464.182
2524 0 72.3173 14.6576 1060 109.786 807.041 457.14
2525 0 73.3084 13.2454 971 112.415 808.206 456.733
2526 0 75.1914 13.326 1002 112.264 807.332 459.467
2527 0 77.2071 15.5297 1199 108.776 807.827 464.295
2528 0 81.2627 12.0227 977 112.913 807.607 465.927
2529 0 83.2786 11.7557 979 114.909 806.916 460.897
2530 0 88.3697 14.6657 1296 110.018 807.173 462.238
2531 0 91.181 14.3451 1308 110.998 810.01 462.323
2532 1 45.2504 7.95574 360 119.386 809.317 484.75
2533 0 52.3062 12.9048 675 111.489 808.624 483.599
2534 0 52.4072 15.1697 795 109.239 807.164 475.855
2535 0 54.6236 15.9821 873 107.391 804.979 478.746
2536 0 56.3064 13.8172 778 111.622 806.464 480.469
2537 0 59.2727 12.5859 746 114.109 807.361 474.991
2538 0 58.1606 11.7777 685 116.232 806.028 477.609
2539 0 58.2337 12.072 703 116.09 805.768 476.131
2540 0 65.1419 11.7589 766 115.086 804.852 474.089
2541 0 68.4298 14.1751 970 112.421 804.724 471.107
2542 0 70.4271 16.7265 1178 108.262 803.79 468.508
2543 0 71.7559 17.0996 1227 107.203 803.67 468.614
2544 0 76.684 13.6143 1044 111.36 802.92 469.01
2545 0 75.5406 11.5037 869 116.764 803.765 465.919
2546 0 78.6786 14.6037 1149 113.641 803.935 460.631
2547 0 79.7075 11.4167 910 117.726 803.193 461.893
2548 0 84.5055 15.5848 1317 111.94 803.642 454.288
2549 0 85.4492 12.4986 1068 117.682 802.738 454.615
2550 0 90.6036 14.5358 1317 113.41 803.292 453.007
2551 0 88.7206 13.6721 1213 115.894 803.761 447.421
2552 0 96.4586 14.4 1389 114.031 803.865 448.668
2553 0 98.5725 11.3419 1118 118.78 805.086 443.543
2554 1 49.1546 12.9388 636 114.222 804.785 470.502
2555 0 53.0597 16.2081 860 108.681 807.273 469.056
2556 0 58.125 19.0108 1105 103.652 806.908 465.593
2557 0 55.0472 14.7146 810 112.727 807.826 466.175
2558 0 55.0472 14.7691 813 142.779 808.836 466.245
2559 0 60.1115 13.2587 797 112.435 810.331 466.526
2560 0 60.1115 13.3419 802 144.748 811.315 466.411
2561 0 66.1897 16.6491 1102 106.435 810.179 463.627
2562 0 67.2266 14.6073 982 111.765 811.498 460.653
2563 0 68.1804 17.0577 1163 108.445 810.244 459.777
2564 0 72.1298 14.5016 1046 111.845 811.73 461.063
2565 0 77.1189 20.7861 1603 100.869 810.81 466.215
2566 0 79.2684 16.8163 1333 108.689 811.562 458.511
2567 0 81.2191 14.0361 1140 112.936 811.638 460.552
2568 0 84.4611 15.3562 1297 110.851 812.123 459.916
2569 0 84.2608 12.58 1060 115.837 811.383 460.384
2570 1 43.1333 13.2612 572 110.481 810.087 483.885
2571 0 45.1454 11.2747 509 113.591 809.988 484.511
2572 0 45.0493 10.7882 486 114.823 810.679 482.665
2573 0 47.0582 12.6652 596 113.659 804.498 479.247
2574 0 48.0636 14.0023 673 110.655 804.814 482.058
2575 0 51.0555 11.987 612 113.551 803.732 482.619
2576 0 53.1796 15.5135 825 108.321 803.424 480.519
2577 0 57.0781 16.4862 941 107.193 801.671 475.504
2578 0 56.0836 16.7428 939 123.593 799.722 475.571
2579 0 59.1807 14.4811 857 109.616 801.466 475.618
2580 0 63.1329 17.4077 1099 105.152 801.126 471.786
2581 0 63.2461 16.2698 1029 108.251 801.114 470.674
2582 0 65.1038 13.8702 903 111.549 800.384 468.329
2583 0 67.1717 13.6069 914 112.538 799.732 465.99
2584 0 70.2811 14.0151 985 111.517 799.425 465.306
2585 0 74.0966 17.6661 1309 104.539 800.847 468.805
2586 0 74.0853 15.5901 1155 107.806 799.341 464.639
2587 0 76.3485 19.9611 1524 102.942 800.394 457.495
2588 0 78.1832 17.2544 1349 106.547 799.887 458.226
2589 0 78.1832 17.1392 1340 139.305 798.887 458.289
2590 0 78.2369 17.0252 1332 139.136 797.893 458.218
2591 1 43.2151 16.9154 731 105.226 801.867 470.223
2592 0 42.4382 10.4858 445 114.912 801.993 468.492
2593 0 44.5277 15.743 701 107.649 802.82 468.736
2594 0 45.1097 14.897 672 110.329 803.318 464.841
2595 0 47.3877 15.3415 727 108.997 805.479 466.525
2596 0 49.4333 14.7269 728 110.038 804.437 464.652
2597 0 50.4373 18.1612 916 103.679 804.946 463.809
2598 0 51.4182 19.9346 1025 101.045 805.02 464.06
2599 0 54.2658 18.2988 993 102.028 807.216 461.56
2600 0 55.6441 18.5824 1034 102.185 807.639 461.622
2601 0 57.4448 19.1662 1101 101.073 807.55 462.56
2602 0 60.7083 16.2087 984 106.611 807.931 459.326
2603 0 60.6604 16.5347 1003 106.383 808.49 457.778
2604 0 63.5935 18.6025 1183 103.774 808.782 459.527
2605 0 66.4635 18.2657 1214 104.098 807.712 458.17
2606 0 67.4607 19.6855 1328 101.494 808.892 462.249
2607 0 71.8092 15.7918 1134 105.197 807.695 458.369
2608 0 71.8092 15.7779 1133 151.62 806.702 458.285
2609 0 77.8676 18.4544 1437 104.562 808.376 455.407
2610 0 81.6643 16.8372 1375 106.701 807.748 457.548
2611 0 85.7141 18.1067 1552 103.623 807.953 460.761
2612 1 43.6304 11.9183 520 108.225 808.446 480.944
2613 0 43.5559 11.4795 500 113.982 808.044 477.106
2614 0 46.1918 13.4439 621 108.306 807.968 479.084
2615 0 48.5906 15.5174 754 106.277 807.174 478.228
2616 0 50.7712 15.8555 805 105.455 806.113 472.553
2617 0 52.419 16.2346 851 106.015 805.785 472.891
2618 0 53.4528 13.1144 701 110.344 804.528 473.481
2619 0 58.894 19.3398 1139 101.133 803.797 472.217
2620 0 60.5915 14.9856 908 107.836 803.44 470.094
2621 0 61.4954 15.9524 981 107.501 803.636 466.091
2622 0 63.3909 13.7717 873 110.368 803.652 465.84
2623 0 67.543 17.3519 1172 103.974 801.926 465.858
2624 0 70.8149 15.4205 1092 107.985 801.529 459.716
2625 0 72.6704 18.8247 1368 102.48 801.581 462.292
2626 0 77.9796 18.6716 1456 102.751 801.366 456.047
2627 0 80.6101 18.5833 1498 102.736 801.757 454.138
2628 0 80.5424 15.9668 1286 107.577 801.189 452.886
2629 1 44.2817 11.3817 504 104.044 802.228 473.044
2630 0 43.2315 6.54615 283 111.795 803.314 472.127
2631 0 48.2918 12.3002 594 102.81 803.773 470.869
2632 0 52.1421 17.0496 889 99.3003 804.927 473.432
2633 0 48.2062 16.6991 805 102.434 804.25 468.43
2634 0 51.1573 12.3345 631 107.959 805.818 470.612
2635 0 51.1573 12.315 630 138.697 806.827 470.671
2636 0 55.149 16.537 912 103.772 806.901 465.647
2637 0 55.2989 12.2245 676 109.314 807.488 468.706
2638 0 57.1512 12.8956 737 108.875 807.673 465.651
2639 0 60.1486 13.2838 799 108.04 807.867 463.947
2640 0 63.2321 12.3039 778 107.896 809.35 464.317
2641 0 64.2928 13.0186 837 108.762 808.993 460.676
2642 0 65.7865 7.72195 508 108.969 808.892 469.591
2643 0 70.3714 5.98255 421 106.791 812.632 478.323
2644 0 72.2257 4.67978 338 110.047 810.58 473.565
2645 0 72.5143 9.08786 659 105.297 811.364 471.967
2646 1 92.9533 14.319 1331 102.591 810.771 461.831
2647 0 94.0134 7.8074 734 112.687 809.32 454.948
2648 0 101.756 11.6749 1188 106.269 809.335 459.078
2649 0 103.023 12.1721 1254 107.524 808.437 456.215
2650 0 106.794 11.3115 1208 108.345 807.908 449.043
2651 0 109.836 11.7812 1294 107.546 806.369 447.152
2652 0 112.711 16.1031 1815 103.615 807.076 452.599
2653 0 114.948 11.2746 1296 112.37 804.75 444.415
2654 0 114.948 11.1876 1286 147.718 801.739 444.298
2655 1 65.1394 11.5138 750 108.123 802.239 469.583
2656 0 70.1853 14.4617 1015 103.145 801.595 470.439
2657 0 71.0734 13.3383 948 105.7 801.591 468.411
2658 0 78.1362 14.4747 1131 102.284 801.822 469.294
2659 0 79.2022 12.6007 998 106.818 799.803 461.92
2660 0 81.1562 14.0839 1143 105.392 801.376 457.128
2661 0 79.1974 11.0231 873 107.976 800.202 458.25
2662 1 50.145 7.15923 359 103.992 799.602 480.744
2663 0 49.3732 9.72187 480 109.081 797.346 474.321
2664 0 50.1801 10.542 529 107.422 797.834 477.541
2665 0 48.209 13.6489 658 106.269 798.161 472.585
2666 0 51.1 15.1663 775 103.835 798.12 472.757
2667 0 47.042 8.60933 405 116.052 798.523 468.98
2668 0 54.1409 12.8923 698 107.938 798.933 468.266
2669 0 54.1698 11.7778 638 111.072 797.846 466.966
2670 0 54.139 12.1354 657 110.377 800.043 467.819
2671 0 56.1093 13.4915 757 108.081 799.904 467.037
2672 0 58.2166 13.0375 759 109.083 801.013 464.011
2673 0 59.1896 12.5529 743 109.918 800.604 462.232
2674 0 62.4609 15.4497 965 106.389 802.01 462.938
2675 0 62.2922 12.7143 792 110.341 801.255 463.934
2676 0 64.0909 13.8085 885 109.154 802.612 459.113
2677 0 66.1022 17.2763 1142 103.487 803.718 460.54
2678 0 68.3234 13.2312 904 109.366 803.801 459.312
2679 0 72.363 13.4046 970 108.371 804.891 459.645
2680 0 71.4544 11.8537 847 113.247 804.952 456.932
2681 0 74.2123 15.2266 1130 108.209 805.753 458.613
2682 0 75.3637 12.3534 931 112.443 806.147 459.395
2683 0 79.4017 15.239 1210 108.664 805.382 457.378
2684 0 80.3488 17.424 1400 107.091 807.226 456.684
2685 0 83.4457 15.2075 1269 110.161 805.424 456.557
2686 0 86.2978 15.5508 1342 110.076 806.067 459.058
2687 0 89.5128 14.0539 1258 112.522 805.229 456.977
2688 0 90.2914 14.2096 1283 112.376 806.238 457.313
2689 0 93.8215 14.1545 1328 112.745 806.192 455.134
2690 1 51.0601 10.9675 560 111.786 804.632 474.805
2691 0 52.077 11.4446 596 110.418 804.854 474.948
2692 0 55.6437 16.6416 926 102.433 806.866 475.037
2693 0 55.6449 13.7479 765 103.192 806.06 475.668
2694 0 55.2789 12.0299 665 105.863 806.738 472.892
2695 0 59.7308 13.3265 796 104.036 805.835 473.17
2696 0 56.3731 10.8917 614 109.135 805.075 469.401
2697 0 57.5709 16.293 938 102.871 805.063 470.776
2698 0 63.3302 16.9903 1076 100.121 803.599 468.843
2699 0 66.499 12.2257 813 104.445 803.619 469.327
2700 0 68.3259 13.3771 914 102.346 804.117 468.593
2701 0 68.5725 13.1248 900 103.51 802.004 467.93
2702 0 71.7893 11.1855 803 103.229 801.438 461.9
2703 0 74.7298 12.4448 930 93.7806 801.173 456.869
2704 0 78.4308 17.9649 1409 88.3527 801.351 458.531
2705 0 81.7239 16.3477 1336 88.4484 800.612 459.176
2706 0 85.4525 13.6333 1165 93.8249 802.035 455.068
2707 1 48.5974 14.26 693 87.3997 801.417 476.28
2708 0 49.4213 18.1096 895 85.4514 801.492 473.769
2709 0 51.7425 18.3022 947 85.7878 801.594 470.863
2710 0 49.3103 13.9119 686 93.5656 802.631 472.045
2711 0 51.1344 10.9906 562 98.0498 802.749 474.062
2712 0 51.1344 10.9906 562 145.183 803.682 474.178
2713 0 54.186 14.8931 807 95.9232 801.828 470.964
2714 0 58.7083 17.1015 1004 92.5717 800.689 466.255
2715 0 59.5865 17.3865 1036 92.0734 801.163 467.428
2716 0 55.56 8.22534 457 106.123 801.168 463.845
2717 0 61.5265 16.7245 1029 94.208 800.809 467.001
2718 0 61.7671 11.8833 734 101.879 803.18 461.747
2719 0 65.6567 17.759 1166 94.6218 803.642 459.601
2720 0 67.5927 14.7353 996 96.2841 803.208 463.773
2721 0 66.7566 14.2308 950 99.4526 804.317 455.834
2722 0 71.6785 15.7788 1131 96.4359 805.335 460.505
2723 0 72.5257 16.601 1204 95.9817 804.542 459.194
2724 0 74.346 14.8226 1102 97.0209 804.657 463.613
2725 0 74.5312 20.1661 1503 93.0912 805.393 454.086
2726 0 75.5839 13.5346 1023 101.374 806.289 454.186
2727 0 82.6328 21.1175 1745 90.7736 807.006 458.693
2728 0 86.6117 19.5008 1689 90.5133 807.701 457.216
2729 0 88.7896 18.1553 1612 92.1117 807.669 452.852
2730 0 89.6029 16.774 1503 93.9388 806.849 455.579
2731 0 94.733 18.1774 1722 91.8751 806.768 453.15
2732 0 94.5503 14.955 1414 95.4569 807.187 452.565
2733 0 99.4963 21.2571 2115 89.8 806.833 450.625
2734 1 54.093 11.6466 630 95.8302 805.317 476.648
2735 0 54.457 9.53046 519 94.6493 807.468 466.258
2736 0 54.2096 11.2526 610 94.3033 809.312 473.907
2737 0 60.1733 12.1649 732 96.4727 807.378 477.111
2738 0 62.0972 15.0893 937 92.7236 808.447 473.417
2739 0 64.3758 7.05234 454 98.2291 807.863 477.183
2740 0 63.115 9.06282 572 96.5087 807.974 474.734
2741 0 65.2914 12.6969 829 94.0844 806.867 472.794
2742 0 70.1384 9.78066 686 96.7201 805.471 472.959
2743 0 71.1143 14.8775 1058 92.9537 805.075 466.529
2744 0 74.1219 19.1576 1420 87.2416 804.816 469.018
2745 0 78.0916 13.561 1059 95.1624 805.229 466.052
2746 0 84.2754 13.8593 1168 93.369 805.185 466.572
2747 0 84.1644 12.9152 1087 94.092 805.106 460.615
2748 1 46.0534 10.4661 482 95.2012 803.782 479.268
2749 0 45.1566 13.8629 626 91.893 804.089 479.919
2750 0 46.8124 12.6035 590 94.4203 799.39 473.302
2751 0 50.177 13.572 681 92.5521 803.394 473.357
2752 0 54.0465 17.1704 928 86.5862 804.144 476.661
2753 0 51.1365 12.3786 633 94.485 804.294 470.893
2754 0 51.1365 12.3786 633 123.442 804.294 470.893
2755 0 55.0531 11.9884 660 101.789 804.742 468.964
2756 0 56.1024 11.7464 659 102.34 806.399 468.099
2757 0 57.1236 12.7618 729 101.834 805.021 463.7
2758 0 61.0767 14.6046 892 98.5908 806.817 464.027
2759 0 63.1669 14.7862 934 98.8437 807.257 461.22
2760 0 64.0732 11.1123 712 102.931 808.736 462.154
2761 0 66.1572 13.0749 865 98.526 808.765 463.788
2762 0 69.168 12.0576 834 101.019 809.096 461.034
2763 0 70.1642 12.9126 906 101.053 809.996 457.748
2764 0 71.2434 12.2538 873 101.954 810.772 456.577
2765 0 77.1823 16.6748 1287 97.8089 811.494 454.054
2766 0 78.2391 12.9603 1014 102.372 811.193 456.66
2767 0 80.1872 12.1341 973 103.289 812.986 455.679
2768 0 84.2583 13.3637 1126 99.5373 811.175 456.154
2769 1 44.3299 17.6405 782 93.8184 811.233 470.913
2770 0 40.7871 6.84039 279 101.957 811.502 471.907
2771 0 45.0355 10.7027 482 93.7261 812.446 473.091
2772 0 48.2108 13.6069 656 90.968 812.287 472.308
2773 0 50.3398 26.0827 1313 80.6999 810.636 472.867
2774 0 50.0593 15.1221 757 89.7926 811.773 472.535
2775 0 50.1243 9.03754 453 96.3488 811.049 471.232
2776 0 54.0702 13.9078 752 91.2128 810.568 470.915
2777 0 55.0953 12.8868 710 91.9028 810.63 475.514
2778 0 58.4477 14.1836 829 91.9747 811.288 472.392
2779 0 56.1234 11.35 637 96.1005 810.76 472.703
2780 0 55.0833 13.1256 723 94.5408 810.678 475.072
2781 0 59.094 15.5176 917 93.1603 810.682 470.954
2782 0 60.0713 15.9644 959 91.6694 809.92 473.334
2783 0 63.2896 16.6378 1053 91.7189 808.677 469.049
2784 0 65.2131 11.9148 777 96.3308 807.856 468.326
2785 0 68.2774 13.2694 906 94.6854 807.886 463.086
2786 0 68.3051 12.5906 860 94.9221 807.27 468.534
2787 0 69.0748 13.6519 943 95.3945 806.112 462.091
2788 0 70.4073 11.4193 804 98.051 805.124 461.193
2789 0 75.2613 12.8087 964 97.3963 805.074 458.076
2790 0 76.1758 18.0635 1376 92.2442 804.565 461.482
2791 0 79.2896 13.4822 1069 98.1628 804.277 456.898
2792 0 81.2906 16.7424 1361 95.2388 804.425 451.166
2793 0 81.6227 10.6711 871 102.54 803.218 452.091
2794 0 85.4714 14.0281 1199 98.95 802.45 452.023
2795 0 88.4875 13.5612 1200 97.7125 801.908 454.958
2796 0 93.5038 17.0368 1593 95.9102 803.09 444.521
2797 1 52.183 10.674 557 99.4524 803.732 467.045
2798 0 54.1286 11.5281 624 99.016 805.327 465.524
2799 0 55.0962 15.6272 861 96.1905 805.936 464.941
2800 0 56.0855 16.1182 904 96.7909 806.272 463.715
2801 0 58.1366 13.5543 788 100.802 805.654 459.247
2802 0 59.3024 12.5965 747 99.7818 805.784 456.944
2803 0 61.3756 17.2055 1056 94.2831 806.132 459.553
2804 0 65.5628 14.5662 955 96.6524 807.921 457.333
2805 0 67.6649 18.6951 1265 93.0111 808.289 457.292
2806 0 67.9216 15.3412 1042 97.8695 810.331 453.817
2807 0 68.238 14.5813 995 98.8814 810.183 455.318
2808 0 73.2662 15.6689 1148 96.9887 809.95 453.907
2809 0 75.3874 12.8669 970 99.7814 810.299 456.321
2810 0 74.3757 15.5561 1157 98.3691 810.536 455.295
2811 0 77.4186 14.9706 1159 99.3753 810.048 450.868
2812 0 80.3591 14.821 1191 98.6213 811.124 456.501
2813 0 83.3386 17.4109 1451 96.9766 810.91 452.076
2814 0 82.2985 10.7535 885 104.218 811.442 454.112
2815 0 89.1946 14.0255 1251 100.269 811.938 451.215
2816 0 89.33 13.0415 1165 102.714 811.376 448.785
2817 0 93.415 15.8112 1477 99.4225 811.546 444.894
2818 0 99.5637 14.3325 1427 98.5326 811.507 447.427
2819 0 100.594 14.5734 1466 99.2353 811.029 451.234
2820 0 104.24 12.7398 1328 105.047 809.734 446.685
2821 0 107.425 13.8887 1492 104.659 810.723 442.475
2822 0 111.569 16.4293 1833 101.424 810.823 446.839
2823 0 114.511 13.8851 1590 105.21 810.999 438.196
2824 1 50.2268 14.9522 751 98.3289 810.9 472.571
2825 0 54.4314 13.5584 738 97.2656 809.833 478.766
2826 0 55.2032 13.7673 760 98.4224 809.792 475.376
2827 0 55.2008 15.4527 853 98.0903 809.019 474.638
2828 0 57.2381 18.7812 1075 94.6214 807.761 471.12
2829 0 59.2035 15.0498 891 98.7565 808.67 472.237
2830 0 61.2202 15.1257 926 98.2765 807.554 467.757
2831 0 63.1922 15.619 987 97.692 806.447 471.316
2832 0 65.202 13.2511 864 100.384 807.176 469.395
2833 0 68.6197 15.9575 1095 97.5014 807.093 466.179
2834 0 70.1883 17.0684 1198 96.4257 806.696 458.816
2835 0 71.3195 14.2317 1015 101.218 805.279 458.941
2836 0 73.6018 15.0404 1107 101.343 803.374 460.764
2837 0 75.4067 18.3273 1382 96.8958 802.35 461.484
2838 0 76.3703 14.1809 1083 101.778 801.899 462.594
2839 0 81.5808 15.9106 1298 100.489 802.098 454.096
2840 0 86.8601 15.9912 1389 99.7005 802.477 455.822
2841 0 87.7018 16.1456 1416 99.9922 803.427 451.715
2842 0 91.0849 17.577 1601 98.1655 803.031 452.136
2843 0 93.9561 15.7308 1478 101.265 803.907 441.764
2844 1 47.2784 13.7061 648 100.688 805.366 468.951
2845 0 50.3586 15.7868 795 98.0956 805.167 464.766
2846 0 51.2867 12.3619 634 99.3186 807.132 465.935
2847 0 53.1361 15.3003 813 95.6519 806.437 466.652
2848 0 56.0624 12.5931 706 97.9278 809.225 467.297
2849 0 55.2042 15.0351 830 96.5422 809.074 461.99
2850 0 55.0677 13.0385 718 99.2883 809.879 464.731
2851 0 59.1012 17.1401 1013 94.2932 809.85 462.588
2852 0 58.217 16.3354 951 96.0831 810.505 462.834
2853 0 62.1984 19.1484 1191 92.5945 810.521 457.628
2854 0 62.2345 17.4501 1086 95.1077 812.627 458.737
2855 0 64.0657 13.8452 887 98.5524 813.135 463.206
2856 0 67.2709 19.0127 1279 93.7803 812.894 457.543
2857 0 68.0499 14.0485 956 98.1517 812.154 456.786
2858 0 72.184 16.361 1181 96.1058 813.175 459.999
2859 0 75.2193 14.3846 1082 97.6128 812.342 461.932
2860 0 73.2374 12.7667 935 100.926 812.79 462.426
2861 0 79.3221 14.8887 1181 98.2074 812.958 459.267
2862 0 81.3926 19.7807 1610 93.1435 812.66 460.081
2863 0 83.1935 14.7127 1224 97.7876 812.623 461.545
2864 0 84.3636 8.93751 754 102.459 811.178 461.662
2865 0 89.2777 14.8077 1322 95.7867 811.177 463.453
2866 1 49.1866 11.4462 563 99.2718 810.304 479.288
2867 0 47.344 14.0673 666 97.1096 810.569 480.922
2868 0 51.1332 15.8019 808 95.203 809.231 478.994
2869 0 53.0752 17.7107 940 91.4383 806.589 482.264
2870 0 54.1772 14.6002 791 95.6258 805.89 478.126
2871 0 56.1202 13.5067 758 96.4921 805.77 478.392
2872 0 57.144 14.8922 851 94.9706 803.937 478.065
2873 0 59.2172 10.1153 599 100.519 805.666 473.618
2874 0 63.3351 17.4311 1104 90.7699 804.19 467.639
2875 0 64.5212 13.112 846 94.4007 803.683 471.242
2876 0 66.3415 13.6265 904 95.6195 803.748 465.971
2877 0 72.7151 18.3868 1337 88.7868 803.646 467.702
2878 0 71.2443 13.1239 935 94.7487 802.703 466.333
2879 0 74.1938 17.953 1332 89.6366 802.568 465.687
2880 0 79.5857 17.4026 1385 89.8195 802.322 464.701
2881 0 77.2738 11.9834 926 97.284 802.529 459.756
2882 0 79.4457 12.2474 973 97.4368 803.169 453.736
2883 0 85.3865 14.6744 1253 94.0295 803.339 454.818
2884 0 89.3651 12.1076 1082 96.3494 802.441 457.048
2885 0 85.4587 13.41 1146 97.3935 803.624 446.928
2886 0 95.4005 11.8448 1130 94.3504 804.004 460.333
2887 1 49.2787 19.5419 963 87.7487 804.357 473.72
2888 0 48.2477 13.6794 660 96.55 805.139 464.298
2889 0 50.0448 17.3245 867 91.3979 804.26 467.795
2890 0 52.6837 12.7554 672 96.7976 804.653 467.534
2891 0 54.1084 13.7317 743 95.1292 805.362 467.864
2892 0 59.4316 15.9848 950 93.2937 806.695 463.522
2893 0 59.12 12.3647 731 97.0328 807.245 462.703
2894 0 59.1262 14.0209 829 95.2425 807.048 462.199
2895 0 65.1619 15.331 999 93.5135 807.996 463.172
2896 0 67.3551 22.2403 1498 87.2283 808.263 456.813
2897 0 67.2187 16.5281 1111 93.7147 810.282 459.626
2898 0 71.3244 15.3804 1097 93.9763 809.362 459.857
2899 0 72.4896 14.4986 1051 94.6813 809.819 461.335
2900 0 76.5186 15.8785 1215 93.6807 810.783 456.374
2901 0 79.5241 23.9802 1907 86.6765 810.986 458.56
2902 0 80.5791 17.9699 1448 92.5456 813.242 455.126
2903 0 83.0414 13.3548 1109 97.2759 811.778 454.049
2904 0 86.7624 16.1245 1399 94.6011 813.027 452.648
2905 0 93.6218 17.528 1641 96.3991 813.185 453.091
2906 0 92.5701 13.849 1282 100.301 812.559 455.172
2907 0 95.4688 14.3083 1366 99.5593 812.917 456.223
2908 0 104.057 19.7489 2055 92.7153 812.522 456.042
2909 0 102.489 15.5432 1593 98.7546 811.981 453.08
2910 0 107.108 19.7464 2115 95.2894 812.258 448.845
2911 0 107.823 14.6629 1581 101.318 811.58 450.592
2912 0 114.112 15.0816 1721 100.987 811.643 447.116
2913 0 117.647 14.9601 1760 102.577 810.792 441.625
2914 0 119.797 15.9854 1915 102.382 809.41 439.23
2915 0 125.467 18.5627 2329 98.5732 809.613 441.296
2916 0 128.997 16.3879 2114 102.936 810.171 436.404
2917 0 132.688 17.5449 2328 102.036 809.579 435.024
2918 0 136.847 18.4075 2519 102.072 808.546 426.188
2919 0 141.493 19.9939 2829 98.7893 807 435.057
2920 0 146.944 18.6466 2740 101.535 807.143 424.999
2921 0 149.869 16.7213 2506 104.842 806.431 419.885
2922 0 155.99 20.2064 3152 100.392 806.24 418.856
2923 0 158.033 15.8574 2506 107.252 806.827 411.358
2924 0 165.905 20.1802 3348 101.367 806.134 410.883
2925 1 89.5211 16.9792 1520 102.363 806.011 448.988
2926 0 94.1074 15.6736 1475 102.73 805.448 449.538
2927 0 94.6862 13.6451 1292 107.186 805.929 445.236
2928 0 99.8991 18.9792 1896 100.316 805.209 440.777
2929 0 100.626 17.252 1736 103.702 806.737 435.942
2930 0 104.617 16.4219 1718 105.711 807.368 436.668
2931 0 111.082 18.4369 2048 102.54 807.263 435.84
2932 0 112.773 15.713 1772 106.286 808.084 433.652
2933 0 116.948 14.7843 1729 106.888 808.936 433.368
2934 0 120.844 23.8076 2877 96.114 806.872 431.763
2935 1 69.3154 12.5657 871 108.704 810.925 456.101
2936 0 69.3224 14.4253 1000 108.054 811.362 452.656
2937 0 74.2075 16.9794 1260 103.963 811.105 452.17
2938 0 74.555 13.7482 1025 109.472 812.562 449.068
2939 0 77.3858 15.6747 1213 106.779 812.618 447.061
2940 0 80.1142 15.8648 1271 106.126 813.05 448.814
2941 0 81.3294 17.2754 1405 104.799 813.729 446.943
2942 0 87.7149 17.2605 1514 103.639 813.873 451.199
2943 0 92.2572 20.1502 1859 99.7364 814.242 447.641
2944 0 93.5723 16.6075 1554 104.967 814.681 447.5
2945 0 94.2579 15.7016 1480 105.414 815.242 453.619
2946 0 95.1991 14.8636 1415 109.019 814.231 443.894
2947 0 99.1288 14.8393 1471 108.283 814.135 448.663
2948 0 104.437 14.7553 1541 108.903 813.48 445.674
2949 0 103.323 14.3143 1479 110.246 813.625 446.616
2950 0 108.218 17.3076 1873 105.261 812.673 449.61
2951 0 110.402 15.8964 1755 108.261 812.136 445.991
2952 0 111.39 14.4357 1608 110.896 812.147 442.852
2953 0 119.518 19.8715 2375 102.418 811.472 442.957
2954 0 124.553 16.1457 2011 104.912 811.227 450.018
2955 0 128.496 15.8837 2041 107.198 812.238 441.538
2956 0 134.047 16.6434 2231 106.529 809.733 437.184
2957 0 141.368 17.2387 2437 104.737 810.487 438.784
2958 0 143.21 20.4385 2927 101.976 808.966 432.46
2959 1 71.0738 13.887 987 107.865 810.148 463.838
2960 0 75.2147 14.2791 1074 106.165 808.814 462.048
2961 0 79.2024 19.9489 1580 99.3956 807.381 459.46
2962 0 81.1145 13.6474 1107 107.881 805.075 459.933
2963 0 83.2696 13.2942 1107 108.303 805.363 458.706
2964 0 87.1382 14.8041 1290 104.982 804.812 460.311
2965 0 90.297 18.0072 1626 102.414 805.291 452.816
2966 0 92.2471 15.5127 1431 105.605 804.934 454.752
2967 0 93.3324 12.643 1180 109.273 804.175 452.972
2968 0 97.2219 13.4743 1310 108.124 804.644 449.705
2969 0 102.257 14.7765 1511 106.789 804.514 445.713
2970 0 102.257 14.8156 1515 142.214 803.506 445.925
2971 0 109.581 17.6217 1931 103.494 804.917 437.558
2972 0 111.46 14.9022 1661 106.084 806.004 437.388
2973 0 114.31 12.6585 1447 109.827 805.763 429.974
2974 1 65.1778 13.7163 894 99.915 807.924 458.047
2975 0 65.1781 13.4861 879 102.581 808.94 453.41
2976 0 67.3685 13.5969 916 102.943 807.171 459.007
2977 0 69.4028 12.9534 899 104.607 809.328 455.135
2978 0 71.3572 10.2022 728 107.87 808.622 456.725
2979 0 72.4355 11.9555 866 106.577 809.452 452.995
2980 0 75.766 14.0696 1066 102.932 809.124 451.66
2981 0 79.5453 13.7783 1096 101.633 808.871 453.689
2982 0 79.4675 9.61399 764 107.416 810.717 449.453
2983 0 84.5811 11.421 966 103.349 809.843 453.112
2984 0 89.4937 13.3529 1195 101.017 812.329 450.348
2985 0 91.4795 12.9209 1182 101.622 809.896 449.379
2986 0 97.6305 13.3667 1305 98.3019 811.523 446.248
2987 1 49.373 13.4081 662 95.8807 811.18 472.708
2988 0 50.1282 11.3708 570 97.9333 809.844 471.895
2989 0 54.4936 12.3317 672 97.6458 810.259 467.055
2990 0 55.2343 14.2303 786 94.7595 809.861 473.191
2991 0 57.4189 15.5698 894 93.5548 809.899 471.673
2992 0 56.4746 12.9616 732 97.3688 809.749 473.37
2993 0 60.2187 15.0784 908 94.3304 809.617 473.05
2994 0 60.227 13.4823 812 96.7057 810.036 473.171
2995 0 62.4366 10.9551 684 99.1988 808.823 474.864
2996 0 65.4146 12.4896 817 98.2081 809.132 469.951
2997 0 68.5569 14.7906 1014 95.7505 809.576 471.011
2998 0 69.4064 14.2494 989 96.6774 809.526 470.647
2999 0 73.2728 11.696 857 99.3501 807.896 472.105
3000 0 72.6006 13.8979 1009 98.3162 806.987 469.781
3001 0 76.5457 12.4893 956 99.7992 806.964 470.295
3002 0 80.5267 11.6607 939 100.397 806.058 469.26
3003 0 81.6642 13.5433 1106 101.876 805.469 467.646
3004 0 87.412 9.42663 824 104.41 805.101 471.41
3005 0 86.3411 13.7941 1191 101.986 803.84 463.762
3006 0 87.3687 13.5518 1184 101.978 803.836 463.965
3007 1 48.0951 14.804 712 99.8624 802.917 481.257
3008 0 46.5124 12.5343 583 104.161 803.12 475.921
3009 0 43.717 11.3228 495 105.523 804.059 477.693
3010 0 50.6564 11.9037 603 106.441 803.032 472.327
3011 0 52.3316 14.2744 747 102.439 804.029 471.988
3012 0 53.5583 11.8376 634 106.244 800.699 474.987
3013 0 56.3088 18.736 1055 96.0673 802.018 473.502
3014 0 55.2333 13.7598 760 104.562 802.379 470.534
3015 0 60.2879 15.9236 960 100.582 802.767 468.282
3016 0 61.3608 14.3577 881 104.271 802.523 469.207
3017 0 60.2034 15.9958 963 102.963 804.079 469.309
3018 0 64.1453 17.741 1138 99.8682 803.326 467.605
3019 0 65.377 23.0356 1506 94.1434 803.922 466.193
3020 0 67.1364 18.7678 1260 100.005 804.883 462.199
3021 0 68.3922 15.8936 1087 101.69 805.798 465.246
3022 0 71.3426 14.3252 1022 105.742 807.764 459.788
3023 0 74.2036 15.417 1144 103.798 808.076 459.457
3024 0 77.4681 18.0978 1402 100.441 809.25 458.74
3025 0 78.2364 15.3381 1200 104.282 809.178 459.863
3026 0 83.2289 17.554 1461 101.112 810.477 458.282
3027 0 86.3188 18.2347 1574 100.783 810.161 456.273
3028 0 90.3159 15.2797 1380 104.423 810.536 454.699
3029 1 43.1678 10.6098 458 112.677 810.91 475.491
3030 0 48.1306 17.7849 856 102.764 810.186 474.614
3031 0 50.1761 17.8172 894 102.506 810.01 476.512
3032 0 50.2991 16.7399 842 105.69 811.071 475.714
3033 0 52.185 18.3003 955 102.948 809.98 481.958
3034 0 56.3526 17.1066 964 103.339 810.414 480.663
3035 0 55.2033 16.3396 902 106.752 810.228 477.754
3036 0 58.3579 15.1136 882 107.976 809.855 477.813
3037 0 59.184 15.2068 900 108.367 809.889 477.018
3038 0 60.1699 14.0768 847 109.673 810.393 479.511
3039 0 60.2946 14.8106 893 110.394 808.628 478.525
3040 0 65.0654 18.7196 1218 104.075 808.37 477.557
3041 0 65.0654 18.735 1219 137.267 807.395 477.577
3042 0 70.1822 15.1748 1065 108.772 807.854 477.624
3043 0 72.3716 15.1164 1094 108.983 807.405 476.252
3044 0 71.205 16.3612 1165 109.643 805.903 474.002
3045 0 77.2964 19.0048 1469 105.274 806.655 473.732
3046 0 79.456 23.8119 1892 100.424 804.914 464.529
3047 0 80.4959 20.5725 1656 104.804 804.978 462.233
3048 0 81.3912 18.3804 1496 108.868 804.209 462.433
3049 0 87.4016 18.2834 1598 108.25 803.442 459.526
3050 0 86.7269 20.5357 1781 105.654 803.555 461.381
3051 0 93.1469 20.3657 1897 105.452 802.988 458.299
3052 0 92.9878 17.1528 1595 110.569 803.764 453.389
3053 0 98.635 17.8537 1761 109.01 802.415 457.069
3054 0 100.386 17.9506 1802 107.016 801.748 456.605
3055 1 51.4328 17.4402 897 109.69 802.392 472.282
3056 0 52.5941 13.8609 729 112.997 803.333 472.35
3057 0 55.4235 13.5141 749 115.642 802.23 467.836
3058 0 57.3325 15.506 889 112.402 802.146 464.477
3059 0 61.3909 17.3804 1067 108.895 802.706 465.35
3060 0 64.3053 16.4372 1057 110.237 803.56 462.624
3061 0 65.731 15.6547 1029 111.509 803.812 459.766
3062 0 67.4316 18.3148 1235 107.361 805.462 459.33
3063 0 70.3573 16.5725 1166 109.184 805.69 461.182
3064 0 71.5073 17.1031 1223 109.752 806.56 459.256
3065 0 74.3084 22.1778 1648 102.336 806.005 461.189
3066 0 77.2816 20.9235 1617 104.628 806.554 457.886
3067 0 85.1605 19.4574 1657 106.677 806.948 459.746
3068 0 81.5265 20.9748 1710 107.943 807.946 457.525
3069 0 86.5899 16.711 1447 113.249 808.876 458.409
3070 0 87.5625 18.0785 1583 112.442 810.002 450.773
3071 0 93.657 20.6712 1936 107.439 809.513 450.926
3072 0 96.5688 16.0611 1551 113.985 810.244 452.651
3073 0 99.8015 21.0518 2101 106.52 810.702 451.605
3074 0 107.257 18.3763 1971 108.722 811.07 450.062
3075 1 59.5647 14.3038 852 112.272 809.945 473.795
3076 0 58.6072 16.2096 950 110.307 810.076 473.055
3077 0 59.5346 17.6536 1051 108.366 811.071 474.822
3078 0 63.5645 18.8155 1196 105.083 809.92 474.752
3079 0 64.3801 16.4181 1057 109.605 810.49 474.109
3080 0 66.6232 18.9423 1262 106.644 808.834 472.824
3081 0 70.096 17.2335 1208 109.849 809.233 471.534
3082 0 71.3956 18.0403 1288 109.246 809.071 469.209
3083 0 69.4391 15.7116 1091 114.174 808.935 469.404
3084 0 74.334 15.8339 1177 113.593 808.491 469.777
3085 0 75.2275 16.696 1256 113.604 807.518 469.279
3086 0 79.7081 15.5191 1237 113.92 806.771 470.692
3087 0 79.4756 17.5777 1397 113.529 806.886 465.021
3088 0 83.7952 16.1346 1352 115.598 805.68 464.046
3089 0 84.8158 16.4238 1393 115.571 805.253 465.539
3090 0 90.7134 17.8915 1623 113.29 804.389 463.9
3091 0 89.5548 15.0634 1349 119.407 803.336 459.318
3092 0 93.5876 16.2628 1522 117.62 804.156 457.356
3093 0 98.4858 16.8654 1661 116.911 803.323 452.666
3094 0 105.451 17.3256 1827 115.238 802.452 454.65
3095 0 106.656 17.9269 1912 115.749 801.809 449.339
3096 0 106.656 17.9737 1917 157.913 801.801 449.22
3097 0 117.525 15.1797 1784 120.532 802.367 445.207
3098 0 118.528 14.9416 1771 122.703 802.33 438.934
3099 0 121.771 16.7856 2044 119.793 802.385 436.167
3100 0 126.077 17.9256 2260 118.01 802.804 436.776
3101 0 132.25 19.4253 2569 115.506 802.552 433.971
3102 0 135.642 17.2292 2337 120.588 803.385 431.323
3103 0 141.095 21.0922 2976 115.415 803.136 424.746
3104 0 143.952 15.3802 2214 124.141 803.91 424.294
3105 0 149.485 15.8678 2372 123.522 803.959 423.884
3106 0 152.881 17.4711 2671 122.005 804.899 418.916
3107 0 159.302 18.3048 2916 121.142 805.241 411.644
3108 0 164.311 15.3367 2520 126.308 805.388 411.294
3109 0 172.059 20.4116 3512 116.517 805.87 411.153
3110 0 176.291 16.989 2995 123.552 806.824 403.715
3111 1 97.8415 13.0824 1280 124.079 807.944 444.002
3112 0 97.3165 13.5434 1318 126.628 808.69 440.855
3113 1 196.085 19.4355 3811 120.274 807.033 401.167
3114 0 204.425 17.4441 3566 123.865 807.72 393.322
3115 0 210.904 17.1642 3620 124.579 808.007 388.225
3116 0 219.995 16.3322 3593 125.32 809.349 390.167
3117 1 162.936 16.7857 2735 124.174 808.416 412.031
3118 0 166.735 15.2518 2543 127.578 809.817 408.603
3119 0 173.185 17.8941 3099 122.001 808.78 414.755
3120 0 180.181 15.6787 2825 126.891 808.59 407.486
3121 0 185.074 16.0368 2968 128.304 809.285 398.14
3122 0 191.026 14.3593 2743 130.712 807.693 396.64
3123 0 200.855 16.6687 3348 125.837 808.264 395.9
3124 0 202.899 16.0425 3255 127.561 807.27 390.912
3125 1 213.419 16.559 3534 127.104 808.589 387.214
3126 0 218.12 12.9974 2835 134.402 806.595 370.312
3127 0 218.12 12.9974 2835 165.903 805.595 370.312
3128 0 209.531 11.0485 2315 131.322 805.398 401.998
3129 0 207.576 9.96263 2068 129.234 804.296 410.932
3130 0 207.585 10.0537 2087 161.647 804.291 410.611
3131 0 204.873 13.0667 2677 131.433 803.755 383.612
3132 0 211.027 13.9935 2953 130.222 802.912 379.266
3133 1 244.993 7.5839 1858 136.386 801.855 387.016
3134 0 246.054 11.5625 2845 129.729 801.137 386.946
3135 0 244.823 11.7105 2867 129.07 801.286 383.413
3136 0 246.035 16.2253 3992 124.225 800.713 368.087
3137 0 255.317 14.0336 3583 127.526 800.912 356.775
3138 0 264.329 14.8868 3935 126.907 800.767 350.273
3139 1 185.954 11.4168 2123 128.55 799.981 387.983
3140 0 189.805 12.4496 2363 126.983 800.716 383.806
3141 1 199.616 8.82694 1762 131.698 800.585 380.808
3142 0 209.385 13.1576 2755 123.977 801.184 385.446
3143 1 315.561 11.0692 3493 129.222 800.789 338.204
3144 0 306.433 9.9728 3056 131.243 802.59 332.14
3145 0 304.347 12.2689 3734 127.565 800.996 325.296
3146 0 305.301 10.7795 3291 127.776 802.672 341.741
3147 0 307.294 13.8109 4244 121.797 802.259 337.617
3148 1 58.3238 11.8991 694 91.0216 801.898 466.434
3149 0 53.0725 6.14254 326 97.2086 802.046 466.031
3150 0 42.0991 6.4847 273 94.0403 804.436 470.462
3151 0 39.0747 3.07104 120 96.6 804.725 472.983
3152 0 32.1505 4.04348 130 96.7231 806.577 480.669
3153 0 34.1335 3.98436 136 97.4926 803.669 481.404
3154 0 35.0743 4.24812 149 98.1409 803.396 476.94
3155 0 32.2007 8.97496 289 92.8304 804.727 473.889
3156 0 27.1155 4.13048 112 98.1339 804.92 473.777
3157 0 21.0281 4.94577 104 95.0288 806.24 484.25
3158 0 29.0102 3.34365 97 97.134 808.629 479.082
3159 1 0 0 0 -nan -nan -nan
3160 0 34.0311 5.52436 188 94.4149 808.92 475.915
3161 0 35.0345 4.85236 170 89.0882 809.882 475.935
3162 0 379.665 24.9615 9477 105.028 808.525 292.176
3163 0 336.198 20.6961 6958 113.446 808.463 267.895
3164 1 94.3377 12.9429 1221 87.3645 810.19 461.773
3165 0 95.5252 8.07117 771 91.2335 810.057 460.602
3166 0 101.616 14.3481 1458 87.2922 808.454 447.912
3167 0 101.489 11.282 1145 90.8882 808.804 450.342
3168 1 59.3055 10.1846 604 86.9536 811.142 484.374
3169 0 57.2996 11.117 637 90.4506 805.113 475.743
3170 0 57.286 9.28674 532 93.6786 804.742 478.558
3171 0 58.9477 11.824 697 95.4405 805.486 472.3
3172 0 53.8154 7.06118 380 104 803.782 471.337
3173 0 53.8154 7.07976 381 151.958 802.758 471.415
3174 0 64.0836 10.5643 677 97.4919 807.368 473.102
3175 0 66.1206 10.2842 680 96.6471 806.809 478.354
3176 0 67.0903 10.3443 694 98.8948 805.526 470.409
3177 0 64.2732 9.78634 629 98.841 805.874 472.052
3178 0 67.0428 17.0786 1145 90.0262 804.33 473.974
3179 0 71.353 14.0429 1002 94.0729 805.268 476.127
3180 0 68.1755 10.8837 742 97.9084 804.741 472.451
3181 0 71.1448 10.8792 774 97.8243 803.997 471.375
3182 0 69.192 11.2007 775 99.1587 804.533 468.054
3183 0 72.1264 10.4261 752 100.483 803.854 464.481
3184 0 76.2408 11.3325 864 96.7986 804.756 469.473
3185 1 159.775 11.2033 1790 101.336 804.038 437.542
3186 0 158.282 13.5012 2137 102.234 803.336 421.875
3187 1 84.1088 12.8286 1079 96.8387 804.113 464.149
3188 0 87.1857 12.1236 1057 98.404 804.665 458.739
3189 0 84.3092 11.4934 969 98.8153 805.324 463.228
3190 0 90.3033 13.7204 1239 97.109 805.886 458.311
3191 0 91.529 10.0842 923 102.684 805.068 456.718
3192 0 92.2023 11.6483 1074 99.1695 804.441 458.502
3193 0 101.477 10.5049 1066 101.692 804.849 454.063
3194 0 98.4782 12.9369 1274 100.645 805.747 451.113
3195 1 53.4477 12.5543 671 98.608 805.994 466.517
3196 0 55.3566 9.86332 546 101.551 807.982 472.667
3197 0 57.1594 15.7279 899 95.0067 805.758 472.188
3198 0 60.4956 10.6785 646 102.81 809.938 472.443
3199 0 53.2509 9.27683 494 104.132 809.389 475.253
3200 0 58.22 11.1817 651 100.43 809.524 476.889
3201 0 61.0621 12.0533 736 99.3098 809.887 475.914
3202 0 62.2497 10.9398 681 101.759 809.99 474.753
3203 0 60.1818 9.10574 548 106.161 809.447 475.507
3204 0 64.3056 13.1559 846 99.6714 810.111 475.792
3205 0 66.1721 11.1678 739 102.198 808.53 477.409
3206 0 72.3469 13.2832 961 99.4641 810.072 477.899
3207 0 68.1903 9.98675 681 107.166 808.671 474.777
3208 0 72.2374 15.8505 1145 99.0638 810.081 477.907
3209 0 70.2405 10.1651 714 107.153 808.311 477.564
3210 0 77.2346 14.1776 1095 102.13 809.267 471.921
3211 0 79.6804 16.9427 1350 98.3659 808.583 472.264
3212 0 81.2005 15.7635 1280 99.3273 808.486 472.905
3213 0 83.2733 16.8241 1401 98.7538 807.353 470.981
3214 0 83.1856 12.4781 1038 104.166 807.595 471.724
3215 0 84.2096 12.3264 1038 105.989 806.437 466.632
3216 0 86.3701 11.7633 1016 106.224 806.221 468.761
3217 0 84.5097 9.3717 792 107.537 804.702 475.383
3218 1 49.1945 10.0011 492 102.616 804.388 488.222
3219 0 51.2317 12.7851 655 102.215 803.267 482.719
3220 0 53.6526 19.1976 1030 93.1233 802.544 483.565
3221 0 54.2099 11.9904 650 101.911 801.548 478.146
3222 0 55.2411 11.839 654 103.014 803.486 479.879
3223 0 56.1322 14.2343 799 101.596 802.951 477.582
3224 0 58.1922 15.2942 890 99.8337 802.451 475.638
3225 0 60.191 14.7863 890 100.38 803.87 473.562
3226 0 61.0761 12.7218 777 103.842 801.772 469.236
3227 0 62.0557 13.2139 820 99.0732 803.57 476.612
3228 0 63.2442 13.2186 836 98.14 802.84 476.751
3229 0 64.0931 15.5555 997 98.4433 802.912 467.073
3230 0 66.2771 13.9867 927 99.836 803.2 467.588
3231 0 73.2792 14.4243 1057 97.0189 803.78 471.116
3232 0 71.1579 14.4889 1031 100.159 803.836 463.56
3233 0 71.1579 14.4889 1031 138.933 803.84 463.633
3234 0 77.2756 14.5453 1124 99.7046 804.45 461.583
3235 0 77.5056 13.3023 1031 102.26 805.247 458.547
3236 0 80.3188 13.0106 1045 103.383 806.534 457.104
3237 0 84.3189 16.1767 1364 98.2683 806.122 458.875
3238 0 86.4799 16.4316 1421 99.4497 805.882 454.622
3239 0 85.3721 13.0839 1117 105.053 806.808 454.149
3240 0 91.3629 13.0359 1191 104.295 806.814 455.11
3241 0 91.3629 13.014 1189 141.421 805.824 455.046
3242 0 97.2971 12.6931 1235 103.457 808.385 453.551
3243 1 50.267 13.2493 666 102.812 808.227 471.685
3244 0 52.1479 15.8396 826 99.3257 809.044 474.15
3245 0 54.0728 13.5928 735 102.89 809.733 471.947
3246 0 56.1694 17.8389 1002 93.7256 809.508 475.979
3247 0 59.3829 13.6235 809 98.5352 808.785 473.801
3248 0 60.1661 19.1138 1150 93.1165 808.064 470.8
3249 0 59.3206 10.9743 651 103.055 809.866 472.622
3250 0 60.1089 15.4719 930 97.9032 809.628 469.768
3251 0 64.1062 18.1106 1161 94.3135 809.55 471.88
3252 0 64.1062 18.0482 1157 108.367 810.565 471.889
3253 0 68.1227 20.1108 1370 92.0394 809.924 469.157
3254 0 71.1431 13.9718 994 99.8199 809.705 467.687
3255 0 74.2302 15.91 1181 96.8298 810.125 467.556
3256 0 76.1981 16.8377 1283 95.749 809.044 468.465
3257 0 77.4245 15.1373 1172 98.9266 808.74 465.043
3258 0 81.5743 17.6404 1439 94.8513 808.118 466.395
3259 0 83.3041 18.4265 1535 94.8717 807.605 460.565
3260 0 87.4307 15.7496 1377 99.0574 806.895 462.677
3261 0 88.4035 15.3953 1361 99.2395 806.401 459.179
3262 0 91.2963 17.7444 1620 96.5728 805.707 459.296
3263 0 92.4244 12.0098 1110 104.556 805.479 457.195
3264 0 94.4406 14.4535 1365 101.979 804.892 456.057
3265 0 98.5733 16.2011 1597 99.5254 803.836 454.895
3266 1 52.6714 12.1888 642 100.782 801.368 470.83
3267 0 56.593 15.744 891 96.3131 801.361 470.786
3268 0 56.7305 15.8468 899 99.0478 800.507 470.46
3269 0 56.4348 13.0416 736 104.114 800.621 468.2
3270 0 59.5814 15.4243 919 100.235 800.897 468.022
3271 0 62.6432 12.3557 774 102.479 800.72 467.224
3272 0 61.2448 13.6501 836 103.036 800.258 462.716
3273 0 66.1708 15.188 1005 98.595 800.359 466.36
3274 0 66.1566 13.5436 896 102.806 800.404 462.926
3275 0 69.2593 15.247 1056 99.7699 801.552 460.374
3276 0 71.3891 14.442 1031 101.248 801.583 456.355
3277 0 75.386 18.9558 1429 95.4213 802.812 454.84
3278 0 75.386 18.7701 1415 127.31 802.827 454.784
3279 0 78.5155 13.9845 1098 102.087 803.797 453.767
3280 1 158.968 15.7264 2500 104.808 806.366 421.102
3281 1 82.445 14.7007 1212 102.233 805.593 447.6
3282 0 85.4745 13.9808 1195 102.965 805.854 447.858
3283 0 85.4745 13.934 1191 137.385 806.842 447.88
3284 1 40.0945 10.9741 440 104.166 806.843 466.909
3285 0 51.0935 14.3658 734 96.6294 807.3 469.531
3286 0 49.2706 14.0043 690 97.2377 807.212 469.67
3287 0 52.1022 13.1281 684 97.0102 806.854 465.518
3288 0 53.2432 13.5604 722 95.3684 808.442 471.701
3289 0 53.1123 13.029 692 97.4465 808.273 467.899
3290 0 55.2074 18.6207 1028 90.2023 809.629 470.643
3291 0 57.1635 14.2923 817 96.2448 808.764 466.375
3292 0 58.0857 8.6424 502 102.924 807.548 469.402
3293 0 60.1445 11.9712 720 100.219 808.697 467.631
3294 0 61.1106 12.2728 750 100.037 809.249 464.175
3295 0 63.1515 11.4487 723 100.781 807.906 466.95
3296 0 66.1652 17.6075 1165 92.8687 807.288 470.106
3297 0 69.1974 14.8561 1028 95.9086 807.772 467.929
3298 0 73.3619 12.5678 922 98.1247 808.366 465.292
3299 0 75.2776 16.7513 1261 94.0032 808.125 462.396
3300 0 76.4026 13.599 1039 95.898 808.086 466.442
3301 0 76.4026 13.5467 1035 121.802 809.129 466.285
3302 1 39.0939 9.79692 383 98.7102 806.235 481.671
3303 0 43.1066 11.9935 517 96.178 804.354 481.741
3304 0 43.0435 10.5242 453 97.8013 803.876 482.47
3305 0 46.1351 13.3304 615 95.3252 804.169 474.501
3306 0 45.4236 12.2403 556 96.3273 807.326 473.468
3307 0 47.0808 9.28191 437 98.5217 806.474 477.211
3308 0 51.3478 12.9899 667 95.1229 806.19 469.895
3309 0 50.2688 16.7102 840 92.7202 805.511 473.798
3310 0 53.3128 12.2672 654 94.9679 805.884 473.31
3311 0 54.301 18.6553 1013 89.6486 805.57 471.292
3312 0 54.0732 12.779 691 96.1621 805.78 469.184
3313 0 57.209 17.9342 1026 89.7885 805.907 469.876
3314 0 60.2531 15.02 905 93.4652 805.946 463.2
3315 0 61.1149 13.8101 844 94.9064 806.929 463.743
3316 0 66.3644 18.3833 1220 88.8492 805.772 465.525
3317 0 68.4997 18.8906 1294 89.0866 805.09 461.316
3318 0 65.1673 9.02293 588 99.7755 807.233 463.435
3319 0 70.239 16.4723 1157 91.5462 806.493 456.13
3320 0 70.339 15.2831 1075 94.5023 808.169 453.79
3321 0 72.3665 12.6992 919 97.5332 809.202 456.196
3322 0 77.3784 13.686 1059 96.2852 809.552 454.154
3323 0 81.159 19.4187 1576 89.9645 808.778 455.341
3324 0 81.211 15.195 1234 95.4862 809.999 452.403
3325 0 83.2757 13.4973 1124 97.0685 810.259 450.007
3326 0 89.5134 17.0701 1528 92.7493 810.577 449.951
3327 0 87.7783 14.3316 1258 96.9404 811.583 451.01
3328 0 92.3276 15.0334 1388 96.2608 811.335 448.544
3329 1 52.1746 15.8506 827 93.5103 811.765 468.99
3330 0 46.1157 8.00161 369 105.995 812.493 469.304
3331 0 51.1979 16.3874 839 94.6234 812.224 465.719
3332 0 56.1836 12.7439 716 95.271 813.82 471.876
3333 0 55.2371 12.0933 668 98.6108 807.994 469.421
3334 0 55.1445 13.3649 737 97.4016 809.251 467.463
3335 0 55.1445 13.3105 734 131.807 811.27 467.297
3336 0 60.1817 15.2538 918 95.8137 809.182 466.426
3337 0 64.2707 16.1504 1038 94.7302 808.884 463.881
3338 0 66.3231 16.8569 1118 93.4544 808.732 464.698
3339 0 70.1703 18.0846 1269 92.5075 807.521 461.65
3340 0 70.1058 16.361 1147 95.2241 807.956 466.04
3341 0 72.4045 14.93 1081 97.3802 806.669 464.278
3342 0 77.14 16.3858 1264 94.735 806.825 466.682
3343 0 78.2465 15.6173 1222 96.1334 806.808 460.432
3344 0 79.3487 12.5144 993 100.298 805.761 459.67
3345 0 86.2464 12.9861 1120 98.8 806.336 462.628
3346 0 88.3316 17.9438 1585 93.9653 804.886 452.155
3347 0 86.2248 15.0537 1298 98.03 806.001 456.122
3348 0 86.2248 15.0653 1299 129.286 807.002 456.165
3349 0 93.2539 17.6078 1642 94.7418 804.982 454.921
3350 0 99.2166 16.6504 1652 93.9782 804.298 456.779
3351 1 54.2434 12.7942 694 99.3574 803.488 470.79
3352 0 52.0895 12.8625 670 99.2702 804.078 470.534
3353 0 59.0615 13.4775 796 98.8681 803.923 468.104
3354 0 56.1179 13.6676 767 98.8175 803.587 462.511
3355 0 59.1046 10.6929 632 96.8687 804.54 462.071
3356 0 59.2308 12.9493 767 94.073 804.506 461.531
3357 0 65.2451 17.1507 1119 89.8883 804.316 456.241
3358 0 66.1597 15.5079 1026 91.578 804.732 455.938
3359 0 64.2301 12.2684 788 95.8566 804.849 456.044
3360 0 69.2196 16.2237 1123 92.3482 805.028 451.814
3361 0 69.6489 16.1668 1126 92.2593 806.734 456.73
3362 0 71.6006 16.8574 1207 90.8136 806.451 457.206
3363 0 75.2894 18.6348 1403 90.4405 806.937 452.241
3364 0 77.6578 17.1135 1329 92.3476 807.261 449.604
3365 0 80.534 16.0802 1295 93.4232 808.559 454.091
3366 0 79.6361 10.8242 862 101.877 807.175 444.403
3367 0 79.6361 10.7238 854 137.301 805.184 444.39
3368 0 87.3859 15.3801 1344 97.1101 808.814 446.406
3369 1 48.207 15.952 769 91.8296 808.107 465.975
3370 0 47.5933 11.2201 534 96.9682 809.157 463.734
3371 0 49.7318 13.5125 672 96.4851 809.603 467.46
3372 0 49.4416 10.4568 517 106.727 809.033 467.936
3373 0 54.5479 16.6459 908 98.0859 809.496 465.496
3374 0 55.0972 16.0444 884 99.9728 809.395 466.6
3375 0 57.0538 15.8096 902 100.365 810.441 471.96
3376 0 56.1417 15.6034 876 102.023 810.619 471.586
3377 0 57.1327 15.5953 891 102.707 809.78 466.877
3378 0 59.179 13.0621 773 105.224 809.625 467.158
3379 0 61.1732 15.5624 952 99.2552 808.181 472.257
3380 0 61.0955 11.1301 680 107.746 809.457 468.462
3381 0 68.2564 15.0609 1028 100.485 809.723 468.41
3382 0 68.0721 11.2234 764 105.609 807.898 468.662
3383 0 73.1942 17.2828 1265 98.6372 808.265 464.776
3384 0 75.0825 13.7449 1032 101.551 807.804 467.651
3385 0 78.1684 17.1553 1341 98.7397 807.248 464.454
3386 0 78.3301 14.0048 1097 102.633 807.103 465.793
3387 0 83.1149 20.4897 1703 95.1814 806.59 461.262
3388 0 84.1976 12.2213 1029 105.972 806.645 458.666
3389 0 90.2451 18.6381 1682 95.8514 805.608 463.581
3390 0 89.1512 14.0323 1251 103.812 804.175 454.446
3391 0 93.3095 17.1151 1597 98.4358 804.127 458.501
3392 1 48.1497 11.1527 537 104.4 803.223 477.162
3393 0 50.0463 12.2287 612 104.057 803.757 470.338
3394 0 52.0854 10.886 567 104.005 804.36 474.499
3395 0 52.4945 15.1254 794 98.5655 803.941 469.61
3396 0 55.1831 15.7113 867 99.0415 803.464 467.344
3397 0 58.1085 16.6585 968 97.2965 802.818 465.38
3398 0 57.3292 13.7277 787 100.826 804.569 468.255
3399 0 61.2038 18.1198 1109 95.7556 804.823 467.142
3400 0 61.4811 12.8657 791 102.561 805.008 463.593
3401 0 66.2935 18.3879 1219 94.9532 804.153 463.501
3402 0 65.221 15.0872 984 100.259 803.463 459.78
3403 0 70.4558 20.7364 1461 93.757 804.847 457.771
3404 0 72.4165 17.8274 1291 97.4578 804.823 458.146
3405 0 72.6933 14.1554 1029 101.691 806.002 456.764
3406 0 75.5092 15.5875 1177 100.489 805.432 458.107
3407 0 77.4747 16.031 1242 101.524 806.335 452.465
3408 0 79.2657 15.0506 1193 103.394 807.378 450.449
3409 0 83.4156 20.284 1692 96.8215 807.637 448.794
3410 0 89.4357 17.6551 1579 99.8087 807.536 444.398
3411 0 89.3741 20.0282 1790 98.4441 808.085 437.161
3412 0 88.3052 19.3533 1709 99.1077 807.293 449.627
3413 0 93.4434 12.1464 1135 108.174 809.27 447.445
3414 0 93.4434 12.2748 1147 159.384 810.242 447.529
3415 0 100.746 18.2638 1840 103.086 810.554 436.683
3416 0 99.2648 13.8115 1371 109.743 810.801 437.862
3417 0 107.895 16.8219 1815 104.256 810.316 439.377
3418 1 60.4648 13.6112 823 103.219 811.48 462.448
3419 0 58.2552 13.973 814 106.22 811.162 454.367
3420 0 61.3564 12.4355 763 106.738 810.153 458.59
3421 0 66.2941 13.0932 868 99.7788 811.304 463.253
3422 0 68.8023 13.9966 963 99.6002 811.539 460.79
3423 0 71.1303 15.324 1090 99.4083 811.557 456.038
3424 0 73.3383 15.8444 1162 98.5697 813.036 459.048
3425 0 77.2599 14.9884 1158 99.3463 812.446 461.692
3426 0 76.4109 12.9955 993 102.943 811.159 460.035
3427 0 80.548 14.9724 1206 101.452 809.918 458.532
3428 0 83.3694 13.5901 1133 103.187 810.578 459.48
3429 0 85.5283 14.1006 1206 103.301 809.981 453.786
3430 0 88.4835 13.6523 1208 103.954 809.488 455.252
3431 0 88.4875 10.2048 903 109.44 810.055 449.494
3432 0 94.8878 12.3725 1174 106.78 807.457 447.388
3433 0 98.6896 18.2289 1799 99.592 807.837 447.986
3434 0 103.102 15.7902 1628 102.225 807.74 447.746
3435 1 53.3654 12.7986 683 100.909 809.164 470.255
3436 0 53.2882 11.9351 636 109.539 806.555 467.011
3437 0 55.4737 9.31974 517 111.246 806.197 465.986
3438 0 59.4796 13.7526 818 104.736 805.615 456.196
3439 0 61.3902 11.8911 730 102.177 805.496 465.27
3440 0 63.3307 15.3164 970 97.5959 805.316 466.676
3441 0 64.1708 12.2641 787 102.95 805.17 461.348
3442 0 66.5819 14.914 993 99.0322 805.416 461.657
3443 0 71.1052 12.4463 885 103.035 807.994 454.104
3444 0 73.2483 11.8911 871 102.998 806.627 455.808
3445 0 75.2013 14.0024 1053 100.165 807.351 452.045
3446 0 79.1592 16.89 1337 96.8601 808.066 452.38
3447 0 79.3054 15.434 1224 99.259 808.86 447.901
3448 0 82.2517 11.8782 977 104.947 808.432 449.14
3449 0 87.1572 15.9367 1389 100.74 808.901 449.339
3450 0 87.2739 13.154 1148 104.367 809.674 448.317
3451 0 90.1026 17.924 1615 100.341 809.83 443.152
3452 0 91.272 14.9553 1365 104.092 808.279 440.442
3453 0 95.2639 13.7408 1309 106.024 810.334 440.594
3454 0 98.4028 11.7781 1159 108.913 809.441 441.292
3455 0 100.319 11.1145 1115 109.136 812.5 442.265
3456 1 56.2848 13.5561 763 101.287 812.257 464.385
3457 0 57.3902 12.2321 702 105.561 811.786 463.858
3458 0 57.0708 11.1791 638 105.21 812.094 466.342
3459 0 59.3035 11.517 683 106.712 811.57 464.117
3460 0 64.1057 20.0918 1288 94.038 811.398 468.116
3461 0 65.4485 13.1248 859 104.773 812.988 461.296
3462 0 66.1869 15.0634 997 102.068 813.012 461.196
3463 0 68.2275 13.7335 937 104.654 811.872 465.094
3464 0 70.1901 12.979 911 103.665 811.137 461.363
3465 0 76.4654 11.5869 886 104.441 811.56 464.359
3466 0 77.1716 14.3058 1104 102.831 811.338 463.477
3467 0 78.1502 12.7703 998 106.595 810.544 464.325
3468 0 84.2122 17.3965 1465 100.178 811.09 460.57
3469 0 83.3644 15.6182 1302 104.164 809.319 460.534
3470 0 87.6233 11.8918 1042 109.266 810.092 457.854
3471 0 90.4032 13.2628 1199 106.606 809.587 458.605
3472 0 94.35 12.0721 1139 108.42 808.273 458.338
3473 0 100.471 15.4373 1551 103.456 808.97 457.713
3474 0 101.386 17.7736 1802 101.88 807.734 450.871
3475 1 57.4639 16.0449 922 99.8568 808 475.794
3476 0 54.4796 12.5001 681 107.457 806.777 472.037
3477 0 57.4412 15.5463 893 103.064 806.452 470.002
3478 0 59.5479 13.4682 802 105.262 805.989 471.458
3479 0 62.5446 11.3839 712 105.848 806.098 473.751
3480 0 64.4832 14.7946 954 102.825 805.652 468.961
3481 0 63.4162 13.3089 844 105.291 804.944 467.534
3482 0 66.3801 14.2663 947 102.92 805.271 465.091
3483 0 68.5355 12.271 841 106.922 805.22 466.906
3484 0 71.2622 15.6184 1113 103.412 804.412 459.998
3485 0 73.2036 13.6469 999 105.083 803.76 458.531
3486 0 77.2443 13.9557 1078 104.376 804.856 462.819
3487 0 79.5716 16.3249 1299 102.286 804.407 459.691
3488 0 81.5252 14.6826 1197 105.902 805.433 454.483
3489 0 82.5224 14.2507 1176 107.026 805.27 453.168
3490 0 86.4363 15.4912 1339 103.916 805.058 453.892
3491 1 44.5425 11.1803 498 106.068 805.882 471.518
3492 0 49.9382 10.1526 507 108.854 806.154 466.057
3493 0 47.2589 10.7916 510 109.398 805.51 462.826
3494 0 46.6792 13.5178 631 106.26 806.57 460.273
3495 0 50.244 15.564 782 98.6905 804.051 461.476
3496 0 49.3456 7.76159 383 109.063 805.491 465.392
3497 0 53.3037 13.5075 720 102.074 805.25 462.062
3498 0 53.616 10.0157 537 106.019 806.663 465.071
3499 0 58.5378 12.6585 741 100.928 806.443 466.902
3500 0 56.4723 13.6173 769 101.637 807.23 461.029
3501 0 59.315 13.9425 827 100.965 807.623 458.885
3502 0 63.5097 13.2893 844 100.428 808.428 463.111
3503 0 65.7182 12.8884 847 99.9976 808.747 464.678
3504 0 64.6552 11.3061 731 103.929 809.364 461.93
3505 0 72.4434 15.2257 1103 97.9384 808.789 462.199
3506 0 74.4763 11.0371 822 102.142 808.67 462.543
3507 0 74.5328 11.9679 892 102.141 808.267 461.589
3508 0 75.5369 13.9535 1054 99.2552 808.436 461.178
3509 0 81.5279 16.387 1336 97.7754 808.598 459.434
3510 0 83.3658 14.2504 1188 100.162 809.114 456.93
3511 0 86.5395 10.5616 914 103.714 808.446 461.3
3512 0 86.4307 9.74191 842 107.2 808.519 450.435
3513 0 94.742 15.5792 1476 99.3157 806.596 455.167
3514 1 49.1665 10.3119 507 101.264 808.359 476.312
3515 0 53.4201 10.5766 565 100.329 808.536 477.57
3516 0 54.5674 15.1372 826 94.9455 808.32 476.794
3517 0 53.3854 10.2837 549 100.026 804.696 476.497
3518 0 55.4536 13.3084 738 97.5488 804.089 473.377
3519 0 55.1178 10.1419 559 99.6422 803.739 475.792
3520 0 57.2541 14.7588 845 95.6414 803.876 470.791
3521 0 61.2901 15.7611 966 96.8302 803.002 475.434
3522 0 64.3651 17.4007 1120 98.9286 804.297 471.098
3523 0 66.4397 15.0813 1002 101.958 802.029 469.304
3524 0 68.8021 14.7234 1013 101.581 803.051 465.527
3525 0 67.2693 12.8439 864 105.154 802.243 466.328
3526 0 72.8301 15.5156 1130 101.325 801.85 465.548
3527 0 73.6102 12.6749 933 103.765 802.463 460.537
3528 0 75.3032 15.7098 1183 101.289 802.322 463.071
3529 0 76.3848 13.2225 1010 105.519 801.654 460.561
3530 0 79.553 11.3006 899 107.922 802.124 459.731
3531 0 83.3846 16.8257 1403 101.419 802.518 453.512
3532 0 83.4043 16.1503 1347 102.089 802.716 453.529
3533 0 87.544 14.4727 1267 104.242 801.494 452.331
3534 1 51.1369 8.9759 459 102.952 801.649 476.237
3535 0 51.2925 13.0623 670 97.891 801.118 470.187
3536 0 49.115 11.3815 559 101.236 803.986 468.354
3537 0 53.1375 9.91766 527 102.188 802.685 471.505
3538 0 53.2121 11.2005 596 104.685 803.824 467.753
3539 0 58.4447 18.7357 1095 93.59 804.408 468.428
3540 0 57.384 11.5015 660 104.017 804.947 465.141
3541 0 58.6014 15.2385 893 98.8869 805.279 467.112
3542 0 59.5783 14.1159 841 99.8383 805.174 466.049
3543 0 59.2125 16.483 976 98.4641 806.292 463.806
3544 0 62.2952 12.0876 753 103.526 806.635 460.499
3545 0 65.6094 14.5254 953 99.4565 806.954 461.422
3546 0 66.693 13.7046 914 99.9212 807.502 460.92
3547 0 71.4903 13.0507 933 98.701 806.758 462.653
3548 0 71.4003 12.3529 882 98.6451 808.058 459.752
3549 0 75.2337 15.4984 1166 93.7719 808.474 464.03
3550 0 77.356 15.7842 1221 93.6568 807.788 465.109
3551 0 82.429 15.9167 1312 94.9299 807.395 458.25
3552 0 85.4918 14.5043 1240 96.3419 807.681 458.06
3553 0 84.3449 10.8602 916 100.795 808.24 459.599
3554 0 90.4938 10.6306 962 101.097 807.228 454.242
3555 0 95.7869 14.9707 1434 95.4317 810.242 451.261
3556 0 97.5923 11.0152 1075 99.707 807.988 452.172
3557 0 99.6905 10.7433 1071 100.241 809.122 451.722
3558 0 103.504 9.69046 1003 101.691 807.664 445.011
3559 0 110.229 14.1252 1557 95.7457 808.071 448.855
3560 0 108.153 10.6608 1153 98.8751 807.215 440.881
3561 1 59.2596 16.7737 994 91.3481 806.443 469.736
3562 0 59.2596 16.7399 992 108.728 805.444 469.849
3563 0 65.2372 12.3549 806 95.5856 806.182 472.216
3564 0 65.3997 12.9817 849 95.172 804.756 472.044
3565 0 68.4008 13.9618 955 94.5372 805.093 466.858
3566 0 74.4248 18.7841 1398 89.078 804.371 466.678
3567 0 73.6028 15.244 1122 92.5722 804.126 467.507
3568 0 76.2975 13.6964 1045 95.1244 804.59 463.468
3569 0 79.4526 13.7566 1093 94.6185 803.897 458.301
3570 0 81.3204 15.8755 1291 93.0992 803.135 458.059
3571 0 83.9214 13.9655 1172 94.5392 802.846 455.267
3572 0 85.3838 17.72 1513 92.1348 801.805 454.484
3573 0 87.5592 15.7151 1376 94.3881 801.795 455.562
3574 0 91.7165 17.1507 1573 91.9402 802.48 458.7
3575 1 54.2149 11.1777 606 92.2475 804.454 475.815
3576 0 50.2726 13.029 655 92.9069 805.453 472.766
3577 0 57.5593 13.2559 763 89.7995 804.722 473.878
3578 0 55.2086 9.2558 511 96.8415 805.755 469.131
3579 0 58.5243 15.72 920 91.3174 805.308 468.222
3580 0 59.0277 19.9059 1175 87.217 803.775 468.464
3581 0 58.2178 13.2777 773 95.1876 804.757 468.454
3582 0 62.1431 14.5149 902 93.0865 804.979 465.041
3583 0 63.1942 12.8968 815 96.1509 805.563 463.481
3584 0 57.1849 9.91521 567 101.062 807.372 464.854
3585 0 62.1463 9.67073 601 100.09 807.374 466.687
3586 0 66.1541 15.9325 1054 93.3833 808.175 467.033
3587 0 66.1541 15.8116 1046 124.898 810.196 466.834
3588 0 73.3611 12.8951 946 98.3488 809.089 464.934
3589 0 74.1461 13.8915 1030 97.6563 809.429 463.843
3590 0 78.2034 14.4879 1133 97.5278 809.899 463.692
3591 0 80.4286 15.5915 1254 97.5598 810.756 462.127
3592 0 81.3314 15.3815 1251 99.1007 810.66 460.583
3593 0 85.183 16.8813 1438 97.8387 810.988 457.517
3594 1 46.1465 12.6554 584 101.039 810.664 477.93
3595 0 46.1465 12.5903 581 144.959 808.64 477.826
3596 0 51.3945 12.7056 653 100.632 810.158 478.452
3597 0 48.5478 15.9019 772 97.294 809.924 475.547
3598 0 51.0824 13.1552 672 104.365 810.321 476.08
3599 0 51.1596 15.0314 769 101.778 809.319 477.896
3600 0 56.064 13.1635 738 102.401 808.664 480.904
3601 0 55.1652 12.3629 682 105.878 809.18 476.746
3602 0 56.0591 16.8394 944 99.6176 807.355 478.713
3603 0 60.0258 16.6095 997 99.8516 808.512 477.502
3604 0 60.1267 14.9185 897 103.06 806.456 474.13
3605 0 58.0635 11.1774 649 109.094 806.2 473.696
3606 0 63.1028 14.6586 925 102.454 805.274 474.637
3607 0 67.1315 15.4324 1036 101.194 805.376 471.573
3608 0 70.2889 16.4464 1156 97.5597 805.441 475.973
3609 0 67.2418 14.9014 1002 100.275 805.231 471.81
3610 0 70.0753 14.5843 1022 101.196 804.292 465.617
3611 0 73.1215 13.9084 1017 102.202 805.896 466.83
3612 0 76.2925 16.7513 1278 98.3506 803.862 462.127
3613 0 78.1777 17.1788 1343 97.4862 804.494 465.312
3614 0 75.163 11.8808 893 105.526 804.363 458.72
3615 0 79.2514 13.4004 1062 102.942 804.782 462.021
3616 0 83.4092 20.5853 1717 94.7589 804.486 457.052
3617 0 85.1343 16.9732 1445 99.6554 804.751 453.866
3618 0 88.2465 16.8052 1483 99.8429 804.783 453.454
3619 0 89.2563 16.9848 1516 97.1511 805.72 455.732
3620 0 93.1593 17.7009 1649 96.8472 805.002 451.118
3621 0 92.2121 14.2606 1315 102.231 805.003 448.669
3622 0 99.4607 20.5709 2046 94.8788 805.315 441.832
3623 0 98.2828 12.4335 1222 105.849 806.204 438.739
3624 0 100.446 15.2519 1532 103.048 804.02 444.219
3625 1 54.3632 11.5887 630 104.965 803.983 464.705
3626 0 56.3324 14.8937 839 100.784 803.828 465.588
3627 0 61.1452 17.7283 1084 96.0793 803.749 463.254
3628 0 60.3742 13.4494 812 104.159 805.284 462.658
3629 0 63.1691 14.5957 922 102.258 804.677 460.823
3630 0 66.2298 16.0049 1060 100.642 806.267 459.793
3631 0 68.1339 14.1046 961 102.983 805.296 461.405
3632 0 70.1521 14.7537 1035 102.162 807.484 462.595
3633 0 74.1615 16.4776 1222 99.7635 805.712 460.423
3634 0 73.1488 14.5457 1064 104.384 806.658 458.101
3635 0 80.0702 16.9726 1359 99.362 807.486 460.24
3636 0 81.2563 14.202 1154 103.844 807.301 460.77
3637 0 83.1997 14.0986 1173 104.315 806.382 461.04
3638 0 87.1961 14.8516 1295 103.205 808.198 460.952
3639 0 89.3568 14.6156 1306 105.232 807.564 458.35
3640 0 92.4104 20.3007 1876 97.2766 807.988 459.953
3641 1 51.2415 12.8412 658 105.544 807.172 476.86
3642 0 53.4423 13.3602 714 99.451 810.242 471.845
3643 0 54.1085 13.0848 708 97.6342 808.801 474.145
3644 0 55.2339 10.9534 605 100.679 808.393 474.658
3645 0 56.2601 9.86489 555 102.25 807.717 469.059
3646 0 61.3631 12.2712 753 97.1687 807.421 474.562
3647 0 63.0976 18.4318 1163 91.3362 806.101 471.702
3648 0 61.4067 12.7511 783 97.6118 805.424 473.026
3649 0 65.4391 10.9567 717 100.071 804.589 470.939
3650 0 66.2052 11.6305 770 99.9675 804.738 462.197
3651 0 67.2784 10.6869 719 101.972 804.391 463.822
3652 0 71.1948 11.4053 812 100.287 803.315 463.668
3653 0 75.1113 12.4482 935 97.9358 805.16 463.093
3654 0 76.306 10.8641 829 101.38 801.865 459.585
3655 0 79.2608 12.5787 997 99.8626 802.213 458.53
3656 0 79.3625 8.95889 711 103.589 804.475 455.377
3657 1 41.1426 7.51046 309 101.463 803.337 467.812
3658 0 45.344 15.3273 695 90.8518 803.262 472.124
3659 0 48.1184 14.7345 709 90.6587 803.264 467.794
3660 0 50.1962 15.0011 753 95.2643 805.554 470.635
3661 0 50.1289 14.5026 727 94.9037 805.461 471.787
3662 0 48.0841 10.9392 526 100.774 806.591 469.966
3663 0 52.1736 17.7484 926 91.5583 805.076 469.872
3664 0 53.2274 11.2536 599 100.179 806.214 463.786
3665 0 56.3568 16.0406 904 93.6239 805.982 463.284
3666 0 59.1334 14.0699 832 96.03 806.768 462.561
3667 0 60.1114 15.7042 944 94.411 807.15 459.016
3668 0 63.2005 16.2024 1024 93.9141 807.374 459.677
3669 0 61.1207 13.7924 843 97.7556 807.694 457.028
3670 0 64.1113 13.071 838 98.1551 808.303 454.492
3671 0 65.1016 12.8876 839 99.1704 808.681 459.844
3672 0 67.2851 12.0829 813 100.026 810.293 458.766
3673 0 74.2903 24.4985 1820 86.1313 808.936 456.914
3674 0 70.1184 11.7943 827 101.485 810.453 456.3
3675 0 75.2428 14.2206 1070 98.5215 810.098 452.469
3676 0 76.1902 12.7575 972 100.675 810.641 450.934
3677 0 79.0501 13.093 1035 103.028 810.577 451.595
3678 0 81.2963 14.3426 1166 101.526 810.418 453.268
3679 0 83.2735 15.1909 1265 99.8735 809.574 458.017
3680 1 47.2263 11.5614 546 103.755 811.249 473.244
3681 0 48.1062 9.874 475 106.918 811.688 472.975
3682 0 51.0799 12.1379 620 104.403 810.918 473.398
3683 0 52.3689 9.96774 522 106.872 811.23 472.36
3684 0 56.3096 10.389 585 107.566 810.957 475.427
3685 0 59.0589 16.5428 977 99.9294 810.578 475.21
3686 0 63.2292 15.6415 989 100.304 809.788 475.365
3687 0 63.0486 18.224 1149 97.805 809.668 474.564
3688 0 65.1951 16.7497 1092 99.7958 808.912 472.926
3689 0 65.3506 12.257 801 104.75 809.171 472.212
3690 0 67.2206 13.3739 899 102.73 807.267 474.029
3691 0 72.329 15.5954 1128 99.3812 808.199 470.822
3692 0 72.4358 15.034 1089 101.187 807.479 468.795
3693 0 74.1977 13.9897 1038 102.535 805.979 465.436
3694 0 78.325 17.9125 1403 96.7726 805.477 470.042
3695 0 79.1664 20.7159 1640 95.3537 805.348 460.381
3696 0 80.3867 13.8456 1113 104.357 805.364 463.598
3697 0 84.2287 20.2663 1707 96.3691 805.226 460.667
3698 0 87.5182 18.5561 1624 98.5382 804.782 455.173
3699 0 88.2902 16.038 1416 102.218 804.188 457.236
3700 0 90.334 13.2508 1197 106.748 805.109 452.971
3701 0 91.4057 14.3864 1315 104.485 803.848 453.486
3702 0 95.6371 15.5379 1486 102.846 803.644 452.937
3703 0 99.2063 18.5371 1839 99.6558 803.899 447.642
3704 0 103.436 17.8757 1849 100.551 804.237 445.303
3705 1 45.5313 16.6479 758 99.095 805.125 475.083
3706 0 47.1423 14.5093 684 101.338 807.004 471.554
3707 0 47.482 13.2682 630 105.532 804.346 464.63
3708 0 49.0995 12.994 638 106.79 805.65 467.618
3709 0 50.2041 15.5963 783 104.323 806.364 464.106
3710 0 54.1389 13.4469 728 105.624 804.894 465.258
3711 0 56.1296 15.6246 877 103.877 807.119 462.127
3712 0 55.1097 13.3007 733 108.014 806.768 463.678
3713 0 59.0812 17.7891 1051 100.795 807.063 464.407
3714 0 59.0567 15.1211 893 106.716 808.218 461.984
3715 0 64.1465 15.4334 990 103.815 807.748 463.243
3716 0 64.1141 15.644 1003 104.616 808.464 459.631
3717 0 64.2591 14.4415 928 106.061 807.691 458.235
3718 0 66.2255 16.9874 1125 100.742 809.517 460.541
3719 0 67.0505 12.9156 866 106.46 809.841 463.472
3720 0 67.0718 14.6559 983 106.266 810.23 459.193
3721 0 71.2553 16.6865 1189 101.503 811.078 465.213
3722 0 73.1738 16.7273 1224 103.115 809.67 460.9
3723 0 73.1738 16.8503 1233 135.859 809.715 460.851
3724 0 78.0951 15.3403 1198 105.018 811.156 464.575
3725 0 83.1939 17.0806 1421 104.287 811.288 460.568
3726 0 85.2496 22.874 1950 97.9964 810.005 458.756
3727 0 87.1139 17.8961 1559 104.509 810.241 459.81
3728 0 94.0982 17.9068 1685 105.309 810.108 454.805
3729 0 99.2011 16.4212 1629 106.808 810.078 457.964
3730 1 51.1042 13.3844 684 108.504 809.237 478.275
3731 0 51.1042 13.3257 681 145.791 808.229 478.336
3732 0 54.0546 13.2274 715 109.441 809.294 474.961
3733 0 57.1493 13.7184 784 106.477 808.167 475.885
3734 0 59.0699 18.4189 1088 100.056 807.716 475.441
3735 0 60.1683 14.4761 871 106.328 807.846 471.497
3736 0 62.1356 13.5188 840 107.338 806.225 469.656
3737 0 62.1356 13.5188 840 141.698 805.225 469.656
3738 0 69.1447 19.7557 1366 97.8814 805.622 469.757
3739 0 71.097 17.2863 1229 100.911 806.641 465.69
3740 0 71.1136 13.7808 980 106.355 805.526 464.645
3741 0 71.0918 14.6852 1044 104.955 805.628 464.091
3742 0 76.3693 18.7248 1430 99.8524 805.259 459.59
3743 0 81.2009 15.9112 1292 103.004 805.333 461.039
3744 0 81.2648 13.3391 1084 106.115 805.009 459.389
3745 0 84.3305 15.9492 1345 103.508 804.087 455.869
3746 0 85.1802 12.9842 1106 107.7 805.51 448.555
3747 0 86.3853 13.9144 1202 105.594 804.992 452.716
3748 0 90.3597 15.7039 1419 103.895 806.069 447.894
3749 1 53.2092 13.3623 711 102.89 806.294 468.713
3750 0 54.2812 10.6298 577 107.338 807.274 465.728
3751 0 54.2812 10.593 575 138.259 808.308 465.861
3752 0 55.0458 11.6993 644 103.868 807.399 458.425
3753 0 57.3937 15.7857 906 98.702 804.192 454.705
3754 0 63.2962 16.3833 1037 92.7985 804.154 459.368
3755 0 68.4469 15.355 1051 92.7469 806.572 458.83
3756 0 69.5434 15.0266 1045 95.6278 806.758 453.03
3757 0 69.5434 14.9978 1043 116.901 808.773 453.159
3758 0 70.4687 13.169 928 99.3491 808.658 451.829
3759 0 74.1779 16.5683 1229 94.7665 808.397 452.795
3760 0 75.1803 13.4477 1011 97.6014 809.305 452.768
3761 0 78.3093 16.1411 1264 96.0831 809.385 447.939
3762 0 83.3655 11.0237 919 100.704 810.886 450.808
3763 0 81.3881 13.9824 1138 99.7127 810.06 445.58
3764 0 85.2694 18.7641 1600 95.1406 811.112 443.68
3765 0 89.3503 15.3777 1374 97.8704 811.028 447.934
3766 0 95.2819 15.26 1454 97.7703 809.931 445.982
3767 0 98.3823 13.539 1332 100.417 812.55 443.476
3768 0 100.589 9.12622 918 109.339 809.27 441.819
3769 1 55.4852 13.5171 750 98.9187 811.509 467.243
3770 0 59.3768 12.3786 735 99.8476 809.05 466.148
3771 0 60.421 12.6777 766 99.1201 809.718 469.849
3772 0 60.2792 14.8642 896 95.5647 809.164 462.661
3773 0 64.2985 14.1683 911 95.7519 810.22 467.256
3774 0 66.1698 12.74 843 97.1981 808.998 470.878
3775 0 67.3096 11.0683 745 99.8832 808.87 463.566
3776 0 68.165 11.0907 756 100.831 806.775 464.078
3777 0 74.1068 11.7263 869 98.9344 806.718 466.666
3778 0 75.4423 12.8708 971 99.7446 807.16 462.855
3779 0 79.2347 15.0818 1195 96.128 806.674 462.895
3780 0 80.2353 9.04839 726 103.322 807.806 461.693
3781 0 85.1627 14.0085 1193 99.3135 806.378 453.741
3782 0 85.4382 11.9619 1022 102.348 805.239 451.953
3783 0 92.3579 14.4113 1331 98.3952 805.134 451.585
3784 0 92.3014 11.6358 1074 102.831 804.777 446.527
3785 1 46.123 9.7782 451 99.5521 804.707 472.406
3786 0 50.1339 12.8656 645 97.4155 805.657 468.653
3787 0 54.2464 15.3558 833 92.1789 803.043 471.198
3788 0 49.4198 12.8896 637 101.005 804.389 470.033
3789 0 54.3177 18.0972 983 93.1526 804.784 472.39
3790 0 56.426 12.2638 692 100.749 804.844 467.96
3791 0 56.2707 19.6372 1105 92.3014 804.985 466.848
3792 0 57.2771 14.7878 847 98.9091 806.492 462.261
3793 0 63.2819 17.7776 1125 94.2462 805.597 464.742
3794 0 60.3915 12.7501 770 101.105 807.109 459.444
3795 0 62.2794 14.3226 892 100.666 806.112 456.225
3796 0 65.3726 13.5225 884 100.76 806.129 456.154
3797 0 67.207 17.8255 1198 95.2955 807.698 457.934
3798 0 69.4533 15.3772 1068 98.8343 808.208 455.29
3799 0 71.267 14.7474 1051 100.073 807.511 452.883
3800 0 71.1098 12.3893 881 103.975 809.749 455.188
3801 0 75.3152 18.7877 1415 95.4629 808.237 457.279
3802 0 79.2437 14.2346 1128 102.56 810.152 450.418
3803 0 80.1767 13.3455 1070 104.584 810.869 451.849
3804 0 85.1386 17.4656 1487 96.92 811.022 458.126
3805 0 86.3265 16.3797 1414 100.624 811.541 452.909
3806 0 90.4079 14.7664 1335 102.649 811.124 453.093
3807 1 45.0361 14.7881 666 99.503 812.839 473.986
3808 0 48.6519 17.1011 832 96.6118 809.901 467.904
3809 0 50.149 16.092 807 97.4473 808.204 473.291
3810 0 52.1625 20.1294 1050 94.0248 808.69 466.599
3811 0 56.327 17.7535 1000 96.108 809.058 470.464
3812 0 56.207 20.0331 1126 94.8561 809.368 471.296
3813 0 58.2398 16.7583 976 97.6301 808.99 471.831
3814 0 59.5166 16.5668 986 99.3377 807.786 467.624
3815 0 62.2691 17.5047 1090 97.9128 807.554 471.259
3816 0 64.1534 19.8898 1276 94.8699 806.948 472.39
3817 0 64.2168 17.2229 1106 99.6953 807.012 469.828
3818 0 67.1464 15.7417 1057 102.226 805.094 466.56
3819 0 72.1848 15.211 1098 102.906 804.951 463.559
3820 0 72.2805 16.436 1188 102.518 803.182 464.439
3821 0 75.3335 13.0885 986 106.401 803.279 465.063
3822 0 80.4662 15.4723 1245 103.696 802.214 459.672
3823 0 82.2756 15.0348 1237 104.761 802.166 458.027
3824 1 45.0866 13.5517 611 105.45 800.808 476.997
3825 0 46.325 17.7658 823 101.84 800.484 474.578
3826 0 49.143 13.4709 662 104.156 800.369 477.088
3827 0 47.3126 9.95507 471 109.439 805.27 471.488
3828 0 50.1032 16.7654 840 99.3345 805.448 476.901
3829 0 50.1032 16.945 849 124.124 805.435 476.848
3830 0 51.1261 16.117 824 102.36 804.995 467.314
3831 0 53.115 15.9654 848 101.817 805.399 468.408
3832 0 53.0766 17.4842 928 101.906 804.636 464.837
3833 0 57.1148 17.0709 975 101.982 805.334 464.472
3834 0 57.2066 15.1906 869 105.089 805.654 465.955
3835 0 60.1087 14.7566 887 105.162 805.646 463.263
3836 0 61.1961 14.6905 899 105.65 806.212 463.925
3837 0 63.0499 15.575 982 104.267 805.944 462.192
3838 0 63.091 14.0908 889 108.13 806.602 459.352
3839 0 65.4133 16.2047 1060 106.145 807.516 454.003
3840 0 67.0637 14.8963 999 108.407 806.976 454.219
3841 0 66.0923 11.9076 787 114.166 807.238 452.236
3842 0 70.0704 15.5558 1090 107.873 808.175 454.358
3843 0 75.1361 16.9825 1276 104.983 808.566 456.371
3844 0 77.1588 16.0967 1242 107.172 808.323 452.85
3845 0 80.0861 14.5718 1167 108.686 810.146 453.136
3846 0 83.1701 14.3561 1194 109.179 808.242 450.121
3847 0 86.1394 16.0786 1385 106.254 810.734 454.518
3848 0 86.2464 14.5281 1253 109.105 810.335 449.275
3849 0 93.4817 14.0562 1314 109.523 810.502 447.693
3850 1 50.0456 13.6475 683 109.537 811.386 470.536
3851 0 51.1093 9.93948 508 114.644 810.961 471.589
3852 0 55.1311 13.5495 747 106.163 810.616 467.707
3853 0 58.2448 12.1041 705 109.538 810.902 465.974
3854 0 58.1334 17.5803 1022 104.021 811.098 468.561
3855 0 64.1225 17.4354 1118 103.307 811.65 468.46
3856 0 66.1702 19.6765 1302 101.022 810.943 466.031
3857 0 64.0969 14.0568 901 111.062 810.382 464.582
3858 0 69.3128 15.8412 1098 107.215 810.624 466.962
3859 0 74.2989 18.0083 1338 103.851 809.834 465.459
3860 0 74.2626 14.0448 1043 111.097 809.887 464.333
3861 0 77.1678 17.7146 1367 105.911 807.745 462.804
3862 0 79.1275 13.0043 1029 113.363 808.21 457.641
3863 0 83.3018 17.2265 1435 107.206 806.903 457.939
3864 0 87.3149 15.7362 1374 109.201 805.926 459.447
3865 0 88.1623 18.7722 1655 106.473 804.437 457.599
3866 0 91.2978 18.3904 1679 107.457 804.826 455.899
3867 1 51.0864 16.6776 852 108.079 805.323 472.324
3868 0 52.082 13.6516 711 113.079 805.37 470.637
3869 0 54.0545 15.3919 832 111.56 805.413 470.53
3870 0 57.2313 17.6652 1011 105.457 805.069 469.139
3871 0 56.1871 15.4306 867 110.409 804.625 464.02
3872 0 58.1733 13.3395 776 112.835 804.756 467.329
3873 0 60.28 14.6151 881 110.368 804.149 460.906
3874 0 62.1715 15.3286 953 110.257 805.75 460.954
3875 0 63.2877 13.0357 825 113.736 805.075 457.208
3876 0 65.1855 16.3073 1063 108.648 805.266 456.813
3877 0 68.3266 12.9086 882 113.524 807.076 459.302
3878 0 70.2823 14.1003 991 112.49 806.911 453.549
3879 0 73.3665 12.9078 947 114.89 807.297 455.424
3880 0 76.1656 15.8339 1206 111.136 808.027 452.098
3881 0 78.3432 12.6112 988 115.809 809.339 450.997
3882 0 81.2598 16.0227 1302 110.837 808.89 449.279
3883 0 84.3567 14.5572 1228 113.022 810.185 448.168
3884 0 86.1317 14.7449 1270 113.772 810.71 444.626
3885 1 49.0335 15.9687 783 106.246 811.613 466.923
3886 0 47.0448 15.3258 721 109.112 813.086 464.612
3887 0 49.0674 13.0025 638 108.274 813.237 465.533
3888 0 49.0726 16.3839 804 105.139 812.76 462.485
3889 0 51.0988 10.92 558 110.957 810.97 464.975
3890 0 53.1835 13.8201 735 107.441 811.713 461.679
3891 0 54.1797 13.1415 712 110.652 811.183 461.044
3892 0 55.098 13.957 769 108.057 811.554 464.27
3893 0 59.2217 11.9382 707 112 812.723 461.714
3894 0 59.2114 12.0923 716 110.501 812.663 465.191
3895 0 64.1623 12.858 825 109.539 812.764 463.416
3896 0 65.1557 15.5627 1014 107.341 811.718 461.959
3897 0 68.2493 12.2639 837 111.477 810.585 463.569
3898 0 70.1737 11.9988 842 112.923 810.834 459.401
3899 0 72.235 14.1344 1021 108.318 810.106 460.928
3900 0 79.2197 13.5194 1071 108.726 810.37 461.466
3901 0 79.2597 14.913 1182 108.444 809.283 455.157
3902 0 83.2713 12.7415 1061 109.862 809.582 457.73
3903 0 87.2464 12.8028 1117 111.095 807.915 452.355
3904 1 47.1694 13.0593 616 102.106 805.531 477.696
3905 0 48.1292 13.5053 650 105.345 803.983 471.64
3906 0 53.2458 11.4939 612 106.897 803.191 471.538
3907 0 51.2564 13.5398 694 104.022 805.637 470.762
3908 0 53.0644 12.8523 682 110.496 807.126 469.056
3909 0 54.0867 13.0161 704 108.911 806.903 472.305
3910 0 55.0591 12.8771 709 114.257 806.969 467.843
3911 0 60.0348 15.2411 915 109.909 806.586 466.12
3912 0 62.2238 13.7086 853 112.379 807.07 462.641
3913 0 64.17 17.6407 1132 105.154 806.366 464.08
3914 0 70.331 17.6736 1243 103.916 806.714 463.48
3915 0 67.1137 13.7528 923 111.756 806.14 460.284
3916 0 69.1859 16.7086 1156 106.896 805.996 461.167
3917 0 72.1013 15.5476 1121 109.319 806.059 458.351
3918 0 74.161 11.1514 827 117.14 805.675 452.618
3919 0 75.0829 15.5828 1170 110.615 805.856 450.848
3920 0 79.0751 18.6152 1472 105.952 806.192 453.365
3921 0 80.0519 14.8654 1190 112.498 806.558 450.585
3922 0 81.0493 17.804 1443 124.433 807.364 447.484
3923 1 44.0678 12.095 533 112.158 806.57 468.22
3924 0 45.2143 13.7567 622 107.386 801.998 467.357
3925 0 46.5898 15.9477 743 105.012 803.824 464.805
3926 0 48.0868 13.7252 660 110.486 804.636 463.988
3927 0 48.1304 15.7489 758 107.893 805.501 463.883
3928 0 51.0632 15.5494 794 107.47 805.77 462.747
3929 0 53.1077 16.137 857 105.937 806.09 463.798
3930 0 54.1147 14.7095 796 109.25 806.539 461.873
3931 0 57.2521 14.2702 817 108.403 807.758 465.133
3932 0 57.1385 16.3812 936 107.137 807.74 462.468
3933 0 58.161 13.1188 763 111.438 808.472 466.194
3934 0 59.24 14.0614 833 111.987 806.552 464.072
3935 0 64.2778 14.9818 963 110.027 808.867 464.181
3936 0 63.061 15.1916 958 112.229 809.298 465.156
3937 0 68.316 14.3744 982 112.557 808.514 464.441
3938 0 67.0817 12.7307 854 116.549 808.967 463.278
3939 0 71.1271 16.4775 1172 110.624 808.851 464.532
3940 0 75.1471 17.9115 1346 107.186 807.182 467.337
3941 0 80.2049 16.2459 1303 112.516 807.982 460.583
3942 0 78.2569 16.3308 1278 113.474 807.29 460.762
3943 0 81.1111 15.4479 1253 115.462 807.081 457.429
3944 0 85.1417 16.3492 1392 112.889 806.164 461.065
3945 0 89.1668 17.1925 1533 112.679 805.346 454.219
3946 0 94.1174 19.3482 1821 109.164 805.115 456.909
3947 1 53.0809 15.2597 810 109.483 803.473 478.769
3948 0 52.2937 15.6615 819 109.923 803.308 474.258
3949 0 55.1916 14.2775 788 110.129 803.599 474.744
3950 0 56.1483 15.2275 855 111.706 802.718 471.427
3951 0 60.2855 16.0901 970 109.759 802.952 470.146
3952 0 64.2852 19.2424 1237 104.463 803.146 467.589
3953 0 62.1736 14.4917 901 112.805 801.786 466.872
3954 0 63.0774 15.6157 985 110.261 802.317 466.669
3955 0 69.168 14.0961 975 110.672 805.489 469.969
