time division length width area intensity CMx CMy
0 0 53.1117 11.4852 610 134.736 284.939 466.97
1 0 58.1841 14.5229 845 128.018 283.609 466.125
2 0 58.1841 13.6635 795 130.14 281.502 465.521
3 0 58.1802 13.6473 794 129.718 279.508 465.548
4 0 58.1841 13.6463 794 129.471 277.508 465.548
5 0 57.2119 11.0641 633 126.235 280.164 465.659
6 1 33.1024 12.4462 412 123.223 279.233 475.461
7 0 33.25 11.9699 398 128.425 277.794 474.616
8 0 35.1032 13.3036 467 118.028 278.595 474.884
9 0 38.0644 13.8975 529 120.65 276.777 475.671
10 0 35.1062 12.9322 454 126.227 277.203 474.471
11 0 39.06 14.0041 547 124.058 276.726 472.994
12 0 42.1369 14.1444 596 121.327 275.955 473.826
13 0 42.2682 13.1068 554 120.395 275.011 471.774
14 0 43.2028 14.2352 615 122.945 275.527 468.582
15 0 45.1534 16.2114 732 116.117 275.873 467.148
16 0 47.229 16.8117 794 113.529 276.171 466.379
17 0 46.1635 13.4522 621 124.773 275.781 463.757
18 0 50.1141 15.784 791 120.604 275.427 462.871
19 0 50.3598 14.5354 732 120.822 275.847 462.619
20 0 50.2164 13.2228 664 122.06 275.64 459.259
21 0 53.1431 15.223 809 117.847 276.716 457.132
22 0 52.1547 12.252 639 127.831 276.095 455.437
23 0 58.1768 15.7967 919 119.971 278.212 453.812
24 0 57.2161 15.9745 914 121.022 278.199 452.52
25 0 58.3409 13.164 768 125.901 278.314 451.82
26 0 64.3281 16.7267 1076 117.504 279.483 450.318
27 0 63.4452 13.886 881 124.259 279.009 449.129
28 0 67.1248 14.7933 993 119.714 280.172 446.549
29 0 70.1632 15.3214 1075 117.259 281.437 449.629
30 0 73.2353 15.7438 1153 117.85 280.991 447.024
31 0 74.2211 18.0542 1340 116.054 282.86 444.298
32 0 77.3267 18.1955 1407 114.043 283.071 443.02
33 0 81.2608 16.7608 1362 114.685 284.233 443.952
34 0 83.4654 17.4923 1460 113.945 284.516 439.534
35 0 87.3057 17.3757 1517 113.181 285.028 440.643
36 0 89.26 16.3903 1463 114.661 286.724 440.766
37 0 94.6389 15.2263 1441 111.938 287.422 441.066
38 0 99.3008 15.6393 1553 110.766 288.609 430.566
39 0 100.391 14.5033 1456 112.909 288.156 439.15
40 0 106.409 15.9479 1697 109.082 288.641 434.379
41 0 108.47 14.0776 1527 114.338 288.146 434.056
42 0 109.306 13.8968 1519 110.863 288.383 438.147
43 1 62.1047 14.8459 922 105.928 287.883 460.896
44 0 63.0769 16.4085 1035 102.061 287.373 465.166
45 0 63.1533 14.5202 917 106.542 287.646 462.038
46 0 66.1032 12.5712 831 122.337 287.532 459.503
47 0 68.1328 14.2222 969 119.129 287.015 461.948
48 0 69.1591 14.7775 1022 116.178 285.64 459.797
49 0 74.1517 15.9403 1182 114.561 285.046 461.058
50 0 75.2051 13.2704 998 118.936 283.803 458.6
51 0 79.1984 15.7705 1249 117.995 283.375 455.936
52 0 84.2012 17.2325 1451 113.558 282.7 458.305
53 0 85.1385 15.7508 1341 119.026 281.92 450.948
54 0 91.2106 14.2418 1299 119.462 280.906 451.548
55 0 91.3228 14.7937 1351 120.065 280.459 447.454
56 0 96.2016 13.6068 1309 120.108 279.871 450.254
57 0 99.166 16.8102 1667 117.31 279.657 443.002
58 0 103.174 15.0037 1548 118.39 279.036 444.967
59 1 56.0394 17.684 991 111.904 279.44 461.063
60 0 57.1433 13.9299 796 116.215 278.182 463.666
61 0 61.0886 18.8579 1152 110.952 277.562 462.108
62 0 63.0942 15.041 949 117.816 278.583 457.641
63 0 66.203 15.7093 1040 116.338 279.232 456.875
64 0 68.0883 17.0661 1162 114.491 278.365 454.66
65 0 69.2321 14.2708 988 120.07 279.255 448.186
66 0 71.1444 13.8451 985 120.331 279.159 450.026
67 0 77.1524 17.3034 1335 113.892 279.698 448.58
68 0 77.1616 14.5539 1123 119.036 280.104 441.661
69 0 78.2682 11.0134 862 124.45 280.331 444.3
70 0 83.0903 13.4793 1120 121.822 280.864 439.546
71 0 90.196 15.81 1426 115.87 282.465 443.75
72 0 89.1476 13.6515 1217 121.385 283.336 439.314
73 0 90.5389 17.3848 1574 116.041 283.669 439.278
74 0 94.2834 15.8352 1493 118.829 283.6 435.738
75 0 98.2969 12.5029 1229 123.422 283.69 437.072
76 0 101.213 18.6043 1883 114.68 283.296 433.92
77 0 103.157 12.6313 1303 125.101 284.441 434.086
78 0 107.191 14.2083 1523 123.233 284.359 427.833
79 0 113.128 17.0249 1926 117.032 284.923 431.618
80 0 119.303 15.7331 1877 117.584 285.811 432.9
81 0 122.331 13.4962 1651 121.359 286.157 429.051
82 1 66.2697 14.5164 962 112.653 286.15 459.95
83 0 67.0875 15.2487 1023 113.738 285.394 455.736
84 0 70.1453 12.2745 861 117.592 284.666 455.017
85 0 73.2066 13.2912 973 114.991 283.592 457.63
86 0 72.2835 10.2651 742 116.907 284.431 450.795
87 0 78.3759 14.7749 1158 110.72 283.672 449.895
88 0 80.1194 15.4894 1241 109.782 283.906 451.797
89 0 85.311 13.1167 1119 112.873 283.013 450.269
90 0 86.4028 13.9347 1204 112.342 282.565 448.145
91 0 87.3358 15.4919 1353 110.71 282.858 447.894
92 0 90.1438 14.1219 1273 111.88 282.21 448.91
93 0 93.0676 10.4977 977 118.903 281.574 443.787
94 0 101.316 16.2265 1644 112.861 280.324 449.619
95 0 102.168 15.8465 1619 114.01 279.884 444.445
96 0 103.26 13.1901 1362 120.409 280.567 440.673
97 0 109.262 16.5016 1803 114.749 279.825 443.976
98 0 113.374 14.3684 1629 117.692 278.827 442.434
99 0 117.484 15.9936 1879 113.904 278.088 435.097
100 0 123.385 16.1365 1991 113.985 277.08 434.695
101 1 64.122 15.299 981 105.566 275.743 462.309
102 0 66.4101 12.7691 848 108.987 275.406 458.934
103 0 68.1425 12.3271 840 111.817 274.5 459.946
104 0 71.1202 14.5388 1034 107.441 274.433 459.496
105 0 75.1742 10.8681 817 112.552 273.878 456.133
106 0 78.1534 11.0552 864 111.986 274.34 449.674
107 0 79.0641 13.8116 1092 108.134 275.301 450.227
108 0 80.143 14.3868 1153 106.658 275.089 449.654
109 0 79.3134 10.6287 843 111.479 275.731 447.345
110 0 86.1789 12.799 1103 107.748 275.961 444.991
111 0 88.1908 10.1711 897 111 276.582 441.812
112 0 92.2508 13.3549 1232 104.308 277.738 448.137
113 0 91.1578 12.6923 1157 108.36 278.31 439.144
114 1 49.0455 11.785 578 104.381 278.282 461.51
115 0 51.0937 12.6043 644 102.786 279.752 461.27
116 0 51.079 10.5131 537 106.38 280.592 459.091
117 0 53.0675 13.4169 712 101.667 279.76 460.208
118 0 51.09 10.3934 531 107.294 280.699 458.793
119 0 55.0838 14.8138 816 100.545 280.831 461.176
120 0 56.1082 11.3531 637 104.355 281.576 459.937
121 0 60.109 13.4256 807 102.121 282.425 457.492
122 0 61.145 18.8405 1152 96.0113 282.894 456.628
123 0 60.3099 10.5621 637 104.841 283.262 457.934
124 0 64.1267 9.40326 603 105.687 282.154 460.687
125 0 66.12 12.9764 858 102.742 283.127 454.01
126 0 69.1268 16.7808 1160 98.3034 282.373 452.792
127 0 69.1162 9.83851 680 105.419 282.766 458.985
128 0 71.2757 11.2661 803 104.328 283.692 455
129 0 75.2089 14.8653 1118 101.199 282.7 455.528
130 0 78.1503 15.5981 1219 100.402 282.671 456.733
131 0 78.1803 14.3642 1123 102.41 282.141 456.694
132 0 81.3802 12.4355 1012 106.228 282.713 455.134
133 0 83.3828 14.4874 1208 103.973 283.089 456.79
134 0 85.1609 10.3451 881 109.615 282.362 456.335
135 0 89.2292 11.689 1043 106.698 281.609 455.952
136 0 93.0799 11.7748 1096 107.503 278.865 453.328
137 0 96.1299 13.3049 1279 106.959 280.296 449.091
138 1 52.1585 12.9413 675 101.15 279.483 474.68
139 0 52.1585 12.9221 674 120.883 278.458 474.593
140 0 58.2737 18.3445 1069 94.3555 276.758 474.3
141 0 57.2524 12.1392 695 105.717 277.496 466.717
142 0 57.2215 9.94382 569 108.091 277.357 466.341
143 0 60.3038 13.0008 784 103.903 276.277 467.136
144 0 65.1814 15.4645 1008 100.833 275.873 461.859
145 0 66.2019 15.3017 1013 100.265 274.749 462.782
146 0 69.2509 13.7615 953 102.329 275.419 455.744
147 0 72.2164 17.5168 1265 97.5889 275.125 457.194
148 0 72.1785 17.3182 1250 98.6872 274.586 454.575
149 0 75.3617 13.5878 1024 102.123 274.434 451.775
150 0 80.3854 17.5405 1410 98.1468 276.187 453.841
151 0 82.3475 13.5402 1115 101.697 275.765 449.858
152 0 86.2148 13.3156 1148 101.58 276.249 449.724
153 0 87.424 14.9616 1308 101.02 276.677 443.998
154 0 92.1771 15.9259 1468 101.206 276.59 442.8
155 0 92.2443 16.9333 1562 100.927 276.904 442.492
156 1 50.2179 12.0873 607 102.565 277.035 462.507
157 0 55.0884 11.6722 643 100.792 276.476 462.079
158 0 51.2805 8.85326 454 105.626 277.744 457.945
159 0 54.2202 10.2545 556 104.522 279.813 459.746
160 0 53.238 10.5564 562 107.523 280.178 456.754
161 0 59.1591 17.8671 1057 97.6064 281.178 459.28
162 0 62.1745 14.1055 877 102.187 280.257 457.832
163 0 61.2794 13.2181 810 104 281.664 458.11
164 0 62.206 10.835 674 109.131 282.423 455.726
165 0 63.3488 13.7493 871 106.382 282.936 451.331
166 0 66.1707 11.969 792 109.241 283.639 452.222
167 0 70.2511 14.4055 1012 105.003 284.16 456.251
168 0 71.0868 13.6453 970 107.534 284.382 455.735
169 0 73.3092 12.686 930 109.423 284.045 452.27
170 0 75.3145 17.0751 1286 104.606 284.263 453.209
171 0 75.4054 13.381 1009 110.688 284.664 451.193
172 0 80.3849 11.2459 904 111.78 284.567 458.421
173 0 83.1884 12.1892 1014 111.778 283.57 457.076
174 0 88.3349 12.9167 1141 112.628 283.098 452.736
175 0 90.3452 15.795 1427 111.278 281.818 450.469
176 0 94.2773 14.7331 1389 112.617 281.677 454.012
177 0 96.2572 15.282 1471 111.508 281.682 451.853
178 1 48.0806 12.7494 613 107.723 280.785 474.325
179 0 51.1219 11.4628 586 111.16 280.834 473.85
180 0 51.2699 14.4724 742 109.057 279.26 470.47
181 0 54.1632 14.7517 799 106.797 278.623 472.516
182 0 55.1524 11.8943 656 109.319 278.149 471.974
183 0 57.1894 13.7613 787 108.17 277.443 469.516
184 0 57.1042 11.4878 656 112.175 275.968 468.441
185 0 57.1038 13.0114 743 108.588 276.559 470.067
186 0 59.104 11.8266 699 111.738 276.298 462.751
187 0 62.0961 11.6432 723 111.55 274.365 464.142
188 0 66.3068 10.9039 723 113.676 274.187 461.513
189 0 66.14 10.5836 700 110.241 273.303 460.686
190 0 67.254 13.5903 914 108.17 274.107 453.903
191 0 69.1682 10.1925 705 111.672 273.688 457.837
192 0 75.1063 15.9507 1198 104.857 273.152 453.498
193 0 73.3246 9.06926 665 110.635 273.495 460.238
194 0 81.1867 13.2411 1075 108.949 272.999 450.246
195 0 81.1971 12.0448 978 111.161 273.783 447.107
196 0 86.274 16.1346 1392 105.302 274.328 446.542
197 0 87.2262 14.4452 1260 109.599 274.796 441.425
198 0 91.1503 14.6461 1335 109.916 276.057 443.464
199 0 94.1608 15.0275 1415 111.784 276.387 439.637
200 1 50.0965 12.6156 632 110.766 277.084 460.943
201 0 51.0524 15.7485 804 107.002 277.913 459.545
202 0 53.0558 12.7979 679 109.056 277.594 458.065
203 0 53.0518 11.0458 586 115.432 277.16 458.73
204 0 55.2178 15.1581 837 109.748 277.076 456.481
205 0 58.1173 16.3118 948 107.637 278.785 457.045
206 0 58.0621 12.0388 699 111.856 278.818 459.894
207 0 61.1383 13.6085 832 110.596 279.614 457.346
208 0 64.1081 15.0683 966 108.094 280.109 456.32
209 0 66.4019 17.2134 1143 105.638 280.937 457.116
210 0 67.1851 12.2646 824 110.854 281.132 459.507
211 0 69.303 14.7901 1025 109.824 281.59 454.592
212 0 72.1913 14.3785 1038 109.826 282.035 455.614
213 0 75.0409 14.8452 1114 107.778 281.752 458.442
214 0 76.2615 14.3978 1098 111.737 281.776 452.066
215 0 81.4282 15.8422 1290 108.597 281.869 454.785
216 0 82.2118 14.56 1197 111.501 281.83 454.256
217 0 87.3636 18.7378 1637 104.608 281.692 455.268
218 0 89.2466 14.6896 1311 110.743 281.855 453.867
219 0 94.5181 15.4997 1465 108.666 281.509 454.541
220 0 97.3549 16.825 1638 108.939 279.894 448.368
221 0 101.432 12.9348 1312 113.6 279.717 447.619
222 1 53.3234 9.86433 526 113.222 278.03 473.951
223 0 54.154 13.4985 731 106.81 277.19 474.78
224 0 56.2933 11.8842 669 107.725 276.556 474.314
225 0 58.0643 15.4828 899 104.833 275.772 471.207
226 0 62.3744 15.439 963 104.158 275.808 472.428
227 0 64.1668 13.2467 850 107.186 273.799 468.092
228 0 68.1974 16.1883 1104 102.302 273.562 467.063
229 0 67.1057 17.1818 1153 101.986 272.841 460.765
230 0 66.1633 13.6934 906 107.617 271.316 463.448
231 0 71.1033 14.1766 1008 105.757 270.979 460.182
232 0 77.4762 10.7517 833 110.012 271.083 455.97
233 0 77.3322 16.9399 1310 103.018 272.431 456.734
234 0 81.5386 20.9594 1709 99.0415 271.186 451.391
235 0 86.4193 14.8809 1286 105.848 272.571 454.279
236 0 88.9125 16.5106 1468 107.888 272.531 448.029
237 0 89.7117 13.7998 1238 111.574 271.49 445.532
238 0 94.8908 18.0102 1709 105.162 271.913 445.496
239 0 98.9519 18.2513 1806 105.571 272.479 441.609
240 0 99.7789 14.8528 1482 111.176 273.602 435.725
241 1 56.8902 19.5464 1112 97.7914 272.799 459.756
242 0 58.5046 12.8195 750 109.104 273.913 457.317
243 0 58.5593 12.244 717 109.384 274.568 458.149
244 0 62.6528 17.4773 1095 102.609 274.048 455.732
245 0 65.5398 13.5643 889 105.746 275.775 458.668
246 0 61.2992 12.8876 790 110.639 275.065 454.897
247 0 67.1764 16.4641 1106 105.276 276.11 450.901
248 0 67.3478 13.8386 932 108.562 277.52 450.487
249 0 66.2826 12.1751 807 112.696 277.183 450.224
250 0 77.7274 16.4678 1280 104.269 278.787 453.391
251 0 76.1496 17.6495 1344 104.929 278.548 448.741
252 0 76.3475 12.2073 932 113.308 280.568 449.811
253 0 80.284 14.6106 1173 110.933 281.28 448.112
254 0 82.2016 12.1044 995 114.374 281.031 449.474
255 0 88.3037 16.0129 1414 109.678 281.598 448.52
256 0 86.1638 14.4376 1244 109.019 281.15 446.613
257 1 44.0737 13.2732 585 109.068 282.911 469.503
258 0 48.2033 15.3724 741 106.506 281.332 468.915
259 0 50.12 13.2682 665 111.844 282.423 467.099
260 0 51.1136 14.3602 734 111.008 282.159 466.982
261 0 52.3947 15.345 804 103.163 279.544 469.981
262 0 52.1989 13.142 686 108.106 278.815 466.688
263 0 54.2266 11.3597 616 112.125 279.505 467.037
264 0 56.2014 10.9606 616 112.649 280.333 468.248
265 0 57.242 13.1197 751 110.325 278.866 466.31
266 0 58.2064 11.442 666 114.227 277.563 470.144
267 0 62.1237 14.3906 894 109.188 276.688 469.895
268 0 63.179 12.6466 799 112.735 275.912 467.559
269 0 67.2034 16.1599 1086 106.845 274.532 467.885
270 0 69.1748 14.3694 994 110.634 274.431 464.413
271 0 69.1838 14.4687 1001 112.058 274.245 461.194
272 0 71.1953 15.0291 1070 111.251 273.936 462.01
273 0 74.1847 13.4664 999 111.768 272.848 463.42
274 0 78.165 13.0749 1022 113.732 272.939 458.138
275 0 81.2506 16.5783 1347 109.922 272.806 451.274
276 0 85.2179 14.5627 1241 112.492 272.472 452.131
277 0 87.2078 15.1707 1323 112.367 272.228 450.495
278 0 88.4424 16.9489 1499 109.842 272.258 448.109
279 0 91.1895 13.3568 1218 115.509 272.537 442.893
280 0 97.3922 18.6771 1819 107.558 272.145 440.06
281 0 96.216 14.2076 1367 115.304 271.914 439.959
282 0 99.3082 14.5406 1444 113.145 271.944 441.353
283 0 99.3047 14.7022 1460 125.951 272.945 441.399
284 0 106.256 15.1427 1609 112.352 273.436 426.781
285 0 113.24 20.2755 2296 104.765 273.311 429.748
286 0 116.603 14.5108 1692 113.408 274.577 424.397
287 0 121.419 16.1837 1965 111.034 276.121 421.859
288 0 123.339 14.448 1782 113.564 274.718 425.027
289 1 134.593 12.549 1689 115.467 275.348 425.621
290 1 72.1112 11.1356 803 116.965 275.538 447.347
291 0 76.0869 15.272 1162 108.88 276.428 446.155
292 0 77.1933 15.4418 1192 108.913 277.262 444.765
293 0 81.0756 17.2555 1399 106.787 279.315 442.082
294 0 84.1087 13.2329 1113 110.204 279.603 446.613
295 0 87.1592 13.2287 1153 109.717 281.139 444.542
296 0 89.0908 12.0102 1070 113.064 280.382 442.204
297 0 91.326 13.1616 1202 111.594 280.86 439.384
298 0 94.3436 13.4614 1270 108.841 283.143 436.584
299 0 96.5796 11.2343 1085 112.075 282.482 441.503
300 0 99.3329 11.4363 1136 112.921 283.761 438.752
301 0 102.726 12.3825 1272 110.802 283.584 440.089
302 0 106.4 12.1711 1295 110.578 282.799 440.314
303 0 110.307 10.8424 1196 112.589 282.798 437.87
304 0 114.352 13.887 1588 110.061 282.696 435.827
305 0 119.347 12.4176 1482 111.34 282.738 436.947
306 0 123.471 15.8499 1957 107.742 281.07 431.051
307 0 129.621 12.4748 1617 111.75 281.058 434.413
308 0 133.5 11.0712 1478 113.708 280.216 428.07
309 0 139.351 12.7448 1776 110.386 279.479 429.751
310 1 70.1111 13.0365 914 112.277 278.342 461.615
311 0 74.1792 14.0471 1042 110.929 277.536 457.379
312 0 77.1422 11.239 867 113.915 277.159 457.581
313 0 80.1275 16.0744 1288 105.938 277.08 460.849
314 0 84.2783 14.3453 1209 110.526 276.009 449.792
315 0 85.2332 13.1404 1120 112.671 274.931 449.668
316 0 91.3346 14.8903 1360 107.613 275.058 452.934
317 0 92.3785 12.6112 1165 112.773 273.866 447.247
318 0 95.1113 14.9719 1424 108.481 273.08 444.335
319 0 100.191 12.2965 1232 111.679 272.72 441.498
320 1 53.1035 13.3324 708 104.102 272.5 462.757
321 0 52.0307 8.72562 454 110.463 273.848 459.366
322 0 53.0746 13.0948 695 101.568 274.807 463.847
323 0 60.1513 16.392 986 97.289 271.954 457.705
324 0 58.1151 11.2019 651 105.883 272.372 457.607
325 0 62.3025 12.5677 783 104.766 272.868 457.554
326 0 61.2625 10.9692 672 105.515 272.946 456.527
327 0 67.2693 14.3305 964 101.493 273.447 455.269
328 0 65.2287 10.3175 673 107.637 274.012 453.455
329 0 66.1113 12.2369 809 107.089 274.022 450.105
330 0 70.1778 14.2353 999 104.282 275.238 451.466
331 0 72.1406 14.5826 1052 105.988 275.904 446.72
332 0 70.2465 11.7017 822 111.157 276.988 445.231
333 0 74.3511 11.9702 890 110.961 277.082 445
334 0 76.3915 13.9675 1067 107.896 278.027 442.54
335 0 81.2097 15.343 1246 105.71 279.335 440.859
336 0 82.4257 12.2049 1006 109.795 279.847 443.044
337 0 86.2508 13.9013 1199 107.602 280.175 438.397
338 0 88.2505 13.3597 1179 108.763 281.144 439.409
339 0 93.4098 16.4651 1538 104.088 282.715 438.432
340 0 95.5963 14.08 1346 107.097 283.455 437.287
341 0 99.66 13.9274 1388 107.696 283.438 433.161
342 0 98.7759 10.6504 1052 111.046 284.466 439.561
343 0 106.716 14.4776 1545 106.845 285.06 432.896
344 0 107.602 12.4812 1343 109.797 284.877 428.911
345 1 58.5363 11.3776 666 108.363 287.045 460.55
346 0 58.3636 12.3707 722 108.283 285.929 456.676
347 0 57.2195 11.2899 646 109.806 286.3 461.7
348 0 61.4157 14.1332 868 106.858 285.373 458.026
349 0 63.3108 13.9471 883 107.123 285.451 461.044
350 0 67.3236 14.5417 979 105.062 285.484 461.229
351 0 66.2583 17.2054 1140 103.337 285.149 458.699
352 0 67.484 11.6768 788 111.511 284.382 461.385
353 0 70.3726 15.8158 1113 106.427 283.129 458.945
354 0 73.5111 12.5831 925 110.056 283.224 459.538
355 0 71.5664 14.2944 1023 109.261 281.954 455.113
356 0 77.355 15.2802 1182 106.482 282.122 458.681
357 0 78.6654 13.4875 1061 110.639 282.018 454.718
358 0 77.4814 12.1836 944 113.662 281.304 450.467
359 0 81.7289 13.765 1125 110.875 279.893 449.271
360 0 83.8145 14.9258 1251 106.302 279.193 450.819
361 0 84.2837 20.7869 1752 99.8904 278.945 444.82
362 0 87.4079 19.8952 1739 99.5336 279.186 446.099
363 0 92.5055 12.4641 1153 108.689 278.467 439.504
364 0 92.417 10.4418 965 111.394 278.085 439.768
365 0 96.4411 11.2193 1082 111.038 278.167 436.937
366 1 52.2756 9.8325 514 109.992 276.58 454.759
367 0 56.2068 16.1368 907 98.2834 276.501 461.343
368 0 55.0962 14.4656 797 98.8319 276.154 465.885
369 0 58.2112 11.9049 693 104.352 275.801 458.73
370 0 62.2417 17.6891 1101 97.7257 276.887 455.931
371 0 60.2497 12.3486 744 103.962 277.132 452.409
372 0 57.1409 10.2729 587 107.496 277.099 452.811
373 0 58.2851 9.71088 566 107.214 277.175 455.632
374 0 67.3492 14.8925 1003 100.881 278.863 446.478
375 0 70.2503 15.274 1073 100.129 280.088 443.719
376 0 70.3936 12.6148 888 103.048 279.171 451.19
377 0 76.3511 14.6167 1116 100.694 280.552 446.686
378 0 74.334 11.5829 861 105.4 280.823 443.115
379 0 80.3406 17.5876 1413 97.7707 282.019 445.2
380 0 79.4356 12.9665 1030 102.997 284.229 436.337
381 0 83.3984 13.7173 1144 102.182 284.365 434.397
382 0 88.4135 11.6498 1030 103.286 285.265 439.009
383 0 92.1879 18.7769 1731 95.8429 285.97 437.28
384 0 94.3326 13.0602 1232 101.839 285.942 434.295
385 0 96.3422 16.1715 1558 98.8177 285.924 435.11
386 1 48.179 14.7575 711 96.5527 286.935 464.481
387 0 52.1119 17.5008 912 94.1656 287.189 463.884
388 0 52.1209 10.7826 562 101.416 288.44 465.692
389 0 51.0975 18.5528 948 94.4705 287.406 460.128
390 0 53.2338 16.3242 869 95.7238 285.426 470.04
391 0 54.3351 13.3247 724 101.686 285.048 464.747
392 0 55.2504 13.466 744 101.582 285.435 463.937
393 0 57.1672 18.0173 1030 95.8932 283.412 463.92
394 0 60.2248 14.6451 882 98.4943 283.961 464.9
395 0 60.0956 12.3969 745 102.871 282.736 462.34
396 0 63.2293 13.9334 881 101.736 282.336 463.215
397 0 68.3576 16.1943 1107 97.1671 282.675 466.306
398 0 65.2673 11.6598 761 104.009 280.928 462.008
399 0 67.1674 12.9974 873 102.27 280.832 462.231
400 0 71.1105 14.7376 1048 100.007 281.353 459.725
401 0 74.426 15.0351 1119 98.6077 280.458 460.003
402 0 77.452 15.9841 1238 97.2504 279.859 454.281
403 0 78.5313 14.2109 1116 99.6066 279.323 453.991
404 0 82.3532 15.2878 1259 98.1986 278.821 453.354
405 0 82.5744 13.0307 1076 101.167 278.186 444.828
406 0 89.3809 22.902 2047 90.6903 276.894 448.137
407 0 88.4371 18.646 1649 95.6434 276.173 441.923
408 0 90.7397 11.4944 1043 102.896 276.33 444.198
409 0 100.851 7.21854 728 105.207 277.415 447.435
410 0 99.5222 15.4639 1539 100.11 276.311 438.283
411 0 101.378 15.7628 1598 97.1408 276.019 440.596
412 0 103.421 11.8835 1229 102.987 276.221 440.312
413 0 106.322 17.5222 1863 98.6226 275.886 436.066
414 0 110.6 15.6148 1727 100.102 276.572 434.34
415 1 62.3736 8.62545 538 99.3476 277.18 462.206
416 0 62.3989 12.8528 802 99.0499 278.353 449.419
417 0 63.6382 10.6383 677 101.108 278.679 447.211
418 0 67.3995 11.0683 746 100.58 278.828 446.832
419 0 69.5608 8.7693 610 103.738 279.821 446.972
420 0 71.306 13.2948 948 100.601 281.251 445.054
421 0 78.4353 14.4068 1130 98.1823 281.601 444.057
422 0 79.2986 17.6422 1399 95.7041 281.714 446.485
423 0 81.4646 13.6255 1110 102.5 282.85 441.635
424 0 82.2732 13.0419 1073 104.511 282.172 436.161
425 0 88.4526 14.0979 1247 102.077 283.626 441.966
426 0 90.3572 12.7715 1154 105.196 284.357 442.055
427 0 93.4552 11.3102 1057 106.941 284.469 442.901
428 0 95.413 12.5979 1202 108.115 285.479 437.229
429 0 99.34 15.3614 1526 104.063 286.406 443.267
430 0 105.322 15.9986 1685 105.204 287.277 437.195
431 1 55.2413 13.8121 763 105.465 286.928 463.524
432 0 58.3858 14.4042 841 106.486 287.096 461.923
433 0 59.3582 12.8205 761 108.42 287.466 464.539
434 0 58.2154 13.0721 761 111.293 287.74 459.226
435 0 60.1278 12.3404 742 112.908 287.543 458.828
436 0 64.3679 17.5087 1127 104.117 286.123 463.427
437 0 66.7131 13.5056 901 111.427 285.299 458.082
438 0 71.6654 14.0095 1004 108.305 285.163 461.341
439 0 72.4082 12.6367 915 111.78 283.887 461.185
440 0 74.7734 16.3695 1224 106.416 283.149 461.66
441 0 74.4477 16.2933 1213 107.857 282.189 460.092
442 0 81.9527 16.3875 1343 105.507 281.95 461.706
443 0 78.53 15.6373 1228 110.884 281.024 454.598
444 0 80.2776 14.7613 1185 111.004 280.761 456.743
445 0 84.4342 14.8755 1256 111.731 279.319 452.201
446 0 85.5883 12.5017 1070 116.116 279.762 449.964
447 0 88.727 12.9836 1152 115.762 279.49 450.354
448 0 91.578 16.445 1506 109.938 278.344 449.191
449 0 94.7399 15.094 1430 107.983 277.976 450.084
450 0 98.2029 15.2541 1498 108.632 278.41 441.309
451 1 51.2095 10.7597 551 110.75 279.581 462.933
452 0 50.4584 11.4748 579 110.952 278.371 456.019
453 0 51.1333 10.6584 545 111.894 278.618 457.059
454 0 53.2954 13.5284 721 107.764 278.028 453.649
455 0 56.409 13.4021 756 103.939 277.348 457.237
456 0 60.274 11.2154 676 102.642 274.499 457.365
457 0 62.2518 13.847 862 100.031 274.684 454.268
458 0 64.1175 11.4009 731 102.886 275.586 453.975
459 0 64.2454 13.4484 864 102.02 275.624 452.846
460 0 69.1185 10.0552 695 104.548 276.151 455.197
461 0 69.2851 11.5321 799 102.06 276.748 456.763
462 0 71.2964 12.441 887 103.103 277.548 450.938
463 0 72.4344 14.9791 1085 100.419 277.94 450.297
464 0 73.3753 11.0936 814 103.776 278.106 452.283
465 0 77.7791 11.9955 933 103.758 278.429 440.389
466 0 79.6325 15.9608 1271 99.3816 279.851 440.991
467 0 84.6229 14.1215 1195 97.7975 279.352 451.092
468 0 82.5353 11.4133 942 104.935 279.544 443.446
469 0 88.0332 14.1083 1242 99.347 280.52 449.349
470 0 90.8678 13.3601 1214 102.835 281.362 440.606
471 1 146.281 12.9819 1899 106.329 281.703 415.863
472 0 153.231 20.133 3085 98.7173 281.924 408.503
473 1 99.7098 14.462 1442 101.49 281.85 441.691
474 0 104.939 10.3107 1082 105.155 282.234 445.624
475 1 163.37 15.7434 2572 102.778 281.87 419.637
476 1 108.674 14.0144 1523 103.372 281.959 440.557
477 0 112.631 15.5641 1753 101.746 280.975 439.246
478 0 114.815 12.9426 1486 105.976 280.865 440.622
479 0 119.59 13.4376 1607 105.212 280.381 437.319
480 0 126.213 21.0438 2656 95.3456 279.424 441.202
481 0 126.29 14.2133 1795 104.683 279.058 439.482
482 0 132.379 18.2355 2414 102.816 278.838 436.493
483 0 134.425 12.8324 1725 109.454 277.204 438.429
484 1 72.149 15.2739 1102 102.568 276.25 467.546
485 0 73.0899 15.132 1106 103.719 274.338 464.138
486 0 77.1944 15.8949 1227 103.373 274.5 461.555
487 0 79.1516 13.8216 1094 106.515 274.027 461.558
488 0 81.147 14.5169 1178 105.551 273.492 457.752
489 0 82.2468 12.195 1003 109.832 272.533 458.996
490 0 85.1317 13.6494 1162 109.656 272.456 455.873
491 0 85.2044 13.4031 1142 110.884 270.706 456.239
492 0 87.3565 14.5152 1268 111.156 271.139 453.599
493 0 91.4885 14.3625 1314 111.345 270.715 453.717
494 0 99.4522 13.9263 1385 110.911 269.482 451.562
495 0 94.3113 12.8511 1212 116.828 269.059 447.285
496 0 97.2784 13.7749 1340 115.395 269.64 444.263
497 0 102.348 12.0081 1229 117.517 269.149 445.679
498 0 103.501 11.71 1212 112.663 269.766 440.073
499 0 108.217 13.8518 1499 110.898 270.202 443.08
500 0 112.288 13.6256 1530 109.778 270.245 441.61
501 1 63.1882 13.9425 881 106.822 269.892 456.753
502 0 65.2693 16.2098 1058 101.451 270.656 460.929
503 0 64.3445 17.4063 1120 96.5473 272.726 453.976
504 0 66.255 14.1876 940 100.098 272.293 454.538
505 0 68.3676 11.6283 795 101.215 273.34 456.753
506 0 69.1704 17.6087 1218 96.5599 274.174 449.47
507 0 73.3897 19.1716 1407 92.9225 274.119 457.186
508 0 76.3484 12.0762 922 101.857 276.874 446.102
509 0 76.087 12.88 980 101.833 277.08 448.028
510 0 75.173 8.58021 645 107.247 277.558 449.778
511 0 77.2157 9.726 751 103.727 279.029 453.328
512 0 78.1312 16.0243 1252 100.609 279.432 444.781
513 0 80.2586 11.1265 893 107.677 280.608 440.789
514 0 84.3324 13.7788 1162 100.86 280.268 451.662
515 0 87.1968 13.2459 1155 104.203 280.811 444.068
516 0 86.339 10.9452 945 113.514 278.528 445.915
517 0 93.4277 12.1805 1138 113.291 279.323 447.522
518 0 98.2964 12.2894 1208 112.756 279.083 446.824
519 0 98.2826 12.1588 1195 112.864 280.082 445.782
520 0 101.394 14.1232 1432 109.679 276.867 440.834
521 0 104.427 14.7472 1540 110.318 279.619 445.227
522 0 110.509 14.5418 1607 108.871 280.426 449.289
523 1 62.4036 11.9064 743 109.917 280.448 464.494
524 0 66.3668 13.0186 864 108.238 279.683 467.47
525 0 70.5588 17.0354 1202 101.726 278.562 466.735
526 0 69.2371 15.5119 1074 103.969 278.363 467.019
527 0 71.3456 12.2222 872 108.362 276.922 465.39
528 0 73.338 11.4675 841 109.766 276.948 464.243
529 0 76.2232 15.5202 1183 104.42 275.473 458.697
530 0 77.3466 13.5235 1046 107.774 275.587 461.909
531 0 81.5109 14.3294 1168 107.628 275.026 456.33
532 0 84.4129 15.5308 1311 105.362 274.149 458.185
533 0 87.4907 15.7388 1377 105.793 273.808 454.516
534 0 89.3368 14.3166 1279 109.805 273.65 453.342
535 1 44.1444 11.0546 488 109.543 273.52 474
536 0 48.1527 12.585 606 103.769 272.776 475.145
537 0 47.1775 8.90256 420 107.229 273.426 474.345
538 0 50.0521 12.9665 649 101.029 269.934 474.683
539 0 55.1439 13.6189 751 99.2037 270.724 470.483
540 0 54.0983 18.337 992 97.006 270.509 469.934
541 0 55.1965 12.1385 670 104.191 270.17 465.633
542 0 57.0485 12.6734 723 104.188 269.636 465.546
543 0 60.0693 12.6687 761 103.298 270.251 464.884
544 0 61.0768 13.6713 835 102.66 270.285 460.794
545 0 63.2427 13.5194 855 102.668 271.421 464.008
546 0 63.2427 13.5194 855 118.196 272.407 464.085
547 0 68.1674 12.8214 874 107.54 272.76 459.525
548 0 70.1202 15.502 1087 103.925 272.533 458.273
549 0 71.1686 14.1355 1006 104.537 272.954 458.137
550 0 76.1042 19.1185 1455 98.6007 274.364 452.663
551 0 78.2894 18.9681 1485 98.5906 274.339 452.949
552 0 79.0632 13.8876 1098 106.251 274.392 449.415
553 0 84.1748 17.8319 1501 100.921 274.466 446.65
554 0 84.1021 12.4135 1044 108.563 275.487 447.42
555 0 85.0798 12.6117 1073 105.328 275.892 446.601
556 0 90.1354 17.1187 1543 101.227 277.374 442.474
557 0 91.2311 11.8819 1084 107.728 278.45 444.697
558 0 93.4472 11.7071 1094 109.502 278.831 443.216
559 0 96.219 12.721 1224 108.765 280.007 441.984
560 1 49.174 10.3307 508 106.341 279.965 467.695
561 0 53.1917 12.0132 639 103.277 279.028 470.973
562 0 54.5082 15.649 853 99.4302 280.265 470.009
563 0 56.328 15.7826 889 99.414 279.935 470.035
564 0 58.343 15.9231 929 100.274 279.757 469.185
565 0 61.3393 17.3624 1065 98.5737 278.91 471.753
566 0 61.5125 17.0209 1047 98.1738 278.503 474.918
567 0 63.2918 13.6985 867 103.27 278.224 470.76
568 0 64.4372 14.3861 927 103.715 277.704 468.783
569 0 66.3007 17.9335 1189 98.8192 277.092 470.734
570 0 69.2584 17.5719 1217 99.1865 276.452 468.118
571 0 70.2796 14.3427 1008 104.025 275.859 465.412
572 0 72.2838 13.6407 986 105.634 275.609 462.732
573 0 75.3236 15.1082 1138 103.445 274.576 465.822
574 0 77.4235 13.4068 1038 106.166 274.12 464.988
575 0 81.2842 14.1725 1152 105.477 273.182 462.7
576 0 81.2299 13.5172 1098 106.555 272.626 465.135
577 0 83.2216 14.9601 1245 105.984 271.492 458.313
578 0 84.4501 13.3807 1130 109.906 271.585 451.834
579 0 89.6266 15.7989 1416 105.572 271.662 452.953
580 0 93.3758 14.4042 1345 107.923 270.647 453.465
581 0 95.7848 13.9897 1340 109.462 271.201 447.765
582 0 97.642 12.5663 1227 111.083 270.988 442.234
583 0 104.375 15.4348 1611 106.073 271.224 446.908
584 1 54.2147 11.6942 634 104.607 270.475 466.83
585 0 54.5436 12.6321 689 107.774 272.938 462.833
586 0 55.2482 12.2357 676 103.484 273.379 459.602
587 0 60.1878 12.5275 754 105.093 273.361 457.703
588 0 60.1554 10.7389 646 108.642 273.582 454.72
589 0 62.1858 11.4496 712 108.048 273.81 456.004
590 0 66.1901 11.0288 730 106.695 273.755 457.786
591 0 66.2171 10.9639 726 109.503 274.562 447.782
592 0 70.2755 14.2439 1001 104.324 274.733 450.634
593 0 68.6076 12.6371 867 108.17 276.225 448.911
594 0 72.3542 11.4852 831 110.604 276.409 445.176
595 0 74.675 14.6769 1096 105.963 276.731 446.326
596 0 79.2239 17.1287 1357 100.823 277.746 451.403
597 0 79.8807 12.7315 1017 109.742 278.669 439.153
598 0 80.5183 13.4628 1084 106.113 279.191 447.309
599 0 84.848 13.3769 1135 106.9 279.49 443.178
600 0 86.4038 16.8164 1453 103.363 279.53 439.025
601 0 89.4517 10.732 960 110.909 279.672 437.702
602 0 96.7827 17.5135 1695 100.507 279.768 443.842
603 0 98.6614 14.0176 1383 105.649 280.17 437.044
604 1 51.2618 11.1974 574 102.62 280.237 460.653
605 0 53.6879 12.7776 686 104.958 279.684 462.711
606 0 55.7247 12.8489 716 97.8715 279.642 465.133
607 0 52.3445 13.7168 718 97.9262 281.1 463.525
608 0 58.1472 13.2938 773 97.3066 279.603 465.173
609 0 56.2752 10.1999 574 100.533 279.833 465.904
610 0 61.2026 10.3754 635 100.929 280.156 464.211
611 0 61.2691 14.6567 898 95.9889 279.104 464.996
612 0 63.4847 17.5948 1117 93.6267 278.948 463.193
613 0 68.3043 14.3768 982 95.723 278.638 463.994
614 0 66.1437 16.6607 1102 95.2795 277.732 459.515
615 0 66.3664 12.1598 807 100.429 277.691 460.41
616 0 70.5824 11.4618 809 100.913 275.681 461.944
617 0 73.4206 14.0424 1031 98.031 275.043 459.966
618 0 77.5626 12.1708 944 101.862 275.364 453.059
619 0 76.4767 12.9974 994 101.436 274.466 448.63
620 0 81.3601 12.3402 1004 101.983 272.504 445.27
621 0 82.4522 11.0973 915 104.425 273.243 450.09
622 0 81.6788 12.5736 1027 105.961 272.812 443.58
623 0 90.3528 15.9265 1439 100.261 272.449 448.555
624 0 89.4102 17.6154 1575 101.092 273.061 438.703
625 1 43.1082 11.274 486 108.123 273.019 465.444
626 0 50.047 9.77081 489 108.241 272.808 465.558
627 0 55.5264 12.4986 694 97.8948 271.161 463.004
628 0 53.1828 6.7315 358 104.145 271.751 465.989
629 0 55.229 11.8778 656 102.486 272.535 459.104
630 0 54.3274 10.8785 591 104.474 273.002 456.191
631 0 59.6942 16.283 972 97.3549 273.12 457.541
632 0 58.3287 10.9037 636 105.706 273.002 451.653
633 0 63.3639 11.5839 734 103.847 275.023 453.268
634 0 66.2425 11.9561 792 102.241 275.237 454.336
635 0 66.3192 13.9175 923 101.021 275.821 453.323
636 0 67.3216 16.8297 1133 99.3813 276.478 449.233
637 0 71.4095 13.7797 984 103.51 277.057 446.208
638 0 74.3731 13.4188 998 103.617 276.92 449.289
639 0 75.3172 14.8041 1115 102.711 277.731 447.977
640 0 78.2054 11.4314 894 106.183 278.598 446.395
641 0 85.3615 13.0738 1116 105.092 279.332 445.007
642 0 86.3071 14.1703 1223 104.219 279.637 442.92
643 0 87.2039 9.35738 816 109.918 281.009 441.388
644 0 92.3262 16.2901 1504 99.8637 281.483 445.547
645 1 52.0512 13.3907 697 104.654 280.202 467.32
646 0 51.6467 11.9466 617 108.23 281.464 463.19
647 0 54.1776 13.5665 735 105.693 283.456 464.306
648 0 54.1635 13.0531 707 106.694 281.577 466.11
649 0 58.1089 12.7347 740 105.568 282.391 463.114
650 0 60.2512 16.1491 973 101.146 281.8 465.753
651 0 63.2368 15.2917 967 99.5698 281.898 470.719
652 0 62.0791 14.7393 915 103.035 281.545 464.027
653 0 63.0445 12.1026 763 106.571 281.771 463.02
654 0 68.2343 13.0433 890 104.018 281.022 467.446
655 0 69.0915 12.9973 898 105.445 281.352 463.826
656 0 74.294 15.0887 1121 100.939 280.426 464.789
657 0 71.2134 10.5879 754 108.777 279.107 463.036
658 0 78.1607 15.9927 1250 99.32 279.078 467.792
659 0 77.106 13.4231 1035 105.634 277.382 461.421
660 0 81.1131 14.1284 1146 104.966 277.408 456.998
661 1 45.0649 11.3392 511 104.02 277.051 474.513
662 0 45.1042 11.1741 504 103.784 276.167 474.835
663 0 41.2572 10.883 449 103.55 274.278 466.519
664 0 47.0351 8.67438 408 103.24 274.336 469.23
665 0 46.0446 7.51445 346 106.529 274.13 464.893
666 0 49.0596 9.72288 477 103.101 275.038 458.864
667 0 48.1526 11.2143 540 101.624 273.943 459.902
668 0 51.0932 15.0118 767 95.6675 274.327 459.284
669 0 55.3015 15.1533 838 97.4141 271.815 465.18
670 0 54.1733 14.2136 770 99.4364 271.688 463.177
671 0 55.1153 10.8318 597 103.437 271.437 461.997
672 0 58.2066 12.5587 731 101.073 270.984 459.889
673 0 60.253 11.0036 663 101.662 271.787 462.454
674 0 60.2884 13.8169 833 97.7119 273.546 452.942
675 0 60.2832 9.77055 589 103.168 272.786 453.117
676 0 63.2329 12.6833 802 100.185 274.257 452.818
677 0 62.4275 8.81022 550 105.131 275.2 445.891
678 0 67.3401 15.741 1060 97.0142 275.479 446.179
679 0 70.2595 13.6494 959 98.6309 275.777 451.834
680 0 73.2126 14.9701 1096 98.3978 276.652 446.366
681 0 76.2753 13.0186 993 101.054 276.46 447.5
682 0 76.2976 9.85614 752 105.117 276.836 445.775
683 0 82.3652 18.0052 1483 94.3345 278.428 449.335
684 0 84.4486 12.9665 1095 101.674 279.168 446.457
685 0 86.437 11.0485 955 104.168 279.573 444.397
686 1 45.0953 9.69059 437 103.684 277.682 470.325
687 0 49.1206 14.3931 707 97.2136 279.97 470.668
688 0 46.5828 8.78007 409 108.266 279.416 463.298
689 0 51.3201 13.4645 691 100.868 279.133 463.349
690 0 52.1777 12.4958 652 102.503 279.397 461.42
691 0 55.3212 13.3041 736 101.08 278.902 464.471
692 0 57.1284 15.4739 884 98.3473 278.717 463.316
693 0 58.2034 15.8754 924 98.0617 279.056 462.412
694 0 61.0992 12.9625 792 102.013 278.285 465.188
695 0 62.2395 13.7855 858 100.962 277.998 464.941
696 0 63.1606 11.3678 718 102.088 277.997 469.397
697 0 66.2297 12.7888 847 100.625 279.05 465.782
698 0 69.2034 12.1092 838 102.521 278.081 461.073
699 0 69.2769 13.3089 922 102.247 276.903 466.014
700 0 73.0906 13.5311 989 102.429 275.572 462.576
701 0 74.5695 15.0732 1124 100.297 274.676 459.442
702 0 75.1481 16.2479 1221 100.41 273.893 460.577
703 0 81.1555 17.6205 1430 99.1937 273.938 457.536
704 0 81.2593 14.2753 1160 104.379 273.307 459.766
705 0 82.2411 11.4055 938 109.386 272.452 457.342
706 0 86.3008 12.5839 1086 108.045 272.154 456.132
707 0 89.5834 15.0363 1347 104.819 272.353 456.113
708 1 45.0797 13.1545 593 105.772 273.056 474.352
709 0 48.217 13.5844 655 103.907 271.46 474.916
710 0 48.137 13.7524 662 100.533 271.396 471.02
711 0 49.1856 12.4223 611 102.985 272.265 464.74
712 0 49.229 11.4973 566 103.839 269.29 464.726
713 0 53.0656 13.097 695 100.603 271.387 465.364
714 0 51.0276 13.2085 674 103.065 270.453 462.325
715 0 55.1007 10.9617 604 105.712 271.439 458.426
716 0 57.1341 7.40363 423 106.924 271.806 461.721
717 0 58.1913 13.679 796 101.225 272.629 456.638
718 0 62.0638 15.0813 936 99.6987 271.984 456.858
719 0 64.0687 16.1389 1034 99.3878 273.469 452.787
720 0 67.3209 16.6962 1124 98.6512 274.197 455.951
721 0 72.1707 20.313 1466 94.7804 274.75 454.372
722 0 69.1107 20.3586 1407 94.4414 274.264 456.215
723 0 67.2284 12.8071 861 106.923 276.149 449.89
724 0 73.1642 11.3444 830 107.653 276.442 448.222
725 0 76.0775 11.0414 840 108.879 276.761 445.379
726 0 79.2241 12.8875 1021 110.244 276.148 449.074
727 0 84.2202 15.5426 1309 107.173 277.406 445.252
728 0 87.2316 14.4902 1264 108.718 277.832 444.918
729 1 43.0911 6.17297 266 112.289 278.068 464.365
730 0 48.1444 10.4477 503 105.704 278.93 468.777
731 0 48.232 8.54204 412 106.085 279.267 471.313
732 0 54.2214 17.3548 941 99.2806 281.558 470.992
733 0 52.1246 12.7771 666 101.605 279.869 468.033
734 0 53.087 9.83291 522 108.757 277.743 477.291
735 0 57.1388 15.8211 904 102.235 278.675 473.676
736 0 58.1565 12.5523 730 107.266 277.519 473.345
737 0 58.104 9.70673 564 112.259 278.378 474.888
738 0 63.3388 13.862 878 105.22 276.831 471.347
739 0 65.4001 13.1345 859 106.828 277.426 471.057
740 0 65.1647 11.54 752 109.093 276.375 472.738
741 0 65.1533 10.9895 716 111.62 276.268 468.918
742 0 70.1698 12.4698 875 108.907 275.352 467.213
743 0 75.227 15.6061 1174 103.999 275.415 469.194
744 0 75.3673 18.443 1390 100.572 275.351 468.473
745 0 77.2942 13.3386 1031 108.169 274.412 462.75
746 0 78.2492 12.4474 974 108.527 274.311 466.934
747 0 78.3267 10.5711 828 110.74 273.797 467.856
748 0 85.1992 14.9415 1273 107.532 273.544 459.568
749 0 90.3507 20.8631 1885 97.8881 273.516 463.312
750 1 44.0399 8.10629 357 118.213 272.244 476.776
751 0 48.085 11.8332 569 112.25 273.385 476.06
752 0 51.4322 12.9102 664 117.006 275.116 468.994
753 0 52.5997 10.4563 550 120.996 274.064 467.776
754 0 54.8507 15.0226 824 112.799 273.914 464.784
755 0 59.8256 14.7261 881 111.224 274.473 466.883
756 0 57.8937 13.2139 765 116.676 273.851 460.182
757 0 61.5221 16.108 991 111.213 274.733 460.544
758 0 63.5616 16.0632 1021 110.538 274.7 461.384
759 0 63.5123 13.7454 873 116.239 275.117 457.393
760 0 65.5202 13.1105 859 115.981 275.617 458.503
761 0 69.4108 12.9663 900 115.864 276.082 456.198
762 0 68.4615 11.4955 787 120.928 276.416 451.457
763 0 72.3967 17.3765 1258 107.558 276.661 454.83
764 0 73.4341 14.5437 1068 114.852 277.313 447.653
765 0 72.3403 10.4921 759 121.452 277.71 450.866
766 0 76.4168 17.0905 1306 109.92 277.319 447.031
767 0 79.4013 12.9343 1027 116.07 278.384 449.59
768 0 89.53 19.2673 1725 103.148 279.315 450.823
769 0 88.3646 22.1469 1957 101.56 279.11 441.33
770 0 90.3943 16.3838 1481 109.779 279.346 442.754
771 0 91.4387 13.8563 1267 114.11 280.323 443.062
772 0 91.4387 13.9 1271 143.517 281.316 443.13
773 1 55.2133 12.9317 714 111.377 282.069 465.873
774 0 50.1713 10.2848 516 109.733 279.671 462.484
775 0 56.2081 13.45 756 104.31 282.603 466.171
776 0 55.2388 12.1835 673 109.418 281.431 459.048
777 0 57.3469 11.9623 686 108.246 282.15 457.025
778 0 56.2079 10.1765 572 108.488 281.091 464.979
779 0 60.1315 12.3396 742 109.243 281.358 465.344
780 0 64.087 13.2944 852 111.295 281.649 464.231
781 0 63.2118 11.675 738 114.766 280.367 464.064
782 0 68.1765 12.7463 869 112.647 280.496 464.392
783 0 71.1664 13.4474 957 111.226 281.014 463.522
784 0 74.0805 15.4966 1148 108.416 279.176 461.137
785 0 75.1926 12.2619 922 113.624 279.389 459.187
786 0 80.1348 15.6362 1253 107.816 278.951 459.088
787 0 80.1548 12.6256 1012 113.128 278.256 457.83
788 0 84.1291 13.1227 1104 111.723 278.207 456.199
789 0 87.1942 15.0239 1310 108.501 276.566 455.706
790 0 85.3404 12.8544 1097 110.822 274.975 449.318
791 0 90.3729 14.5619 1316 109.568 275.062 443.356
792 0 94.5954 15.7936 1494 107.419 275.112 445.536
793 1 51.3196 12.276 630 108.421 272.425 466.946
794 0 51.2916 11.8928 610 110.151 272.357 464.987
795 0 55.0819 16.3575 901 106.331 272.2 465.017
796 0 57.153 15.0123 858 107.814 271.495 463.882
797 0 58.0921 14.8213 861 108.412 271.409 464.301
798 0 60.1818 18.1949 1095 105.313 271.736 461.695
799 0 61.1027 13.4691 823 110.405 271.536 465.333
800 0 62.0476 12.1036 751 113.601 273.289 461.812
801 0 64.0596 15.0953 967 109.085 272.548 456.525
802 0 67.09 13.385 898 110.458 273.67 454.969
803 0 69.171 17.3338 1199 104.536 274.012 455.55
804 0 73.1677 13.7766 1008 107.639 273.453 456.854
805 0 75.099 14.2345 1069 107.5 274.644 449.637
806 0 79.1406 16.7297 1324 104.208 275.121 448.428
807 0 77.1658 13.9829 1079 108.618 275.601 448.29
808 0 82.2193 18.3047 1505 101.643 275.996 450.867
809 0 81.1321 14.236 1155 109.583 277.372 443.739
810 0 86.4463 17.722 1532 103.712 278.947 446.972
811 0 86.3974 14.0051 1210 110.256 278.462 439.735
812 0 95.7219 11.5021 1101 112.43 280.966 444.329
813 1 50.5624 11.6885 591 105.653 281.983 467.129
814 0 51.3968 11.8879 611 107.01 281.697 465.682
815 0 50.0903 11.1199 557 111.542 282.634 465.262
816 0 52.1568 11.0053 574 104.559 281.085 469.833
817 0 53.13 10.7472 571 107.186 282.545 466.124
818 0 53.3268 10.8951 581 108.201 282.263 465.95
819 0 56.0541 13.7724 772 104.464 281.956 464.992
820 0 58.3202 12.2256 713 106.414 281.429 464.429
821 0 59.1631 11.2063 663 106.308 281.471 470.104
822 0 63.2453 12.5543 794 104.576 281.853 468.383
823 0 64.2288 12.9848 834 106.941 281.487 463.695
824 0 66.2768 10.8334 718 110.623 280.581 462.993
825 0 68.316 12.6325 863 106.745 280.696 466.875
826 0 71.2808 12.8927 919 107.294 279.792 464.639
827 0 74.2273 12.2192 907 107.502 280.516 463.743
828 0 77.3165 15.5724 1204 103.206 279.134 460.977
829 0 85.4796 18.7998 1607 97.3217 277.65 464.642
830 0 84.4498 13.215 1116 105.941 276.881 461.055
831 1 47.0774 11.2581 530 106.466 278.117 476.425
832 0 50.0574 11.367 569 106.833 278.095 474.965
833 0 50.264 13.2699 667 104.846 277.297 473.147
834 0 49.0653 11.8618 582 109.201 276.301 469.244
835 0 51.1833 10.2963 527 111.757 277.004 468.493
836 0 54.0754 12.3346 667 109.24 276.012 466.934
837 0 55.067 15.6536 862 104.684 275.528 466.057
838 0 56.1165 11.2445 631 113.182 275.781 464.578
839 0 60.3023 14.3776 867 107.209 275.125 464.751
840 0 62.1033 14.6047 907 106.624 276.249 464.513
841 0 65.0634 16.6146 1081 105.06 275.006 459.561
842 0 67.3127 15.1532 1020 107.028 275.078 456.802
843 0 67.0589 13.5553 909 109.607 275.942 456.536
844 0 68.0661 11.7239 798 112.456 275.728 455.684
845 0 72.0803 14.9278 1076 107.565 276.858 452.872
846 0 72.1367 12.6011 909 112.009 276.842 449.358
847 0 76.1583 17.7394 1351 104.266 277.326 449.366
848 0 75.2439 13.5559 1020 111.393 278.134 444.522
849 0 78.135 13.6431 1066 111.084 278.555 447.115
850 0 81.087 12.7024 1030 112.141 279.175 442.15
851 0 85.4323 13.0513 1115 111.474 280.512 443.39
852 0 86.2722 13.7472 1186 111.379 279.872 442.84
853 0 92.2434 18.8957 1743 103.639 280.505 436.982
854 0 93.2504 16.579 1546 107.042 281.068 442.098
855 0 96.3903 14.1508 1364 110.654 280.324 436.115
856 1 55.0465 10.2822 566 108.843 281.528 466.067
857 0 52.122 13.6986 714 109.384 282.367 461.119
858 0 54.1266 11.2514 609 115.133 282.1 459.814
859 0 57.2553 10.6016 607 115.634 283.634 461.313
860 0 59.1264 13.2259 782 111.012 282.803 462.121
861 0 60.1607 12.8655 774 110.7 283.183 461.081
862 0 63.108 11.0129 695 114.479 283.799 456.201
863 0 66.1211 14.5944 965 108.172 282.638 459.791
864 0 67.3722 13.0469 879 109.907 284.038 460.684
865 0 70.2403 13.4111 942 109.29 283.235 461.76
866 0 71.0664 12.2561 871 111.041 282.654 459.938
867 0 72.1436 12.2533 884 108.839 282.57 462.821
868 0 76.1354 12.7536 971 109.027 281.234 457.479
869 0 79.1367 14.4813 1146 104.092 280.879 463.418
870 0 82.1964 12.4945 1027 107.42 281.175 461.312
871 0 79.0757 12.9876 1027 105.198 280.096 458.217
872 0 83.2442 14.5115 1208 102.943 279.273 457.37
873 0 87.1653 14.6159 1274 104.07 278.444 453.529
874 0 87.1311 11.3737 991 105.304 278.062 452.97
875 0 91.3144 13.2838 1213 104.192 277.633 450.167
876 0 93.5093 13.2714 1241 105.121 276.936 450.297
877 0 96.2374 12.4068 1194 105.551 276.217 452.493
878 0 98.2898 14.9965 1474 103.716 275.262 446.781
879 1 54.1373 11.7479 636 103.704 276.409 471.179
880 0 55.3493 10.6957 592 102.228 276.014 471.909
881 0 58.3009 15.6258 911 97.9671 275.681 464.328
882 0 58.259 14.1266 823 100.793 275.067 463.583
883 0 57.2336 12.9469 741 102.011 274.958 462.574
884 0 61.2811 12.565 770 103.005 275.038 464.491
885 0 63.2196 11.2307 710 105.09 275.651 462.817
886 0 66.252 15.4411 1023 100.674 274.794 458.623
887 0 65.3078 12.9081 843 104.867 275.515 456.561
888 0 70.3488 13.8453 974 101.9 276.402 456.246
889 0 69.2355 12.8258 888 103.319 276.231 456.122
890 0 72.1368 14.3062 1032 102.648 277.096 450.324
891 0 74.2486 12.512 929 105.537 277.623 449.33
892 0 80.2788 18.2738 1467 97.9857 277.044 449.795
893 0 80.5011 12.3849 997 105.695 278.237 441.553
894 0 83.164 13.9604 1161 104.779 278.207 444.882
895 0 88.2285 17.194 1517 100.744 278.905 446.76
896 0 88.2982 13.1939 1165 107.203 280.079 441.815
897 0 93.2754 15.5025 1446 102.442 280.376 449.717
898 0 90.2868 10.0568 908 109.626 280.798 441.685
899 1 51.2458 14.8695 762 101.143 281.919 465.366
900 0 56.2364 11.256 633 104.457 282.493 467.746
901 0 55.1845 13.2827 733 102.742 283.381 466.333
902 0 54.156 13.3688 724 105.13 281.32 466.065
903 0 57.2598 13.0807 749 100.833 281.833 467.884
904 0 58.29 10.5164 613 103.519 281.047 467.77
905 0 60.2504 12.614 760 101.813 281.071 466.759
906 0 63.2137 16.9267 1070 97.2187 281.499 465.558
907 0 63.1284 11.2945 713 103.933 280.623 466.492
908 0 67.2369 13.8912 934 100.742 279.937 464.303
909 0 70.2128 11.6503 818 103.485 280.068 464.374
910 0 70.3632 12.2791 864 103.193 280.046 462.215
911 0 71.1462 10.2324 728 105.386 279.298 466.341
912 0 77.3649 16.196 1253 99.0415 280.113 459.765
913 0 77.2554 12.7888 988 103.351 278.792 459.942
914 0 81.3606 11.5658 941 105.062 277.952 457.709
915 0 82.1857 10.4398 858 106.03 278.287 453.458
916 0 89.3688 14.8038 1323 100.215 276.58 456.53
917 0 91.1951 13.9152 1269 102.927 276.314 453.691
918 0 91.3789 12.4536 1138 105.942 277.069 447.336
919 1 49.2254 9.91359 488 106.014 274.898 471.074
920 0 48.09 11.2289 540 107.833 275.596 467.931
921 0 51.2458 11.2985 579 111.121 274.655 463.086
922 0 54.2656 13.7103 744 105.167 274.585 466.575
923 0 56.2549 11.1279 626 106.359 273.137 460.989
924 0 56.1425 11.5243 647 106.403 273.623 462.833
925 0 61.2749 13.0559 800 103.199 273.921 461.715
926 0 62.2132 14.6111 909 101.802 273.88 461.351
927 0 63.1055 17.3836 1097 99.4695 273.24 455.77
928 0 64.2775 12.6638 814 105.075 273.681 456.606
929 0 66.2568 10.6706 707 108.26 274.823 457.919
930 0 70.3884 11.2518 792 106.659 275.499 452.573
931 0 72.2447 15.9458 1152 103.158 275.346 445.356
932 0 74.4289 14.3224 1066 104.985 276.189 445.621
933 0 79.2073 13.3952 1061 105.834 276.391 443.336
934 0 79.3796 12.0812 959 107.464 277.083 443.425
935 0 86.292 14.7754 1275 102.42 277.293 445.981
936 0 85.359 13.8942 1186 106.457 278.81 438.632
937 0 90.2626 14.1698 1279 105.876 279.178 441.367
938 0 92.3703 12.0926 1117 109.972 279.356 435.595
939 0 94.2492 16.0108 1509 105.537 279.92 437.576
940 0 96.2398 17.4252 1677 104.163 279.671 436.543
941 0 101.422 16.7814 1702 105.4 279.798 434.922
942 0 106.323 13.9575 1484 109.841 279.875 432.996
943 0 108.232 15.2819 1654 108.891 279.783 431.212
944 0 113.418 16.5846 1881 106.81 281.349 435.273
945 0 115.582 13.3584 1544 113.153 281.099 427.7
946 1 62.2179 14.3367 892 114.985 280.456 453.923
947 0 63.2934 13.6191 862 115.596 280.367 455.304
948 0 68.2275 15.6242 1066 113.84 281.559 458.362
949 0 71.5084 15.1591 1084 113.007 280.738 453.208
950 0 71.5018 15.552 1112 113.623 281.031 452.366
951 0 76.4162 15.8867 1214 110.906 280.33 454.997
952 0 78.203 15.4214 1206 113.337 280.198 452.537
953 0 82.5716 15.32 1265 110.233 279.947 458.076
954 0 85.3231 14.7088 1255 113.512 279.502 450.641
955 0 87.432 15.0403 1315 113.501 279.354 448.925
956 0 92.2171 13.7935 1272 115.171 279.402 449.082
957 0 94.4063 16.7256 1579 108.972 278.701 453.875
958 0 97.1249 14.4865 1407 113.672 278.188 447.394
959 0 101.519 16.066 1631 111.291 276.999 445.454
960 0 103.33 11.8068 1220 117.808 277.316 447.107
961 0 106.234 16.1719 1718 111.582 276.132 437.402
962 0 111.409 12.9792 1446 115.511 276.286 443.708
963 1 57.2069 15.8198 905 102.998 275.049 468.968
964 0 62.1198 15.776 980 102.497 274.483 470.157
965 0 63.337 15.5675 986 101.571 274.401 466.4
966 0 64.3261 13.9912 900 105.726 274.251 461.849
967 0 66.2503 14.098 934 105.141 273.931 466.554
968 0 68.2683 16.3912 1119 103.284 273.829 458.252
969 0 69.3023 15.2953 1060 104.205 273.247 461.042
970 0 69.2644 10.4094 721 112.031 273.904 456.65
971 0 73.3068 13.5594 994 107.361 273.967 453.179
972 0 76.2879 13.2393 1010 107.161 274.75 453.198
973 0 73.3569 14.3 1049 105.781 273.654 449.831
974 0 78.3282 14.4137 1129 106.949 274.74 440.32
975 0 80.3638 14.5588 1170 105.632 274.528 446.43
976 0 81.5935 12.3784 1010 109.1 275.76 443.45
977 0 84.4313 15.1958 1283 107.946 275.877 437.494
978 0 88.303 13.7368 1213 109.822 276.979 437.915
979 0 89.522 14.5662 1304 111.254 276.937 436.304
980 0 89.211 11.6802 1042 119.151 278.299 439.313
981 0 98.5889 14.1801 1398 114.829 279.528 438.77
982 1 54.3859 12.8526 699 108.232 278.793 456.7
983 0 55.2958 13.4368 743 112.242 280.065 451.832
984 0 58.217 13.8276 805 107.945 280.434 453.447
985 0 57.3347 14.3892 825 102.25 280.83 455.258
986 0 60.2323 13.1491 792 102.789 280.912 453.28
987 0 62.1956 10.0329 624 109.593 281.49 452.345
988 0 66.176 15.3379 1015 103.925 280.72 452.221
989 0 68.6836 16.394 1126 97.0098 281.951 452.294
990 0 68.5144 16.9453 1161 98.8639 280.826 453.736
991 0 70.1723 12.0703 847 102.345 281.614 449.809
992 0 72.3918 17.4882 1266 96.7077 281.569 446.419
993 0 76.3704 19.3792 1480 97.2926 281.229 445.366
994 0 80.593 17.3464 1398 96.6638 281.139 446.252
995 0 82.4031 11.3952 939 106.036 279.977 446.288
996 0 82.2476 16.1342 1327 100.954 281.133 445.517
997 0 86.5892 13.1772 1141 112.657 280.705 445.679
998 0 90.3327 12.299 1111 110.775 279.734 444.795
999 1 50.1426 4.58692 230 115.596 279.883 471.983
1000 0 54.3365 10.4718 569 117.018 278.935 469.496
1001 0 50.074 9.80549 491 115.998 278.919 466.114
1002 0 54.0567 12.8384 694 111.293 276.971 463.21
1003 0 55.4101 8.93339 495 114.362 275.933 461.996
1004 0 59.6443 7.15911 427 114.855 276.19 459.963
1005 0 59.6526 11.3993 680 111.751 275.663 457.101
1006 0 62.4373 15.4075 962 104.69 275.515 459.674
1007 0 66.715 12.7557 851 109.326 274.698 456.348
1008 0 68.5087 13.2976 911 105.235 274.215 461.25
1009 0 69.3089 12.1485 842 109.602 274.816 452.827
1010 0 69.4872 13.7723 957 107.684 274.503 454.114
1011 0 74.2487 9.87222 733 111.55 275.885 452.181
1012 0 76.1998 11.5355 879 109.049 275.289 449.185
1013 0 81.6897 12.168 994 107.318 274.947 449.704
1014 0 83.182 12.5628 1045 111.708 276.05 446.879
1015 0 86.2443 14.1922 1224 107.027 269.078 443.921
1016 0 90.3127 17.0851 1543 102.959 270.422 441.267
1017 1 47.099 16.0301 755 97.1285 276.588 460.196
1018 0 48.0254 9.53661 458 104.332 276.808 461.882
1019 0 48.3693 12.4873 604 99.8493 275.437 457.517
1020 0 52.1078 10.6126 553 104.016 277.844 459.264
1021 0 52.1063 12.2442 638 106.517 278.296 462.31
1022 0 56.0531 9.72293 545 111.556 274.651 460.972
1023 0 56.0731 11.2888 633 110.251 275.52 457.772
1024 0 58.2507 11.9312 695 108.609 275.537 459.613
1025 0 61.1099 10.2929 629 111.568 277.812 458.062
1026 0 64.251 14.0231 901 104.307 277.209 461.168
1027 0 62.1373 13.2127 821 107.53 279.022 458.28
1028 0 62.1164 10.0296 623 113.979 278.902 458.819
1029 0 66.2769 11.8895 788 109.263 279.404 460.2
1030 0 68.1715 12.2632 836 110.295 278.207 454.488
1031 0 69.2611 10.0201 694 109.602 280.658 453.605
1032 0 71.3381 11.6067 828 108.318 281.045 448.122
1033 0 76.1846 14.0186 1068 104.08 281.149 453.919
1034 0 75.3674 9.60627 724 110.552 281.018 449.446
1035 0 81.5107 12.1579 991 107.161 281.476 452.593
1036 0 83.4738 12.2553 1023 107.345 280.47 450.496
1037 0 86.2529 12.8575 1109 107.008 279.933 463.491
1038 1 46.0684 8.8781 409 112.99 283.174 473.851
1039 0 48.1229 10.494 505 109.574 282.863 476.828
1040 0 47.067 11.473 540 102.619 281.776 473.17
1041 0 47.3126 9.82824 465 102.596 279.735 470.581
1042 0 49.1166 10.8721 534 101.816 277.603 470.541
1043 0 50.1446 19.1247 959 93.3545 277.2 467.091
1044 0 53.0545 11.6673 619 101.507 276.636 467.947
1045 0 52.103 9.34686 487 105.324 275.747 466.322
1046 0 52.1752 12.6305 659 101.303 275.982 465.124
1047 0 57.3456 10.0095 574 104.411 274.622 468.554
1048 0 58.3339 12.377 722 101.687 274.92 468.551
1049 0 61.2738 12.6971 778 102.221 274.772 467.634
1050 0 59.2229 11.7691 697 103.482 272.825 467.419
1051 0 62.3076 11.2346 700 104.843 274.003 465.311
1052 0 62.2931 11.3175 705 117.138 274.027 465.265
1053 0 67.1937 11.2659 757 105.127 272.819 459.551
1054 0 69.2744 11.5194 798 103.98 272.957 464.736
1055 0 67.4002 12.6112 850 105.975 274.452 457.129
1056 0 72.398 15.4148 1116 101.749 274.368 458.218
1057 0 73.3108 13.0677 958 106.8 274.378 450.028
1058 0 79.3775 11.9681 950 107.835 273.901 451.471
1059 0 78.3259 10.9415 857 111.081 274.189 452.924
1060 0 85.3903 15.8683 1355 103.287 275.337 452.553
1061 0 85.3199 13.9475 1190 109.008 275.599 445.219
1062 0 86.1683 15.5626 1341 106.295 276.113 451.316
1063 1 101.238 9.56161 968 113.539 275.697 447.72
1064 0 96.3452 12.4137 1196 111.952 275.999 437.301
1065 0 96.3398 12.1549 1171 111.087 276.553 445.871
1066 1 51.1461 8.73968 447 112.877 275.347 465.152
1067 0 52.1044 12.1487 633 107.311 275.975 461.687
1068 0 53.3125 11.7046 624 108.47 278.207 460.845
1069 0 54.2266 13.0194 706 109.224 277.683 462.324
1070 0 58.4181 14.7215 860 105.44 278.996 461.586
1071 0 59.5091 13.8634 825 106.035 279.658 462.978
1072 0 60.3132 12.1367 732 109.951 279.314 463.829
1073 0 67.2268 16.7195 1124 100.823 279.503 466.613
1074 0 65.258 13.868 905 106.666 280.783 462.046
1075 0 69.3113 12.2347 848 108.338 280.199 464.399
1076 0 68.3913 11.595 793 111.303 281.174 460.744
1077 0 72.3081 10.5936 766 111.162 280.885 465.324
1078 0 76.2311 12.9737 989 110.309 280.675 459.895
1079 0 78.3393 11.4757 899 112.669 280.701 463.148
1080 0 79.4994 13.4341 1068 109.002 279.218 462.931
1081 0 81.561 13.3274 1087 111.987 279.558 458.441
1082 0 88.5016 14.7907 1309 108.684 279.672 457.636
1083 0 90.4096 13.107 1185 112.467 279.419 455.944
1084 0 95.4128 14.7255 1405 109.442 278.786 455.016
1085 1 51.2241 10.3857 532 111.288 277.56 468.442
1086 0 53.3728 13.2652 708 104.333 277.527 471.047
1087 0 55.2975 14.5395 804 105.315 276.308 467.975
1088 0 56.0677 12.7346 714 108.111 275.357 469.591
1089 0 59.234 11.9019 705 109.472 274.952 468.125
1090 0 60.0518 13.3551 802 107.935 273.915 468.707
1091 0 61.1016 13.6494 834 107.177 275.547 471.886
1092 0 64.1931 13.6463 876 107.67 274.6 470.471
1093 0 66.2972 15.1892 1007 104.505 274.074 469.782
1094 0 68.2603 15.1625 1035 105.588 272.868 465.046
1095 0 70.266 15.5125 1090 104.936 273.105 466.587
1096 0 70.266 15.5694 1094 117.879 274.108 466.499
1097 0 75.2983 12.0985 911 109.774 272.824 462.482
1098 0 75.2983 12.0189 905 139.51 270.827 462.442
1099 0 80.4151 14.9847 1205 106.918 272.751 455.433
1100 0 84.3684 11.8528 1000 112.192 272.774 451.017
1101 0 85.2498 12.481 1064 110.941 272.76 452.481
1102 0 91.1981 14.5288 1325 107.607 272.581 442.848
1103 0 93.1597 13.0636 1217 109.29 272.707 452.864
1104 1 50.1189 11.8917 596 109.401 272.893 468.284
1105 0 51.2926 12.1655 624 109.712 275.274 463.32
1106 0 52.2354 11.429 597 111.503 275.534 460.543
1107 0 53.1265 14.0043 744 102.629 273.573 459.192
1108 0 55.3013 12.1335 671 105.037 276.559 458.142
1109 0 54.1776 9.2289 500 109.236 276.012 458.134
1110 0 62.1597 14.5432 904 99.7445 277.458 457.868
1111 0 61.3379 10.0753 618 107.092 277.84 455.85
1112 0 62.1763 12.4646 775 103.459 278.364 455.372
1113 0 63.1729 12.2996 777 104.174 278.4 454.651
1114 0 66.2707 14.6218 969 100.621 278.44 454.881
1115 0 63.1143 9.42733 595 109.084 279.412 450.486
1116 0 70.2481 13.0395 916 103.516 280.163 451.561
1117 0 71.2347 8.844 630 111.556 279.621 451.027
1118 0 75.215 12.4177 934 106.797 282.064 454.226
1119 0 75.1069 8.3481 627 110.298 280.018 450.322
1120 0 78.2804 12.9407 1013 105.39 280.289 449.535
1121 0 82.1902 9.45368 777 111.367 279.461 448.494
1122 0 78.3254 8.14551 638 114.925 279.657 447.404
1123 0 84.4648 10.5251 889 111.291 279.501 453.417
1124 0 93.354 13.2614 1238 106.33 278.869 450.978
1125 0 91.2515 13.7751 1257 105.717 278.953 452.992
1126 1 49.118 11.7269 576 104.319 279.177 466.599
1127 0 52.1505 9.26166 483 110.308 279.727 474.694
1128 0 56.223 8.50186 478 112.797 278.69 469.887
1129 0 57.0511 11.5686 660 108.717 278.83 472.285
1130 0 59.1484 12.4264 735 108.136 277.517 471.482
1131 0 61.1276 11.5332 705 109.448 277.626 469.472
1132 0 62.1083 11.0613 687 109.812 276.277 470.82
1133 0 62.3366 10.2829 641 107.538 274.652 470.583
1134 0 67.1443 13.4784 905 101.526 273.074 468.612
1135 0 69.1117 14.2233 983 102.715 274.116 463.607
1136 0 70.2687 11.6553 819 104.711 272.948 463.48
1137 0 74.2582 12.9279 960 102.606 272.956 459.744
1138 0 76.2346 9.98234 761 105.661 273.127 462.23
1139 0 79.2612 13.323 1056 101.412 272.102 459.64
1140 1 41.1692 8.33147 343 102.933 273.685 477.755
1141 0 41.0837 7.49689 308 108.201 273.481 472.88
1142 1 88.1987 12.3244 1087 105.244 271.79 453.348
1143 1 51.5669 10.8015 557 100.239 273.596 473.418
1144 0 50.2053 9.93918 499 104.325 273.579 469.064
1145 0 52.0683 13.7896 718 98.7618 273.896 469.574
1146 0 52.1069 9.49971 495 103.461 272.693 471.45
1147 0 53.2554 11.3604 605 103.818 272.856 466.41
1148 0 54.2848 11.6607 633 103.098 273.058 466.172
1149 0 55.3444 11.6001 642 101.29 274.495 468.34
1150 0 57.2549 11.5099 659 103.206 274.083 459.276
1151 0 62.2222 14.8179 922 98.4696 274.742 458.949
1152 0 61.2549 15.1825 930 100.438 275.529 459.604
1153 0 64.2194 11.6787 750 103.98 275.439 459.209
1154 0 63.2416 11.7644 744 118.759 275.45 459.059
1155 0 66.1844 12.3896 820 104.266 277.024 460.274
1156 0 67.4064 10.3848 700 107.156 277.107 451.141
1157 0 71.6946 10.8934 781 105.962 278.095 456.209
1158 0 72.5063 13.8333 1003 102.46 278.456 453.805
1159 0 75.466 10.4948 792 111.5 278.771 452.063
1160 1 145.71 14.1926 2068 109.549 278.715 419.685
1161 0 151.14 12.7299 1924 110.589 280.384 423.933
1162 1 84.3165 11.4213 963 104.794 279.331 448.66
1163 0 84.2788 9.62283 811 108.79 280.254 446.744
1164 0 87.3683 12.0295 1051 104.421 278.962 452.312
1165 0 91.3618 13.8898 1269 102.044 279.385 453.474
1166 0 92.3583 16.4576 1520 99.5612 279.25 451.258
1167 0 96.5653 10.8528 1048 104.611 278.766 443.751
1168 1 52.3558 13.7903 722 99.4917 278.981 472.27
1169 0 56.1604 10.7015 601 102.306 278.842 473.589
1170 0 56.2433 10.2946 579 99.6079 278.637 467.751
1171 0 60.191 15.1185 910 100.801 279.015 476.006
1172 0 60.2866 13.27 800 105.536 277.836 469.795
1173 0 61.3093 12.3472 757 106.448 277.715 469.742
1174 0 63.3916 12.5095 793 106.276 276.303 471.415
1175 0 69.3965 14.5685 1011 101.279 275.192 472.006
1176 0 67.5627 11.086 749 108.047 274.889 468.67
1177 0 68.4648 13.2185 905 104.931 273.902 464.861
1178 0 73.3364 13.7722 1010 103.959 273.328 464.209
1179 0 75.3206 15.1087 1138 102.337 272.908 462.952
1180 0 79.3006 14.2874 1133 102.434 272.68 460.057
1181 0 79.2966 14.4142 1143 101.873 271.384 462.68
1182 0 82.4834 12.5359 1034 105.247 271.857 460.086
1183 0 83.3942 14.0058 1168 104.639 272.562 456.534
1184 0 88.644 18.1851 1612 98.5912 271.993 448.158
1185 1 47.0855 5.79796 273 106.586 269.952 477.311
1186 0 53.2322 11.7034 623 100.9 269.051 472.873
1187 0 52.1461 8.57207 447 105.792 269.919 470.36
1188 0 52.1461 8.55289 446 148.13 269.91 470.397
1189 0 57.431 17.2033 988 96.0455 270.708 465.153
1190 0 56.1536 12.1275 681 101.966 270.621 466.43
1191 0 61.4046 17.3277 1064 95.1071 271.992 464.196
1192 0 61.2713 15.1784 930 99.972 271.286 460.405
1193 0 63.3272 16.7858 1063 97.9614 272.719 459.713
1194 0 65.4422 20.8734 1366 92.8346 274.092 460.567
1195 0 68.379 15.5018 1060 99.6896 273.776 455.066
1196 0 72.3138 15.8476 1146 98.8281 274.994 455.631
1197 0 74.9912 12.7882 959 103.749 276.503 452.983
1198 0 73.8955 13.1402 971 102.965 276.244 454.584
1199 0 82.5567 16.2797 1344 99.0238 276.338 447.567
1200 0 76.5569 13.8459 1060 104.503 276.62 446.841
1201 0 81.6174 14.2617 1164 103.946 277.699 447.491
1202 0 83.7844 13.5347 1134 104.093 277.548 450.798
1203 0 87.0872 16.2136 1412 101.413 278.207 449.877
1204 0 88.8149 16.4274 1459 102.098 277.964 443.709
1205 0 91.9063 15.8857 1460 101.621 278.472 448.685
1206 0 95.6991 19.0702 1825 98.5606 278.846 451.393
1207 0 96.7851 17.8436 1727 99.6775 278.657 446.43
1208 0 100.625 19.1006 1922 99.5458 279.098 448.608
1209 0 102.711 17.0089 1747 103.211 279.207 448.929
1210 0 107.92 18.0782 1951 101.34 279.023 446.525
1211 0 113.125 17.6001 1991 101.421 278.201 446.462
1212 0 113.168 15.7112 1778 103.857 278.796 442.604
1213 0 113.75 17.5736 1999 99.3647 277.695 445.072
1214 0 119.993 18.2427 2189 98.8291 277.787 442.485
1215 0 120.903 13.2337 1600 106.082 276.919 436.841
1216 1 66.4155 10.5096 698 108.342 275.706 461.569
1217 0 71.4814 14.7171 1052 101.26 275.637 463.15
1218 0 74.5594 12.8756 960 106.561 274.519 459.953
1219 0 80.5652 17.5634 1415 99.5604 274.241 460.082
1220 1 93.8307 14.1318 1326 102.002 273.793 458.201
1221 0 89.3286 13.2544 1184 104.099 273.207 459.266
1222 0 87.7319 14.3163 1256 104.695 272.958 453.727
1223 0 86.4594 12.2832 1062 108.084 272.354 455.077
1224 0 91.5681 14.0005 1282 105.16 272.107 451.73
1225 0 94.6088 13.5611 1283 107.364 271.881 448.936
1226 0 97.7725 14.3599 1404 105.786 272.359 447.613
1227 0 100.902 15.3316 1547 104.356 271.952 446.176
1228 0 104.733 14.7327 1543 103.426 272.308 447.82
1229 0 106.53 16.4555 1753 103.213 272.018 437.421
1230 0 107.327 16.883 1812 98.7081 270.693 436.187
1231 0 111.508 17.0212 1898 95.1201 270.718 444.453
1232 1 56.123 9.40792 528 101.684 270.581 456.833
1233 0 61.0489 10.6472 650 101.283 273.772 455.995
1234 0 65.2753 16.484 1076 89.9396 273.033 458.072
1235 0 66.2506 10.6716 707 96.5389 273.235 456.457
1236 0 67.3087 19.6409 1322 88.9365 273.267 452.076
1237 0 71.5499 12.369 885 94.4068 275.219 455.377
1238 0 71.1874 16.576 1180 89.828 274.274 454.948
1239 0 75.2208 11.2469 846 96.9102 275.878 444.68
1240 0 74.1516 11.6383 863 97.1866 276.108 445.516
1241 0 78.3353 13.4294 1052 94.0285 276.915 448.448
1242 0 81.4939 14.59 1189 93.2363 278.303 439.803
1243 0 83.244 13.2502 1103 94.9374 279.193 445.201
1244 0 83.2702 10.6761 889 99.6738 279.38 445.155
1245 0 90.3607 13.756 1243 95.6034 279.693 444.222
1246 0 90.3227 15.3339 1385 94.2079 280.115 450.343
1247 0 94.3946 11.7697 1111 100.049 281.714 441.581
1248 0 96.37 10.8748 1048 101.8 281.049 437.742
1249 0 102.413 17.1756 1759 93.6538 280.64 441.359
1250 0 103.374 18.9699 1961 92.9939 280.897 442.932
1251 0 107.446 15.217 1635 94.4379 280.673 450.437
1252 1 59.1433 14.71 870 92.9253 279.176 464.63
1253 0 63.3826 14.2941 906 94.2042 278.183 471.588
1254 0 62.1169 13.0077 808 92.495 279.182 465.25
1255 0 65.3164 15.9378 1041 91.2142 277.339 465.353
1256 0 65.2652 12.748 832 94.3377 278.007 467.144
1257 0 70.1208 13.819 969 93.8896 277.259 471.074
1258 0 72.3678 16.3332 1182 90.7039 277.507 462.541
1259 0 75.2087 15.6498 1177 91.8352 276.148 467.662
1260 0 79.1589 12.0012 950 94.5863 274.726 466.811
1261 0 80.252 17.0961 1372 89.8047 274.626 462.705
1262 0 82.1631 14.2643 1172 92.9352 274.968 464.351
1263 0 84.1882 12.9353 1089 94.0799 274.228 463.347
1264 0 87.433 16.1838 1415 91.5392 273.455 458.014
1265 0 91.3875 14.6628 1340 92.8507 272.146 458.305
1266 1 51.1059 8.60957 440 96.4205 270.859 479.248
1267 0 49.0789 9.10778 447 97.9239 271.107 476.937
1268 0 52.3548 10.6772 559 96.3882 271.197 475.737
1269 0 52.4647 17.0591 895 90.3966 271.429 467.392
1270 0 54.4557 13.3319 726 91.5537 269.669 475.926
1271 0 55.2674 11.7067 647 95.9104 273.167 467.977
1272 0 56.3785 12.3629 697 94.8594 273.788 469.742
1273 0 57.2749 13.5312 775 93.9058 273.765 465.308
1274 0 57.3529 12.3446 708 95.5876 274.092 467.343
1275 0 59.2419 10.4824 621 98.8518 274.156 463.306
1276 0 62.3248 16.0129 998 92.3176 273.389 459.354
1277 0 68.4176 16.2824 1114 91.2962 275.32 459.57
1278 0 67.3296 15.5058 1044 93.2098 275.023 456.654
1279 0 70.3237 16.4241 1155 92.1178 275.494 456.674
1280 0 69.3599 12.7163 882 96.3254 275.976 455.044
1281 0 72.3095 15.5028 1121 94.1356 276.64 450.978
1282 0 72.4329 13.1708 954 96.3333 277.131 451.498
1283 0 77.5724 13.7291 1065 96.9793 277.798 447.6
1284 0 77.3165 14.8739 1150 96.5435 278.957 449.352
1285 0 81.3554 17.4912 1423 93.4828 278.55 452.457
1286 0 79.3575 11.3789 903 102.148 279.276 450.198
1287 0 86.6947 15.7103 1362 95.5631 280.265 451.587
1288 0 88.2557 14.0727 1242 98.5016 280.2 445.841
1289 0 88.2895 14.2033 1254 99.0853 280.477 445.661
1290 0 90.4448 11.7088 1059 102.754 281.059 444.809
1291 0 97.273 15.071 1466 98.1855 281.207 443.26
1292 0 94.2076 8.81033 830 105.824 280.878 446.393
1293 0 101.37 11.1473 1130 102.481 281.121 442.686
1294 1 59.1326 11.5503 683 98.1625 282.791 468.062
1295 0 59.2046 17.2622 1022 88.5744 279.881 464.319
1296 0 60.1668 13.3296 802 92.3753 278.85 468.999
1297 0 61.3014 11.4679 703 94.0398 279.228 462.67
1298 0 65.2452 11.6177 758 93.2177 278.938 467.722
1299 0 64.1929 20.3917 1309 86.3308 278.633 463.937
1300 0 67.1521 9.47103 636 96.9811 278.745 462.967
1301 0 67.1927 15.582 1047 90.4279 277.876 465.784
1302 0 74.3564 15.1298 1125 87.768 277.437 470.377
1303 0 74.2213 14.2816 1060 91.3943 276.716 459.805
1304 0 81.3293 13.2916 1081 91.1517 275.376 458.815
1305 0 83.0781 12.3017 1022 92.3014 274.525 453.668
1306 0 85.4126 18.7443 1601 86.2892 273.596 458.035
1307 0 87.1832 16.299 1421 88.4434 273.139 455.62
1308 0 96.2243 19.3402 1861 85.3659 272.26 451.006
1309 1 49.6533 9.68717 481 92.237 273.104 467.973
1310 0 52.5591 11.0923 583 90.5077 272.081 469.955
1311 0 50.1769 10.9014 547 89.958 271.058 465.218
1312 0 53.2201 20.3495 1083 83.3029 271.242 467.169
1313 0 58.1863 17.1518 998 83.5631 271.499 466.041
1314 0 58.1544 22.4747 1307 80.7812 271.94 464.072
1315 0 56.1507 14.1405 794 87.8413 272.262 459.767
1316 0 57.279 14.281 818 87.5831 271.49 458.826
1317 0 67.2308 13.0149 875 87.9863 272.141 456.27
1318 0 63.4041 8.61142 546 91.7051 272.621 457.562
1319 0 66.3654 12.7928 849 89.7738 273.216 448.131
1320 0 68.289 12.6375 863 90.3835 273.649 449.013
1321 0 71.4332 15.091 1078 87.3117 274.446 450.299
1322 0 72.2535 10.3663 749 92.1188 274.085 451.796
1323 0 75.3877 14.4984 1093 88.5078 275.721 452.457
1324 0 78.2834 18.9568 1484 85.2204 275.989 449.751
1325 0 78.2183 13.2194 1034 91.0851 277.146 445.001
1326 0 80.3844 9.70338 780 94.7936 278.133 443.26
1327 0 83.2703 8.55047 712 96.0674 277.935 439.824
1328 0 86.3471 14.7544 1274 89.1099 277.961 446.049
1329 0 84.2768 12.8742 1085 92.9106 279.493 439.967
1330 0 91.2986 12.5194 1143 93.1575 279.091 439.342
1331 0 90.2182 9.94256 897 95.6399 280.1 441.569
1332 1 99.2744 8.12898 807 97.8067 280.123 431.508
1333 0 106.353 15.4109 1639 91.9896 279.906 442.907
1334 0 112.223 15.3712 1725 91.9328 278.202 445.908
1335 0 111.492 12.7543 1422 92.6132 281.047 444.978
1336 0 117.46 13.1364 1543 95.127 281.277 434.734
1337 0 116.391 9.3736 1091 96.2053 280.72 449.441
1338 1 69.2672 14.2203 985 89.6883 280.051 460.212
1339 0 72.2047 11.4397 826 92.0775 280.157 464.524
1340 0 74.2213 12.584 934 91.1049 279.9 466.324
1341 0 74.1511 14.1603 1050 90.0743 279.363 457.674
1342 0 77.3981 13.9409 1079 90.1548 278.39 457.689
1343 0 81.4908 14.0875 1148 90.1638 278.781 462.571
1344 0 82.4063 19.7072 1624 85.8103 275.782 456.302
1345 0 85.1572 11.332 965 92.8684 276.154 463.087
1346 0 87.7729 15.3806 1350 89.3118 275.376 457.79
1347 0 93.3628 15.1773 1417 87.916 275.044 462.372
1348 0 96.3368 23.7915 2292 82.7832 274.09 455.82
1349 0 96.229 21.1787 2038 85.8077 274.018 449.405
1350 0 102.229 21.54 2202 85.7829 273.561 449.082
1351 0 104.502 17.1863 1796 89.1308 273.512 448.444
1352 1 57.172 12.0688 690 92.8232 274.083 468.354
1353 0 60.3894 15.5657 940 88.2532 274.771 468.724
1354 0 57.2248 8.87727 508 98.1713 272.429 466.431
1355 0 62.2128 15.3827 957 90.6322 272.415 469.736
1356 0 63.5078 14.9745 951 97.3176 271.967 459.791
1357 0 64.2487 11.2843 725 98.1821 272.854 461.043
1358 0 66.3633 14.059 933 94.4448 272.461 459.953
1359 0 68.2889 16.3131 1114 91.0377 272.4 462.098
1360 0 70.626 11.3839 804 97.6505 272.233 458.59
1361 0 71.4738 12.648 904 96.5166 272.97 454.217
1362 0 71.4738 12.5501 897 133.359 272.963 454.331
1363 0 75.4885 14.6777 1108 93.5226 272.939 455.671
1364 0 79.4301 14.944 1187 91.6083 273.171 455.318
1365 0 79.3594 12.5379 995 96.0241 274.92 448.073
1366 0 81.4059 14.8392 1208 93.8767 274.81 445.105
1367 0 82.5629 11.0825 915 98.2852 276.812 443.42
1368 0 89.614 14.1496 1268 92.4803 276.883 449.559
1369 0 89.3709 12.3195 1101 95.6839 278.304 441.272
1370 0 89.4635 10.2612 918 98.0806 277.782 443.074
1371 0 97.6644 15.7785 1541 89.3511 278.694 444.978
1372 0 92.5852 13.6631 1265 93.6814 278.92 438.819
1373 0 101.454 12.7151 1290 94.1295 279.319 438.733
1374 0 100.307 10.7569 1079 97.2845 279.436 433.982
1375 1 55.3616 9.46504 524 91.5134 278.466 461.989
1376 0 58.093 12.7038 738 90.916 278.111 468.085
1377 0 58.5806 12.103 709 92.4231 278.564 466.173
1378 0 61.2415 13.0467 799 91.8961 277.591 459.93
1379 0 59.0946 11.5577 683 93.9063 278.493 462.924
1380 0 63.5517 15.0429 956 89.8912 277.54 467.591
1381 0 69.2223 18.4334 1276 85.8229 277.54 464.478
1382 0 66.2669 12.4044 822 92.4404 276.8 463.324
1383 0 70.5136 16.5358 1166 87.036 277.991 467.792
1384 0 72.8704 13.0368 950 90.2032 276.86 468.282
1385 0 72.3601 16.4317 1189 86.7124 276.536 470.237
1386 0 77.4911 23.7576 1841 82.1792 276.209 464.424
1387 0 75.4832 18.7327 1414 87.0665 275.336 458.37
1388 0 77.4362 14.7218 1140 89.3754 273.655 463.516
1389 0 80.4232 12.6083 1014 92.2919 273.645 458.994
1390 0 81.5179 15.3463 1251 90.2134 272.488 456.891
1391 0 91.8841 26.294 2416 80.9628 272.654 455.773
1392 0 88.5026 14.8018 1310 90.8695 272.842 458.264
1393 0 93.8575 14.9588 1404 90.2536 271.546 457.296
1394 0 95.4731 14.9152 1424 92.1362 271.324 449.002
1395 1 49.7738 7.15236 356 98.3624 271.124 469.551
1396 0 56.884 11.919 678 91.2788 272.006 468.006
1397 0 54.5799 10.5533 576 94.9097 271.712 462.684
1398 0 58.3466 13.8483 808 90.4728 270.666 463.665
1399 0 60.3535 15.1773 916 88.3734 270.995 463.684
1400 0 58.2582 12.6163 735 92.4939 270.543 459.688
1401 0 60.5156 12.6248 764 92.1152 271.084 461.152
1402 0 60.4484 18.1312 1096 87.7555 271.124 460.002
1403 0 64.4523 13.8087 890 92.0348 271.993 455.444
1404 0 66.7719 12.1308 810 93.3518 271.477 456.906
1405 0 68.4107 13.112 897 92.5674 272.245 457.067
1406 0 68.2314 17.3087 1181 89.5724 273.191 454.947
1407 0 72.7868 12.6809 923 93.7194 273.362 453.774
1408 0 74.4409 13.2991 990 93.5879 274.157 450.152
1409 0 77.8671 16.3741 1275 89.72 274.891 452.34
1410 0 80.9223 17.2264 1394 87.1958 275.94 458.831
1411 0 82.4755 16.3321 1347 91.8129 276.95 446.699
1412 0 85.8385 14.3292 1230 92.1065 277.006 453.713
1413 0 90.0214 12.5192 1127 95.2201 277.844 443.817
1414 0 92.9011 11.0655 1028 95.1372 277.53 453.141
1415 0 90.6066 11.4672 1039 96.4841 277.487 443.29
1416 0 96.2554 15.4173 1484 92.4077 277.815 442.625
1417 0 95.6348 13.9175 1331 94.429 278.785 437.837
1418 1 53.1737 5.6983 303 99.5413 278.828 462.31
1419 0 58.1817 12.1344 706 92.296 278.099 463.18
1420 0 57.1539 12.3876 708 93.1525 278.513 461.871
1421 0 59.1609 14.638 866 90.4434 278.849 465.112
1422 0 66.2433 17.1791 1138 86.7698 279.051 470.726
1423 0 65.1364 16.9951 1107 89.1662 278.864 465.083
1424 0 63.0853 11.3973 719 95.3254 277.978 462.51
1425 0 69.7409 12.317 859 92.7683 277.83 466.59
1426 0 66.1198 11.9329 789 94.6248 277.039 467.398
1427 0 72.1351 15.5542 1122 90.3797 276.697 468.221
1428 0 72.1351 15.7066 1133 142.192 276.68 468.205
1429 0 78.4311 13.2983 1043 93.744 276.238 461.548
1430 0 77.4548 9.6056 744 98.5242 274.641 461.133
1431 0 82.231 17.0617 1403 89.469 274.353 462.127
1432 0 83.2326 14.6817 1222 93.5491 272.684 448.879
1433 0 85.2411 14.3123 1220 93.8975 274.01 455.121
1434 0 92.7633 16.3535 1517 91.383 272.646 452.482
1435 0 90.4029 14.9774 1354 94.514 272.562 448.727
1436 0 94.3799 14.8655 1403 93.9401 271.246 450.376
1437 0 94.2455 12.7115 1198 98.0676 271.967 446.013
1438 0 99.3669 16.1724 1607 92.3628 272.109 449.954
1439 0 104.276 13.2629 1383 95.4483 272.2 445.799
1440 0 107.357 13.3107 1429 95.0119 271.325 443.936
1441 0 108.428 15.5218 1683 93.3209 271.84 439.03
1442 0 111.204 20.1432 2240 87.7062 271.184 445.679
1443 0 114.152 12.7637 1457 98.1956 271.863 431.332
1444 0 118.333 13.1155 1552 98.3183 271.646 432.13
1445 0 123.407 13.8404 1708 97.4696 272.71 423.131
1446 1 69.2996 12.6696 878 99.074 271.943 455.544
1447 0 73.0934 13.8043 1009 97.0773 275.259 453.215
1448 0 73.0913 14.1056 1031 97.321 274.879 451.419
1449 0 74.097 13.8872 1029 97.481 276.138 452.093
1450 0 76.1189 11.8893 905 100.375 276.906 447.99
1451 0 77.2111 11.7341 906 101 276.672 444.913
1452 0 83.1224 15.9764 1328 94.8381 277.459 445.888
1453 0 84.1564 13.8076 1162 98.4053 277.467 444.593
1454 0 89.1022 16.2398 1447 93.6075 278.502 450.013
1455 0 92.256 26.4698 2442 86.0708 277.249 443.78
1456 0 92.2207 14.6388 1350 98.0659 280.018 444.944
1457 0 94.0753 14.2014 1336 99.497 280.552 442.206
1458 0 98.1638 17.8783 1755 94.457 279.929 445.484
1459 0 102.314 16.0584 1643 96.7024 280.873 440.718
1460 0 104.31 22.2318 2319 89.6693 280.316 444.833
1461 0 105.497 16.1711 1706 94.2937 280.464 436.332
1462 0 111.828 18.3586 2053 93.2679 280.13 436.317
1463 0 114.803 11.9073 1367 99.9949 279.974 438.306
1464 0 118.803 16.8851 2006 94.2652 280.134 437.476
1465 0 118.838 15.1467 1800 95.4878 279.963 442.348
1466 1 69.2698 14.7972 1025 92.4371 280.785 460.354
1467 0 69.259 10.7279 743 99.9771 280.229 460.121
1468 0 73.2342 13.9279 1020 94.9706 280.674 461.958
1469 0 76.1571 15.2054 1158 93.9629 280.072 458.282
1470 0 79.2412 15.4591 1225 92.1526 279.038 464.762
1471 0 81.2237 16.4238 1334 92.5142 278.368 459.606
1472 0 84.3472 14.298 1206 94.9212 277.767 456.489
1473 0 85.2484 11.9181 1016 97.5738 276.827 456.19
1474 0 88.3157 16.6675 1472 92.4062 276.167 447.431
1475 0 92.2999 14.3229 1322 93.947 275.908 455.662
1476 0 97.2253 20.0668 1951 88.7596 274.872 451.793
1477 0 99.1088 20.1698 1999 87.8154 274.631 453.224
1478 0 97.1104 11.7289 1139 99.0255 274.386 442.284
1479 0 101.318 15.17 1537 94.0468 274.58 448.898
1480 0 107.687 14.31 1541 94.9974 271.638 442.727
1481 0 113.508 17.5493 1992 91.5622 271.145 441.826
1482 0 112.366 13.1357 1476 94.9939 271.151 446.129
1483 0 117.452 11.9879 1408 99.4538 271.523 438.234
1484 0 124.726 14.6962 1833 94.096 271.059 435.899
1485 1 66.3869 14.6113 970 90.3134 270.302 466.086
1486 0 66.1575 8.64604 572 94.2675 270.979 460.042
1487 0 69.1887 10.2618 710 90.4535 271.396 461.979
1488 0 71.2117 15.2503 1086 87.6197 271.586 455.931
1489 0 75.1538 10.7513 808 92.1386 271.928 452.245
1490 0 74.3337 11.7309 872 85.0585 272.025 465.847
1491 0 79.17 9.86484 781 92.6325 272.636 448.534
1492 0 77.3758 8.65904 670 94.6507 274.064 448.257
1493 0 81.216 11.3647 923 91.5309 274.569 444.405
1494 0 85.2456 16.3879 1397 84.3658 274.123 455.506
1495 0 93.3037 6.20554 579 95.4663 275.366 446.516
1496 0 94.5178 14.1138 1334 88.2924 276.819 439.093
1497 0 99.3222 12.8068 1272 91.0149 279.256 441.05
1498 0 98.5265 11.398 1123 93.764 278.81 434.421
1499 0 100.306 9.65048 968 94.6477 280.028 435.339
1500 0 106.699 13.6552 1457 92.3768 279.993 435.377
1501 0 115.516 16.9933 1963 86.754 281.275 441.944
1502 0 113.21 8.59465 973 96.6218 281.247 435.342
1503 0 112.21 7.45034 836 99.8541 281.611 428.827
1504 0 120.637 12.2351 1476 92.8096 280.891 438.111
1505 0 120.34 8.40948 1012 98.0425 281.296 435.75
1506 0 128.595 14.0752 1810 90.279 281.636 440.784
1507 1 193.956 17.6329 3420 90.6652 278.999 398.892
1508 1 75.2641 17.5515 1321 86.9145 280.343 455.332
1509 0 76.2176 10.1158 771 89.537 278.837 465.137
1510 0 76.167 12.0393 917 90.0971 279.208 455.46
1511 0 81.3287 14.6812 1194 87.8107 278.472 456.227
1512 0 82.2701 11.5838 953 91.4544 278.306 454.877
1513 0 87.1481 17.3153 1509 86.4407 278.136 449.392
1514 1 161.711 13.3324 2156 94.0093 277.385 416.447
1515 0 169.656 15.8026 2681 91.1828 276.6 417.117
1516 0 170.588 12.5156 2135 95.7972 275.427 416.612
1517 0 173.063 14.2896 2473 95.0962 274.84 402.968
1518 1 98.2655 10.553 1037 95.9016 274.738 443.817
1519 0 104.589 12.114 1267 92.0955 274.398 455.576
1520 1 54.1432 7.92344 429 98.8531 273.541 476.592
1521 0 57.2233 9.73379 557 95.6535 274.052 471.882
1522 0 60.5104 12.3119 745 92.357 272.862 465.843
1523 0 62.414 15.0287 938 90.6023 272.64 467.295
1524 0 61.2797 11.3251 694 97.1426 272.53 469.048
1525 0 65.3272 14.4503 944 90.4311 271.27 468.529
1526 0 64.3317 12.3267 793 91.633 272.383 470
1527 0 70.2972 15.406 1083 91.5476 271.608 460.98
1528 0 67.1826 9.88351 664 99.1114 271.89 458.333
1529 0 69.3638 13.3355 925 95.3773 271.572 453.114
1530 0 74.2642 11.513 855 95.9743 272.894 459.435
1531 0 76.3498 14.0406 1072 93.7892 272.89 457.23
1532 0 80.3665 15.7404 1265 92.766 273.484 452.84
1533 0 81.4897 11.7561 958 95.9113 273.853 458.234
1534 0 81.4644 12.1526 990 97.7465 273.755 449.663
1535 0 84.3843 13.7348 1159 96.3054 274.141 448.877
1536 0 87.4278 11.9756 1047 98.0888 275.169 448.768
1537 0 91.7064 15.4188 1414 96.0219 275.272 439.429
1538 1 50.8041 14.5854 741 92.9109 277.406 463.422
1539 0 52.595 13.5754 714 94.7563 277.847 462.412
1540 0 52.3224 12.0981 633 96.5561 278.87 463.766
1541 0 52.1674 9.1053 475 94.9832 279.105 464.482
1542 0 53.0756 10.7582 571 94.4063 279.226 460.968
1543 0 57.1913 12.1872 697 93.8981 278.001 458.595
1544 0 56.2689 9.73895 548 96.4161 278.651 462.022
1545 0 58.1886 11.4284 665 95.5068 279.344 459.821
1546 0 60.1232 13.5721 816 91.9534 278.945 464.83
1547 0 62.496 12.8168 801 93.3196 279.257 459.471
1548 0 62.4475 14.0118 875 91.1474 278.753 464.326
1549 0 67.3794 13.6243 918 91.3813 279.71 462.559
1550 0 67.3572 12.8568 866 92.948 279.227 462.532
1551 0 68.31 9.42761 644 96.4643 278.144 461.116
1552 0 71.0838 11.0714 787 95.0775 278.48 460.379
1553 0 74.1351 16.0518 1190 90.2378 278.529 462.292
1554 0 77.3316 14.9745 1158 91.4111 278.211 461.107
1555 0 78.5569 15.2628 1199 91.9166 277.726 453.329
1556 0 83.2319 11.5941 965 95.2 277.614 455.95
1557 0 83.2979 12.1972 1016 95.372 277.628 452.91
1558 0 85.2949 11.2902 963 97.0644 277.134 448.208
1559 0 89.3729 13.964 1248 93.0577 275.655 455.116
1560 0 91.4614 12.9344 1183 94.3026 273.949 449.495
1561 0 96.6352 16.2674 1572 90.7532 273.947 451.117
1562 0 97.4061 14.2188 1385 94.9949 273.734 440.162
1563 0 96.7354 10.4512 1011 99.179 273.141 447.338
1564 0 103.209 17.7891 1836 91.7712 272.769 442.769
1565 0 104.321 14.187 1480 95.8257 271.484 443.63
1566 0 106.229 16.2479 1726 95.1292 271.648 437.027
1567 1 60.0561 10.1905 612 99.1569 270.81 460.531
1568 0 61.2904 14.0153 859 93.2701 270.119 464.597
1569 0 65.2776 13.2358 864 92.0336 271.492 462.633
1570 0 67.2163 16.5436 1112 89.2896 271.209 459.451
1571 0 72.542 19.4094 1408 86.6186 272.569 457.138
1572 0 73.1922 11.8182 865 93.6601 272.38 459.539
1573 0 76.3182 13.5223 1032 92.626 272.93 455.243
1574 0 75.2474 13.5287 1018 93.2603 272.568 451.236
1575 0 77.4967 13.1231 1017 94.35 273.336 447.907
1576 0 80.3738 21.9723 1766 84.9706 272.826 454.307
1577 0 81.2686 14.9012 1211 93.0438 273.173 445.072
1578 0 85.3749 13.5403 1156 94.7422 273.784 444.457
1579 0 83.3729 11.8264 986 97.5446 274.034 438.661
1580 0 90.3416 15.054 1360 93.9875 275.215 437.338
1581 0 91.7174 13.5089 1239 95.5286 275.73 437.893
1582 0 94.4188 14.3192 1352 95.0192 275.893 433.963
1583 0 96.5628 12.8932 1245 96.5124 276.153 435.621
1584 0 100.486 14.5194 1459 95.6991 277.382 436.795
1585 0 103.885 18.3665 1908 91.4853 277.642 440.666
1586 0 107.567 16.6686 1793 93.9822 278.642 430.796
1587 0 110.435 18.5267 2046 92.4907 277.008 432.508
1588 0 115.171 13.9532 1607 96.5781 278.5 431.312
1589 0 117.595 14.0482 1652 96.4358 278.691 432.119
1590 1 64.5116 16.2761 1050 91.1438 279.237 454.564
1591 0 69.0594 11.9752 827 90.0713 279.52 461.016
1592 0 70.3135 15.2602 1073 89.7726 279.28 457.323
1593 0 73.435 12.4872 917 91.7165 279.262 463.853
1594 0 73.3087 17.7332 1300 88.2669 279.204 459.615
1595 0 78.3869 10.2696 805 94.7267 279.55 462.643
1596 0 81.3366 20.4828 1666 85.0072 278.717 462.854
1597 0 79.3613 9.79066 777 97.2033 278.604 453.56
1598 0 87.3448 17.6771 1544 88.5609 278.635 455.31
1599 0 88.2872 13.003 1148 93.1289 277.56 456.97
1600 0 91.321 13.8303 1263 92.479 277.396 457.416
1601 0 91.3394 11.4408 1045 96.1416 275.899 451.445
1602 0 95.3716 13.5156 1289 93.8774 275.534 454.002
1603 0 93.2834 9.56225 892 98.3318 274.126 451.011
1604 0 101.166 7.95723 805 96.8696 274.229 463.425
1605 0 104.316 10.8421 1131 97.0928 273.555 448.152
1606 0 104.462 11.7651 1229 95.4028 273.404 451.716
1607 0 108.248 13.7 1483 93.7667 273.529 446.649
1608 0 113.412 16.1711 1834 90.9967 272.241 444.842
1609 0 116.268 11.5423 1342 95.8607 271.403 444.493
1610 0 119.333 12.6704 1512 95.4848 271.868 436.993
1611 0 124.395 12.6694 1576 94.5393 271.079 439.459
1612 1 67.1516 14.7725 992 90.1956 270.832 461.373
1613 0 70.301 17.8803 1257 86.2092 269.671 462.85
1614 0 72.4541 12.2698 889 90.613 270.443 454.695
1615 0 73.341 11.3443 832 91.8942 269.823 456.308
1616 0 73.153 10.0611 736 93.7418 270.781 450.366
1617 0 77.3208 11.9373 923 91.6739 270.975 446.373
1618 0 82.3942 14.7583 1216 88.6875 271.456 449.103
1619 0 83.2062 13.8932 1156 90.154 272.325 440.728
1620 0 86.2727 14.7555 1273 88.5028 272.977 448.335
1621 0 91.5188 12.3472 1130 91.3372 273.449 442.41
1622 0 93.2179 25.5101 2378 81.4436 273.844 442.23
1623 0 94.3256 13.9411 1315 91.3795 275.032 436.043
1624 0 101.358 16.8412 1707 88.0059 276.311 436.815
1625 0 101.23 11.5974 1174 91.793 276.109 444.505
1626 0 104.288 12.9929 1355 92.1232 277.128 437.672
1627 0 109.432 16.0922 1761 89.4378 277.436 430.491
1628 1 55.188 10.7995 596 91.4329 277.666 457.762
1629 0 59.3478 10.2278 607 91.0774 277.839 458.537
1630 0 60.3289 10.3599 625 93.0288 279.186 450.456
1631 0 62.3957 11.1065 693 91.6681 278.854 458.773
1632 0 63.3251 8.35372 529 95.794 279.331 456.888
1633 0 64.2513 11.5951 745 91.5436 278.98 459.74
1634 0 70.2778 15.2822 1074 86.54 279.622 464.645
1635 0 72.1577 14.3852 1038 90.2341 279.825 454.653
1636 0 75.239 17.2384 1297 87.818 280.279 455.668
1637 0 75.2361 9.87558 743 96.8937 278.903 454.637
1638 0 78.1696 9.33867 730 97.0466 278.64 454.519
1639 0 81.1212 13.523 1097 91.9945 278.224 457.782
1640 0 83.0757 12.5669 1044 93.7366 277.86 458.242
1641 0 86.2588 13.4943 1164 94.1143 278.009 451.893
1642 0 87.1558 11.0033 959 96.4765 276.261 455.707
1643 0 90.2493 11.6455 1051 97.1389 276.068 449.378
1644 0 94.2867 11.8362 1116 97.2581 275.728 446.651
1645 1 48.0997 10.9148 525 92.9829 274.669 475.387
1646 0 48.0331 14.2818 686 92.8688 274.48 470.786
1647 0 52.1475 14.3439 748 93.9666 271.816 471.73
1648 0 54.0894 12.5163 677 96.2408 271.631 467.88
1649 0 53.0957 9.98198 530 99.5811 274.675 473.062
1650 0 58.3395 12.3416 720 94.3569 273.506 470.568
1651 0 59.2367 11.3443 672 96.7827 273.083 463.312
1652 0 61.2581 10.97 672 96.814 273.268 465.964
1653 0 64.3978 13.5253 871 93.3651 273.362 466.595
1654 0 66.2433 13.9335 923 91.2763 272.074 472.182
1655 1 132.453 16.0208 2122 97.6979 272.03 433.739
1656 1 71.3095 15.4538 1102 93.1915 270.842 441.916
1657 0 73.3433 11.712 859 97.454 270.907 442.603
1658 0 74.3359 13.9502 1037 95.6336 270.979 441.259
1659 0 75.1717 10.2964 774 100.664 271.404 438.744
1660 0 82.5082 17.8285 1471 91.7757 272.035 436.448
1661 0 83.6166 13.4184 1122 96.9412 271.99 436.783
1662 0 83.2065 8.58106 714 103.982 272.189 428.91
1663 0 88.3142 10.9495 967 100.367 273.185 442.492
1664 0 89.173 20.2303 1804 89.5992 273.21 446.951
1665 1 49.1952 16.5057 812 88.8177 275.594 461.659
1666 0 50.0891 16.5505 829 92.269 274.331 460.782
1667 0 48.06 12.7757 614 99.855 274.218 457.37
1668 0 50.0688 15.1392 758 96.7533 275.094 457.017
1669 0 52.0631 11.9855 624 100.373 275.771 459.691
1670 0 52.1433 12.2547 639 99.7934 275.977 461.479
1671 0 52.0852 12.3452 643 100.802 276.505 460.114
1672 0 53.0713 11.1171 590 102.081 277.414 462.581
1673 0 56.2178 14.6039 821 98.9403 278.124 459.928
1674 0 57.2039 15.8381 906 95.0784 278.353 464.639
1675 0 61.1351 12.2188 747 99.9478 278.107 460.406
1676 0 61.2466 15.1519 928 97.486 278.846 457.353
1677 0 63.1316 14.446 912 98.0614 278.887 460.027
1678 0 65.3481 12.6706 828 99.7995 279.487 459.187
1679 0 67.3109 11.1869 753 101.697 279.179 460.854
1680 0 71.2146 13.1574 937 97.6094 278.781 464.781
1681 0 71.3815 13.589 970 98.1763 278.291 462.739
1682 0 73.3162 10.4888 769 101.602 278.58 463.759
1683 0 76.344 13.6488 1042 98.9539 277.478 456.958
1684 0 79.1846 13.2475 1049 99.571 277.504 458.856
1685 0 80.1883 12.5455 1006 102.178 277 455.43
1686 0 86.3612 12.7488 1101 99.2797 275.205 460.566
1687 0 85.3092 14.9222 1273 98.531 274.605 452.548
1688 1 49.1593 9.74384 479 98.1712 273.549 473.887
1689 0 54.2203 13.7771 747 91.8768 273.119 474.481
1690 0 53.2809 11.5801 617 94.0859 273.822 471.917
1691 0 57.0658 17.5937 1004 88.2231 273.148 476.923
1692 0 59.2378 12.4245 736 94.6236 271.878 474.88
1693 0 62.3724 12.8743 803 92.6563 272.274 475.078
1694 0 64.4502 14.7711 952 90.8939 271.181 471.259
1695 0 62.2025 10.4658 651 97.8172 271.757 467.381
1696 0 64.1399 7.53042 483 97.1346 270.574 472.64
1697 0 69.2408 14.6445 1014 93.7436 271.194 462.25
1698 0 71.2219 13.0718 931 95.2632 270.015 462.521
1699 0 70.2208 10.9797 771 98.2555 271.167 457.772
1700 0 75.3485 14.6917 1107 93.776 272.183 458.584
1701 0 80.7575 22.2518 1797 86.2788 271.881 461.044
1702 0 78.2945 10.0518 787 100.417 272.712 454.644
1703 0 81.287 16.6447 1353 93.7583 273.322 450.334
1704 0 85.1854 10.0721 858 97.697 272.853 457.422
1705 0 92.3189 17.1254 1581 92.7217 273.891 441.466
1706 0 94.4764 15.4959 1464 94.5724 274.139 443.85
1707 0 98.6771 18.2413 1800 92.1728 274.782 434.902
1708 0 98.3174 18.664 1835 91.8959 275.044 445.04
1709 1 53.2094 13.3059 708 92.1172 275.67 464.797
1710 0 58.0911 12.0328 699 94.0043 276.2 463.379
1711 0 59.3917 13.4362 798 93.4662 276.83 461.094
1712 0 60.1902 13.9391 839 93.2515 277.411 462.209
1713 0 63.2694 18.7294 1185 88.7646 278.089 456.462
1714 0 63.4196 15.1215 959 92.3816 278.572 456.713
1715 0 68.7306 17.0812 1174 88.0767 278.007 463.273
1716 0 68.3146 14.0966 963 94.1236 279.619 451.217
1717 0 74.4985 17.4098 1297 90.4703 279.993 451.042
1718 0 73.4928 17.267 1269 90.9685 280.356 453.232
1719 0 75.4479 12.8566 970 96.0247 280.181 453.438
1720 0 80.1479 10.5305 844 97.6943 279.353 454.345
1721 0 83.4812 16.9619 1416 91.5473 279.539 454.001
1722 0 86.496 16.8216 1455 92.0708 280.364 450.995
1723 0 88.6393 12.3986 1099 97.5532 280.478 451.753
1724 0 89.5872 13.4617 1206 96.8051 279.439 449.733
1725 0 88.4422 9.56557 846 102.202 279.208 448.57
1726 0 97.6559 17.9201 1750 92.5137 279.717 448.431
1727 0 96.6387 13.4315 1298 97.3544 278.912 453.816
1728 0 99.4952 11.1965 1114 100.304 277.602 450.809
1729 0 106.589 15.8835 1693 94.9262 278.314 450.767
1730 0 109.68 15.5179 1702 95.3384 276.394 451.087
1731 0 110.594 13.9519 1543 97.2158 276.448 445.975
1732 0 114.862 15.4969 1780 95.2944 275.277 445.268
1733 0 119.474 12.8814 1539 98.7466 274.64 441.264
1734 1 62.1716 12.3047 765 94.8889 275.273 469.775
1735 0 65.6766 14.0842 925 92.533 273.352 471.086
1736 0 65.4005 13.8072 903 93.9214 272.064 466.284
1737 0 68.3643 13.9254 952 92.9948 271.711 467.774
1738 0 72.1834 14.6848 1060 92.3321 271.986 465.92
1739 0 71.2817 12.3875 883 95.3545 271.959 460.211
1740 0 74.2633 15.5258 1153 91.7303 271.634 461.278
1741 0 77.3238 15.17 1173 91.4834 270.409 459.153
1742 0 79.4808 12.2042 970 95.2526 271.321 455.888
1743 0 79.2822 10.6329 843 96.8814 272.255 450.467
1744 0 87.4 14.9657 1308 90.724 271.809 455.648
1745 0 85.3311 15.1059 1289 92.7517 272.323 448.624
1746 0 88.3686 16.1483 1427 89.9881 272.543 453.388
1747 0 91.1422 12.6725 1155 94.9593 272.741 444.4
1748 0 94.3104 14.2508 1344 93.4531 273.643 444.511
1749 0 96.3465 12.7768 1231 95.4086 274.499 438.91
1750 0 96.3465 12.7768 1231 141.447 274.51 438.637
1751 1 56.0582 13.1827 739 93.3518 273.997 463.233
1752 0 61.491 11.335 697 96.7762 278.09 460.077
1753 0 63.0857 13.3152 840 95.7595 278.682 458.869
1754 0 64.4111 14.5317 936 91.4348 276.841 467.109
1755 0 66.2432 14.8091 981 94.6381 278.212 459.097
1756 0 69.2953 14.7196 1020 93.9667 278.913 457.089
1757 0 69.2137 16.4852 1141 93.1087 278.822 458.389
1758 0 73.3698 12.253 899 96.8665 278.256 460.845
1759 0 81.1937 18.1787 1476 89.9729 280.418 452.017
1760 0 83.5816 19.3942 1621 89.314 281.183 451.007
1761 0 85.5687 17.8336 1526 91.2621 281.497 448.291
1762 0 80.2969 14.5087 1165 96.8232 280.194 454.577
1763 0 87.274 15.1706 1324 94.7168 281.089 456.696
1764 0 87.3994 12.46 1089 98.8035 280.805 450.839
1765 0 93.5953 12.5327 1173 99.0145 279.4 447.267
1766 0 99.4023 16.8004 1670 94.1126 280.058 448.238
1767 1 54.3289 12.6084 685 97.419 279.27 466.175
1768 0 53.3872 15.6404 835 92.9317 279.958 468.925
1769 0 57.0873 16.3259 932 89.9378 279.89 466.946
1770 0 56.1504 14.0872 791 92.2162 279.504 467.936
1771 0 63.1608 20.4399 1291 85.5306 279.202 468.942
1772 0 63.3925 13.2192 838 93.0537 277.607 469.254
1773 0 66.3314 16.6588 1105 89.0181 277.091 467.372
1774 0 66.329 13.629 904 91.8319 274.368 470.601
1775 0 70.2395 21.142 1485 87.1684 273.699 470.414
1776 0 66.3136 8.35425 554 101.137 273.269 464.365
1777 0 74.3116 14.3046 1063 92.3387 272.377 469.587
1778 0 74.173 16.4211 1218 89.9606 272.161 463.607
1779 0 76.2068 12.0987 922 95.2722 272.164 457.923
1780 0 79.325 12.6442 1003 93.5145 272.217 460.692
1781 0 81.2253 16.2018 1316 88.7956 271.583 465.651
1782 0 81.2817 13.8161 1123 93.5058 271.777 459.329
1783 0 87.3607 13.2096 1154 93.2695 271.527 459.576
1784 0 88.4066 16.5938 1467 90.7137 271.305 456.142
1785 0 90.5701 13.5144 1224 94.4959 272.666 452.434
1786 0 93.351 12.1906 1138 96.5967 272.265 444.612
1787 0 99.6276 15.297 1524 92.3734 271.922 442.747
1788 0 102.55 15.9044 1631 92.3814 273.033 439.922
1789 0 103.23 14.395 1486 93.6743 272.936 442.294
1790 1 58.363 11.8226 690 94.6986 272.475 460.504
1791 0 62.5597 13.0116 814 94.0098 273.851 457.828
1792 0 63.2237 17.0031 1075 91.6716 274.092 453.887
1793 0 63.0853 12.3008 776 97.3905 274.103 451.59
1794 0 64.369 20.0407 1290 89.7519 274.881 445.195
1795 0 67.1186 15.1672 1018 95.1306 275.27 446.972
1796 0 68.2243 11.9166 813 99.2325 276.064 449.777
1797 0 72.2608 19.5403 1412 90.4929 276.763 445.842
1798 0 73.3436 12.5982 924 97.8095 277.282 451.147
1799 0 74.1038 18.2852 1355 91.9985 276.793 456.95
1800 0 75.2429 11.2967 850 98.8435 277.912 458.367
1801 0 81.2804 16.2647 1322 94.4546 277.382 454.16
1802 0 82.2488 13.9698 1149 98.242 278.44 450.262
1803 0 79.3148 11.5237 914 101.642 278.374 453.404
1804 0 88.2873 19.833 1751 91.169 278.732 454.371
1805 0 88.2111 15.1682 1338 96.8416 278.712 452.216
1806 0 93.2829 14.6436 1366 97.3807 279.079 448.049
1807 0 93.245 14.3922 1342 98.2489 278.656 448.817
1808 0 97.2168 13.8968 1351 99.5418 278.588 446.356
1809 0 99.2387 13.5532 1345 100.146 278.436 448.42
1810 0 101.201 14.5454 1472 98.9294 278.338 446.486
1811 0 107.242 17.0456 1828 96.0388 276.458 443.501
1812 0 107.299 17.6795 1897 94.8282 278.157 446.677
1813 0 110.265 14.7825 1630 98.0675 277.646 446.635
1814 0 115.24 13.32 1535 100.047 277.038 444.835
1815 0 119.392 14.666 1751 98.4957 276.337 443.485
1816 0 126.345 18.7502 2369 93.5378 275.222 440.556
1817 0 128.626 17.5858 2262 94.7409 274.175 440.346
1818 1 69.3197 13.4305 931 96.2868 273.085 467.699
1819 0 70.3419 19.0925 1343 90.1593 272.587 467.063
1820 0 72.1194 10.649 768 100.405 271.363 462.531
1821 0 77.1151 14.9776 1155 94.5082 271.441 459.985
1822 0 77.2075 12.5895 972 98.9537 271.076 454.435
1823 0 83.3141 16.7679 1397 93.3873 271.189 455.407
1824 0 85.2604 15.0832 1286 95.7286 270.961 449.344
1825 0 89.3397 14.0139 1252 96.4736 270.908 448.718
1826 0 88.4413 16.9265 1497 93.9873 269.565 449.345
1827 0 92.1914 12.7995 1180 98.4754 269.827 446.186
1828 0 97.1748 18.935 1840 89.7668 270.278 452.132
1829 0 97.2304 13 1264 99.1408 270.665 440.372
1830 0 98.2059 10.3965 1021 98.8815 271.072 440.943
1831 0 103.206 14.4275 1489 94.6259 271.641 441.968
1832 0 109.211 16.6376 1817 92.2003 272.155 435.018
1833 0 112.622 15.077 1698 93.0088 273.012 427.046
1834 1 62.4819 12.8357 802 91.9701 273.227 458.05
1835 0 64.2841 11.9781 770 96.2974 273.151 456.703
1836 0 68.3633 15.8857 1086 91.9742 272.418 453.788
1837 0 70.1821 15.7163 1103 88.4923 274.809 456.54
1838 0 70.3009 10.7111 753 94.3904 275.899 455.301
1839 0 72.2021 12.7697 922 92.7223 276.695 454.511
1840 0 77.3087 13.0386 1008 92.9137 276.051 449.61
1841 0 81.5867 14.1567 1155 91.6831 277.279 452.576
1842 0 83.3517 12.9691 1081 93.099 277.241 450.126
1843 0 85.1598 14.6548 1248 90.024 277.613 449.631
1844 0 89.3573 17.5028 1564 87.4354 277.994 450.561
1845 0 90.1967 12.8608 1160 93.9405 278.678 439.441
1846 0 90.1967 12.9273 1166 129.103 279.705 439.547
1847 1 52.0853 11.9996 625 93.376 280.301 466.117
1848 0 55.1633 12.0914 667 91.8816 280.042 467.834
1849 0 54.1124 9.97923 540 96.7018 280.952 466.67
1850 0 53.1562 8.63493 459 99.3224 280.122 466.305
1851 0 56.5408 13.6362 771 94.0039 280.964 464.681
1852 0 56.1651 12.392 696 96.648 279.793 461.397
1853 0 56.1651 12.392 696 126.203 277.793 461.397
1854 0 63.4352 13.5887 862 93.8504 278.654 466.193
1855 0 64.172 11.0796 711 97.8523 279.512 462.269
1856 0 68.683 15.1857 1043 92 279.199 467.113
1857 0 67.1748 12.3707 831 94.485 278.657 467.014
1858 0 70.1306 12.049 845 93.2675 278.109 471.419
1859 0 73.2301 11.143 816 95.125 276.915 463.69
1860 0 77.5045 13.2767 1029 92.7532 275.73 465.489
1861 0 77.5045 13.2379 1026 127.681 273.756 465.565
1862 0 82.4638 12.2235 1008 94.751 274.556 454.421
1863 0 82.5939 10.1824 841 97.4209 272.96 454.721
1864 0 87.3859 16.0552 1403 90.7962 273.082 455.93
1865 0 90.6912 15.1172 1371 92.8796 272.918 452.666
1866 1 49.3884 13.4849 666 91.9535 272.293 474.096
1867 0 50.8142 13.0279 662 94.4094 270.992 469.216
1868 0 52.6778 15.4144 812 91.3645 271.14 467.1
1869 0 52.5211 11.3097 594 96.4293 271.561 462.121
1870 0 52.7518 11.393 601 96.4942 271.408 464.414
1871 0 55.3378 12.3604 684 96.9181 271.436 461.421
1872 0 58.6707 15.7489 924 94.2511 272.228 459.411
1873 0 57.5103 13.0585 751 98.2543 272.542 456.505
1874 0 61.5305 14.3506 883 94.5629 271.675 462.289
1875 0 63.4514 15.8547 1006 94.6352 272.297 455.91
1876 0 64.7151 15.2978 990 95.4505 273.487 452.461
1877 0 67.6168 12.6596 856 98.4614 273.453 452.138
1878 0 72.5959 14.257 1035 93.1903 273.626 458.619
1879 0 71.5964 14.3722 1029 96.5666 274.87 450.838
1880 0 71.4833 12.1707 870 100.977 274.506 446.834
1881 0 74.1873 13.7894 1023 99.434 276.28 445.083
1882 0 78.6494 18.3091 1440 93.2076 276.294 446.764
1883 0 81.7167 12.6902 1037 99.9798 276.836 444.232
1884 1 159.859 14.3064 2287 98.8295 277.05 405.335
1885 1 91.7454 17.6249 1617 94.0322 278.139 442.55
1886 0 89.5517 15.7116 1407 97.0675 278.564 441.865
1887 0 92.6112 15.4085 1427 99.1346 279.05 439.249
1888 0 100.771 12.4243 1252 100.672 280.198 446.138
1889 1 58.6516 18.2433 1070 92.5925 280.201 461.646
1890 0 59.6653 15.2518 910 97.1429 280.875 461.06
1891 0 59.3027 13.7768 817 100.681 280.062 460.72
1892 0 62.4681 13.0787 817 100.805 281.143 463.432
1893 0 64.6587 12.883 833 102.227 280.765 458.921
1894 0 63.5116 15.2098 966 100.29 281.318 461.746
1895 0 67.5457 14.4791 978 101.156 279.993 460.683
1896 0 72.4378 18.3468 1329 95.9737 280.232 461.001
1897 0 72.2936 17.6087 1273 96.4823 279.519 465.87
1898 0 77.367 19.2847 1492 95.6709 279.534 461.561
1899 0 76.316 15.6586 1195 100.468 279.125 462.885
1900 0 80.6061 18.3609 1480 95.7642 278.318 465.778
1901 0 83.6029 13.7196 1147 104.649 277.916 457.877
1902 0 85.7706 16.4392 1410 101.006 275.674 454.913
1903 0 88.4985 15.3562 1359 101.843 275.824 459.833
1904 0 92.5805 14.9384 1383 103.212 274.677 456.368
1905 0 93.7064 16.8932 1583 99.9185 274.5 457.596
1906 0 95.5281 17.2305 1646 100.752 273.957 454.645
1907 0 98.5975 14.8787 1467 105.789 273.362 450.56
1908 0 101.584 14.0179 1424 106.833 272.333 446.992
1909 0 108.571 21.387 2322 95.4961 272.243 449.769
1910 0 107.53 14.3867 1547 106.572 271.042 442.98
1911 0 111.603 15.6089 1742 104.812 271.644 440.061
1912 0 112.527 14.281 1607 107.594 271.493 437.917
1913 1 64.2116 13.3309 856 102.938 271.895 463.763
1914 0 63.1273 11.3105 714 107.244 271.475 459.403
1915 0 64.2871 14.4819 931 101.29 272.085 459.841
1916 0 68.2152 16.404 1119 97.7221 272.358 458.87
1917 0 69.1112 12.0675 834 104.182 272.754 455.692
1918 0 72.1847 16.1807 1168 98.0522 272.605 453.957
1919 0 75.1776 16.5475 1244 97.5129 273.686 451.294
1920 0 78.1875 16.3837 1281 97.7447 274.824 450.194
1921 0 78.1875 16.4093 1283 134.56 275.845 450.092
1922 0 81.1541 16.3023 1323 98.4286 275.281 449.395
1923 0 85.2311 17.4702 1489 97.6857 275.988 444.592
1924 0 85.2495 14.9561 1275 100.433 275.594 443.226
1925 0 88.1607 15.8234 1395 99.2588 276.592 439.543
1926 0 91.1567 14.0966 1285 101.171 277.469 437.089
1927 0 91.3378 13.1161 1198 99.1536 277.526 433.985
1928 0 92.2245 12.4804 1151 100.442 277.556 434.745
1929 0 92.3686 16.2176 1498 96.4065 277.955 425.291
1930 0 101.155 16.8751 1707 94.5155 278.62 435.743
1931 0 98.2601 11.266 1107 102.926 278.885 427.868
1932 0 101.237 9.94692 1007 104.382 279.933 427.013
1933 0 105.4 14.6395 1543 98.1607 280.832 428.663
1934 0 105.306 8.90741 938 104.919 279.749 428.371
1935 0 110.356 11.4266 1261 102.209 280.614 423.498
1936 1 126.24 13.4902 1703 95.9037 279.523 438.305
1937 1 71.2687 11.1129 792 93.8207 278.682 458.467
1938 0 73.1181 19.2839 1410 87.083 278.189 462.933
1939 0 75.1784 12.1311 912 94.1491 276.821 458.874
1940 0 81.1667 14.1684 1150 90.4061 278.596 466.773
1941 0 85.3056 16.8336 1436 89.4345 277.542 459.551
1942 0 85.1677 11.6006 988 95.5071 275.748 455.545
1943 0 87.2401 13.2049 1152 93.2161 274.565 458.338
1944 0 93.0928 14.9851 1395 91.1219 273.295 455.403
1945 0 97.1892 12.9335 1257 92.9881 273.733 456.143
1946 0 96.2584 13.7131 1320 92.1985 272.998 457.684
1947 0 98.377 13.0315 1282 92.9766 273.003 449.338
1948 0 99.278 11.5736 1149 96.5753 271.392 456.848
1949 0 103.634 9.93885 1030 98.1767 270.672 441.209
1950 0 108.38 11.6442 1262 94.3716 270.611 446.058
1951 0 113.442 20.2834 2301 84.3868 270.389 451.901
1952 0 117.489 14.3417 1685 91.6908 270.751 442.971
1953 1 63.2145 11.2 708 91.3672 269.484 467.816
1954 0 67.1814 11.402 766 92.0339 271.654 464.027
1955 0 71.3309 17.1875 1226 85.8091 269.933 464.909
1956 0 69.5004 11.5827 805 92.7528 272.498 454.667
1957 0 71.2165 9.70281 691 94.7178 271.543 452.104
1958 0 74.1152 16.6363 1233 88.0195 270.779 454.964
1959 0 77.1797 10.4173 804 92.7065 272.267 449.461
1960 1 149.566 14.8029 2214 91.3948 271.344 415.037
1961 0 150.94 11.8591 1790 94.0737 272.779 416.363
1962 0 154.065 9.80753 1511 96.7803 272.127 408.771
1963 0 158.544 12.6274 2002 93.0385 273.429 413.803
1964 1 91.2727 12.6106 1151 90.2085 273.792 446.843
1965 0 91.5836 12.0982 1108 91.1462 273.851 441.637
1966 0 96.2115 17.4304 1677 86.8205 274.099 438.153
1967 0 101.731 17.615 1792 85.9258 275.415 437.089
1968 0 97.3491 14.5456 1416 89.2154 276.636 430.554
1969 0 102.436 5.20323 533 93.4972 276.891 455.887
1970 0 104.417 12.316 1286 89.8367 277.332 437.757
1971 0 109.657 14.2535 1563 87.9949 277.877 438.07
1972 0 107.345 15.3523 1648 87.8149 277.192 438.701
1973 0 114.867 11.5612 1328 91.4209 278.351 440.047
1974 0 119.642 18.1292 2169 86.3711 278.058 439.175
1975 0 119.688 11.7723 1409 94.5067 277.702 431.38
1976 0 124.563 13.6558 1701 92.6755 277.663 424.089
1977 0 127.784 13.382 1710 92.1825 278.378 428.671
1978 1 70.2682 8.88027 624 91.016 278.098 453.038
1979 0 76.7258 10.5701 811 88.8705 278.398 455.959
1980 0 82.7568 13.4732 1115 85.5085 278.116 457.418
1981 0 83.8726 16.4297 1378 84.1945 278.342 454.31
1982 0 84.2519 13.2935 1120 88.2991 278.337 449.864
1983 0 84.6691 11.6453 986 89.3053 277.673 454.948
1984 0 89.2406 16.4499 1468 86.951 277.879 450.783
1985 0 90.2635 16.5848 1497 88.3073 277.68 447.094
1986 0 94.2776 17.0772 1610 88.2826 276.061 452.892
1987 0 97.268 13.1492 1279 92.2299 276.506 453.849
1988 0 99.2802 15.5922 1548 90.8398 274.888 444.796
1989 0 103.418 13.1408 1359 93.4032 274.824 447.182
1990 0 106.432 12.0264 1280 94.6773 273.274 443.573
1991 1 56.6276 12.1142 686 91.5875 273.276 470.264
1992 0 59.7378 10.3954 621 96.6151 273.85 462.035
1993 0 61.5745 14.5677 897 90.8974 272.649 464.635
1994 0 65.4023 15.2441 997 90.3039 271.999 465.737
1995 0 62.337 15.4643 964 91.501 271.644 463.026
1996 0 65.3152 14.9429 976 89.8371 271.094 466.72
1997 0 61.3536 17.0976 1049 89.9409 271.838 461.903
1998 0 69.5013 14.4458 1004 92.7351 270.56 454.678
1999 0 69.358 13.5961 943 93.8505 270.631 454.366
2000 0 72.2592 15.8319 1144 88.7788 269.65 462.842
2001 0 72.29 12.5605 908 93.6773 270.838 456.448
2002 0 81.3955 12.9737 1056 92.2898 270.33 452.868
2003 0 79.6482 9.19041 732 98.026 270.609 450.806
2004 0 78.2852 14.8304 1161 92.0241 271.359 445.317
2005 0 81.4744 15.4159 1256 91.4626 271.248 450.951
2006 0 87.9516 20.2953 1785 86.8622 272.691 447.257
2007 0 85.6113 12.7787 1094 96.2651 272.304 444.75
2008 0 86.4537 16.5059 1427 92.8416 273.399 442.172
2009 0 87.4247 12.6738 1108 97.5758 274.31 443.16
2010 0 91.3035 15.6292 1427 95.6994 274.097 438.296
2011 0 91.2554 15.1443 1382 94.5745 274.938 445.503
2012 0 94.5089 15.8715 1500 94.3907 274.341 441.007
2013 0 97.5083 13.3117 1298 97.2542 276.669 438.665
2014 0 101.784 14.5603 1482 96.7578 276.534 433.945
2015 0 103.457 16.113 1667 95.5639 276.784 433.403
2016 0 104.399 19.301 2015 90.9231 277.082 441.394
2017 0 104.248 14.1586 1476 97.5874 277.813 434.647
2018 1 66.2778 12.0553 799 95.4794 277.899 460.427
2019 0 67.4555 13.1642 888 95.9966 278.186 457.016
2020 0 68.367 18.9858 1298 90.3421 279.129 451.561
2021 0 70.5056 13.9989 987 96.076 278.529 452.532
2022 0 73.4911 17.8797 1314 89.898 278.963 459.446
2023 0 78.6226 10.9129 858 99.1562 278.831 455.35
2024 0 78.3643 11.9059 933 97.6409 278.148 455.511
2025 0 82.3279 12.0251 990 97.7384 277.605 449.51
2026 0 85.4544 12.9075 1103 97.0607 276.711 450.818
2027 0 90.3479 11.8099 1067 97.1443 276.754 455.138
2028 0 92.4791 14.8034 1369 94.7085 276.219 453.511
2029 0 96.8358 15.139 1466 94.1398 275.847 453.366
2030 0 99.6222 15.6792 1562 94.0576 275.698 445.359
2031 0 103.801 14.5085 1506 95.2477 273.791 443.086
2032 0 102.414 12.7326 1304 95.0406 273.663 452.301
2033 0 108.435 13.2706 1439 95.6498 272.748 443.691
2034 0 114.521 10.8277 1240 97.1194 271.673 440.799
2035 0 116.62 15.006 1750 92.7251 271.862 442.699
2036 1 68.267 8.20309 560 95.2232 271.888 467.193
2037 0 66.545 11.6162 773 92.0492 272.207 464.855
2038 0 73.1761 14.7589 1080 87.1074 271.54 467.714
2039 0 70.2908 12.4767 877 92.3717 271.136 461.743
2040 0 75.3301 11.7616 886 90.5418 271.082 460.602
2041 0 75.1314 13.0039 977 88.7165 270.032 462.624
2042 0 77.1649 12.415 958 89.666 270.808 460.749
2043 0 81.3529 12.7224 1035 88.201 270.898 462.961
2044 0 79.5546 13.1608 1047 87.978 271.372 462.983
2045 0 81.1439 9.05798 735 93.9633 271.283 454.782
2046 0 86.2886 16.3173 1408 87.8423 272.07 450.045
2047 0 88.5285 11.5104 1019 92.3405 272.188 448.601
2048 0 89.1485 12.5072 1115 91.6224 272.563 446.454
2049 0 91.2662 8.08623 738 97.3916 272.618 437.989
2050 0 95.4132 14.3272 1367 89.4148 273.796 447.442
2051 0 101.339 14.19 1438 90.4332 274.622 428.796
2052 0 104.573 16.4095 1716 88.0979 275.3 431.396
2053 0 104.406 13.9073 1452 91.7397 275.629 427.76
2054 0 110.52 11.5002 1271 92.1739 276.804 433.942
2055 1 59.5207 9.62691 573 92.5986 274.962 453.593
2056 0 62.3369 12.0795 753 90.9177 276.878 458.564
2057 0 66.2667 17.3541 1150 85.0035 276.644 457.183
2058 0 68.2848 10.2073 697 90.693 276.445 461.776
2059 0 67.2714 10.5394 709 91.8801 277.766 458.738
2060 0 70.188 10.1584 713 92.136 277.398 454.527
2061 0 76.3297 14.3588 1096 87.9735 277.811 459.342
2062 1 139.693 12.3986 1732 95.4717 279.145 423.935
2063 1 76.3014 13.0797 998 90.5481 278.898 455.148
2064 0 81.2514 18.6212 1513 85.3754 277.675 453.529
2065 0 80.2598 9.65614 775 93.1845 278.107 460.808
2066 0 83.5082 13.9627 1166 90.3868 276.706 456.536
2067 0 89.4014 15.436 1380 88.4746 277.414 458.466
2068 0 90.2966 15.5377 1403 89.0698 277.425 453.746
2069 0 93.2605 9.41449 878 94.8964 277.477 457.592
2070 0 101.41 13.6377 1383 90.6291 276.497 452.89
2071 0 102.316 13.8296 1415 90.7371 276.285 451.136
2072 0 102.403 9.99974 1024 95.583 275.331 447.798
2073 0 108.463 19.6842 2135 85.4937 273.452 440.145
2074 0 111.407 16.148 1799 89.3513 273.366 442.465
2075 0 109.342 10.1608 1111 95.5329 271.705 447.829
2076 0 117.247 18.0473 2116 87.2278 272.32 448.002
2077 0 118.238 14.4201 1705 91.3824 272.351 435.636
2078 0 119.3 9.32941 1113 97.4555 272.144 423.915
2079 1 67.2243 10.9782 738 89.7385 270.714 458.51
2080 0 72.1385 10.3828 749 94.9266 272.873 456.446
2081 0 78.6851 13.7002 1078 89.2607 271.593 458.29
2082 0 78.6314 20.3481 1600 83.825 271.009 458.166
2083 0 78.3954 13.9421 1093 88.8509 271.696 461.931
2084 0 81.2986 12.6447 1028 91.8638 271.812 449.695
2085 0 82.2967 13.3541 1099 90.9299 271.862 454.361
2086 0 87.1868 21.712 1893 82.7174 270.26 457.289
2087 0 87.1868 21.6202 1885 122.642 270.323 457.169
2088 0 90.137 14.0786 1269 91.0323 271.882 449.319
2089 0 91.3451 14.3412 1310 91.3954 272.941 442.504
2090 0 91.2293 16.6394 1518 89.4598 272.667 442.363
2091 0 96.3781 19.3405 1864 86.7012 272.856 441.859
2092 0 96.3589 12.9308 1246 93.8347 273.955 440.47
2093 0 99.3599 15.1872 1509 91.8065 273.712 433.561
2094 1 57.3914 12.4235 713 90.6746 275.248 461.237
2095 0 55.3432 11.5281 638 95.3339 274.937 456.359
2096 0 58.3576 10.9155 637 94.1978 276.028 459.636
2097 0 60.3319 14.3539 866 90.9781 276.479 456.195
2098 0 63.5256 17.0797 1085 89.3576 277.253 457.918
2099 0 63.3105 9.84039 623 97.9534 277.185 454.416
2100 0 69.5859 14.1408 984 91.8689 278.649 456.518
2101 0 68.3057 15.1964 1038 91.3699 278.084 456.162
2102 0 71.1236 13.7648 979 90.906 280.983 458.387
2103 0 74.0721 13.3114 986 91.5578 281.295 458.154
2104 0 74.2975 11.6828 868 93.7903 281.703 455.99
2105 0 75.1647 12.4793 938 94.0938 281.499 454.453
2106 0 81.2636 16.6126 1350 87.2126 281.258 462.915
2107 0 82.115 11.4352 939 93.1182 281.428 461.436
2108 0 85.1489 11.9673 1019 93.8773 280.734 457.589
2109 0 87.1903 12.9716 1131 93.5774 279.834 456.562
2110 0 92.2656 15.2494 1407 91.3653 279.676 454.708
2111 0 90.271 10.6125 958 97.3486 279.19 454.874
2112 0 98.2063 11.4962 1129 95.6404 278.955 454.224
2113 0 94.3986 12.6061 1190 96.6034 277.679 444.533
2114 0 98.4588 10.5933 1043 96.9521 277.299 452.158
2115 0 97.6458 11.2038 1094 96.3985 275.804 452.923
2116 0 95.4574 10.3921 992 96.9254 275.349 455.462
2117 1 114.891 16.9552 1948 91.5246 274.429 437.273
2118 0 118.5 13.8734 1644 94.8364 273.459 435.547
2119 1 69.4029 14.6391 1016 90.2785 273.357 463.88
2120 0 72.3882 14.6018 1057 91.0653 271.164 462.833
2121 0 71.8506 12.1363 872 95.6376 271.127 450.94
2122 0 69.2998 10.4474 724 98.4876 271.577 452.832
2123 0 77.2931 17.5177 1354 89.2496 271.919 451.221
2124 0 74.1886 14.0992 1046 92.2792 272.38 457.213
2125 0 72.3074 8.20109 593 97.656 271.899 460.315
2126 0 80.4547 10.5774 851 96.5476 271.566 452.316
2127 0 86.9295 14.5175 1262 92.7179 271.85 444.612
2128 0 85.5775 10.0143 857 97.6779 272.258 446.252
2129 0 92.8275 14.0368 1303 93.6761 272.285 439.684
2130 1 167.075 16.1245 2694 92.4599 271.078 412.8
2131 1 94.5994 14.0487 1329 93.7555 272.637 441.895
2132 0 98.6894 13.507 1333 93.8162 273.634 440.485
2133 0 101.813 13.2694 1351 95.4286 273.999 436.084
2134 0 104.651 14.4671 1514 94.8197 274.447 432.458
2135 0 106.894 15.651 1673 93.3359 274.193 431.409
2136 0 108.552 17.844 1937 92.0805 274.066 427.361
2137 0 110.462 16.4038 1812 93.4829 274.663 427.505
2138 0 119.182 15.749 1877 93.5807 275.52 424.07
2139 0 116.559 16.0263 1868 94.5637 275.903 417.586
2140 0 125.861 14.9689 1884 93.7675 277.007 425.314
2141 0 134.149 16.6159 2229 89.4208 276.743 431.286
2142 1 68.4555 13.2495 907 93.957 277.176 443.223
2143 0 78.5989 18.2064 1431 86.2991 277.051 450.656
2144 0 77.4997 15.3678 1191 90.6129 278.249 450.842
2145 0 79.514 13.6957 1089 92.1534 278.397 449.657
2146 0 79.4171 14.3042 1136 91.6937 279.246 451.108
2147 0 85.5448 15.8397 1355 89.0391 277.257 455.026
2148 0 86.54 17.1366 1483 89.7417 278.25 449.684
2149 0 88.3778 10.5909 936 96.8344 278.878 452.862
2150 0 90.4463 14.5943 1320 92.4091 278.75 453.774
2151 0 97.4727 14.1886 1383 93.2791 278.844 447.367
2152 0 95.324 16.9317 1614 91.4653 277.54 449.59
2153 0 96.5856 11.0161 1064 98.8477 278.104 446.141
2154 0 102.529 19.9065 2041 89.1651 278.278 438.983
2155 0 104.397 15.2304 1590 94.3182 277.587 435.745
2156 0 109.324 12.7511 1394 97.8623 277.04 437.043
2157 0 113.723 15.0189 1708 95.524 275.712 438.141
2158 0 115.383 12.2636 1415 98.6989 274.971 425.922
2159 0 117.548 13.8157 1624 97.4126 273.964 434.845
2160 0 122.618 14.7531 1809 96.0542 273.279 436.362
2161 0 125.543 14.1306 1774 97.1285 272.814 429.713
2162 0 129.771 15.0495 1953 96.1214 271.683 422.918
2163 0 137.626 12.3887 1705 97.2534 270.905 435.09
2164 1 75.2219 14.3841 1082 93.7292 271.853 449.592
2165 0 83.3496 12.0936 1008 95.1538 270.267 452.699
2166 0 79.4385 14.9801 1190 93.6202 270.224 444.245
2167 0 83.3252 15.7695 1314 88.1849 269.332 451.347
2168 0 85.2265 12.543 1069 92.2844 268.483 440.758
2169 0 89.4657 18.0851 1618 85.9951 269.821 446.962
2170 0 93.2904 15.2534 1423 86.9824 269.498 449.994
2171 0 97.2315 20.4769 1991 84.2521 269.807 440.591
2172 0 99.3836 13.7246 1364 89.4523 269.043 444.402
2173 0 103.401 12.5627 1299 91.8083 268.518 433.654
2174 0 104.396 12.9795 1355 91.9904 270.221 433.205
2175 0 109.318 15.0295 1643 89.871 270.763 429.677
2176 0 108.506 16.5797 1799 89.0934 271.061 426.069
2177 0 114.864 14.3474 1648 91.8792 272.328 432.271
2178 0 116.367 13.973 1626 93.6212 272.066 427.172
2179 0 121.478 18.3737 2232 87.7487 272.833 431.169
2180 0 121.544 16.0683 1953 89.8858 273.25 428.291
2181 0 124.433 9.54731 1188 98.5135 274.209 422.031
2182 0 128.504 15.5404 1997 91.2113 275.332 423.274
2183 1 76.4052 10.6275 812 90.2365 275.565 449.84
2184 0 78.1567 12.0783 944 89.1345 277.05 444.772
2185 0 80.2993 15.0935 1212 88.7995 275.254 449.297
2186 0 81.1655 12.7517 1035 92.4454 275.894 444.496
2187 0 79.4222 12.3391 980 93.8112 275.549 445.458
2188 0 87.1735 16.4729 1436 88.0306 276.765 446.973
2189 0 89.3652 16.0017 1430 88.9518 276.604 445.428
2190 0 92.2277 15.7762 1455 88.5993 277.235 447.669
2191 0 91.1833 8.62 786 98.7176 277.485 440.359
2192 0 97.2039 14.125 1373 91.6424 277.103 444.109
2193 0 99.3331 14.9296 1483 91.327 277.192 440.016
2194 0 104.229 12.8083 1335 93.4757 276.294 438.119
2195 0 105.393 11.016 1161 95.2377 276.027 442.346
2196 0 108.361 11.9047 1290 94.1822 275.696 442.081
2197 0 111.318 10.9865 1223 96.0213 274.528 433.412
2198 0 115.621 11.0707 1280 94.8164 275.704 439.364
2199 0 117.263 13.9259 1633 89.1611 275.91 443.077
2200 0 124.361 13.1553 1636 90.9548 275.136 431.306
2201 1 70.2487 11.9006 836 88.7273 274.193 462.998
2202 0 74.2213 11.9103 884 92.8903 274.907 458.305
2203 0 80.3603 17.3842 1397 88.0336 274.48 457.901
2204 0 81.2988 12.6939 1032 92.6172 274.181 455.983
2205 0 86.3468 21.321 1841 83.7116 273.25 461.121
2206 0 87.282 17.0596 1489 88.2706 272.914 453.606
2207 0 91.1886 13.1266 1197 91.6015 273.19 454.058
2208 0 92.2196 15.2245 1404 89.099 273.19 456.256
2209 0 98.4899 13.0369 1284 91.3902 272.777 453.681
2210 0 99.246 15.6581 1554 89.5309 272.733 448.524
2211 0 99.1461 12.4765 1237 93.5732 272.857 443.747
2212 0 101.283 12.0454 1220 94.0582 272.273 443.214
2213 0 101.161 10.676 1080 96.0518 272.848 437.077
2214 0 105.366 13.6382 1437 91.858 271.573 433.223
2215 0 109.337 19.5542 2138 84.7315 270.536 434.139
2216 0 115.703 15.5398 1798 88.579 269.616 435.326
2217 0 116.489 14.834 1728 89.7448 270.684 435.523
2218 0 116.498 11.9659 1394 93.7532 270.365 431.981
2219 0 117.585 14.0494 1652 90.04 271.305 442.32
2220 0 124.481 10.9495 1363 95.8922 271.122 430.779
2221 0 127.505 12.7995 1632 95.5888 272.207 418.372
2222 0 129.469 12.8294 1661 94.6358 272.453 427.82
2223 0 134.571 12.9523 1743 94.8135 274.403 422.455
2224 0 139.362 15.3987 2146 93.6156 274.886 414.02
2225 0 147.708 14.3661 2122 92.6324 274.57 423.852
2226 0 148.696 14.9768 2227 91.6313 274.931 427.173
2227 0 154.03 14.7504 2272 94.4498 274.536 407.547
2228 0 159.522 12.036 1920 97.7432 276.56 403.697
2229 1 88.4184 12.9385 1144 90.6049 275.552 447.834
2230 0 90.4239 9.47758 857 95.2322 276.959 444.868
2231 0 94.6388 22.2213 2103 83.7865 276.037 440.453
2232 0 94.2329 13.9866 1318 91.786 276.845 442.231
2233 0 104.613 17.8658 1869 87.283 277.253 442.823
2234 0 104.403 17.6815 1846 86.981 276.755 449.982
2235 0 107.368 19.8198 2128 86.5484 277.529 439.342
2236 0 107.207 18.5996 1994 88.0246 277.461 437.596
2237 0 112.422 9.85569 1108 96.4458 276.803 434.242
2238 0 119.641 17.5693 2102 88.2169 278.09 442.818
2239 0 120.371 10.9993 1324 95.102 276.982 431.72
2240 0 129.443 11.565 1497 92.988 275.874 441.238
2241 0 129.534 15.7102 2035 90.1371 275.633 437.482
2242 0 137.611 11.8159 1626 91.8186 274.885 440.196
2243 0 141.858 13.1117 1860 92.2769 273.927 433.813
2244 0 143.716 13.4849 1938 93.9685 272.898 420.792
2245 0 150.334 14.0022 2105 93.2651 271.828 421.666
2246 0 154.529 14.1462 2186 93.2118 272.152 421.313
2247 0 158.361 12.623 1999 95.1421 271.742 419.149
2248 0 163.386 12.0879 1975 96.9175 271.014 410.45
2249 0 170.569 14.7096 2509 93.5492 270.418 413.2
2250 0 175.833 17.1697 3019 93.0464 270.499 401.499
2251 0 181.868 14.6974 2673 95.6532 270.154 399.866
2252 0 182.568 13.1403 2399 97.3735 270.091 407.673
2253 0 187.531 21.5271 4037 89.1561 269.029 407.073
2254 0 187.531 21.5431 4040 123.431 268.042 407.215
2255 0 187.729 14.2919 2683 96.9605 269.372 400.205
2256 1 201.74 14.8806 3002 96.2302 269.775 397.503
2257 0 206.424 15.2841 3155 97.0675 270.06 387.882
2258 0 215.665 18.5195 3994 92.4442 270.406 392.138
2259 0 219.802 12.6614 2783 100.825 270.22 382.654
2260 0 220.579 12.2859 2710 103.235 271.669 369.317
2261 0 232.921 14.902 3471 100.73 271.277 373.334
2262 0 238.769 16.6228 3969 99.0345 272.547 375.946
2263 0 244.773 14.1314 3459 102.252 272.079 369.29
2264 1 189.675 14.2718 2707 99.5083 274.174 400.985
2265 0 194.784 14.6624 2856 100.923 275.372 389.025
2266 0 200.545 13.4683 2701 103.28 275.113 384.605
2267 0 211.674 14.2389 3014 101.998 276.245 384.92
2268 0 215.599 16.7626 3614 99.2327 276.206 384.696
2269 0 222.719 15.661 3488 100.689 276.06 379.46
2270 0 229.649 16.4643 3781 99.7408 276.821 372.477
2271 0 233.783 12.7725 2986 103.498 277.684 375.717
2272 0 244.888 16.3707 4009 100.199 278.038 359.964
2273 0 253.93 12.2238 3104 102.264 277.972 381.914
2274 0 263.041 14.3552 3776 100.317 278.457 364.699
2275 1 201.538 14.0321 2828 98.7115 278.601 387.356
2276 0 211.653 13.8576 2933 98.8888 278.692 386.728
2277 0 224.754 15.7016 3529 94.7186 279.362 396.917
2278 0 226.477 12.7077 2878 100.334 278.026 374.438
2279 0 239.56 12.74 3052 97.2926 278.025 403.205
2280 0 247.737 13.9099 3446 98.9817 275.723 376.505
2281 0 257.651 16.5495 4264 96.9707 277.264 367.422
2282 1 202.539 22.1587 4488 89.7616 275.95 400.588
2283 0 209.563 14.9549 3134 97.3845 276.181 394.554
2284 0 215.563 12.9475 2791 98.8054 275.737 401.915
2285 0 226.659 13.7784 3123 98.0644 275.347 392.562
2286 0 235.557 17.9617 4231 92.5935 274.659 399.416
2287 0 242.479 15.1889 3683 96.3736 273.9 381.961
2288 0 247.572 12.9781 3213 99.8858 272.493 366.18
2289 0 261.091 19.476 5085 92.7756 272.565 361.304
2290 1 318.204 17.3505 5521 94.2695 271.338 357.578
2291 1 67.3518 13.3775 901 91.6537 270.18 460.326
2292 0 67.4527 6.58239 444 94.9685 269.98 464.282
2293 0 71.515 7.13137 510 95.1549 269.188 460.631
2294 0 71.0904 10.7187 762 91.9856 269.648 455.765
2295 0 78.1491 10.8255 846 90.6998 270.875 458.894
2296 0 77.197 9.62472 743 92.1467 270.561 456.641
2297 0 79.1476 15.6038 1235 84.0251 270.828 464.536
2298 0 79.3586 15.3102 1215 87.5811 271.965 451.455
2299 0 81.1422 11.905 966 91.1822 271.667 448.563
2300 0 85.445 12.1716 1040 90.2337 272.182 452.087
2301 0 88.1695 13.0657 1152 90.3663 271.589 447.392
2302 0 89.3341 8.27232 739 95.6928 272.211 446.977
2303 0 92.3155 14.093 1301 88.8248 272.177 450.346
2304 0 99.5359 11.423 1137 91.3474 272.803 446.195
2305 0 100.294 17.1197 1717 85.6925 273.159 442.229
2306 0 103.382 13.5807 1404 88.0577 272.897 442.918
2307 0 102.409 11.5615 1184 91.7973 274.331 430.873
2308 0 110.036 18.4304 2028 85.5123 272.885 428.085
2309 0 109.498 9.10516 997 94.3571 274.939 437.118
2310 0 112.548 8.84069 995 95.7367 274.095 429.782
2311 1 66.226 8.78809 582 91.4364 275.601 449.345
2312 0 66.3166 10.857 720 90.9167 275.768 453.269
2313 0 69.3978 17.6375 1224 84.4363 275.939 455.801
2314 0 73.3805 13.2051 969 88.8431 276.129 456.466
2315 0 70.1359 9.15365 642 94.1355 276.888 452.657
2316 0 76.3505 17.6161 1345 84.7428 277.221 458.839
2317 0 78.7642 12.5438 988 95.6953 278.322 449.59
2318 0 74.4104 10.2808 765 98.936 277.554 448.233
2319 0 80.5678 14.4971 1168 93.5565 277.795 454.155
2320 0 86.4467 14.0202 1212 93.0842 277.716 455.918
2321 1 157.961 14.0035 2212 98.3047 277.976 415.408
2322 1 92.4377 16.1947 1497 89.5564 276.683 459.07
2323 0 92.4162 14.7485 1363 92.4189 276.858 454.571
2324 0 91.3649 9.90534 905 97.7392 276.425 455.725
2325 0 100.239 15.3034 1534 90.2875 276.349 457.374
2326 0 102.309 11.2209 1148 95.8798 276.358 452.008
2327 0 107.452 11.9961 1289 94.0496 275.454 454.404
2328 0 107.479 12.7559 1371 94.7214 274.688 450.016
2329 0 113.732 10.0236 1140 97.9535 273.519 446.095
2330 0 115.027 15.0921 1736 91.9366 273.419 447.074
2331 0 116.727 11.9339 1393 97.2972 273.091 435.805
2332 0 116.111 8.50912 988 99.4899 271.876 441.538
2333 0 125.155 14.6778 1837 94.6081 271.279 430.586
2334 0 127.699 11.9265 1523 98.4104 271.695 427.741
2335 0 135.195 12.604 1704 96.4724 270.634 430.712
2336 1 79.5533 13.6009 1082 90.2911 271.171 456.72
2337 0 75.5739 10.9694 829 95.1496 270.786 450.257
2338 0 82.6119 7.8318 647 97.0433 270.774 451.321
2339 0 84.4427 10.966 926 94.4179 270.758 447.063
2340 0 89.5639 13.7444 1231 89.8042 271.256 451.102
2341 0 89.6823 13.5813 1218 91.1888 270.941 445.368
2342 0 92.3617 11.704 1081 94.2266 271.388 436.599
2343 0 92.4202 12.1186 1120 91.3857 271.507 446.018
2344 0 95.3801 11.04 1053 94.6591 272.159 441.881
2345 0 98.3845 13.2236 1301 92.2759 272.85 439.015
2346 0 98.5509 13.8406 1364 91.9949 273.677 432.259
2347 0 103.502 13.5069 1398 92.2439 274.092 430.513
2348 0 110 18.4818 2033 86.9198 273.76 434.19
2349 0 107.817 8.91329 961 98.1457 275.224 424.361
2350 0 112.68 11.4217 1287 95.4444 274.221 421.103
2351 0 116.574 11.7608 1371 94.9453 275.807 424.14
2352 1 162.45 8.9997 1462 100.142 275.826 399.062
2353 1 117.749 12.7389 1500 93.9273 276.763 424.882
2354 0 126.879 17.4575 2215 89.5187 277.013 419.26
2355 0 126.478 14.6666 1855 92.3024 278.484 420.469
2356 0 129.797 15.1236 1963 90.5262 279.368 428.58
2357 0 134.058 8.30985 1114 98.1993 279.897 423.411
2358 0 140.83 12.2914 1731 94.829 279.273 416.926
2359 1 81.4681 16.3009 1328 86.5264 279.338 445.051
2360 0 83.4268 10.9557 914 89.5317 278.485 452.121
2361 0 84.293 11.6261 980 90.6531 278.862 449.601
2362 0 89.6524 10.1392 909 92.1595 279.395 451.006
2363 0 93.5108 11.9772 1120 90.5259 279.282 448.637
2364 0 93.8049 13.592 1275 89.56 277.954 448.8
2365 0 93.7687 9.07553 851 93.2797 278.317 452.182
2366 0 100.672 14.135 1423 89.8545 277.523 445.282
2367 0 104.591 11.4828 1201 91.8759 277.366 448.645
2368 0 107.778 19.6608 2119 84.6489 276.7 449.394
2369 0 109.727 11.0365 1211 93.5789 276.054 439.607
2370 0 109.592 9.97334 1093 95.4556 274.541 439.596
2371 0 119.782 17.6905 2119 86.7777 273.754 441.101
2372 1 69.409 14.5226 1008 85.5853 273.247 465.487
2373 0 73.3892 20.1664 1480 80.7845 271.886 467.345
2374 0 73.3812 14.3634 1054 86.3634 272.013 463.084
2375 0 75.3688 12.4853 941 87.9044 270.451 462.587
2376 0 75.2856 8.84631 666 92.4219 270.063 458.291
2377 0 80.5473 16.152 1301 86.0046 269.59 451.404
2378 0 83.3256 11.6771 973 90.2179 269.101 454.582
2379 0 80.4904 9.83968 792 93.0606 269.183 452.942
2380 0 82.182 9.33295 767 94.8618 269.964 446.373
2381 0 88.4126 11.4803 1015 91.9379 270.174 446.279
2382 0 88.3406 12.9046 1140 91.6596 269.63 443.352
2383 0 93.3917 12.303 1149 92.0644 270.524 441.114
2384 0 99.8069 11.6024 1158 92.1598 270.99 443.648
2385 0 97.3867 13.0203 1268 91.0284 269.934 441.811
2386 0 99.3422 11.5963 1152 93.0026 271.298 440.496
2387 0 99.4028 13.7119 1363 91.1167 270.492 440.327
2388 0 107.844 17.5161 1889 85.7967 271.62 444.798
2389 0 111.706 16.6866 1864 89.4909 271.972 430.289
2390 0 111.72 18.2152 2035 86.7248 272.079 438.21
2391 0 115.986 19.942 2313 86.6096 272.614 426.604
2392 0 112.765 12.1048 1365 95.1267 273.478 422.799
2393 0 120.686 13.8873 1676 93.5794 272.719 423.826
2394 0 121.618 11.3799 1384 97.461 274.692 419.753
2395 1 67.2872 10.3586 697 92.4792 275.01 449.769
2396 0 71.2197 11.8226 842 90.8527 276.552 451.45
2397 0 75.3695 12.6311 952 90.2017 276.877 452.087
2398 0 76.5588 10.5017 804 92.3794 278.262 452.838
2399 0 79.3634 10.3952 825 93.6412 278.399 452.573
2400 0 81.2419 16.7032 1357 86.9241 277.968 453.852
2401 0 79.1341 9.46495 749 95.3338 278.773 453.681
2402 0 87.311 16.7677 1464 87.2821 278.263 456.721
2403 0 87.2028 13.8413 1207 91.8923 278.548 450.486
2404 0 92.268 12.4637 1150 93.1478 277.066 451.613
2405 0 94.3468 20.2445 1910 85.7246 277.016 452.706
2406 0 96.4025 20.0306 1931 87.4826 276.026 447.797
2407 0 101.332 12.2074 1237 93.6095 275.992 450.404
2408 0 104.301 18.8876 1970 87.8944 275.753 451.384
2409 0 108.272 12.6071 1365 93.3824 275.747 450.593
2410 0 114.632 21.3291 2445 85.944 274.763 442.249
2411 0 115.596 11.9208 1378 95.0167 273.523 443.369
2412 0 120.327 14.0866 1695 92.3498 273.464 447.343
2413 0 127.366 17.3123 2205 90.2449 272.596 443.113
2414 0 130.767 15.2791 1998 93.0325 271.547 434.074
2415 0 135.422 10.8032 1463 96.8175 271.395 438.205
2416 1 75.7054 13.0374 987 90.2685 270.658 457.416
2417 0 83.6792 14.6512 1226 87.1623 270.669 462.324
2418 0 84.4467 13.9733 1180 89.3525 270.814 455.483
2419 0 85.4547 11.0819 947 91.7191 270.208 454.167
2420 0 90.6922 18.5242 1680 84.0696 269.886 455.166
2421 0 91.6509 16.5628 1518 87.1989 270.789 447.543
2422 0 93.6768 12.9594 1214 89.8089 269.948 451.83
2423 0 95.3658 11.0522 1054 93.5171 270.325 441.613
2424 0 97.665 19.9867 1952 85.4795 270.472 441.614
2425 0 100.339 9.81674 985 94.8376 269.528 440.848
2426 0 103.396 17.4378 1803 87.0422 271.023 442.087
2427 0 101.442 9.75924 990 96.7596 271.737 437.888
2428 0 100.686 10.1702 1024 94.8359 271.802 443.698
2429 0 99.4668 9.67157 962 96.3368 272.267 439.29
2430 1 75.4775 9.15504 691 93.0753 272.744 453.563
2431 0 74.4697 6.95585 518 94.5811 273.556 455.859
2432 0 74.9602 11.3527 851 92.3514 274.213 448.509
2433 0 73.439 6.31817 464 97.4181 274.31 447.918
2434 0 75.4879 10.9686 828 92.8961 275.197 449.822
2435 1 132.527 9.00951 1194 98.3652 275.23 422.809
2436 0 135.374 14.0647 1904 94.3902 275.252 413.589
2437 1 149.745 16.0072 2397 89.1998 276.715 420.616
2438 0 147.46 10.7961 1592 96.5942 277.582 418.353
2439 0 150.715 13.8805 2092 92.2218 278.184 422.394
2440 0 158.566 14.4987 2299 92.9356 278.33 413.879
2441 0 160.538 25.3149 4064 83.6978 277.714 415.802
2442 0 167.509 15.0858 2527 91.486 277.455 419.212
2443 0 171.796 11.7989 2027 94.9985 278.756 417.324
2444 0 174.315 5.81133 1013 102.85 278.15 416.21
2445 0 185.673 11.4556 2127 97.6921 277.566 405.865
2446 0 189.393 8.75958 1659 103.181 276.177 376.728
2447 0 196.511 11.7754 2314 99.2619 277.023 400.597
2448 0 206.029 14.5271 2993 96.1975 275.871 397.687
2449 0 215.871 20.6976 4468 89.504 275.446 399.586
2450 0 213.886 12.6703 2710 98.245 274.409 379.031
2451 1 132.901 11.3543 1509 95.7124 275.242 443.102
2452 1 73.6506 10.9571 807 93.3928 274.519 463.752
2453 0 76.3296 6.23612 476 98.7374 273.99 459.962
2454 0 80.335 15.759 1266 89.0032 273.25 460.291
2455 0 84.3501 12.0687 1018 92.8605 272.11 455.801
2456 0 88.8662 13.4134 1192 89.2064 272.187 458.701
2457 0 88.2524 14.1752 1251 89.6251 271.398 453.627
2458 0 91.6313 13.6744 1253 91.3049 270.604 446.929
2459 0 94.4906 11.0805 1047 94.3897 269.914 447.587
2460 0 96.5128 13.7702 1329 92.2671 269.955 447.439
2461 0 99.3612 12.8722 1279 94.6708 269.159 442.464
2462 1 186.287 17.312 3225 91.6428 268.611 408.244
2463 0 191.875 16.3648 3140 93.5459 269.653 400.72
2464 1 110.578 12.0458 1332 97.527 270.179 436.641
2465 0 111.738 11.6433 1301 96.6111 270.496 439.82
2466 0 111.437 12.3747 1379 98.5199 270.614 429.405
2467 0 111.555 11.3217 1263 100.303 270.573 428.751
2468 0 115.802 13.1518 1523 94.258 270.738 442.845
2469 0 121.716 12.8578 1565 98.1744 270.075 429.38
2470 0 120.677 13.5817 1639 98.4295 271.532 427.93
2471 0 130.627 16.6275 2172 94.4576 271.764 421.061
2472 0 130.511 15.2784 1994 96.7207 272.603 419.946
2473 0 139.71 16.9422 2367 93.7964 272.24 423.04
2474 0 137.39 15.1758 2085 97.3861 273.058 418.219
2475 1 91.4975 10.7325 982 96.8472 274.238 445.802
2476 0 89.5488 14.6847 1315 92.549 275.82 445.596
2477 0 93.3729 16.1824 1511 91.5341 275.6 446.482
2478 0 102.529 19.1751 1966 86.4242 275.991 451.159
2479 0 99.1164 20.8644 2068 87.4342 275.846 440.083
2480 0 101.485 16.8793 1713 91.7163 277.503 443.422
2481 0 104.415 17.1719 1793 91.8394 278.098 442.038
2482 0 106.206 14.453 1535 95.8997 278.544 435.147
2483 0 112.434 17.628 1982 89.3214 277.726 448.239
2484 0 117.665 15.6377 1840 93.2158 278.6 442.721
2485 0 120.453 13.9888 1685 96.3911 277.58 438.713
2486 0 119.278 14.571 1738 97.0662 277.033 431.373
2487 0 127.432 14.494 1847 96.6995 277.326 436.246
2488 0 127.432 14.4469 1841 146.392 278.326 436.201
2489 0 128.707 11.2892 1453 101.765 276.832 436.317
2490 0 135.882 14.9174 2027 96.5086 276.155 439.169
2491 0 141.678 20.4265 2894 91.4986 275.41 429.737
2492 0 145.576 13.4225 1954 100.095 274.737 428.228
2493 0 149.545 12.8256 1918 100.968 274.69 421.922
2494 0 153.713 13.6098 2092 100.087 273.52 423.721
2495 0 156.914 13.5552 2127 101.068 272.075 424.006
2496 0 164.865 13.5626 2236 101.008 272.458 419.566
2497 0 170.725 16.6115 2836 97.689 271.388 417.201
2498 0 174.738 16.6993 2918 97.9626 271.26 411.199
2499 0 177.676 21.8319 3879 92.2586 270.574 411.797
2500 0 183.999 14.5544 2678 100.768 270.53 402.904
2501 0 192.11 14.4917 2784 100.617 269.893 402.05
2502 0 192.827 13.1569 2537 102.678 269.641 395.85
2503 0 198.685 13.5894 2700 102.511 269.861 390.726
2504 0 202.758 14.6973 2980 99.6872 269.586 399.154
2505 0 212.833 21.0964 4490 93.0205 269.302 390.261
2506 0 214.721 15.8065 3394 99.9655 269.997 374.237
2507 0 224.754 18.8962 4247 94.4556 270.198 389.871
2508 0 231.638 14.5615 3373 102.351 269.582 370.06
2509 1 162.526 14.896 2421 98.9756 270.748 408.412
2510 0 168.89 14.1808 2395 100.958 270.922 397.248
2511 0 175.731 16.5594 2910 97.4732 271.253 400.534
2512 0 179.47 14.1305 2536 100.91 270.733 394.019
2513 0 180.939 12.5567 2272 104.113 271.032 377.214
2514 0 190.191 15.8209 3009 98.8927 271.786 384.357
2515 0 198.749 15.0139 2984 98.4581 272.231 393.683
2516 0 197.826 15.9888 3163 98.5732 272.986 381.39
2517 0 202.005 13.3115 2689 102.748 273.112 360.474
2518 1 216.053 15.4916 3347 98.9842 274.346 369.432
2519 0 217.751 12.3673 2693 104.087 274.787 367.483
2520 0 226.784 15.3274 3476 98.6191 275.722 378.135
2521 0 231.696 12.8056 2967 103.768 275.479 362.074
2522 0 240.627 16.083 3870 99.3752 276.309 361.839
2523 0 248.781 10.5916 2635 101.392 275.724 388.54
2524 1 195.555 12.3086 2407 101.715 276.467 386.32
2525 0 205.778 18.4179 3790 93.1417 275.037 394.539
2526 0 208.77 21.4063 4469 91.6543 275.542 380.665
2527 0 213.925 14.9726 3203 99.6072 276.367 374.104
2528 0 218.73 12.8743 2816 101.209 276.648 385.081
2529 0 219.057 11.7321 2570 100.975 276.162 392.634
2530 1 13.0063 2.84477 37 82.2162 276.189 486.622
2531 0 17.0312 13.5633 231 71.7273 276.32 489.892
2532 0 18.0288 10.095 182 74.7088 275.769 489.357
2533 1 314.064 16.054 5042 98.9349 275.507 335.675
2534 0 305.759 20.997 6420 91.4338 272.977 327.772
2535 0 314.454 22.2767 7005 90.558 273.563 336.542
2536 0 319.555 27.6134 8824 86.6692 272.478 314.488
2537 0 314.068 22.7658 7150 91.8822 271.354 329.305
2538 1 11.0101 6.08535 67 79.8955 270.672 480.657
2539 0 14.0396 7.76374 109 77.6789 269.734 484.009
2540 0 350.31 23.8817 8366 90.9732 269.606 308.071
2541 0 358.267 16.5044 5913 98.7291 269.975 276.37
2542 0 359.181 11.362 4081 103.174 269.652 328.278
2544 0 305.142 23.92 7299 89.194 268.079 330.408
2545 0 308.036 15.9462 4912 99.1671 268.761 314.958
2546 0 317.039 16.8812 5352 97.8391 268.551 312.28
2547 0 327.089 17.2797 5652 98.0272 269.24 313.042
2548 0 338.044 15.3974 5205 100.773 268.615 302.298
2549 0 346.92 17.8917 6207 98.2929 268.844 292.319
2550 0 357.912 26.7021 9557 88.8417 268.844 307.025
2551 0 371.017 25.7805 9565 89.7602 267.401 299.782
2552 0 371.956 14.8647 5529 102.072 269.691 271.37
2555 0 376.42 29.9081 11258 86.2622 268.334 286.735
2557 0 364.142 20.5167 7471 95.9925 271.284 272.501
2558 0 370.26 19.3918 7180 96.9923 272.659 275.796
