time division length width area intensity CMx CMy
0 0 53.1837 18.2199 969 119.416 58.2508 468.763
1 0 53.1837 18.1259 964 144.953 59.2822 468.786
2 0 54.1581 13.6822 741 126.941 56.4184 470.147
3 0 54.1772 14.9694 811 148.531 54.4168 471.153
4 0 60.1372 15.8637 954 116.002 54.9455 467.804
5 0 60.1264 17.9289 1078 113.239 53.6837 469.609
6 0 59.161 13.7084 811 124.428 52.91 464.818
7 0 62.0446 15.6984 974 123.505 51.8203 462.824
8 0 66.1957 18.4906 1224 112.01 51.9616 467.625
9 0 63.0891 15.1373 955 124.716 50.5047 464.601
10 0 63.0891 15.0739 951 152.09 48.4837 464.671
11 0 73.5945 16.917 1245 115.864 48.9189 464.927
12 0 69.2526 14.6854 1017 124.879 48.3884 459.514
13 0 77.4147 17.8002 1378 113.856 47.3041 457.43
14 0 75.1541 17.4974 1315 119.45 47.9034 453.376
15 1 39.0839 11.0276 431 122.787 48.5568 472.626
16 0 40.0104 13.7464 550 115.804 49.1236 472.391
17 0 43.0649 13.1197 565 121.956 48.3292 468.384
18 0 44.0501 15.2554 672 118.573 48.1384 467.295
19 0 46.3113 11.5307 534 121.682 48.9775 468.026
20 0 45.0723 14.2216 641 115.988 48.7145 464.005
21 0 47.0862 14.208 669 115.36 49.7399 462.366
22 0 48.0427 16.9224 813 114.197 48.7934 459.068
23 0 49.1164 16.186 795 113.891 51.083 463.229
24 0 49.1003 12.7698 627 120.332 50.6842 460.52
25 0 51.2364 16.2775 834 115.373 51.0659 455.862
26 0 52.2272 16.5239 863 114.037 51.7416 455.73
27 0 55.2522 14.642 809 115.716 51.7379 455.422
28 0 58.2504 16.7724 977 111.178 52.3337 454.279
29 0 55.0244 15.0479 828 114.771 53.6172 451.611
30 0 60.2491 16.2824 981 111.056 53.5984 453.871
31 0 65.2075 19.7677 1289 105.961 55.0698 454.435
32 0 64.1769 17.8101 1143 108.855 55.5293 452.925
33 0 68.1389 22.7477 1550 102.598 56.1794 450.669
34 0 68.3207 17.5203 1197 110.008 56.9699 448.555
35 0 73.1411 16.0512 1174 111.005 57.678 448.896
36 0 76.3949 16.0482 1226 109.84 59.1158 450.754
37 0 77.2696 15.9442 1232 109.283 60.0682 447.744
38 0 80.2674 16.3454 1312 108.431 60.9626 445.685
39 0 82.1318 13.9045 1142 110.541 60.4834 452.076
40 0 84.2921 17.5461 1479 105.66 61.05 446.926
41 0 88.4188 15.0081 1327 111.72 60.4589 445.84
42 0 87.3902 13.9489 1219 111.289 60.6727 443.71
43 0 88.1996 10.3742 915 116.691 60.059 442.329
44 0 96.2621 13.6502 1314 108.414 59.8364 441.504
45 0 99.1602 13.9774 1386 108.677 59.6313 440.281
46 0 101.421 12.3643 1254 122.49 59.4107 441.191
47 0 109.302 17.2366 1884 113.965 59.0053 440.295
48 0 112.259 15.2593 1713 114.952 57.4688 435.294
49 1 62.1234 13.0869 813 116.608 56.9225 462.315
50 0 65.0638 17.0448 1109 109.536 55.817 464.02
51 0 68.18 16.5884 1131 111.545 55.1989 463.657
52 0 67.296 13.1063 882 117.406 54.0522 463.205
53 0 72.0455 14.6713 1057 116.699 53.3396 458.743
54 0 74.2414 16.9717 1260 113.037 52.5516 454.256
55 0 75.1479 12.5486 943 119.794 52.0042 456.274
56 0 80.2644 16.4706 1322 113.53 51.584 451.954
57 0 83.3097 15.2323 1269 115.441 51.2041 451.095
58 0 86.2171 13.3732 1153 117.341 50.8959 450.808
59 0 90.1784 16.678 1504 112.86 51.3045 446.307
60 0 92.4709 14.5019 1341 115.873 50.1984 445.688
61 0 98.3863 16.7706 1650 110.445 49.2927 447.764
62 0 97.3942 14.929 1454 114.812 50.2249 439.336
63 0 102.228 14.8492 1518 114.319 50.7589 437.277
64 0 105.434 19.5383 2060 108.397 49.9942 434.227
65 0 109.516 15.8242 1733 114.593 51.1316 431.376
66 0 111.522 12.1501 1355 117.627 50.9934 436.805
67 0 119.608 15.3585 1837 115.063 51.6091 427.244
68 0 122.285 14.041 1717 118.222 51.5527 421.722
69 1 64.2316 14.619 939 107.717 51.9499 452.171
70 0 65.1648 13.3047 867 110.736 51.8339 444.983
71 0 68.2893 15.5808 1064 109.714 53.7227 450.811
72 0 73.3701 16.3418 1199 109.94 54.2244 446.444
73 0 77.3595 16.9856 1314 107.949 54.6256 447.696
74 0 75.5205 14.261 1077 112.077 54.1179 447.682
75 0 81.2478 15.4712 1257 110.285 54.7844 442.696
76 0 81.3713 13.4814 1097 113.791 53.8523 441.152
77 0 86.2059 15.5326 1339 109.244 55.0306 446.777
78 0 88.3554 13.3099 1176 114.653 55.4541 436.004
79 0 90.4864 15.494 1402 111.429 56.1576 439.939
80 0 92.2147 14.3903 1327 115.752 57.2102 436.515
81 0 96.3308 18.9555 1826 108.294 57.5991 442.042
82 0 99.3546 14.5338 1444 114.143 57.171 441.149
83 0 104.359 19.1359 1997 106.419 57.018 444.074
84 0 107.443 15.7386 1691 112.333 57.4234 434.794
85 0 108.301 15.9925 1732 110.031 56.332 442.859
86 0 116.416 14.7574 1718 112.639 56.4965 437.955
87 0 119.388 15.4705 1847 112.579 55.4369 438.674
88 0 124.37 15.1243 1881 111.895 55.8846 433.089
89 1 69.2398 13.0416 903 108.949 54.2182 457.885
90 0 73.3309 14.8778 1091 102.478 53.5023 466.927
91 0 75.1714 13.6222 1024 107.186 53.9385 459.312
92 0 75.212 15.2103 1144 106.868 54.9231 461.886
93 0 78.3522 11.2696 883 112.482 54.3058 457.492
94 0 83.2508 14.9788 1247 108.642 53.6054 459.891
95 0 86.3054 12.6064 1088 110.156 53.0836 462.732
96 0 89.1979 15.5497 1387 107.854 52.7924 457.037
97 0 89.2299 11.4648 1023 115.37 52.52 452.815
98 0 92.5317 12.3741 1145 114.234 51.4297 451.051
99 0 96.3822 12.8758 1241 113.238 50.4738 451.064
100 0 100.195 12.0066 1203 113.468 50.113 448.101
101 0 105.467 15.9197 1679 107.797 48.7874 441.497
102 0 109.45 14.1799 1552 110.246 47.953 437.966
103 0 113.298 10.1855 1154 110.974 48.1568 446.725
104 0 119.686 15.1731 1816 104.421 48.022 441.159
105 0 122.255 14.5025 1773 104.182 46.7219 442.565
106 1 69.0932 12.6206 872 102.003 47.0424 460.684
107 0 67.467 14.1106 952 102.625 46.8624 451.484
108 0 70.0999 18.2739 1281 98.0461 47.4949 453.386
109 0 74.2172 17.7991 1321 98.9538 47.4285 449.201
110 0 76.1142 15.8578 1207 100.806 47.6305 452.396
111 0 79.2588 12.8314 1017 105.421 47.8879 446.269
112 0 81.371 14.9808 1219 102.797 49.0172 448.889
113 0 84.2517 15.7029 1323 102.916 49.6274 441.828
114 0 87.3817 21.2859 1860 96.9011 49.6694 443.445
115 0 88.7453 14.1979 1260 104.729 50.6944 443.845
116 0 88.4948 10.5656 935 110.309 52.1219 440.513
117 0 96.6708 24.0507 2325 95.6004 52.7708 439.005
118 0 99.8861 12.6044 1259 110.696 54.0199 428.835
119 0 98.3708 15.9905 1573 106.221 54.1386 435.586
120 0 101.677 11.4579 1165 113.771 54.9854 431.337
121 0 107.493 12.3543 1328 110.468 56.0851 432.443
122 1 59.4325 10.1628 604 106.942 56.8129 456.679
123 0 58.3809 13.1379 767 105.675 56.7106 450.318
124 0 58.3809 13.1207 766 133.753 57.7245 450.358
125 0 63.1844 12.3132 778 99.3149 56.2995 460.531
126 0 62.2301 10.6058 660 102.729 56.3652 461.789
127 0 64.2245 10.728 689 101.049 56.9376 465.004
128 0 66.1783 7.44958 493 105.124 57.856 463.258
129 0 71.3028 16.7876 1197 96.7853 56.0927 460.115
130 0 74.3801 13.068 972 101.285 56.3251 460.964
131 0 76.3272 15.2108 1161 99.1843 55.3282 459.638
132 0 77.2543 13.229 1022 102.804 55.9002 460.029
133 0 78.269 15.0762 1180 102.033 55.3814 457.671
134 0 82.2121 11.7866 969 106.013 54.3468 458.461
135 0 83.3809 11.8612 989 105.609 53.7462 458.747
136 0 84.404 9.02801 762 110.381 51.6837 454.472
137 0 88.3447 12.7455 1126 105.234 53.373 456.478
138 0 94.3051 11.3143 1067 107.586 52.1003 452.612
139 0 93.379 12.4653 1164 107.851 51.6349 448.854
140 0 95.369 12.8868 1229 108.668 49.3417 445.503
141 0 99.4207 13.297 1322 109.205 49.5431 446.513
142 0 103.563 11.9154 1234 111.61 49.278 444.576
143 0 108.559 15.2176 1652 106.591 48.4177 442.3
144 0 109.271 11.714 1280 111.174 47.7125 438.855
145 0 111.504 12.1252 1352 110.863 46.6746 439.033
146 1 57.2541 9.81589 562 105.856 46.0854 466.931
147 0 55.3123 8.47913 469 106.635 45.6588 468.203
148 0 60.208 12.8887 776 101.854 45.3299 466.17
149 0 62.5935 13.9631 874 101.222 45.2963 457.963
150 0 63.128 11.6747 737 103.598 46.403 463.24
151 0 64.1921 11.7304 753 103.118 46.1474 461.514
152 0 67.1746 11.3436 762 104.135 46.8294 458.841
153 0 69.209 12.2094 845 103.651 47.2793 454.95
154 0 72.1877 14.0329 1013 101.714 47.4038 449.881
155 0 74.3059 12.61 937 102.687 47.8111 452.526
156 0 77.2122 11.2029 865 106.086 48.2162 448.919
157 0 79.4739 16.0808 1278 99.8466 48.3725 449.575
158 0 82.2484 16.2556 1337 100.215 49.7105 442.867
159 0 87.2861 14.7217 1285 100.813 51.2327 446.176
160 0 89.417 13.3867 1197 104.048 51.2105 439.447
161 0 88.1838 7.79055 687 110.782 52.3377 445.672
162 1 50.231 11.4272 574 105.467 50.0784 461.277
163 0 51.061 11.9661 611 104.424 52.1899 461.795
164 0 51.1033 11.193 572 106.073 52.6836 462.441
165 0 53.1565 14.2786 759 102.271 53.61 460.154
166 0 55.0597 18.1803 1001 98.6234 54.4526 459.009
167 0 55.215 17.3323 957 97.8558 54.6322 465.892
168 0 56.1765 11.1257 625 106.248 54.4192 464.97
169 1 113.652 15.0372 1709 104.556 55.4658 441.871
170 0 119.389 18.0586 2156 102.514 55.6749 435.887
171 1 60.2673 10.5696 637 109.436 54.7331 463.658
172 0 64.19 14.5817 936 104.426 54.9295 463.175
173 0 68.2516 17.3476 1184 101.355 54.3666 463.014
174 0 69.3444 11.4645 795 110.737 53.9836 462.522
175 0 72.3316 14.8483 1074 105.065 53.6378 464.997
176 0 74.3919 14.9344 1111 107.249 53.5076 458.716
177 0 77.1462 14.9068 1150 106.061 53.013 458.141
178 0 81.1881 18.6973 1518 100.684 52.529 458.072
179 0 80.2143 14.0873 1130 108.276 52.0372 461.379
180 0 81.2862 11.0843 901 113.37 50.606 457.408
181 0 89.4246 15.8458 1417 105.306 50.1228 458.233
182 1 48.075 14.1654 681 106.131 48.9163 475.906
183 0 50.302 12.8822 648 108.789 49.142 472.446
184 0 51.1743 13.9328 713 105.129 47.418 473.251
185 0 50.2758 16.7277 841 102.077 48.132 473.166
186 0 52.1863 11.4781 599 108.653 47.4858 472.404
187 0 56.1296 18.3326 1029 99.7881 46.6793 469.367
188 0 58.2798 20.2815 1182 98.824 46.3672 468.771
189 0 57.1151 11.3105 646 108.771 44.9334 471.757
190 0 60.1298 16.2981 980 103.928 45.252 467.656
191 0 57.2858 13.8079 791 109.271 45.6169 462.914
192 0 57.2858 13.7381 787 142.649 45.587 462.895
193 0 66.139 16.5712 1096 103.426 45.3714 464.347
194 0 69.4291 13.0061 903 108.125 44.4983 459.255
195 0 71.137 15.2663 1086 106.447 45.5433 454.781
196 0 75.3416 17.0158 1282 103.215 46.0406 457.243
197 0 80.4008 22.9351 1844 96.8525 46.5271 454.661
198 0 76.1218 11.7049 891 114.249 48.2132 451.221
199 0 83.3777 12.9771 1082 111.144 49.4621 450.406
200 0 84.2186 17.0152 1433 105.827 50.0391 449.595
201 0 85.0862 18.6164 1584 106.545 50.2532 444.556
202 0 90.1418 13.4011 1208 111.752 50.0919 445.327
203 0 91.3864 15.2539 1394 111.176 50.1406 437.976
204 0 90.4069 13.948 1261 114.262 50.3013 436.637
205 0 96.2828 14.904 1435 112.415 51.3826 436.666
206 0 98.4678 12.4914 1230 116.33 52.2098 435.644
207 1 51.3359 14.4149 740 109.123 53.0568 463.191
208 0 53.2428 15.6077 831 111.106 54.077 460.691
209 0 55.2338 13.6692 755 113.605 54.943 462.318
210 0 56.1268 11.7947 662 114.823 55.0468 464.021
211 0 57.1158 15.2147 869 111.919 54.962 459.898
212 0 61.4566 19.3144 1187 105.477 55.342 460.869
213 0 62.2591 13.9578 869 112.36 54.9264 463.173
214 0 64.2171 15.8992 1021 108.565 54.8335 464.753
215 0 67.4928 21.8986 1478 101.164 53.862 464.967
216 0 70.211 16.7353 1175 109.111 53.9974 461.233
217 0 72.3472 16.9461 1226 108.735 53.4478 461.725
218 0 77.2162 17.1337 1323 107.822 53.7929 461.022
219 0 81.4348 16.6759 1358 108.013 53.0862 459.286
220 0 82.3078 12.5504 1033 113.927 52.062 461.433
221 1 42.0761 13.9034 585 105.981 50.6444 481.882
222 0 43.25 18.9827 821 96.7722 50.5384 481.395
223 0 43.0933 10.9762 473 107.175 49.5349 478.112
224 0 44.2487 12.5653 556 109.335 48.5719 478.12
225 0 48.0779 12.7501 613 108.25 47.5008 479.25
226 0 47.2305 11.7509 555 108.912 47.7009 481.236
227 0 50.1752 13.3532 670 107.076 45.8925 477.097
228 0 52.1465 14.8044 772 103.301 45.2578 477.526
229 0 52.1896 14.2365 743 106.633 44.9085 472.826
230 0 53.0979 11.6389 618 108.432 43.3528 472.733
231 0 56.2453 13.6011 765 105.69 42.7595 471.137
232 0 60.2961 26.0713 1572 92.3677 42.9841 470.15
233 0 60.1683 13.1631 792 106.78 44 467.17
234 0 62.1684 14.5572 905 104.622 42.5735 466.004
235 0 66.1204 13.1881 872 106.123 43.383 464.115
236 0 68.2308 13.6742 933 106.271 43.4126 460.073
237 0 70.2739 15.4396 1085 102.277 42.1806 462.764
238 0 74.1368 16.9282 1255 100.868 42.7657 460.658
239 0 76.1144 16.9876 1293 103.112 43.0897 452.253
240 0 78.2553 17.3662 1359 101.752 44.0846 455.056
241 0 77.1222 15.067 1162 106.188 43.5318 451.069
242 0 84.763 13.6498 1157 107.299 44.9334 447.79
243 1 45.0444 13.853 624 105.274 44.9503 464.295
244 0 49.1619 13.425 660 103.097 44.2955 467.076
245 0 47.2729 15.0403 711 100.131 46.73 464.533
246 0 45.2099 11.9885 542 105.446 46.1753 465.172
247 0 49.0685 11.27 553 104.866 47.0542 464.573
248 0 48.0414 13.1345 631 104.634 48.3566 460.597
249 0 51.0935 9.55113 488 107.014 47.9221 464.721
250 0 52.064 12.0621 628 104.968 49.6959 462.295
251 0 54.1927 14.4484 783 103.103 49.6347 459.598
252 0 58.1945 16.1527 940 100.176 50.9798 461.163
253 0 58.1608 15.0617 876 102.172 51.7078 464.001
254 0 60.2808 13.6694 824 102.647 51.0716 464.517
255 0 60.5941 11.7833 714 106.979 51.8263 463.223
256 0 63.315 11.656 738 107.263 50.836 460.496
257 0 63.1664 10.0686 636 110.591 52.1022 457.847
258 0 68.1857 12.334 841 107.316 50.9382 461.698
259 0 70.1293 14.8155 1039 105.551 51.7777 456.95
260 0 72.3834 13.8015 999 105.736 52.0941 463.066
261 0 76.4034 12.4864 954 107.857 50.7285 460.617
262 0 78.1582 13.3703 1045 106.168 50.1569 460.231
263 0 79.1676 17.583 1392 102.593 51.2967 458.922
264 0 83.1729 12.5041 1040 108.728 52.449 458.394
265 0 85.5584 15.2761 1307 106.793 50.8171 456.179
266 0 87.282 10.6322 928 113.476 49.833 455.722
267 0 93.5608 16.4064 1535 104.887 49.0886 457.512
268 0 95.5477 14.1709 1354 108.712 48.3198 452.045
269 1 48.4642 13.8246 670 102.512 46.3254 472.478
270 0 49.1195 15.3096 752 100.995 46.8271 474.129
271 0 52.1485 16.0887 839 100.076 46.8617 475.772
272 0 51.0666 15.0392 768 103.086 46.9167 473.432
273 0 52.4637 13.6094 714 104.333 46.6134 471.79
274 0 55.339 11.4386 633 106.842 46.7378 470.164
275 0 54.5499 13.7855 752 105.875 46.5612 466.483
276 0 57.3285 13.379 767 104.602 45.9231 469.048
277 0 66.7648 15.9815 1067 100.111 45.6795 465.51
278 0 64.1569 13.0773 839 104.878 45.7771 464.002
279 0 63.2365 10.69 676 107.624 46.1908 462.356
280 0 69.6239 16.6609 1160 101.95 45.3431 451.595
281 0 69.1655 17.422 1205 102.823 45.1145 454.68
282 0 71.325 19.5023 1391 101.28 45.4004 456.894
283 0 74.4251 16.5132 1229 106.333 45.6729 448.792
284 0 75.1604 12.7062 955 110.821 46.4471 452.075
285 0 83.3905 16.069 1340 104.803 46.15 451.583
286 0 87.4332 12.5124 1094 109.025 46.3976 448.224
287 0 84.4235 13.7876 1164 109.715 47.4459 442.447
288 0 87.6878 20.1966 1771 104.258 46.6629 437.589
289 1 48.1159 11.2229 540 106.506 47.1389 465.546
290 0 46.0926 14.9265 688 104.549 47.7704 461.814
291 0 47.1191 18.1243 854 100.568 48.5129 460.474
292 0 48.3597 11.3524 549 108.84 48.776 462.603
293 0 46.2899 11.2552 521 111.154 50.7985 461.088
294 0 52.2986 14.6849 768 104.979 51.8867 461.798
295 0 53.1297 19.2924 1025 99.2137 53.2049 461.983
296 0 53.1443 13.0023 691 108.441 52.3198 460.051
297 0 56.0962 11.5159 646 108.481 52.4443 463.412
298 0 58.1323 13.4349 781 107.616 53.8694 458.704
299 0 60.15 15.478 931 106.981 53.2084 456.893
300 0 63.3211 14.687 930 107.623 54.2043 458.782
301 0 65.2475 15.0964 985 107.549 54.2274 458.816
302 0 66.2041 15.7392 1042 106.581 54.4971 461.606
303 0 68.2241 13.6902 934 108.862 54.3555 461.255
304 0 71.3352 11.3408 809 112.195 54.5031 463.167
305 0 73.1251 15.535 1136 108.004 53.8618 460.179
306 0 80.3642 14.1108 1134 108.383 52.5423 459.179
307 0 79.12 15.6345 1237 107.661 52.7025 458.63
308 0 81.1048 13.2914 1078 112.642 51.9545 455.594
309 1 42.2025 8.41183 355 113.659 52.6873 477.121
310 0 47.1105 10.8681 512 111.17 53.752 474.873
311 0 49.4232 14.8716 735 104.629 50.5456 471.854
312 0 47.235 23.3937 1105 95.7149 50.0244 471.789
313 0 52.2491 15.139 791 103.312 49.0923 469.685
314 0 51.2512 10.8876 558 111.05 47.5466 470.075
315 0 53.2774 11.6935 623 109.549 46.6019 469.05
316 0 54.2121 14.7753 801 106.529 47.0787 463.84
317 0 59.1993 13.767 815 106.939 45.719 465.51
318 0 59.1971 12.3486 731 109.343 45.3119 460.978
319 0 62.1384 11.6514 724 110.34 45.0359 461.536
320 0 62.1345 14.2272 884 107.456 45.0566 458.702
321 0 66.4974 12.2411 814 110.086 45.1622 458.63
322 0 68.17 12.7035 866 109.3 46.0046 453.902
323 0 74.3532 13.5973 1011 105.252 44.0979 458.512
324 0 74.4144 15.8034 1176 106.444 45.4566 455.273
325 0 78.5161 12.8254 1007 111.397 45.7488 454.555
326 0 77.338 14.4043 1114 113.202 46.3501 441.885
327 0 85.6053 18.2232 1560 104.982 46.4981 447.169
328 0 84.3814 12.9057 1089 113.721 47.0882 444.111
329 1 40.1516 11.4317 459 111.344 45.1242 462.98
330 0 43.118 11.5497 498 110.305 47.4458 464.351
331 0 47.1294 11.9671 564 111.023 48.1206 462.488
332 0 45.1539 11.494 519 111.757 51.1137 464.25
333 0 49.0799 14.5477 714 105.34 52.2325 464.218
334 0 48.1918 14.1725 683 109.943 52.6603 458.687
335 0 49.0652 13.4515 660 111.22 53.653 459.858
336 0 51.2403 11.3387 581 114.117 54.5439 461.518
337 0 51.0917 11.861 606 115.738 54.3878 456.673
338 0 53.0887 14.4475 767 110.645 54.588 457.877
339 0 56.2344 12.1456 683 114.438 56.8682 458.927
340 0 57.0997 12.9598 740 112.9 57.2149 459.289
341 0 59.2571 12.0323 713 114.377 56.7111 461.066
342 0 61.1282 16.3427 999 108.81 57.6917 454.429
343 0 62.2289 12.0362 749 115.438 58.6328 455.86
344 0 67.2981 17.5488 1181 106.466 58.2024 455.986
345 0 70.3121 13.241 931 112.232 58.9893 459.407
346 0 71.1059 15.1042 1074 110.313 57.8864 456.69
347 0 72.3057 13.9961 1012 112.717 58.2698 457.42
348 0 72.2898 11.2602 814 118.387 57.4521 457.572
349 0 75.2179 12.0716 908 116.959 57.1266 458.311
350 0 78.346 12.4576 976 113.75 55.7961 458.346
351 1 41.3657 9.21052 381 116.677 53.8058 476.399
352 0 43.4418 11.6247 505 115.921 53.2218 475.598
353 0 46.6125 13.9448 650 112.102 52.64 475.237
354 0 43.3753 13.1642 571 115.37 52.7776 471.371
355 0 46.1066 16.4401 758 106.079 51.6807 474.187
356 0 47.1519 15.2274 718 108.833 51.8162 473.914
357 0 48.1539 13.7683 663 135.763 50.7074 474.546
358 0 51.1016 13.6786 699 110.348 50.8441 472.26
359 0 54.4447 13.3714 728 109.809 49.6676 471.282
360 0 54.2385 13.9753 758 109.772 49.591 465.492
361 0 53.2269 16.5893 883 107.117 48.7712 468.662
362 0 57.2793 14.3682 823 108.744 49.7132 469.346
363 0 56.1001 14.082 790 111.753 48.7253 463.529
364 0 60.276 11.1155 670 113.878 47.9955 465.158
365 0 63.3994 16.609 1053 106.809 48.7787 462.513
366 0 67.1936 15.4628 1039 110.023 48.4456 456.515
367 0 64.2396 13.8077 887 113.632 48.5039 458.386
368 0 70.2388 18.2235 1280 106.327 48.4383 455.475
369 0 70.3548 14.967 1053 112.429 48.5632 451.359
370 0 72.2678 15.3319 1108 111.186 48.8782 453.102
371 0 75.2041 14.2678 1073 112.886 49.1883 450.914
372 0 79.3435 12.7799 1014 115.49 49.2081 446.678
373 0 79.4811 15.2112 1209 112.144 49.4227 445.509
374 0 85.2842 20.2968 1731 104.102 50.6875 443.825
375 0 86.2721 13.0054 1122 112.217 51.2166 447.827
376 0 89.484 15.1535 1356 111.551 51.5376 439.422
377 0 92.4607 13.1948 1220 113.295 52.6631 438.566
378 0 98.4363 15.7361 1549 108.184 53.6733 439.594
379 0 103.371 14.3851 1487 109.838 54.4808 436.474
380 1 54.2076 12.6735 687 110.978 55.5109 457.55
381 0 56.1098 14.5251 815 108.839 55.4454 454.983
382 0 58.2549 14.6082 851 106.246 58.4148 456.544
383 0 60.1304 14.3189 861 106.048 59.0825 458.765
384 0 60.1807 12.8945 776 108.028 58.5876 459.744
385 0 62.3516 14.4343 900 107.019 58.5611 456.046
386 0 66.4707 16.7593 1114 103.521 58.6023 456.51
387 0 66.1968 10.6047 702 112.423 59.047 457.053
388 0 65.2864 12.5907 822 110.808 60.1788 456.197
389 0 71.3698 18.9576 1353 99.9867 58.983 461.477
390 0 72.1496 18.1429 1309 102.899 58.4484 459.937
391 0 77.5042 15.8185 1226 106.456 58.5473 456.724
392 0 79.2873 16.3078 1293 105.94 58.9258 456.51
393 0 78.3561 13.6046 1066 110.225 57.0647 455.25
394 0 80.1667 15.2807 1225 108.859 57.2302 454.444
395 0 84.3342 17.1935 1450 107.239 55.9069 455.79
396 0 87.3876 18.2406 1594 104.206 55.6982 459.487
397 0 87.2672 14.0717 1228 111.906 56.0358 455.909
398 0 89.1966 12.8368 1145 114.759 54.3651 449.824
399 0 93.4344 19.8 1850 105.68 53.6865 451.597
400 0 98.3509 16.1666 1590 113.04 52.3887 450.069
401 1 58.4147 12.3599 722 111.922 53.0152 472.713
402 0 54.1286 12.1378 657 107.498 51.6317 465.043
403 0 58.1932 12.5444 730 106.771 50.6507 463.473
404 0 61.3315 14.658 899 101.941 50.3904 465.43
405 0 63.751 13.8194 881 103.179 50.0545 463.806
406 0 62.2271 12.8722 801 105.035 48.8714 460.437
407 0 65.0786 13.7833 897 104.566 47.9933 458.633
408 0 66.209 13.11 868 106.801 48.0484 454.532
409 0 74.1388 10.4129 772 107.649 49.0816 455.683
410 0 72.435 14.5924 1057 101.289 48.0142 457.568
411 0 76.3521 19.2791 1472 97.2391 48.0088 454.971
412 0 76.2317 15.0593 1148 101.593 48.3319 455.028
413 0 80.1309 13.1036 1050 106.079 47.6695 448.202
414 0 81.0818 14.1215 1145 106.277 48.2288 444.986
415 0 87.1615 17.7716 1549 98.9064 48.6779 450.675
416 0 88.0939 12.7478 1123 108.748 49.3286 440.37
417 0 92.2412 16.1425 1489 105.473 49.9731 437.526
418 0 94.1843 11.4775 1081 109.746 50.2285 439.144
419 0 102.333 14.4528 1479 106.434 50.9047 436.865
420 0 100.563 16.497 1659 106.145 52.4189 434.209
421 0 98.2515 17.4756 1717 108.804 52.8468 430.881
422 1 55.1769 7.95623 439 115.781 54.2961 449.034
423 0 57.3118 13.4004 768 114.755 53.3034 449.99
424 0 61.4722 13.5996 836 112.455 52.9091 450.25
425 0 63.5075 14.203 902 111.476 54.3769 450.554
426 0 63.5075 14.1243 897 132.872 55.4058 450.662
427 0 67.4275 17.2185 1161 105.65 55.4789 453.814
428 0 71.728 15.6285 1121 106.503 55.8457 454.751
429 0 72.4242 14.9812 1085 107.702 57.2147 453.324
430 0 74.7166 17.2652 1290 104.835 58.8419 450.785
431 0 74.5566 11.4141 851 113.928 57.9765 449.278
432 0 80.9152 11.0857 897 113.014 58.1171 450.911
433 0 84.8264 15.9267 1351 105.296 58.5004 454.198
434 0 84.6051 13.1434 1112 110.468 58.6196 447.441
435 0 86.4083 17.4289 1506 103.07 58.9349 447.546
436 0 90.4116 15.6064 1411 105.662 58.2133 444.791
437 0 93.6553 10.3892 973 112.558 57.15 443.931
438 0 98.1409 15.6102 1532 104.99 57.1717 443.118
439 0 98.3481 11.622 1143 111.122 55.881 444.088
440 0 102.466 14.3072 1466 108.733 55.015 436.615
441 1 55.6122 12.1196 674 103.966 54.9525 464.488
442 0 53.2028 6.54101 348 110.129 54.7529 467.471
443 0 57.2914 10.4379 598 107.585 53.7709 466.324
444 0 59.4161 14.794 879 102.453 52.9966 469.623
445 0 61.2675 11.0173 675 106.295 52.2815 465.459
446 0 62.2187 10.8328 674 106.361 52.7997 464.803
447 0 64.3364 12.4036 798 106.326 52.4286 461.534
448 0 67.2913 12.1264 816 106.384 50.951 453.333
449 0 68.3146 11.2567 769 107.385 51.0169 459.256
450 0 70.3227 10.0963 710 110.637 50.4746 457.183
451 0 78.5312 19.3554 1520 97.4408 50.4401 457.016
452 0 75.3031 10.5573 795 112.343 49.7925 456.387
453 0 80.4348 15.9135 1280 103.219 48.1211 452.284
454 0 82.2252 16.6859 1372 103.444 48.5248 447.071
455 1 48.0384 11.9696 575 103.332 50.3061 465.09
456 0 44.2162 9.02385 399 107.261 46.0977 463.83
457 0 48.2455 10.8197 522 104.479 45.864 464.512
458 0 49.2487 13.9293 686 99.0437 47.2988 464.448
459 0 53.3445 13.8534 739 100.631 47.2801 459.857
460 0 50.222 11.4293 574 106.831 47.162 458.976
461 0 55.2089 14.3274 791 101.532 48.1947 461.599
462 0 55.2021 12.1553 671 105.477 48.0358 458.407
463 0 60.2675 16.0119 965 99.3409 48.2321 459.923
464 0 58.1825 9.33271 543 110.169 48.4917 457.567
465 0 60.1624 13.4469 809 105.48 49.4425 454.438
466 0 63.1391 12.2587 774 107.341 50.9109 453.681
467 0 65.3745 14.1951 928 104.855 50.4073 453.96
468 0 69.1656 11.7978 816 107.739 50.5147 454.145
469 0 70.2992 12.4468 875 107.691 51.7417 450.717
470 0 73.103 17.961 1313 101.027 52.4356 452.672
471 0 74.2398 12.5674 933 107.865 52.2304 451.566
472 0 77.2111 13.8192 1067 105.659 52.4874 456.798
473 0 79.0777 13.0505 1032 107.72 52.7345 449.884
474 0 83.1076 14.6437 1217 105.004 52.9745 449.236
475 0 85.1291 13.6968 1166 107.083 52.3199 450.365
476 1 45.1355 10.0808 455 108.741 52.022 471.545
477 0 49.0922 11.3256 556 107.016 51.527 471.326
478 0 46.1673 10.1804 470 105.074 51.1021 477.528
479 0 53.0871 10.7748 572 101.467 51.4161 479.486
480 0 53.1821 12.7487 678 98.3156 50.2448 477.407
481 0 54.0703 11.1152 601 101.391 49.6223 478.23
482 0 50.0564 7.31174 366 104.899 50.3934 485.448
483 0 53.1601 9.68772 515 101.92 48.5884 483.198
484 0 55.1133 10.2335 564 103.748 49.6808 478.516
485 0 57.0937 11.1046 634 102.707 48.4085 476.938
486 0 58.1107 11.22 652 102.132 48.069 478.034
487 0 61.0664 12.4946 763 103.1 49.6579 473.33
488 0 62.1026 11.6581 724 103.787 48.7224 471.664
489 0 63.079 7.41927 468 109.269 48.3632 471.547
490 0 67.128 11.5004 772 103.892 48.1347 470.662
491 0 69.1356 12.0488 833 103.03 46.1321 468.954
492 0 73.4258 20.9327 1537 94.1464 45.4691 464.22
493 0 76.3497 15.2718 1166 96.7822 45.0112 464.608
494 0 75.3462 13.3384 1005 98.4766 43.3572 467.502
495 0 79.3744 12.7623 1013 101.333 43.2093 460.5
496 0 82.4526 10.5273 868 102.066 43.8041 463.268
497 0 85.3844 12.6135 1077 102.845 42.559 456.042
498 0 88.2645 13.0177 1149 103.349 43.0322 447.163
499 0 89.0407 13.8925 1237 100.572 43.7235 456.694
500 1 47.4282 20.0936 953 92.9234 43.9224 465.386
501 0 50.4224 11.4235 576 103.398 44.474 468.694
502 0 50.1529 15.4527 775 101.65 42.6039 466.21
503 0 54.2368 15.2295 826 101.272 43.8426 465.085
504 0 56.0531 15.1642 850 100.916 43.2929 466.947
505 0 54.1822 14.2667 773 104.06 44.1164 462.132
506 0 58.3531 14.7207 859 103.054 44.8009 459.76
507 0 58.3531 14.8064 864 132.265 45.8345 459.704
508 0 60.0745 12.7342 765 106.481 47.9307 461.19
509 0 63.1275 15.0647 951 103.285 48.0347 457.883
510 0 62.2469 17.1896 1070 99.5608 50.3682 458.861
511 0 65.3634 11.1224 727 106.305 51.9477 460.281
512 0 64.3629 12.3208 793 106.566 52.3796 456.972
513 0 69.3302 13.4141 930 104.628 53.8129 456.074
514 0 74.3559 18.8284 1400 96.8621 53.5414 458.366
515 0 74.3599 15.1695 1128 102.443 53.8785 458.927
516 0 77.4082 17.1041 1324 100.514 52.4479 457.926
517 0 82.2385 15.601 1283 102.931 53.0273 455.883
518 0 81.3074 14.5989 1187 105.027 52.711 455.692
519 0 81.3937 11.5365 939 110.329 53.9585 457.566
520 0 90.3085 24.0177 2169 94.1807 50.9433 454.279
521 0 89.3096 13.2237 1181 107.355 52.9026 457.958
522 0 98.4903 13.4734 1327 106.82 52.217 458.052
523 0 97.3793 15.414 1501 103.081 51.0886 454.316
524 0 101.343 14.2782 1447 103.988 50.5715 454.226
525 1 50.3806 11.3536 572 106.206 51.5559 477.084
526 0 56.5986 17.792 1007 95.0874 51.0794 481.29
527 0 54.3421 11.2988 614 106.246 50.298 476.322
528 0 59.4562 12.9002 767 102.293 50.3351 476.84
529 0 59.0942 11.8455 700 105.399 49.3729 475.287
530 0 61.128 16.7027 1021 100.27 48.8707 472.397
531 0 62.2022 15.7551 980 102.569 48.4571 470.043
532 0 68.2262 28.5667 1949 88.9076 46.529 468.618
533 0 72.1668 15.5889 1125 100.789 46.952 468.292
534 0 69.3018 14.141 980 105.623 47.0806 465.914
535 0 72.1941 14.8073 1069 105.469 45.5491 464.582
536 0 76.2178 15.1408 1154 104.333 45.7998 462.861
537 0 76.2347 18.889 1440 100.833 45.2076 460.766
538 0 80.2084 13.415 1076 106.064 44.9758 461.107
539 1 43.0164 11.391 490 109.641 46.3388 475.718
540 0 44.3889 14.6658 651 105.323 43.3272 475.422
541 0 47.3481 15.46 732 102.026 42.5697 473.786
542 0 49.1037 13.5428 665 103.851 40.4571 472.723
543 0 47.1433 13.3635 630 105.83 41.2667 473.592
544 0 50.1523 16.6293 834 99.7542 41.5408 474.609
545 0 50.1243 12.8082 642 107.883 42.3941 468.255
546 0 51.0787 15.0748 770 102.627 42.539 470.914
547 0 53.1008 14.2182 755 105.462 44.3324 464.854
548 0 54.2345 14.4189 782 105.508 44.2698 466.464
549 0 56.1001 15.1693 851 103.66 44.9636 462.342
550 0 56.0803 11.644 653 109.838 46.1041 462.683
551 0 60.082 18.042 1084 100.801 46.3875 463.472
552 0 60.0965 14.926 897 105.313 46.388 463.522
553 0 63.1797 15.4322 975 104.762 46.1333 460.302
554 0 67.1532 13.4469 903 107.035 47.3832 459.384
555 0 67.2178 15.3233 1030 105.236 47.7223 459.23
556 0 70.1423 13.4013 940 108.313 49.1308 457.639
557 0 69.0727 13.8694 958 109.503 50.334 457.815
558 0 70.1753 13.3665 938 110.56 50.3977 458.025
559 0 77.1618 17.0551 1316 101.23 50.6467 465.634
560 0 79.1546 12.9367 1024 112.002 50.9766 458.448
561 0 84.1797 12.0694 1016 112.594 50.1683 458.782
562 1 45.0187 11.0399 497 113.394 50.7002 475.101
563 0 47.0237 10.9307 514 112.15 50.1051 476.446
564 0 49.0822 12.204 599 109.845 50.0467 478
565 0 50.3604 16.4812 830 106.257 51.194 476.56
566 0 55.0924 13.5046 744 108.915 52.4892 477.718
567 0 54.1879 13.5455 734 110.405 52.6812 476.718
568 0 55.1373 13.3122 734 112.249 51.8147 475.347
569 0 55.1465 12.7297 702 112.648 51.5527 474.711
570 0 59.1147 13.6683 808 111.401 50.1448 474.627
571 0 60.0536 15.253 916 108.622 49.5972 475.304
572 0 63.0634 13.8432 873 108.872 49.0378 476.096
573 0 64.2245 14.6984 944 109.602 48.304 471.114
574 0 71.2809 16.3157 1163 104.587 47.945 473.434
575 0 68.1836 12.7597 870 110.79 46.8023 472.352
576 0 75.4755 12.8254 968 110.755 46.2097 467.282
577 0 73.1266 16.3142 1193 106.873 45.3244 463.607
578 0 76.3334 21.4454 1637 99.9298 45.0733 464.379
579 0 79.3074 16.7702 1330 105.736 44.4684 458.551
580 0 81.4645 15.3687 1252 108.198 43.8514 459.613
581 0 86.5066 19.6864 1703 101.099 44.2284 460.656
582 0 90.7568 14.919 1354 106.318 43.8479 456.704
583 1 45.0553 11.1197 501 107.996 45.5529 474.449
584 0 45.0642 13.5363 610 107.582 45.1213 470.459
585 0 49.1721 13.4426 661 103.029 46.0424 474.585
586 0 50.1424 13.5414 679 103.971 46.8262 471.054
587 0 52.1685 15.1049 788 101.704 47.5761 468.787
588 0 54.2088 14.7209 798 102.044 47.7569 467.36
589 0 54.0744 11.7801 637 108.014 47.8163 463.849
590 0 53.221 13.0775 696 106.983 45.7414 468.052
591 0 57.1214 16.0886 919 99.346 45.8498 469.483
592 0 58.034 16.9039 981 101.627 46.7564 462.66
593 0 58.0483 14.2123 825 106.844 46.7164 460.699
594 0 62.0985 13.704 851 107.597 46.5123 461.907
595 0 64.1762 14.7251 945 106.258 47.3259 458.669
596 0 65.3001 13.905 908 108.811 48.9262 457.881
597 0 68.1952 18.4324 1257 100.265 49.2283 464.247
598 0 69.2047 12.1524 841 110.759 49.4495 460.304
599 0 72.075 15.9834 1152 104.668 50.1068 458.213
600 0 73.1778 14.089 1031 107.739 50.0611 454.484
601 0 79.3467 13.775 1093 107.09 50.1418 455.015
602 0 82.2033 13.9532 1147 106.744 50.5126 455.257
603 0 85.1615 15.0538 1282 104.779 50.9477 454.3
604 0 88.2681 13.4477 1187 107.373 51.4617 452.885
605 0 90.4363 10.6705 965 111.049 50.6207 456.901
606 0 96.2562 15.0536 1449 104.663 51.4127 452.276
607 1 52.2511 13.9136 727 103.795 54.3851 477.016
608 0 51.2189 13.6083 697 107.29 52.637 472.181
609 0 54.0672 13.1503 711 106.376 53.7089 474.743
610 0 57.0741 12.2998 702 107.325 54.0427 474.444
611 0 57.0364 11.9398 681 107.396 53.3157 474.934
612 0 60.1514 13.1335 790 105.967 52.9203 475.054
613 0 63.1367 15.411 973 102.4 52.7266 471.54
614 0 64.1894 14.8311 952 103.396 51.6334 470.895
615 0 65.095 11.1837 728 108.953 51.7431 469.72
616 0 68.1238 12.7855 871 105.84 49.7302 472.038
617 0 70.0814 14.8114 1038 103.439 49.0877 465.735
618 0 74.1157 16.1234 1195 101.454 49.0628 467.866
619 0 74.0607 17.8502 1322 100.614 47.8949 463.477
620 0 77.1949 10.6484 822 109.079 46.1642 465.978
621 0 81.272 15.7742 1282 101.151 46.5413 465.832
622 0 80.1094 13.7812 1104 106.437 45.8741 460.337
623 0 87.0687 13.7707 1199 106.797 46.0225 457.616
624 0 87.1325 17.4791 1523 103.672 46.0007 455.176
625 0 92.1971 13.0807 1206 110.443 45.7604 454.896
626 0 94.1489 14.3602 1352 108.103 45.6206 448.561
627 0 98.1657 14.2514 1399 106.339 45.446 452.376
628 1 51.042 10.8734 555 110.054 46.3063 466.712
629 0 57.529 19.8161 1140 97.0939 45.5333 467.164
630 0 55.0729 10.3862 572 102.031 45.6364 463.203
631 0 61.0604 12.5941 769 97.039 46.303 461.006
632 0 62.1444 11.6664 725 98.9228 45.7186 459.621
633 0 63.1842 14.3549 907 95.9515 47.8269 457.886
634 0 65.1636 12.6911 827 97.9819 48.0496 454.606
635 0 66.2262 15.8246 1048 95.8664 48.7815 454.494
636 0 69.1873 16.159 1118 93.2039 48.8667 459.521
637 0 71.4476 15.158 1083 95.3287 49.0175 455.434
638 0 74.3834 15.6218 1162 96.9518 49.4845 445.75
639 0 80.318 16.8331 1352 95.5089 50.1065 446.147
640 0 80.1746 12.0487 966 102.687 51.265 449.324
641 0 85.1897 11.0225 939 105.033 52.8307 446.499
642 1 43.1173 9.13786 394 97.8985 53.0203 469.944
643 0 42.1311 11.5592 487 97.2238 54.152 468.503
644 0 42.03 8.49394 357 100.978 54.7115 468.353
645 0 45.2085 9.20182 416 99.399 53.7188 466.26
646 0 49.3058 14.2174 701 94.2468 52.5606 469.274
647 0 45.2607 10.2959 466 103.878 52.8219 468.204
648 0 50.3391 12.2569 617 96.4878 51.6613 467.674
649 0 50.216 11.9285 599 96.2654 52.571 469.524
650 0 51.2366 9.79768 502 99.239 51.8367 470.741
651 0 52.2794 11.515 602 98.1046 52.1578 468.666
652 0 54.2271 10.7142 581 99.8399 51.3511 465.141
653 0 61.343 18.421 1130 90.292 51.7398 469.444
654 0 56.1984 9.89352 556 100.977 50.8273 469.02
655 0 62.1387 15.3688 955 94.4754 51.1853 468.659
656 0 61.2138 13.4773 825 96.4812 50.5455 471.002
657 0 65.201 14.8157 966 94.6159 48.9814 468.716
658 0 66.1357 11.7788 779 98.2555 49.5006 470.436
659 0 68.3339 15.2779 1044 95.2711 47.4933 466.026
660 0 73.3006 19.2086 1408 92.0384 47.3146 460.496
661 0 71.3534 16.6916 1191 94.4912 46.6045 465.718
662 0 74.0739 13.5 1000 99.699 46.345 462.731
663 0 76.2397 12.9329 986 100.555 45.9736 460.858
664 0 81.4762 18.5207 1509 90.4314 45.4937 466.991
665 0 79.6308 12.8719 1025 100.331 44.8312 455.99
666 0 83.3431 17.206 1434 93.758 45.2901 461.013
667 0 84.3077 9.44161 796 104.599 44.3631 449.177
668 1 43.1581 8.08656 349 99.6447 44.7335 473.112
669 0 44.3622 12.1951 541 96.0481 44.3808 467.02
670 0 45.4418 11.1791 508 98.9134 43.5098 474.098
671 0 47.2 12.3517 583 97.4357 43.8937 471.182
672 0 48.2324 12.9374 624 98.0609 43.2163 466.439
673 0 50.2596 12.0972 608 98.1497 43.7747 465.602
674 0 53.4725 16.4384 879 95.256 44.8305 465.967
675 0 55.2577 15.0929 834 96.5216 44.1127 463.152
676 0 55.2639 8.17894 452 106.148 45.969 460.352
677 0 58.2574 16.8047 979 95.3963 46.3279 459.543
678 0 59.2138 12.8011 758 99.9406 46.7137 462.784
679 0 63.3539 21.7982 1381 89.8298 47.4511 459.476
680 0 67.4222 15.0396 1014 96.1548 48.6193 453.872
681 0 68.2482 19.3851 1323 91.5389 48.3258 458.238
682 0 70.3198 16.0837 1131 94.9982 48.7135 455.757
683 0 71.3466 15.4037 1099 96.0983 50.111 456.058
684 0 72.2899 11.8135 854 100.386 50.6569 455.594
685 0 75.4126 13.3134 1004 98.6434 50.9363 453.468
686 0 77.3802 11.1398 862 101.853 50.0615 453.418
687 0 80.2395 12.6995 1019 99.9558 51.7566 454.2
688 0 82.3914 12.9504 1067 98.731 51.6467 458.41
689 0 84.3665 11.3197 955 100.853 51.623 456.196
690 0 89.6992 14.9165 1338 97.0232 52.485 455.767
691 0 91.6964 13.9155 1276 98.5596 51.9992 448.628
692 0 95.367 13.8832 1324 98.4804 51.7205 447.696
693 0 99.2341 10.1477 1007 102.202 51.5074 451.739
694 0 100.413 12.7474 1280 100.491 51.5312 445.816
695 0 103.482 15.8385 1639 96.7187 51.1361 450.616
696 0 106.374 13.6593 1453 99.7942 50.8424 448.111
697 0 110.313 11.6124 1281 101.738 51.5004 449.32
698 0 114.456 15.6916 1796 97.7389 50.9666 444.884
699 0 116.701 14.9613 1746 99.1163 50.0195 440.863
700 0 121.206 14.2815 1731 99.2386 50.0936 444.14
701 0 128.225 17.8046 2283 94.0806 48.8721 446.633
702 0 130.342 15.7432 2052 97.8596 48.2792 436.207
703 0 134.332 16.4071 2204 97.7423 48.1071 431.235
704 0 139.501 13.0966 1827 101.166 47.6831 437.976
705 0 142.27 13.0948 1863 102.154 46.5658 433.402
706 0 146.306 10.5874 1549 105.184 46.4945 430.55
707 0 149.523 12.9612 1938 103.159 46.3003 421.415
708 0 149.523 12.881 1926 125.45 45.3048 421.322
709 1 160.779 11.295 1816 104.791 45.1894 421.702
710 0 166.676 12.0353 2006 104.11 45.008 412.642
711 0 173.859 13.9423 2424 102.335 45.6757 412.588
712 0 178.666 16.4217 2934 98.7648 43.2011 409.586
713 0 187.028 11.8057 2208 103.118 45.2935 405.469
714 0 195.809 20.1523 3946 94.5791 44.2636 401.75
715 0 204.84 18.8831 3868 94.3446 45.0132 406.309
716 0 208.862 19.8504 4146 94.6423 45.5316 396.113
717 0 215.532 14.448 3114 99.5328 46.2534 388.963
718 1 165.576 20.0512 3320 93.6256 45.3768 410.968
719 0 169.744 11.2346 1907 103.016 46.1437 414.22
720 1 62.3561 9.65423 602 99.5997 46.4003 456.546
721 0 68.2445 13.4663 919 98.5952 49.2829 457.119
722 0 74.0778 13.2158 979 96.8733 49.1808 462.669
723 0 68.2059 10.1458 692 104.328 51.2688 454.204
724 0 77.0974 21.168 1632 90.4908 50.0784 458.575
725 0 78.2924 11.4826 899 103.542 51.0122 455.542
726 0 88.0498 15.1051 1330 96.8962 50.9256 457.9
727 0 86.3028 14.9358 1289 99.4073 52.3592 451.555
728 0 88.4357 14.3833 1272 100.316 52.9277 450.723
729 0 91.232 11.5858 1057 104.454 53.2337 449.456
730 0 96.2216 15.4851 1490 99.2631 53.5886 450.048
731 1 49.297 10.6092 523 101.497 52.8184 475.153
732 0 55.1212 11.3931 628 100.889 54.6131 474.156
733 0 55.6608 18.5948 1035 92.0618 51.7662 474.228
734 0 57.7718 12.6359 730 94.7411 50.2932 470.974
735 0 61.3435 14.0846 864 92.4792 50.0683 472.622
736 0 63.5 16.6299 1056 90.2992 49.3939 472.535
737 0 63.0996 15.3725 970 92.3423 49.9134 472.745
738 0 65.1491 16.209 1056 91.1866 48.3362 470.131
739 0 64.2529 12.4352 799 95.189 48.4681 476.004
740 0 68.1398 10.9921 749 97.024 47.9346 469.645
741 0 69.1482 14.0278 970 94.3969 47.7206 468.361
742 0 72.1732 13.0658 943 94.6904 46.6172 467.425
743 0 78.173 15.8367 1238 91.2876 46.7205 467.074
744 0 79.2186 13.3807 1060 93.5991 46.3142 466.365
745 0 80.3221 16.6455 1337 90.4727 45.6006 459.642
746 0 82.2585 16.0713 1322 92.2337 45.3343 456.494
747 0 84.6872 15.5277 1315 92.2129 45.4836 455.048
748 0 85.1294 13.0272 1109 95.4833 44.4085 459.389
749 0 86.364 10.9073 942 97.5679 44.8514 459.001
750 0 90.2064 13.4913 1217 96.6664 44.8118 452.122
751 0 92.3502 12.4309 1148 96.9199 44.3406 458.506
752 0 93.3301 11.3468 1059 99.5949 44.7186 448.032
753 1 51.0552 9.47993 484 99.186 42.7087 473.093
754 0 49.2684 9.4381 465 100.056 43.0559 472.529
755 0 53.1385 15.3749 817 92.8482 43.8225 472.231
756 0 55.3002 11.8444 655 97.9786 43.4458 466.256
757 0 60.1876 14.8535 894 97.5179 46.5235 468.151
758 0 66.4518 14.1456 940 97.6149 46.4915 465.686
759 0 64.3634 12.9266 832 99.9026 49.0781 464.716
760 0 64.0556 12.7077 814 101.376 48.9693 463.339
761 0 66.2383 15.097 1000 99.087 47.964 463.703
762 0 66.2787 14.9822 993 99.715 50.1279 462.924
763 0 69.339 15.3593 1065 99.7014 50.169 457.274
764 0 70.1355 12.1764 854 104.249 51.1569 458.304
765 0 73.1672 13.1343 961 103.23 51.3038 456.633
766 0 75.101 14.7801 1110 100.25 51.1514 455.174
767 0 79.0919 18.6618 1476 96.8489 51.5406 453.916
768 0 77.0827 13.1677 1015 104.018 53.1015 453.431
769 0 84.2096 16.4352 1384 97.7045 53.1142 458.068
770 0 84.1104 13.5417 1139 103.982 53.0439 450.447
771 0 87.0901 15.639 1362 102.095 53.8135 449.463
772 0 90.2452 14.1282 1275 104.058 53.9514 450.507
773 0 92.1618 12.8361 1183 104.679 54.0938 456.046
774 0 96.1006 13.6003 1307 105.828 54.7314 450.485
775 0 98.2902 12.4529 1224 106.428 55.7794 453.379
776 0 101.371 14.3631 1456 105.042 54.7438 448.721
777 0 109.293 20.5045 2241 94.3182 54.1923 456.777
778 0 107.192 11.9505 1281 105.888 54.2303 455.601
779 1 56.1104 11.6912 656 101.305 54.4665 478.354
780 0 56.1341 11.5616 649 106.995 54.0308 471.866
781 0 61.5124 12.7291 783 103.948 49.1175 474.144
782 0 61.6208 13.4532 829 106.092 49.7419 472.21
783 0 62.5082 14.5421 909 105.15 50.0209 472.111
784 0 63.3729 12.5921 798 108.575 48.2594 472.006
785 0 64.5975 14.3969 930 106.365 48.5237 469.238
786 0 68.4832 10.9224 748 111.289 48.1364 470.167
787 0 71.704 14.3786 1031 106.493 47.3152 465.55
788 0 71.6728 14.329 1027 107.716 47.668 462.449
789 0 74.7725 10.8864 814 110.563 45.6499 467.676
790 0 75.4352 13.8662 1046 108.132 46.2935 463.241
791 0 81.2926 17.0126 1383 103.205 46.6912 463.606
792 0 82.4397 13.7191 1131 108.953 47.0681 456.943
793 0 84.7292 14.8591 1259 105.901 46.228 462.06
794 0 89.783 14.9249 1340 107.403 47.3224 454.11
795 0 92.7953 16.8327 1562 104.739 46.7465 453.047
796 0 93.6003 15.9829 1496 107.462 46.2393 449.155
797 0 95.5912 13.8925 1328 110.121 45.9089 451.397
798 1 51.4593 12.2816 632 105.782 46.856 472.957
799 0 51.3382 12.3884 636 106.217 46.6352 470.453
800 0 53.7154 12.5848 676 104.848 48.1435 468.043
801 0 51.3839 14.0316 721 101.441 47.2538 469.961
802 0 54.2161 17.338 940 96.033 48.4628 465.889
803 0 57.2926 13.0558 748 100.504 48.7888 464.781
804 0 55.2177 19.3597 1069 95.319 48.334 464.784
805 0 59.1933 12.7548 755 101.241 49.5841 460.826
806 0 60.1221 15.1192 909 99.8251 49.8504 456.26
807 0 60.1764 13.2942 800 102.236 50.6612 460.064
808 0 60.3814 14.5409 878 102.667 50.5467 456.245
809 0 60.251 8.9957 542 110.458 52.2454 458.017
810 0 65.4976 14.6876 962 102.715 53.0977 458.273
811 0 70.1912 14.1328 992 102.268 52.3931 459.98
812 0 68.3846 13.0877 895 106.155 53.9352 452.493
813 0 71.225 13.0572 930 106.351 53.4849 454.581
814 0 74.2427 13.4559 999 105.313 53.7207 455.432
815 0 74.2279 12.1652 903 108.023 53.8582 453.878
816 0 79.1591 16.8395 1333 100.845 52.2836 453.341
817 0 79.1526 12.318 975 107.325 54.0359 451.645
818 0 82.1806 10.8055 888 110.923 53.9944 451.663
819 0 82.5155 14.0458 1159 106.728 53.9025 445.807
820 0 86.2602 17.5052 1510 101.556 53.2576 449.37
821 0 88.2111 11.7105 1033 109.996 52.6854 443.024
822 0 90.3097 13.2212 1194 107.807 53.4422 450.181
823 0 98.4924 19.3822 1909 98.2441 52.9455 453.842
824 0 95.1302 11.931 1135 111.125 52.489 449.196
825 0 97.2671 14.5784 1418 108.792 52.4612 441.789
826 1 52.1043 11.8032 615 113.096 51.839 465.867
827 0 53.1716 10.5884 563 112.702 52.4529 471.188
828 0 56.4109 11.8417 668 111.232 51.1377 466.427
829 0 59.276 14.9639 887 107.745 49.0631 469.817
830 0 62.5677 13.0579 817 110.923 48.1273 466.83
831 0 65.4055 13.1029 857 108.96 48.1412 469.865
832 0 66.4864 14.9203 992 107.727 47.8185 465.47
833 0 67.2444 12.4174 835 111.578 47.1317 461.642
834 0 72.6056 13.6491 991 106.177 46.226 466.754
835 0 71.7119 13.8471 993 108.276 46.6103 459.337
836 0 76.7822 21.307 1636 98.3178 45.4682 456.217
837 0 77.5863 15.1187 1173 106.458 45.3299 454.741
838 0 84.065 15.488 1302 105.561 45.0422 454.79
839 0 85.2144 15.0092 1279 107.429 45.3683 449.273
840 0 86.8915 17.4701 1518 104.646 45.6087 448.505
841 0 90.4616 14.2491 1289 106.296 44.166 449.706
842 0 96.9678 22.5333 2185 95.9428 43.6137 446.3
843 0 94.5129 16.6855 1577 103.634 44.617 435.456
844 0 98.0384 14.7391 1445 106.111 44.3363 437.78
845 1 54.3186 13.3288 724 102.642 46.7348 463.551
846 0 54.2115 9.94254 539 105.586 46.321 464.111
847 0 56.4555 10.9112 616 106.95 47.289 459.416
848 0 57.0916 13.4871 770 105.14 49.0364 457.562
849 0 61.269 11.882 728 104.887 48.9038 461.37
850 0 60.2638 12.13 731 105.929 49.5513 459.406
851 0 64.5013 15.9067 1026 101.642 50.9951 457.084
852 0 66.5303 13.9335 927 103.658 49.9817 459.095
853 0 67.4162 16.7912 1132 101.521 50.424 451.214
854 0 70.6211 13.1972 932 104.207 50.2586 456.41
855 0 71.6775 13.3096 954 106.459 50.9245 448.529
856 0 74.6905 13.9241 1040 104.903 50.2567 450.789
857 0 75.6218 13.6998 1036 107.49 51.7046 449.364
858 0 76.8579 11.788 906 110.738 50.9547 449.28
859 0 80.9339 14.4315 1168 107.325 52.417 446.165
860 0 83.5937 12.8359 1073 109.626 51.767 450.153
861 0 85.943 15.0099 1290 107.944 52.8326 445.14
862 0 88.9923 13.4843 1200 109.328 52.5158 447.146
863 0 91.7674 17.1412 1573 103.421 51.4921 450.559
864 0 94.0691 13.1605 1238 108.096 52.8409 450.349
865 0 97.7571 15.0884 1475 107.246 52.0129 446.075
866 0 97.7225 11.2768 1102 111.416 51.3249 450.571
867 0 105.394 15.4468 1628 106.45 51.4367 445.952
868 1 54.3058 13.6818 743 104.187 49.4886 470.738
869 0 58.7477 14.2644 838 103.881 50.3926 466.025
870 0 56.481 9.66697 546 102.621 50.5568 464.432
871 0 57.428 10.5523 606 102.358 49.8432 465.366
872 0 56.3885 8.84932 499 104.423 49.3567 464.695
873 0 60.3912 9.47158 572 105.392 48.4878 464.098
874 0 62.3561 9.46178 590 104.342 48.0475 461.632
875 0 63.4711 9.65794 613 105.215 47.8042 460.188
876 0 66.2827 10.6966 709 104.781 47.1298 458.831
877 0 69.3621 15.6281 1084 98.6273 46.6089 460.705
878 0 72.6219 15.3948 1118 99.3184 46.008 457.51
879 0 72.4034 13.4662 975 103.228 46.4954 456.474
880 0 76.3031 14.77 1127 101.253 46.1925 452.745
881 0 79.427 13.4841 1071 103.678 46.3249 449.692
882 0 83.4028 10.7191 894 107.801 45.0101 453.031
883 1 46.2192 12.2676 567 100.256 43.7407 470.275
884 0 46.0555 8.44634 389 107.018 48.2314 468.321
885 1 89.1493 11.262 1004 107.095 48.0289 448.256
886 0 95.527 13.2319 1264 102.712 47.4375 449.699
887 1 51.1006 11.9568 611 102.558 48.4043 462.175
888 0 52.3087 17.435 912 97.4605 48.7522 463.33
889 0 54.227 15.2138 825 98.7964 48.4339 463.056
890 0 54.1268 15.1866 822 99.2445 49.6241 458.641
891 0 56.2343 12.2523 689 102.553 46.8491 461.126
892 0 61.4396 13.7696 846 98.6099 46.3392 462.515
893 0 60.0619 16.15 970 100.262 48.432 457.14
894 0 62.2831 14.1451 881 102.781 47.7208 455.539
895 0 64.2468 12.2185 785 106.29 48.8191 455.722
896 0 65.1533 17.5739 1145 99.2611 49.814 457.211
897 0 69.148 14.3171 990 103.602 49.9152 457.142
898 0 69.2951 16.6101 1151 102.3 49.9792 454.07
899 0 71.2055 14.4792 1031 104.407 50.6683 457.769
900 0 72.3263 15.0844 1091 105.153 51.461 452.265
901 0 74.1631 12.8366 952 107.478 52.2038 456.457
902 0 79.322 11.51 913 109.863 51.965 455.122
903 0 81.0956 15.6975 1273 103.613 53.0958 454.298
904 0 81.2212 11.3025 918 110.996 51.8214 454.739
905 0 86.3464 14.0597 1214 106.185 52.145 453.46
906 0 90.1567 16.7375 1509 102.026 52.666 452.904
907 0 93.1264 18.4481 1718 100.236 52.408 454.388
908 1 50.1348 13.6233 683 106.022 51.265 473.941
909 0 51.0597 10.3604 529 110.968 50.707 476.095
910 0 51.0692 11.5921 592 110.09 50.3581 476.307
911 0 55.1455 12.4761 688 109.295 50.1076 472.404
912 0 55.1088 13.3735 737 108.106 50.6988 472.719
913 0 57.2156 13.1957 755 107.852 49.4358 472.756
914 0 60.1604 11.0538 665 110.829 48.1474 472.848
915 0 62.2271 14.8488 924 104.358 47.9015 472.144
916 0 62.1441 12.9859 807 108.197 46.5712 471.822
917 0 66.3218 12.5449 832 107.367 46.2584 472.912
918 0 64.1898 13.4133 861 109.36 46.8467 467.883
919 0 68.0903 14.5836 993 107.029 45.8369 466.391
920 0 72.088 13.8719 1000 106.714 45.121 466.774
921 0 70.1537 10.4485 733 113.644 44.4297 463.898
922 0 73.241 12.1653 891 112.233 44.7542 461.808
923 0 77.2054 13.4188 1036 109.646 44.5125 455.45
924 0 80.1347 14.9997 1202 107.918 44.7587 455.071
925 0 82.1763 10.5748 869 113.094 44.9862 459.956
926 0 86.3136 13.4741 1163 108.648 44.9682 457.334
927 0 88.3398 13.8669 1225 108.142 44.0849 454.25
928 0 91.1841 13.566 1237 109.702 44.7421 450.073
929 0 91.1561 11.9465 1089 110.458 45.9302 454.604
930 0 98.2388 16.0527 1577 106.107 46.3583 444.38
931 1 45.0928 10.7334 484 108.494 45.3554 469.818
932 0 48.0604 11.9225 573 108.019 46.185 466.307
933 0 51.0602 10.4191 532 106.853 46.5714 464.835
934 0 52.0745 15.4778 806 97.2742 47.7903 463.128
935 0 56.6381 13.136 744 95.3522 49.9194 463.604
936 0 51.3883 9.37957 482 102.79 51.195 459.042
937 0 56.1799 13.1186 737 96.0583 51.5658 463.938
938 0 56.1632 11.6802 656 100.361 51.7149 457.002
939 0 59.3803 13.5398 804 98.0833 51.9689 459.435
940 0 61.2802 11.2924 692 101.354 51.565 453.975
941 0 62.238 12.9824 808 100.528 51.8911 453.769
942 0 62.3015 13.1939 822 104.029 52.9659 462.189
943 0 69.3034 13.7223 951 103.59 53.0473 461.513
944 0 73.272 14.8078 1085 101.852 54.5336 460.684
945 0 74.4099 14.3529 1068 103.213 53.8408 459.527
946 0 72.235 11.0473 798 106.414 54.0627 461.158
947 0 74.175 13.4547 998 104.055 54.0832 458.311
948 0 79.2373 14.2862 1132 104.218 55.1166 456.872
949 0 82.219 11.7248 964 105.422 54.6421 461.475
950 0 85.2562 12.7381 1086 103.892 54.7864 461.163
951 1 46.0558 11.4644 528 106.188 55.1932 474.155
952 0 47.3184 13.1027 620 103.139 54.7613 474.489
953 0 52.1604 12.0206 627 102.512 54.5502 477.549
954 0 50.1706 12.318 618 104.793 53.9013 477.039
955 0 52.1229 14.1396 737 101.864 53.3351 478.161
956 0 54.0889 12.6274 683 104.067 52.8097 477.581
957 0 60.2126 22.3707 1347 91.7053 51.8671 476.932
958 0 59.1833 15.2746 904 97.406 51.7555 480.789
959 0 59.0952 11.2192 663 105.778 50.0528 477.124
960 0 60.3548 13.6526 824 103.859 50.2767 473.242
961 0 62.1404 13.7914 857 103.393 49.2439 471.119
962 0 64.1773 16.2207 1041 101.895 49.3746 470.564
963 0 64.2412 13.7762 885 105.51 48.9153 469.538
964 0 68.1983 21.4815 1465 95.6928 48.3222 465.918
965 0 70.1207 14.7032 1031 103.553 47.7187 466.897
966 0 73.1046 16.3601 1196 103.242 47.4206 459.896
967 0 74.2319 14.3065 1062 105.362 47.8653 459.801
968 0 76.1318 14.8821 1133 105.68 46.9762 453.272
969 0 82.1162 20.1057 1651 97.3895 46.0109 459.153
970 0 82.114 13.2864 1091 106.761 46.9899 455.673
971 0 86.1915 16.2081 1397 102.49 47.1231 449.945
972 0 89.4188 19.5485 1748 98.7019 47.4394 447.24
973 1 45.3607 11.5959 526 109.555 47.443 467.437
974 0 50.2763 12.312 619 103.985 48.1018 467.452
975 0 49.1719 10.3108 507 107.325 48.5345 463.819
976 0 52.1257 15.4434 805 100.553 49.1118 462.188
977 0 54.1647 13.902 753 102.568 49.3665 461.871
978 0 56.1203 15.2173 854 102.283 50.2225 458.595
979 0 57.0623 12.8456 733 105.12 50.2728 459.025
980 0 58.2784 17.914 1044 98.5029 50.4224 455.766
981 0 64.0963 16.4596 1055 100.631 51.8682 459.222
982 0 60.211 10.3303 622 106.341 50.8633 464.305
983 0 62.0326 12.703 788 106.02 52.4568 460.152
984 0 60.105 8.73471 525 109.265 53.7295 462.987
985 0 66.1728 13.3892 886 103.888 54.6196 458.998
986 0 71.1143 12.3885 881 104.101 54.9591 457.529
987 0 73.2421 19.7291 1445 96.8201 54.2588 461.111
988 0 78.1057 12.099 945 107.418 54.9016 461.224
989 0 80.1758 17.1623 1376 97.1991 55.2529 454.501
990 0 78.307 12.6936 994 105.836 54.4437 453.905
991 0 83.091 16.0908 1337 99.1743 54.7472 454.35
992 0 84.197 13.8604 1167 97.2879 54.5836 456.28
993 1 47.041 10.5015 494 103.528 55.4939 474.532
994 0 47.0747 11.5349 543 99.1713 55.1123 472.691
995 0 48.1336 12.8185 617 99.5122 53.7472 476.284
996 0 49.1828 16.8555 829 94.2823 54.7081 476.805
997 0 48.2326 10.553 509 109.953 54.4126 474.251
998 0 52.1202 14.927 778 100.528 53.6465 472.28
999 0 53.1122 15.7026 834 100.548 53.0432 470.788
1000 0 53.2249 12.8136 682 104.284 52.3372 474.523
1001 0 56.0722 18.5475 1040 97.0269 51.1875 472.031
1002 0 61.3096 18.8878 1158 94.9352 50.1313 474.701
1003 0 57.0978 12.2947 702 105.56 49.5285 470.305
1004 0 58.1153 10.2039 593 106.816 49.8094 469.277
1005 0 64.1389 19.333 1240 96.4774 49.0161 468.89
1006 0 64.133 14.4855 929 103.154 49.0958 465.078
1007 0 64.2133 11.0257 708 108.162 48.4167 466.503
1008 0 69.1014 9.76825 675 108.939 48.3778 460.16
1009 0 69.0502 14.4243 996 103.76 48.3946 459.08
1010 0 71.3233 9.9687 711 109.042 48.2377 461.651
1011 0 74.1742 12.9964 964 105.442 48.4295 458.949
1012 0 78.1272 12.8508 1004 105.518 48.2171 459.091
1013 0 81.1446 13.5561 1100 105.246 47.9536 451.936
1014 0 82.109 12.6783 1041 106.622 48.1162 455.772
1015 0 85.2184 13.9759 1191 105.201 41.4601 451.118
1016 1 48.119 12.2613 590 102.492 43.4746 470.312
1017 0 46.0407 11.9025 548 104.086 49.261 468.389
1018 0 49.0625 13.7783 676 101.969 48.9112 467.846
1019 0 50.196 15.3399 770 99.7247 49.0377 465.681
1020 0 52.1434 20.3669 1062 91.3409 49.0847 466.798
1021 0 55.1886 15.1118 834 99.5875 49.548 459.253
1022 0 53.1522 11.6458 619 104.969 50.273 464.057
1023 0 55.2102 11.5015 635 108.764 50.4126 461.874
1024 0 58.2481 17.9748 1047 101.078 50.2359 459.334
1025 0 58.1474 11.5224 670 110.328 52.5433 460.927
1026 0 61.1193 17.1795 1050 101.912 51.7086 460.871
1027 0 65.1104 14.7442 960 103.722 53.199 461.147
1028 0 66.2242 11.899 788 109.617 53.3071 454.717
1029 0 67.248 14.9447 1005 104.81 52.7423 459.989
1030 0 70.4562 12.8732 907 107.948 52.1246 456.229
1031 0 72.2513 15.8198 1143 103.931 53.5477 459.695
1032 0 75.4628 13.2913 1003 107.396 53.652 459.238
1033 0 76.361 13.0826 999 109.495 54.0751 456.606
1034 0 78.4234 13.4526 1055 108.742 53.4483 459.041
1035 1 43.1098 11.3431 489 107.307 52.4192 479.652
1036 0 43.218 10.9445 473 108.108 51.3679 478.3
1037 0 46.065 15.3479 707 99.4385 52.0566 479.214
1038 0 46.1331 13.3744 617 101.485 53.7374 476.201
1039 0 47.0498 12.1573 572 102.584 52.5559 481.678
1040 0 50.1569 15.4714 776 96.1018 51.6495 483.03
1041 0 51.1122 13.8714 709 99.6615 51.4951 479.804
1042 0 53.0841 12.7157 675 100.367 50.3837 482.12
1043 0 53.206 12.4798 664 102.642 49.5858 475.69
1044 0 55.1558 10.6788 589 104.516 49.0662 477.935
1045 0 56.1917 12.5819 707 103.405 48.0212 474.9
1046 0 58.293 12.5744 733 103.173 48.1869 471.506
1047 0 58.1234 11.1143 646 104.653 46.5882 473.176
1048 0 63.62 18.7834 1195 95.2084 46.8787 467.952
1049 0 64.1143 15.1136 969 99.547 46.4014 471.682
1050 0 64.2696 11.2962 726 103.299 44.5964 469.088
1051 0 67.2675 12.5469 844 103.09 45.8282 467.243
1052 0 69.1042 12.7344 880 103.1 44.383 462.795
1053 0 70.6172 12.4616 880 103.62 44.6534 465.685
1054 0 75.2442 14.021 1055 100.575 45.2502 464.76
1055 0 76.2724 15.1955 1159 99.5418 45.1363 462.317
1056 0 81.4658 17.1729 1399 96.7219 45.7277 451.841
1057 1 40.0365 12.1139 485 104.12 44.299 474.165
1058 0 44.1931 11.6534 515 104.388 45.266 471.934
1059 0 43.4398 12.2699 533 105.94 46.3621 468.775
1060 0 48.2915 16.1519 780 99.4423 47.4115 466.403
1061 0 48.0119 12.5177 601 105.03 48.1181 465.749
1062 0 48.1783 12.599 607 105.402 48.9012 468.418
1063 0 51.2367 16.4335 842 99.2708 48.4228 467.808
1064 0 53.0658 12.3432 655 106.588 49.4198 463.348
1065 0 53.0823 10.5497 560 110.704 50.1875 464.909
1066 0 53.0733 14.0184 744 107.532 50.5726 459.624
1067 0 56.0473 12.2754 688 109.935 50.5654 459.093
1068 0 57.1274 11.203 640 111.2 52.2688 464.069
1069 0 60.1013 11.647 700 110.719 51.9143 461.689
1070 0 62.0988 13.237 822 108.775 53.1569 457.195
1071 0 63.1691 11.5879 732 111.082 53.6735 456.18
1072 0 65.2504 9.51718 621 114.279 53.3333 459.588
1073 0 67.1272 13.169 884 110.001 54.0113 458.578
1074 0 75.1334 15.1331 1137 104.915 54.7493 457.23
1075 0 75.1922 14.0307 1055 108.278 54.4957 456.643
1076 0 73.0856 10.604 775 114.855 55.1806 453.608
1077 0 81.2147 17.2752 1403 104.432 55.1753 455.904
1078 0 81.1038 14.9068 1209 109.309 54.4376 453.756
1079 0 84.2062 13.5976 1145 110.966 54.8148 449.37
1080 0 79.1006 10.5309 833 115.375 53.4394 451.619
1081 0 90.1666 12.9316 1166 112.6 53.5412 455.262
1082 0 95.2652 14.9687 1426 109.31 53.7321 452.269
1083 0 96.4323 20.6259 1989 100.823 53.0759 452.393
1084 1 49.0844 12.5294 615 106.556 52.7561 473.472
1085 0 51.1805 11.4106 584 107.58 52.161 473.009
1086 0 53.0768 11.0594 587 108.307 51.9012 471.145
1087 0 53.1527 13.734 730 105.315 51.1425 473.885
1088 0 56.2307 14.4405 812 105.419 50.5998 470.393
1089 0 61.1755 15.3329 938 103.02 49.9339 469.61
1090 0 60.1314 13.8364 832 106.454 48.5541 467.726
1091 0 61.1841 13.7944 844 107.265 49.4076 466.857
1092 0 64.1301 12.0068 770 109.83 48.713 467.127
1093 0 65.0554 14.2801 929 106.013 47.9742 466.312
1094 0 69.176 14.7306 1019 105.438 46.4956 464.597
1095 0 67.0783 9.91378 665 114.262 46.9143 460.397
1096 0 71.2055 16.8807 1202 103.259 46.8311 461.387
1097 0 75.0762 13.8659 1041 107.659 46.4822 456.688
1098 0 77.2234 16.9508 1309 103.872 46.055 456.452
1099 0 82.2996 14.6173 1203 106.17 45.9942 455.423
1100 0 84.1224 14.5502 1224 105.966 45.5547 456.109
1101 0 88.138 12.9002 1137 109.06 45.9358 452.42
1102 0 90.3208 13.8838 1254 107.587 45.453 448.631
1103 0 93.2579 16.8672 1573 104.274 45.5531 446.038
1104 0 99.2824 15.9948 1588 104.015 46.7846 446.611
1105 1 47.187 12.3339 582 99.8969 45.9519 466.012
1106 0 47.0829 10.1948 480 99.8875 46.9688 469.9
1107 0 50.2989 12.6245 635 99.3685 44.9591 462.365
1108 0 53.3055 9.69881 517 100.623 48.1141 465.031
1109 0 52.2714 11.9377 624 99.859 47.4968 461.378
1110 0 54.382 19.0136 1034 90.7215 48.5387 463.722
1111 0 56.4409 13.306 751 97.3196 49.2663 460.893
1112 0 59.1636 11.8485 701 98.0128 50.0656 462.272
1113 0 60.3342 14.1545 854 97.1312 50.74 455.591
1114 0 60.2585 14.6037 880 97.7466 50.4602 454.039
1115 0 66.1613 10.9278 723 100.524 51.2752 455.3
1116 0 68.3211 13.0999 895 98.1061 52.0056 457.016
1117 0 67.2348 10.203 686 103.035 51.1035 450.316
1118 0 68.3441 10.0374 686 104.701 52.1122 451.754
1119 0 73.1333 12.6071 922 100.879 50.9664 449.651
1120 0 78.3363 14.4761 1134 96.597 52.6199 455.824
1121 0 78.6198 13.0247 1024 100.75 51.4375 454.538
1122 0 83.1573 14.2621 1186 104.036 50.6383 460.76
1123 0 85.1115 14.5574 1239 103.697 49.9451 460.01
1124 0 88.2722 12.8806 1137 105.168 49.4389 460.004
1125 0 90.3824 15.0361 1359 102.441 49.5401 460.57
1126 0 91.1702 14.0836 1284 106.226 49.331 454.705
1127 0 95.1005 21.1776 2014 96.5551 49.2512 458.71
1128 0 98.6568 13.7244 1354 105.473 47.8479 454.536
1129 1 51.067 13.2571 677 105.725 47.1521 480.176
1130 0 54.2927 10.9039 592 111.127 47.875 478.606
1131 0 52.0947 11.767 613 106.775 49.217 469.556
1132 0 60.1081 9.13355 549 109.018 48.204 472.177
1133 0 57.0658 14.1241 806 104.833 47.2717 468.77
1134 0 60.0442 11.808 709 106.563 45.6855 471.145
1135 0 64.0544 15.5961 999 103.789 46.6426 464.616
1136 0 66.0613 15.97 1055 101.596 45.381 462.855
1137 0 66.0527 11.4757 758 108.902 45.4855 459.927
1138 0 71.1814 20.2581 1442 95.3946 44.8426 468.75
1139 0 72.2814 13.0047 940 107.001 44.533 460.496
1140 0 73.1006 16.019 1171 104.063 44.4193 457.918
1141 0 75.1243 11.4876 863 112.939 44.4728 457.72
1142 0 79.3229 13.3631 1060 109.483 44.3623 457.834
1143 0 80.0956 12.56 1006 111.294 43.9712 448.718
1144 0 84.1435 13.2274 1113 108.578 44.4726 457.194
1145 0 87.1195 14.7843 1288 107.936 44.83 450.249
1146 0 88.1887 9.61574 848 115.037 44.5554 450.946
1147 1 47.1083 11.2082 528 105.286 42.5587 472.568
1148 0 50.1695 15.3878 772 105.484 45.3018 469.5
1149 0 52.0823 15.8787 827 104.607 47.0181 466.659
1150 0 52.1497 11.8313 617 110.643 46.6856 463.908
1151 0 57.2311 13.9609 799 105.268 47.9212 469.023
1152 0 57.334 18.5056 1061 99.6975 48.1254 467.804
1153 0 61.2098 16.7784 1027 101.659 48.0448 463.179
1154 0 60.3831 14.8717 898 106.278 49.6258 462.467
1155 0 62.1527 13.6116 846 108.093 49.9314 461.901
1156 0 63.136 12.2276 772 110.102 49.9689 460.561
1157 0 65.1448 15.1202 985 105.489 51.1929 461.128
1158 0 67.091 14.8753 998 105.999 51.2796 457.242
1159 0 69.2321 12.7975 886 109.222 51.7618 457.602
1160 0 71.1522 15.755 1121 104.249 51.2525 458.347
1161 0 73.2517 14.3068 1048 106.714 52.6956 457.541
1162 0 77.2163 11.9016 919 108.187 51.9935 459.93
1163 0 80.3088 14.1454 1136 105.289 52.6769 457.821
1164 0 82.2415 13.5941 1118 106.296 51.6503 457.402
1165 0 86.2427 11.3865 982 109.359 52.499 458.55
1166 1 46.0631 11.1369 513 109.75 53.4055 477.639
1167 0 47.1547 10.9003 514 112.589 53.1556 475.805
1168 0 50.2195 11.0316 554 107.206 52.2671 474.708
1169 0 46.2675 10.0719 466 109.163 52.7661 478.94
1170 0 51.3184 11.224 576 106.438 51.8872 473.042
1171 0 52.263 11.997 627 106.933 51.5247 477.506
1172 0 56.2353 12.2343 688 105.801 50.7427 474.035
1173 0 60.2099 15.4127 928 101.286 50.0086 474.499
1174 0 59.202 13.7664 815 104.488 49.254 474.145
1175 0 58.2044 11.7173 682 107.073 48.3988 474.11
1176 0 63.2941 14.5195 919 103.034 47.9217 473.221
1177 0 63.2316 11.3867 720 107.961 46.7236 470.732
1178 0 66.383 14.7478 979 102.953 46.4249 469.201
1179 0 66.1756 11.7264 776 106.308 46.1044 467.598
1180 0 71.1291 12.8921 917 103.786 45.9847 465.808
1181 0 72.3043 11.0229 797 105.73 44.8055 463.023
1182 0 79.2373 12.8727 1020 102.448 45.2333 465.216
1183 0 78.314 13.7013 1073 103.957 45.4753 460.062
1184 0 80.1932 14.4526 1159 102.204 44.8499 458.583
1185 0 85.4156 12.7494 1089 103.613 44.2452 456.972
1186 0 85.3893 11.4183 975 104.506 43.5077 458.854
1187 1 45.0706 11.9812 540 103.161 45.0463 474.493
1188 0 44.1892 9.57248 423 106.993 44.4563 470.92
1189 0 47.3873 14.2443 675 101.797 43.4 471.551
1190 0 50.0427 12.1896 610 103.639 45.3098 471.313
1191 0 51.1917 16.6238 851 97.9871 46.2233 470.436
1192 0 54.1476 16.5658 897 98.0747 45.8517 471.326
1193 0 53.1513 15.1266 804 102.739 46.9328 465.044
1194 0 55.2495 13.5748 750 104.275 48.12 464.344
1195 0 57.3627 13.3013 763 104.594 47.7549 464.583
1196 0 60.0546 14.4535 868 103.806 48.917 461.726
1197 0 62.0982 12.6091 783 106.879 49.7727 459.914
1198 0 62.2598 13.7488 856 105.657 49.2336 460.936
1199 0 63.1835 10.604 670 109.558 50.2358 465.251
1200 0 67.1869 15.1667 1019 103.325 50.525 459.236
1201 0 68.0912 14.9652 1019 104.986 51.1727 458.661
1202 0 70.1754 13.0388 915 107.314 51.3836 458.482
1203 0 74.2657 15.9293 1183 104.073 51.8208 453.083
1204 0 75.169 15.2323 1145 105.438 51.6576 453.819
1205 0 74.2375 10.6415 790 110.978 51.7468 457.842
1206 0 78.1678 11.6928 914 110.231 52.0624 462.526
1207 0 81.1539 10.4123 845 108.838 51.6592 462.837
1208 0 83.1128 10.5158 874 111.191 51.7769 462.799
1209 0 89.2422 11.9226 1064 109.935 51.8637 458.961
1210 0 87.3878 11.8323 1034 109.926 51.3008 460.581
1211 0 94.5587 16.3496 1546 103.14 49.8836 455.512
1212 1 52.2393 10.6816 558 109.6 48.8136 474.487
1213 0 52.2644 14.1205 738 104.611 48.3022 478.145
1214 0 54.2388 11.0438 599 110.24 48.374 473.309
1215 0 57.2556 12.7324 729 107.392 47.561 474.886
1216 0 57.1796 13.2565 758 106.433 46.9367 476.239
1217 0 60.3168 16.1646 975 103.218 47.1169 472.463
1218 0 63.2113 16.5318 1045 103.808 45.5378 472.717
1219 0 65.164 12.7064 828 109.56 45.0362 469.72
1220 0 68.3056 13.6299 931 107.323 44.4662 470.397
1221 0 69.3171 18.3504 1272 99.8781 43.7555 474.3
1222 0 71.43 16.2537 1161 104.916 43.82 464.607
1223 0 72.7419 14.9982 1091 106.01 42.8222 468.191
1224 0 71.3982 13.1796 941 109.536 42.7821 462.489
1225 0 76.3799 14.5064 1108 109.509 42.685 460.448
1226 0 80.3561 12.793 1028 111.534 43.2568 456.387
1227 0 82.4797 16.9981 1402 105.552 42.4765 455.668
1228 0 85.5793 17.4809 1496 104.977 42.8683 452.124
1229 0 87.3247 16.9139 1477 106.269 42.7745 449.594
1230 0 91.3593 13.4414 1228 110.883 44.0708 449.165
1231 1 45.0393 11.8563 534 110.622 44.4438 473.09
1232 0 48.4426 12.4477 603 108.411 44.6915 469.476
1233 0 48.1544 11.8577 571 105.968 44.7478 463.769
1234 0 48.1558 13.747 662 101.654 45.7205 460.619
1235 0 52.1142 16.4255 856 97.0642 46.2383 463.341
1236 0 52.1442 12.4079 647 103.321 45.8949 458.144
1237 0 52.1042 10.3063 537 106.277 48.2961 459.289
1238 0 58.4287 13.6748 799 100.372 47.378 456.173
1239 0 56.1327 13.2187 742 102.426 48.2884 454.416
1240 0 59.2835 12.5499 744 103.702 48.9046 451.914
1241 0 61.2046 13.7898 844 102.268 49.7547 453.31
1242 0 64.1352 13.9081 892 102.27 50.7455 451.711
1243 0 64.0813 18.5858 1191 96.8203 51.183 456.683
1244 0 63.1042 10.6332 671 110.985 52.1311 454.471
1245 0 69.3922 12.9409 898 107.803 52.4744 452.851
1246 0 66.1668 8.94709 592 115.529 52.5794 449.225
1247 0 75.0486 13.3247 1000 107.301 53.818 454.178
1248 0 76.161 11.5545 880 110.28 52.9648 451.466
1249 0 74.1492 10.0608 746 113.932 53.2788 447.256
1250 0 80.487 10.9459 881 110.11 54.1294 455.358
1251 0 79.1904 9.01624 714 114.578 53.6807 451.066
1252 0 86.2146 12.8864 1111 109.082 52.829 449.303
1253 0 87.3029 12.6113 1101 110.813 51.871 445.192
1254 1 49.3226 10.2387 505 104.83 51.7089 476.255
1255 0 48.1335 8.68418 418 108.041 50.9163 472.782
1256 0 52.1923 13.1054 684 101.756 50.8523 470.905
1257 0 54.1698 11.5562 626 103.879 50.4633 473.308
1258 0 60.1597 14.0293 844 102.645 48.5794 473.211
1259 0 62.4728 14.0221 876 102.436 47.8779 475.691
1260 0 62.3931 11.2352 701 107.288 46.0942 469.379
1261 0 66.334 14.6833 974 102.117 45.6622 470.11
1262 0 69.4662 16.3677 1137 99.7018 45.6807 470.856
1263 0 69.2229 12.9581 897 104.34 44.7681 469.416
1264 0 73.3009 18.6764 1369 97.3492 44.1892 466.457
1265 0 72.4244 13.5037 978 105.563 42.8988 460.632
1266 0 76.3492 11.6046 886 108.091 42.8442 461.226
1267 0 81.2304 13.0247 1058 105.354 43.1985 461.224
1268 0 80.249 13.8195 1109 105.73 41.8034 460.328
1269 0 83.495 13.1625 1099 105.793 42.3776 457.776
1270 0 84.248 12.2258 1030 108.742 41.3097 455.651
1271 0 87.3735 11.7541 1027 110.423 42.9026 452.452
1272 0 90.2972 14.4633 1306 105.783 42.8614 453.771
1273 0 92.3188 12.5976 1163 109.424 43.3388 444.423
1274 0 95.3662 13.1808 1257 109.167 43.58 443.423
1275 0 100.551 14.8084 1489 105.574 44.4023 446.449
1276 0 100.636 12.1626 1224 109.001 44.165 443.247
1277 0 109.424 13.6168 1490 107.519 45.702 438.395
1278 1 53.2184 10.0529 535 109.163 44.471 463.335
1279 0 57.2 13.3566 764 104.512 44.873 464.852
1280 0 58.2721 12.9908 757 105.428 45.2457 457.984
1281 0 61.3835 13.8474 850 103.289 46.1188 458.081
1282 0 61.155 11.1193 680 108.271 46.2897 454.844
1283 0 63.0651 11.5278 727 108.293 47.4402 456.106
1284 0 66.2006 13.5195 895 103.974 48.4413 455.742
1285 0 64.3822 11.1366 717 109.159 48.06 453.209
1286 0 71.1977 14.9303 1063 103.294 48.9784 454.374
1287 0 73.2198 15.5286 1137 102.27 50.0352 455.509
1288 0 76.3323 17.8561 1363 99.303 49.9787 450.244
1289 0 75.4823 12.1353 916 107.072 50.1114 452.163
1290 0 80.2373 11.0547 887 108.179 50.9064 455.335
1291 0 80.4441 11.076 891 107.669 50.9461 455.303
1292 0 85.157 14.9371 1272 102.387 50.875 449.956
1293 0 88.1462 12.5133 1103 103.985 51.5449 453.62
1294 0 90.1477 16.0736 1449 100.119 51.8302 452.511
1295 1 49.1952 15.9568 785 98.721 50.5669 471.633
1296 0 50.1726 11.9787 601 103.913 49.173 470.057
1297 0 53.0767 12.3783 657 102.568 49.6514 473.253
1298 0 55.2323 14.7378 814 97.113 49.7973 472.775
1299 0 60.1783 11.9478 719 100.086 49.8401 473.618
1300 0 59.2033 12.1953 722 101.037 49.2452 474.172
1301 0 60.1703 7.44553 448 106.533 48.1674 476.078
1302 0 63.3462 10.4663 663 102.264 48.2504 469.649
1303 0 65.2322 12.3099 803 99.1768 47.4247 475.223
1304 0 68.3424 11.3253 774 102.012 46.6434 468.295
1305 0 71.4262 14.0845 1006 98.1799 45.9294 466.138
1306 0 72.4737 11.8388 858 101.156 45.0385 467.052
1307 0 75.3013 13.3464 1005 97.5791 43.9025 469.134
1308 0 82.3339 11.1376 917 99.5671 41.5507 467.667
1309 1 41.3746 11.4805 475 101.501 43.3011 481.381
1310 0 44.6913 11.2102 501 102.868 44.004 473.545
1311 0 45.4915 14.0906 641 100.616 42.5554 470.69
1312 0 48.8739 15.141 740 99.8581 43.3432 469.515
1313 0 50.2382 13.6749 687 100.747 43.3144 471.092
1314 0 49.0674 11.3314 556 106.183 41.7752 469.311
1315 0 50.1457 14.7171 738 100.745 42.378 466.137
1316 0 51.1407 12.9447 662 103.509 41.6284 465.068
1317 0 52.1362 12.8893 672 104.031 42.0818 464.835
1318 0 53.0561 12.4585 661 104.708 43.2874 462.448
1319 0 57.384 18.5243 1063 95.8758 43.9614 461.006
1320 0 57.164 12.9977 743 103.49 43.8479 460.522
1321 0 56.4578 12.4341 702 105.113 45.0028 457.476
1322 0 60.1688 16.1712 973 99.185 45.3628 460.251
1323 0 63.2776 13.259 839 103.006 47.3302 458.441
1324 0 63.3811 13.6792 867 102.83 47.917 455.961
1325 0 67.3963 15.3124 1032 100.677 48.8527 455.706
1326 0 68.3656 13.6765 935 103.337 49.8 455.622
1327 0 70.3185 14.349 1009 103.021 49.4787 455.392
1328 0 70.4826 14.273 1006 103.994 50.1163 450.201
1329 0 74.278 14.9439 1110 102.654 51.0153 457.167
1330 0 77.3374 11.6373 900 106.742 50.4989 459.64
1331 0 82.5222 12.1785 1005 106.036 51.0448 459.169
1332 0 82.5222 12.3361 1018 144.76 52.0972 459.267
1333 1 43.0362 12.0364 518 105.288 50.4402 477.152
1334 0 46.1007 10.7374 495 107.798 48.9879 475.869
1335 0 48.2048 13.1937 636 103.967 50.695 477.443
1336 0 49.1788 11.143 548 107.843 49.9599 476.06
1337 0 51.0522 12.8692 657 106.42 49.2877 475.641
1338 0 53.0579 13.1366 697 105.615 48.8608 477.479
1339 0 52.1286 14.8863 776 103.526 48.6005 477.682
1340 0 55.1309 14.7105 811 104.09 48.1171 477.55
1341 0 58.2643 12.8209 747 107.095 48.1526 475.343
1342 0 59.1123 14.2441 842 105.993 47.234 475.487
1343 0 60.1974 15.499 933 104.226 47.3162 477.364
1344 0 64.1167 16.392 1051 102.411 44.8011 474.341
1345 0 63.2174 15.2964 967 102.599 45.2068 473.277
1346 0 66.0843 15.2078 1005 102.808 44.5313 469.603
1347 0 64.1645 11.1744 717 108.059 43.9958 474.582
1348 0 69.2982 13.4347 931 105.745 44.043 469.849
1349 0 70.1322 11.6922 820 107.612 43.5098 471.249
1350 0 73.2025 13.7973 1010 105.582 43.303 462.789
1351 0 76.1957 13.2816 1012 104.338 42.7223 466.477
1352 0 77.2298 10.1774 786 109.985 42.6285 460.373
1353 0 81.2397 13.9833 1136 104.312 43.6875 459.85
1354 0 84.3535 15.9329 1344 102.629 43.558 453.266
1355 1 45.1564 13.9737 631 100.721 41.813 476.933
1356 0 44.0932 12.0654 532 111.156 41.9962 463.953
1357 0 47.0639 9.09401 428 111.848 42.8832 461.554
1358 0 49.0906 12.6297 620 106.298 42.7984 461.265
1359 0 50.2861 13.4033 674 104.148 42.8947 462.417
1360 0 53.2487 15.4558 823 101.478 42.7716 466.303
1361 0 52.1618 11.9436 623 106.684 43.1701 465.093
1362 0 57.2639 13.7259 786 102.366 43.8461 464.76
1363 0 57.1431 13.2999 760 104.149 43.7776 462.363
1364 0 60.1464 14.0989 848 102.487 44.3502 461.061
1365 0 62.1392 12.8099 796 103.655 45.5502 458.612
1366 0 65.0931 15.3012 996 100.782 45.6697 454.376
1367 0 64.075 13.2033 846 103.979 47.6123 454.972
1368 0 69.1051 12.8645 889 103.481 47.9865 456.935
1369 0 71.1811 13.2479 943 102.558 48.7031 454.318
1370 0 73.1597 14.1335 1034 102.059 47.8956 453.72
1371 0 76.1309 19.6504 1496 93.8864 49.3703 453.249
1372 0 78.2338 13.6003 1064 100.626 49.5592 450.698
1373 0 81.2896 14.7989 1203 98.6392 49.9077 452.651
1374 0 83.122 13.4982 1122 100.492 49.4474 452.71
1375 0 88.1933 13.6292 1202 99.3694 50.1032 448.142
1376 0 90.2385 17.4648 1576 95.3674 51.0958 446.89
1377 0 92.6034 14.7403 1365 99.1289 51.7458 449.328
1378 0 95.5491 12.6113 1205 101.417 51.371 444.077
1379 0 101.157 13.7608 1392 96.1078 52.9346 439.582
1380 0 102.266 13.3085 1361 97.0529 51.3079 441.673
1381 1 48.2941 11.989 579 94.532 51.3575 468.701
1382 0 52.1441 7.74776 404 97.9233 51.3366 473.205
1383 0 49.1314 10.8892 535 96.572 51.7533 468.854
1384 0 53.2464 17.1842 915 89.6699 50.6787 468.519
1385 0 55.0635 12.531 690 93.5783 50.3507 473.464
1386 0 57.1685 13.5039 772 94.2992 48.8109 468.771
1387 0 58.1716 11.2942 657 97.5068 48.6195 464.289
1388 0 63.1796 13.6911 865 93.6543 47.1884 467.397
1389 0 65.1092 17.6319 1148 93.9408 47.392 470.74
1390 0 67.3181 15.8204 1065 97.3099 45.9502 468.757
1391 0 70.3646 12.4921 879 98.802 45.1798 464.322
1392 0 70.2613 9.97704 701 102.912 45.8631 460.946
1393 0 76.4572 14.0471 1074 98.9255 44.0037 463.64
1394 0 77.7248 18.4754 1436 94.0118 43.9603 465.196
1395 1 43.2996 12.3327 534 98.8989 42.4625 473.221
1396 0 43.2641 11.8805 514 98.6245 42.5039 475.823
1397 0 43.2768 13.0324 564 105.876 43.1862 470.512
1398 0 47.1462 13.1506 620 101.747 41.1661 470.413
1399 0 47.1306 12.3062 580 103.076 42.1862 468.464
1400 0 47.1153 12.4588 587 104.121 41.9353 467.814
1401 0 53.346 18.2394 973 95.6876 42.3618 463.694
1402 0 52.0715 16.823 876 96.6747 42.5263 469.884
1403 0 54.1422 24.8051 1343 88.6351 42.9568 468.162
1404 0 53.1162 12.1997 648 105.506 42.733 462.511
1405 0 58.2122 14.6705 854 102.083 43.4543 459.961
1406 0 59.195 15.7615 933 101.94 44.4748 462.417
1407 0 62.4954 13.985 874 104.344 44.7826 457.124
1408 0 61.1957 15.5566 952 101.974 45.4695 462.209
1409 0 65.2556 14.2823 932 104.09 46.0408 458.313
1410 0 67.1288 13.3475 896 105.19 47.2556 458.674
1411 0 69.1666 13.5904 940 106.035 48.0372 457.896
1412 0 71.2817 16.7224 1192 103.15 48.6074 455.494
1413 0 74.243 14.4795 1075 106.073 48.7572 457.013
1414 0 77.3037 15.7431 1217 103.813 49.5563 454.45
1415 1 41.1495 11.1058 457 108.543 48.8009 471.556
1416 0 44.3238 12.1605 539 107.117 49.0798 471.622
1417 0 44.0654 14.1835 625 104.786 53.3152 471.714
1418 0 45.0984 13.3264 601 105.656 53.1498 475.047
1419 0 44.102 11.1786 493 109.933 53.2434 472.079
1420 0 47.1735 12.3374 582 106.875 53.2509 475.931
1421 0 48.1428 11.7151 564 109.863 53.4681 474.956
1422 0 57.2669 26.5074 1518 88.8814 53.0481 473.734
1423 0 52.1441 14.4791 755 106.274 53.2795 476.522
1424 0 54.1191 13.1931 714 107.402 52.4244 475.661
1425 0 55.0792 14.0343 773 105.677 52.1048 477.292
1426 0 56.3512 11.8187 666 110.502 50.9595 473.126
1427 0 60.2401 16.2018 976 104.015 50.7664 475.389
1428 0 59.0616 13.0372 770 110.713 50.0766 473.004
1429 0 63.1115 13.5792 857 108.355 50.4924 476.327
1430 0 64.1005 14.1653 908 108.624 48.8855 474.961
1431 0 66.14 17.9468 1187 103.636 48.3218 472.27
1432 0 69.0776 11.8418 818 113.775 47.3166 469.21
1433 0 71.1603 13.2939 946 112.137 48.2643 465.942
1434 0 74.2022 20.1881 1498 102.223 46.4559 461.851
1435 0 76.0764 15.4844 1178 108.309 46.5798 465.596
1436 0 82.2566 19.3905 1595 101.84 44.9455 463.438
1437 0 79.1364 11.7013 926 114.842 45.8326 462.976
1438 0 85.2062 15.4918 1320 107.629 45.8341 454.84
1439 0 86.1794 13.7388 1184 109.297 45.3041 453.473
1440 0 90.2282 18.3978 1660 102.533 44.5235 454.831
1441 0 95.2752 20.3621 1940 100.544 44.2722 451.444
1442 1 49.1544 11.352 558 113.523 45.3082 471.692
1443 0 53.025 12.2018 647 110.992 45.7512 471.278
1444 0 52.2953 12.8119 670 112.307 44.8567 464.734
1445 0 56.1886 15.27 858 105.779 46.0851 463.125
1446 0 57.2161 12.881 737 110.208 46.5495 462.965
1447 0 59.1842 12.5878 745 110.985 47.404 461.36
1448 0 62.201 16.8325 1047 104.77 46.1767 456.13
1449 0 63.0939 13.2343 835 111.248 47.9138 457.852
1450 0 65.2483 14.1 920 109.449 48.4185 456.865
1451 0 67.1791 14.0818 946 109.007 48.4355 458.094
1452 0 67.1177 14.78 992 111.223 49.2591 453.452
1453 0 73.3515 16.1142 1182 108.785 48.4915 454.044
1454 0 74.1983 13.5717 1007 113.62 50.1529 455.449
1455 0 78.2568 15.0019 1174 112.179 50.4174 453.848
1456 0 78.4526 15.7675 1237 112.667 51.1576 450.781
1457 0 81.1898 15.5808 1265 113.057 52.1676 454.353
1458 0 81.2269 13.5916 1104 118.192 51.7672 452.207
1459 0 84.5315 15.3552 1298 115.139 52.3998 451.284
1460 0 87.2325 14.3066 1248 117.938 52.8622 452.481
1461 0 89.0977 14.3775 1281 117.639 53.1085 454.881
1462 0 94.2076 17.5464 1653 112.517 52.245 453.976
1463 0 96.0997 17.409 1673 111.933 52.2445 458.149
1464 0 98.1789 15.2273 1495 117.296 52.802 449.405
1465 0 101.239 12.9594 1312 121.836 52.4718 449.784
1466 0 106.296 15.5132 1649 117.115 53.2529 451.411
1467 1 56.1766 14.1162 793 115.965 51.4817 476.486
1468 0 59.2179 13.7627 815 118.199 50.7337 474.405
1469 0 58.559 9.9387 582 123.191 49.0189 475.761
1470 0 63.3003 16.5244 1046 110.142 48.8499 472.534
1471 0 63.1826 14.9408 944 113.296 47.392 474.48
1472 0 66.2392 15.4591 1024 112.883 47.0293 470.353
1473 0 69.2015 12.413 859 116.659 45.6601 472.602
1474 0 72.225 14.801 1069 112.301 45.3704 468.308
1475 0 74.1306 16.7947 1245 110.064 45.1574 465.767
1476 0 75.1742 14.4598 1087 113.634 44.3192 467.185
1477 0 77.1733 13.1133 1012 115.397 44.164 465.616
1478 0 79.2322 11.7377 930 117.778 43.3548 462.471
1479 0 81.1123 11.293 916 118.592 43.988 461.457
1480 0 88.2444 16.9756 1498 107.346 42.0461 460.401
1481 0 89.1682 12.8073 1142 114.406 42.0018 459.022
1482 0 92.5014 12.0431 1114 115.908 42.2298 454.302
1483 1 49.3857 12.2303 604 114.962 42.6937 473.098
1484 0 46.7909 12.0536 564 114.764 42.7837 468.372
1485 0 49.6527 14.1785 704 109.795 43.0895 468.727
1486 0 57.4149 14.9787 860 109.573 44.2046 466.179
1487 0 60.5212 18.0928 1095 103.691 43.9552 463.575
1488 0 58.4164 15.6634 915 109.941 43.7989 464.41
1489 0 56.3212 14.8434 836 113.817 44.7153 467.61
1490 0 59.26 13.3986 794 115.179 44.7821 464.646
1491 0 63.6546 16.2282 1033 109.455 45.1926 462.421
1492 0 62.4435 12.4753 779 117.736 46.5109 461.75
1493 0 62.3552 14.4014 898 114.871 47.0167 461.013
1494 0 65.4313 12.9449 847 117.626 46.9221 457.795
1495 0 68.5951 11.8522 813 119.285 47.8647 458.486
1496 0 71.3376 15.3215 1093 113.88 48.3321 456.575
1497 0 72.531 14.2973 1037 116.632 49.9576 454.666
1498 0 77.8148 16.5007 1284 110.295 48.8037 457.923
1499 0 76.3737 13.3554 1020 118.525 50.4412 454.746
1500 0 78.6127 14.4633 1137 116.398 50.5611 455.852
1501 0 81.4201 14.4068 1173 116.523 51.5772 454.912
1502 0 84.521 14.1503 1196 117.737 51.2542 451.848
1503 0 85.4563 16.0784 1374 115.05 51.4927 452.897
1504 1 44.3935 12.0738 536 114.554 49.4813 477.259
1505 0 43.2873 12.4286 538 114.177 49.6543 478.149
1506 0 47.3353 11.1545 528 117.574 50.1913 477.182
1507 0 48.2222 12.8986 622 107.672 48.5032 471.045
1508 0 47.0811 11.8731 559 113.894 49.5689 479.401
1509 0 49.1116 13.3573 656 110.814 48.8735 479.229
1510 0 49.2034 12.6008 620 113.321 48.9516 478.265
1511 0 52.2083 11.6457 608 114.664 48.0016 477.931
1512 0 53.1885 13.4804 717 112.183 47.9735 476.473
1513 0 57.2105 14.3155 819 110.416 48.0635 474.945
1514 0 56.1664 12.9615 728 113.729 47.5591 475.393
1515 0 61.1504 17.874 1093 103.853 47.1638 477.784
1516 0 62.3671 15.8096 986 108.024 46.0649 475.409
1517 0 66.1935 19.5638 1295 102.833 45.6541 471.642
1518 0 67.149 16.2177 1089 107.945 45.3278 471.726
1519 0 69.3614 15.9022 1103 109.54 44.6945 467.202
1520 0 70.1364 12.7038 891 115.771 44.477 466.987
1521 0 74.2232 14.7932 1098 111.42 44.0128 466.689
1522 0 75.4305 14.0659 1061 112.67 43.0339 464.246
1523 1 40.1025 12.5927 505 116.818 42.4257 480.25
1524 0 42.2262 14.9433 631 111.528 42.1347 480.854
1525 0 44.1132 11.7425 518 113.019 41.3166 480.809
1526 0 45.211 13.8241 625 108.04 42.64 479.422
1527 0 46.2716 12.5131 579 111.054 41.9706 477.173
1528 0 46.2358 13.4095 620 111.785 42.321 473.685
1529 0 49.0868 18.0496 886 103.714 42.3758 473.225
1530 0 51.2832 14.7612 757 108.063 44.5826 472.272
1531 0 52.1917 16.7651 875 106.326 44.4423 469.278
1532 0 55.5924 12.9334 719 111.651 45.2601 466.117
1533 0 56.1989 21.246 1194 100.827 44.5444 467.371
1534 0 57.4884 13.1157 754 113.588 45.0464 463.706
1535 0 64.4556 17.1125 1103 103.673 46.6609 464.233
1536 0 61.3109 13.3745 820 112.956 47.3805 458.684
1537 0 62.2228 14.8338 923 111.636 47.5775 455.447
1538 0 67.3979 14.4515 974 110.958 49.3706 456.845
1539 0 65.5851 13.4177 880 114.757 49.5943 454.449
1540 0 69.2875 13.8698 961 113.24 50.153 455.519
1541 0 72.3956 14.3379 1038 112.065 50.4374 457.939
1542 0 74.2598 14.0049 1040 115.626 51.1385 456.405
1543 0 77.7461 13.7113 1066 114.868 51.3405 457.454
1544 0 80.6186 11.9575 964 117.63 52.2282 455.954
1545 0 84.5613 14.1199 1194 115.095 52.8492 455.417
1546 1 45.3122 17.1918 779 105.312 52.7022 475.926
1547 0 45.3935 11.1249 505 117.475 52.2792 472.588
1548 0 49.2203 12.8809 634 113.162 51.989 469.617
1549 0 50.075 12.4613 624 115.375 52.2692 470.316
1550 0 52.0596 15.732 819 109.52 51.9194 477.081
1551 0 52.1202 12.2793 640 115.384 51.1547 476.205
1552 0 54.1556 13.1288 711 114.496 51.6414 475.307
1553 0 57.2126 12.672 725 114.615 51.6331 473.223
1554 0 59.2108 15.4195 913 110.52 51.1818 471.905
1555 0 62.3081 15.9048 991 109.822 50.2926 470.637
1556 0 64.4015 12.7326 820 114.276 49.8195 471.034
1557 0 71.8991 19.1101 1374 101.688 50.0015 472.293
1558 0 69.617 14.3356 998 110.548 49.475 469.074
1559 0 71.4905 15.051 1076 108.835 47.6236 466.983
1560 0 76.5264 15.315 1172 106.671 46.023 466.675
1561 0 76.3986 15.249 1165 107.954 46.5974 465.387
1562 0 77.4605 12.1481 941 111.236 46.2412 466.06
1563 0 81.5631 13.6336 1112 110.476 46.3076 459.254
1564 1 43.2289 10.6642 461 107.438 46.6377 479.592
1565 0 42.1592 10.6738 450 109.384 45.3467 478.093
1566 0 42.221 11.0608 467 108.672 45.6103 475.225
1567 0 48.3938 11.7577 569 106.225 44.8453 473.422
1568 0 50.3819 12.564 633 104.619 43.9463 473.118
1569 0 52.2527 13.4347 702 100.531 44.2806 476.141
1570 0 51.1936 9.82544 503 109.867 43.7873 467.495
1571 0 54.319 13.163 715 104.376 45.4 467.004
1572 0 53.2614 14.1378 753 102.744 44.9628 469.336
1573 0 57.2281 14.9926 858 102.752 45.2366 465.407
1574 0 60.3436 11.4179 689 106.866 44.8244 462.797
1575 0 61.1616 13.2436 810 104.941 46.0975 459.878
1576 0 64.3646 11.8699 764 106.262 45.7487 460.622
1577 0 65.1355 13.4796 878 105.451 46.4852 457.009
1578 0 69.1025 14.7028 1016 103.262 46.997 454.309
1579 0 72.3663 13.5422 980 104.322 47.3296 454.644
1580 0 76.4847 13.6106 1041 104.901 48.267 449.815
1581 0 75.2096 12.5117 941 107.067 48.7237 453.076
1582 0 79.4263 14.3655 1141 104.371 48.8002 451.45
1583 0 83.2789 13.5809 1131 105.247 48.8532 449.616
1584 1 44.117 9.22547 407 106.545 51.3538 469.553
1585 0 45.1509 7.41956 335 109.549 51.5164 471.161
1586 0 50.1424 11.5072 577 103.563 52.5945 469.04
1587 0 51.0375 12.2067 623 103.077 50.9936 467.6
1588 0 53.1168 11.5971 616 102.378 51.9042 470.477
1589 0 51.1121 13.2063 675 103.203 52.3081 467.553
1590 0 55.1467 12.1313 669 106.604 53.0419 468.366
1591 0 56.1247 13.666 767 105.003 53.2907 467.321
1592 0 60.0488 13.156 790 104.98 52.9114 468.06
1593 0 60.0437 11.4084 685 108.279 52.4832 467.409
1594 0 63.0863 12.4908 788 106.113 52.2614 468.547
1595 0 62.0919 10.8871 676 109.299 52.395 468.553
1596 0 67.0604 11.8252 793 106.826 52.1122 469.081
1597 0 70.1594 11.9727 840 105.998 52.1155 468.21
1598 0 72.1551 12.1405 876 106.902 52.1473 469.252
1599 0 74.1591 14.7521 1094 103.233 50.7687 467.255
1600 0 77.1772 13.2163 1020 102.892 50.2343 471.833
1601 0 77.196 16.905 1305 100.753 49.3188 457.844
1602 0 82.0595 17.402 1428 99.2136 48.6036 466.221
1603 0 84.116 15.7639 1326 102.562 47.233 461.464
1604 0 85.2585 15.1305 1290 103.437 47.2388 461.423
1605 0 91.1857 16.1977 1477 100.479 46.587 462.478
1606 0 93.1831 12.674 1181 104.679 46.0838 460.854
1607 0 97.1586 15.6445 1520 100.264 46.623 456.041
1608 1 52.2264 10.3396 540 103.369 45.5241 474.819
1609 0 52.1029 9.19335 479 105.789 45.0313 471.873
1610 0 57.0851 9.95006 568 102.143 45.0405 475.088
1611 0 59.1128 13.1444 777 98.6486 44.3037 467.695
1612 0 61.1692 12.9477 792 98.8788 44.4558 466.36
1613 0 62.2413 14.8615 925 94.7459 43.0995 463.894
1614 1 117.508 13.0289 1531 101.043 42.6813 433.362
1615 1 62.2554 5.84688 364 106.099 43.1621 463.802
1616 0 67.2168 13.3598 898 97.686 43.4688 458.634
1617 0 69.1693 12.3031 851 98.6792 43.5123 459.978
1618 0 73.2425 15.1278 1108 96.5749 44.3466 454.398
1619 0 73.2412 16.4388 1204 95.6013 44.7301 453.845
1620 0 74.2467 12.5932 935 100.656 45.8599 455.242
1621 0 78.2502 16.0894 1259 96.7474 45.7625 447.452
1622 0 82.1551 14.1805 1165 98.2936 47.121 452.948
1623 0 83.2568 11.5066 958 103.359 47.3601 450.746
1624 0 88.2624 14.4682 1277 100.233 48.8669 445.6
1625 0 92.2584 13.9283 1285 99.6747 48.9222 450.013
1626 0 94.2546 14.8322 1398 104.445 49.3627 450.458
1627 0 96.4984 11.6582 1125 109.593 49.4569 447.79
1628 0 99.2483 11.6476 1156 109.827 50.2664 449.955
1629 1 53.3107 15.5691 830 102.137 51.5337 467.425
1630 0 54.144 13.4456 728 107.268 52.1305 465.567
1631 0 60.5086 18.2453 1104 96.8315 52.3125 468.357
1632 0 57.175 12.5579 718 103.811 51.9986 469.546
1633 0 57.1518 15.2051 869 101.582 51.5328 466.283
1634 0 59.1769 12.488 739 105.359 51.9553 470.62
1635 0 62.1846 12.1413 755 105.889 52.1907 471.444
1636 0 64.268 14.4551 929 102.924 52.6125 466.6
1637 0 66.2552 13.8706 919 103.707 51.4853 470.038
1638 0 68.2596 17.9315 1224 99.7337 50.8015 466.054
1639 0 69.294 12.5985 873 105.448 50.7159 472.578
1640 0 74.3028 13.7007 1018 105.529 49.6591 467.089
1641 0 77.4852 14.1704 1098 106.015 50.1667 455.391
1642 0 76.3557 12.6644 967 109.633 48.3164 451.412
1643 0 79.7677 15.2944 1220 106.374 48.5057 455.81
1644 0 82.4565 17.1121 1411 103.313 47.7052 462.229
1645 0 84.5499 16.6884 1411 104.661 46.46 459.659
1646 0 86.2579 13.1582 1135 111.077 46.874 459.341
1647 1 43.2074 10.2992 445 115.849 46.4764 480.16
1648 0 44.1713 11.5007 508 115.738 45.874 475.62
1649 0 47.3236 14.2635 675 110.921 46.3378 476.99
1650 0 49.1306 14.3292 704 110.915 45.7898 476.501
1651 0 50.035 15.3493 768 112.729 45.7018 476.895
1652 0 52.1611 14.0143 731 115.657 45.8399 472.476
1653 0 53.1613 13.4496 715 115.298 46.0699 474.057
1654 0 56.1345 14.9284 838 113.394 44.6134 472.132
1655 0 58.1233 12.9036 750 117.376 45.048 470.192
1656 0 57.1562 14.0842 805 115.717 44.7752 468.342
1657 0 63.2037 14.6827 928 113.14 44.9849 468.662
1658 0 65.2628 13.5146 882 115.448 44.932 464.861
1659 0 67.258 15.7156 1057 113.272 45.562 461.652
1660 0 68.4208 13.607 931 117.945 45.6541 457.61
1661 0 71.2503 16.7859 1196 113.269 45.6313 455.675
1662 0 75.2049 18.4695 1389 110.4 46.3679 455.377
1663 0 75.2661 13.0205 980 120.099 47.4673 453.094
1664 1 40.0892 14.5426 583 115.858 47.494 470.053
1665 0 42.1124 11.0656 466 120.899 49.1073 472.154
1666 0 46.1241 14.526 670 117.906 48.5507 468.202
1667 0 46.0501 12.443 573 123.014 49.2094 469.106
1668 0 47.064 15.362 723 119.722 49.8257 466.835
1669 0 49.1881 13.9871 688 120.943 49.9099 469.929
1670 0 49.3769 12.6375 624 126.747 50.0865 467.308
1671 0 52.2814 14.5367 760 123.651 50.7276 464.979
1672 0 53.4027 15.1678 810 122.083 51.737 465.115
1673 0 54.347 14.8122 805 123.488 52.3404 463.596
1674 0 57.4609 15.4018 885 120.511 52.4915 466.382
1675 0 59.3242 13.2661 787 124.426 52.5743 465.997
1676 0 58.4593 15.0532 880 122.957 52.7216 463.456
1677 0 63.358 15.9412 1010 118.86 52.9109 468.341
1678 0 63.5893 15.3957 979 122.233 53.2186 463.003
1679 0 66.4765 17.179 1142 119.077 52.9238 464.578
1680 0 66.3217 12.168 807 129.963 52.114 465.68
1681 0 68.4352 14.8169 1014 125.375 51.5227 463.937
1682 0 72.5697 15.3783 1116 122.626 51.7867 466.396
1683 0 72.4526 12.3943 898 130.829 50.1826 460.716
1684 0 76.6372 14.0402 1076 127.533 50.3522 460.274
1685 0 78.3618 13.6801 1072 129.143 49.8778 461.319
1686 0 85.3706 17.2659 1474 119.135 48.4776 463.037
1687 1 46.0868 13.1925 608 119.355 47.8931 480.595
1688 0 44.1542 10.5766 467 126.201 46.9572 479.165
1689 0 48.4909 10.7443 521 125.017 44.1132 477.119
1690 0 48.4551 12.7541 618 122.17 45.2379 476.494
1691 0 49.4073 12.6297 624 124.136 45.0337 473.388
1692 0 50.1513 12.1632 610 129.082 46.1803 473.7
1693 0 54.0929 13.5877 735 125.348 45.9048 476.631
1694 0 57.4539 14.9511 859 120.981 44.6251 473.524
1695 0 59.0815 13.1344 776 124.781 45.2229 472.924
1696 0 60.171 15.4726 931 120.916 44.4823 467.157
1697 0 62.0882 13.2876 825 125.811 44.4473 465.667
1698 0 65.2065 12.2227 797 126.819 43.5445 467.119
1699 0 67.0859 14.3696 964 124.56 44.4004 461.24
1700 0 70.0916 15.9077 1115 120.895 45.3462 459.417
1701 0 72.0802 14.9833 1080 121.209 45.1639 462.933
1702 0 73.1686 13.0794 957 126.18 45.9007 458.027
1703 0 77.327 15.0142 1161 121.958 46.1809 455.873
1704 0 79.3816 13.3532 1060 125.51 46.1396 453.503
1705 0 80.1709 11.9994 962 128.583 47.4179 450.532
1706 0 83.3487 14.1814 1182 124.306 47.5981 450.411
1707 0 85.2273 13.7984 1176 126.056 47.8223 447.258
1708 0 83.2468 10.3187 859 132.255 48.1455 444.031
1709 0 90.6963 13.9587 1266 124.292 49.2306 440.156
1710 0 91.2619 13.1599 1201 125.316 49.3472 444.567
1711 0 95.6155 14.0145 1340 124.204 49.8873 441.68
1712 1 51.049 13.0267 665 119.156 50.9564 462.209
1713 0 55.3778 12.4779 691 118.087 51.2098 463.23
1714 0 57.5601 10.3544 596 120.861 51.6644 462.936
1715 0 58.2753 12.1149 706 117.292 51.5581 462.992
1716 0 57.4424 10.3756 596 122.695 51.8557 461.074
1717 0 63.2317 12.9049 816 110.183 53.5613 462.08
1718 0 64.0977 11.5605 741 113.652 53.8381 459.71
1719 0 68.2586 12.4526 850 112.314 53.9612 460.012
1720 0 68.2903 9.73784 665 117.191 52.9398 453.871
1721 0 71.3411 12.8537 917 110.747 52.5038 459.313
1722 0 71.3055 13.6876 976 110.883 50.8555 459.061
1723 0 77.1184 13.3431 1029 110.513 51.3625 459.644
1724 0 77.2723 9.96476 770 116.601 50 461.553
1725 0 79.261 10.9764 870 116.547 50.0885 460.863
1726 0 79.3799 11.1111 882 119.296 50.4966 460.029
1727 0 85.1942 11.5501 984 118.383 49.8374 457.938
1728 0 84.3594 10.3249 871 121.338 48.7727 456.654
1729 0 91.4422 10.9796 1004 119.698 49.5289 455.245
1730 0 92.6049 13.6386 1263 116.117 47.8139 454.942
1731 0 94.7577 11.7774 1116 119.37 48.1272 445.96
1732 0 96.4338 13.4185 1294 116.697 47.0495 448.866
1733 0 98.5712 9.28263 915 123.819 46.1563 444.032
1734 0 103.584 11.5559 1197 120.309 46.0493 445.089
1735 0 105.416 11.6111 1224 120.389 45.7075 444.375
1736 1 56.1179 7.16349 402 118.055 44.3433 471.281
1737 0 59.1823 12.2672 726 111.919 44.5496 467.82
1738 0 59.1884 13.1276 777 112.978 44.9884 466.667
1739 0 60.1281 11.6584 701 115.088 45.1983 465.669
1740 0 63.2172 10.6458 673 116.886 45.2927 467.688
1741 0 63.227 11.2136 709 117.615 44.1481 464.319
1742 0 68.2103 12.4761 851 114.684 45.1751 462.235
1743 0 71.2103 12.9476 922 114.22 45.1443 458.318
1744 0 72.2604 13.3821 967 113.112 45.5026 455.965
1745 0 72.2043 12.9771 937 114.045 45.9285 457.021
1746 0 76.2089 11.5603 881 117.436 46.2077 451.26
1747 0 82.1435 14.3164 1176 112.056 45.6777 448.714
1748 0 84.2229 14.1054 1188 112.016 47.0918 451.742
1749 0 86.3872 15.7431 1360 110.182 47.4846 448.13
1750 0 87.3859 15.6662 1369 130.81 48.4543 448.321
1751 0 93.2456 15.3358 1430 112.414 48.5455 443.097
1752 0 93.1916 13.4883 1257 117.441 49.4726 441.45
1753 0 95.3641 14.5233 1385 115.627 49.987 441.725
1754 0 99.3843 14.5697 1448 116.152 50.6126 439.74
1755 0 101.401 13.9545 1415 118.586 50.6671 437.46
1756 0 104.253 14.4744 1509 115.97 50.1206 437.449
1757 0 106.78 13.5044 1442 119.834 50.9397 432.574
1758 0 110.455 17.5185 1935 112.177 50.8429 431.843
1759 0 108.576 13.5573 1472 117.779 52.8696 428.67
1760 0 115.56 12.6687 1464 115.389 53.6632 427.635
1761 1 67.322 12.7744 860 105.985 52.7895 461.307
1762 0 64.4102 11.8304 762 117.794 51.7192 458.74
1763 0 68.3307 11.2248 767 118.502 52.7171 460.671
1764 0 76.5796 15.1085 1157 110.736 52.427 458.162
1765 0 77.4273 13.7161 1062 112.908 50.404 460.236
1766 0 77.3569 13.5735 1050 114.507 51.0819 464.282
1767 0 79.3519 12.0224 954 119.217 50.6572 459.111
1768 0 84.3705 15.266 1288 112.574 50.7391 456.675
1769 0 87.36 14.2857 1248 113.224 49.722 459.509
1770 0 90.482 17.661 1598 107.577 49.4299 453.795
1771 0 91.3496 13.2239 1208 115.565 48.582 455.687
1772 0 94.4207 11.3005 1067 119.366 46.8257 455.84
1773 1 57.2443 11.7566 673 116.78 45.9584 472.166
1774 0 56.3086 11.3659 640 116.559 44.7312 475.622
1775 0 60.114 12.2434 736 112.788 47.3967 475.245
1776 0 61.0922 14.208 868 107.485 46.6728 474.622
1777 0 60.1911 10.8322 652 114.59 46.8098 470.391
1778 0 65.0952 18.5574 1208 102.22 45.9917 467.777
1779 0 66.2919 12.9126 856 110.31 45.764 466.537
1780 0 68.307 16.3819 1119 105.249 45.8257 463.101
1781 0 68.2772 13.1962 901 110.657 45.3851 463.364
1782 0 69.1261 12.2964 850 113.265 45.5176 462.1
1783 0 71.1136 13.0495 928 111.788 45.125 463.431
1784 0 75.3493 16.4169 1237 107.233 44.4535 456.952
1785 0 80.1549 14.2599 1143 109.647 46.2074 458.293
1786 0 78.1965 13.7986 1079 112.356 45.4439 452.654
1787 0 79.1991 11.8814 941 115.587 45.0733 451.916
1788 0 84.1955 14.9058 1255 110.613 46.4717 451.985
1789 0 84.0687 18.2827 1537 106.384 46.5003 449.589
1790 0 88.1296 15.1255 1333 111.917 46.1493 448.816
1791 0 87.2509 13.7191 1197 116.341 47.2874 443.371
1792 0 95.2379 17.031 1622 109.047 47.7787 444.932
1793 0 91.3445 15.0529 1375 114.759 48.1411 438.943
1794 0 96.1356 15.4989 1490 113.82 48.9456 439.693
1795 0 99.4346 15.7189 1563 112.44 49.0166 439.18
1796 0 101.164 13.4534 1361 116.664 49.8185 438.838
1797 0 102.187 12.8196 1310 119.008 50.9275 433.494
1798 0 104.139 12.9346 1347 119.15 50.8864 431.633
1799 0 108.284 13.0675 1415 119.452 51.1244 429.755
1800 0 110.172 12.9978 1432 119.169 52.1662 429.751
1801 0 115.24 14.8213 1708 114.945 51.4397 432.999
1802 0 116.302 12.5364 1458 118.812 52.655 434.709
1803 0 121.254 13.1543 1595 118.897 52.3567 427.66
1804 0 124.225 14.5945 1813 116.985 52.5593 421.489
1805 0 132.347 17.492 2315 110.497 52.6492 430.465
1806 0 135.324 11.5057 1557 121.588 53.2588 427.291
1807 0 142.469 17.4214 2482 111.681 52.3525 417.634
1808 0 145.204 12.6925 1843 120.13 52.8644 418.952
1809 0 152.279 13.8627 2111 115.239 52.3666 420.423
1810 1 87.1174 10.0095 872 110.461 50.3314 454.201
1811 0 91.151 14.7777 1347 104.478 49.9169 452.852
1812 0 93.1173 11.405 1062 109.298 50.1751 450.165
1813 0 97.2441 10.7153 1042 111.017 49.3839 449.422
1814 0 101.448 14.9239 1514 104.386 48.5766 450.435
1815 0 105.19 12.3206 1296 108.597 49.1806 449.312
1816 0 108.365 12.7255 1379 108.187 47.7534 443.045
1817 1 78.3758 8.10199 635 108.657 47.0945 436.756
1818 1 65.309 8.20714 536 110.998 46.5392 428.437
1819 0 76.5434 12.0716 924 103.706 46.9567 433.473
1820 0 69.1476 13.7532 951 103.877 44.8665 432.318
1821 0 72.1843 11.623 839 106.88 45.2598 436.055
1822 0 73.1508 13.1372 961 103.315 44.5068 442.458
1823 0 72.0986 10.6105 765 108.554 44.6405 440.424
1824 0 75.21 12.9238 972 103.892 44.4938 441.368
1825 0 77.2894 7.49132 579 112.472 44.3161 439.613
1826 0 80.3631 12.8542 1033 104.864 42.3485 449.593
1827 0 82.3788 13.1102 1080 104.978 42.5444 450.581
1828 0 87.3949 12.6209 1103 104.884 42.9737 447.899
1829 0 90.3212 14.5481 1314 101.317 43.0107 449.687
1830 0 88.5246 11.7707 1042 106.313 43.4127 447.513
1831 0 95.3175 14.6038 1392 102.389 43.7701 444.354
1832 0 99.4062 13.6511 1357 104.889 44.5173 435.455
1833 0 100.482 14.0423 1411 105.458 44.8072 437.848
1834 0 100.497 13.8512 1392 108.606 45.4555 434.993
1835 1 51.1062 9.62701 492 110.488 47.9492 459.632
1836 0 54.1219 10.6796 578 107.939 46.9118 457.604
1837 0 56.145 12.4499 699 107.903 45.4979 461.592
1838 0 56.2618 10.5933 596 110.268 46.1057 461.04
1839 0 58.2256 11.6444 678 108.69 46.7257 461.286
1840 0 62.116 9.78814 608 111.562 45.8668 460.801
1841 0 63.1437 13.398 846 106.904 47.4917 459.148
1842 0 66.4081 13.4321 892 104.22 47.185 463.345
1843 0 67.1281 11.9771 804 108.857 48.0336 459.627
1844 0 70.1325 12.1484 852 108.587 48.4448 458.609
1845 0 71.2491 11.6633 831 108.854 48.9856 459.171
1846 0 74.2575 13.1435 976 108.157 48.8279 456.164
1847 0 79.2679 15.6558 1241 102.755 49.3852 458.676
1848 0 81.2752 12.9806 1055 107.18 48.6379 458.92
1849 0 82.2091 12.9304 1063 108.989 49.7394 455.717
1850 0 83.2294 11.3902 948 111.46 48.6783 456.852
1851 0 87.3921 12.278 1073 110.224 49.7847 455.395
1852 0 90.3687 12.0174 1086 111.615 48.4512 453.42
1853 0 95.2026 11.2917 1075 110.392 47.0716 456.789
1854 0 98.3154 13.3855 1316 108.363 47.5464 451.687
1855 0 101.309 13.0788 1325 108.828 48.2513 453.402
1856 0 105.202 13.4883 1419 109.118 48.265 447.474
1857 0 108.149 15.5803 1685 106.482 49.073 453.008
1858 1 57.1437 11.0948 634 111.066 48.7744 477.528
1859 0 60.1936 11.9116 717 109.987 46.1464 473.19
1860 0 63.2485 13.0122 823 103.705 44.7473 471.916
1861 0 60.0513 11.8066 709 111.014 44.2877 468.13
1862 0 65.1714 12.1986 795 110.47 43.8164 462.496
1863 0 69.065 13.6393 942 106.604 42.362 464.844
1864 0 69.1765 13.4728 932 107.029 42.3584 460.487
1865 0 71.0853 12.8015 910 108.071 42.3813 455.948
1866 0 69.1333 10.7184 741 111.687 42 458.64
1867 0 78.0733 15.5367 1213 102.004 40.5853 458.19
1868 0 77.0453 13.5634 1045 106.638 40.6105 454.216
1869 0 80.2522 15.4762 1242 102.155 40.8792 454.635
1870 0 82.0763 15.8389 1300 102.265 40.5731 450.473
1871 0 86.1535 14.9617 1289 102.971 40.5896 448.009
1872 0 89.102 13.9054 1239 104.006 40.9241 448.542
1873 0 89.1842 13.6683 1219 105.715 41.0812 443.744
1874 0 92.0757 13.7713 1268 104.458 40.6782 445.746
1875 0 97.1666 15.9314 1548 101.176 41.4225 440.194
1876 0 98.3418 13.7683 1354 104.244 42.6049 437.157
1877 0 102.147 16.114 1646 100.601 42.6124 442.163
1878 1 53.0309 10.4656 555 106.386 42.164 460.058
1879 0 58.2165 12.7455 742 101.796 43.907 460.084
1880 0 55.3295 12.0551 667 102.904 45.1559 457.691
1881 0 59.4111 13.2299 786 102.992 46.5331 453.337
1882 0 62.3096 11.9885 747 104.625 47.4819 451.706
1883 0 64.122 10.9947 705 104.306 48.7291 455.017
1884 0 67.1034 14.351 963 95.7778 49.4777 462.086
1885 0 67.2899 13.5682 913 101.179 49.747 455.779
1886 0 70.2394 14.2797 1003 98.997 49.999 453.41
1887 0 75.5584 13.8171 1044 100.152 50.7902 451.826
1888 0 74.163 13.4703 999 101.351 52.1632 451.31
1889 0 79.1663 11.7095 927 103.682 52.5545 450.011
1890 0 79.2384 10.5631 837 104.422 52.583 453.24
1891 0 87.129 20.0737 1749 92.8382 51.9577 449.082
1892 0 87.233 13.1716 1149 102.664 53.3768 445.35
1893 0 90.3122 10.7516 971 106.084 52.9073 437.517
1894 0 93.2819 10.9989 1026 104.419 53.498 447.549
1895 0 97.1695 13.5331 1315 101.96 51.873 443.741
1896 1 52.1612 13.2474 691 95.6281 51.4428 468.984
1897 0 57.296 10.8908 624 98.0946 50.5753 473.604
1898 0 62.4111 15.2217 950 96.1958 50.1516 467.436
1899 0 61.0965 14.518 887 99.6257 47.8568 465.14
1900 0 59.173 10.3087 610 105.534 46.9033 470.156
1901 0 62.0699 13.0498 810 100.858 46.7037 472.836
1902 0 64.335 12.0308 774 103.283 44.4276 465.854
1903 0 66.0419 12.8706 850 102.422 44.4365 466.041
1904 0 68.0648 10.5488 718 105.422 43.4568 464.748
1905 0 72.3974 12.5695 910 101.195 43.2604 465.079
1906 0 76.2592 13.323 1016 101.404 43.0187 459.067
1907 0 76.2629 12.234 933 104.208 42.2133 456.733
1908 0 79.1135 12.1977 965 102.306 41.3098 460.943
1909 0 80.2504 14.9158 1197 98.3793 41.548 458.503
1910 0 82.1935 9.68446 796 100.045 40.8367 461.858
1911 0 85.1907 8.35772 712 104.633 41.573 450.07
1912 0 91.4049 14.7694 1350 96.6059 41.3896 453.56
1913 0 91.5221 11.1886 1024 101.544 41.8057 446.606
1914 0 96.3861 16.797 1619 94.9006 42.2434 447.082
1915 0 96.3882 10.5407 1016 103.141 43.3268 446.868
1916 0 100.236 12.8097 1284 101.71 43.4058 439.556
1917 1 52.0968 10.8644 566 96.6078 43.8746 469.606
1918 0 51.0706 13.9023 710 98.8563 44.1127 459.483
1919 0 55.1147 11.7755 649 100.68 45.8351 462.507
1920 0 57.1471 13.1765 753 99.166 46.7078 461.349
1921 0 60.145 12.2371 736 98.1427 45.947 463.489
1922 0 62.0829 13.3209 827 99.0605 46.7255 459.652
1923 0 63.1257 11.8969 751 101.663 47.8362 456.047
1924 0 64.0974 11.8882 762 101.114 47.4409 457.814
1925 0 63.1131 8.1758 516 107.533 48.8043 450.893
1926 0 70.096 9.95778 698 104.749 49.2665 455.681
1927 0 69.1417 8.56212 592 107.275 49.9223 453.316
1928 0 73.1854 14.88 1089 99.932 49.9183 450.305
1929 0 75.3375 12.9683 977 101.83 50.1801 454.809
1930 0 77.1645 10.1731 785 106.089 50.5185 455.145
1931 0 84.1046 13.5427 1139 100.692 50.6093 457.566
1932 0 86.4236 15.2157 1315 100.923 51.9285 450.802
1933 0 88.1328 13.6726 1205 102.891 52.6788 455.905
1934 0 88.1779 10.5128 927 109.411 51.9633 450.764
1935 1 49.0391 8.46263 415 106.014 52.2578 475.723
1936 0 52.1991 11.7243 612 102.087 51.7712 472.721
1937 0 55.1574 12.9085 712 103.303 52.6882 473.385
1938 0 56.1461 13.2155 742 105.167 52.7278 471.927
1939 0 58.0984 15.1639 881 103.578 51.7673 471.039
1940 0 58.1617 14.2706 830 106.304 52.1819 469.161
1941 0 63.0558 15.2087 959 105.035 50.9604 469.854
1942 0 64.0803 14.3102 917 105.905 50.3839 471.824
1943 0 67.0811 16.5173 1108 102.893 49.4901 470.644
1944 0 69.1444 12.1051 837 108.687 48.0382 471.536
1945 0 73.1234 14.2225 1040 105.928 48.4029 470.685
1946 0 74.1508 13.014 965 108.538 47.6549 467.842
1947 0 74.1259 14.5563 1079 107.268 47.2725 467.07
1948 0 78.105 11.3181 884 112.048 46.5486 465.988
1949 0 80.0698 13.8254 1107 109.535 45.5167 459.957
1950 0 84.3335 15.8063 1333 105.377 44.5446 458.568
1951 0 88.2163 14.6345 1291 105.991 43.7289 458.733
1952 0 89.1516 15.1091 1347 105.626 43.5004 454.367
1953 0 90.1042 14.3834 1296 105.187 42.5455 458.11
1954 0 92.0866 12.3145 1134 108.494 43.4965 452.938
1955 0 98.3382 15.3247 1507 103.338 42.8427 453.375
1956 1 53.0192 11.1469 591 111.706 43.8308 467.555
1957 0 58.273 13.5397 789 106.688 42.967 468.255
1958 0 60.2952 14.4456 871 106.082 41.6487 469.021
1959 0 61.2098 12.9228 791 108.69 42.5032 466.139
1960 0 61.3532 14.0824 864 108.088 42.1875 463.326
1961 0 63.2249 15.2472 964 105.34 43.2531 463.481
1962 0 66.2841 14.5736 966 106.127 42.8271 459.912
1963 0 67.1449 14.1783 952 107.104 45.0903 461.847
1964 0 68.4166 14.1486 968 108.103 45.3048 458.769
1965 0 70.4905 13.9735 985 107.308 45.2355 458.474
1966 0 73.1182 12.3909 906 111.518 46.053 455.817
1967 0 76.2619 14.3453 1094 108.183 47.4095 453.602
1968 0 78.4662 13.9041 1091 108.102 48.2356 454.486
1969 0 85.33 13.8521 1182 107.321 48.4898 453.975
1970 0 83.6088 14.8908 1245 108.309 49.2586 449.821
1971 0 86.2688 15.4285 1331 106.839 50.1788 448.821
1972 0 90.503 19.259 1743 100.534 49.3878 452.588
1973 0 98.7407 18.5131 1828 100.642 50.4294 450.71
1974 0 97.7042 17.6451 1724 103.062 50.3695 449.495
1975 0 102.855 14.5934 1501 107.142 49.7722 446.969
1976 0 107.792 16.7731 1808 104.205 50.4314 443.73
1977 0 107.482 17.668 1899 102.156 50.6667 450.746
1978 0 106.457 12.1082 1289 111.545 50.6486 446.628
1979 1 59.1672 11.2562 666 112.53 51.3784 469.587
1980 0 65.2534 16.1677 1055 103.526 50.6028 469.827
1981 0 67.2378 17.4009 1170 101.047 50.5111 463.755
1982 0 75.4826 17.8319 1346 99.9346 50.1805 469.512
1983 0 74.3282 17.786 1322 100.337 49.6278 461.067
1984 0 75.4478 21.7766 1643 96.857 48.7718 462.74
1985 0 80.6825 16.1497 1303 104.071 48.8066 462.695
1986 0 85.0268 19.0175 1617 99.5238 46.5751 463.191
1987 0 85.4476 17.8238 1523 102.549 46.8976 458.873
1988 0 90.0193 18.1183 1631 102.715 45.504 455.461
1989 0 88.5971 19.9555 1768 100.838 45.392 458.872
1990 0 94.7637 16.6203 1575 104.476 44.0203 456.989
1991 0 98.6864 14.845 1465 107.092 45.1454 455.591
1992 0 98.8452 13.0811 1293 111.5 45.1199 451.243
1993 0 105.453 17.7615 1873 102.082 43.9199 457.094
1994 0 107.874 17.4741 1885 105.127 43.8414 446.898
1995 1 53.6857 13.0202 699 108.896 43.5207 473.71
1996 0 55.4205 12.8292 711 108.594 43.0056 472.906
1997 0 58.5635 13.9677 818 107.711 43.2861 469.579
1998 0 60.3657 13.9318 841 108.996 41.1665 467.111
1999 0 61.3128 17.6472 1082 104.987 41.0527 464.402
2000 0 66.3151 22.7098 1506 97.6056 40.8712 464.543
2001 0 66.426 14.407 957 109.468 41.3804 460.201
2002 0 69.7458 16.044 1119 107.104 40.681 458.576
2003 0 69.3233 15.9975 1109 108.402 41.3201 455.078
2004 0 73.3656 14.3255 1051 110.485 41.8573 454.814
2005 0 76.3396 16.4397 1255 108.727 41.7434 453.048
2006 0 79.6815 20.5694 1639 103.048 43.2288 450.83
2007 0 82.4705 21.4622 1770 100.823 43.1119 454.256
2008 0 84.4761 21.4143 1809 102.029 43.7722 450.366
2009 0 87.3098 14.3054 1249 112.372 45.0969 446.804
2010 0 91.2246 24.1382 2202 97.8365 45.1249 450.389
2011 0 94.3311 16.4633 1553 108.219 46.405 447.797
2012 0 98.4825 20.2269 1992 103.252 46.0552 443.95
2013 0 102.233 19.6512 2009 104.419 47.9253 442.658
2014 1 53.3313 13.4255 716 113.039 47.1313 462.271
2015 0 53.2266 15.6877 835 111.008 47.6862 460.661
2016 0 58.3127 21.2132 1237 101.867 48.1293 462.482
2017 0 60.6412 17.1336 1039 107.125 48.7286 462.446
2018 0 60.3412 15.3626 927 111.804 48.616 459.336
2019 0 64.2785 14.0171 901 111.911 48.6404 462.844
2020 0 67.4287 20.5254 1384 102.645 49.7095 460.734
2021 0 68.4011 14.4735 990 113.377 48.6919 461.914
2022 0 69.3594 16.0036 1110 111.337 49.5784 457.284
2023 0 75.1787 16.933 1273 107.98 49.3731 462.98
2024 0 77.4887 15.9894 1239 110.462 48.7772 460.107
2025 0 82.2497 20.7296 1705 103.615 48.3067 459.4
2026 0 82.3505 17.1826 1415 110.171 47.7435 456.121
2027 0 86.2584 16.3462 1410 110.816 47.5872 459.908
2028 0 89.2986 16.4728 1471 111.08 46.998 458.171
2029 0 93.4449 16.7264 1563 110.935 46.4651 455.897
2030 0 96.4986 15.4821 1494 112.622 46.2564 455.757
2031 1 47.0749 10.8763 512 118.957 43.6914 474.902
2032 0 52.2916 12.5833 658 117.152 44.0714 473.395
2033 0 49.202 12.0727 594 119.537 43.3872 469.786
2034 0 56.1966 16.033 901 111.115 42.0577 472.832
2035 0 57.165 14.0995 806 115.424 42.4504 468.051
2036 0 61.189 15.7218 962 110.777 41.8243 472.648
2037 0 61.2867 12.7597 782 117.941 41.4565 468.398
2038 0 63.075 17.6774 1115 110.221 41.2135 469.068
2039 0 68.1781 14.1688 966 114.975 40.3054 465.722
2040 0 67.0717 14.313 960 116.14 40.5635 463.924
2041 0 69.1492 15.2279 1053 115.32 39.6942 462.644
2042 0 71.3943 16.5139 1179 115.153 40.5072 458.102
2043 0 72.4042 17.7338 1284 113.465 40.5 457.786
2044 0 74.3806 13.9821 1040 120.405 41.2654 457.986
2045 0 77.2726 12.8247 991 123.325 41.2048 455.27
2046 0 76.369 15.5692 1189 119.456 42.0841 454.695
2047 0 78.2553 14.2482 1115 123.613 42.4242 452.831
2048 0 81.4293 15.9525 1299 120.985 42.9477 449.435
2049 0 84.2397 15.0285 1266 122.452 42.8681 450.795
2050 0 85.2774 13.8137 1178 126.194 44.1842 450.749
2051 0 86.2094 16.7151 1441 122.865 45.1631 444.937
2052 0 87.1463 14.665 1278 128.16 46.0156 444.144
2053 0 87.3333 15.0115 1311 129.609 46.0084 442.931
2054 0 93.2634 15.5366 1449 126.939 47.5528 443.745
2055 0 93.3096 18.6262 1738 121.938 46.8625 443.861
2056 0 94.371 17.9716 1696 123.335 48.8438 443.039
2057 0 97.2114 16.0784 1563 127.145 48.4357 440.159
2058 0 96.3528 15.7857 1521 129.362 48.9001 437.857
2059 0 100.499 16.0698 1615 128.101 49.9455 440.332
2060 0 102.272 14.7939 1513 131.213 49.5836 438.403
2061 0 110.665 20.0877 2223 120.14 50.3603 437.069
2062 0 112.572 18.7613 2112 122.436 50.8419 438.09
2063 0 114.59 15.7954 1810 129.518 51.2972 433.589
2064 0 117.563 16.6719 1960 127.853 50.0235 434.042
2065 0 125.52 17.0411 2139 125.822 50.964 434.789
2066 1 71.5367 13.6433 976 125.341 49.4939 459.847
2067 0 69.5675 12.1896 848 122.736 49.7653 457.164
2068 0 70.5447 11.1986 790 124.549 49.581 456.201
2069 0 74.3266 11.9742 890 121.096 49.7427 459.816
2070 0 77.228 12.4955 965 123.466 48.5161 454.033
2071 0 74.2142 11.103 824 125.414 48.2634 456.9
2072 0 78.4369 12.5451 984 123.579 47.2033 453.196
2073 0 84.321 15.7731 1330 117.162 45.5579 454.635
2074 0 87.254 13.6269 1189 119.059 45.365 454.69
2075 0 91.2974 13.1986 1205 118.581 44.0058 453.934
2076 0 92.2363 11.3188 1044 124.952 44.84 441.869
2077 1 54.0939 7.37606 399 112.068 44.8747 471.291
2078 0 56.2037 11.227 631 108.658 44.7005 472.764
2079 0 57.1551 11.0401 631 114.445 44.1395 470.328
2080 0 62.0758 14.3534 891 114.173 44.6869 470.447
2081 0 63.0482 13.0694 824 116.126 43.693 467.087
2082 0 63.046 13.5615 855 116.049 43.6667 464.911
2083 0 65.1467 11.0827 722 119.868 43.6801 461.996
2084 0 67.1167 13.7373 922 115.513 43.8829 462.017
2085 0 69.1489 13.4926 933 115.544 43.2562 462.349
2086 0 71.1506 13.7314 977 113.883 42.3582 463.189
2087 0 74.0576 14.6508 1085 114.242 43.5521 457.626
2088 0 74.3013 11.3726 845 120.515 44.3195 452.477
2089 0 77.3032 12.9231 999 117.275 45.1141 453.425
2090 0 77.2985 10.8411 838 120.294 44.9177 447.864
2091 0 81.2911 9.85348 801 121.703 45.6105 447.23
2092 0 81.109 10.1838 826 120.519 45.9818 445.995
2093 0 85.281 11.808 1007 118.421 46.5789 439.681
2094 0 89.1326 10.6807 952 119.044 46.8435 443.324
2095 1 43.1407 10.0833 435 112.563 46.3954 467.501
2096 0 46.5118 12.3839 576 111.72 47.7778 464.887
2097 0 47.2287 11.9207 563 114.984 49.3091 464.252
2098 0 48.3001 13.706 662 110.166 49.6843 467.734
2099 0 50.1529 12.7211 638 113.444 50.5376 463.466
2100 0 50.1957 12.4712 626 113.783 51.4089 463.757
2101 0 52.2404 11.3131 591 115.997 51.0068 462.609
2102 0 51.2732 8.42545 432 121.178 52.4282 463.012
2103 0 55.1655 7.976 440 119.945 52.8409 461.33
2104 0 58.197 11.4611 667 114.04 53.3298 462.256
2105 0 57.2658 10.8442 621 115.942 52.8245 463.953
2106 0 59.0684 10.4117 615 116.964 52.9382 460.891
2107 0 61.1929 11.5863 709 112.051 52.268 461.52
2108 0 63.1696 12.3477 780 110.913 51.7423 461.981
2109 0 65.1289 13.6806 891 108.908 50.9405 464.85
2110 0 65.1593 10.1904 664 114.521 51.1446 461.172
2111 0 70.3633 13.3592 940 109.598 50.4447 463.05
2112 0 71.1885 12.3054 876 112.126 50.1929 463.384
2113 0 71.1021 11.1952 796 113.882 49.0603 464.661
2114 0 75.2123 9.61279 723 116.649 48.9046 458.389
2115 1 40.064 9.53473 382 105.461 46.4241 482.717
2116 0 41.1176 11.4063 469 104.288 45.9851 479.529
2117 0 43.1074 12.5037 539 106.013 46.9481 480.584
2118 0 45.1349 14.7115 664 105.831 46.247 479.851
2119 0 47.1761 13.7994 651 110.59 46.1505 479.542
2120 0 45.3615 11.6398 528 115.686 43.7481 475.892
2121 0 49.2859 15.8666 782 107.808 43.9207 476.176
2122 0 50.1312 11.9885 601 114.173 44.1564 474.681
2123 0 50.1968 11.5744 581 115.998 43.6145 473.022
2124 0 52.1587 16.0663 838 106.947 44.5871 473.246
2125 0 51.2423 12.1384 622 114.704 43.5531 470.484
2126 0 55.3807 14.7524 817 109.409 42.2056 470.274
2127 0 55.4067 14.4567 801 110.863 42.8539 466.295
2128 0 56.4944 12.8508 726 113.138 42.9504 466.866
2129 0 58.4438 14.1161 825 110.004 43.7382 466.082
2130 0 59.6328 13.013 776 112.506 43.018 460.823
2131 0 61.3993 14.4139 885 110.367 43.5446 460.931
2132 0 64.3429 15.9614 1027 107.552 44.704 459.545
2133 0 64.3585 14.5591 937 110.761 45.429 459.757
2134 0 68.4065 14.2092 972 110.755 45.6255 457.801
2135 0 71.462 15.3368 1096 107.572 45.6204 457.061
2136 0 72.2882 15.0232 1086 110.084 45.4236 453.984
2137 0 76.2843 13.2268 1009 111.906 46.1933 454.057
2138 0 77.1786 17.453 1347 102.49 47.4996 455.2
2139 1 38.1752 11.4472 437 114.469 48.9657 467.311
2140 0 41.1741 11.8035 486 110.132 49.9897 468.609
2141 0 43.3885 12.7223 552 110.333 49.5525 465.792
2142 0 47.0616 13.7054 645 105.69 50.0512 469.406
2143 0 46.0416 13.2055 608 109.12 50.7681 469.298
2144 0 52.2543 14.2763 746 105.689 51.8914 470.013
2145 0 50.0808 14.5365 728 108.157 51.5275 466.876
2146 0 50.0396 14.6484 733 108.383 52.4557 467.962
2147 0 52.0654 13.5215 704 110.439 50.5781 467.482
2148 0 53.0727 11.2864 599 112.912 51.8314 470.055
2149 0 57.1255 15.2646 872 106.248 51.9232 470.248
2150 0 57.0771 13.3504 762 109.077 52.0538 471.946
2151 0 61.0869 16.6812 1019 104.252 52.0775 466.966
2152 0 61.0454 14.1042 861 109.354 50.9106 466.861
2153 0 63.0711 13.0805 825 110.23 51.3103 468.937
2154 0 68.2521 13.2743 906 109.109 51.5993 466.438
2155 0 69.1758 14.5282 1005 108.319 50.403 465.347
2156 1 34.0091 8.02727 273 116.575 50.4762 480.667
2157 0 38.0611 10.7721 410 110.949 49.9561 481.807
2158 0 41.1064 13.0636 537 105.3 49.0112 483.233
2159 0 43.124 10.2263 441 109.628 47.7574 482.195
2160 0 43.0349 11.5953 499 109.467 47.493 480.91
2161 0 43.109 11.9928 517 109.54 46.7969 478.321
2162 0 45.1011 11.7292 529 110.002 45.5198 479.076
2163 0 45.1119 11.9259 538 111.725 45.0149 476.535
2164 0 46.0396 11.186 515 111.553 45.2757 477.53
2165 0 47.3734 10.4489 495 113.182 42.1556 475.075
2166 0 51.62 12.8245 662 107.631 41.9879 474.959
2167 0 49.5221 13.8928 688 108.19 41.6555 471.461
2168 0 51.3617 10.8447 557 112.323 40.9551 471.294
2169 0 53.4803 13.0141 696 108.224 42.3161 471.099
2170 0 54.6826 12.0697 660 109.662 41.8833 468.748
2171 0 56.3486 11.979 675 109.701 42.0948 468.348
2172 0 57.514 12.1536 699 109.482 41.2604 466.79
2173 0 58.2905 12.9009 752 108.953 40.7141 463.027
2174 0 61.4972 12.1144 745 108.797 42.753 464.177
2175 0 66.4068 14.2154 944 105.482 43.017 462.031
2176 0 68.6378 14.307 982 105.494 43.5703 458.485
2177 0 66.6061 13.5874 905 108.235 44.1956 454.499
2178 0 70.6181 14.8404 1048 106.349 43.9151 452.656
2179 0 70.6835 14.9681 1058 106.34 44.9329 452.67
2180 0 72.4462 13.5825 984 107.01 45.6037 452.908
2181 0 77.6736 12.6426 982 107.434 46.391 452.685
2182 0 79.5914 15.3534 1222 103.694 47.4632 452.277
2183 0 81.339 14.5564 1184 105.693 46.853 447.33
2184 0 84.4821 12.1683 1028 108.726 48.5788 451.274
2185 1 45.3566 11.2883 512 106.527 49.4746 468.914
2186 0 46.4532 11.108 516 105.897 50.5988 468.638
2187 0 48.2963 9.81442 474 105.924 50.7342 469.806
2188 0 41.2321 5.79646 239 111.636 50.5063 461.762
2189 1 56.4776 15.3158 865 95.2486 51.3988 469.882
2190 0 51.3606 14.8557 763 98.5963 51.9961 468.704
2191 0 55.2585 11.1114 614 103.189 51.7557 469.313
2192 0 61.5558 13.4025 825 98.0424 51.6667 470.658
2193 0 58.4359 10.781 630 102.011 51.2905 469.31
2194 0 62.1774 16.3082 1014 95.1223 50.1548 469.003
2195 0 64.2707 12.4785 802 100.671 50.1596 471.237
2196 0 67.2047 16.7697 1127 95.4854 49.6894 467.611
2197 0 70.2879 11.6378 818 101.033 48.3826 467.71
2198 0 74.3975 16.0355 1193 95.4878 49.4149 466.533
2199 0 75.2359 16.5479 1245 94.8313 48.4225 461.402
2200 0 77.35 11.5966 897 101.73 48.1137 466.301
2201 0 82.2728 13.3094 1095 99.179 46.2064 462.056
2202 0 85.094 14.4429 1229 97.3238 46.5907 460.81
2203 1 44.0335 10.4012 458 98.6485 46.6594 483.33
2204 0 44.3086 12.5709 557 97.0952 44.833 474.115
2205 0 45.1403 12.6494 571 94.1576 44.0876 476.757
2206 0 44.3327 6.65424 295 99.5153 44.3492 479.492
2207 0 48.4883 12.436 603 94.7595 43.8939 472.634
2208 0 52.5708 13.2773 698 92.0201 44.1418 474.126
2209 0 53.3038 16.6592 888 90.0676 43.2827 472.948
2210 0 51.2867 12.5569 644 96.2407 43.191 467.143
2211 0 55.5851 9.06718 504 100.028 43.8492 469.28
2212 0 55.3766 10.8169 599 98.8614 42.5492 462.713
2213 0 59.425 13.597 808 94.729 43.3713 466.047
2214 0 59.3836 12.4108 737 97.1058 42.2646 463.346
2215 0 62.3446 10.7467 670 100.14 42.6657 460.815
2216 0 63.3804 17.2293 1092 92.2445 42.0797 462.951
2217 0 65.3713 14.0735 920 96.3044 42.9185 460.515
2218 0 68.2195 15.2449 1040 94.2913 42.4529 459.473
2219 0 70.4242 12.0839 851 99.7074 43.6099 455.568
2220 0 72.455 14.2295 1031 97.9234 44.066 453.427
2221 0 74.4614 13.2686 988 100.025 44.6903 451.237
2222 0 76.5493 13.8865 1063 99.4506 45.127 451.641
2223 1 37.119 11.2072 416 98.7861 48.649 469.291
2224 0 40.1296 9.8431 395 103.982 49.0253 468.37
2225 0 41.6517 12.3164 513 99.306 49.1423 471.238
2226 0 44.452 12.5979 560 101.625 48.2 465.032
2227 0 43.3016 12.2397 530 103.415 47.6623 464.823
2228 0 48.6078 11.4796 558 102.654 50.0753 469.129
2229 0 49.2185 12.7594 628 100.301 50.1019 472.309
2230 0 50.3286 12.2197 615 104.519 51.0569 469.359
2231 0 50.1731 14.151 710 102.624 49.6366 467.803
2232 0 54.4374 14.5488 792 101.259 50.851 468.741
2233 0 55.2664 12.9193 714 103.021 51.1148 471.665
2234 0 59.3663 18.5964 1104 94.779 50.2799 473.421
2235 0 62.3918 15.3225 956 99.8609 51.0146 472.763
2236 0 61.3241 16.6982 1024 100.002 50.5039 467.443
2237 0 62.2721 13.1038 816 104.811 49.6826 467.031
2238 0 66.3198 13.646 905 104.618 51.1558 470.785
2239 0 70.2972 14.6805 1032 103.451 50.3256 468.497
2240 0 72.206 15.4558 1116 103.242 49.2285 469.336
2241 0 74.1751 13.5895 1008 106.646 48.8056 467.848
2242 0 75.2696 14.561 1096 106.432 48.9005 464.505
2243 0 78.2224 15.9289 1246 104.306 47.6565 463.131
2244 0 81.3548 18.5853 1512 100.725 46.3552 465.981
2245 0 81.2862 13.6062 1106 109.974 45.0588 461.533
2246 0 87.1843 14.716 1283 107.536 45.5058 460.792
2247 0 89.2694 19.0323 1699 99.6804 44.2796 453.333
2248 0 92.4078 14.9987 1386 106.048 43.8088 455.31
2249 0 90.4075 12.1339 1097 112.887 42.6755 454.275
2250 1 47.3375 9.44282 447 111.298 42.9709 475.311
2251 0 50.2332 11.9443 600 106.52 43.4133 472.347
2252 0 50.1474 11.9049 597 107.34 43.4255 471.533
2253 0 53.0435 14.4975 769 104.098 41.7555 466.896
2254 0 54.2774 14.1495 768 105.066 42.6602 468.724
2255 0 57.571 14.886 857 102.516 42.203 467.344
2256 0 57.2939 14.3122 820 107.204 42.9171 467.86
2257 0 61.3546 13.0878 803 109.075 43.3599 467.568
2258 0 62.2773 15.3346 955 106.549 43.2722 465.936
2259 0 63.0944 12.2198 771 113.642 43.1751 463.326
2260 0 63.3645 12.4676 790 113.514 44.7228 463.128
2261 0 66.1427 11.581 766 113.684 44.6149 462.94
2262 0 68.1916 16.307 1112 108.196 45.2617 455.749
2263 0 72.2233 13.7767 995 110.562 44.7206 457.422
2264 0 74.2631 15.0815 1120 109.024 46.4491 456.646
2265 0 73.4292 13.0874 961 112.703 47.4547 453.628
2266 0 77.2713 16.4356 1270 107.399 47.4535 452.999
2267 0 76.2685 14.5801 1112 111.825 48.518 454.055
2268 0 80.3552 13.8261 1111 114.084 48.3357 446.59
2269 0 83.1812 15.8209 1316 111.093 48.174 449.249
2270 0 85.1655 15.5932 1328 111.894 48.9375 450.141
2271 0 86.3326 13.3206 1150 116.433 49.7696 446.734
2272 0 90.3338 15.6309 1412 113.21 50.3463 447.222
2273 0 93.222 13.8916 1295 115.545 50.207 450.14
2274 0 98.2859 16.5537 1627 111.337 50.9809 448.32
2275 0 99.2205 13.5154 1341 117.794 50.7412 443.814
2276 0 103.298 13.6788 1413 116.517 50.7672 444.318
2277 0 106.251 16.2823 1730 112.277 51.648 445.047
2278 0 113.471 14.4971 1645 114.43 50.4164 445.459
2279 1 55.1366 11.6801 644 116.357 51.3323 470.694
2280 0 60.3186 13.6111 821 107.325 47.838 470.507
2281 0 61.1306 13.2994 813 111.362 49.8524 470.091
2282 0 62.116 12.7342 791 112.512 48.5942 465.853
2283 0 64.1917 13.5687 871 110.603 48.5201 462.516
2284 0 68.1429 12.4885 851 111.53 48.0975 464.796
2285 0 67.2206 10.4432 702 114.325 47.1895 463.865
2286 0 72.2127 13.0032 939 111.217 46.3621 460.637
2287 0 73.1305 11.6367 851 113.32 45.5781 459.033
2288 0 79.0805 13.2017 1044 110.416 44.1638 457.602
2289 0 79.2008 12.5756 996 111.432 44.9568 458.258
2290 0 82.2254 12.5874 1035 112.121 43.7082 452.424
2291 0 83.5914 12.0228 1005 112.289 43.9184 453.95
2292 0 86.4557 13.7064 1185 112.001 43.5342 446.129
2293 0 92.5456 15.668 1450 111.062 42.4055 448.988
2294 1 47.1927 12.4807 589 111.869 43.3803 467.756
2295 0 49.2572 13.1554 648 111.608 43.0247 466.14
2296 0 47.035 10.4815 493 115.68 42.8945 466.511
2297 0 48.1675 9.7161 468 116.979 42.5278 462.214
2298 0 53.3765 14.2759 762 105.983 43.147 463.508
2299 0 55.1868 13.2097 729 108.484 42.1962 461.136
2300 0 56.1592 13.9603 784 106.534 42.5714 460.872
2301 0 58.4364 12.5949 736 108.291 42.1101 460.477
2302 0 57.1363 11.5863 662 111.884 42.0952 454.606
2303 0 61.2278 13.1313 804 107.643 42.5609 458.133
2304 0 62.1293 13.0051 808 107.577 41.9146 454.79
2305 0 66.1552 10.8381 717 110.448 42.6444 453.563
2306 0 68.2115 12.7105 867 108.344 42.2111 449.302
2307 0 68.1537 10.3443 705 112.044 43.8298 449.034
2308 0 71.2864 15.3606 1095 104.878 43.5973 445.501
2309 0 75.1808 16.1078 1211 104.18 45.3832 443.821
2310 0 77.4134 13.8348 1071 106.918 44.7451 444.738
2311 0 79.4442 13.1413 1044 107.234 46.2682 444.798
2312 0 83.3164 12.6626 1055 109.556 47.1109 444.225
2313 0 88.345 13.4586 1189 107.449 47.3844 445.147
2314 0 88.2391 13.7014 1209 108.352 47.6195 442.589
2315 1 46.1762 6.47519 299 111.793 47.4114 464.983
2316 0 49.1898 10.8559 534 107.131 48.5243 465.337
2317 0 50.4971 10.6937 540 112.278 49.0796 464.406
2318 0 52.2429 13.2267 691 106.66 47.9479 466.346
2319 0 54.1259 15.1314 819 103.277 48.9267 467.182
2320 0 57.0835 12.3153 703 106.724 48.8122 468.391
2321 0 59.2828 15.7044 931 99.8303 47.9205 472.105
2322 0 61.2635 11.7688 721 107.551 47.7975 467.068
2323 0 65.3134 13.7491 898 104.909 47.9677 463.938
2324 0 64.4198 11.6734 752 107.407 46.9215 468.094
2325 0 70.2838 13.2178 929 104.253 46.9623 463.382
2326 0 72.2975 12.822 927 105.044 46.9374 463.799
2327 0 76.2735 14.0022 1068 102.875 45.7257 462.607
2328 0 77.3487 14.273 1104 103.342 45.1168 461.33
2329 0 84.7841 16.5361 1402 99.4087 44.0178 459.964
2330 0 81.3934 14.7678 1202 102.401 43.7579 459.834
2331 1 42.2655 11.5934 490 106.845 42.7041 476.184
2332 0 45.2907 13.4686 610 103.249 42.9066 476.093
2333 0 48.6942 14.3549 699 99.9285 41.5651 471.993
2334 0 45.5475 11.241 512 107.398 42.5625 468.459
2335 0 49.5944 12.0981 600 105.702 41.2883 469.68
2336 0 51.2828 13.2403 679 103.85 41.9794 471.43
2337 0 50.4103 12.2197 616 105.786 41.7386 471.756
2338 0 49.4973 11.2733 558 109.134 41.7151 468.435
2339 0 53.729 16.788 902 100.421 41.7982 465.223
2340 0 54.6564 12.6792 693 107.281 41.886 463.424
2341 0 56.4417 13.4652 760 105.434 41.5908 463.414
2342 0 56.8152 12.4087 705 107.742 42.9489 457.695
2343 0 64.7857 18.8004 1218 96.4902 42.289 462.368
2344 0 61.6011 13.2141 814 105.268 42.7604 460.446
2345 0 61.3718 15.6261 959 102.213 43.001 460.832
2346 0 63.5638 12.5543 798 107.32 43.4461 455.937
2347 0 66.4797 12.3496 821 107.146 43.7844 456.258
2348 0 66.3742 12.2638 814 108.49 43.8845 452.418
2349 0 69.3174 14.7582 1023 104.653 45.435 451.707
2350 0 72.6153 13.6059 988 105.64 44.6123 451.753
2351 0 75.4807 13.8314 1044 106.109 46.2155 450.302
2352 0 76.3313 17.8695 1364 101.161 46.5015 448.762
2353 0 78.6899 16.1647 1272 103.15 47.0967 449.344
2354 0 84.7767 13.9189 1180 105.666 47.3992 449.427
2355 0 84.5943 13.4761 1140 107.657 48.8895 445.347
2356 1 45.2013 11.0174 498 106.962 48.3133 465.677
2357 0 48.109 11.9104 573 105.162 48.527 466.956
2358 0 49.2169 12.0893 595 103.992 47.5227 468.03
2359 0 50.1117 10.3768 520 108.769 48.3596 467.112
2360 0 52.1333 12.1995 636 106.487 47.2846 465.923
2361 0 55.163 13.6867 755 103.849 47.8689 467.852
2362 0 54.1432 13.3165 721 105.067 48.4369 470.662
2363 0 56.1008 11.4793 644 107.739 47.9162 467.47
2364 0 59.1302 14.003 828 103.55 46.657 469.499
2365 0 61.3978 14.6585 900 101.43 47.2356 470.39
2366 0 66.1689 13.5713 898 102.581 46.5724 466.812
2367 0 64.0744 11.3774 729 105.838 46.4198 470.502
2368 0 68.0993 13.6859 932 102.446 45.9517 468.128
2369 0 73.1442 17.4997 1280 96.5578 45.2711 468.055
2370 0 74.0819 13.5796 1006 101.75 43.8678 467.029
2371 0 74.1019 13.3735 991 101.182 42.9122 468.969
2372 0 82.0992 14.4094 1183 100.711 42.4277 459.312
2373 1 43.0492 9.66336 416 100.954 40.5938 482.606
2374 0 45.0671 12.4259 560 100.177 40.8643 476.257
2375 0 45.0352 9.88116 445 103.542 39.1236 479.184
2376 0 47.1064 11.5696 545 98.6294 39.1064 474.987
2377 0 49.1012 11.5272 566 97.6661 38.8869 476.067
2378 0 51.0353 12.4816 637 98.0094 38.2198 474.27
2379 0 53.1404 17.2185 915 92.0579 38.3355 470.476
2380 0 52.0807 15.092 786 96.4148 37.7875 471.436
2381 0 55.2711 16.9528 937 92.2732 38.825 467.978
2382 0 53.1824 10.1725 541 101.835 38.4917 467.176
2383 0 59.2625 14.7817 876 94.661 39.5342 467.732
2384 0 59.3427 13.7338 815 96.4724 40.0908 465.145
2385 0 64.3633 16.5778 1067 91.3411 39.4358 467.275
2386 0 63.3296 12.3007 779 97.7908 40.5314 464.99
2387 0 64.2394 13.045 838 97.8902 40.2243 457.143
2388 0 67.2559 17.7085 1191 92.5357 41.9681 454.269
2389 0 69.2025 14.6093 1011 96.454 41.9377 459.052
2390 0 69.3547 12.6596 878 99.7494 42.0102 456.247
2391 0 71.2383 13.6163 970 99.1392 42.6412 454.473
2392 0 74.215 13.7439 1020 99.4853 43.7265 453.459
2393 0 79.287 14.2899 1133 98.6178 43.053 452.809
2394 0 79.25 13.123 1040 101.008 45.4087 448.415
2395 0 82.3072 13.9842 1151 102.92 44.8167 448.564
2396 1 41.0791 10.711 440 104.414 44.5159 472.448
2397 0 46.1324 14.9353 689 98.8491 45.6197 469.202
2398 0 47.1463 14.6353 690 96.8406 46.9101 470.92
2399 0 51.0902 11.372 581 100.277 46.8262 473.935
2400 0 51.2127 16.5584 848 92.4741 47.0165 477.392
2401 0 50.1277 13.1065 657 100.117 47.376 469.953
2402 0 55.3268 15.6705 867 95.6113 47.1696 475.684
2403 0 54.1833 13.5466 734 99.8215 47.4373 475.91
2404 0 57.155 15.5017 886 98.3736 46.316 472.114
2405 0 61.2808 14.0174 859 99.057 46.3842 475.424
2406 0 62.3054 14.3808 896 99.3136 45.6585 475.191
2407 0 63.1302 15.571 983 95.1404 45.3713 472.407
2408 0 69.0951 13.3584 923 96.8819 45.636 473.795
2409 0 69.123 13.5121 934 98.2163 45.2591 471.554
2410 0 74.1953 16.8205 1248 93.2828 44.8237 471.859
2411 0 74.1219 13.7072 1016 98.8218 43.3337 467.857
2412 0 77.157 17.8208 1375 94.048 43.2196 470.189
2413 0 78.2282 12.4635 975 101.907 43.0759 467.122
2414 0 84.1223 15.109 1271 97.1589 42.509 464.592
2415 1 41.0381 10.7705 442 99.1516 41.9548 480.095
2416 0 44.1493 21.7671 961 86.9667 41.4443 480.178
2417 0 45.1655 10.8268 489 99.1268 41.4294 476.926
2418 0 45.0636 12.3381 556 99.4101 40.8112 476.581
2419 0 45.063 13.115 591 99.3841 39.6007 474.547
2420 0 49.2495 20.0408 987 89.9676 39.9473 469.532
2421 0 51.2843 12.9474 664 98.2485 40.8223 472.679
2422 0 51.1396 15.4479 790 95.238 40.0861 473.258
2423 0 54.0823 12.7213 688 99.5087 40.609 467.578
2424 0 56.0532 17.9294 1005 93.1234 40.8458 469.592
2425 0 57.0474 16.162 922 94.3026 40.18 471.046
2426 0 61.217 15.1265 926 96.1609 41.2343 467.235
2427 0 62.1306 13.6648 849 99.1861 41.3828 465.058
2428 0 60.1568 12.4342 748 102.98 41.3824 460.902
2429 0 63.0733 16.9644 1070 96.628 42.2748 460.336
2430 0 68.2846 15.5086 1059 97.4901 42.4929 458.728
2431 0 67.1135 13.6783 918 100.902 43.4052 457.322
2432 0 70.3072 14.9487 1051 98.6784 44.4776 457.786
2433 0 74.5958 16.5827 1237 94.464 45.599 461.341
2434 0 75.1559 13.9177 1046 102.074 45.8394 453.249
2435 0 78.2382 15.849 1240 99.4395 45.9097 449.905
2436 0 81.2694 17.0421 1385 97.0433 45.9769 454.578
2437 0 81.1625 15.3396 1245 100.603 47.2185 451.335
2438 0 83.2476 19.2318 1601 96.4653 47.396 450.758
2439 1 47.1852 11.1052 524 104.824 47.4809 470.347
2440 0 50.3458 13.2087 665 101.65 47.4316 466.952
2441 0 50.5908 10.5553 534 108.97 48.4326 467.629
2442 0 51.2092 11.1503 571 107.275 47.7741 470.783
2443 0 49.124 11.2776 554 108.724 48.7058 471.114
2444 0 55.0813 12.654 697 105.654 48.2339 472.532
2445 0 56.1479 14.9427 839 104.511 47.7426 470.574
2446 0 58.1041 14.801 860 105.306 46.5384 469.369
2447 0 60.0471 15.6044 937 104.546 47.0779 472.365
2448 0 64.132 12.5366 804 108.929 46.3234 471.744
2449 0 66.0617 15.758 1041 104.364 46.4352 472.264
2450 0 67.2326 12.1965 820 111.004 44.3988 469.866
2451 0 70.1595 12.4003 870 110.613 45.2299 472.497
2452 0 73.1687 11.7127 857 113.383 44.0747 464.524
2453 0 78.2264 13.4993 1056 109.957 43.0833 466.453
2454 0 79.095 13.882 1098 110.042 42.2577 464.773
2455 0 82.1478 14.4131 1184 108.355 41.5954 461.477
2456 0 88.1734 14.5509 1283 107.217 41.6641 463.532
2457 0 86.3116 11.5628 998 113.24 41.2886 460.86
2458 1 48.1214 12.0528 580 106.336 39.5983 480.402
2459 0 49.0552 11.8438 581 103.534 41.3546 477.355
2460 0 51.0814 12.3137 629 104.464 41.7488 472.682
2461 0 56.4666 12.7686 721 102.42 41.0943 473.87
2462 0 51.1624 11.4342 585 105.773 40.5624 473.13
2463 0 55.1072 9.4906 523 106.392 40.782 473.262
2464 0 56.1811 11.8901 668 108.289 39.9566 470.892
2465 0 59.1194 13.7688 814 104.645 40.4275 469.387
2466 0 62.3857 14.4264 900 103.03 40.8889 463.523
2467 0 60.3875 11.4924 694 108.164 40.7594 463.242
2468 0 63.1915 16.0939 1017 101.635 40.6991 460.53
2469 0 64.2484 13.2455 851 105.845 40.1633 458.424
2470 0 68.3268 13.4208 917 104.449 41.3708 460.448
2471 0 70.3574 12.4223 874 105.585 42.214 453.231
2472 0 72.4743 11.5489 837 105.403 42.2616 459.514
2473 0 74.4264 11.7969 878 107.005 42.2255 454.4
2474 0 76.3058 10.3138 787 109.329 42.7103 455.338
2475 0 79.3935 12.7214 1010 106.74 44.401 451.765
2476 0 81.316 14.1424 1150 105.371 46.407 447.357
2477 0 85.4689 17.6906 1512 97.8717 45.4907 458.694
2478 0 87.4403 12.5228 1095 108.37 46.7416 447.126
2479 0 87.5052 13.7363 1202 106.719 46.9842 450.058
2480 0 92.3677 12.2987 1136 110.009 47.279 442.54
2481 0 97.5086 11.8554 1156 110.702 48.0441 442.089
2482 0 102.487 14.7043 1507 106.979 48.5541 435.72
2483 0 105.348 11.144 1174 111.58 47.253 442.963
2484 0 110.422 11.7096 1293 112.374 48.0603 443.77
2485 0 113.373 17.4027 1973 107.966 46.9052 445.456
2486 1 62.4368 14.0782 879 111.248 46.7429 471.927
2487 0 60.5607 13.1108 794 115.902 47.4345 466.943
2488 0 63.4892 11.435 726 119.431 46.5854 468.266
2489 0 69.3926 13.2867 922 115.112 46.8134 469.77
2490 0 70.3766 15.4597 1088 112.468 46.2123 467.028
2491 0 73.3464 12.1887 894 118.828 45.698 468.713
2492 0 76.4069 15.0903 1153 114.07 44.9428 466.121
2493 0 80.4913 13.8773 1117 115.73 44.8075 466.34
2494 0 82.2951 12.7225 1047 117.545 43.3505 466.856
2495 1 44.1461 9.06082 400 119.398 42.04 484.738
2496 0 47.1035 11.8038 556 115.653 41.473 482.59
2497 0 48.0316 13.0331 626 112.869 40.4457 483.08
2498 0 52.1475 15.2452 795 108.694 40.327 477.327
2499 0 53.1516 15.992 850 101.084 41.2541 473.536
2500 0 55.1879 13.5537 748 104.654 41.7928 473.951
2501 0 58.1367 14.2423 828 103.289 41.0362 471.696
2502 0 56.2067 12.454 700 107.197 40.7529 469.379
2503 0 59.1684 12.5743 744 107.315 41.0887 469.392
2504 0 61.2272 16.2346 994 104.747 41.0342 467.026
2505 0 61.1871 13.9408 853 108.923 40.1125 466.25
2506 0 60.1646 11.1361 670 113.107 39.9448 466.224
2507 0 66.3798 16.0591 1066 105.43 40.4315 462.025
2508 0 67.1739 12.1178 814 111.432 40.4877 463.554
2509 0 69.237 13.2588 918 110.295 41.8824 459.334
2510 0 70.1274 14.4024 1010 109.009 42.0901 460.984
2511 0 73.1529 14.0391 1027 108.971 42.591 459.373
2512 0 74.1314 12.4509 923 112.197 42.2438 457.601
2513 0 78.1681 15.1468 1184 108.848 42.7061 452.498
2514 0 80.2027 14.4509 1159 111.609 43.7929 450.924
2515 0 83.2761 11.4679 955 114.498 44.2555 451.659
2516 0 87.5269 12.3391 1080 112.931 45.1157 449.636
2517 1 48.4621 13.784 668 108.476 45.5808 463.647
2518 0 50.3115 10.594 533 110.079 47.2514 467.39
2519 0 50.4962 12.4762 630 110.556 47.1476 463.657
2520 0 52.4766 9.62333 505 114.289 48.1644 466.093
2521 0 56.3694 11.8859 670 110.551 47.9403 467.109
2522 0 56.2752 12.2789 691 110.77 48.9219 468.025
2523 0 57.3282 11.8266 678 113.572 47.6873 466.985
2524 0 61.342 13.6774 839 111.161 48.6961 466.763
2525 0 63.3376 13.2149 837 112.661 47.3178 465.203
2526 0 68.2068 13.4884 920 110.968 47.5185 464.036
2527 0 68.3658 12.0967 827 115.017 48.4256 467.008
2528 0 72.2629 12.1639 879 114.767 48.2742 468.057
2529 0 70.136 12.7181 892 116.283 47.8587 463.888
2530 0 73.1899 12.3788 906 115.76 47.9492 464.466
2531 0 79.2296 14.3381 1136 110.977 48.4551 464.289
2532 0 82.2073 12.4563 1024 114.353 47.792 461.533
2533 0 84.3854 15.2041 1283 110.351 47.6906 461.532
2534 0 86.3908 12.7444 1101 114.64 45.0554 455.252
2535 1 45.2722 8.45994 383 114.154 47.0862 481.903
2536 0 49.3398 14.6738 724 105.816 45.2486 476.282
2537 0 51.1124 11.2693 576 109.849 43.0226 479.632
2538 0 51.196 13.0479 668 108.045 43.8458 479.668
2539 0 54.4558 13.7359 748 113.783 43.0187 476.088
2540 0 56.3119 12.928 728 115.44 42.1744 473.788
2541 0 58.3608 14.9415 872 111.751 42.4232 470.784
2542 0 61.2039 19.0347 1165 105.9 41.4489 467.912
2543 0 63.4102 17.4262 1105 107.919 41.0851 467.009
2544 0 64.4054 11.3345 730 118.17 41.0425 465.832
2545 0 64.2911 13.1122 843 115.964 41.0214 465.733
2546 0 68.5329 16.2258 1112 110.397 40.5962 461.505
2547 0 70.3356 13.3929 942 116.032 41.3599 460.873
2548 0 72.8988 14.2115 1036 113.48 40.7172 461.511
2549 0 74.4083 12.3777 921 116.958 41.1878 459.331
2550 0 77.3308 15.5048 1199 113.364 41.3036 453.203
2551 0 80.5424 13.645 1099 114.985 40.0091 455.223
2552 0 81.4812 14.4819 1180 114.558 42.3864 453.512
2553 0 86.575 14.7849 1280 112.9 41.6133 452.39
2554 1 45.3377 10.2784 466 116.172 43.397 469.137
2555 0 45.5067 12.3718 563 112.348 44.0675 468.812
2556 0 46.404 12.7144 590 112.737 45.3949 466.741
2557 0 49.7766 15.6901 781 106.236 44.6568 461.832
2558 0 48.7242 13.1146 639 112.18 46.2739 459.967
2559 0 49.4661 13.2414 655 111.174 45.7786 460.348
2560 0 53.4998 14.5982 781 108.416 48.2318 463.987
2561 0 55.7457 14.1177 787 109.319 47.2783 463.304
2562 0 53.5308 11.9744 641 111.02 47.5195 464.526
2563 0 54.35 11.0764 602 112.962 48.0731 465.748
2564 0 58.2306 12.1242 706 111.67 48.1006 464.336
2565 0 58.4217 12.3071 719 113.064 48.2392 464.928
2566 0 63.2718 16.1051 1019 106.63 48.2561 463.181
2567 0 63.1781 11.982 757 113.764 47.8388 465.474
2568 0 67.2542 14.5567 979 108.777 47.76 468.564
2569 0 69.4996 12.072 839 113.308 47.9058 466.574
2570 0 71.2905 13.0312 929 112.705 47.3574 466.793
2571 0 74.4117 15.2664 1136 108.852 47.3574 466.664
2572 0 77.609 13.0526 1013 112.622 47.0839 464.036
2573 0 79.559 16.8428 1340 106.393 46.847 463.622
2574 0 80.5538 13.1465 1059 113.865 46.1426 460.084
2575 0 86.4582 14.6198 1264 110.294 46.0261 461.971
2576 0 88.6654 15.2371 1351 109.642 44.4656 452.813
2577 0 92.4114 11.7734 1088 114.362 44.2969 454.979
2578 0 96.3546 13.2324 1275 112.555 42.9224 453.478
2579 0 99.7483 12.301 1227 112.062 43.3708 451.529
2580 1 56.4182 10.1386 572 108.306 42.9266 473.701
2581 0 57.5431 12.0605 694 105.36 41.6268 471.576
2582 0 57.5096 9.94617 572 109.08 42.5052 472.832
2583 0 60.3613 12.74 769 105.408 42.091 470.117
2584 0 62.4441 16.0624 1003 100.727 41.1834 466.421
2585 0 62.1947 10.7887 671 108.657 39.4769 464.39
2586 0 67.1182 13.2751 891 103.853 40.1033 466.974
2587 0 67.1149 15.8385 1063 101.057 39.4299 463.556
2588 0 70.234 14.0103 984 103.472 40.3404 464.956
2589 0 72.1003 15.5755 1123 99.7026 40.6759 467.425
2590 0 72.2007 12.1052 874 107.408 39.9039 462.025
2591 0 75.1875 13.4065 1008 106.859 40.4901 454.299
2592 0 80.1013 13.1833 1056 105.386 40.2367 457.53
2593 0 81.1601 12.0626 979 106.734 41.6221 450.583
2594 0 82.3279 12.0129 989 106.939 41.7058 448.041
2595 0 84.2342 13.32 1122 106.632 41.4367 444.271
2596 0 86.4532 14.1695 1225 105.962 42.4612 442.246
2597 0 91.2452 16.0666 1466 102.089 42.0157 444.903
2598 1 44.2221 10.1081 447 103.087 42.4989 467.215
2599 0 47.231 12.9364 611 96.1686 43.671 469.548
2600 0 48.238 11.2982 545 99.222 43.2404 467.972
2601 0 50.0922 13.575 680 96.65 45.0382 461.272
2602 0 49.1568 11.2294 552 100.844 45.6449 463.447
2603 0 52.1404 17.1268 893 92.3863 45.6226 463.888
2604 0 54.1293 11.3802 616 99.4968 46.2549 465.901
2605 0 56.0526 12.8629 721 97.9209 46.5576 466.107
2606 0 59.1913 13.5155 800 95.8862 45.8112 467.654
2607 0 61.133 14.9019 911 93.2437 45.9319 464.772
2608 0 62.1444 11.9078 740 100.942 45.9689 462.995
2609 0 65.1178 11.4408 745 102.207 45.7893 462.366
2610 0 69.1514 14.5189 1004 96.9124 45.9004 465.799
2611 0 71.1607 12.3523 879 100.137 45.7929 468.069
2612 0 74.2065 13.3681 992 98.3619 46.0796 465.019
2613 0 74.6117 12.1429 906 101.69 45.7296 462.834
2614 0 79.3219 11.8505 940 104.146 45.2574 461.966
2615 0 82.1833 12.7033 1044 103.634 44.3812 462.046
2616 0 86.1945 14.154 1220 101.416 44.0828 463.042
2617 0 89.3676 12.2192 1092 103.557 42.8324 463.961
2618 1 45.2399 10.2785 465 105.708 41.4022 481.058
2619 0 46.1112 13.7927 636 101.11 41.1965 479.527
2620 0 47.1171 10.5694 498 103.695 41.008 484.763
2621 0 49.3086 11.6815 576 99.7465 40.1389 476.335
2622 0 50.2759 12.3916 623 102.605 40.2729 473.905
2623 0 49.2058 9.61268 473 104.167 40.3362 468.856
2624 0 54.0628 10.3768 561 102.262 39.8378 472.107
2625 0 52.1927 12.8754 672 100.168 39.3199 469.548
2626 0 60.2558 17.824 1074 93.6434 38.0326 473.005
2627 0 60.2502 13.5269 815 100.182 38.0687 471.026
2628 0 61.214 16.3198 999 96.7888 38.4054 464.635
2629 0 63.2438 12.2226 773 102.318 39.2342 463.364
2630 0 66.4889 12.6036 838 101.274 39.7649 459.51
2631 0 66.2978 13.1528 872 100.495 39.344 461.564
2632 0 69.1513 13.5355 936 100.15 39.3269 458.76
2633 0 70.3001 12.404 872 101.698 40.1135 460.314
2634 0 74.2953 15.7884 1173 96.5064 41.4169 460.226
2635 0 76.2673 15.5506 1186 97.9005 40.7369 456.319
2636 0 78.2884 12.0835 946 100.383 40.9937 458.999
2637 0 81.4061 13.2177 1076 99.2221 43.3894 454.762
2638 0 85.3616 15.3816 1313 96.6656 43.5545 449.711
2639 1 46.0531 11.8559 546 99.7637 43.8278 470.236
2640 0 46.0559 11.8551 546 97.8681 43.8883 469.947
2641 0 46.2258 11.314 523 99.434 47.8107 464.69
2642 1 100.233 7.6821 770 93.7623 50.4506 461.268
2643 0 99.3372 9.20098 914 94.9158 51.2713 451.72
2644 1 68.3206 10.1141 691 93.1404 52.4457 469.632
2645 0 69.4131 11.1362 773 92.8215 50.1889 464.758
2646 0 69.4267 14.2884 992 90.5454 50.7137 458.784
2647 0 70.7063 18.7254 1324 86.9245 49.1896 460.854
2648 0 76.2476 19.7777 1508 84.941 49.5676 469.2
2649 0 75.8129 19.5481 1482 87.4305 48.8758 461.463
2650 0 77.2562 12.6851 980 93.2561 47.6051 461.38
2651 0 78.3912 12.7948 1003 93.9412 47.7119 463.166
2652 0 84.3368 11.9165 1005 94.8677 45.3194 464.009
2653 0 88.5043 19.2759 1706 87.1401 44.4068 468.04
2654 0 87.3187 13.4794 1177 95.4333 44.0561 456.845
2655 0 87.2054 12.3043 1073 96.5806 43.3159 460.219
2656 0 89.2557 18.4078 1643 90.9489 42.7608 457.358
2657 0 91.4964 16.252 1487 93.1426 41.269 457.214
2658 0 97.3792 19.7784 1926 89.1085 39.418 460.133
2659 0 98.231 14.0994 1385 96.6058 40.1769 448.051
2660 0 99.5409 20.7051 2061 89.5735 38.5522 455.375
2661 0 105.787 16.9681 1795 94.1682 39.7003 445.953
2662 0 111.485 17.6257 1965 92.5349 39.8137 448.888
2663 1 59.1966 11.031 653 97.7014 40.5957 471.024
2664 0 65.2953 13.0025 849 94.2591 41.0071 470.531
2665 0 63.3467 14.2549 903 94.7309 40.0277 465.585
2666 0 66.2946 15.597 1034 93.4284 40.9613 464.04
2667 0 64.2166 10.6047 681 99.6197 41.5066 465.084
2668 0 69.2594 18.4091 1275 90.8086 39.8235 465.818
2669 0 68.3251 12.6454 864 98.9456 41.0012 460.788
2670 0 71.26 12.5456 894 98.3658 41.179 461.758
2671 0 75.3452 17.6786 1332 92.036 42.012 461.218
2672 0 76.2605 10.8182 825 100.816 42.8012 457.662
2673 0 78.416 15.5326 1218 96.4581 42.6018 452.16
2674 0 83.2647 12.6344 1052 99.9182 42.9667 455.646
2675 0 84.3864 18.2849 1543 95.1886 43.6053 448.174
2676 0 89.7669 19.4281 1744 93.488 43.8297 451.617
2677 0 90.5777 15.9311 1443 97.4851 44.2141 449.503
2678 0 92.3011 15.4819 1429 99.4192 45.5046 447.714
2679 0 92.3315 12.4335 1148 105.051 45.6307 444.105
2680 1 51.0974 12.4664 637 99.0754 47.0408 472.403
2681 0 52.0659 15.9413 830 93.0289 47.1663 474.958
2682 0 53.1981 12.9892 691 100.768 47.2127 467.548
2683 0 53.3726 11.0544 590 98.6525 45.8424 460.058
2684 0 61.146 16.7795 1026 94.0185 42.7895 471.627
2685 0 59.1709 11.6611 690 102.493 43.7899 469.055
2686 0 62.1029 13.0107 808 100.481 44.0681 469.071
2687 0 65.1715 17.2775 1126 94.476 44.4751 473.044
2688 0 69.1158 12.5152 865 101.751 44.0243 469.872
2689 0 68.1162 12.1263 826 103.045 43.9613 468.577
2690 0 72.2234 12.9044 932 102.455 44.883 468.774
2691 0 75.2185 17.4026 1309 96.2101 44.3476 469.8
2692 0 78.2793 13.388 1048 101.562 43.7681 465.012
2693 0 81.2288 15.1916 1234 98.5519 44.3865 466.807
2694 0 81.1278 15.7159 1275 98.8839 43.7969 465.032
2695 0 83.2314 13.6006 1132 101.797 43.2005 467.085
2696 0 87.4301 17.2824 1511 97.4202 43.5824 464.006
2697 0 87.2546 27.5172 2401 88.4011 42.793 465.349
2698 1 48.1364 14.7498 710 96.4958 40.731 483.418
2699 0 50.0786 16.2944 816 92.5797 41.3603 483.074
2700 0 50.2007 12.2309 614 96.259 40.842 481.669
2701 0 51.0892 12.8207 655 95.6504 39.9206 478.557
2702 0 53.1052 8.39842 446 86.4238 38.3991 481.334
2703 0 57.1854 14.4268 825 85.2218 38.6279 475.638
2704 0 56.5268 13.3034 752 86.8045 37.8138 473.431
2705 0 60.2782 17.4524 1052 83.366 37.1093 476.444
2706 0 64.3734 18.6879 1203 83.0939 36.9726 467.672
2707 0 63.3286 12.822 812 88.8534 37.1564 470.169
2708 0 64.2662 15.2646 981 86.8257 36.8236 469.526
2709 0 66.2365 13.482 893 89.0314 36.495 465.3
2710 0 69.183 15.3217 1060 87.4783 37.1802 459.613
2711 0 71.2246 15.8232 1127 87.244 37.3327 460.483
2712 0 73.1467 17.1026 1251 86.283 38.5236 459.623
2713 0 74.2506 20.2019 1500 84.6247 38.9033 461.319
2714 0 76.1604 25.4857 1941 81.0912 39.2458 457.372
2715 0 77.1634 12.9984 1003 90.9821 40.328 449.696
2716 0 80.377 15.7383 1265 89.2119 40.7834 453.085
2717 0 82.4003 22.2087 1830 83.8519 40.777 455.296
2718 0 87.2464 13.4332 1172 91.8225 40.9753 446.283
2719 0 88.4827 22.4564 1987 83.1998 43.0533 449.208
2720 0 92.3908 16.3977 1515 87.3578 44.5023 445.15
2721 0 95.2445 18.9512 1805 86.0914 44.8853 450.384
2722 1 52.0397 11.3759 592 89.8125 44.3463 470.938
2723 0 53.3584 13.7748 735 88.7551 46.585 465.056
2724 0 56.1658 13.2465 744 88.1384 44.1855 469.708
2725 0 55.2064 14.2194 785 88.9694 43.7962 469.122
2726 0 57.129 12.498 714 89.1232 44.2451 472.627
2727 0 58.2141 9.91169 577 92.8822 44.5078 471.246
2728 0 61.3314 15.3103 939 88.4984 44.77 468.156
2729 0 62.22 10.5432 656 92.689 45.375 469.727
2730 0 68.1655 14.5822 994 87.3461 44.8632 473.087
2731 0 69.5151 13.364 929 89.8353 44.9946 469.59
2732 0 69.2858 12.6288 875 91.4891 44.2903 467.366
2733 0 74.3295 17.3551 1290 87.4992 43.707 466.256
2734 0 78.5851 13.8067 1085 90.3189 43.8885 467.617
2735 0 79.4257 21.5421 1711 83.7317 44.2005 467.137
2736 0 81.5027 13.8891 1132 90.8525 44.689 463.877
2737 0 84.3909 18.6276 1572 86.035 43.6749 467.268
2738 0 87.4553 16.0654 1405 88.7651 43.5274 465.646
2739 0 89.6045 15.959 1430 88.0252 42.4364 465.653
2740 0 95.6351 19.3862 1854 85.4504 42.4822 460.574
2741 1 54.1963 16.2557 881 85.0125 40.7741 484.252
2742 0 53.1984 19.1359 1018 82.2976 40.2053 478.912
2743 0 51.0766 7.87054 402 91.7836 39.9204 476.833
2744 0 57.1098 13.5178 772 86.2798 39.2914 472.969
2745 0 56.2694 12.1203 682 86.5924 39.0645 475.991
2746 0 56.1323 9.74483 547 91.2633 39.4077 468.76
2747 0 59.0587 20.3357 1201 81.2281 37.9833 470.386
2748 0 62.044 16.6172 1031 84.1979 38.6547 468.292
2749 0 63.2151 25.8799 1636 78.7671 37.8588 460.866
2750 0 66.0891 16.4021 1084 85.1467 38.7002 459.958
2751 0 66.0537 5.329 352 93.6619 37.8267 465.074
2752 0 70.1604 13.8112 969 86.7069 38.5903 462.337
2753 0 69.1886 9.40906 651 92.3011 38.1859 451.373
2754 0 71.2216 9.2809 661 99.5764 38.9879 453.395
2755 0 75.1432 14.6919 1104 94.0054 39.9728 453.062
2756 0 78.2393 13.7655 1077 94.3324 39.7809 451.561
2757 0 83.0868 15.0084 1247 93.1026 40.8893 449.634
2758 0 86.288 14.9731 1292 93.668 40.9582 449.012
2759 0 83.0756 14.1678 1177 95.3169 42.3594 444.308
2760 0 90.1372 11.305 1019 97.735 42.1973 444.1
2761 0 95.1607 12.6943 1208 95.1672 43.3634 444.286
2762 0 97.1307 13.3222 1294 93.5827 43.8238 449.5
2763 0 99.4354 9.1215 907 99.7144 43.9768 436.313
2764 0 104.443 12.3416 1289 93.834 45.5384 439.607
2765 0 107.344 12.1199 1301 96.5396 45.2536 435.198
2766 1 59.2043 14.5597 862 89.435 45.9513 467.331
2767 0 62.1297 13.2626 824 90.8871 46.0158 464.465
2768 0 64.2006 11.7133 752 92.0678 46.7952 466.862
2769 0 65.1137 14.6666 955 89.7602 47.5916 464.408
2770 0 67.1322 9.38447 630 93.8079 47.0143 467.644
2771 0 70.089 11.5567 810 91.816 47.6148 465.964
2772 0 72.1536 14.9403 1078 89.2811 47.7634 460.435
2773 0 74.5176 14.1443 1054 89.851 48.2002 462.792
2774 0 79.1084 16.2056 1282 87.8034 49.6825 462.603
2775 0 78.1656 8.40523 657 95.3029 49.8432 465.312
2776 0 83.33 8.94035 745 95.847 50.0993 454.762
2777 0 86.1127 12.8785 1109 91.5924 49.8611 464.514
2778 0 91.4677 17.3285 1585 86.67 48.6631 465.081
2779 0 91.3774 17.2909 1580 87.4975 48.45 452.718
2780 0 92.4995 9.97843 923 94.428 47.3261 449.187
2781 0 95.361 10.0985 963 95.5535 46.7342 447.809
2782 0 97.5162 9.27026 904 94.5111 46.6239 450.28
2783 0 97.3566 13.1784 1283 90.5191 46.3811 451.804
2784 0 107.241 11.255 1207 92.8467 45.7572 443.162
2785 1 55.0684 16.8336 927 83.3074 44.1521 475.218
2786 0 62.4298 21.9126 1368 80.413 44.1265 471.311
2787 0 57.1756 10.6164 607 92.8072 45.1928 474.674
2788 0 63.1028 14.1198 891 88.8451 44.853 473.801
2789 0 65.1158 13.4683 877 88.4561 44.0616 466.618
2790 0 67.1163 15.4508 1037 86.8014 43.081 466.794
2791 0 67.1764 13.8739 932 89.2543 43.6567 465.851
2792 0 71.1844 15.7338 1120 86.8411 42.3116 464.45
2793 0 75.6263 20.4294 1545 82.0751 41.8421 467.666
2794 0 74.1426 13.9191 1032 88.9234 43.0901 456.656
2795 0 77.1908 13.5379 1045 89.667 43.067 455.27
2796 0 81.3798 13.6398 1110 88.564 43.0405 451.337
2797 0 89.7577 23.4743 2107 80.5477 42.374 454.735
2798 0 90.5334 14.9337 1352 85.4675 43.7189 462.007
2799 0 91.6414 17.9831 1648 85.9187 43.8805 446.84
2800 1 46.03 9.36347 431 92.942 45.7285 466.838
2801 0 55.2742 15.794 873 83.3402 45.5189 474.707
2802 0 51.1762 13.1311 672 89.7455 46.3854 463.598
2803 0 54.0998 14.9908 811 89.4908 46.8027 467.776
2804 0 57.0862 14.2591 814 90.43 47.5467 465.768
2805 0 55.1988 8.46033 467 97.1328 50.0021 465.773
2806 0 56.1244 11.0291 619 96.2827 48.0646 461.538
2807 0 59.0522 15.7657 931 90.7121 49.1676 462.724
2808 0 63.0665 17.9969 1135 88.9762 49.3551 458.135
2809 0 60.1725 10.4367 628 97.2834 50.7245 461.715
2810 0 63.2424 11.6061 734 96.7098 50.9196 458.09
2811 0 65.1256 12.9135 841 95.3948 50.5696 458.624
2812 0 67.3241 11.6155 782 95.9859 50.7161 462.614
2813 0 72.0976 13.0517 941 94.1041 51.6567 460.903
2814 0 72.2005 14.0581 1015 94.5054 51.4837 455.139
2815 0 77.2154 13.417 1036 94.4218 51.0357 458.955
2816 0 76.3 14.9934 1144 92.9624 50.8094 455.636
2817 0 80.8186 18.5353 1498 88.6709 50.249 455.836
2818 0 81.2901 14.11 1147 92.7986 51.5928 458.872
2819 0 84.2789 19.1032 1610 87.705 50.1683 455.412
2820 0 87.1381 14.5975 1272 91.3758 50.4088 458.168
2821 0 90.3287 20.0047 1807 84.0891 49.0089 463.046
2822 0 94.4778 19.1791 1812 85.8217 49.1849 457.094
2823 0 95.7234 15.9209 1524 89.2848 48.2493 452.24
2824 0 100.77 13.2281 1333 90.2716 48.3758 457.867
2825 0 105.759 18.6745 1975 85.879 47.9301 457.316
2826 0 105.751 15.2056 1608 90.7767 47.4024 449.512
2827 0 107.503 17.8228 1916 87.4911 46.7364 445.604
2828 0 107.569 12.1596 1308 93.0153 46.2898 445.088
2829 0 117.037 15.3542 1797 88.3595 44.7101 450.193
2830 0 119.523 12.483 1492 91.9363 45.376 444.296
2831 1 60.7238 11.1159 675 92.2474 45.6681 472.831
2832 0 63.4696 16.4803 1046 87.8547 42.5 472.689
2833 0 64.4222 16.6713 1074 88.0009 41.2309 469.044
2834 0 64.3528 13.6746 880 91.7455 41.1068 462.772
2835 0 69.4068 24.7526 1718 81.9494 40.6519 467.774
2836 0 69.2135 15.7773 1092 89.4258 40.5229 463.801
2837 0 72.46 15.7328 1140 90.2579 40.564 457.353
2838 0 79.5318 22.6073 1798 83.5673 41.6719 456.93
2839 0 79.7591 22.6808 1809 83.7866 41.3881 457.273
2840 0 77.4888 12.9567 1004 93.6205 42.0349 449.051
2841 0 83.6284 18.2593 1527 88.2207 41.7584 450.767
2842 0 84.2874 15.0319 1267 90.202 42.6385 447.178
2843 0 84.2874 15.0319 1267 131.5 43.6014 447.162
2844 0 85.3103 12.7652 1089 93.2782 41.6116 437.099
2845 0 99.0461 26.8562 2660 80.415 42.4959 444.688
2846 0 92.4125 28.1456 2601 81.9243 43.4429 434.535
2847 0 95.2719 22.8189 2174 85.8997 44.8652 435.304
2848 0 100.437 13.2621 1332 93.6464 45.2485 431.756
2849 0 106.463 17.0576 1816 89.7759 46.1322 433.646
2850 0 109.603 18.0743 1981 89.2135 46.7198 433.065
2851 0 113.536 27.2512 3094 82.212 47.0255 424.288
2852 0 115.481 16.9984 1963 90.6495 48.3225 423.526
2853 1 61.2403 14.337 878 89.4841 48.4544 450.928
2854 0 58.3273 19.3048 1126 85.0275 48.6652 459.206
2855 0 65.1087 13.2855 865 89.2023 48.4347 449.703
2856 0 68.397 11.3601 777 90.148 47.9382 457.636
2857 0 73.3021 14.6244 1072 86.916 49.5588 457.828
2858 0 71.4262 13.8325 988 88.7925 49.3279 453.075
2859 0 74.2271 14.4287 1071 87.943 49.6246 458.863
2860 0 80.6464 14.5698 1175 87.3208 49.7047 458.788
2861 0 82.5148 9.58616 791 93.6764 49.7168 449.901
2862 0 81.2139 11.402 926 92.4266 49.77 456.544
2863 0 85.4351 16.7027 1427 85.4744 48.9762 466.367
2864 0 85.353 19.3432 1651 86.3828 48.9903 458.958
2865 0 92.435 23.9952 2218 83.2795 48.5027 454.671
2866 0 94.4882 19.2088 1815 87.6986 48.8033 454.154
2867 0 98.3741 19.4258 1911 87.6353 47.9922 452.13
2868 0 103.329 22.7234 2348 85.77 48.0354 450.571
2869 0 107.501 16.2882 1751 93.2182 48.3381 457.627
2870 0 106.494 15.1652 1615 94.4941 47.2142 447.848
2871 0 114.571 16.697 1913 90.7857 45.2849 451.17
2872 1 56.0994 13.3156 747 89.3548 45.2236 474.265
2873 0 59.9397 17.5343 1051 87.3682 44.2664 474.046
2874 0 62.2772 20.3124 1265 86.166 44.1478 466.398
2875 0 65.1337 22.0316 1435 84.262 43.1944 474.209
2876 0 66.2889 15.538 1030 90.1709 42.7262 469.183
2877 0 71.2217 15.5851 1110 90.7901 42.4081 465.432
2878 0 71.3244 14.6514 1045 92.5837 42.2335 465.439
2879 0 72.551 14.0866 1022 93.636 41.729 461.044
2880 0 76.4202 14.5773 1114 93.9776 42.5018 454.193
2881 0 74.3036 13.6602 1015 95.7714 41.7498 454.989
2882 0 73.208 15.3262 1122 93.7736 42.0071 457.887
2883 0 79.2629 16.8301 1334 91.6477 40.9573 455.673
2884 0 83.3184 17.8472 1487 92.3584 42.0982 450.818
2885 0 87.428 19.6619 1719 89.9156 42.8144 451.796
2886 0 91.5804 19.7859 1812 90.7285 43.2103 445.06
2887 0 88.2592 14.6954 1297 96.3069 42.303 442.954
2888 0 95.4705 15.5231 1482 95.8603 43.3117 441.094
2889 0 98.3809 17.0765 1680 94.631 43.878 434.076
2890 0 98.1651 14.9951 1472 98.0523 44.4001 434.407
2891 0 102.313 17.7006 1811 92.275 45.1126 444.605
2892 0 108.694 16.4315 1786 95.047 46.1002 437.488
2893 0 107.53 15.7631 1695 97.1717 46.7009 434.817
2894 0 114.6 18.4468 2114 92.8529 46.1074 437.755
2895 1 61.3859 11.387 699 99.7926 47.0973 457.515
2896 0 61.2089 14.8835 911 93.9232 48.1932 453.98
2897 0 67.2432 13.8007 928 96.6369 48.0614 454.711
2898 0 71.6096 15.6823 1123 92.4167 48.3589 459.986
2899 0 70.4163 16.3172 1149 93.6057 47.9887 455.427
2900 0 73.1671 18.7243 1370 91.0905 48.6861 456.003
2901 0 76.4388 18.9956 1452 91.2776 49.604 457.041
2902 0 79.2991 16.154 1281 94.4692 49.256 451.335
2903 0 79.3915 16.0219 1272 94.3695 50.1187 453.506
2904 0 79.3358 21.6674 1719 90.1286 49.7842 453.721
2905 0 86.2886 17.0011 1467 94.7546 49.544 451.436
2906 0 88.224 12.899 1138 99.1248 49.5879 453.399
2907 0 94.4381 19.166 1810 91.7022 49.7674 457.029
2908 0 95.3334 13.6783 1304 99.7791 48.8796 447.758
2909 0 96.2288 11.9091 1146 101.866 49.4058 446.869
2910 0 105.264 18.6958 1968 93.5056 49.127 453.996
2911 1 60.2813 14.8471 895 94.7318 47.7844 476.778
2912 0 61.1547 11.0539 676 99.6967 47.1464 472.145
2913 0 60.1242 14.2538 857 97.3629 46.2952 470.888
2914 0 61.1608 12.4099 759 99.274 44.8445 473.1
2915 0 62.1182 12.8143 796 99.5904 44.6332 472.173
2916 0 65.2764 14.2624 931 96.9066 43.3383 471.672
2917 0 72.1365 12.9338 933 97.2186 43.7417 470.772
2918 0 72.1368 14.9161 1076 96.0846 43.2203 469.97
2919 0 73.1359 18.7186 1369 93.9868 42.7546 462.098
2920 0 73.1357 16.0797 1176 97.159 42.5476 460.342
2921 0 77.1147 17.7917 1372 95.4723 42.4424 462.208
2922 0 77.4014 13.4494 1041 101.772 42.1585 458.045
2923 0 79.3263 16.804 1333 97.6234 41.9925 460.506
2924 0 81.8745 14.5466 1191 101.713 42.1545 456.39
2925 0 85.4632 22.0563 1885 91.6552 41.7411 460.234
2926 0 94.2554 15.6914 1479 98.8661 43.2022 451.785
2927 0 92.7241 18.0212 1671 98.547 42.0515 441.078
2928 0 93.1783 14.9176 1390 100.836 42.3439 450.575
2929 0 101.396 14.9512 1516 99.9921 42.6187 445.823
2930 0 102.251 18.0244 1843 97.6408 43.0494 442.417
2931 0 104.313 13.3061 1388 103.568 44.5043 435.431
2932 1 66.1276 20.6873 1368 90.3823 44.125 458.44
2933 0 65.1935 14.618 953 96.4701 44.1091 461.636
2934 0 65.0672 11.7724 766 101.856 44.8029 454.906
2935 0 65.1029 12.7337 829 100.328 45.7189 459.31
2936 0 68.1611 14.5244 990 98.2808 46.2535 455.914
2937 0 72.2964 14.648 1059 98.7875 46.8008 454.28
2938 0 72.3573 13.613 985 99.5797 47.1188 455.28
2939 0 72.1993 12.3962 895 102.189 48.0626 451.42
2940 0 77.2084 15.2445 1177 98.4053 48.2252 453.519
2941 0 77.2942 15.0464 1163 99.3895 48.5658 451.617
2942 0 79.1809 18.2494 1445 94.5543 48.9163 457.598
2943 0 85.3411 22.5214 1922 90.1394 49.218 456.021
2944 0 84.2416 14.7077 1239 100.25 49.7167 451.586
2945 0 89.2138 22.1042 1972 91.0112 49.787 456.279
2946 0 93.9067 19.1041 1794 91.4727 49.1499 461.782
2947 0 93.2035 15.9651 1488 98.3401 49.6747 454.348
2948 0 96.3994 14.191 1368 100.841 49.4905 451.406
2949 0 98.2574 13.7903 1355 102.06 48.814 449.601
2950 0 102.263 15.9295 1629 98.7753 49.1093 451.225
2951 0 105.301 16.4482 1732 98.4908 48.7494 450.719
2952 1 58.2677 13.1462 766 101.013 47.6632 472.388
2953 0 57.1184 8.6312 493 105.915 47.6714 474.134
2954 0 59.0994 12.0644 713 101.742 48.0098 473.252
2955 0 64.2015 14.3299 920 97.8522 46.625 471.146
2956 0 63.1393 12.5279 791 103.454 46.7636 470.684
2957 0 67.1372 13.9863 939 101.671 45.0245 467.961
2958 0 71.1431 14.2108 1011 101.317 45.998 466.757
2959 0 71.2345 12.4378 886 104.19 44.719 462.389
2960 0 72.1 14.577 1051 101.741 44.8468 462.298
2961 0 75.1545 13.7849 1036 103.044 43.8813 462.185
2962 0 75.2482 9.96702 750 108.721 44.7813 460.991
2963 0 81.3126 18.927 1539 96.7238 43.6556 459.352
2964 0 82.2431 13.5087 1111 103.95 43.3177 454.876
2965 0 86.3404 19.7822 1708 96.7301 42.9947 455.235
2966 0 87.1776 14.1321 1232 102.838 42.6989 456.21
2967 0 86.2791 14.7428 1272 103.484 42.8318 451.655
2968 0 94.3002 16.6171 1567 100.524 42.4365 448.153
2969 0 97.4578 13.3801 1304 104.115 43.0836 448.171
2970 0 97.2944 12.3131 1198 106.167 41.9265 446.844
2971 0 102.431 12.34 1264 105.657 43.5047 445.769
2972 0 107.346 13.6754 1468 103.674 42.5599 440.775
2973 0 107.371 13.784 1480 103.78 43.0203 439.594
2974 0 113.667 16.3899 1863 99.825 44.0531 433.261
2975 0 114.303 17.7773 2032 94.1811 43.4764 439.115
2976 0 117.285 13.0793 1534 101.517 45.6089 429.447
2977 1 67.2434 14.8119 996 95.5402 45.9317 456.114
2978 0 69.2239 13.8103 956 97.1569 47.5596 453.97
2979 0 71.331 13.15 938 97.7612 47.8294 453.468
2980 0 73.1174 16.1795 1183 96.1285 48.0659 450.641
2981 0 75.0452 14.2581 1070 97.9701 48.5738 453.806
2982 0 78.5138 13.0932 1028 99.7704 48.9864 453.859
2983 0 81.3842 14.4868 1179 97.5174 49.4945 456.163
2984 0 81.2287 8.82693 717 104.259 49.4463 454.662
2985 1 157.921 16.6096 2623 98.6981 49.9527 419.349
2986 1 91.6343 22.1205 2027 90.2699 49.9186 449.49
2987 0 90.2779 12.7163 1148 100.182 51.128 449.689
2988 0 93.4074 13.9175 1300 99.7338 50.8569 450.043
2989 0 97.3858 17.3434 1689 95.7241 50.8976 451.606
2990 0 97.3739 12.3236 1200 101.917 51.31 449.274
2991 0 98.5277 8.69806 857 106.445 51.0198 450.505
2992 0 103.459 16.5573 1713 96.8482 49.6766 450.139
2993 0 108.432 14.6544 1589 100.066 50.3361 448.195
2994 0 111.605 13.3865 1494 101.872 50.4224 447.119
2995 0 116.512 12.4794 1454 101.908 49.4574 451.51
2996 0 119.535 18.5469 2217 95.9865 49.4939 449.41
2997 1 66.1874 12.2531 811 100.358 48.0345 474.535
2998 0 68.0734 15.1895 1034 97.7911 47.5774 473.929
2999 0 72.139 12.7947 923 98.9794 48.0141 475.445
3000 0 71.2577 10.7778 768 99.875 46.6562 475.345
3001 0 75.1439 17.8591 1342 93.038 46.0462 471.755
3002 0 75.2594 12.1181 912 100.253 46.0318 468.627
3003 0 81.3516 13.5707 1104 97.4565 46.1096 467.924
3004 0 81.2873 17.4935 1422 94.5324 44.7089 465.603
3005 0 86.1946 11.0332 951 101.991 44.3039 465.547
3006 0 86.346 16.2602 1404 96.5691 44.1645 462.091
3007 0 88.5657 18.0092 1595 95.4828 42.9448 456.648
3008 0 93.457 14.1883 1326 99.1644 42.9314 460.382
3009 0 89.5504 14.3941 1289 102.031 41.9193 451.569
3010 0 95.4405 15.9157 1519 98.9309 42.7294 456.523
3011 0 93.2644 13.3599 1246 103.835 42.7865 453.388
3012 0 102.618 17.7064 1817 98.1497 41.8316 446
3013 0 105.562 15.3748 1623 100.908 42.1565 447.963
3014 0 106.716 15.7989 1686 100.789 42.4484 443.647
3015 0 109.838 17.6077 1934 97.8185 42.5776 439.98
3016 0 112.647 15.0381 1694 98.6476 43.268 438.777
3017 0 116.517 21.4991 2505 91.9437 43.1293 436.248
3018 1 62.1214 11.719 728 99.2967 45.7115 456.794
3019 0 70.4965 16.9086 1192 91.4111 43.8398 459.402
3020 0 70.1981 14.8722 1044 94.2261 45.842 457.409
3021 0 72.1072 14.4368 1041 94.7541 46.5476 456.756
3022 0 74.2647 14.6772 1090 95.2881 47.5193 454.83
3023 0 76.1307 13.2404 1008 96.4296 47.9603 456.766
3024 0 77.2022 14.4037 1112 98.446 48.4397 447.438
3025 0 82.2233 16.8809 1388 97.245 47.8761 458.254
3026 0 86.2866 14.4634 1248 100.326 49.5769 456.171
3027 0 84.2318 16.3715 1379 99.7919 49.3212 449.5
3028 0 91.1516 20.3507 1855 94.7693 49.9439 451.694
3029 0 94.2553 20.0519 1890 94.9307 49.0751 453.683
3030 0 94.5003 13.947 1318 102.678 49.8877 445.907
3031 0 99.2674 20.883 2073 94.7183 49.493 449.73
3032 0 102.321 15.0017 1535 99.8078 49.1583 451.817
3033 1 52.183 10.2141 533 101.189 49.1238 470.739
3034 0 55.1778 11.2183 619 100.199 48.4055 473.766
3035 0 58.4032 11.7973 689 97.553 46.8302 472.948
3036 0 59.2443 16.5417 980 92.8663 46.748 473.099
3037 0 62.2076 12.619 785 97.4408 49.7592 473.597
3038 0 64.1806 14.989 962 92.896 49.7037 479.009
3039 0 65.2141 14.9661 976 93.9232 49.1844 475.854
3040 0 65.1347 15.8287 1031 93.8215 49.5102 474.291
3041 0 67.1039 13.4716 904 95.9912 48.2389 469.019
3042 0 76.412 14.1339 1080 93.538 48.6389 472.137
3043 0 74.2092 15.4563 1147 92.7332 46.952 465.979
3044 0 79.3389 18.5281 1470 88.6946 46.0966 470.535
3045 0 77.1885 13.3699 1032 94.6415 44.9835 464.244
3046 0 81.3899 12.5323 1020 95.4147 45.3206 466.722
3047 0 82.1774 15.8073 1299 91.9176 44.2456 454.958
3048 0 89.4407 17.5424 1569 90.1931 43.0644 458.518
3049 0 92.282 19.6138 1810 88.0409 42.7508 457.192
3050 0 90.5376 13.2431 1199 94.8357 42.5379 454.368
3051 0 93.4171 11.1757 1044 96.6082 41.5594 456.89
3052 0 97.3049 12.6407 1230 95.6545 41.8707 454.253
3053 0 101.551 12.9295 1313 95.5278 41.7921 448.583
3054 1 58.3323 17.9317 1046 87.7925 41.7199 474.99
3055 0 60.7184 13.0603 793 92.28 41.7982 473.565
3056 0 63.2029 14.762 933 92.4148 41.776 467.748
3057 0 60.0587 11.0558 664 96.009 42.5346 469.408
3058 0 62.2118 16.4599 1024 91.6289 43.207 464.661
3059 0 67.175 17.6256 1184 89.0464 43.4772 468.171
3060 0 70.1292 10.7231 752 97.5386 43.3963 458.347
3061 0 80.1701 20.2569 1624 84.8177 43.7605 465.9
3062 0 76.1027 25.1634 1915 83.5702 42.4178 460.938
3063 0 75.3025 16.7989 1265 91.1708 44.3794 453.526
3064 0 80.7832 18.8282 1521 88.7239 45.146 455.82
3065 0 84.2218 17.7864 1498 90.3004 45.2096 451.571
3066 0 85.2439 13.5728 1157 94.4935 46.8954 451.663
3067 0 88.3564 18.5951 1643 89.143 46.4114 454.044
3068 0 91.5282 14.5857 1335 92.2442 47.179 456.309
3069 0 93.1302 20.6915 1927 88.2024 47.261 451.156
3070 0 99.1664 16.3664 1623 91.8521 47.9033 451.369
3071 0 99.3356 23.5666 2341 85.9667 47.085 454.13
3072 0 100.466 13.6863 1375 96.5687 47.8029 445.569
3073 0 104.351 13.9146 1452 97.1873 48.2424 447.269
3074 0 108.276 13.5857 1471 96.9925 47.9864 450.583
3075 0 111.551 15.8761 1771 94.1197 48.7826 448.122
3076 1 62.2875 12.5065 779 95.2195 47.7407 474.671
3077 0 65.467 18.1007 1185 87.5283 46.0321 476.213
3078 0 64.4626 8.65618 558 97.5502 46.6272 473.326
3079 0 71.3785 17.0359 1216 88.31 45.6521 468.739
3080 0 68.5498 18.0015 1234 87.0097 45.953 475.999
3081 0 73.2183 15.1465 1109 90.3138 44.569 471.44
3082 0 78.105 13.4947 1054 91.5218 45.0854 472.116
3083 0 78.1976 11.5732 905 92.7271 44.1823 474.239
3084 0 81.2435 14.3519 1166 89.8362 43.8859 472.729
3085 0 80.2852 13.9752 1122 91.7665 43.1257 465.261
3086 0 84.4031 11.8953 1004 90.5857 43.0179 475.426
3087 0 86.231 13.8581 1195 92.3791 41.9992 460.813
3088 0 89.2465 14.2639 1273 92.3346 41.1563 459.25
3089 0 93.2378 13.8141 1288 91.8377 40.7717 461.428
3090 0 101.455 16.3127 1655 89.3976 40.6308 453.888
3091 0 95.1122 8.327 792 98.3295 40.4899 452.543
3092 0 106.51 16.1956 1725 89.0371 39.6557 459.016
3093 1 55.1036 11.5056 634 92.8991 37.7524 476.899
3094 0 58.1315 12.0589 701 91.9857 38.0128 471.922
3095 0 60.373 10.1867 615 93.7919 39.3919 467.304
3096 0 62.2034 13.4398 836 87.1567 37.756 466.9
3097 0 65.2788 14.2619 931 86.8915 38.261 465.975
3098 0 64.3378 10.5537 679 91.6244 39.0943 466.554
3099 0 68.2644 11.3529 775 91.191 40.089 469.51
3100 0 71.3754 13.464 961 88.0541 39.4724 462.588
3101 0 79.43 18.3935 1461 83.1478 39.9329 458.674
3102 0 80.6791 28.1981 2275 77.3336 40.5253 459.633
3103 0 81.2609 28.1193 2285 77.8783 40.6236 459.888
3104 0 80.5312 15.3357 1235 86.4421 40.783 461.406
3105 0 86.5072 19.3048 1670 83.906 41.6437 455.439
3106 0 84.2878 13.5251 1140 88.7149 41.6851 455.386
3107 0 84.1447 15.1881 1278 86.5008 42.3709 461.746
3108 0 88.2101 10.9398 965 91.0041 42.8135 454.915
3109 0 94.6131 14.2052 1344 88.8616 43.5074 450.875
3110 0 96.2941 19.8766 1914 84.9577 44.2252 447.642
3111 0 94.1865 9.96958 939 93.5612 45.2961 447.462
3112 0 103.297 16.1669 1670 86.5078 44.7084 454.957
3113 0 104.449 14.16 1479 88.3137 46.1643 456.136
3114 1 55.4312 11.9247 661 89.2375 46 466.443
3115 0 59.2317 10.0284 594 90.7845 46.6717 459.906
3116 0 59.1682 6.70968 397 92.4887 45.0529 468.086
3117 0 65.2939 13.2172 863 90.6501 45.2781 473.592
3118 0 69.4123 16.7117 1160 88.3 44.431 469.934
3119 0 71.2157 16.2464 1157 89.2429 45.7372 472.344
3120 0 72.1377 11.1592 805 96.0348 44.9292 465.933
3121 0 77.2656 15.7638 1218 90.2373 44.7479 471.924
3122 0 77.2401 18.449 1425 89.0414 44.9053 464.886
3123 0 81.125 16.3328 1325 90.6883 44.4249 468.141
3124 0 80.3104 11.8042 948 96.346 44.0654 468.473
3125 0 82.2174 14.7292 1211 93.7242 43.0355 466.709
3126 0 88.1181 20.9038 1842 87.683 44.0347 467.176
3127 0 90.1032 20.7207 1867 88.1237 43.5581 463.777
3128 0 95.1235 16.6205 1581 90.6705 43.2448 468
3129 0 97.4965 18.7289 1826 89.5263 41.8927 465.436
3130 0 99.1727 11.8984 1180 96.1085 41.3322 463.027
3131 0 97.2756 12.0996 1177 95.8267 40.3093 461.142
3132 0 104.113 12.2656 1277 95.8598 39.78 455.543
3133 0 107.241 18.3791 1971 87.5576 40.2425 460.212
3134 0 113.686 15.358 1746 91.488 39.9519 449.986
3135 0 117.814 18.6226 2194 88.1021 38.6149 452.127
3136 1 170.484 11.6902 1993 96.9824 39.1706 421.068
3137 0 180.388 19.6909 3552 88.5994 39.0256 425.96
3138 1 244.284 16.8984 4128 95.6793 39.4804 380.259
3139 1 193.181 19.6086 3788 90.5546 39.5599 418.894
3140 1 72.4479 12.9472 938 89.1919 39.4446 457.982
3141 0 71.3268 15.0434 1073 87.2181 39.5433 461.274
3142 0 77.2151 11.7723 909 89.6216 39.1639 456.116
3143 0 78.3727 18.5269 1452 84.9298 39.6061 454.326
3144 0 74.1548 10.3567 768 91.9857 39.1667 454.803
3145 0 76.392 15.7608 1204 88.2475 40.8837 449.888
3146 0 86.5245 13.9151 1204 88.9444 40.206 445.605
3147 0 89.6959 23.1895 2080 82.0514 40.8812 444.326
3148 0 90.3984 14.1817 1282 89.592 41.4126 444.112
3149 0 93.2572 9.9188 925 92.1784 41.4422 447.375
3150 0 101.277 9.0445 916 93.6703 42.941 444.046
3151 1 57.2883 13.8423 793 86.4477 42.8953 465.153
3152 0 56.4032 12.9957 733 87.5157 42.0327 465.3
3153 0 59.0798 13.9134 822 87.0547 43.2202 462.624
3154 0 62.0335 7.78612 483 92.7122 43.236 462.768
3155 0 68.0351 14.081 958 86.9791 43.6733 461.591
3156 0 63.1424 9.34396 590 91.4898 44.2729 465.798
3157 0 69.109 16.4812 1139 84.5294 44.2888 468.814
3158 0 70.1464 15.8668 1113 85.8203 44.4933 466.017
3159 0 73.485 13.6491 1003 86.2193 44.1874 468.842
3160 0 77.3346 16.7066 1292 83.8034 44.959 468.933
3161 0 80.3957 14.3913 1157 85.529 44.7148 467.224
3162 0 79.2338 9.81904 778 90.8548 44.8625 466.185
3163 0 83.1709 15.4862 1288 86.1894 45.354 462.547
3164 0 86.145 17.575 1514 84.8672 45.0119 456.738
3165 0 90.2372 16.368 1477 85.8856 45.2532 459.973
3166 0 90.2323 14.2854 1289 88.339 45.2351 463.08
3167 0 96.1704 16.138 1552 86.7036 44.7771 463.499
3168 0 98.1813 16.276 1598 86.0926 44.7159 463.253
3169 0 103.258 15.8245 1634 86.8213 44.6628 464.069
3170 0 102.339 14.5302 1487 89.4075 44.8655 454.452
3171 0 108.434 15.3366 1663 88.7523 43.205 454.07
3172 0 114.585 20.151 2309 84.89 42.3452 454.75
3173 0 115.348 16.6799 1924 87.6019 41.894 457.135
3174 0 116.398 14.5364 1692 90.2961 42.6767 450.035
3175 0 123.471 15.0886 1863 90.1181 41.4289 448.882
3176 0 125.941 13.4667 1696 91.2559 42.1816 446.205
3177 0 131.721 18.4253 2427 86.9192 41.4969 445.543
3178 0 134.416 13.8302 1859 92.4368 41.2598 432.306
3179 0 139.644 18.3251 2559 87.1555 40.5209 441.936
3180 0 147.089 16.2283 2387 88.2895 41.4432 440.403
3181 0 150.571 16.0124 2411 89.9544 41.1083 430.63
3182 0 157.709 18.6038 2934 86.5314 40.409 435.499
3183 0 157.709 18.7243 2953 137.187 38.3942 435.547
3184 0 148.651 7.39988 1100 95.6009 40.5782 435.067
3185 0 145.472 13.1228 1909 92.8664 38.9764 437.386
3186 1 95.4101 16.3924 1564 90.2001 38.4725 441.127
3187 0 98.7183 14.3844 1420 91.4542 38.9324 443.892
3188 0 99.3701 22.5923 2245 83.5982 39.4526 451.621
3189 0 102.701 19.4058 1993 87.9558 39.4144 441.589
3190 0 108.161 17.4461 1887 89.1526 39.5808 443.172
3191 0 106.685 18.1187 1933 90.0471 40.896 436.094
3192 0 113.88 22.6027 2574 84.3244 40.9328 441.979
3193 0 115.532 19.4491 2247 88.0285 42.0383 433.336
3194 0 118.581 14.9265 1770 92.8531 42.2424 428.748
3195 0 122.469 19.1396 2344 89.7543 43.2432 423.956
3196 0 122.411 12.2456 1499 97.433 42.9013 425.836
3197 1 74.8501 16.0053 1198 87.5058 42.8289 466.199
3198 0 71.2633 7.80205 556 98.5378 42.6493 457.345
3199 0 73.3347 12.7225 933 88.7974 44.403 459.681
3200 0 79.3542 16.2058 1286 86.9868 45.1641 456.865
3201 0 77.185 9.75578 753 93.3506 45.0797 442.62
3202 0 84.9192 16.9102 1436 84.1351 45.5153 459.639
3203 0 86.522 10.8758 941 92.7248 45.0064 445.642
3204 0 94.837 17.5459 1664 86.0288 45.1935 448.713
3205 0 94.512 16.6751 1576 86.9829 46.4448 451.147
3206 0 97.6164 11.5349 1126 92.4725 44.9547 445.22
3207 0 99.5939 14.8503 1479 88.9222 45.9026 451.447
3208 0 102.188 13.8568 1416 88.8969 45.6801 454.12
3209 0 105.476 11.6614 1230 92.4805 45.7634 442.907
3210 0 111.461 18.9394 2111 85.4524 44.6992 452.775
3211 0 112.631 19.4884 2195 85.3271 44.9308 455.576
3212 0 120.743 20.4566 2470 84.1781 45.1061 449.076
3213 1 70.8647 16.341 1158 83.6969 45.1848 474.476
3214 0 72.1698 14.6322 1056 85.1354 44.6231 473.725
3215 0 71.5162 15.5769 1114 86.3465 43.1831 471.558
3216 0 71.4397 13.046 932 88.6642 41.7854 467.01
3217 0 80.2173 19.4596 1561 82.8136 42.1102 470.217
3218 0 74.2596 13.0892 972 89.4712 40.7088 465.187
3219 0 77.2298 11.6406 899 90.8031 40.7175 468.354
3220 0 81.4247 19.6255 1598 83.7622 40.3198 462.992
3221 0 86.8095 24.9627 2167 80.1504 39.8482 462.913
3222 0 85.582 12.6078 1079 89.7396 38.5968 466.16
3223 0 89.3009 16.7076 1492 86.5127 38.2292 460.912
3224 0 93.2171 16.9389 1579 85.6795 38.9202 466.994
3225 0 92.3169 17.7216 1636 87.1076 38.4303 459.322
3226 0 94.4076 10.2428 967 93.8625 39.7787 460.575
3227 0 99.5839 19.2802 1920 86.9969 38.9453 452.676
3228 0 99.1625 15.9032 1577 90.4857 39.6113 449.393
3229 0 103.351 20.0578 2073 86.7974 39.6179 452.678
3230 0 107.854 15.1965 1639 91.3838 40.9725 441.174
3231 0 105.334 14.5158 1529 90.7076 40.968 449.933
3232 1 115.743 25.1246 2908 83.9543 40.739 436.685
3233 0 118.28 16.2496 1922 91.2222 41.7373 439.107
3234 0 123.519 19.2197 2374 87.8804 41.9524 437.25
3235 1 67.3725 16.8615 1136 85.5827 42.588 464.342
3236 0 69.7231 14.1703 988 87.1316 43.1093 460.136
3237 0 73.3645 14.4348 1059 87.542 44.2568 457.11
3238 0 72.8307 12.632 920 90.1728 44.563 454.387
3239 0 77.5646 15.5097 1203 87.4123 44.7589 454.298
3240 0 79.4828 16.0412 1275 88.3051 44.4745 452.828
3241 0 80.5129 14.4449 1163 90.0714 44.9527 454.585
3242 0 87.7762 23.0928 2027 82.6798 45.6892 450.947
3243 0 90.8601 16.608 1509 86.7614 46.6594 452.71
3244 0 90.6909 15.4481 1401 88.7116 46.5225 453.779
3245 0 91.3594 23.0299 2104 83.481 46.7923 455.288
3246 0 95.8798 17.2299 1652 87.3214 46.1289 452.807
3247 0 95.5521 13.6365 1303 92.1144 47.4014 448.709
3248 0 101.683 23.3471 2374 84.4705 46.8357 445.142
3249 0 103.129 12.0529 1243 92.8335 47.2253 452.526
3250 0 105.545 14.1172 1490 91.4859 47.0094 452.065
3251 0 110.701 16.9555 1877 89.9984 46.0527 444.442
3252 0 114.816 16.4698 1891 89.7668 46.9445 446.457
3253 0 119.13 16.3266 1945 88.8915 46.3702 449.442
3254 0 124.783 11.4278 1426 94.7868 46.8415 441.494
3255 1 72.7629 13.0973 953 93.6065 46.5257 463.962
3256 0 77.7473 18.7917 1461 88.5462 46.5024 462.22
3257 0 82.663 15.3999 1273 91.8075 46.1406 460.216
3258 0 79.997 15.5131 1241 90.6285 45.3489 461.741
3259 0 82.7501 22.8761 1893 86.6466 44.7876 451.04
3260 0 88.7628 18.1608 1612 90.0242 45.2227 453.356
3261 0 86.6677 18.3806 1593 89.6792 44.4614 453.517
3262 0 93.6748 16.5146 1547 90.3445 44.5339 452.221
3263 0 95.647 18.4533 1765 89.2912 43.247 445.674
3264 0 98.646 19.0479 1879 88.355 42.4572 448.809
3265 0 100.679 16.8556 1697 90.6011 41.9988 443.509
3266 0 104.57 21.268 2224 86.2217 41.8844 448.906
3267 0 108.034 17.1335 1851 90.3522 41.4203 439.453
3268 0 112.009 12.1151 1357 94.5873 41.6522 442.201
3269 0 116.578 16.3239 1903 91.1866 42.5638 437.346
3270 0 120.483 14.9233 1798 93.1846 41.9694 429.97
3271 1 72.04 20.5441 1480 83.6838 41.8486 459.682
3272 0 71.3824 15.1018 1078 89.7579 41.4072 456.18
3273 0 72.4565 10.3648 751 93.4261 42.4114 458.3
3274 0 76.3747 9.89856 756 91.7235 42.5291 464.844
3275 0 78.2821 14.4861 1134 91.1499 43.1049 452.837
3276 0 81.3919 13.9203 1133 89.2083 42.7793 458.154
3277 0 81.308 9.51936 774 96.5323 43.1344 449.592
3278 0 84.4924 12.7822 1080 92.5657 43.0296 451.466
3279 0 87.4058 20.7766 1816 87.0347 43.9235 447.352
3280 0 97.0315 14.1397 1372 91.6509 44.7719 446.174
3281 0 97.5327 14.7233 1436 93.0174 46.5146 436.048
3282 0 98.5677 16.9021 1666 92.8902 46.8722 436.262
3283 0 105.505 13.2789 1401 96.5239 47.3162 436.368
3284 1 63.485 13.4835 856 90.6811 48.7558 464.312
3285 0 59.0933 16.584 980 91.0143 46.9357 458.519
3286 0 62.2702 13.3451 831 94.7196 46.5162 461.473
3287 0 63.4635 18.7825 1192 89.4748 47.0134 462.987
3288 0 66.2906 17.7401 1176 90.8716 47.1905 461.043
3289 0 66.2414 15.6851 1039 93.719 47.6814 457.611
3290 0 71.448 17.3553 1240 90.9339 47.8355 461.258
3291 0 72.6035 15.2748 1109 93.6474 47.0135 458.53
3292 0 72.2215 15.3694 1110 94.7829 47.5649 453.085
3293 0 70.456 13.3701 942 97.6454 47.1783 455.157
3294 0 79.5125 18.8524 1499 91.2388 47.8452 452.959
3295 0 79.2324 14.4133 1142 95.472 47.4518 457.616
3296 0 80.288 15.0707 1210 96.4793 47.3182 449.698
3297 0 84.2842 18.7936 1584 91.935 46.4028 455.593
3298 0 86.2148 19.3238 1666 91.9274 46.7533 452.289
3299 0 87.4481 14.0197 1226 98.4878 46.8279 451.122
3300 0 91.2095 22.9801 2096 88.7428 46.4671 451.781
3301 0 94.1446 15.4656 1456 96.4931 45.2994 445.225
3302 0 95.3348 15.3564 1464 97.293 45.0041 440.587
3303 0 100.163 15.4349 1546 97.3997 45.3874 435.785
3304 0 98.584 14.6068 1440 97.7785 44.9382 444.279
3305 1 61.2688 8.81363 540 99.3667 45.2833 461.196
3306 0 59.1261 16.8961 999 91.1602 44.4545 460.132
3307 0 62.064 14.4528 897 92.9443 44.9075 459.6
3308 0 66.3465 17.0469 1131 90.1211 45.0716 458.183
3309 0 69.2498 12.2888 851 97.309 45.1915 461.07
3310 0 70.1391 13.3164 934 96.636 45.4122 458.259
3311 0 74.2962 15.2229 1131 92.7551 44.9726 462.506
3312 0 76.3002 12.2149 932 97.7833 44.4721 453.446
3313 0 79.5867 14.4999 1154 94.3718 44.4272 456.139
3314 0 80.2468 15.0411 1207 94.8658 45.0572 450.246
3315 0 82.2884 19.3952 1596 89.3559 44.448 453.764
3316 0 84.3491 13.8116 1165 95.0961 45.3648 450.791
3317 0 88.3432 15.2134 1344 93.6481 45.744 443.971
3318 0 91.5626 20.3467 1863 88.7273 44.7772 437.247
3319 0 94.6093 18.0426 1707 90.4774 45.5999 440.899
3320 0 96.4531 18.5064 1785 90.6398 45.591 433.371
3321 0 101.805 14.6948 1496 93.6718 46.1504 436.596
3322 0 102.808 15.388 1582 92.0164 46.2541 441.874
3323 0 105.3 30.1994 3180 81.7849 45.572 431.629
3324 0 106.474 11.1483 1187 97.0792 46.9756 433.827
3325 0 112.547 17.806 2004 90.2545 47.3543 433.787
3326 1 66.2492 10.9435 725 96.1186 48.9324 451.454
3327 0 70.2932 20.0162 1407 86.3476 48.6148 455.364
3328 0 71.3082 13.8974 991 92.4067 48.3824 448.09
3329 0 75.9931 16.6462 1265 88.8103 49.2221 448.213
3330 0 77.3606 14.7879 1144 91.382 49.5393 445.692
3331 0 78.3902 18.8927 1481 87.8211 49.7866 443.872
3332 0 81.5237 17.0257 1388 89.263 48.2572 448.674
3333 0 83.7277 19.659 1646 86.7284 50.0923 450.665
3334 0 90.3619 18.6694 1687 86.4784 50.3817 449.786
3335 0 89.4839 16.7963 1503 90.0659 51.4072 441.338
3336 0 90.4061 13.4394 1215 93.8905 49.4979 443.201
3337 0 96.7541 10.9556 1060 96.2019 49.8509 440.861
3338 0 98.5352 19.252 1897 88.6357 50.145 435.755
3339 0 102.553 17.3081 1775 89.6851 49.5082 441.33
3340 0 105.733 18.6507 1972 87.9199 49.1668 449.966
3341 0 107.448 19.7956 2127 88.8204 48.5275 433.157
3342 0 109.884 20.5125 2254 88.0248 48.4774 440.648
3343 0 120.743 18.7257 2261 88.6316 48.7528 434.532
3344 0 120.629 12.8741 1553 94.3838 48.4656 438.958
3345 0 126.849 14.3478 1820 93.067 47.0544 432.002
3346 1 180.94 21.8913 3961 87.182 46.7044 422.775
3347 0 184.366 14.4821 2670 92.961 45.9783 420.87
3348 1 195.159 13.3891 2613 94.3372 45.7229 413.532
3349 1 77.4212 9.68727 750 93.6627 45.572 458.041
3350 0 81.6258 12.4225 1014 91.8343 44.9211 451.678
3351 0 84.2667 11.0483 931 91.6874 44.6756 456.526
3352 0 88.3597 14.5089 1282 90.039 43.9657 450.57
3353 0 89.646 12.5494 1125 92.7289 44.2187 444.846
3354 0 94.2477 12.5202 1180 91.3585 44.8076 450.153
3355 0 97.6438 12.392 1210 92.0711 44.7388 444.304
3356 0 101.637 13.558 1378 91.9122 44.3041 442.189
3357 0 104.078 16.7566 1744 88.7156 44.5287 442.478
3358 0 104.629 12.3006 1287 93.8982 45.596 440.197
3359 0 109.702 13.4547 1476 93.0928 44.7175 426.182
3360 0 111.783 14.5819 1630 92.8595 45.284 429.833
3361 0 115.78 22.2923 2581 86.3553 44.6222 429.746
3362 0 120.805 15.5622 1880 90.1729 45.8654 436.016
3363 0 121.078 14.1231 1710 93.3614 46.0398 428.626
3364 0 124.904 14.5872 1822 93.5104 47.2371 426.609
3365 0 129.234 17.2478 2229 91.59 47.3019 423.134
3366 0 130.439 21.8493 2850 87.9649 47.8702 421.955
3367 0 136.01 13.749 1870 94.9925 49.4209 423.265
3368 0 139.685 12.5067 1747 96.9525 49.158 418.191
3369 0 145.778 19.2279 2803 91.2116 49.6978 407.887
3370 1 83.2915 16.0761 1339 90.1053 50.584 447.167
3371 0 86.5498 10.9532 948 95.6213 50.7131 445.091
3372 0 88.285 13.2525 1170 93.6641 50.6462 444.363
3373 0 96.5684 16.8896 1631 88.9865 50.2465 445.132
3374 0 97.4462 14.0693 1371 92.2057 50.6309 445.542
3375 0 96.9358 13.349 1294 94.221 50.0726 443.696
3376 0 104.568 13.8474 1448 93.886 50.9088 442.413
3377 0 107.537 17.9566 1931 90.9249 49.9487 432.756
3378 0 110.484 13.8391 1529 95.3689 50.6926 435.485
3379 0 112.587 13.2076 1487 96.5259 49.7518 435.116
3380 0 117.861 15.6031 1839 94.2099 49.7292 437.132
3381 0 125.711 14.3583 1805 94.2321 49.9097 440.819
3382 0 126.648 21.7217 2751 89.4573 48.7626 426.906
3383 1 244.012 20.1629 4920 92.1937 49.0156 390.542
3384 0 250.187 21.7917 5452 91.35 48.8435 368.03
3385 0 258.046 20.3142 5242 92.1587 47.6955 381.385
3386 0 269.965 21.6028 5832 90.5907 47.8729 378.63
3387 0 266.392 16.5358 4405 143.758 46.8783 364.982
3388 1 88.6015 18.0358 1598 86.8242 46.4574 456.23
3389 0 90.8762 13.9641 1269 91.1686 47.3712 450.918
3390 0 92.7158 12.0691 1119 92.0786 46.8079 453.483
3391 0 94.8442 14.8876 1412 90.1487 46.9929 453.433
3392 0 93.6573 14.4783 1356 91.986 45.7802 451.678
3393 0 103.743 17.0807 1772 89.3307 45.7427 448.45
3394 0 108.116 12.1999 1319 94.0569 45.5193 439.647
3395 0 109.8 15.2732 1677 91.2045 44.9857 439.362
3396 0 113.68 22.15 2518 86.6215 44.9357 431.669
3397 0 117.732 18.5591 2185 88.6769 45.038 433.627
3398 0 118.606 12.8914 1529 94.0818 45.7822 429.347
3399 0 120.69 15.4694 1867 89.624 46.0509 437.496
3400 0 128.685 16.4822 2121 89.7393 46.2008 432.406
3401 0 129.585 9.4687 1227 97.6292 45.1956 419.676
3402 0 133.67 13.7353 1836 93.433 45.2446 416.958
3403 0 140.357 18.7521 2632 88.4168 45.2112 419.29
3404 0 149.048 19.7051 2937 87.792 45.4716 413.799
3405 1 82.3525 13.4544 1108 90.7085 47.0226 443.696
3406 0 84.1582 17.8592 1503 84.8576 45.3733 435.465
3407 0 85.4029 14.0159 1197 86.8856 45.8496 434.929
3408 0 89.4839 13.1979 1181 87.9568 46.591 436.872
3409 0 93.4302 11.9448 1116 89.0788 46.6228 430.273
3410 0 95.5011 13.225 1263 88.323 46.4822 430.092
3411 0 98.4887 14.5397 1432 87.4469 47.3827 426.91
3412 0 103.391 16.7035 1727 85.2936 47.0759 437.244
3413 0 105.636 12.4579 1316 90.3108 48.7553 425.536
3414 0 106.626 17.144 1828 88.1887 48.5711 426.78
3415 0 111.718 9.18381 1026 96.8099 50.4747 417.152
3416 0 113.642 13.4722 1531 91.5487 50.6166 430.371
3417 0 117.688 21.88 2575 85.0913 49.605 421.243
3418 0 121.423 18.7609 2278 85.9947 50.1264 433.908
3419 0 124.65 12.0417 1501 93.3664 49.4664 429.315
3420 0 134.561 12.6783 1706 92.765 49.3347 427.583
3421 0 135.496 19.3659 2624 87.3704 49.3251 421.224
3422 0 143.458 23.0659 3309 83.5316 48.4119 431.64
3423 0 144.569 16.2482 2349 90.8868 49.0294 419
3424 1 80.5245 19.137 1541 82.2154 49.085 453.422
3425 0 82.5907 13.6577 1128 86.9716 49.4548 454.502
3426 0 87.68 15.8987 1394 86.3816 48.9498 453.701
3427 0 87.456 17.9976 1574 85.6347 49.5457 456.084
3428 0 94.4271 21.1909 2001 82.1429 49.1314 464.142
3429 0 93.4079 15.8766 1483 88.704 49.7633 453.833
3430 0 94.4152 11.0787 1046 94.9465 47.8776 446.345
3431 0 99.5926 11.5973 1155 94.0926 46.9983 445.554
3432 0 102.645 18.3448 1883 87.8083 46.6665 446.54
3433 0 103.409 12.8325 1327 92.9864 46.7167 449.028
3434 0 104.492 18.2502 1907 88.8353 46.2386 445.561
3435 0 108.516 12.5695 1364 95.121 46.0674 441.239
3436 0 109.823 11.6005 1274 95.8352 44.686 438.244
3437 0 115.813 16.3195 1890 92.1783 44.8582 431.574
3438 0 115.733 13.9113 1610 95.2783 44.0752 426.506
3439 0 123.039 14.5401 1789 94.289 43.4813 426.323
3440 0 125.875 17.8114 2242 91.5437 44.6271 425.847
3441 0 129.983 15.0635 1958 92.69 44.2227 429.755
3442 0 128.982 11.3194 1460 146.125 43.5493 422.762
3443 1 82.1593 12.5975 1035 95.8705 45.3845 441.293
3444 0 83.495 14.935 1247 93.1884 44.9663 446.169
3445 0 90.2618 14.0037 1264 93.7951 46.3774 446.348
3446 0 85.6331 12.8805 1103 95.8903 46.631 440.672
3447 0 91.2316 12.978 1184 95.9992 47.0228 437.674
3448 0 93.3518 18.0179 1682 91.0458 46.846 431.043
3449 0 97.3383 12.9445 1260 96.4143 47.8381 435.24
3450 0 97.3872 18.7807 1829 90.7316 47.661 425.818
3451 0 102.653 14.7488 1514 94.8956 47.1288 430.418
3452 0 99.3426 12.4015 1232 98.3506 47.7273 431.923
3453 0 108.513 14.4315 1566 96.2178 47.4904 428.796
3454 0 110.661 16.6545 1843 94.5437 48.5979 423.344
3455 0 116.582 14.4276 1682 96.6379 48.5238 422.216
3456 0 115.673 18.4139 2130 93.1582 49.1408 424.793
3457 0 117.73 15.1108 1779 97.0455 48.787 415.631
3458 0 124.636 13.1664 1641 98.2779 48.8373 415.427
3459 0 133.711 16.3337 2184 93.3626 48.8104 422.292
3460 0 135.044 25.614 3459 85.5262 49.0058 421.851
3461 0 136.859 11.9174 1631 97.683 49.9129 417.433
3462 0 144.46 11.2834 1630 98.154 49.5546 411.619
3463 0 148.931 17.2093 2563 93.4998 48.7632 424.527
3464 1 213.77 17.3785 3715 94.7639 49.0697 401.917
3465 1 89.6089 11.3158 1014 95.1617 49.2633 456.055
3466 0 93.5399 13.0853 1224 93.719 48.7484 450.042
3467 0 96.4679 14.1809 1368 92.4978 48.5212 449.273
3468 0 97.6776 13.6469 1333 93.9707 47.7644 446.24
3469 0 98.6905 16.7899 1657 90.4158 48.1068 449.892
3470 0 108.76 15.7043 1708 92.2395 46.829 443.212
3471 0 109.889 13.7229 1508 94.3866 47.1552 439.534
3472 0 111.816 12.932 1446 95.8755 46.9827 438.963
3473 0 120.99 23.0929 2794 84.9069 46.5498 447.004
3474 0 120.854 14.803 1789 92.2823 45.2951 447.867
3475 0 121.643 18.6611 2270 90.2392 44.6934 424.515
3476 0 122.606 19.2241 2357 89.7959 44.1218 440.534
3477 0 128.643 12.6552 1628 97.6812 44.2377 430.108
3478 0 133.504 14.8759 1986 94.9124 43.4637 428.638
3479 0 133.429 11.7516 1568 98.4668 42.9369 431.614
3480 0 145.757 15.368 2240 93.1348 42.3375 430.921
3481 1 78.3339 12.868 1008 96.0308 42.3433 452.752
3482 0 83.2637 18.4714 1538 87.9233 42.0722 454.989
3483 0 85.328 17.087 1458 90.7078 39.9726 452.464
3484 0 84.2041 13.1348 1106 95.5705 40.7378 446.901
3485 0 86.1801 11.3251 976 98.0164 40.6311 447.892
3486 0 93.1569 18.8606 1757 89.5618 40.3136 448.334
3487 0 98.402 18.5667 1827 88.8117 40.8112 449.079
3488 0 99.2417 12.8776 1278 95.6111 40.4077 443.714
3489 0 97.2069 11.9436 1161 97.2489 41.0568 444.18
3490 0 102.184 15.3546 1569 93.9452 41.1893 441.189
3491 0 105.252 12.7504 1342 95.0335 41.9136 448.341
3492 0 111.226 17.433 1939 90.393 41.7194 444.22
3493 0 110.396 11.8392 1307 99.5983 41.8018 432.63
3494 0 118.524 17.9964 2133 91.4379 41.255 438.602
3495 1 67.1487 12.4351 835 93.6024 45.1964 454.947
3496 0 62.3903 13.5117 843 90.7758 44.3416 455.134
3497 0 63.6525 9.47332 603 95.0696 44.8292 452.187
3498 0 66.1947 22.0108 1457 82.9822 45.1517 452.843
3499 0 67.2113 11.4266 768 92.9661 45.1289 448.69
3500 0 69.1938 11.923 825 91.6194 45.9018 454.458
3501 0 75.1249 8.30617 624 95.024 46.633 451.896
3502 0 76.4597 17.4079 1331 86.8039 46.5086 451.751
3503 0 80.7015 20.5696 1660 84.6434 46.6392 452.011
3504 0 80.2509 16.5481 1328 88.9608 46.509 449.39
3505 0 80.14 15.0736 1208 91.0795 47.8344 447.334
3506 0 86.3417 12.2768 1060 94.5764 47.7123 445.088
3507 0 89.2879 18.726 1672 88.6944 47.3995 448.261
3508 0 90.3363 14.8224 1339 93.2472 48.124 447.621
3509 0 96.5839 11.9689 1156 95.1652 47.8659 449.388
3510 1 54.1134 11.5683 626 93.1582 47.4633 468.134
3511 0 57.4091 13.9873 803 91.9738 47.8007 470.674
3512 0 58.3928 11.063 646 94.7306 46.5294 471.82
3513 0 59.1778 18.3684 1087 90.1969 45.8887 478.413
3514 0 62.4072 14.3413 895 98.0637 45.6816 471.64
3515 0 64.572 12.9313 835 100.674 44.7162 461.302
3516 0 67.578 13.4363 908 100.003 43.7026 459.769
3517 0 67.5844 14.1601 957 99.4504 42.8265 468.146
3518 0 70.4819 14.4009 1015 99.4276 42.7458 465.486
3519 0 76.7916 18.8172 1445 92.8761 43.5979 465.325
3520 0 77.083 19.0963 1472 93.8655 43.3601 462.298
3521 0 77.4827 18.6364 1444 93.6842 42.0464 462.303
3522 0 81.7427 18.8641 1542 93.5402 41.4948 460.922
3523 0 86.8728 20.6969 1798 91.381 41.47 461.237
3524 0 83.7002 12.7957 1071 103.047 41.0766 459.282
3525 0 87.9261 13.6933 1204 100.756 40.9377 456.413
3526 0 91.5235 16.4657 1507 97.4824 41.4638 451.52
3527 0 90.6934 13.3637 1212 102.013 40.6584 452.489
3528 0 97.1663 20.4804 1990 93.6171 41.0221 449.326
3529 0 96.0718 15.1657 1457 99.4358 41.1997 450.067
3530 0 100.629 14.5584 1465 98.0471 42.2437 448.442
3531 0 106.678 17.3514 1851 93.9816 41.329 449.878
3532 0 103.203 15.2515 1574 98.4873 41.3507 440.027
3533 0 108.801 19.5863 2131 92.9488 42.1131 448.265
3534 0 110.391 16.5955 1832 97.0186 42.8073 441.35
3535 0 115.347 17.0095 1962 96.8094 43.238 435.749
3536 0 114.633 14.3501 1645 100.929 42.5277 431.422
3537 0 120.335 14.7173 1771 99.9181 43.14 433.173
3538 0 126.462 18.5589 2347 95.36 42.311 432.547
3539 0 125.773 12.9599 1630 103.344 45.3025 421.479
3540 0 131.555 15.0355 1978 96.9196 44.6476 423.84
3541 1 74.576 16.2653 1213 94.5565 45.4592 450.745
3542 0 78.6447 14.1141 1110 97.1333 44.9892 450.201
3543 0 78.2584 16.765 1312 92.6303 45.9893 453.294
3544 0 79.5565 14.6437 1165 94.9991 45.964 449.44
3545 0 83.8128 16.859 1413 92.2888 46.8054 453.868
3546 0 84.5826 16.1735 1368 93.3472 47.1893 452.635
3547 0 87.4534 23.2352 2032 87.2387 46.6609 451.614
3548 0 91.567 20.9027 1914 88.604 46.4927 449.982
3549 0 93.5897 13.1318 1229 95.987 46.6216 450.95
3550 0 96.5903 17.2481 1666 92.7995 47.012 446.194
3551 0 96.7475 13.6231 1318 96.7671 47.1123 445.663
3552 0 100.573 16.1275 1622 93.9353 46.9328 449.38
3553 0 106.046 19.8309 2103 90.8355 47.0352 451.142
3554 0 106.587 11.3428 1209 100.928 46.8528 434.008
3555 0 110.516 15.4186 1704 97.145 46.8063 434.551
3556 0 115.732 15.4063 1783 95.9248 47.4711 445.57
3557 0 117.834 16.0141 1887 96.7552 47.2459 438.539
3558 0 121.525 15.396 1871 97.2956 46.6836 438.702
3559 0 128.873 17.3116 2231 94.1865 45.9615 442.509
3560 0 135.058 16.7928 2268 95.731 45.4475 433.098
3561 0 139.84 20.0157 2799 92.2583 44.9753 429.269
3562 0 143.511 17.0719 2450 95.0016 44.049 430.249
3563 0 147.961 15.4365 2284 97.3524 43.2391 421.202
3564 0 152.928 17.1061 2616 94.7133 43.0967 430.142
3565 0 158.7 17.8198 2828 93.6538 42.4307 427.722
3566 0 165.703 15.5459 2576 96.2123 42.3381 426.009
3567 0 167.505 18.4412 3089 93.2114 42.3118 426.024
3568 0 173.65 15.7213 2730 97.4692 41.741 406.873
3569 0 179.065 16.6979 2990 95.6204 41.5047 416.526
3570 0 182.727 17.0309 3112 96.1497 40.9675 402.548
3571 0 185.596 14.5208 2695 99.2345 41.328 400.033
3572 0 195.841 30.3512 5944 85.3587 40.9939 398.776
3573 1 247.504 15.0947 3736 97.2928 41.3319 384.911
3574 1 204.626 21.8007 4461 92.0601 41.2977 394.727
3575 0 210.532 15.1046 3180 98.7774 41.4695 395.933
3576 0 220.591 18.7405 4134 95.3536 41.3691 390.552
3577 0 225.676 17.1706 3875 97.352 42.3259 381.393
3578 0 226.683 16.2032 3673 98.104 41.9151 391.015
3579 1 55.2547 9.44716 522 93.9195 42.5958 467.119
3580 0 57.2325 7.89761 452 98.1504 43.5996 464.737
3581 0 63.0625 14.1288 891 90.8081 44.0572 463.801
3582 0 60.1856 11.1156 669 95.8117 44.2407 458.991
3583 0 63.2612 12.314 779 93.9448 45.0103 457.676
3584 0 64.0612 13.0032 833 94.0084 45.4238 460.208
3585 0 67.2936 15.7519 1060 91.5576 46.5547 457.216
3586 0 67.1611 10.3185 693 97.443 46.1111 458.971
3587 0 69.2376 10.9045 755 97.5536 47.2768 458.311
3588 0 71.2808 13.6923 976 94.9477 47.248 459.592
3589 0 75.1668 11.7871 886 96.4831 47.6309 455.959
3590 0 76.4099 11.2289 858 98.9895 47.9417 455.787
3591 0 83.4081 14.8906 1242 92.8527 47.8156 459.242
3592 0 82.6692 14.4552 1195 94.0477 47.6728 457.9
3593 0 87.4577 27.7963 2431 82.5664 46.1625 456.062
3594 0 82.4354 9.00099 742 100.062 47.6065 439.334
3595 0 93.9416 19.0331 1788 88.9905 46.3921 428.765
3596 0 89.2693 11.3029 1009 98.8295 47.112 435.067
3597 0 92.9023 12.9276 1201 97.8909 46.174 445.824
3598 0 98.6038 15.2124 1500 94.638 46.0813 441.689
3599 0 102.226 20.4057 2086 89.243 45.8854 446.947
3600 0 107.354 16.3665 1757 94.4075 45.7501 442.832
3601 1 63.4128 11.1334 706 97.187 46.2365 461.195
3602 0 66.8122 12.1086 809 96.0136 46.7009 463.96
3603 0 68.4646 11.8309 810 97.1247 45.3926 459.757
3604 0 69.5536 16.5484 1151 87.2728 45.3805 451.879
3605 0 71.3539 11.9545 853 96.4232 43.871 450.967
3606 0 78.8097 16.9776 1338 91.0232 43.4484 443.794
3607 0 74.6761 17.1273 1279 91.9234 43.4371 446.093
3608 0 76.5744 16.1673 1238 92.0307 43.0396 441.263
3609 0 74.4337 12.8974 960 96.8188 43.2438 444.129
3610 0 80.4708 15.8691 1277 92.0619 43.3532 449.453
3611 0 80.5763 14.7686 1190 94.7118 43.4244 445.122
3612 0 82.661 16.5374 1367 93.2575 42.2999 443.162
3613 0 84.6686 11.5982 982 98.7169 42.2607 441.514
3614 0 83.6302 13.9065 1163 97.0353 41.6784 439.42
3615 0 89.6847 15.7998 1417 93.7445 41.4347 442.459
3616 0 90.5984 13.764 1247 95.9703 40.68 445.164
3617 0 93.5313 15.9305 1490 93.6423 40.2383 445.922
3618 0 95.7712 15.9965 1532 93.6567 40.8035 442.13
3619 0 102.06 19.4297 1983 88.7383 40.4937 439.222
3620 0 104.704 18.4425 1931 89.9767 41.4096 434.282
3621 0 107.584 17.5119 1884 90.2298 41.578 434.866
3622 0 109.602 12.8191 1405 95.474 41.8071 432.716
3623 0 108.621 11.6183 1262 98.3835 42.5856 426
3624 0 115.547 11.8307 1367 99.158 43.4236 420.965
3625 0 122.521 19.9638 2446 89.7903 42.7101 433.023
3626 1 73.399 19.4008 1424 89.9052 44.1117 445.083
3627 0 75.4174 17.4761 1318 92.2329 44.9575 443.391
3628 0 75.5176 14.0894 1064 96.8919 45.2152 442.416
3629 0 78.5715 16.7873 1319 93.1008 45.8279 444.934
3630 0 78.4176 14.3845 1128 95.6897 44.5674 445.879
3631 0 81.5989 15.9806 1304 94.5008 46.2883 442.844
3632 0 85.5166 14.734 1260 96.0151 45.5643 439.29
3633 0 86.3719 18.9761 1639 91.2129 47.1049 444.552
3634 0 88.211 16.9934 1499 93.6865 47.1494 441.328
3635 0 92.3515 12.0951 1117 98.299 46.9857 445.771
3636 0 93.2127 17.1543 1599 93.9074 47.3196 444.792
3637 0 98.3158 14.8908 1464 95.6858 47.0061 442.346
3638 0 101.466 13.3247 1352 97.8713 46.8144 443.479
3639 0 106.252 16.3008 1732 94.392 47.0306 442.294
3640 0 107.401 16.1544 1735 94.8738 46.6496 441.205
3641 1 65.1249 9.44339 615 99.065 45.9057 463.577
3642 0 66.2467 12.0157 796 95.2173 46.7538 463.832
3643 0 70.4784 11.2375 792 98.5227 46.75 467.508
3644 0 76.4354 14.7706 1129 92.4207 47.3685 469.171
3645 0 74.6175 15.2913 1141 92.4452 46.4338 467.46
3646 0 77.3925 12.8695 996 95.0693 45.3916 464.776
3647 0 80.3297 18.0755 1452 89.3368 45.3678 462.813
3648 0 83.7201 16.579 1388 92.0843 44.8703 458.992
3649 0 84.9398 17.8362 1515 91.7142 44.1472 450.652
3650 0 85.5898 16.4856 1411 91.5776 43.0099 455.583
3651 1 46.3059 6.13313 284 99.6162 42.8803 469.789
3652 0 50.6456 9.5566 484 93.6384 42.1219 471.343
3653 0 57.7443 11.2912 652 91.3988 41.4847 471.46
3654 0 53.5529 10.4756 561 94.3726 42.0588 464.018
3655 0 60.8566 12.5212 762 90.7205 41.2874 469.004
3656 0 59.4353 10.3306 614 92.0472 39.5782 465.578
3657 0 62.1547 13.1607 818 90.3936 39.7934 466.753
3658 0 63.1357 15.142 956 87.7552 39.0649 466.433
3659 0 63.3049 13.901 880 89.6977 39.5295 462.731
3660 0 67.1171 18.7285 1257 85.5513 39.6794 458.589
3661 0 66.3348 15.1806 1007 90.3078 40.9176 456.346
3662 0 69.3635 13.7969 957 91.5371 40.6092 456.675
3663 0 71.3509 20.0138 1428 86.6198 41.007 455.036
3664 0 71.1394 13.7195 976 94.1117 41.6906 455.716
3665 0 75.6699 20.008 1514 88.0337 42.9062 459.753
3666 0 77.3991 14.1474 1095 95.3936 42.8055 454.061
3667 0 83.4362 15.1133 1261 92.3767 43.8573 459.035
3668 0 82.634 13.9289 1151 96.7489 44.0573 451.61
3669 0 86.8005 14.5621 1264 96.36 43.1479 448.409
3670 0 84.7128 14.3544 1216 96.7393 44.2188 449.364
3671 0 91.5286 15.0773 1380 95.9848 44.987 448.088
3672 0 92.7873 13.7842 1279 97.5661 44.8593 446.974
3673 0 94.5748 19.9207 1884 91.8174 45.0924 447.323
3674 0 98.1076 16.3494 1604 95.5044 45.3884 446.117
3675 0 100.702 14.7962 1490 98.6503 45.8154 441.256
3676 0 103.849 11.5264 1197 103.05 47.1153 442.504
3677 0 106.895 13.3215 1424 102.237 46.9726 439.428
3678 0 110.864 15.8843 1761 99.8984 46.9705 437.164
3679 0 115.274 18.6078 2145 96.717 47.4727 440.87
3680 0 116.786 18.504 2161 97.3452 47.4998 443.634
3681 1 64.9052 12.0329 781 103.261 46.685 466.4
3682 0 65.6441 10.8768 714 105.252 47.5028 463.803
3683 0 69.7035 16.2402 1132 101.14 45.9223 462.03
3684 0 74.7867 14.4946 1084 102.433 46.1411 467.757
3685 0 75.923 20.7315 1574 95.77 45.8634 466.521
3686 0 73.7832 12.0488 889 108.119 46.2925 461.865
3687 0 78.6084 16.5122 1298 100.324 46.4299 466.317
3688 0 83.9979 17.0838 1435 97.393 46.4188 468.001
3689 0 85.7014 15.379 1318 101.791 44.7223 462.588
3690 0 85.9329 16.4081 1410 100.472 44.6979 461.446
3691 0 91.0317 14.4235 1313 103.905 43.7845 455.704
3692 0 92.6521 18.2079 1687 99.2472 43.067 457.701
3693 0 96.1941 17.2464 1659 99.4412 43.1218 454.417
3694 0 98.6559 17.9107 1767 97.8161 42.7368 455.244
3695 0 102.982 15.8475 1632 100.888 42.6777 452.675
3696 0 104.656 16.024 1677 101.912 42.0203 446.08
3697 0 105.7 16.2724 1720 101.94 41.768 445.037
3698 0 108.613 15.652 1700 102.516 41.3759 445.185
3699 0 111.996 19.8221 2220 97.0536 41.4086 445.186
3700 0 117.099 19.8635 2326 96.5765 40.6905 444.116
3701 0 116.592 15.4899 1806 102.533 41.108 440.256
3702 0 121.596 16.1437 1963 100.598 40.7753 438.026
3703 0 122.711 12.6313 1550 105.397 40.2161 433.859
3704 0 127.71 14.0788 1798 103.333 40.8554 432.652
3705 0 134.918 16.7806 2264 100.339 41.9148 425.393
3706 0 140.696 20.9458 2947 95.8042 42.0662 426.036
3707 1 73.6096 12.0772 889 102.206 42.8256 454.403
3708 0 80.6464 14.0366 1132 99.5548 43.2341 454.224
3709 0 82.7385 15.7726 1305 97.2667 41.8375 449.553
3710 0 83.6787 14.723 1232 98.3409 43.5755 450.571
3711 0 86.7419 15.1369 1313 98.46 42.0419 450.001
3712 0 89.6732 15.668 1405 100.085 43.3637 444.141
3713 0 91.3283 13.3146 1216 101.383 45.1176 453.01
3714 0 93.7278 15.4383 1447 100.605 44.6413 444.641
3715 0 97.641 17.8818 1746 98.0515 44.9805 442.291
3716 0 100.879 15.9597 1610 99.4776 44.6516 443.548
3717 0 101.809 19.3893 1974 93.9367 45.3176 451.233
3718 0 104.714 14.8309 1553 100.365 46.1288 442.95
3719 0 110.647 19.1329 2117 95.7237 46.3354 441.291
3720 0 111.702 13.5718 1516 100.762 46.1656 445.732
3721 0 117.566 18.9341 2226 95.6155 45.4389 442.689
3722 0 123.557 16.0736 1986 99.3646 47.1158 439.415
3723 1 76.3959 18.8623 1441 94.2665 46.8515 462.538
3724 0 77.3717 20.3433 1574 91.3374 46.5521 463.759
3725 0 81.5196 14.6713 1196 98.4331 46.1421 458.86
3726 0 83.1973 18.0535 1502 92.3935 46.4947 454.453
3727 0 84.1412 16.4248 1382 94.4356 46.2438 450.576
3728 0 86.3799 12.2945 1062 99.3927 46.4765 457.602
3729 0 95.4157 15.4796 1477 95.6371 45.7962 456.917
3730 0 98.4119 15.6587 1541 97.9332 46.5101 453.881
3731 0 99.4576 18.7216 1862 95.2798 46.5365 447.881
3732 0 101.289 16.4382 1665 98.1057 45.9982 445.956
3733 0 103.381 11.7236 1212 102.757 45.0644 454.119
3734 1 278.085 16.4734 4581 102.315 44.1904 371.591
3735 1 111.231 18.2953 2035 98.1926 43.2875 440.986
3736 0 114.421 15.0147 1718 102.105 43.8265 443.673
3737 0 119.602 14.4563 1729 102.621 43.096 445.916
3738 0 123.34 21.307 2628 93.9475 43.2416 448.43
3739 0 123.447 16.7278 2065 100.747 42.1932 443.016
3740 0 128.747 17.6858 2277 100.072 42.2468 438.287
3741 0 133.407 22.7349 3033 94.966 42.1836 435.528
3742 0 140.166 18.5351 2598 97.9954 42.764 439.237
3743 0 138.404 16.3435 2262 102.614 42.1883 425.389
3744 0 144.83 17.0614 2471 101.384 42.0546 425.567
3745 1 79.2067 11.9939 950 104.509 41.5558 456.782
3746 0 83.434 17.2472 1439 97.4892 41.8909 454.957
3747 0 83.4374 15.5206 1295 99.8023 42.8826 457.416
3748 0 86.3872 16.727 1445 99.2332 42.9412 454.588
3749 0 88.829 15.1302 1344 102.769 43.1979 448.197
3750 0 91.6573 14.9797 1373 102.111 43.5382 448.186
3751 0 91.6107 16.712 1531 102.024 43.6061 442.186
3752 0 94.9176 15.3923 1461 104.303 42.7002 437.463
3753 0 99.5787 18.3573 1828 99.8342 43.6149 438.645
3754 0 100.246 15.4619 1550 103.45 43.6458 439.762
3755 0 107.069 15.7281 1684 103.567 44.5992 435.172
3756 0 108.561 15.291 1660 105.208 44.8837 430.139
3757 0 106.956 13.2671 1419 109.612 45.8478 424.498
3758 0 112.927 16.09 1817 104.934 46.2757 429.731
3759 0 116.089 14.2649 1656 107.94 46.5417 426.51
3760 0 118.925 13.1512 1564 109.194 46.7948 425.198
3761 0 122.837 13.9046 1708 108.526 48.3208 420.125
3762 0 128.912 15.2275 1963 105.803 47.8864 423.54
3763 0 133.798 17.0854 2286 103.305 49.147 420.483
3764 0 136.787 12.2087 1670 111.235 48.6407 416.754
3765 0 142.945 14.8518 2123 107.843 48.2388 417.058
3766 0 143.728 13.1151 1885 110.421 48.2472 414.729
3767 0 145.616 13.7348 2000 110.238 47.9865 414.938
3768 0 156.802 18.3225 2873 103.852 48.9506 407.194
3769 0 167.663 18.7519 3144 99.7993 47.2443 424.253
3770 0 169.676 14.2389 2416 107.415 47.7728 415.553
3771 0 176.583 14.8202 2617 108.42 47.1578 405.058
3772 1 102.201 12.6614 1294 107.216 48.0943 440.594
3773 0 109.534 14.5069 1589 105.356 47.64 436.157
3774 0 112.52 15.5084 1745 102.768 46.8395 436.617
3775 0 114.329 13.7411 1571 104.645 45.1585 429.199
3776 0 117.629 13.8657 1631 104.231 45.1153 429.809
3777 0 126.398 16.5429 2091 99.8015 44.6681 427.945
3778 0 128.532 14.7745 1899 100.341 44.0937 433.026
3779 0 133.472 13.988 1867 103.533 42.6615 416.079
3780 0 137.434 14.5961 2006 102.728 43.2168 417.073
3781 0 142.944 13.6137 1946 104.98 42.9301 407.184
3782 0 147.764 20.2485 2992 95.9509 42.9298 401.372
3783 0 150.688 14.8121 2232 100.817 42.3808 420.533
3784 0 154.468 12.3909 1914 107.182 42.3271 399.801
3785 0 161.746 14.1271 2285 104.415 41.6284 397.561
3786 0 165.944 14.9267 2477 103.333 41.4267 396.782
3787 0 173.739 16.5075 2868 100.544 42.0893 406.922
3788 1 7.0038 4.85451 34 82.8529 42.0882 479.882
3789 0 8 1.5 12 89.0833 41.0833 480.25
3790 1 187.742 15.1858 2851 102.804 41.8232 385.096
3791 0 190.771 15.6418 2984 101.344 41.8542 393.517
3792 0 196.08 11.4902 2253 107.927 41.1456 375.139
3793 0 199.496 14.2509 2843 104.778 42.6497 371.141
3794 0 206.981 17.1272 3545 101.156 42.7537 369.882
3795 0 212.051 16.2555 3447 102.139 43.224 368.353
3796 0 322.396 20.8377 6718 98.592 43.7076 304.503
3797 0 324.541 22.1051 7174 97.6119 44.3669 295.047
3798 0 334.276 24.7371 8269 95.5441 43.5331 311.139
3799 1 43.1108 7.95624 343 90.4257 43.3761 465.79
3800 0 44.2942 11.9429 529 86.0057 44.0378 465.735
3801 0 45.1274 12.1656 549 85.1257 44.8415 464.834
3802 0 45.3462 6.8363 310 88.3613 47.0677 458.458
3803 0 46.0542 12.2682 565 83.5221 48.2407 462.547
3804 0 48.1057 9.08416 437 86.2128 48.5767 467.529
3805 0 47.4103 10.2298 485 84.9505 49.2742 466.99
3806 0 49.1276 16.6302 817 79.8543 50.2252 465.51
3807 0 48.7541 13.2502 646 84.2198 50.9628 468.878
3808 0 46.1 10.1301 467 86.3276 49.4754 468.09
3809 0 49.217 11.3985 561 84.328 51.2638 471.032
3810 0 46.2693 7.30507 338 88.6686 51.5207 470.204
3811 0 47.2709 13.8986 657 84.0365 50.2998 472.505
3812 0 48.387 7.87401 381 88.6903 50.5276 476.173
