time division length width area intensity CMx CMy
0 0 54.1993 11.9928 650 136.998 209.842 463.506
1 0 54.0557 13.1161 709 136.66 209.281 459.803
2 0 54.0557 13.0976 708 150.025 208.308 459.845
3 0 54.0905 13.0522 706 149.618 207.309 459.848
4 0 54.0897 13.0524 706 149.272 206.309 459.848
5 0 60.1146 13.6739 822 127.583 205.445 459.752
6 0 65.1119 15.0817 982 125.887 205.015 455.878
7 0 68.0971 15.8303 1078 126.764 203.689 455.115
8 0 70.1374 15.5267 1089 122.745 204.039 456.921
9 1 35.0723 11.5191 404 132.163 202.384 470.713
10 0 34.0435 12.9246 440 130.923 202.293 475.02
11 0 38.069 11.9783 456 126.985 200.592 475.099
12 0 40.0461 13.035 522 126.32 200.284 473.402
13 0 40.1222 15.6273 627 118.026 199.301 472.171
14 0 42.1259 12.4864 526 126.418 199.892 469.338
15 0 44.1196 15.8433 699 116.239 199.579 468.313
16 0 42.0984 14.6561 617 119.655 200.217 466.739
17 0 46.1794 17.8651 825 115.202 199.794 466.241
18 0 47.1141 12.7138 599 125.003 199.431 465.876
19 0 48.155 14.7025 708 120.425 200.387 464.859
20 0 51.0971 13.2101 675 119.716 199.736 463.006
21 0 51.154 15.0135 768 117.887 200.982 459.464
22 0 54.1279 16.6642 902 118.565 200.145 457.008
23 0 56.1236 16.1429 906 120.227 202.28 456.668
24 0 55.2554 13.7905 762 127.626 202.52 453.701
25 0 58.093 16.0432 932 122.948 202.605 454.277
26 0 60.1318 13.9028 836 126.892 203.478 450.312
27 0 65.512 17.1724 1125 120.107 203.485 449.6
28 0 67.0789 16.5477 1110 120.614 204.376 448.09
29 0 69.1233 16.174 1118 119.818 205.582 450.533
30 0 69.0885 17.1809 1187 120.813 205.411 445.112
31 0 71.0835 18.8933 1343 118.416 207.055 446.873
32 0 75.1402 17.3941 1307 118.482 207.61 443.454
33 0 75.2261 16.364 1231 120.65 208.303 446.323
34 0 80.2146 15.5209 1245 121.908 208.864 442.396
35 0 81.1086 19.5417 1585 113.507 209.327 445.418
36 0 88.3145 15.4901 1368 118.814 211.293 441.214
37 1 46.0351 13.5331 623 116.849 211.989 461.172
38 0 50.1607 13.1976 662 114.165 212.665 461.671
39 0 51.1542 12.7653 653 116.926 211.943 460.636
40 0 54.2043 13.9288 755 109.623 212.359 462.163
41 0 56.1304 14.4129 809 111.948 213.028 462.718
42 0 57.248 13.1009 750 110.025 212.761 465.56
43 0 60.1065 12.8106 770 111.856 213.012 461.548
44 0 61.0915 14.9448 913 107.321 212.217 460.198
45 0 66.4531 15.62 1038 105.494 212.193 460.692
46 0 66.3477 14.5144 963 120.079 212.062 458.845
47 0 65.2692 11.5062 751 125.828 211.577 460.937
48 0 70.0895 13.9536 978 118.544 209.983 459.233
49 0 75.2822 14.1069 1062 119.524 209.471 459.3
50 0 77.1918 15.3902 1188 117.795 208.287 456.904
51 0 78.2523 13.8143 1081 123.689 207.707 453.045
52 0 81.1654 13.3678 1085 124.044 206.994 452.287
53 0 86.2069 19.9172 1717 113.904 205.917 453.667
54 0 89.2779 14.9085 1331 122.663 205.312 448.81
55 0 93.3259 15.5905 1455 120.85 204.597 449.338
56 0 96.208 15.1235 1455 122.546 204.1 445.945
57 1 53.2539 11.2856 601 120.948 204.393 468.8
58 0 54.0296 12.123 655 120.165 203.768 464.618
59 0 55.0739 13.0915 721 117.92 204.732 465.477
60 0 57.0775 13.9459 796 115.227 203.043 464.663
61 0 61.1288 15.7209 961 113.623 201.38 460.404
62 0 60.0412 10.0264 602 122.566 203.252 458.743
63 0 64.1257 13.5515 869 117.939 203.758 455.838
64 0 70.1682 14.0377 985 115.791 202.859 454.859
65 0 68.1234 14.2829 973 117.799 203.915 447.478
66 0 70.1268 12.9622 909 119.791 203.761 449.277
67 0 74.0607 14.6771 1087 117.546 204.39 447.568
68 0 79.2654 13.7639 1091 116.767 204.433 449.731
69 0 79.1907 13.941 1104 119.762 204.644 442.533
70 0 82.1428 14.0852 1157 119.439 205.083 441.978
71 0 86.1576 13.8699 1195 121.009 206.715 437.652
72 1 174.735 15.4234 2695 125.416 206.384 396.591
73 0 182.406 16.5072 3011 123.522 206.644 395.133
74 1 95.1899 13.0896 1246 120.498 207.376 439.758
75 0 97.2389 13.5645 1319 120.476 208.042 437.38
76 0 103.286 15.1521 1565 118.704 206.991 433.888
77 0 105.366 14.0842 1484 121.523 208.201 433.463
78 0 109.314 15.1033 1651 119.956 207.915 432.555
79 0 113.318 13.3607 1514 119.82 208.645 429.559
80 0 112.385 10.6954 1202 123.532 209.64 429.785
81 0 123.187 14.3928 1773 115.422 209.566 431.082
82 0 127.514 12.5241 1597 118.311 208.911 433.17
83 0 131.504 12.2582 1612 121.359 209.761 427.893
84 1 73.1927 14.291 1046 110.09 210.206 456.497
85 0 74.313 11.9764 890 113.561 209.393 456.926
86 0 76.1076 11.5494 879 113.404 209.282 459.119
87 0 81.3369 12.9585 1054 111.318 208.202 457.613
88 0 84.0974 12.0693 1015 113.802 208.563 451.927
89 0 86.1254 11.5181 992 113.865 207.016 454.583
90 0 87.3384 7.51102 656 116.633 206.665 459.671
91 0 93.2461 13.341 1244 111.09 207.051 450.494
92 1 53.1213 11.2761 599 109.528 206.482 472.536
93 0 52.1426 11.6603 608 109.253 205.189 469.972
94 0 54.2976 10.0925 548 112.754 203.818 472.672
95 0 53.1523 8.52268 453 115.748 202.536 472.742
96 0 58.2715 15.9083 927 105.669 202.981 468.593
97 0 59.1517 11.6311 688 110.699 204.055 472.705
98 0 59.0669 9.73472 575 112.468 203.856 472.923
99 0 59.0799 11.6283 687 112.735 202.146 467.329
100 0 68.1032 12.5985 858 109.632 201.392 463.848
101 0 65.2822 15.3028 999 106.195 201.199 463.781
102 0 68.2328 12.9117 881 108.946 200.451 462.488
103 0 73.1356 13.8373 1012 106.569 200.651 461.091
104 0 72.3839 17.269 1250 103.682 200.189 456.818
105 0 75.1021 12.1435 912 110.057 200.104 453.632
106 0 79.2344 16.9497 1343 102.603 199.509 455.267
107 1 231.865 14.8535 3444 113.735 200.215 391.524
108 1 83.213 12.4981 1040 106.947 199.73 456.438
109 0 83.2209 11.7759 980 111.487 200.656 446.383
110 0 88.2702 17.5937 1553 104.141 200.411 444.338
111 0 91.3 13.7787 1258 108.651 200.397 444.251
112 0 92.3043 15.2322 1406 107.676 200.858 439.823
113 0 97.1386 14.9786 1455 106.386 201.337 445.706
114 0 97.1246 10.1725 988 115.594 200.632 440.223
115 0 103.463 13.8987 1438 110.867 202.008 435.266
116 0 105.57 16.6335 1756 107.172 203.169 437.504
117 0 109.666 17.526 1922 107.814 203.901 428.651
118 0 113.697 13.7119 1559 113.929 204.756 428.119
119 0 116.827 19.2849 2253 106.399 204.677 428.294
120 0 117.751 17.2398 2030 108.001 205.79 431.323
121 0 124.431 16.2339 2020 109.94 206.943 426.096
122 0 126.624 18.2273 2308 107.539 207.039 422.288
123 0 132.548 17.3522 2300 107.118 207.648 425.054
124 0 139.744 15.8505 2215 109.184 206.953 421.39
125 1 71.2056 9.59195 683 110.663 206.253 457.896
126 0 73.3922 13.9797 1026 107.656 206.141 454.215
127 0 77.1094 13.8375 1067 104.518 206.451 456.672
128 0 81.2591 14.4599 1175 104.42 207.319 452.705
129 0 82.3367 12.7768 1052 106.823 206.081 455.112
130 0 85.3741 15.9065 1358 104.183 206.669 453.278
131 0 87.3206 16.8803 1474 102.52 205.883 451.29
132 0 91.3633 12.6747 1158 112.445 206.619 449.256
133 0 93.3497 12.5228 1169 112.713 206.062 451.3
134 0 97.3022 12.7644 1242 111.079 205.324 453.776
135 0 101.218 12.152 1230 109.177 205.028 453.022
136 0 105.352 16.9718 1788 103.694 203.07 443.804
137 0 108.289 9.6778 1048 115.871 204.767 444.454
138 0 113.293 12.2955 1393 110.402 204.004 445.098
139 1 57.1199 12.2549 700 127.01 203.436 471.886
140 0 57.0945 10.7016 611 108.915 199.941 467.73
141 0 63.1353 11.3882 719 107.127 200.156 471.015
142 0 63.1413 9.67671 611 111.059 199.769 467.381
143 0 64.1644 12.4991 802 109.045 199.191 462.061
144 0 66.202 14.5162 961 104.583 198.657 464.046
145 0 71.1151 17.6053 1252 99.1046 197.799 464.487
146 0 70.1021 11.8541 831 108.854 197.842 457.777
147 0 71.2013 13.6374 971 106.346 197.797 453.609
148 0 76.5093 14.4819 1108 104.539 197.388 454.883
149 0 77.4002 15.4134 1193 103.45 197.218 453.975
150 0 82.1913 13.9917 1150 103.957 198.819 453.296
151 0 85.5106 14.6648 1254 103.611 198.718 444.915
152 0 90.3501 16.8677 1524 99.9318 198.902 448.552
153 0 88.2034 9.13797 806 110.79 199.396 444.313
154 1 49.0918 9.96094 489 104.403 198.102 465.233
155 0 51.0584 10.9874 561 103.38 198.563 464.706
156 0 51.1138 15.4948 792 98.4381 199.284 464.028
157 0 51.1803 12.114 620 102.61 200.456 460.411
158 1 108.259 13.7725 1491 106.179 202.336 430.537
159 1 56.1347 13.432 754 100.655 205.082 459.496
160 0 54.1356 12.3394 668 103.66 205.189 457.876
161 0 58.145 12.8128 745 102.519 206.697 456.918
162 0 58.0562 12.729 739 99.5886 205.558 463.606
163 0 62.288 14.8664 926 100.338 206.528 457.041
164 0 62.1496 13.1135 815 103.266 207.248 455.601
165 0 63.1774 16.0342 1013 100.411 207.53 453.16
166 0 69.1803 14.2092 983 101.498 208.387 457.082
167 0 70.2872 17.5708 1235 98.8243 208.802 454.794
168 0 70.1235 13.6331 956 108.72 209.657 452.263
169 0 75.2043 17.2065 1294 102.461 208.971 455.12
170 0 77.0718 13.9999 1079 108.076 209.709 453.2
171 0 79.1992 11.6415 922 112.449 209.787 455.034
172 0 82.1893 18.4695 1518 103.194 209.125 452.497
173 0 86.1628 17.0955 1473 106.056 208.432 451.588
174 0 89.0828 15.0197 1338 110.25 208.498 451.585
175 0 88.3465 11.9982 1060 115.92 208.072 450.5
176 0 94.3721 11.8573 1119 115.786 207.807 452.239
177 1 47.1432 10.8817 513 111.994 208.08 473.136
178 0 50.0532 15.983 800 98.8162 206.26 471.651
179 0 51.1962 9.78588 501 107.727 206.932 478.138
180 0 53.114 12.2755 652 105.313 205.313 475.468
181 0 52.2056 18.4846 965 99.2487 204.259 472.133
182 0 53.2067 14.9229 794 101.65 203.851 475.442
183 0 59.1168 13.1266 776 102.878 203 474.948
184 0 57.0933 13.3641 763 103.941 201.794 473.619
185 0 60.1546 15.2441 917 101.702 202.013 466.312
186 0 61.1616 13.2763 812 103.651 201.821 465.264
187 0 66.0816 17.3876 1149 97.5109 200.191 466.039
188 0 63.3061 14.1693 897 104.256 200.343 466.365
189 0 64.3094 16.5606 1065 100.398 198.741 465.495
190 0 65.1633 15.4074 1004 101.368 198.702 464.523
191 0 69.1563 10.7582 744 108.219 199.547 460.797
192 0 72.239 12.3479 892 104.989 198.642 460.7
193 0 73.1398 11.02 806 109.035 198.994 456.762
194 0 78.1421 15.523 1213 101.138 197.678 457.905
195 1 43.0233 9.13458 393 107.985 198.995 470.812
196 0 43.1401 13.3287 575 97.92 198.995 470.285
197 0 46.0454 15.4847 713 100.236 199.529 469.502
198 0 45.2673 12.8349 581 111.478 200.413 464.022
199 0 46.0441 14.3775 662 104.405 201.382 465.577
200 0 48.1436 13.6675 658 103.748 201.927 466.258
201 0 49.0936 15.3177 752 101.799 202.217 465.545
202 0 47.1013 12.3776 583 106.346 202.678 465.738
203 0 48.301 11.6561 563 109.645 202.828 462.03
204 1 101.298 12.6854 1285 108.536 202.255 446.524
205 0 107.316 14.6669 1574 108.034 203.464 439.922
206 0 109.283 14.9521 1634 108.174 204.15 439.841
207 0 110.298 13.9531 1539 111.278 204.541 434.276
208 0 113.312 13.3525 1513 111.822 204.904 435.743
209 0 110.427 8.77501 969 118.093 206.087 438.975
210 1 63.3339 14.9999 950 106.391 206.255 461.135
211 0 62.1495 15.9615 992 107.25 206.701 460.206
212 0 63.1512 11.2587 711 114.353 207.408 460.255
213 0 66.4938 18.0017 1197 104.487 206.614 463.304
214 0 69.3754 14.9332 1036 110.29 206.862 460.024
215 0 69.2072 15.273 1057 110.351 206.844 463.125
216 0 72.151 14.2063 1025 113.519 206.928 461.593
217 0 75.3283 16.3152 1229 111.263 205.64 459.6
218 0 78.2255 15.1869 1188 113.553 205.842 457.812
219 0 79.2499 15.3439 1216 113.674 204.876 459.288
220 0 83.5093 15.639 1306 113.271 203.756 457.569
221 0 86.3637 14.3116 1236 115.762 203.751 458.394
222 1 134.779 13.8746 1870 116.21 202.719 438.758
223 1 47.1465 14.508 684 110.301 201.914 479.05
224 0 48.1672 15.3632 740 109.958 202.551 474.674
225 0 49.072 13.1847 647 114.195 201.555 474.218
226 0 51.1909 16.8389 862 108.787 201.445 476.759
227 0 54.0884 14.4578 782 111.862 199.987 474.731
228 0 53.2202 12.7207 677 114.247 199.617 474.518
229 0 56.1579 14.7263 827 112.322 198.826 471.821
230 0 58.1379 17.4585 1015 108.522 197.46 470.026
231 0 61.0636 15.1154 923 110.373 196.908 470.298
232 0 62.1921 17.9444 1116 108.298 196.272 465.142
233 0 63.1936 12.976 820 116.351 197.602 466.748
234 0 66.1019 14.2205 940 114.599 196.276 463.096
235 0 69.3533 18.9032 1311 108.07 196.786 463.636
236 0 70.1712 13.3388 936 115.751 197.088 461.671
237 0 74.4013 16.9083 1258 110.025 195.641 457.307
238 0 75.4267 14.1594 1068 114.689 196.272 455.145
239 0 74.2286 12.475 926 119.242 196.852 449.65
240 0 76.5613 13.3618 1023 117.654 198.033 450.19
241 0 81.7788 14.3803 1176 115.389 197.088 448.635
242 0 82.6709 12.58 1040 119.389 198.677 445.868
243 0 86.5155 16.1358 1396 114.256 199.14 445.008
244 0 83.3643 9.39252 783 123.456 199.091 445.092
245 0 92.4054 12.943 1196 118.463 200.411 440.111
246 1 49.3734 12.3346 609 110.614 200.264 461.99
247 0 51.3387 12.8168 658 108.438 201.426 462.068
248 0 52.3053 14.0712 736 108.26 201.957 460.969
249 0 53.3304 8.94424 477 113.948 202.107 463.86
250 0 54.1098 10.4602 566 114.698 203.359 458.629
251 0 58.3703 15.0933 881 107.512 203.179 455.125
252 0 60.2935 13.6001 820 109.01 204.718 460.139
253 0 62.3574 12.8613 802 110.667 205.541 458.707
254 0 65.3637 15.6662 1024 107.648 204.744 456.331
255 0 68.2384 18.0104 1229 104.596 205.176 459.344
256 0 70.2277 18.5682 1304 105.884 204.413 454.802
257 0 71.1819 12.1801 867 114.997 206.003 459.356
258 0 72.211 13.9175 1005 115.259 204.461 454.312
259 0 75.2034 12.5925 947 117.062 205.036 456.641
260 0 77.246 13.4505 1039 117.802 205.323 452.956
261 0 80.2619 13.1569 1056 117.18 204.384 458.812
262 0 85.1412 15.8208 1347 113.719 203.513 454.382
263 1 47.0118 11.2312 528 112.9 204.676 475.816
264 0 48.1256 14.6284 704 109.205 205.754 475.254
265 0 47.2986 10.3174 488 117.275 205 475.33
266 0 49.0981 12.2001 599 115.065 204.566 474.735
267 0 51.0885 12.3316 630 111.573 203.159 476.729
268 0 51.1244 11.0515 565 114.975 202.529 474.864
269 0 52.1455 10.6433 555 115.87 201.128 473.746
270 0 54.0638 13.0586 706 114.069 200.67 470.916
271 0 55.1181 13.2806 732 113.105 200.182 471.518
272 0 57.0798 15.5572 888 110.649 200.093 469.227
273 0 58.0755 12.4493 723 114.701 199.362 468.633
274 0 60.0742 13.7164 824 112.377 199.12 466.708
275 0 63.0483 18.7317 1181 106.244 198.738 463.239
276 0 64.103 16.9103 1084 109.511 198.403 461.93
277 0 65.1325 12.6818 826 116.123 198.278 459.424
278 0 71.3651 16.3385 1166 109.078 197.983 458.319
279 0 68.1105 12.3769 843 117.415 198.536 450.734
280 0 72.1147 13.6033 981 113.87 197.942 452.376
281 0 77.2177 15.0743 1164 112.564 197.814 449.793
282 0 80.1703 15.9411 1278 109.018 197.955 452.224
283 0 80.1528 13.075 1048 114.716 198.331 445.743
284 0 86.2278 13.6963 1181 111.389 198.579 446.102
285 0 89.2674 13.7228 1225 110.976 198.709 443.816
286 0 91.2288 11.367 1037 114.101 199.264 441.799
287 0 94.3354 12.498 1179 114.027 200.489 436.445
288 0 88.2454 7.05986 623 124.615 199.721 424.462
289 1 51.0777 10.8854 556 117.327 201.477 456.277
290 0 53.2709 13.3093 709 114.357 200.604 453.669
291 0 54.0648 13.1509 711 110.484 200.748 455.418
292 0 55.1378 12.6955 700 110.046 201.5 456.724
293 0 58.0559 12.5741 730 110.178 203.16 454.321
294 0 61.1884 12.8783 788 109.824 203.919 452.876
295 0 63.0672 13.8741 875 107.408 205.366 453.903
296 0 65.2026 18.7416 1222 101.601 204.876 454.564
297 0 64.2096 9.39112 603 113.736 204.9 451.489
298 0 69.1939 18.0652 1250 102.531 206.402 452.126
299 0 70.175 14.5351 1020 107.767 205.573 453.867
300 0 72.0293 12.4255 895 111.215 206.623 453.294
301 0 75.2359 11.7763 886 112.83 207.041 451.333
302 0 78.1852 16.1667 1264 106.586 207.101 450.818
303 0 78.3856 11.099 870 112.789 206.797 451.156
304 0 81.0768 12.6177 1023 111.55 207.12 453.445
305 0 87.1643 13.618 1187 108.352 206.904 453.58
306 0 87.2251 14.3651 1253 109.186 205.69 450.041
307 0 91.2543 13.8952 1268 110.796 205.606 451.641
308 0 92.356 13.2206 1221 113.276 204.876 444.797
309 0 95.2809 13.5494 1291 111.027 204.342 444.885
310 1 52.1501 12.0613 629 111.599 203.073 471.731
311 0 53.1644 11.9441 635 109.361 204.657 471.424
312 0 56.4084 14.6255 825 104.442 203.935 468.73
313 0 57.3081 12.1623 697 107.911 203.544 470.354
314 0 54.1029 16.5241 894 105.066 202.293 470.016
315 0 59.3831 10.5249 625 111.094 201.749 469.654
316 0 62.387 15.4359 963 104.97 201.337 466.814
317 0 58.2856 7.37747 430 117.358 200.83 467.012
318 0 64.3389 14.5324 935 108.272 199.696 462.334
319 0 63.206 13.8911 878 111.526 199.35 456.774
320 0 68.1841 14.1382 964 109.552 199.19 458.499
321 0 68.3524 12.8159 876 113.606 199.132 455.336
322 0 71.3343 12.7008 906 113.904 199.593 453.84
323 0 72.5139 13.9146 1009 111.82 197.839 451.158
324 0 74.2283 14.3611 1066 112.159 198.356 447.285
325 0 77.2511 14.1228 1091 112.435 199.147 448.61
326 0 85.3817 15.3663 1312 107.998 198.941 449.248
327 0 85.2986 18.488 1577 106.662 199.292 442.739
328 0 89.2633 14.194 1267 112.95 200.271 440.6
329 0 89.1776 13.9048 1240 114.461 200.032 435.992
330 0 92.3347 14.6857 1356 114.316 201.125 434.568
331 1 51.0709 14.6071 746 111.265 203.043 457.062
332 0 51.0852 12.4106 634 115.479 204.394 458.129
333 0 51.053 12.3009 628 116.322 204.328 457.242
334 0 56.1908 14.166 796 112.753 205.143 454.814
335 0 56.3285 15.2143 857 111.454 205.98 455.344
336 0 59.1402 13.9668 826 112.74 206.792 454.981
337 0 58.0943 13.5297 786 115.103 206.931 452.515
338 0 58.0727 11.83 687 117.247 207.99 454.633
339 0 61.2161 12.1537 744 117.508 209.191 452.573
340 0 63.0686 13.3188 840 114.675 209.635 453.638
341 0 67.1847 16.1346 1084 111.545 208.59 450.412
342 0 68.2371 15.6953 1071 112.142 209.866 449.894
343 0 72.1986 14.5017 1047 112.803 210.662 452.523
344 0 73.1218 14.6742 1073 112.994 210.504 452.612
345 0 74.1541 13.0674 969 115.324 211.314 448.512
346 0 75.2308 12.3753 931 118.346 209.204 448.224
347 0 80.186 13.2941 1066 115.379 209.662 451.85
348 0 82.3303 11.9397 983 117.897 208.745 450.195
349 1 48.2741 13.1748 636 108.734 208.61 471.014
350 0 47.2109 9.10807 430 113.981 208.905 471.121
351 0 50.2139 16.2704 817 105.032 207.794 470.17
352 0 50.2966 14.4344 726 109.212 208.315 469.123
353 0 53.2186 15.5021 825 106.245 207.361 469.062
354 0 56.1467 13.6072 764 105.674 208.005 463.891
355 0 53.1645 12.6776 674 107.375 206.539 465.365
356 0 58.0959 12.9785 754 106.001 206.084 464.671
357 0 59.0841 14.3524 848 104.721 206.195 465.096
358 0 62.0736 14.7567 916 102.575 205.521 462.86
359 0 67.2984 11.8428 797 105.138 204.391 464.304
360 0 67.1703 14.0389 943 103.367 203.821 461.744
361 0 68.1467 12.1943 831 106.756 203.002 459.06
362 0 71.1521 16.8231 1197 100.17 203.303 459.718
363 0 73.3127 13.7493 1008 104.936 202.609 455.002
364 1 143.554 15.6875 2252 108.497 201.984 424.294
365 1 78.2642 14.0166 1097 106.286 202.123 451.144
366 0 81.3018 12.6688 1030 108.803 201.765 452.48
367 0 80.3233 11.8397 951 114.094 201.885 443.424
368 1 42.0684 9.84112 414 108.382 202.949 470.355
369 0 45.0289 9.83813 443 108.973 202.553 468.027
370 0 48.0835 12.5823 605 106.607 203.101 462.169
371 0 46.0649 9.53004 439 111.665 203.724 462.191
372 0 51.0959 10.4118 532 108.754 203.829 462.573
373 0 52.0639 12.0237 626 107.064 203.958 459.746
374 0 53.1917 15.0399 800 103.444 204.471 457.826
375 0 55.1795 11.4898 634 106.352 205.831 460.139
376 0 57.0694 13.0718 746 104.922 205.619 457.846
377 0 57.0733 17.8893 1021 99.6523 205.935 454.528
378 0 58.1836 10.8106 629 109.725 207.246 452.114
379 0 65.1076 14.668 955 102.956 207.539 449.525
380 0 66.1749 14.0839 932 102.159 208.913 455.112
381 0 65.1498 17.7437 1156 99.7189 208.927 451.383
382 0 68.2093 11.0835 756 108.343 210.708 453.169
383 0 72.2239 18.2488 1318 99.3953 210.369 450.209
384 0 74.2403 12.5942 935 106.24 210.652 445.53
385 1 147.387 15.8698 2339 109.781 210.441 416.49
386 0 148.311 13.8762 2058 112.84 210.469 417.155
387 0 150.6 10.5312 1586 117.602 210.956 419.562
388 1 45.0578 11.341 511 106.571 213.063 470.082
389 0 46.0868 11.8689 547 104.718 212.079 471.49
390 0 47.0763 11.6407 548 107.586 211.54 470.914
391 0 46.028 13.4483 619 106.532 210.262 471.672
392 0 47.1266 11.1826 527 111.719 210.558 469.546
393 0 48.0708 13.7297 660 106.517 209.035 471.367
394 0 48.0823 10.1285 487 111.421 209.591 474.556
395 0 50.0773 11.4423 573 111.38 207.899 475.784
396 0 51.0523 14.9846 765 108.873 207.363 471.238
397 0 52.1209 13.4111 699 112.099 207.371 468.538
398 0 55.0549 12.4603 686 112.631 206.758 470.147
399 0 54.0396 9.91866 536 117.606 206.412 469.797
400 0 57.1676 11.1252 636 115.863 206.025 469.201
401 0 61.3129 14.0101 859 111.128 204.652 464.945
402 0 65.2734 14.2937 933 109.7 204.096 463.921
403 0 64.2275 12.9539 832 112.422 203.627 461.827
404 0 67.2977 17.8461 1201 104.808 202.651 463.29
405 0 69.2286 15.5571 1077 108.838 202.319 459.137
406 0 70.1631 14.1955 996 110.71 201.465 455.925
407 0 75.355 17.9948 1356 104.6 200.51 457.765
408 0 75.2912 10.1871 767 115.106 200.876 457.184
409 0 80.1704 13.4962 1082 110.671 201.445 454.799
410 0 84.127 14.276 1201 110.505 200.401 448.518
411 0 83.2194 14.7442 1227 110.524 200.724 447.447
412 0 86.1659 18.1743 1566 105.534 200.365 448.683
413 0 90.4518 16.7935 1519 108.914 200.22 438.242
414 0 93.3632 11.7391 1096 112.932 201.083 449.317
415 0 95.2547 15.7473 1500 110.237 201.263 439.049
416 1 51.0598 12.5539 641 114.292 202.769 459.034
417 0 52.0809 13.5558 706 112.887 203.363 455.797
418 0 54.1327 9.95701 539 116 203.549 455.199
419 0 54.18 12.0709 654 114.705 204.558 457.991
420 0 55.25 16.181 894 109.521 205.607 451.284
421 0 56.1566 15.6349 878 110.256 206.103 455.647
422 0 59.168 15.0926 893 111.267 206.49 450.464
423 0 63.3149 14.0093 887 111.383 207.044 452.92
424 0 62.1707 13.8007 858 112.624 206.845 451.395
425 0 65.1788 11.0159 718 115.982 208.22 453.032
426 0 69.1776 19.1392 1324 104.685 207.881 451.617
427 0 73.2046 18.8376 1379 104.181 208.362 451.038
428 0 74.1785 17.9432 1331 106.355 208.748 448.235
429 0 74.1678 12.6605 939 112.72 210.536 452.58
430 0 79.2423 19.8884 1576 101.911 210.237 454.612
431 0 78.282 13.8218 1082 112.811 210.395 448.938
432 0 81.1797 15.053 1222 111.332 210.743 450.944
433 0 82.2457 13.7879 1134 110.541 211.137 455.671
434 0 88.1973 12.8802 1136 114.754 211.419 450.039
435 0 94.3386 14.7872 1395 112.62 210.933 444.85
436 0 96.2005 12.1101 1165 117.169 209.952 446.197
437 0 100.276 11.7476 1178 118.45 209.269 442.698
438 0 101.284 12.6574 1282 113.265 209.55 447.952
439 0 103.397 15.8418 1638 111.115 208.094 443.846
440 0 107.282 13.898 1491 114.375 207.588 440.376
441 1 58.189 12.7344 741 114.169 207.827 466.281
442 0 56.0714 14 785 114.146 207.183 464.929
443 0 59.1359 13.748 813 115.44 206.661 460.699
444 0 61.3312 13.2233 811 115.24 206.316 462.477
445 0 64.2858 12.2267 786 116.954 205.039 461.342
446 0 66.2421 13.0129 862 116.232 205.341 456.625
447 0 67.3861 13.0145 877 117.251 204.977 456.249
448 0 71.3619 13.7328 980 115.693 203.564 454.149
449 0 72.4131 12.5668 910 117.888 203.091 454.097
450 0 75.3275 14.417 1086 115.757 202.181 451.883
451 0 81.4103 17.0986 1392 110.78 203.09 449.46
452 0 83.35 12.9334 1078 116.874 202.87 448.118
453 0 86.2354 12.6862 1094 119.133 201.691 445.749
454 0 89.3899 12.6524 1131 118.693 200.643 445.218
455 0 91.6243 15.2471 1397 113.624 200.351 441.783
456 0 94.2451 14.006 1320 111.467 200.783 444.37
457 1 51.2847 12.8888 661 109.34 199.183 462.222
458 0 52.1212 13.1424 685 110.65 200.226 460.177
459 0 54.1075 13.6026 736 110.75 199.321 457.065
460 0 55.1536 12.71 701 107.84 201.006 458.268
461 0 58.4234 19.6668 1149 99.3986 201.178 459.195
462 0 61.1888 14.3981 881 105.902 201.395 455.402
463 0 63.415 13.6088 863 106.297 201.294 455.992
464 0 63.2894 14.3152 906 107.19 201.925 453.518
465 0 67.1957 13.6765 919 106.505 202.342 455.047
466 0 67.1265 11.1729 750 109.587 203.349 458.172
467 0 69.228 10.8916 754 111.029 202.956 456.074
468 0 74.2384 14.4669 1074 106.1 203.506 454.125
469 0 76.2057 14.1984 1082 108.863 204.505 453.543
470 0 77.3833 11.6692 903 113.683 205.249 450.91
471 0 75.1947 9.28257 698 118.138 205.099 451.274
472 0 82.1965 13.7354 1129 112.054 205.77 450.461
473 0 84.2511 11.2165 945 116.121 205.579 453.804
474 0 87.1974 13.8995 1212 112.91 206.103 451.906
475 1 46.074 15.627 720 110.731 204.751 471.018
476 0 50.0681 18.7944 941 105.786 204.886 473.475
477 0 49.3877 12.7765 631 116.902 204.239 473.22
478 0 51.3382 11.1808 574 119.969 204.003 476.502
479 0 54.1936 22.4012 1214 100.544 204.084 478.033
480 0 57.1206 12.7275 727 114.315 203.18 476.791
481 0 55.0858 13.8693 764 114.496 202.033 476.428
482 0 61.1871 13.8264 846 112.621 202.092 476.421
483 0 61.2126 14.4088 882 113.176 201.226 474.713
484 0 63.2915 13.9671 884 113.628 200.931 474.972
485 0 65.1369 16.9643 1105 109.649 199.026 472.791
486 0 67.1999 15.6399 1051 111.536 199.255 470.311
487 0 70.2903 15.9339 1120 110.479 199.032 470.715
488 0 70.174 14.2645 1001 114.008 198.269 467.355
489 0 74.2891 15.2108 1130 112.894 197.488 463.904
490 0 76.2537 14.7796 1127 113.977 197.579 464.922
491 0 79.3398 12.3897 983 116.415 195.791 467.791
492 0 82.2262 16.7951 1381 111.8 196.102 459.55
493 0 85.2287 18.292 1559 109.614 195.94 457.257
494 0 85.2214 12.9193 1101 118.065 194.589 457.869
495 1 46.0924 11.6722 538 118.572 192.691 478.753
496 0 45.0477 12.1427 547 117.122 193.069 475.373
497 0 47.0466 13.4122 631 116.119 192.559 474.96
498 0 49.0493 15.4742 759 112.808 192.942 470.993
499 0 50.3963 16.529 833 109.523 193.528 470.285
500 0 51.2564 12.7594 654 114.257 193.725 469.269
501 0 52.1272 18.0136 939 107.651 194.181 467.445
502 0 54.1261 12.2492 663 116.341 194.617 463.753
503 0 54.2601 12.2558 665 116.329 195.992 463.693
504 0 55.1906 12.9551 715 114.978 195.835 460.55
505 0 58.2577 12.6164 735 114.4 196.571 460.171
506 0 59.3579 12.1635 722 114.747 197.155 460.91
507 0 62.0693 12.5988 782 114.588 197.542 459.935
508 0 66.127 17.043 1127 107.907 199.627 456.358
509 0 68.2174 17.0045 1160 109.21 200.444 452.427
510 0 68.2715 15.2626 1042 113.306 200.73 452.505
511 0 72.1104 13.8537 999 114.754 201.986 452.385
512 0 74.1808 13.9524 1035 114.71 202.859 454.127
513 0 79.5506 18.1394 1443 108.353 203.69 454.519
514 0 80.1216 14.8524 1190 115.48 203.378 449.843
515 0 83.1227 15.9403 1325 114.184 204.002 451.465
516 0 86.2791 17.6172 1520 112.755 202.641 445.056
517 0 90.1823 17.265 1557 111.737 203.029 449.373
518 0 93.3206 15.5485 1451 114.901 202.769 451.382
519 1 47.1687 13.7167 647 108.818 203.801 472.55
520 0 50.1394 15.8957 797 107.077 202.383 473.329
521 0 52.3161 14.4888 758 109.236 203.675 476.858
522 0 53.1956 14.2681 759 110.148 203.242 476.335
523 0 54.3339 14.9078 810 108.958 202.981 473.731
524 0 58.2186 16.8159 979 105.252 202.49 469.38
525 0 58.1169 14.7289 856 107.866 201.293 474.707
526 0 59.3095 13.1513 780 110.506 201.523 472.8
527 0 65.3435 16.8953 1104 103.736 200.069 471.207
528 0 61.1964 12.6968 777 111.614 199.746 469.212
529 0 65.2295 19.5004 1272 101.649 198.851 471.34
530 0 68.237 14.3177 977 108.354 198.805 468.184
531 0 70.2203 15.5653 1093 107.296 198.144 467.712
532 0 71.2564 17.1353 1221 105.432 197.484 463.424
533 0 75.1542 15.1289 1137 107.204 197.267 465.725
534 0 76.2582 15.736 1200 109.061 196.818 461.862
535 0 78.0896 14.6498 1144 109.185 195.413 461.083
536 0 80.3559 19.0901 1534 103.074 195.587 460.936
537 0 82.561 15.3705 1269 109.251 195.478 455.6
538 0 84.4207 13.9776 1180 110.722 194.938 452.72
539 0 87.2287 14.2958 1247 110.595 195.431 454.815
540 0 91.4284 15.2032 1390 112.681 194.983 450.517
541 0 93.6136 15.2115 1424 112.765 194.573 445.032
542 0 97.2902 13.1976 1284 115.085 193.804 447.481
543 1 52.1966 11.5716 604 115.874 194.427 468.796
544 0 54.1273 13.302 720 113.535 194.26 467.665
545 0 54.2805 10.9984 597 115.744 195.077 468.953
546 0 57.1531 11.9504 683 115.927 195.609 461.753
547 0 60.2959 12.6211 761 114.093 197.482 460.846
548 0 63.1423 14.9504 944 108.126 197.182 464.891
549 0 65.0736 14.5066 944 110.076 197.917 455.988
550 0 69.3336 14.2211 986 107.427 199.053 461.604
551 0 71.3149 16.981 1211 106.276 198.915 454.872
552 0 73.3313 16.6232 1219 104.779 198.77 459.418
553 0 77.1421 14.8039 1142 108.547 198.922 452.089
554 0 78.1751 13.4953 1055 109.749 200.318 453.186
555 0 79.2708 16.8158 1333 103.65 200.753 447.289
556 0 84.2828 16.6463 1403 105.085 201.757 453.676
557 0 89.2213 13.2592 1183 111.178 202.918 449.871
558 0 91.2317 16.5513 1510 106.095 202.869 453.401
559 0 92.3242 14.774 1364 111.071 203.231 441.623
560 0 99.4977 15.6185 1554 109.284 203.947 445.878
561 0 100.249 13.1173 1315 112.071 203.152 449.211
562 0 103.231 14.0946 1455 111.395 204.219 444.053
563 1 54.1152 14.3767 778 105.224 203.497 470.411
564 0 55.0493 13.715 755 110.25 202.796 468.899
565 0 57.1894 11.1035 635 112.192 202.277 472.597
566 0 61.499 14.1141 868 106.063 202.031 473.438
567 0 64.0743 15.2635 978 104.666 201.657 472.139
568 0 65.2616 12.2277 798 108.624 200.915 469.904
569 0 66.3899 10.604 704 110.382 200.24 468.236
570 0 71.3118 15.2149 1085 103.171 199.289 466.57
571 0 74.2328 18.0783 1342 99.3122 198.962 466.906
572 0 73.2245 15.0359 1101 104.958 198.668 460.8
573 0 77.2521 11.9867 926 108.268 197.563 461.53
574 0 81.2798 10.7899 877 109.488 197.038 461.534
575 0 83.205 10.384 864 110.478 196.109 457.677
576 0 86.4404 14.993 1296 103.858 195.681 460.798
577 0 90.4249 13.4144 1213 106.948 195.122 452.858
578 1 45.1047 10.9745 495 109.048 193.661 472.952
579 0 49.1766 10.2691 505 109.804 193.644 471.406
580 0 52.1409 12.4662 650 108.235 192.969 470.08
581 0 52.2052 18.0442 942 99.4034 193.839 471.64
582 0 53.4701 10.9033 583 109.007 193.75 466.978
583 0 56.0907 16.7229 938 102.193 193.611 468.793
584 0 55.226 12.0052 663 111.698 193.29 463.142
585 0 58.107 18.1562 1055 102.11 194.545 464.54
586 0 60.1211 14.8534 893 106.404 194.951 463.363
587 0 61.2029 12.238 749 111.323 195.858 460.16
588 0 62.0772 15.6901 974 107.373 196.198 455.554
589 0 63.1078 11.9795 756 112.407 196.187 456.587
590 0 68.1357 17.8027 1213 103.934 196.261 454.11
591 0 69.2762 14.3917 997 109.289 197.96 453.059
592 0 70.1857 14.5756 1023 109.601 198.224 451.086
593 0 72.1049 12.9811 936 112.163 198.772 451.436
594 0 75.165 13.0912 984 110.35 198.934 455.55
595 0 80.4151 15.8304 1273 108.192 199.391 449.88
596 0 81.4652 18.0936 1474 106.113 201.185 447.519
597 0 82.3779 15.6595 1290 110.526 201.782 444.011
598 0 86.1195 13.5509 1167 112.455 203.399 445.777
599 0 88.1589 14.9616 1319 103.704 202.362 452.043
600 0 90.2557 12.2873 1109 107.476 202.857 447.824
601 0 94.5375 13.4656 1273 105.818 202.577 447.963
602 0 99.1739 16.3349 1620 101.746 203.045 448.203
603 0 102.243 15.2871 1563 102.249 203.354 450.353
604 0 104.309 15.8663 1655 103.619 203.975 442.402
605 1 54.2607 9.50965 516 107.419 202.186 472.545
606 0 58.0859 10.3812 603 102.685 202.546 475.425
607 0 58.4176 14.3108 836 101.041 203.852 468.179
608 0 60.1448 17.4911 1052 96.9506 202.261 471.808
609 0 62.2621 12.9774 808 103.47 202.187 468.912
610 0 61.1346 14.28 873 103.336 202.263 468.279
611 0 67.3182 16.2809 1096 99.2819 201.595 471.157
612 0 67.3966 12.6416 852 105.304 201.31 467.386
613 0 70.3939 16.8765 1188 99.6027 201.447 467.474
614 0 71.3414 11.6202 829 106.694 200.086 466.741
615 0 76.2667 18.0157 1374 97.9527 200.304 468.044
616 0 76.3355 14.6983 1122 103.613 198.386 464.881
617 0 82.3586 14.3762 1184 102.971 197.993 463.85
618 0 83.2656 14.1835 1181 104.423 198.376 460.907
619 0 85.3308 16.3599 1396 102.588 197.032 452.877
620 1 43.106 10.9729 473 107.416 193.666 477.812
621 0 47.0595 13.2173 622 101.336 195.141 478.281
622 0 46.4669 11.8364 550 103.131 197.858 476.842
623 0 45.0575 12.362 557 104.752 197.501 475.571
624 0 48.2091 12.5702 606 105.612 198.048 471.322
625 0 51.0668 14.2754 729 105.491 197.978 472.045
626 0 52.1326 13.0437 680 107.497 197.941 467.904
627 0 51.2082 9.99839 512 110.828 197.648 470.367
628 0 55.1267 17.5777 969 99.3406 197.788 470.102
629 0 57.1807 16.3866 937 100.691 197.785 466.013
630 0 55.1845 17.523 967 98.1251 197.298 469.66
631 0 57.22 13.0723 748 107.91 198.758 459.608
632 0 59.2593 10.395 616 110.693 198.161 462.157
633 0 61.1807 10.9512 670 109.706 200.2 462.655
634 0 63.1381 11.3561 717 109.817 200.732 460.364
635 0 67.356 18.2166 1227 101.478 200.554 458.396
636 0 67.1609 13.8176 928 107.064 201.495 461.196
637 0 66.3624 12.5372 832 111.452 201.918 457.928
638 0 72.2902 12.8786 931 110.895 201.952 454.751
639 0 74.3516 13.4496 1000 109.941 202.49 454.827
640 0 77.1995 13.6788 1056 109.558 203.699 457.127
641 0 79.1647 14.5519 1152 109.837 204.536 451.956
642 0 80.1952 12.5319 1005 114.072 205.18 449.417
643 0 87.1687 15.4757 1349 108.63 205.894 452.733
644 0 88.2593 14.2535 1258 110.316 206.548 451.595
645 0 92.3013 12.6867 1171 112.905 206.851 449.213
646 1 51.0566 11.8496 605 113.519 206.726 471.26
647 0 56.1311 11.6335 653 112.969 207.444 470.658
648 0 54.0696 12.3729 669 113.232 205.456 468.924
649 0 56.043 13.7038 768 112.204 205.969 467.578
650 0 58.1472 11.746 683 113.592 205.877 473.688
651 0 61.1845 10.5746 647 113.974 206.221 474.039
652 0 60.0608 13.6695 821 111.663 205.548 471.268
653 0 65.0358 16.4986 1073 105.748 205.257 471.076
654 0 66.0751 12.5615 830 113.661 204.963 469.523
655 0 71.0642 13.7903 980 110.585 205.101 470.084
656 0 73.0738 13.5753 992 111.544 204.311 468.202
657 0 74.1676 12.4583 924 113.705 203.079 467.545
658 0 78.095 15.1226 1181 108.534 202.826 468.515
659 0 77.0564 12.7439 982 114.866 201.227 464.234
660 0 82.222 15.6163 1284 109.374 201.16 464.163
661 0 88.4766 14.4219 1276 108.025 200.548 467.166
662 0 85.1948 13.8154 1177 114.208 199.918 459.69
663 1 44.047 11.1245 490 112.065 199.776 479.624
664 0 46.0363 14.532 669 101.034 197.256 478.52
665 0 46.2751 11.021 510 107.269 194.765 471.539
666 0 49.1253 13.1908 648 103.281 196.421 475.233
667 0 49.1686 12.1826 599 108.284 194.426 471.407
668 0 50.2813 13.4046 674 104.901 195.178 470.568
669 0 56.2905 14.6028 822 102.182 195.751 469.701
670 0 54.1892 13.9327 755 103.546 195.477 470.069
671 0 57.2138 13.668 782 103.483 195.609 466.89
672 0 56.222 14.2649 802 102.756 194.778 468.576
673 0 57.4004 17.1602 985 100.071 195.544 460.502
674 0 58.1546 14.9601 870 104.116 196.323 462.445
675 0 59.1549 11.4614 678 109.531 195.614 462.021
676 0 63.1338 10.7074 676 111.571 197.135 458.645
677 0 63.1843 13.0254 823 108.115 198.021 454.051
678 0 67.0563 17.2542 1157 101.092 198.534 455.974
679 0 68.158 10.2116 696 111.211 198.835 456.989
680 0 70.119 13.4486 943 106.616 199.908 453.303
681 0 70.1242 12.4921 876 107.41 199.432 457.245
682 0 72.3013 10.1243 732 110.572 199.861 453.749
683 0 77.0764 16.0101 1234 101.789 201.688 452.997
684 0 81.1517 15.7606 1279 102.279 202.204 449.753
685 0 81.3543 13.2507 1078 105.219 202.463 454.036
686 1 45.0244 12.3489 556 105.599 200.937 471.056
687 0 49.1649 13.9327 685 103.42 202.953 469.888
688 0 47.185 11.4867 542 107.572 202.651 470.946
689 0 51.2684 12.9124 662 105.183 202.529 467.787
690 0 53.0541 11.9878 636 105.138 203.175 473.239
691 0 56.1665 13.8517 778 101.014 202.762 473.373
692 0 57.267 14.4586 828 101.43 202.617 470.757
693 0 59.2066 12.4142 735 102.676 202.533 471.541
694 0 62.1329 13.5355 841 102.21 202.434 469.467
695 0 61.2308 14.0779 862 102.474 202.201 468.333
696 0 61.2308 13.9799 856 130.565 201.207 468.207
697 1 119.197 12.6597 1509 101.818 203.124 450.294
698 1 69.1055 14.6153 1010 100.07 201.76 468.764
699 0 73.1466 18.7432 1371 95.3217 201.062 467.791
700 0 74.0941 14.4951 1074 100.187 199.204 465.629
701 0 75.1816 15.0303 1130 100.26 198.284 461.49
702 0 79.1358 12.7755 1011 103.361 197.353 460.518
703 0 82.2903 12.6989 1045 103.434 197.633 459.987
704 0 83.4031 11.2706 940 104.771 196.722 457.401
705 0 88.2776 14.1146 1246 101.07 196.258 452.502
706 0 90.1936 13.5819 1225 101.904 195.869 449.931
707 1 46.243 10.5962 490 101.527 195.059 471.378
708 0 48.2912 15.8828 767 94.9452 196.932 471.399
709 0 48.2849 10.1274 489 100.675 195.313 471.415
710 0 52.1834 16.8444 879 90.9579 194.564 471.882
711 0 52.3142 11.1633 584 98.8801 195.3 469.74
712 0 55.3135 12.9082 714 96.605 193.273 466.934
713 0 54.223 12.2826 666 97.9339 195.08 464.044
714 0 57.2658 10.5822 606 99.5363 193.883 464.444
715 0 59.2239 14.1497 838 96.0621 195.037 461.233
716 0 60.1377 9.64453 580 99.2121 195.414 464.821
717 0 62.3354 12.5771 784 95.6008 196.156 461.99
718 0 64.3464 18.3227 1179 90.3249 195.575 459.84
719 0 68.2653 12.4514 850 96.7082 197.204 454.961
720 0 66.5374 14.5031 965 95.7699 197.849 457.025
721 0 70.4138 9.04652 637 101.283 198.174 456.155
722 0 74.7226 14.4133 1077 96.0557 198.377 449.033
723 0 75.3034 17.144 1291 94.3656 199.666 452.461
724 0 79.2582 11.4941 911 101.068 199.74 450.22
725 0 81.4801 13.6475 1112 103.228 199.849 450.91
726 0 85.4549 13.1648 1125 104.201 199.76 450.106
727 0 86.5056 12.2535 1060 106.185 200.899 450.263
728 0 91.4509 16.446 1504 100.98 201.853 446.475
729 0 90.1963 14.2578 1286 102.316 201.884 446.118
730 0 92.208 9.28336 856 108.275 202.192 452.084
731 0 98.2764 18.4073 1809 98.3781 202.367 447.878
732 0 100.579 13.1738 1325 102.293 203.851 442.983
733 0 101.517 12.658 1285 101.911 203.336 448.238
734 0 106.484 14.791 1575 101.311 203.783 443.862
735 1 58.362 16.6204 970 93.2948 204.751 470.718
736 0 55.5404 16.2044 900 93.8933 204.389 473.006
737 0 58.286 13.1593 767 96.751 204.838 475.402
738 0 62.0822 16.5426 1027 94.2882 202.772 469.618
739 0 62.2622 11.9013 741 99.865 203.46 473.825
740 0 65.0985 16.8975 1100 94.25 202.053 471.425
741 0 64.1935 10.8266 695 101.455 202.271 470.292
742 0 70.1577 16.7052 1172 94.8899 200.711 466.646
743 0 70.258 13.4504 945 99.2825 200.619 466.741
744 0 73.5096 13.9574 1026 98.4698 199.678 462.55
745 0 75.3937 13.9004 1048 98.166 198.716 465.722
746 0 78.4705 13.8141 1084 99.0157 198.096 460.722
747 0 75.2713 12.2623 923 99.1896 197.811 460.348
748 0 84.5276 18.976 1604 94.293 196.787 456.119
749 0 83.301 14.9218 1243 99.1432 197.965 461.266
750 0 90.1386 15.7091 1416 102.645 196.957 457.686
751 0 89.4047 14.261 1275 104.97 197.042 455.336
752 1 46.228 9.75599 451 106.927 197.155 473.355
753 0 46.4064 9.48144 440 105.223 195.8 475.966
754 0 49.2115 12.6596 623 101.552 196.059 473.734
755 0 54.1893 13.3052 721 107.612 198.979 467.061
756 0 52.2646 13.8909 726 106.636 198.231 466.853
757 0 53.286 14.9195 795 104.277 198.283 470.567
758 0 62.276 12.6855 790 107.718 198.628 464.957
759 0 62.1893 10.468 651 110.057 199.356 466.975
760 0 59.1323 13.9856 827 108.418 200.538 458.821
761 1 125.447 13.4559 1688 111.883 199.273 432.014
762 1 63.2671 15.5215 982 107.433 200.834 457.095
763 0 65.3989 11.7433 768 111.456 201.389 457.962
764 0 66.334 12.6481 839 112.123 202.005 453.897
765 0 72.2078 13.7797 995 109.135 202.124 456.087
766 0 71.364 13.228 944 108.933 202.017 454.558
767 0 73.2652 17.6892 1296 103.458 202.216 454.782
768 0 76.3494 11.0806 846 108.148 203.963 453.487
769 0 79.6393 16.9263 1348 102.326 203.47 447.464
770 0 80.3755 11.7698 946 106.589 204.216 456.597
771 0 83.1788 12.8518 1069 107.52 204.21 453.463
772 0 83.1788 12.8999 1073 135.28 205.237 453.547
773 0 88.8828 16.3924 1457 103.701 203.011 449.493
774 0 92.3784 12.7411 1177 108.419 203.766 450.209
775 0 96.6899 13.3416 1290 107.658 204.646 449.74
776 1 47.2513 12.169 575 105.494 202.95 471.685
777 0 49.1243 14.2496 700 102.287 203.291 471.55
778 0 51.1918 13.5569 694 102.843 202.49 473.695
779 0 51.091 11.6263 594 105.783 202.32 473.951
780 0 55.2935 12.2257 676 104.056 202.336 471.33
781 0 54.1214 11.5851 627 105.593 201.113 471.715
782 0 56.1234 15.751 884 100.534 201.388 469.822
783 0 59.2084 17.4806 1035 98.5894 201.822 468.882
784 0 62.0776 12.8066 795 103.79 199.858 472.391
785 0 61.2336 11.6766 715 106.01 200.154 469.355
786 0 63.3102 13.4102 849 103.648 200.065 467.332
787 0 68.2342 14.0106 956 101.701 198.753 469.542
788 0 65.3035 11.4236 746 106.946 198.971 464.251
789 0 70.5454 15.5786 1099 100.776 197.462 458.331
790 1 146.518 10.7837 1580 112.868 197.723 421.661
791 1 75.3144 12.0561 908 106.113 196.963 461.649
792 0 77.2783 14.1566 1094 104.383 197.691 454.81
793 0 80.2814 15.6948 1260 103.04 196.629 453.292
794 0 83.5034 12.8857 1076 107.297 197.172 445.116
795 0 85.3084 13.586 1159 107.38 196.391 449.443
796 0 86.2059 14.361 1238 104.533 195.618 455.149
797 0 89.1588 13.0441 1163 108.185 195.794 447.664
798 0 95.1374 14.7997 1408 107.335 196.155 443.259
799 0 98.5266 19.6495 1936 100.238 196.096 446.371
800 0 99.2579 10.9714 1089 112.453 198.06 441.382
801 0 99.2213 11.5903 1150 111.966 199.665 439.689
802 0 103.554 15.924 1649 100.178 199.723 446.392
803 1 59.0703 13.8479 818 101.493 200.553 463.345
804 0 61.2644 21.4807 1316 92.4119 198.994 462.725
805 0 64.1388 15.9342 1022 98.501 200.935 461.021
806 0 65.2431 13.9172 908 101.447 201.872 458.074
807 0 68.088 15.3625 1046 99.5746 202.247 456.845
808 0 72.2491 16.4154 1186 96.726 201.995 460.996
809 0 73.3727 21.7792 1598 93.7578 201.977 447.925
810 0 75.4193 14.3067 1079 102.267 204.988 455.484
811 0 76.1716 13.6271 1038 103.033 204.243 457.518
812 0 78.1858 17.7142 1385 100.372 204.982 450.914
813 0 81.2699 15.6146 1269 103.977 205.206 451.274
814 0 85.2114 15.221 1297 104.356 205.231 449.887
815 0 84.5271 14.0073 1184 107.014 205.503 453.565
816 0 88.393 13.3042 1176 109.566 204.193 448.576
817 0 90.3951 14.8902 1346 107.418 205.3 446.288
818 0 93.47 13.6728 1278 110.466 205.403 445.785
819 0 102.699 14.1968 1458 108.331 205.274 444.619
820 1 48.0908 11.2704 542 104.764 204.033 467.517
821 0 49.1251 11.8066 580 104.416 203.648 465.141
822 0 54.3467 14.4259 784 102.004 203.761 466.302
823 0 54.1396 13.0958 709 107.113 203.034 471.241
824 0 56.2518 16.0884 905 103.672 202.501 469.162
825 0 57.1794 14.1834 811 106.824 202.507 469.355
826 0 61.1085 13.6806 836 107.414 201.78 469.872
827 0 62.1118 14.4417 897 106.452 202.531 471.707
828 0 64.1635 13.7461 882 107.389 201.567 470.549
829 0 66.0834 15.2988 1011 106.865 200.205 467.573
830 0 70.2584 17.6349 1239 99.4173 199.797 465.586
831 0 69.3579 13.279 921 106.549 199.852 460.34
832 0 73.3196 14.5527 1067 104.668 199.718 462.565
833 0 75.4563 14.3262 1081 105.919 199.045 457.148
834 0 78.4797 13.838 1086 105.787 198.075 458.067
835 0 80.1944 16.6969 1339 103.282 198.37 454.764
836 0 83.367 19.5641 1631 100.026 197.11 452.943
837 0 89.2677 18.4837 1650 99.663 197.084 456.932
838 1 45.3474 15.26 692 103.221 196.377 475.246
839 0 47.1108 11.6958 551 107.503 198.013 470.054
840 0 49.2009 13.4144 660 104.988 198.436 470.227
841 0 51.075 15.4479 789 105.431 197.867 467.587
842 0 51.1352 14.5692 745 107.766 197.878 464.597
843 0 53.1664 13.8057 734 106.967 198.895 464.181
844 0 55.0665 14.0013 771 107.231 198.287 464.113
845 0 59.0701 16.455 972 101.952 199.645 463.173
846 0 59.0943 14.1807 838 105.899 199.825 455.897
847 0 62.1192 18.4645 1147 99.4969 200.108 460.132
848 0 63.2602 15.95 1009 103.602 200.814 457.663
849 0 65.1145 14.0675 916 105.914 201.663 458.008
850 0 69.1565 14.807 1024 104.301 202.247 457.374
851 0 72.1541 15.0927 1089 104.108 203.328 455.341
852 0 73.2352 15.9213 1166 104.081 202.679 452.647
853 0 74.3895 13.7251 1021 108.558 204.098 451.13
854 0 78.2641 14.0294 1098 107.084 204.591 451.885
855 0 80.2494 14.916 1197 105.076 204.657 452.195
856 0 83.3299 14.5326 1211 105.097 204.052 451.331
857 1 44.0816 13.6565 602 107.03 205.042 468.698
858 0 44.1805 11.9283 527 110.624 204.894 469.843
859 0 48.1233 14.2758 687 105.801 206.367 468.82
860 0 49.1312 14.39 707 106.042 205.631 470.75
861 0 52.1505 16.9893 886 102.261 206.345 468.049
862 0 52.2008 13.0649 682 109.529 206.317 469.169
863 0 54.0531 11.5442 624 110.562 205.045 473.139
864 0 54.0531 11.5257 623 146.775 204.056 473.148
865 0 58.2081 13.7438 800 109.644 205.733 470.305
866 0 60.233 14.0787 848 108.291 205.074 472.532
867 0 63.2244 12.163 769 112.205 205.016 466.978
868 0 63.2116 16.8956 1068 105.097 203.699 469.655
869 0 66.1234 16.8473 1114 103.874 203.445 473.778
870 0 66.0782 16.3291 1079 108.172 203.557 465.659
871 0 69.1812 13.9489 965 111.437 202.832 467.88
872 0 73.1701 16.8512 1233 106.406 202.19 466.981
873 0 72.4966 14.511 1052 114.003 201.324 462.64
874 0 74.1836 12.833 952 116.737 201.121 463.684
875 0 79.2929 15.3482 1217 113.847 198.981 461.818
876 0 83.2025 16.7423 1393 113.803 198.235 459.37
877 1 43.0416 11.5934 499 120.982 197.048 475.425
878 0 45.3031 10.1318 459 121.529 196.362 476.07
879 0 46.1691 13.1257 606 119.373 197.52 473.685
880 0 48.2454 13.6386 658 108.222 197.973 471.64
881 0 49.3353 14.3305 707 108.344 199.772 463.731
882 0 50.5876 11.6432 589 110.671 197.924 465.506
883 0 50.5876 11.6629 590 126.334 195.931 465.525
884 0 54.3447 10.967 596 110.894 197.636 461.587
885 0 57.6102 17.3233 998 99.9088 197.899 463.153
886 0 57.3137 15.3716 881 106.652 197.27 461.846
887 0 59.407 12.7763 759 110.327 197.692 463.058
888 0 62.5837 17.2249 1078 103.118 198.683 461.806
889 0 63.3122 12.9517 820 110.101 198.723 458.796
890 0 65.4065 12.5217 819 111.067 200.023 454.709
891 0 69.4138 11.5827 804 109.634 200.152 460.254
892 0 71.4188 16.9843 1213 103.314 199.936 457.871
893 0 73.4901 17.9208 1317 102.87 201.352 456.154
894 0 76.3828 18.9048 1444 103.607 201.413 450.652
895 0 80.6731 16.6474 1343 108.459 202.761 446.432
896 0 85.3744 18.5301 1582 105.011 203.322 451.052
897 1 42.2656 16.0887 680 99.6397 202.215 473.424
898 0 43.4331 9.46283 411 110.406 202.482 467.613
899 0 46.6786 11.3971 532 107.628 203.444 467.773
900 0 45.4532 10.5823 481 108.466 203.971 470.268
901 0 47.2431 12.0229 568 107.572 205.167 467.729
902 0 48.2553 11.5635 558 107.914 204.918 471.174
903 0 52.2279 10.6839 558 107.28 205.713 472.206
904 0 52.2298 12.311 643 107.191 205.019 470.367
905 0 54.3461 10.9851 597 108.817 205.26 466.384
906 0 56.2336 12.4303 699 106.298 205.27 470.421
907 0 57.3297 11.3205 649 107.854 204.841 471.214
908 0 61.2776 14.5404 891 103.505 204.456 468.304
909 0 61.2364 12.4436 762 108.768 204.92 463.588
910 0 64.455 9.13816 589 111.518 204.467 469.014
911 0 67.4679 11.0275 744 110.704 203.899 467.79
912 0 72.6596 10.735 780 109.682 204.64 464.494
913 0 72.3219 13.2602 959 107.777 203.526 463.916
914 0 74.4621 11.0795 825 111.647 202.39 464.879
915 0 78.3417 13.6326 1068 108.167 201.872 462.828
916 0 80.2904 12.1683 977 111.025 200.232 460.121
917 1 41.3589 5.94794 246 108.98 197.61 482.463
918 0 45.4995 11.7804 536 101.937 199.116 481.507
919 0 45.6761 12.1289 554 105.339 198.726 477.431
920 0 45.4576 12.3852 563 105.52 197.359 472.714
921 0 45.3789 8.21967 373 113.359 196.421 474.946
922 0 47.5981 9.37013 446 112.395 196.962 473.751
923 0 48.4578 10.5246 510 110.237 196.535 467.102
924 0 52.4663 12.1221 636 107.088 196.895 468.899
925 0 51.1982 10.9574 561 107.9 196.971 471.519
926 0 54.2878 11.6048 630 107.725 197.494 467.373
927 0 54.2892 12.065 655 106.644 196.711 465.84
928 0 59.4342 11.9796 712 106.955 197.323 463.559
929 0 59.2633 8.63942 512 112.332 198.781 466.48
930 0 61.3236 13.6163 835 105.666 199.696 463.429
931 0 65.3203 14.559 951 105.127 199.228 460.861
932 0 66.3692 13.2893 882 106.051 200.28 460.789
933 0 68.6225 13.2318 908 106.295 200.344 459.01
934 0 70.2073 17.0638 1198 102.295 200.665 453.763
935 0 75.2807 12.5929 948 107.186 201.263 456.546
936 0 73.2361 11.4288 837 112.324 203.319 449.183
937 0 78.2267 15.0972 1181 105.809 203.419 450.672
938 0 79.2971 9.72293 771 115.952 205.017 446.126
939 1 41.2926 7.82222 323 110.452 206.313 470.102
940 0 40.2795 8.61479 347 109.867 205.605 467.844
941 0 44.69 11.6357 520 107.823 204.783 463.413
942 0 45.0974 10.178 459 110.484 205.399 467.111
943 0 46.3071 9.50178 440 111.084 205.723 470.67
944 0 49.2603 12.0381 593 106.992 206.833 468.327
945 1 101.494 14.188 1440 108.66 205.692 447.587
946 1 53.2654 21.3647 1138 94.3937 205.253 471.333
947 0 55.1522 12.6015 695 104.8 206.035 471.429
948 0 53.1043 16.8348 894 102.949 205.576 470.61
949 0 53.3492 12.0902 645 110.101 204.126 466.679
950 0 55.3859 11.7539 651 109.607 204.065 468.37
951 0 55.4853 12.3997 688 110.097 203.814 471.839
952 0 56.2904 10.3392 582 111.301 203.115 471.153
953 0 60.4399 10.2912 622 111.548 203.498 467.698
954 0 62.406 11.1368 695 110.043 202.345 469.917
955 0 63.3351 10.4208 660 111.806 202.039 469.092
956 0 65.4047 14.7543 965 105.535 201.728 470.751
957 0 71.3648 15.3437 1095 104.484 201.123 470.224
958 0 68.2367 11.7825 804 112.05 200.6 465.867
959 0 71.2641 11.8994 848 111.193 198.91 467.434
960 0 74.4518 12.8943 960 108.928 199.592 467.171
961 0 78.236 15.2104 1190 99.3849 199.635 475.494
962 0 79.3833 12.5845 999 109.919 200.632 462.156
963 0 82.2472 12.6934 1044 108.785 200.452 462.719
964 1 44.0842 14.5857 643 104.857 200.375 476.593
965 0 43.0215 10.2972 443 107.28 199.7 479.977
966 0 44.3402 13.1934 585 106.581 198.012 474.144
967 0 45.2453 10.6088 480 109.012 200.135 474.271
968 0 49.0756 14.1415 694 103.049 199.236 473.196
969 0 49.1545 10.823 532 109.222 198.492 471.009
970 0 50.054 12.5065 626 106.176 198.772 470.252
971 0 52.038 13.4517 700 103.519 198.78 468.92
972 0 53.0747 14.4325 766 102.298 199.529 466.004
973 0 55.2881 16.3869 906 100.723 198.468 463.738
974 0 56.091 12.4441 698 106.347 199.93 465.206
975 0 56.2239 15.1537 852 103.846 199.358 462.207
976 0 60.2206 12.886 776 105.485 200.308 462.771
977 0 58.2671 13.6784 797 106.547 200.531 460.6
978 0 61.3417 12.3244 756 109.517 201.504 457.8
979 0 65.3049 13.9806 913 105.617 201.38 459.7
980 0 62.4425 13.1481 821 109.403 202.097 456.384
981 0 65.5273 15.5965 1022 106.976 203.202 452.057
982 0 67.3568 13.0648 880 108.262 203.09 456.515
983 0 69.5189 12.6872 882 115.261 203.948 456.115
984 0 75.3053 12.3232 928 111.777 204.639 457.255
985 0 74.394 12.2725 913 114.175 205.708 453.972
986 0 80.3094 15.9757 1283 106.353 205.584 454.023
987 0 82.2788 15.6055 1284 108.646 205.404 454.456
988 0 80.3625 11.8961 956 117.745 205.359 452.968
989 0 86.388 12.5365 1083 108.844 206.349 453.041
990 0 89.3767 13.2249 1182 110.099 205.234 453.663
991 1 49.0617 12.9225 634 101.008 206.334 475.028
992 0 47.14 10.5431 497 102.155 206.147 473.097
993 0 48.0596 9.9876 480 106.381 206.002 470.627
994 0 52.0819 14.4196 751 97.9521 204.96 472.983
995 0 52.0766 12.1168 631 102.428 203.552 476.74
996 0 54.0991 11.5344 624 103 204.897 476.112
997 0 55.1563 15.3564 847 105.932 204.313 475.276
998 0 57.0511 14.2504 813 103.448 203.202 475.485
999 0 57.0789 14.3135 817 106.055 202.868 470.545
1000 0 59.1617 11.4094 675 108.88 201.862 473.234
1001 0 62.0954 10.3872 645 109.093 201.974 473.198
1002 1 130.558 15.4414 2016 110.705 200.218 438.315
1003 1 63.1725 10.3368 653 110.548 199.715 463.646
1004 0 66.122 10.2084 675 109.619 200.124 466.098
1005 0 70.2409 13.6957 962 106.369 199.708 463.134
1006 0 71.3056 12.4675 889 108.899 199.99 460.61
1007 0 74.2881 10.9977 817 109.874 199.069 463.623
1008 0 75.248 11.296 850 110.628 198.928 458.535
1009 0 80.3919 15.5364 1249 104.026 198.982 457.47
1010 0 80.6271 13.1842 1063 108.121 198.876 454.383
1011 0 82.2929 13.3183 1096 108.218 198.932 455.483
1012 0 85.2562 14.2394 1214 107.629 199.136 453.31
1013 0 91.3236 15.9871 1460 105.335 198.551 451.151
1014 0 90.1489 14.1987 1280 109.422 198.859 447.345
1015 0 93.2004 12.2532 1142 111.845 192.024 446.849
1016 0 96.2424 12.4166 1195 110.317 194.125 445.015
1017 1 54.2638 11.5362 626 108.7 199.716 463.152
1018 0 52.0503 12.5071 651 108.661 198.863 467.16
1019 0 53.0359 11.5394 612 112.204 199.281 461.773
1020 0 55.1149 11.7754 649 111.153 199.798 463.334
1021 0 57.1035 12.2059 697 112.367 199.76 458.161
1022 0 58.154 13.5674 789 109.369 200.63 459.744
1023 0 60.0714 14.3829 864 109.297 201.296 455.288
1024 0 64.0872 11.3595 728 114.544 200.707 457.621
1025 0 66.2456 14.6425 970 109.29 202.987 454.721
1026 0 69.1731 14.3553 993 109.871 202.487 453.771
1027 0 70.1589 11.759 825 113.616 203.882 455.292
1028 0 69.0439 10.0805 696 117.228 203.977 452.858
1029 0 76.1619 12.9724 988 111.86 204.102 453.577
1030 0 78.06 15.1934 1186 108.191 203.582 453.277
1031 0 80.0971 11.8731 951 112.783 205.245 454.578
1032 0 86.2502 10.0406 866 115.298 205.505 456.746
1033 0 85.1473 9.74781 830 117.194 206.347 452.267
1034 0 89.1603 10.711 955 115.764 206.398 453.516
1035 0 94.1481 13.2876 1251 115.724 207.809 452.146
1036 1 52.0821 11.1555 581 114.804 206.513 470.112
1037 0 51.1296 10.7961 552 114.641 205.897 471.324
1038 0 58.1052 12.2881 714 112.78 207.951 468.51
1039 0 57.2211 11.2196 642 106.207 205.084 464.998
1040 0 56.1548 8.97519 504 105.929 204.659 467.073
1041 0 60.178 19.2429 1158 94.5674 203.522 464.769
1042 0 62.2551 10.9549 682 104.23 203.114 465.248
1043 0 65.2751 12.8073 836 101.854 202.248 462.898
1044 0 71.2977 14.6709 1046 98.7715 201.815 464.498
1045 0 70.2699 14.672 1031 100.543 200.963 460.832
1046 0 70.216 13.786 968 102.811 201.069 458.783
1047 0 70.216 13.7291 964 112.459 202.083 458.582
1048 0 77.2273 14.0753 1087 102.244 199.914 455.277
1049 0 78.1922 13.8761 1085 103.487 199.765 456.315
1050 0 84.1677 15.2434 1283 101.544 197.964 451.171
1051 0 87.3134 11.8653 1036 105.364 198.941 452.383
1052 0 90.3325 14.1145 1275 101.978 197.104 451.73
1053 0 92.1495 14.661 1351 101.57 197.543 451.056
1054 0 94.3915 13.391 1264 103.704 197.268 443.106
1055 1 55.3152 12.3474 683 99.9751 196.294 467.04
1056 0 54.2266 14.6976 797 98.6474 197.504 466.056
1057 0 56.0465 12.1149 679 110.867 200.088 467.613
1058 0 61.2142 13.7387 841 108.776 199.659 465.945
1059 0 60.0873 14.7286 885 110.115 199.814 460.868
1060 0 61.1054 13.1085 801 113.984 200.935 457.413
1061 0 63.2145 15.4395 976 111.392 200.571 457.194
1062 0 64.2008 13.9251 894 114.379 201.447 456.001
1063 0 66.051 13.3533 882 115.239 201.266 455.093
1064 0 67.0802 12.3882 831 117.392 202.035 453.167
1065 0 71.156 12.311 876 116.919 202.785 451.573
1066 0 72.0826 14.5944 1052 113.47 203.133 451.242
1067 0 74.0579 13.2059 978 116.162 202.919 450.752
1068 0 78.1692 14.0848 1101 112.46 204.658 453.12
1069 0 79.21 13.9124 1102 114.939 204.367 448.189
1070 0 81.0993 13.0704 1060 116.871 205.781 445.692
1071 0 81.0993 12.9717 1052 150.587 207.763 445.555
1072 0 88.1773 12.9965 1146 116.263 205.86 447.227
1073 0 93.2353 14.7584 1376 112.23 206.077 446.548
1074 0 93.2534 14.6161 1363 111.905 206.955 443.92
1075 1 49.0648 13.6147 668 108.572 206.957 469.4
1076 0 46.0816 9.65678 445 116.881 207.865 467.62
1077 0 50.2264 11.7866 592 114.828 207.096 467.534
1078 0 51.1881 12.7373 652 111.4 205.689 468.086
1079 0 56.2224 12.3972 697 112.963 204.973 468.34
1080 0 55.3641 11.7224 649 114.826 204.071 464.82
1081 0 56.4251 11.0766 625 116.429 204.507 468.565
1082 0 58.3625 12.7136 742 114.384 204.298 465.334
1083 0 61.2707 13.0242 798 113.747 204.33 468.639
1084 0 61.3769 12.4477 764 114.065 204.085 469.614
1085 0 63.0769 14.6329 923 109.542 204.488 469.762
1086 0 64.115 11.2454 721 114.784 204.261 469.628
1087 0 67.176 11.9239 801 113.787 203.689 467.753
1088 0 72.117 12.5352 904 113.457 203.009 464.023
1089 0 69.1213 10.865 751 116.995 202.695 463.39
1090 0 75.113 11.6491 875 114.353 201.214 461.366
1091 0 78.079 13.8321 1080 109.904 202.123 463.584
1092 0 80.0878 12.4988 1001 113.399 201.307 457.422
1093 0 83.1408 14.1086 1173 110.893 200.597 456.596
1094 0 83.0865 11.8672 986 114.763 199.451 452.395
1095 0 89.1972 15.6395 1395 106.835 199.53 455.104
1096 0 87.1777 14.3385 1250 139.701 199.627 457.187
1097 0 93.1331 10.0931 940 114.006 199.459 452.419
1098 0 97.1152 12.3153 1196 110.814 199.079 445.467
1099 0 100.205 11.4266 1145 112.386 199.311 442.968
1100 0 106.187 13.0525 1386 109.715 199.063 442.039
1101 0 109.253 13.3543 1459 108.673 199.184 442.169
1102 1 62.0548 10.4102 646 109.297 199.195 462.511
1103 0 61.0596 10.9401 668 109.537 199.421 459.211
1104 0 62.1535 12.984 807 105.715 200.515 461.244
1105 0 63.1747 11.6186 734 105.718 199.685 452.151
1106 0 67.111 10.7881 724 105.228 200.309 453.409
1107 0 68.0832 12.3085 838 103.135 198.687 454.123
1108 0 72.1118 15.7117 1133 98.0159 201.298 452.371
1109 0 72.0393 12.5071 901 101.878 201.141 451.418
1110 0 74.2936 10.9835 816 99.4473 201.436 449.059
1111 0 76.8446 9.91611 762 99.9016 202.038 450.029
1112 0 78.2396 10.1228 792 100.234 202.696 448.54
1113 0 80.1688 11.6504 934 98.9711 203.195 445.663
1114 0 79.2811 8.17345 648 103.002 203.062 446.477
1115 0 87.3507 9.81102 857 100.915 204.354 445.03
1116 0 88.2903 11.5754 1022 100.298 204.932 438.461
1117 0 93.2333 9.6103 896 101.599 203.953 445.25
1118 0 94.1918 12.9735 1222 98.5597 205.08 439.61
1119 0 97.2103 10.5133 1022 101.871 203.671 430.984
1120 0 104.169 11.4718 1195 100.655 204.943 434.246
1121 0 107.322 10.6409 1142 102.106 204.301 438.917
1122 0 112.249 10.9667 1231 103.051 204.375 439.581
1123 1 57.266 12.1887 698 101.675 205.372 473.215
1124 0 59.2389 11.7828 698 101.947 204.507 467.325
1125 0 63.217 13.0977 828 99.1353 204.413 471.516
1126 0 61.1754 11.9656 732 103.154 204.02 465.57
1127 0 65.1735 10.94 713 103.557 204.205 471.369
1128 0 68.2466 13.5245 923 99.0715 202.144 468.087
1129 0 70.1091 14.6914 1030 98.1184 201.95 468.517
1130 0 71.2491 12.3089 877 102.846 200.884 464.845
1131 0 76.3673 14.116 1078 99.2996 200.769 464.418
1132 0 77.1928 14.7035 1135 99.2256 199.744 460.718
1133 0 80.5262 15.2994 1232 99.6185 198.774 463.173
1134 0 83.3648 13.7108 1143 101.59 197.294 459.388
1135 0 84.3719 13.6894 1155 103.7 198.195 454.445
1136 0 86.2523 13.5301 1167 102.912 197.165 457.039
1137 0 90.2088 12.6928 1145 103.435 197.231 456.949
1138 0 91.2743 11.7339 1071 105.797 197.271 451.149
1139 1 51.3116 13.7785 707 103.018 197.219 473.719
1140 0 52.1973 17.453 911 97.079 196.677 474.429
1141 0 52.4722 12.7305 668 109.644 197.551 470.168
1142 0 53.1135 13.9512 741 107.954 197.595 469.043
1143 0 57.1982 14.9131 853 106.488 197.358 467.215
1144 0 56.2314 12.1107 681 113.345 197.655 464.106
1145 0 57.2594 14.1636 811 110.815 198.042 463.348
1146 0 61.1163 14.4151 881 109.597 197.642 461.712
1147 0 62.1356 13.0843 813 111.47 198.073 463.189
1148 0 62.2686 14.0199 873 109.607 198.182 463.615
1149 0 64.2144 13.7664 884 111.657 199.458 460.113
1150 0 67.2153 13.8956 934 112.658 198.832 455.524
1151 0 68.0675 13.6482 929 113.442 200.14 456.191
1152 0 70.4723 13.4663 949 113.349 200.624 457.709
1153 0 72.0804 13.8873 1001 114.167 200.364 451.867
1154 0 72.0804 13.9566 1006 139.129 200.361 451.78
1155 0 77.3243 13.6568 1056 115.186 202.059 451.036
1156 0 80.228 13.7982 1107 115.244 202.093 447.761
1157 0 83.5174 16.3678 1367 110.468 202.938 448.69
1158 0 85.3665 15.287 1305 112.29 203.366 448.382
1159 0 88.6933 16.6754 1479 110.658 203.581 446.715
1160 0 91.6215 15.1275 1386 112.571 203.038 446.21
1161 1 44.3088 9.00499 399 119.316 204.857 469.353
1162 0 49.2898 15.135 746 104.749 203.792 469.786
1163 0 50.1256 12.9475 649 111.378 202.179 459.955
1164 0 54.18 13.9166 754 109.41 201.198 457.491
1165 0 54.2359 12.4272 674 112.418 201.834 460.693
1166 0 56.1012 17.4863 981 105.22 202.286 459.104
1167 0 54.1811 13.0488 707 112.945 202.061 461.495
1168 0 56.2539 13.4746 758 111.735 201.773 464.887
1169 0 57.1756 12.8551 735 113.528 201.903 466.167
1170 0 61.1415 13.3788 818 111.346 201.507 468.109
1171 0 61.1845 13.8924 850 112.271 201.242 466.938
1172 0 65.1906 13.2535 864 112.118 200.803 461.582
1173 0 68.1784 17.1755 1171 104.889 200.028 469.15
1174 0 70.2709 19.2398 1352 102.537 199.518 467.749
1175 0 71.2467 15.1305 1078 108.891 198.533 463.965
1176 0 73.2255 15.3089 1121 108.905 197.961 467.158
1177 0 75.233 14.9934 1128 108.706 196.92 462.152
1178 0 78.0805 14.9717 1169 108.838 196.466 459.083
1179 0 80.2152 14.1993 1139 109.16 195.855 463.159
1180 0 84.163 21.3277 1795 98.8251 195.562 459.526
1181 0 86.1082 16.2005 1395 104.677 194.616 459.11
1182 0 86.0634 15.2446 1312 108.099 195.063 453.872
1183 0 86.206 11.2405 969 115.257 195.253 451.528
1184 0 91.234 15.5644 1420 107.458 195.006 450.457
1185 0 92.3423 15.096 1394 107.01 194.89 450.542
1186 0 98.4044 16.483 1622 103.308 194.319 450.153
1187 0 100.418 9.98821 1003 113.725 195.479 436.596
1188 0 100.418 9.94838 999 146.566 195.473 436.497
1189 1 54.0962 9.83433 532 107.447 193.085 463.207
1190 0 58.1508 10.318 600 107.588 194.6 456.943
1191 0 60.0888 10.9172 656 104.412 198.623 463.168
1192 0 61.2627 10.4468 640 106.325 198.069 462.922
1193 0 64.3338 15.1087 972 100.532 198.894 460.033
1194 0 64.329 12.9957 836 104.589 200.323 455.306
1195 0 65.2611 12.0899 789 106.392 199.952 454.199
1196 0 69.1704 12.1439 840 104.656 201.055 458.533
1197 0 70.0992 11.7405 823 107.321 202.104 452.457
1198 0 72.332 10.6592 771 108.925 201.422 453.418
1199 0 76.3532 10.3467 790 108.504 202.511 455.214
1200 0 79.2875 11.5403 915 106.017 202.701 453.485
1201 0 82.2571 12.8256 1055 107.33 203.46 444.85
1202 0 84.2667 12.496 1053 108.392 203.524 441.349
1203 0 85.2654 11.5991 989 109.579 204.29 446.32
1204 1 46.2769 7.54156 349 113.109 204.897 465.186
1205 0 50.0777 13.6188 682 99.5762 204.683 467.509
1206 0 52.3663 13.5583 710 99.9662 204.337 471.249
1207 0 54.2155 12.727 690 100.386 204.386 464.797
1208 0 53.2296 11.3847 606 104.606 204.533 467.45
1209 0 54.0767 10.5406 570 106.309 205.119 470.793
1210 0 59.1022 12.1992 721 102.411 204.537 469.999
1211 0 59.2275 11.1941 663 104.86 203.757 470.25
1212 0 63.2243 13.9662 883 101.274 204.229 465.769
1213 0 64.1678 14.1192 906 100.972 202.916 463.535
1214 0 67.1517 11.0645 743 105.571 203.234 465.778
1215 0 69.1001 10.1158 699 106.443 202.433 462.107
1216 0 71.1287 10.6005 754 106.523 201.901 464.556
1217 0 75.1582 11.8816 893 103.899 201.782 465.091
1218 0 78.2583 22.1319 1732 92.6415 199.827 462.603
1219 0 81.4247 12.5883 1025 103.226 199.935 463.99
1220 0 83.3198 12.8901 1074 103.169 199.403 463.23
1221 0 83.2144 10.8755 905 107.579 198.869 461.728
1222 0 83.1668 11.3868 947 107.927 198.603 458.694
1223 0 88.3364 12.9505 1144 104.966 197.584 459.445
1224 0 93.3819 16.909 1579 97.62 196.501 460.511
1225 0 94.216 15.5812 1468 102.888 196.717 452.475
1226 0 96.3609 13.3353 1285 105.244 197.061 454.511
1227 0 99.4277 10.8622 1080 109.944 196.47 448.07
1228 0 100.474 12.1823 1224 108.507 196.699 442.752
1229 0 106.504 11.9526 1273 106.169 196.796 446.521
1230 1 56.125 10.7261 602 107.405 197.678 463.698
1231 0 57.2467 13.0313 746 104.264 197.653 459.668
1232 0 59.1116 14.3627 849 101.999 197.636 461.392
1233 0 63.3945 12.7614 809 103.92 198.901 459.869
1234 0 64.2102 13.9074 893 101.784 199.595 459.469
1235 0 63.1501 11.1164 702 107.631 199.755 454.684
1236 0 69.2247 13.6512 945 102.395 199.714 454.966
1237 0 69.2339 13.6205 943 103.595 201.356 452.931
1238 0 73.1843 16.233 1188 98.6919 200.357 455.151
1239 0 72.1882 11.5254 832 107.709 201.846 450.775
1240 0 73.1167 14.3196 1047 103.849 201.918 448.668
1241 0 77.1749 10.5993 818 109.259 203.104 451.23
1242 0 80.2521 15.6382 1255 102.273 203.679 444.953
1243 0 79.1502 17.5489 1389 101.197 203.892 450.6
1244 0 83.3105 13.4197 1118 110.888 203.528 452.03
1245 0 85.6146 14.063 1204 111.422 203.193 447.404
1246 0 87.3276 13.0772 1142 112.967 203.336 447.641
1247 0 90.4374 20.5667 1860 101.816 203.858 452.926
1248 0 93.4707 15.8338 1480 109.368 203.81 449.03
1249 0 96.6083 13.9843 1351 113.386 204.124 445.26
1250 1 52.1148 11.3595 592 113.904 203.264 469.899
1251 0 53.1515 14.4493 768 109.46 203.133 472.413
1252 0 56.0716 12.0739 677 113.616 202.165 469.315
1253 0 57.3661 11.7491 674 112.481 201.552 472.864
1254 0 59.4771 14.1567 842 111.829 201.683 467.538
1255 0 59.3472 11.7613 698 116.799 200.956 470.658
1256 0 61.3025 12.2344 750 117.159 201.136 469.227
1257 0 65.3237 13.9153 909 113.385 201.46 468.288
1258 0 69.3895 18.9222 1313 104.589 200.781 470.523
1259 0 72.4453 13.4722 976 113.416 199.936 468.103
1260 0 74.3553 16.7843 1248 108.887 198.24 466.909
1261 0 75.3569 15.5394 1171 111.233 198.176 465.847
1262 0 77.3607 14.1028 1091 114.614 198.359 465.355
1263 0 79.1781 13.2234 1047 114.542 197.145 464.773
1264 0 83.2888 14.948 1245 111.554 196.557 463.486
1265 0 84.2996 14.8518 1252 113.303 195.12 459.616
1266 0 89.4005 12.7292 1138 116.826 195.544 458.21
1267 0 89.1886 13.2977 1186 116.314 195.718 457.32
1268 0 93.4317 13.5072 1262 116.476 194.672 454.757
1269 0 92.2396 10.2993 950 122.365 195.116 452.524
1270 0 99.6097 11.9165 1187 119.936 194.786 447.222
1271 1 55.4373 12.0316 667 116.952 197.327 467.082
1272 0 57.7086 11.1075 641 117.817 197.31 465.85
1273 0 59.5565 13.164 784 113 197.654 466.735
1274 0 62.6584 13.023 816 114.833 197.322 465.679
1275 0 62.4793 13.7326 858 114.037 198.416 463.655
1276 0 61.5194 13.0853 805 116.511 197.812 460.05
1277 0 67.3673 13.5971 916 113.502 199.348 460.886
1278 0 64.5112 10.1843 657 121.697 198.983 459.314
1279 0 69.4455 13.8526 962 113.431 199.612 460.514
1280 0 69.4216 12.2296 849 116.617 199.66 457.104
1281 0 72.4939 12.5528 910 117.136 200.812 450.98
1282 0 74.4207 12.725 947 116.154 200.988 452.847
1283 0 80.3027 12.4902 1003 116.531 202.061 449.9
1284 0 79.3038 11.6766 926 117.915 203.037 451.311
1285 0 85.4545 15.3883 1315 110.165 202.63 454.602
1286 0 87.5196 15.4822 1355 111.958 203.108 447.811
1287 0 90.413 15.6946 1419 111.892 204.199 444.924
1288 0 94.3842 19.6113 1851 103.498 203.646 451.981
1289 0 93.3479 13.3158 1243 116.257 204.525 443.489
1290 1 52.1319 8.91968 465 114.641 206.469 473.613
1291 0 56.0932 13.5311 759 107.889 206.422 470.13
1292 0 56.2864 12.2765 691 111.838 206.081 466.378
1293 0 56.221 12.7355 716 106.996 205.88 469.737
1294 0 58.2343 10.8871 634 105.033 206.326 469.372
1295 0 62.314 13.3999 835 101.434 205.928 468.454
1296 0 62.1168 14.344 891 100.541 204.544 470.963
1297 0 65.3406 12.4119 811 102.921 204.734 466.911
1298 0 67.2692 12.1006 814 103.134 205.007 469.661
1299 0 67.3206 9.53646 642 106.812 204.732 464.81
1300 0 71.1867 11.6735 831 104.775 204.46 468.361
1301 0 75.2277 15.3933 1158 98.5397 203.212 471.736
1302 0 77.4474 12.2535 949 102.925 202.736 462.319
1303 0 76.155 9.30996 709 107.154 201.918 462.004
1304 0 80.2342 11.2421 902 105.072 200.905 458.364
1305 0 82.3072 9.69538 798 106.845 199.799 459.59
1306 0 88.3942 14.9557 1322 100.506 198.554 457.879
1307 0 88.2584 13.4265 1185 102.689 198.064 458.025
1308 0 97.3017 12.9802 1263 104.766 195.707 449.357
1309 1 51.1588 10.399 532 104.983 198.957 472.976
1310 0 56.3822 12.6281 712 102.806 196.715 453.551
1311 0 55.3334 13.7168 759 102.398 195.971 451.408
1312 0 58.2147 13.3128 775 104.489 196.874 447.004
1313 0 59.3198 13.5368 803 103.132 196.814 446.929
1314 0 62.2702 13.0721 814 102.389 197 453.722
1315 0 63.2511 10.735 679 105.882 197.541 451.742
1316 0 64.0994 13.4635 863 102.506 196.492 449.261
1317 0 66.1835 11.7703 779 104.829 196.986 450.273
1318 0 69.1577 12.6812 877 103.153 197.997 449.749
1319 0 69.2001 10.737 743 105.506 198.735 454.335
1320 0 72.2653 16.3564 1182 98.813 198.278 452.312
1321 0 73.3271 11.5919 850 105.305 199.334 444.456
1322 0 79.4284 13.3705 1062 102.306 199.549 446.314
1323 0 81.5151 13.9238 1135 102.826 201.43 448.097
1324 0 84.386 15.4173 1301 100.979 201.774 445.429
1325 0 87.2918 12.9794 1133 103.907 202.941 444.446
1326 0 88.4369 13.8178 1222 102.499 203.523 445.89
1327 0 91.2497 12.3179 1124 106.092 203.279 441.958
1328 1 48.1999 13.444 648 101.39 204.289 464.059
1329 0 51.1704 10.338 529 105.363 205.622 466.219
1330 0 52.2147 11.5102 601 105.306 204.942 467.338
1331 0 54.4727 15.751 858 99.4545 204.549 462.267
1332 0 56.308 14.7936 833 101.533 204.809 464.86
1333 0 56.2689 10.8941 613 107.595 205.781 463.884
1334 0 61.2217 12.4956 765 105.506 204.405 466.186
1335 0 61.4333 13.9013 854 102.701 205.3 468.505
1336 0 64.3427 12.1537 782 104.746 205.077 467.831
1337 0 70.3694 16.5555 1165 97.4223 204.15 468.146
1338 0 67.1412 12.3769 831 104.014 203.906 465.657
1339 0 67.1412 12.2578 823 109.894 202.902 465.561
1340 0 72.3101 13.5113 977 102.463 203.166 465.931
1341 0 76.2737 13.5564 1034 101.931 202.998 463.582
1342 0 78.302 11.7621 921 104.311 202.011 466.81
1343 0 78.235 11.8617 928 105.116 202.029 460.848
1344 0 84.3149 13.331 1124 102.638 199.123 459.049
1345 0 86.3096 14.645 1264 101.559 199.32 460.802
1346 0 94.3344 15.9751 1507 96.8985 198.924 461.65
1347 0 93.3921 14.7015 1373 101.017 198.99 453.757
1348 0 95.2973 16.3278 1556 99.6266 198.615 454.26
1349 0 94.125 16.5631 1559 101.75 198.376 455.195
1350 1 54.0776 15.7736 853 97.3587 197.814 476.777
1351 0 57.2092 14.5781 834 99.3094 197.531 473.267
1352 0 58.1849 12.5634 731 105.06 197.015 466.15
1353 0 58.2467 11.5028 670 104.539 198.19 469.627
1354 0 62.2809 15.1892 946 101.224 197.636 460.061
1355 0 63.1993 17.2787 1092 99.5183 197.341 453.962
1356 0 67.1222 13.8106 927 107.565 197.398 453.534
1357 0 67.084 14.9216 1001 103.776 198.314 454.074
1358 0 70.2349 14.5939 1025 103.512 198.035 452.533
1359 0 72.1801 14.2699 1030 103.87 198.253 452.086
1360 0 73.1423 12.8927 943 105.674 198.181 454.888
1361 0 76.1657 12.0921 921 107.216 198.714 454.375
1362 0 76.1657 12.0921 921 147.959 199.713 454.383
1363 0 81.1504 20.0246 1625 99.4357 198.729 448.366
1364 0 84.0945 16.9809 1428 105.127 199.636 445.905
1365 0 88.1321 17.8142 1570 103.024 200.389 447.71
1366 0 92.1953 15.4238 1422 106.834 200.911 445.065
1367 0 94.1948 17.2727 1627 103.652 202.284 446.569
1368 1 51.07 13.2759 678 105.084 203.954 466.168
1369 0 53.1148 12.9154 686 105.94 204.408 464.337
1370 0 54.0722 15.3683 831 103.161 203.418 463.298
1371 0 50.2561 11.0235 554 107.081 204.245 461.213
1372 0 56.2185 11.1529 627 105.912 204.474 461.927
1373 0 55.2538 12.0897 668 106.064 205.016 462.278
1374 0 61.1871 13.6957 838 101.869 204.177 461.286
1375 0 61.3118 14.4018 883 101.382 205.05 461.52
1376 0 62.207 12.1048 753 105.078 205.831 463.598
1377 0 66.1159 13.6881 905 102.952 205.994 460.562
1378 0 69.1033 13.6896 946 102.197 205.294 463.796
1379 0 70.1266 17.8534 1252 96.623 205.451 460.28
1380 0 73.2246 13.9161 1019 101.636 204.852 462.031
1381 0 75.1768 18.9952 1428 95.4986 204.078 461.475
1382 0 79.2262 16.2194 1285 97.786 203.936 463.245
1383 0 79.1593 13.795 1092 101.512 204.751 462.717
1384 0 81.2048 13.3982 1088 101.913 203.755 459.639
1385 0 86.2249 15.5176 1338 98.1973 203.034 462.726
1386 0 87.2659 14.8168 1293 99.471 201.571 460.315
1387 0 89.3003 14.412 1287 100.957 201.276 455.8
1388 0 91.2481 18.1045 1652 96.8438 199.507 450.113
1389 0 98.3379 13.3824 1316 101.743 199.814 453.384
1390 0 95.2931 17.1996 1639 98.9774 198.289 448.06
1391 0 101.264 13.7562 1393 102.668 198.756 446.642
1392 0 103.556 15.2091 1575 101.29 198.893 444.702
1393 1 54.1688 11.6857 633 105.359 198.708 470.471
1394 0 53.1106 11.429 607 106.046 198.786 473.506
1395 0 55.4336 12.285 681 106.51 197.508 469.987
1396 0 60.1465 14.6975 884 102.267 197.524 469.777
1397 0 61.224 13.8181 846 104.67 198.176 465.474
1398 0 65.092 15.6701 1020 99.4108 196.719 463.721
1399 0 66.4236 14.1215 938 92.7548 196.368 464.336
1400 0 68.3658 12.1113 828 97.1763 196.278 457.233
1401 0 69.3226 15.3918 1067 93.5736 196.008 449.646
1402 0 72.2723 14.1133 1020 95.8912 196.86 453.559
1403 0 73.4353 10.8531 797 100.694 197.652 450.788
1404 0 78.2836 15.1117 1183 95.3905 197.247 453.751
1405 0 78.2382 13.2161 1034 99.4168 198.093 452.36
1406 0 78.2941 13.1172 1027 101.744 198.917 447.761
1407 0 82.2379 11.5032 946 104.104 199.18 446.236
1408 0 85.4432 13.3773 1143 102.511 199.796 444.232
1409 0 82.3612 10.6118 874 107.795 200.253 439.937
1410 0 90.2998 13.4884 1218 103.397 201.74 446.019
1411 0 92.1404 12.4158 1144 104.601 202.399 449.856
1412 0 93.3612 14.7278 1375 105.329 202.469 445.328
1413 0 101.23 14.0373 1421 105.486 202.559 443.516
1414 0 97.2616 12.3173 1198 110.47 203.285 439.909
1415 0 100.245 15.2227 1526 106.57 203.413 439.913
1416 0 101.375 13.4944 1368 110.088 203.843 442.413
1417 0 104.408 14.0986 1472 109.301 204.431 442.876
1418 0 106.451 14.354 1528 108.465 204.355 448.03
1419 0 107.645 16.1084 1734 106.639 204.253 447.404
1420 0 104.571 14.9085 1559 111.153 204.173 443.315
1421 0 107.477 16.6455 1789 109.235 204.359 441
1422 0 110.469 15.561 1719 109.224 204.639 452.787
1423 0 108.25 14.6975 1591 113.935 204.272 442.836
1424 0 110.303 13.9615 1540 113.504 203.69 448.555
1425 0 108.44 13.3623 1449 116.003 203.219 446.685
1426 0 113.608 15.2278 1730 111.795 202.517 452.39
1427 0 113.464 16.2782 1847 110.73 202 451.844
1428 0 113.464 16.3487 1855 139.636 202.009 451.895
1429 0 113.367 14.1929 1609 115.584 201.565 446.837
1430 0 114.423 14.4551 1654 116.343 200.07 449.864
1431 0 116.694 13.394 1563 118.429 199.666 441.369
1432 0 119.338 14.3039 1707 115.729 198.459 445.609
1433 0 118.527 16.5278 1959 110.901 199.055 439.829
1434 0 115.267 14.3406 1653 114.905 197.796 441.399
1435 0 116.473 13.0331 1518 118.262 197.669 441.301
1436 0 119.563 15.3559 1836 113.558 196.364 441.312
1437 0 121.369 14.732 1788 116.496 197.101 444.137
1438 0 118.455 12.8234 1519 118.903 197.256 435.577
1439 0 121.296 13.9081 1687 114.532 196.815 435.666
1440 0 121.417 18.3088 2223 107.794 195.955 436.879
1441 0 121.461 11.8392 1438 117.987 196.203 435.503
1442 0 123.393 13.6961 1690 114.307 195.824 435.41
1443 0 126.451 16.283 2059 111.105 196.235 430.608
1444 0 125.42 15.2129 1908 112.804 196.307 427.57
1445 0 127.459 16.366 2086 110.227 196.928 428.602
1446 0 127.485 15.9705 2036 111.342 197.257 426.705
1447 0 130.642 19.4807 2545 103.426 197.448 435.268
1448 0 133.646 13.0195 1740 114.602 197.535 424.473
1449 0 132.632 13.5487 1797 114.019 198.822 424.455
1450 0 133.513 18.3578 2451 107.375 199.332 420.841
1451 0 131.735 15.3338 2020 108.864 199.426 423.202
1452 0 131.561 14.7612 1942 110.287 200.509 426.416
1453 0 132.349 15.8595 2099 110.504 200.333 425.437
1454 0 134.417 14.6038 1963 113.473 201.835 422.933
1455 0 136.407 16.0183 2185 111.344 202.215 423.791
1456 0 135.577 14.4641 1961 114.765 203.095 421.274
1457 0 138.476 14.1469 1959 114.662 204.044 425.82
1458 0 136.444 16.8054 2293 110.718 203.49 423.756
1459 0 137.546 15.8275 2177 110.573 204.258 430.832
1460 0 137.262 13.7984 1894 114.711 204.866 425.159
1461 0 135.53 12.9271 1752 116.445 204.994 422.832
1462 0 138.483 21.3673 2959 102.398 203.515 434.576
1463 0 138.68 15.6764 2174 111.145 204.195 429.905
1464 0 136.443 15.8674 2165 111.342 204.885 428.99
1465 0 139.511 17.1241 2389 108.682 204.517 430.615
1466 0 140.636 13.4817 1896 114.368 205.257 429.291
1467 0 140.511 18.6177 2616 106.524 203.696 431.492
1468 0 137.366 15.6589 2151 110.687 204.179 433.194
1469 0 137.631 14.9094 2052 112.179 203.429 429.577
1470 0 138.684 15.0125 2082 112.487 202.971 428.932
1471 0 138.358 12.605 1744 115.399 202.064 434.433
1472 0 137.405 16.1712 2222 109.551 201.59 437.946
1473 0 137.525 14.6228 2011 112.807 200.349 432.265
1474 0 135.788 9.76519 1326 118.797 199.798 430.957
1475 0 140.76 17.1284 2411 108.436 199.187 432.365
1476 0 140.516 14.2546 2003 110.893 198.752 437.902
1477 0 140.364 16.0654 2255 110.047 198.525 431.679
1478 0 141.584 14.698 2081 111.047 197.861 430.741
1479 0 140.768 12.8438 1808 113.852 198.343 432.093
1480 0 140.636 16.4609 2315 108.744 196.272 430.186
1481 0 138.573 12.9751 1798 112.625 196.379 435.489
1482 0 141.74 15.472 2193 110.492 196.073 423.116
1483 0 141.51 19.73 2792 104.331 196.356 426.611
1484 0 141.515 12.4581 1763 113.106 196.145 433.194
1485 0 140.886 15.0405 2119 110.78 196.531 422.327
1486 0 141.499 14.0496 1988 112.484 196.823 420.777
1487 0 142.437 15.0803 2148 110.241 196.845 422.361
1488 0 139.46 13.0719 1823 113.779 196.717 422.554
1489 0 138.592 12.2301 1695 115.044 197.405 422.208
1490 0 140.666 14.2892 2010 111.76 197.56 420.846
1491 0 140.474 13.6253 1914 111.08 198.13 423.951
1492 0 142.296 16.044 2283 107.778 199.247 421.937
1493 0 138.457 12.0037 1662 114.168 199.756 417.365
1494 1 227.291 11.5095 2616 108.075 199.34 412.861
1495 1 139.336 14.4041 2007 110.554 200.53 421.494
1496 0 141.613 15.0481 2131 109.66 201.161 420.002
1497 0 143.799 15.459 2223 108.944 202.372 417.145
1498 0 141.439 16.3533 2313 107.855 201.797 416.206
1499 0 141.475 14.6103 2067 109.53 203.146 421.422
1500 0 138.445 11.3041 1565 114.215 203.654 420.35
1501 0 141.46 15.9904 2262 107.178 204.517 423.504
1502 0 138.414 13.1707 1823 112.583 203.872 417.948
1503 0 142.956 16.9842 2428 105.766 204.143 423.584
1504 0 142.393 14.9727 2132 109.129 203.731 421.744
1505 0 139.388 14.5206 2024 110.407 203.925 416.34
