time division length width area intensity CMx CMy
0 0 54.1753 13.8993 753 146.336 360.91 466.481
1 0 54.1753 13.8993 753 145.835 359.91 466.481
2 0 54.1753 13.8993 753 145.527 357.91 466.481
3 0 54.1753 13.8993 753 145.372 355.91 466.481
4 0 54.1753 13.8993 753 145.28 353.91 466.481
5 0 62.3741 13.2427 826 129.374 356.518 462.742
6 0 64.3069 17.1988 1106 123.007 356.322 460.04
7 0 66.3215 14.3694 953 130.503 355.174 460.951
8 0 69.1214 14.7422 1019 124.313 355.373 460.795
9 0 72.1718 13.4956 974 130.14 353.623 460.704
10 1 36.055 13.5071 487 129.801 352.577 474.544
11 0 36.1468 11.9513 432 128.704 351.523 474.067
12 0 37.2205 14.1857 528 125.473 351.33 474.515
13 0 39.1062 10.1774 398 129.118 350.646 473.736
14 0 41.1052 16.7862 690 121.42 351.225 469.171
15 0 41.0434 15.3496 630 118.935 351.373 469.494
16 0 43.1883 14.5178 627 119.37 351.968 467.147
17 0 45.0934 14.9468 674 122.05 351.997 466.166
18 0 44.0781 13.045 575 128.278 351.525 464.475
19 0 47.0659 11.9832 564 127.509 352.246 464.693
20 0 48.2268 14.2244 686 122.315 351.768 460.641
21 0 48.1181 12.4901 601 124.346 353.035 462.058
22 0 53.1941 18.4795 983 115.555 352.326 459.088
23 0 55.0971 15.7359 867 121.186 354.294 456.633
24 0 56.2107 16.5805 932 119.328 354.491 456.967
25 0 57.0533 14.3375 818 123.842 354.721 452.822
26 0 58.1124 14.4031 837 123.145 355.773 454.332
27 0 61.2917 15.3528 941 120.865 355.636 453.254
28 0 61.1903 12.6 771 124.997 356.598 451.971
29 0 64.0758 14.5453 932 122.417 357.888 448.652
30 0 68.1962 16.0126 1092 119.59 357.684 446.343
31 0 67.2394 14.3517 965 124.145 359.367 445.197
32 0 71.4003 14.6778 1048 120.536 359.857 446.967
33 0 74.2058 15.3627 1140 119.496 360.642 445.735
34 0 76.1623 17.2658 1315 116.588 360.865 442.161
35 0 82.1103 16.0394 1317 116.676 361.208 443.028
36 0 84.1796 17.0469 1435 115.808 362.977 442.13
37 0 87.3558 16.6217 1452 112.794 363.871 442.028
38 0 89.1373 12.2283 1090 118.061 364.572 442.826
39 0 90.3488 12.662 1144 118.98 363.984 441.235
40 0 96.0992 13.9023 1336 113.345 364.573 442.471
41 0 98.1697 15.5547 1527 114.222 364.117 437.094
42 1 48.1237 9.37168 451 114.182 363.605 463.922
43 0 52.2507 11.9616 625 109.784 363.384 464.386
44 0 57.1325 14.0375 802 106.651 364.153 461.476
45 0 57.1262 14.3017 817 104.267 363.103 464.707
46 0 59.2412 10.2294 606 119.277 363.056 467.216
47 0 60.1656 15.1748 913 115.03 362.747 459.801
48 0 64.1038 13.9773 896 113.044 361.253 464.388
49 0 66.1599 13.286 879 116.461 360.666 461.891
50 0 69.0664 14.4209 996 114.438 359.536 458.626
51 0 71.2592 12.9387 922 118.668 358.948 455.974
52 0 75.0673 15.8791 1192 114.61 358.145 455.651
53 0 75.2255 10.0232 754 121.599 356.952 460.416
54 0 81.1692 13.2686 1077 118.519 355.874 451.353
55 0 81.2538 11.1749 908 121.355 355.152 453.144
56 0 85.1608 12.8698 1096 119.68 354.93 448.787
57 1 44.1582 10.8021 477 119.063 354.212 470.379
58 0 45.0774 14.4418 651 113.058 353.713 469.243
59 0 46.2233 10.8387 501 120.92 354.246 468.094
60 0 50.1213 14.9437 749 116.037 355.115 462.32
61 0 51.1212 12.9301 661 118.994 354.144 464.053
62 0 55.0562 13.2955 732 118.15 355.462 462.113
63 0 54.1962 15.3516 832 115.322 356.016 460.552
64 0 54.0257 13.0864 707 121.296 355.102 456.627
65 0 61.2524 14.4974 888 115.671 355.955 456.679
66 0 62.1538 15.4134 958 114.427 355.819 456.038
67 0 60.1398 14.1171 849 118.456 356.428 454.735
68 0 64.1487 13.3596 857 118.813 356.268 454.991
69 0 64.1189 13.6777 877 120.643 356.896 450.339
70 0 66.196 15.0311 995 116.846 355.646 447.573
71 0 68.0781 13.3083 906 118.108 357.464 451.389
72 0 73.1683 12.7514 933 118.701 358.219 452.3
73 0 74.1069 15.3697 1139 118.204 358.241 446.497
74 0 76.1474 14.5901 1111 119.601 358.215 446.89
75 0 76.549 13.6775 1047 123.177 358.41 444.497
76 0 78.2242 11.5821 906 125.429 357.94 444.644
77 0 81.4205 13.7803 1122 122.127 359.373 444.131
78 1 44.1466 11.6657 515 121.449 359.173 463.567
79 0 46.1794 13.9889 646 116.118 358.726 463.402
80 0 46.1144 12.9894 599 111.823 360.349 460.818
81 0 47.0539 13.1764 620 113.534 360.95 465.863
82 0 47.0432 11.5213 542 115.275 360.611 468.799
83 0 50.1435 13.5611 680 113.179 360.278 461.987
84 0 52.1384 14.8067 772 110.044 360.93 466.102
85 0 54.2512 10.3961 564 116.794 359.254 467.723
86 0 55.0889 17.9347 988 105.386 360.021 470.145
87 0 55.1829 14.5516 803 111.238 359.156 468.734
88 0 58.1981 14.4506 841 112.002 359.175 467.497
89 0 57.0771 11.1779 638 115.82 358.122 469.406
90 0 60.2749 13.2062 796 114.55 357.769 464.817
91 0 64.1502 21.4341 1375 104.302 357.789 464.377
92 0 65.1248 13.4818 878 113.662 357.165 469.425
93 0 66.2272 13.1517 871 116.478 356.712 466.18
94 0 71.1168 14.7504 1049 116.161 356.003 464.164
95 0 73.1384 12.7976 936 119.322 355.222 463.568
96 0 77.1832 14.8478 1146 116.49 355.001 463.007
97 0 77.0638 13.3266 1027 119.85 354.621 460.435
98 1 42.1528 13.4036 565 117.565 354.35 474.926
99 0 41.4112 10.1905 422 122.329 354.87 473.287
100 0 46.0257 14.6223 673 110.38 352.468 472.776
101 0 46.1353 10.7293 495 115.788 351.982 474.634
102 0 49.0968 14.6853 721 108.512 350.594 473.956
103 0 49.1022 11.527 566 115.878 350.588 469.903
104 0 52.0625 14.7131 766 109.62 350.879 469.886
105 0 54.1114 16.466 891 107.056 350.49 468.989
106 0 55.212 13.258 732 112.184 350.283 465.568
107 0 57.2062 16.0822 920 107.376 351.089 465.96
108 0 56.2627 17.2583 971 107.364 351.19 460.212
109 0 59.2941 14.7063 872 109.311 351.584 462.936
110 0 60.1945 13.4232 808 112.869 351.811 457.829
111 0 64.181 14.8331 952 110.466 352.058 457.113
112 0 64.2555 15.236 979 109.965 353.25 455.963
113 0 67.1446 14.6103 981 108.989 353.555 458.842
114 0 69.1879 18.3558 1270 107.656 353.572 448.903
115 0 72.2061 14.6941 1061 111.856 354.818 451.339
116 1 144.263 14.9103 2151 118.828 356.227 422.258
117 1 78.1642 16.299 1274 110.123 356.403 445.634
118 0 82.2016 16.4474 1352 112.58 357.291 447.972
119 0 84.3622 15.4453 1303 113.277 357.397 448.582
120 0 86.3396 12.9257 1116 117.888 358.93 444.743
121 1 46.2518 11.0914 513 113.058 360.439 468.224
122 0 48.2033 13.8165 666 108.802 360.138 466.734
123 0 48.0703 14.8324 713 108.731 360.829 463.771
124 0 49.113 13.9271 684 110.643 359.636 463.307
125 0 51.0343 12.619 644 111.72 359.478 461.686
126 0 57.0656 13.1428 750 108.613 359.536 467.94
127 0 57.0205 12.627 720 109.667 360.346 464.246
128 0 58.1269 12.2663 713 110.635 360.484 465.259
129 0 58.1549 12.5011 727 111.752 358.658 462.037
130 0 62.1518 18.9697 1179 102.335 358.602 465.874
131 0 64.1756 12.9177 829 110.48 357.514 462.187
132 0 67.1885 11.9812 805 112.089 357.876 463.293
133 0 67.2842 12.4249 836 114.17 359.846 459.451
134 0 73.1573 12.2476 896 111.603 358.569 462.148
135 0 76.4447 17.3851 1329 104.777 357.735 458.074
136 0 77.0414 11.7599 906 112.213 356.295 456.882
137 0 80.1208 15.9384 1277 106.924 357.324 455.94
138 1 43.1414 9.15593 395 114.889 356.597 476.623
139 0 43.1414 9.10957 393 137.669 354.6 476.575
140 0 44.047 12.5548 553 112.298 352.326 473.821
141 0 47.1165 14.1776 668 111.289 353.052 473.082
142 0 49.0748 13.2247 649 112.696 352.915 470.276
143 0 50.0569 13.6844 685 112.283 350.943 467.244
144 0 50.1228 13.447 674 113.629 351.415 467.062
145 0 56.2841 14.7644 831 108.703 349.486 465.968
146 0 57.0773 16.0659 917 106.734 350.949 466.058
147 0 59.0389 16.6839 985 104.996 349.997 464.459
148 0 60.1048 17.7191 1065 104.856 349.311 460.591
149 0 62.1424 14.1932 882 109.32 348.905 458.448
150 0 67.1595 14.5177 975 108.075 350.487 459.26
151 0 67.1342 16.0872 1080 105.536 350.048 457.65
152 0 68.2183 14.5122 990 108.886 350.627 455.268
153 0 70.4311 14.9082 1050 108.91 352.458 453.83
154 0 73.1973 17.4323 1276 105.91 352.254 452.558
155 0 73.2758 15.7351 1153 106.939 352.854 446.85
156 0 76.1269 22.1866 1689 97.2232 352.213 453.216
157 0 76.1397 13.2914 1012 108.215 353.057 446.641
158 0 79.334 13.7772 1093 106.869 354.275 449.689
159 0 85.1398 16.6902 1421 104.615 355.766 443.419
160 0 85.2296 13.4812 1149 109.969 355.885 439.965
161 1 44.0806 12.9309 570 107.867 357.54 463.172
162 0 45.1243 14.4933 654 103.908 354.658 463.734
163 0 49.1995 11.9513 588 108.685 356.061 461.097
164 0 50.1357 18.9286 949 101.263 358.299 460.739
165 0 48.3152 11.3629 549 111.849 357.495 459.845
166 0 48.3152 11.1766 540 134.863 358.437 459.961
167 0 52.226 16.9647 886 104.265 358.861 463.618
168 0 53.0921 15.087 801 107.89 359.065 460.98
169 0 57.1878 15.3704 879 106.702 358.766 462.18
170 0 56.3135 13.7622 775 110.461 359.28 457.634
171 0 57.4222 14.2976 821 110.822 359.348 463.414
172 0 61.1222 14.9209 912 108.704 359.223 465.225
173 0 59.1308 10.8742 643 116.759 358.515 462.703
174 0 62.1674 12.5468 780 115.226 358.435 463.515
175 0 66.2212 14.3912 953 110.751 357.939 466.403
176 0 69.1836 18.9062 1308 105.886 357.92 461.542
177 0 70.2612 16.0402 1127 112.038 357.253 462.79
178 0 73.4364 18.5467 1362 106.961 356.406 462.67
179 0 75.3233 15.8517 1194 111.386 356.367 461.192
180 0 78.196 16.4459 1286 111.696 354.984 458.793
181 0 80.1038 16.7033 1338 111.799 354.365 456.256
182 0 82.3628 15.8202 1303 113.29 353.708 454.655
183 0 86.1637 16.4106 1414 111.678 353.027 454.248
184 0 88.3095 17.0537 1506 111.62 351.868 450.987
185 0 92.3823 17.1678 1586 111.81 352.57 447.139
186 0 98.3051 12.6443 1243 116.079 352.024 444.656
187 1 52.2451 13.8195 722 106.974 350.283 468.015
188 0 51.1193 15.4736 791 107.954 350.319 462.274
189 0 53.0888 10.6802 567 117.781 348.76 465.776
190 0 55.5355 14.2972 794 111.409 349.384 465.084
191 0 60.4251 15.2255 920 108.81 349.925 464.166
192 0 61.3235 12.7684 783 111.789 349.01 462.931
193 0 66.3192 16.9031 1121 106.775 349.496 459.621
194 0 66.2819 16.1734 1072 109.223 349.182 454.114
195 0 67.3705 14.8285 999 110.144 349.661 456.582
196 0 67.2016 13.4521 904 114.176 350.163 452.486
197 0 71.1664 17.5223 1247 108.747 350.599 451.845
198 0 73.3368 14.3311 1051 114.954 351.146 450.797
199 0 75.3554 13.2837 1001 116.573 352.473 449.009
200 0 78.2039 17.7613 1389 108.395 352.867 449.895
201 0 82.2593 15.3904 1266 110.25 353.626 449.297
202 0 83.4734 21.2762 1776 101.544 353.444 445.671
203 0 86.1968 19.4207 1674 105.181 354.176 442.904
204 0 90.1771 15.4363 1392 109.943 354.55 440.268
205 0 91.206 12.0496 1099 115.13 355.305 442.015
206 0 93.3038 14.2116 1326 111.952 355.623 442.751
207 0 96.4684 12.7192 1227 116.685 355.963 433.257
208 0 99.8779 10.8032 1079 118.404 356.24 439.261
209 1 55.492 12.7406 707 113.001 357.375 460.771
210 0 58.4011 18.8866 1103 105.918 357.608 461.648
211 0 58.3431 14.3804 839 113.517 358.512 460.656
212 0 58.2177 14.5488 847 115.342 359.347 458.125
213 0 63.3538 13.6219 863 114.47 359.139 462.441
214 0 63.1045 17.5265 1106 110.3 358.789 461.038
215 0 67.4222 15.4548 1042 111.682 359.062 463.403
216 0 67.397 12.2557 826 118.706 359.309 461.124
217 0 67.1434 11.3935 765 121.077 358.742 461.473
218 0 73.2495 19.5769 1434 106.981 358.195 463.274
219 0 77.2441 13.9169 1075 114.162 357.864 461.358
220 0 80.6446 16.0581 1295 111.432 356.405 460.08
221 0 81.1943 14.299 1161 113.705 356.072 459.961
222 0 84.4763 13.2345 1118 115.64 355.256 458.555
223 0 88.3747 14.2122 1256 112.847 354.699 458.887
224 0 91.3017 12.5956 1150 113.279 353.932 459.197
225 0 91.2563 15.5277 1417 110.126 352.787 450.841
226 1 45.128 11.8108 533 109.415 352.334 475.664
227 0 48.3153 9.43801 456 111.436 349.355 474.316
228 0 52.2136 12.3722 646 105.95 348.93 472.574
229 0 53.1714 11.604 617 107.801 348.274 471.603
230 0 55.1288 14.4571 797 103.038 348.154 470.183
231 0 54.3379 11.0972 603 111.179 348.038 473.343
232 0 58.6183 10.9351 641 112.148 346.649 467.874
233 0 61.4128 11.9031 731 111.093 348.019 466.893
234 0 62.2954 14.7041 916 106.818 346.849 464.457
235 0 66.2563 11.2593 746 112.276 347.5 461.989
236 0 68.6317 13.0843 898 110.175 347.332 458.616
237 0 69.402 13.2705 921 110.048 346.347 452.683
238 0 70.4071 12.726 896 110.882 346.818 455.016
239 0 76.2658 18.3437 1399 104.114 347.463 449.069
240 0 77.4519 13.0662 1012 111.029 348.214 449.527
241 0 76.3446 12.0899 923 113.23 347.447 448.291
242 0 80.2854 10.7492 863 112.965 349.072 447.038
243 0 83.3213 13.814 1151 110.07 349.915 442.966
244 0 86.5065 12.2187 1057 110.921 349.158 445.328
245 0 88.4581 13.9727 1236 107.922 351.01 445.489
246 0 90.3704 12.9689 1172 111.29 350.933 435.616
247 0 95.4489 17.9677 1715 105.621 351.755 438.201
248 1 49.2858 9.61737 474 109.532 352.304 463.869
249 0 51.3406 10.6543 547 107.181 354.146 460.77
250 0 50.3718 10.8195 545 112.11 355.072 453.908
251 0 54.4307 14.3853 783 108.033 354.885 457.515
252 0 56.3164 15.5195 874 105.903 356.367 458.951
253 0 57.2647 11.1936 641 112.271 357.526 461.145
254 0 57.5062 12.0335 692 111.857 356.795 458.081
255 0 60.3272 14.8689 897 107.577 357.601 458.091
256 0 63.3989 15.016 952 107.182 356.233 456.92
257 0 67.3327 14.5843 982 108.309 357.68 460.02
258 0 65.2001 13.1288 856 111.211 356.312 461.657
259 0 66.2563 12.4667 826 112.011 356.708 456.546
260 0 68.3632 11.673 798 112.999 357.318 460.907
261 0 73.3118 15.8228 1160 107.734 356.149 457.097
262 0 74.2467 13.2262 982 110.263 355.403 458.873
263 0 75.3871 12.522 944 111.734 355.672 457.382
264 0 79.2845 13.7354 1089 109.948 356.887 458.921
265 0 82.3402 12.3391 1016 111.205 355.712 459.455
266 0 81.1934 10.1732 826 115.023 355.081 452.627
267 0 89.4768 16.06 1437 104.059 353.832 459.112
268 1 44.0446 10.4213 459 108.913 354.048 474.355
269 0 47.0932 9.55552 450 109.633 352.122 473.491
270 0 52.1719 13.1297 685 102.048 352.276 472.226
271 0 51.1525 13.5086 691 100.938 351.122 470.19
272 0 52.1802 13.8558 723 100.748 350.585 471.654
273 0 55.1895 14.9666 826 98.2046 350.266 471.643
274 0 54.0945 13.3655 723 102.006 350.888 466.333
275 0 57.1855 13.9021 795 99.7535 350.545 467.96
276 0 59.2403 14.1289 837 99.9522 350.311 467.171
277 0 60.3216 11.8697 716 103.878 349.872 464.504
278 0 58.2349 12.295 716 104.144 350.008 463.024
279 0 63.2684 11.791 746 104.071 350.213 457.765
280 0 65.2659 15.3373 1001 100.606 349.429 454.375
281 0 67.2614 16.1757 1088 101.309 349.357 456.297
282 0 69.1255 14.3652 993 103.95 349.531 452.125
283 0 69.1255 14.2639 986 125.079 349.571 452.089
284 0 77.2156 10.0627 777 107.837 350.484 452.26
285 0 76.3673 12.6756 968 107.347 350.46 444.988
286 0 75.1494 10.193 766 110.837 351.02 446.321
287 0 80.2367 10.2571 823 110.825 351.815 443.679
288 0 83.2305 13.1682 1096 109.256 351.453 439.153
289 0 85.2599 10.2158 871 111.688 352.48 446.3
290 0 87.3141 13.3426 1165 110.5 353.48 437.664
291 0 96.259 19.2813 1856 102.198 353.956 434.927
292 0 94.6137 11.2774 1067 112.341 355.089 436.466
293 0 98.7076 12.8865 1272 109.888 356.579 434.406
294 0 102.51 16.3399 1675 106.512 357.215 429.396
295 0 111.539 12.6323 1409 102.573 358.086 445.234
296 0 111.539 12.713 1418 141.185 358.084 445.26
297 1 53.3093 8.59137 458 105.712 357.421 457.135
298 0 62.3597 14.5767 909 98.3718 358.831 457.063
299 0 61.1441 18.1538 1110 95.2856 357.961 458.763
300 0 64.1224 12.5229 803 100.95 358.895 459.441
301 0 65.3602 8.47611 554 102.986 358.838 466.72
302 0 68.2242 15.6396 1067 98.045 358.85 457.634
303 0 74.0554 11.4509 848 101.185 358.779 458.737
304 0 73.1046 11.2168 820 103.332 358.591 457.104
305 0 77.125 13.355 1030 99.2563 357.905 461.598
306 0 79.3054 14.7405 1169 98.4269 356.66 459.563
307 0 82.198 13.8324 1137 101.96 356.886 452.709
308 0 86.1906 14.5492 1254 100.797 356.565 453.219
309 1 45.3334 11.1838 507 102.389 354.022 473.712
310 0 48.1579 16.5705 798 97.084 354.276 471.495
311 0 49.1079 12.0958 594 101.911 354.862 471.303
312 0 51.1272 12.6743 648 102.267 355.522 474.252
313 0 51.1137 13.1863 674 102.976 355.407 470.772
314 0 53.1321 17.5412 932 98.0976 353.959 471.548
315 0 55.1952 11.2147 619 105.712 353.153 468.94
316 0 57.1857 16.0704 919 98.0533 353.074 470.918
317 0 58.1835 12.0481 701 103.456 352.464 468.437
318 0 60.0724 10.3875 624 106.324 351.686 467.471
319 0 62.1073 14.3622 892 103.573 351.335 461.698
320 0 62.1596 12.7414 792 105.345 351.407 462.207
321 0 60.183 9.12217 549 107.945 351.186 465.74
322 0 67.2196 11.7674 791 106.36 351.478 458.287
323 0 70.1899 13.7627 966 102.598 349.637 452.734
324 0 78.1955 15.6786 1226 98.4976 350.111 456.036
325 0 77.3024 13.1044 1013 103.349 351.088 453.089
326 0 80.4156 16.9868 1366 99.6523 350.529 448.04
327 0 84.5493 14.7251 1245 100.235 351.448 452.044
328 0 88.3264 13.3935 1183 104.518 352.061 443.818
329 0 87.415 12.1375 1061 107.204 352.179 441.243
330 0 93.1896 18.4463 1719 98.8906 352.184 442.622
331 1 47.0508 11.7532 553 109.391 354.514 458.886
332 0 48.064 12.0048 577 109.645 355.692 456.896
333 0 52.4281 14.1909 744 105.763 353.173 453.973
334 0 55.2257 22.9422 1267 95.7506 353.455 451.625
335 0 57.1778 15.1632 867 105.236 354.542 453.606
336 0 58.3555 13.572 792 107.365 354.961 454.583
337 0 58.0978 10.6889 621 108.994 357.113 454.863
338 0 63.2815 17.0192 1077 100.297 358.036 452.302
339 0 65.297 14.0435 917 103.57 359.916 456.113
340 0 65.3198 10.9461 715 110.523 361.011 455.529
341 1 131.596 13.7162 1805 113.829 359.584 424.968
342 1 67.1656 11.8215 794 109.7 361.476 456.573
343 0 71.2479 14.7092 1048 103.723 361.689 454.567
344 0 75.2242 15.0085 1129 103.539 361.517 455.278
345 0 74.2027 13.234 982 105.955 362.406 455.984
346 0 77.205 12.4733 963 107.382 361.553 454.375
347 0 81.4174 12.6386 1029 107.438 361.805 454.396
348 0 86.3755 18.8479 1628 99.5154 360.548 453.704
349 0 87.2358 13.6297 1189 107.315 360.638 451.207
350 0 93.3416 15.5879 1455 103.663 360.372 452.022
351 1 49.1842 11.7721 579 107.684 358.073 470.71
352 0 52.1509 10.0669 525 112.636 357.326 470.179
353 0 53.1607 12.8478 683 107.589 356.918 467.183
354 0 55.0781 14.198 782 104.688 356.843 468.358
355 0 58.1969 15.1898 884 102.163 356.085 467.766
356 0 58.4466 12.5756 735 107.815 355.963 467.971
357 0 60.3166 14.341 865 106.627 356.28 461.979
358 0 62.2209 13.8539 862 106.068 355.219 465.594
359 0 64.2358 15.9413 1024 103.576 354.328 463.534
360 0 63.2787 12.6267 799 109.131 353.667 461.687
361 1 131.357 12.0359 1581 114.232 353.299 431.593
362 1 72.1811 13.0782 944 106.691 353.746 458.941
363 0 73.2182 15.4333 1130 104.496 352.813 453.561
364 0 75.2802 12.0882 910 108.703 352.533 452.031
365 0 80.6565 13.1421 1060 107.047 352.512 453.151
366 0 80.4036 14.5143 1167 107.925 352.222 448.536
367 0 80.2725 11.735 942 114.707 352.542 445.999
368 0 87.2381 11.6348 1015 112.233 352.205 447.753
369 0 89.2426 13.2672 1184 110.876 352.335 441.513
370 0 91.461 10.4525 956 116.461 352.886 437.874
371 0 97.4353 16.7496 1632 108.273 353.581 437.45
372 0 96.5468 15.6815 1514 109.785 353.579 435.462
373 0 101.925 17.2577 1759 107.976 353.532 430.854
374 1 54.3677 13.5007 734 109.891 355.459 453.516
375 0 54.3315 11.6875 635 111.123 356.529 455.548
376 0 55.1603 9.86216 544 110.358 355.142 452.055
377 0 58.1861 14.3849 837 103.102 356.111 454.392
378 0 60.3912 13.1642 795 105.039 356.984 450.135
379 0 63.1467 15.9153 1005 101.173 357.848 453.551
380 0 64.4921 13.7226 885 104.936 359.246 450.788
381 0 66.288 14.7387 977 103.534 359.491 450.385
382 0 70.3514 15.4936 1090 102.263 360.717 450.893
383 0 71.2663 16.0104 1141 102.045 361.382 447.602
384 0 72.2014 14.5565 1051 103.638 361.185 449.519
385 0 74.1443 17.4794 1296 100.738 361.294 449
386 0 78.2665 16.6866 1306 101.709 361.398 449.187
387 0 79.1929 19.181 1519 99.4036 361.432 450.92
388 0 83.3313 15.7084 1309 103.495 362.784 449.186
389 0 83.3036 11.8002 983 107.315 361.787 450.457
390 0 88.2865 13.5808 1199 107.044 361.578 445.562
391 0 89.252 14.1509 1263 107.002 361.485 448.68
392 0 93.3826 12.1543 1135 108.967 361.83 450.883
393 0 95.1961 16.6183 1582 103.793 359.833 449.906
394 0 97.3826 13.5651 1321 108.665 360.279 447.189
395 0 100.489 14.9967 1507 108.53 359.214 446.107
396 0 104.557 13.2464 1385 111.031 359.203 439.773
397 0 108.595 15.0375 1633 107.976 359.421 443.121
398 0 112.771 13.727 1548 110.239 358.136 438.442
399 1 62.6468 13.2968 833 106.19 358.054 464.078
400 0 61.4378 11.6866 718 109.185 357.283 463.857
401 0 65.3204 11.3135 739 108.686 356.31 461.882
402 0 66.2399 14.372 952 104.63 355.911 460.047
403 0 68.2378 12.4418 849 104.608 355.545 462.932
404 0 70.1579 13.9257 977 102.01 354.957 462.008
405 0 71.2689 13.9472 994 103.869 354.356 456.887
406 0 74.1588 16.7209 1240 100.444 353.456 450.442
407 0 78.1388 16.6627 1302 100.263 352.542 452.72
408 0 78.2044 12.3139 963 105.935 352.606 447.413
409 0 82.2035 16.155 1328 101.932 352.812 444.554
410 0 86.1299 12.8527 1107 104.121 351.466 447.738
411 0 87.3106 19.2416 1680 98.225 351.478 444.843
412 0 87.1098 7.58812 661 111.516 352.747 444.135
413 0 94.3322 14.9578 1411 104.6 351.554 435.279
414 0 97.405 15.2662 1487 103.888 352.966 435.751
415 1 56.2038 14.1983 798 101.035 354.402 457.624
416 0 56.2273 14.0501 790 102.218 354.629 455.987
417 0 56.3661 16.4993 930 102.035 354.767 451.115
418 0 59.0981 13.5537 801 105.929 354.226 451.436
419 0 61.1486 11.3494 694 113.027 353.769 450.438
420 0 64.0801 14.5287 931 108.09 354.664 448.708
421 0 67.1015 13.8596 930 107.775 354.997 451.184
422 0 70.1809 13.8642 973 109.18 355.6 445.734
423 0 73.2688 13.0751 958 110.629 357.514 446.859
424 0 78.3904 13.9175 1091 108.784 357.592 443.225
425 0 78.2943 14.3689 1125 109.991 358.984 442.561
426 0 83.3304 14.7005 1225 108.632 358.907 445.377
427 0 82.2505 15.2461 1254 109.849 359.228 442.226
428 0 83.2311 17.2652 1437 107.299 360.737 443.154
429 0 87.1993 17.5804 1533 103.08 361.469 445.686
430 0 90.2112 14.0781 1270 108.543 362.85 442.599
431 1 43.0558 9.56897 412 111.913 360.995 465.35
432 0 44.1249 9.88103 436 112.472 361.667 466.736
433 0 48.0454 12.5298 602 108.257 361.689 467.766
434 0 51.1095 19.0963 976 96.585 361.412 468.492
435 0 49.0981 10.8966 535 108.907 361.86 471.241
436 0 51.0958 13.3671 683 106.653 361.873 469.846
437 0 51.0469 12.8118 654 108.119 360.387 470.203
438 0 52.3185 9.67153 506 111.109 360.35 471.71
439 0 56.1039 14.8118 831 104.781 359.191 470.296
440 0 54.0556 10.2117 552 110.344 359.813 469.254
441 0 59.1223 14.6645 867 102.356 359.02 470.914
442 0 60.181 12.1301 730 107.844 359.068 465.781
443 0 62.1626 11.3251 704 110.474 358.055 464.946
444 0 64.1273 11.4772 736 109.072 357.861 463.592
445 0 65.2423 13.197 861 108.21 356.508 460.071
446 0 68.1546 13.0879 892 106.879 357.066 461.154
447 0 71.0518 14.3839 1022 105.94 356.673 459.125
448 0 73.2265 12.5911 922 109.258 355.681 456.011
449 0 76.1926 14.2927 1089 106.057 354.837 453.752
450 0 78.0717 13.5388 1057 107.955 354.334 452.257
451 0 79.1009 13.7419 1087 107.516 355.086 451.757
452 0 83.2041 10.8528 903 110.305 354.876 452.597
453 0 87.1675 15.9348 1389 104.076 353.79 446.824
454 0 87.3299 11.5424 1008 111.057 353.934 445.875
455 0 90.154 12.4676 1124 107.847 353.521 441.578
456 0 95.174 12.1147 1153 107.046 353.876 444.284
457 1 52.0979 18.0621 941 99.3698 353.358 462.928
458 0 51.5252 12.2076 629 108.288 352.901 457.642
459 0 53.0775 15.2042 807 100.093 351.45 456.048
460 0 54.2078 14.1861 769 101.083 351.752 459.111
461 0 57.1693 15.5678 890 100.128 352.519 455.522
462 0 58.1269 11.6125 675 105.164 352.819 455.733
463 0 61.1047 7.92083 484 109.26 352.946 454.302
464 0 63.136 15.4429 975 99.7846 353.321 451.942
465 0 67.2319 17.0752 1148 96.5862 353.897 453.05
466 0 65.104 11.8272 770 104.065 355.219 453.903
467 0 69.1905 12.6173 873 102.629 355.011 456.243
468 0 71.1752 11.5068 819 103.172 355.162 454.465
469 0 73.1911 13.9225 1019 100.223 356.233 455.365
470 0 74.3202 11.4101 848 103.737 356.662 455.18
471 1 153.446 13.0405 2001 105.576 357.569 416.045
472 1 81.2783 12.6971 1032 102.547 357.376 452.779
473 0 81.4109 11.9026 969 105.266 357.989 448.697
474 0 87.2598 14.7834 1290 102.459 358.42 449.8
475 0 86.4088 11.11 960 106.9 357.605 455.21
476 0 90.2014 12.7049 1146 103.978 357.675 459.233
477 0 94.2142 13.2464 1248 105.272 356.958 451.223
478 0 97.1428 13.1868 1281 105.81 356.459 454.71
479 0 96.3967 13.5897 1310 102.783 356.902 447.264
480 1 51.4452 11.4296 588 98.631 355.985 472.389
481 0 53.1527 11.9843 637 105.575 355.647 473.163
482 0 52.3155 13.0554 683 103.791 355.473 468.539
483 0 55.0189 13.1046 721 103.118 352.705 471.431
484 0 54.0642 13.1695 712 104.816 352.263 466.928
485 0 59.1556 12.1375 718 104.024 350.375 466.77
486 0 57.0568 19.2089 1096 97.4024 350.346 467.001
487 0 63.0848 13.3154 840 104.387 350.188 464.362
488 0 65.1212 13.8511 902 101.873 349.4 469.062
489 0 68.0663 16.4986 1123 98.8201 348.607 469.123
490 0 67.0916 15.3521 1030 101.746 348.846 465.564
491 0 70.0924 13.7818 966 104.872 346.989 459.511
492 0 74.1023 16.1938 1200 101.041 347.596 461.861
493 0 75.2815 13.7883 1038 105.012 347.122 457.707
494 0 77.225 13.4801 1041 101.828 346.568 457.852
495 0 78.3388 11.1311 872 107.155 346.06 453.424
496 0 84.2403 14.1263 1190 102.021 346.392 451.724
497 0 86.3737 13.1406 1135 105.104 345.88 448.663
498 0 89.2672 16.0641 1434 102.011 346.002 447.238
499 0 91.2702 16.0403 1464 103.746 347.328 449.116
500 1 50.0581 11.187 560 108.45 347.786 470.127
501 0 53.1066 16.3257 867 102.001 348.308 465.116
502 0 55.1701 12.0355 664 107.991 349.151 462.033
503 0 54.0709 14.0556 760 102.895 349.739 464.287
504 0 54.2642 11.5177 625 106.688 347.709 466.576
505 0 57.1408 18.4807 1056 98.1648 348.402 464.237
506 0 58.1893 12.15 707 107.973 349.082 459.925
507 0 60.242 12.3668 745 107.164 349.65 460.059
508 0 61.219 10.781 660 109.002 351.567 460.892
509 0 64.2468 13.6193 875 105.971 352.202 458.465
510 0 66.2673 18.3801 1218 100.414 352.575 459.744
511 0 67.1915 13.975 939 107.481 354.102 454.367
512 0 70.1646 14.6513 1028 106.346 354.926 454.492
513 0 72.4668 12.4747 904 109.423 356.132 454.835
514 0 73.2205 13.6983 1003 107.234 355.84 456.69
515 0 76.2481 14.6364 1116 106.702 356.2 452.754
516 0 83.3297 16.3687 1364 101.931 354.865 453.595
517 0 81.1913 9.76706 793 111.246 355.203 454.551
518 0 86.2422 13.8215 1192 103.878 355.49 450.7
519 0 87.2085 10.515 917 108.469 356.64 451.523
520 0 90.4605 10.8445 981 109.617 352.946 447.024
521 1 51.058 11.9276 609 101.724 355.323 478.524
522 0 52.0843 14.1501 737 102.773 354.412 473.269
523 0 52.1391 12.716 663 106.002 356.537 473.846
524 0 56.1082 17.1276 961 98.4464 355.867 478.178
525 0 56.103 13.0474 732 104.303 355.142 477.954
526 0 57.2095 11.9735 685 107.377 355.358 474.966
527 0 60.1776 13.5266 814 103.461 353.644 476.015
528 0 61.3118 14.5975 895 103.458 353.244 472.136
529 0 64.2267 17.9053 1150 99.4026 351.87 470.473
530 0 64.2077 12.8022 822 105.67 352.373 472.444
531 0 67.4655 12.3322 832 104.879 351.332 467.43
532 0 69.1311 15.5502 1075 100.266 349.381 463.633
533 0 73.1242 13.4976 987 105.756 348.564 465.091
534 0 74.0812 11.7304 869 106.023 348.563 464.047
535 0 76.2671 13.4134 1023 105.305 347.217 460.703
536 0 79.2939 18.2738 1449 97.3982 347.574 456.418
537 0 83.4067 15.6222 1303 100.746 347.5 453.906
538 0 85.3286 15.2469 1301 99.4327 347.146 452.599
539 0 89.2144 11.321 1010 108.649 347.238 451.34
540 0 91.1589 12.0998 1103 112.165 346.248 449.489
541 1 45.103 13.7907 622 106.092 345.437 472.759
542 0 46.0791 14.3015 659 104.839 344.713 470.871
543 0 47.3122 11.3501 537 110.264 346.48 467.749
544 0 47.3122 11.4558 542 135.598 347.493 467.679
545 0 51.1229 12.3819 633 105.439 349.302 468.373
546 0 51.1229 12.4797 638 123.619 350.259 468.29
547 0 56.1801 10.6977 601 105.423 351.463 467.72
548 0 58.2178 17.2971 1007 98.1092 350.892 464.284
549 0 61.2977 21.4527 1315 92.651 350.821 462.977
550 0 62.414 16.1823 1010 99.3168 352.482 461.297
551 0 59.5179 11.2907 672 107.265 352.753 461.07
552 0 63.1678 15.4034 973 101.809 352.63 459.189
553 0 64.2999 11.7107 753 106.533 352.697 457.691
554 0 66.5061 13.5176 899 104.424 353.824 459.022
555 0 70.3798 21.2561 1496 95.385 352.844 459.278
556 0 74.5374 17.5214 1306 99.4801 354.882 459.259
557 0 76.2729 15.8379 1208 102.523 356.306 457.839
558 0 76.3678 14.2861 1091 105.784 356.221 456.889
559 0 79.4538 14.1718 1126 106.032 356.225 457.261
560 0 82.2492 12.6567 1041 109.109 357.305 457.948
561 0 83.3356 15.2156 1268 105.769 356.25 458.199
562 0 85.404 14.2031 1213 108.449 357.219 455.428
563 0 89.4354 15.1506 1355 107.72 356.813 451.802
564 0 91.417 12.6782 1159 110.817 356.501 457.412
565 0 94.4548 14.2714 1348 110.386 355.249 450.486
566 0 100.567 12.708 1278 111.187 354.619 455.409
567 1 54.4165 10.2726 559 113.515 354.626 474.029
568 0 57.3455 13.9505 800 108.592 354.795 474.094
569 0 60.1115 15.7707 948 104.737 354.7 474.679
570 0 62.5481 17.2507 1079 101.487 353.385 472.644
571 0 62.2784 12.2193 761 109.752 353.056 470.853
572 0 64.407 14.3618 925 108.315 352.547 469.169
573 1 126.281 16.5978 2096 106.324 350.988 448.464
574 1 67.3009 11.0845 746 113.587 351.692 468.658
575 0 70.2438 15.3038 1075 107.933 350.308 465.759
576 0 72.3629 15.2564 1104 109.029 349.583 466.486
577 0 74.4357 13.2732 988 111.831 348.988 462.485
578 0 78.3405 16.39 1284 106.654 348.498 463.988
579 0 81.2836 17.9003 1455 104.951 348.223 461.278
580 0 80.2322 13.3363 1070 113.899 347.941 459.422
581 1 38.2601 12.2321 468 114.712 347.91 471.915
582 0 43.3874 12.3999 538 111.29 347.61 471.498
583 0 44.0756 14.5659 642 109.849 345.863 472.475
584 0 46.1114 15.6361 721 108.182 345.632 469.735
585 0 47.0759 14.2323 670 111.048 346.584 468.118
586 0 49.1753 19.1966 944 102.85 347.608 469.207
587 0 49.1032 14.3983 707 110.154 348.32 468.419
588 0 49.1053 14.6013 717 112.001 348.344 465.78
589 0 50.0663 14.8603 744 113.085 348.527 462.091
590 0 50.0625 13.8028 691 115.876 348.217 461.365
591 0 54.121 17.8119 964 107.763 350.245 460.468
592 0 58.2018 16.1507 940 109.532 350.422 460.46
593 0 56.093 13.1211 736 117.003 350.952 460.477
594 0 58.0572 11.1442 647 120.731 351.232 457.298
595 0 61.2279 16.6264 1018 110.318 351.658 457.253
596 0 66.0928 13.7988 912 114.622 353.13 455.901
597 0 66.0928 13.7534 909 138.689 355.121 455.924
598 0 70.3817 15.5864 1097 114.223 354.366 458.785
599 0 71.2615 14.3556 1023 115.987 354.5 457.175
600 0 74.3042 15.5846 1158 113.623 354.576 457.947
601 1 36.2721 13.3436 484 109.095 354.758 474.969
602 0 38.101 12.4669 475 110.579 354.966 474.914
603 0 38.1226 10.8072 412 114.84 355.318 476.073
604 0 39.1439 11.1895 438 113.525 355.737 475.69
605 0 41.211 13.904 573 109.801 355.401 477.564
606 0 41.1269 13.8595 570 107.8 355.702 480.651
607 0 44.2295 13.9048 615 108.037 356.291 480.886
608 0 41.1076 9.97383 410 115.249 354.702 481.471
609 0 45.0379 11.1906 504 113.397 354.97 481.425
610 0 48.4286 13.236 641 110.694 355.393 480.106
611 0 47.1834 10.3002 486 115.965 354.798 480.183
612 0 50.1595 13.158 660 116.43 354.823 477.924
613 0 54.2869 17.1312 930 109.123 354.569 474.625
614 0 55.5834 13.4213 746 114.996 353.528 477.954
615 0 56.5836 16.6656 943 111.516 353.597 474.099
616 0 59.8035 15.367 919 112.637 351.859 475.271
617 0 61.3914 14.9532 918 114.914 351.413 471.552
618 0 64.3624 16.3139 1050 112.434 351.321 471.585
619 0 65.3697 18.5713 1214 109.467 350.185 468.867
620 0 67.3549 14.7428 993 115.671 348.268 467.162
621 0 66.4166 14.1681 941 117.818 348.833 467.463
622 1 32.2673 13.2642 428 118.063 348.138 482.273
623 0 31.1465 11.9114 371 122.628 348.617 480.202
624 0 35.3712 12.9767 459 120.808 349.022 478.876
625 0 36.0999 12.6039 455 123.954 348.736 478.209
626 0 43.7742 14.1179 618 116.241 349.35 474.112
627 0 41.3033 14.5751 602 116.209 349.385 473.862
628 0 44.3695 15.6864 696 115.217 349.693 471.862
629 0 46.2562 19.0893 883 108.481 349.794 471.028
630 0 46.3361 15.1933 704 115.162 350.199 470.656
631 0 47.7658 12.7707 610 120.084 350.872 467.477
632 0 50.3296 17.5046 881 112.347 350.061 466.263
633 0 49.2263 14.4638 712 118.044 352.317 467.622
634 0 49.21 16.6633 820 116.394 352.509 465.026
635 0 51.1258 16.5279 845 116.651 353.369 464.012
636 0 55.7768 15.5979 870 115.567 353.664 465.855
637 0 53.5297 13.7307 735 122.976 354.392 463.99
638 0 55.6508 15.8488 882 119.143 354.351 461.315
639 0 58.4341 15.7271 919 118.965 354.982 460.781
640 0 60.4255 17.4926 1057 115.363 355.71 459.55
641 0 63.3521 17.0949 1083 116.083 356.73 457.753
642 0 63.4169 15.6583 993 119.25 357.199 458.358
643 0 67.1377 15.1331 1016 119.635 358.179 460.303
644 0 68.1672 16.1955 1104 117.729 358.652 459.262
645 0 70.2167 15.794 1109 118.604 358.933 458.863
646 0 77.2418 18.7463 1448 111.091 357.57 460.47
647 0 80.4936 19.3183 1555 109.999 357.822 460.473
648 0 78.2898 14.1015 1104 120.56 356.648 456.159
649 0 85.323 15.9043 1357 114.991 357.508 457.519
650 0 86.2181 15.4144 1329 115.682 356.772 458.547
651 1 44.1559 11.9576 528 119.629 357.028 478.489
652 0 47.0236 12.0153 565 120.623 355.842 476.035
653 0 48.2051 14.5213 700 116.574 355.55 474.966
654 0 50.2891 14.3172 720 116.99 354.06 472.522
655 0 52.4721 14.7507 774 116.209 354.235 472.199
656 0 55.2842 14.6696 811 115.091 353.428 471.711
657 0 57.4129 14.5786 837 114.865 351.926 472.047
658 0 57.3522 14.8556 852 115.824 352.162 469.373
659 0 61.4556 16.8252 1034 112.178 350.227 470.045
660 0 61.372 15.2513 936 115.571 350.285 468.919
661 0 65.3788 15.5096 1014 115.17 349.703 468.009
662 0 67.3653 15.0523 1014 117.742 349.056 464.48
663 0 70.2567 14.8456 1043 117.698 348.586 463.181
664 0 69.4811 12.4063 862 122.748 347.968 459.538
665 1 37.026 11.1273 412 111.813 346.362 478.007
666 0 39.0457 12.7287 497 109.728 347.74 472.823
667 0 39.0664 8.83113 345 118.826 346.855 472.333
668 0 41.0773 13.3164 547 105.669 347.347 473.455
669 0 43.0473 11.2667 485 107.431 349.146 476.175
670 0 45.2685 12.2381 554 106.973 349.24 474.69
671 0 45.1811 13.0143 588 107.031 349.053 471.243
672 0 46.2233 14.4516 668 106.067 348.301 469.258
673 0 50.1103 13.61 682 107.23 348.85 465.199
674 0 49.2898 14.4249 711 107.976 349.816 465.729
675 0 50.1511 11.1463 559 114.42 349.17 463.42
676 0 51.1521 9.79432 501 117.443 350.397 465.351
677 0 54.0715 11.2999 611 114.642 351.119 460.224
678 0 56.0763 16.424 921 106.211 351.492 464.553
679 0 58.1559 12.862 748 113.821 351.987 458.344
680 0 59.2578 12.3697 733 115.142 352.87 459.263
681 0 57.1496 8.36402 478 123.178 351.837 458.665
682 0 62.1375 11.2332 698 118.703 351.943 456.397
683 0 66.3224 11.0068 730 117.571 353.653 457.826
684 0 69.3666 11.5906 804 118.888 353.956 457.745
685 0 68.3512 11.002 752 120.459 354.485 453.879
686 0 72.1493 13.9433 1006 115.837 353.744 452.435
687 0 76.3391 11.6978 893 118.512 355.159 455.412
688 1 42.2266 12.4566 526 115.255 355.146 471.793
689 0 45.1501 10.8084 488 117.184 354.781 473.217
690 0 41.0336 11.7708 483 109.631 355.244 477.157
691 0 43.0998 13.3179 574 108.284 356.552 477.551
692 0 43.1478 6.72108 290 116.948 356.228 480.538
693 0 45.0742 8.54146 385 115.878 356.517 477.403
694 0 49.0952 9.83804 483 113.184 355.876 478.95
695 0 47.0488 9.09693 428 116.075 355.748 477.558
696 0 48.0633 9.42508 453 115.481 355.424 479.589
697 0 52.255 10.7932 564 113.2 356.344 473.227
698 0 53.1243 11.0872 589 112.53 355.319 476.37
699 0 56.057 11.5062 645 112.888 354.581 473.817
700 1 111.486 11.0597 1233 120.197 352.27 447.525
701 0 115.437 13.5312 1562 114.735 351.438 444.008
702 1 57.1715 7.22388 413 118.148 351.407 472.993
703 0 61.1536 10.2038 624 112.992 351.489 473.923
704 0 63.0659 10.6872 674 114.01 350.801 468.568
705 0 65.251 10.4673 683 112.887 349.829 472.489
706 0 65.1407 11.5442 752 112.059 349.305 470.136
707 0 70.083 6.50657 456 117.601 349.068 470.575
708 1 36.1062 8.50269 307 115.896 350.127 481.951
709 0 40.2082 11.2912 454 110.093 348.509 480.185
710 0 40.1308 13.7052 550 105.302 347.507 477.295
711 0 38.0459 9.14684 348 113.414 349.17 479.454
712 0 47.4857 10.7611 511 108.888 346.804 477.53
713 0 45.1671 8.72317 394 111.505 348.69 479.558
714 0 44.2314 8.41032 372 112.395 347.616 477.32
715 0 43.341 12.3901 537 108.292 348.845 473.868
716 0 44.1945 9.88812 437 110.865 349.078 473.336
717 0 46.1087 13.338 615 106.161 349.564 470.013
718 0 47.2312 9.95104 470 110.489 348.968 469.906
719 0 49.188 12.1778 599 107.08 350.294 469.381
720 0 50.2382 10.5497 530 110.911 351.002 469.055
721 0 54.0658 9.76588 528 112.205 351.042 468.759
722 0 54.1143 11.0322 597 110.38 350.92 467.71
723 0 55.1278 12.2987 678 109.506 352.68 466.622
724 0 53.2696 10.6627 568 112.678 352.384 469.049
725 0 57.2371 12.4919 715 112.924 352.552 466.796
726 0 63.1376 13.5102 853 110.159 352.603 462.259
727 0 62.0543 12.9886 806 111.517 353.86 463.733
728 0 67.1502 12.2859 825 112.318 353.738 460.148
729 0 70.2736 13.1344 923 109.39 353.839 461.335
730 0 73.2865 13.263 972 109.437 354.626 460.368
731 0 72.2141 11.2028 809 114.321 353.969 461.985
732 0 76.1885 18.3886 1401 102.302 354.966 464.276
733 1 41.1222 11.3321 466 113.517 353.47 479.416
734 0 42.0513 13.4835 567 109.663 353.646 480.004
735 0 41.0622 12.2497 503 114.378 353.976 479.982
736 0 45.208 14.931 675 109.382 353.096 477.119
737 0 45.2963 12.0098 544 111.961 353.954 482.077
738 0 46.3004 12.3109 570 113.316 352.37 480.254
739 0 48.2159 13.481 650 111.18 352.835 480.585
740 0 47.0302 11.9073 560 115.586 351.914 478.63
741 0 50.1871 15.1234 759 109.848 352.158 476.357
742 0 52.2285 13.7856 720 111.378 351.085 478.228
743 0 55.0631 13.0396 718 112.684 350.717 479.521
744 0 55.1766 12.2516 676 115.247 350.525 475.666
745 0 57.1259 12.5512 717 114.964 349.566 473.623
746 0 59.2349 16.2404 962 110.183 349.511 472.45
747 0 61.1722 11.9499 731 116.751 348.588 473.646
748 0 63.2632 15.6963 993 110.769 348.425 472.474
749 0 64.2739 17.2076 1106 109.167 348.969 468.307
750 0 65.1694 14.8382 967 115.499 348.612 465.927
751 0 67.1878 16.372 1100 112.378 348.786 465.802
752 0 67.2916 13.018 876 119.412 348.427 464.507
753 0 70.3819 14.6629 1032 115.453 348.023 461.328
754 0 73.3052 13.1369 963 117.38 348.03 460.373
755 0 74.2012 13.9351 1034 116.23 348.097 459.796
756 0 77.2533 14.1353 1092 115.66 348.363 458.332
757 0 81.259 15.949 1296 111.438 349.1 457.965
758 0 85.2869 19.8389 1692 106.044 349.323 451.979
759 0 85.261 15.3646 1310 114.181 349.999 449.945
760 0 86.2727 12.2287 1055 120.156 349.8 449.915
761 1 44.2723 12.378 548 122.354 349.715 468.332
762 0 46.393 12.7605 592 121.812 351.38 468.36
763 0 46.3632 13.006 603 122.426 351.501 463.151
764 0 48.0564 15.0865 725 106.316 352.276 462.774
765 0 48.0924 13.2453 637 109.422 352.493 462.52
766 0 49.142 13.695 673 107.771 352.141 461.602
767 0 52.2128 14.7473 770 106.431 352.974 463.382
768 0 51.1709 12.1358 621 110.929 354.193 464.556
769 0 56.1118 15.2909 858 110.819 353.582 468.446
770 0 57.0981 14.5364 830 113.298 353.665 468.183
771 0 61.116 16.9514 1036 110.743 354.718 463.842
772 0 61.116 16.9023 1033 129.504 354.71 463.916
773 0 62.1651 16.5849 1031 112.258 354.635 463.716
774 0 65.0236 17.9935 1170 109.944 355.543 463.087
775 0 68.2043 15.5562 1061 113.179 356.406 462.671
776 0 69.2049 17.2676 1195 110.971 355.349 462.628
777 0 73.2162 14.0543 1029 113.824 355.787 464.338
778 0 74.3214 16.2672 1209 111.808 355.4 461.49
779 0 76.2524 13.7701 1050 115.893 355.132 463.457
780 0 79.4022 15.6041 1239 112.236 355.056 460.087
781 0 82.3103 15.6845 1291 111.443 353.901 463.449
782 0 86.3294 16.1706 1396 111.373 354.085 460.097
783 0 86.22 12.3753 1067 116.637 354.405 464.455
784 1 45.0823 11.4679 517 116.563 352.468 480.551
785 0 48.2557 12.9104 623 111.228 354.496 478.002
786 0 48.1021 11.1638 537 115.793 354.428 474.216
787 0 50.1405 13.6417 684 104.744 351.972 469.36
788 0 51.4449 13.2958 684 104.313 351.978 471.149
789 0 52.3879 12.6365 662 105.835 350.708 468.008
790 0 54.2939 11.8245 642 107.491 350.385 468.963
791 0 56.2406 14.6869 826 102.7 350.139 469.277
792 0 58.1199 13.5238 786 104.814 350.639 463.043
793 0 61.3619 14.9441 917 102.544 349.516 464.101
794 0 59.1776 17.4897 1035 100.843 349.657 463.784
795 0 62.1327 13.0688 812 107.684 349.484 460.554
796 0 64.419 14.0486 905 106.569 349.132 456.021
797 0 66.2617 16.0726 1065 104.97 349.217 452.522
798 0 67.2439 12.3283 829 111.922 348.819 452.52
799 0 70.2169 17.7735 1248 103.361 348.734 456.808
800 0 72.1806 13.9234 1005 112.003 350.082 459.735
801 0 77.2497 16.246 1255 108.328 349.242 454.61
802 0 79.2148 18.5193 1467 104.581 350.079 452.939
803 0 83.1449 17.3913 1446 105.998 350.238 450.995
804 0 83.4074 16.1017 1343 109.997 350.143 447.022
805 0 87.3634 13.8731 1212 111.659 350.936 449.535
806 0 92.3284 26.7523 2470 96.0624 350.908 442.814
807 0 94.3501 16.5024 1557 108.622 352.241 442.109
808 1 51.2062 14.881 762 108.282 351.76 465.437
809 0 52.209 12.201 637 114.074 353.369 463.242
810 0 53.3926 18.2984 977 104.288 356.27 456.616
811 0 53.1161 14.553 773 110.211 353.829 459.567
812 0 55.1436 11.2978 623 116.234 355.101 461.734
813 0 56.2852 12.259 690 115.352 354.786 461.272
814 0 61.2948 15.5315 952 108.78 355.088 460.604
815 0 62.1071 15.0707 936 110.757 355.263 460.081
816 0 64.2724 14.1429 909 111.37 353.836 457.969
817 0 66.179 14.1888 939 110.836 355.253 459.575
818 0 70.1993 15.9688 1121 108.439 355.533 459.02
819 0 70.2474 14.9045 1047 111.104 355.29 455.345
820 0 72.1949 13.4497 971 111.253 355.104 459.856
821 0 75.5069 13.4425 1015 111.53 354.326 457.234
822 0 77.2091 15.9178 1229 104.913 355.24 460.941
823 0 80.2698 11.4863 922 112.099 354.78 461.114
824 0 83.3421 14.6745 1223 108.702 354.119 455.572
825 0 86.2443 13.6705 1179 109.207 354.248 458.578
826 0 89.2007 12.9147 1152 109.943 353.482 458.424
827 0 94.2114 13.2362 1247 109.222 354.43 454.701
828 1 49.1267 10.7477 528 110.97 352.737 477.504
829 0 50.0637 12.1246 607 109.526 351.588 475.115
830 0 51.0469 11.8127 603 107.902 350.594 476.138
831 0 52.1487 9.3962 490 111.847 350.312 474.337
832 0 56.074 12.2517 687 106.156 350.396 471.911
833 0 56.2136 12.3458 694 106.016 349.633 466.742
834 0 59.1103 12.1468 718 103.928 348.52 471.946
835 0 62.1686 14.2998 889 101.904 349.777 465.209
836 0 62.2933 9.53554 594 106.764 348.308 466.737
837 0 65.2553 12.045 786 103.655 348.438 463.324
838 0 66.1603 11.8953 787 104.592 348.624 462.633
839 0 70.3167 13.4961 949 103.005 348.764 459.745
840 0 73.1888 11.0809 811 105.686 349.142 457.528
841 0 75.3073 12.2697 924 104.3 347.976 455.825
842 0 75.1432 4.67108 351 114.037 347.501 459.336
843 0 80.4467 11.2497 905 106.175 348.901 451.086
844 0 84.4181 11.4194 964 105.505 348.738 452.131
845 0 86.3126 11.9913 1035 105.096 350.438 450.284
846 1 47.0917 10.8512 511 103.149 348.755 469.115
847 0 48.1751 10.8562 523 102.413 349.709 467.845
848 0 45.4427 12.5653 571 101.982 350.779 463.352
849 0 49.3029 14.1574 698 100.895 351.132 464.511
850 0 52.2342 13.9564 729 101.272 351.683 463.291
851 0 51.1642 11.3947 583 105.218 352.969 465.528
852 0 54.2134 13.8527 751 100.523 352.656 464.545
853 0 52.2065 9.73059 508 107.809 353.843 464.343
854 0 56.3896 13.6373 769 102.313 354.559 462.696
855 0 58.3385 14.7073 858 101.362 354.956 462.287
856 0 58.5421 12.2305 716 103.918 354.304 464.571
857 0 62.2928 14.0626 876 102.37 355.89 462.491
858 0 62.1799 13.091 814 104.456 355.45 459.699
859 0 67.3421 14.4041 970 101.953 357.013 462.266
860 0 67.3273 13.3081 896 104.446 356.268 462.769
861 0 67.26 13.0538 878 106.716 357.104 460.336
862 0 71.3617 13.4806 962 104.878 357.02 459.899
863 0 75.3854 14.8304 1118 102.037 355.699 462.775
864 0 77.524 12.0737 936 106.392 356.96 459.595
865 0 79.2483 13.2747 1052 104.887 356.202 460.591
866 0 83.2009 14.2547 1186 102.922 355.815 457.154
867 0 88.3307 10.9928 971 106.345 355.527 460.56
868 0 89.3681 15.0837 1348 101.454 354.625 455.073
869 0 91.5278 11.0349 1010 108.034 354.86 456.985
870 1 44.0751 13.2728 585 103.009 354.385 480.938
871 0 47.3126 12.6605 599 103.215 353.23 477.476
872 0 48.3156 12.2321 591 103.641 352.682 474.409
873 0 50.4358 13.2446 668 103.647 351.711 474.234
874 0 50.2919 14.555 732 99.571 351.484 478.585
875 0 50.4891 15.7262 794 100.771 351.273 474.429
876 0 52.1401 14.3651 749 103.299 350.975 474.023
877 0 53.5694 14.0565 753 103.845 350.234 472.661
878 0 56.2968 15.9334 897 100.26 349.477 470.98
879 0 58.2033 16.0128 932 102.314 350.667 470.212
880 0 58.3706 13.5513 791 104.528 350.442 468.178
881 0 58.5049 14.2552 834 103.576 350.271 466.211
882 0 57.5153 12.8661 740 106.619 349.782 462.212
883 0 62.4027 15.0154 937 101.168 349.79 464.348
884 0 63.4697 13.2819 843 105.128 348.839 456.344
885 0 67.1623 15.1424 1017 101.858 349.495 457.461
886 0 69.3109 16.1302 1118 101.819 349.055 454.36
887 0 71.6064 14.4261 1033 103.499 349.621 453.448
888 0 77.4689 15.0641 1167 100.457 350.314 455.515
889 0 73.4275 11.5624 849 107.406 350.88 451.895
890 0 78.4549 15.7415 1235 102.476 351.505 448.518
891 1 39.2298 19.6279 770 97.1039 351.729 467.164
892 0 42.5402 12.7879 544 106.252 351.801 464.833
893 0 44.4007 16.7115 742 99.0014 352.561 466.875
894 0 45.3389 14.0938 639 105.049 352.685 463.786
895 0 45.7883 13.5187 619 106.294 353.551 463.111
896 0 48.3764 14.3458 694 105.488 354.62 464.304
897 0 48.2188 13.024 628 108.5 354.704 465.326
898 0 53.4341 15.3834 822 102.718 354.517 466.344
899 0 53.3381 13.5738 724 107.028 355.32 465.133
900 0 53.0916 10.303 547 112.431 356.486 468.115
901 0 56.2895 11.7429 661 110.088 357.57 465.277
902 0 60.2022 16.2785 980 103.143 357.252 465.164
903 0 61.1014 13.9931 855 106.536 358.412 462.847
904 0 62.3251 12.4027 773 108.69 357.931 464.182
905 0 66.2903 13.1844 874 107.594 358.135 461.849
906 0 68.2012 10.1611 693 110.124 358.587 466.04
907 0 74.4031 17.2036 1280 100.727 357.842 461.723
908 0 76.4528 17.1478 1311 100.032 356.91 463.632
909 0 76.2591 12.392 945 108.213 357.288 460.668
910 0 80.1347 12.2793 984 108.506 357.009 457.617
911 0 85.2127 15.9718 1361 102.585 356.71 461.45
912 0 86.3145 13.7173 1184 106.244 357.234 456.885
913 0 89.4162 13.2303 1183 107.313 356.237 461.372
914 1 46.0475 14.2244 655 103.644 355.26 480.339
915 0 46.0868 15.2538 703 103.145 354.37 477.879
916 0 47.112 11.4621 540 108.672 353.55 476.167
917 0 49.14 13.2479 651 105.753 353.3 476.73
918 0 50.2907 12.6465 636 106.846 353.464 475.476
919 0 53.1773 17.5075 931 99.8571 352.325 474.205
920 0 51.196 11.4853 588 109.847 351.634 472.146
921 0 57.1211 14.1104 806 103.269 350.923 472.577
922 0 57.2747 12.1694 697 106.696 351.343 472.244
923 0 59.1733 14.2294 842 104.086 350.368 463.452
924 0 62.1113 14.7799 918 103.253 350.833 462.853
925 0 65.1305 14.755 961 102.497 351.178 462.246
926 0 66.1773 13.8869 919 102.925 351.441 463.446
927 0 68.1055 12.9946 885 104.748 350.649 458.772
928 0 72.167 18.374 1326 96.5 350.897 460.765
929 0 73.234 18.0927 1325 98.1192 352.078 454.18
930 0 73.234 18.2156 1334 112.595 353.062 454.16
931 0 75.1602 10.298 774 107.721 352.422 452.629
932 0 79.159 14.2372 1127 103.264 352.98 446.895
933 0 83.2626 15.1809 1264 101.185 353.127 449.026
934 0 83.2918 13.6388 1136 104.154 353.93 446.942
935 0 83.2514 12.4082 1033 106.912 354.083 444.974
936 0 89.2223 14.7833 1319 102.819 354.728 446.056
937 0 91.2421 14.73 1344 103.479 355.882 441.283
938 0 95.3106 14.5314 1385 103.785 356.073 437.846
939 0 99.2359 16.5867 1646 100.625 356.659 442.859
940 1 51.0497 12.3605 631 102.509 356.908 463.905
941 0 55.1817 14.6788 810 99.1148 356.993 464.068
942 0 56.1833 11.5871 651 104.304 357.111 459.389
943 0 60.085 14.3131 860 100.177 356.945 459.32
944 0 63.0534 19.3646 1221 93.86 357.941 461.283
945 0 63.1707 12.9807 820 101.115 357.995 464.015
946 0 68.0996 18.1058 1233 94.3909 357.568 460.957
947 0 70.1232 19.0379 1335 93.1506 357.506 458.413
948 0 74.1876 16.9975 1261 96.0619 359.049 459.542
949 0 71.2874 10.8014 770 104.435 358.831 461.031
950 0 75.1574 13.1591 989 101.19 358.87 460.364
951 0 83.3486 16.7729 1398 95.6316 358.143 458.396
952 0 83.3165 17.6316 1469 94.4221 357.619 463.486
953 0 88.1679 16.8315 1484 95.9447 357.629 457.44
954 0 88.3182 11.1415 984 103.9 357.116 455.787
955 0 92.278 10.9994 1015 103.26 356.829 460.027
956 1 50.0999 13.8723 695 99.2 356.519 477.519
957 0 49.0382 12.7044 623 101.483 356.441 475.607
958 0 51.1399 12.0258 615 101.953 355.566 472.959
959 0 52.1693 13.8971 725 99.4855 353.735 476.108
960 0 54.116 8.79591 476 104.588 354.691 478
961 0 54.0728 12.1318 656 102.009 353.098 473.274
962 0 58.1378 14.7752 859 98.1804 353.556 474.877
963 0 58.0922 13.6507 793 101.256 352.888 469.353
964 0 59.1592 12.4241 735 103.26 352.396 466.208
965 0 60.1379 12.1221 729 103.379 352.313 466.251
966 0 63.1411 12.3216 778 103.215 351.591 466.012
967 0 66.1015 14.039 928 100.345 352.005 458.653
968 0 69.1207 12.5722 869 102.077 351.49 460.554
969 0 72.1802 12.4827 901 102.296 350.719 459.002
970 0 75.0542 18.0003 1351 95.9852 350.415 456.223
971 0 75.1248 13.604 1022 100.786 350.987 458.513
972 0 77.2108 13.1847 1018 102.242 351.847 453.069
973 0 82.2366 18.7143 1539 96.2229 350.391 448.427
974 0 82.3506 16.8791 1390 97.9273 351.278 456.214
975 0 81.2434 10.7824 876 108.413 351.691 447.653
976 0 84.1127 12.6972 1068 105.624 352.316 447.74
977 0 85.4045 11.5216 984 109.312 352.138 446.756
978 0 88.4111 12.6907 1122 109.391 352.998 442.037
979 0 95.2892 17.2632 1645 102.044 352.463 441.642
980 0 97.5564 12.8131 1250 107.83 353.484 442.659
981 1 50.5121 9.30469 470 113.891 355.27 461.534
982 0 53.7614 12.4811 671 106.216 354.004 460.775
983 0 50.7281 9.04825 459 109.087 355.928 454.009
984 0 57.6076 11.1964 645 104.479 356.698 457.07
985 0 56.3776 13.2854 749 101.1 357.431 460.951
986 0 58.2778 10.3985 606 103.477 357.772 458.721
987 0 59.2432 11.8326 701 104.014 358.15 457.312
988 0 64.2635 12.0753 776 105.009 357.577 457.702
989 0 62.3294 11.8724 740 101.907 359.184 450.864
990 0 65.2914 19.2981 1260 95.2135 357.299 454.311
991 0 65.3841 12.6636 828 101.382 358.368 453.475
992 0 71.8191 16.1935 1163 96.38 358.208 450.129
993 0 73.627 18.6888 1376 95.4644 357.896 455.209
994 0 80.5788 15.9347 1284 94.9369 357.477 455.81
995 0 80.3763 13.2875 1068 100.189 356.44 455.093
996 0 81.5398 12.546 1023 103.18 358.089 453.756
997 0 81.2709 12.5506 1020 111.763 357.365 451.127
998 0 88.4424 11.6347 1029 108.818 356.005 447.202
999 0 93.6175 13.3736 1252 106.511 354.697 449.085
1000 1 47.4772 11.2264 533 103.086 353.407 471.022
1001 0 50.2462 13.4936 678 104.097 351.857 476.004
1002 0 52.1573 13.5935 709 104.47 350.528 474.003
1003 0 54.3112 13.8277 751 104.322 349.494 469.683
1004 0 55.3821 12.0075 665 105.546 349.618 470.269
1005 0 58.1123 15.7798 917 102.197 349.32 468.663
1006 0 58.3622 16.706 975 101.376 349.555 464.368
1007 0 61.4477 15.8509 974 101.767 348.697 468.52
1008 0 61.4477 15.7044 965 120.969 347.722 468.482
1009 0 61.3027 14.9912 919 104.724 348.977 462.543
1010 0 64.3086 14.5237 934 103.873 348.307 466.482
1011 0 64.2682 16.4156 1055 103.53 349.021 460.387
1012 0 62.3892 13.7684 859 108.966 348.863 460.047
1013 0 69.222 13.0594 904 108.959 348.602 458.467
1014 0 74.3341 19.7756 1470 98.5449 348.837 460.212
1015 0 73.2228 14.4354 1057 107.989 342.608 450.973
1016 0 75.7061 13.8694 1050 108.022 344.288 452.29
1017 0 78.2899 17.7418 1389 103.327 349.397 448.052
1018 0 81.4798 14.3348 1168 110.01 349.827 447.491
1019 1 43.2676 11.14 482 113.942 349.39 464.882
1020 0 41.2072 11.5271 475 116.143 350.063 462.646
1021 0 43.5323 17.2056 749 98.5541 351.645 459.92
1022 0 43.3209 10.2029 442 108.308 352.597 458.656
1023 0 44.0615 11.0754 488 104.744 352.352 464.352
1024 0 45.1771 13.0376 589 104.284 352.334 460.348
1025 0 48.375 15.5866 754 101.192 354.928 459.286
1026 0 48.1736 10.7528 518 108.732 354.633 458.714
1027 0 49.0863 10.9807 539 107.636 356.237 458.128
1028 0 52.1909 10.3083 538 107.704 355.714 461.522
1029 0 51.1693 9.84966 504 109.56 355.808 462.446
1030 0 49.1624 8.46175 416 113.478 355.464 455.526
1031 0 54.2726 16.325 886 102.416 356.679 457.44
1032 0 58.2201 13.9814 814 105.327 356.872 458.205
1033 0 61.4263 12.8772 791 105.442 357.535 460.874
1034 0 63.2621 12.8197 811 106.244 356.915 458.924
1035 0 67.2025 13.2733 892 105.839 357.311 461.154
1036 0 69.3237 14.0356 973 102.721 356.39 461.96
1037 0 69.2701 14.826 1027 103.162 357.005 458.31
1038 0 72.4744 12.8045 928 105.371 356.927 461.713
1039 0 74.3889 13.3488 993 105.444 356.459 460.729
1040 0 75.4012 14.204 1071 104.276 355.872 455.246
1041 0 78.3051 11.4935 900 108.416 355.537 455.183
1042 0 78.3477 11.1043 870 110.84 354.969 454.669
1043 0 85.5673 17.1327 1466 103.01 353.796 451.982
1044 1 41.1862 10.5375 434 104.512 352.106 475.823
1045 0 44.0972 9.97796 440 105.423 351.482 474.655
1046 0 44.1799 11.8153 522 99.6284 352.408 472.201
1047 0 46.1465 10.575 488 101.535 350.445 471.59
1048 0 44.1773 9.82406 434 102.624 351.12 469.924
1049 0 46.2792 8.68641 402 103.44 350.542 471.632
1050 0 47.2854 8.86108 419 103.289 349.196 467.998
1051 0 51.316 9.45125 485 102.464 350.095 469.237
1052 0 51.316 11.5559 593 115.449 351.145 467.943
1053 0 53.296 9.26898 494 101.826 348.615 467.557
1054 0 52.2325 10.3767 542 102.395 349.686 461.788
1055 0 56.0809 12.9099 724 97.9931 349.246 460.192
1056 0 59.1126 14.0241 829 95.8866 349.387 463.142
1057 0 62.1085 10.7715 669 101.155 349.428 456.286
1058 0 61.1666 8.19074 501 104.174 348.439 457.461
1059 0 67.2899 12.0969 814 100.593 348.941 454.869
1060 0 66.2219 15.8709 1051 97.2264 349.957 450.848
1061 0 70.2322 11.4762 806 101.367 349.931 454.227
1062 0 72.1255 17.8162 1285 95.0957 350.311 451.569
1063 0 74.2077 11.6026 861 102.797 350.39 444.495
1064 0 77.3529 11.4928 889 109.27 350.54 451.51
1065 0 77.1544 11.2891 871 110.34 351.33 447.503
1066 1 41.2503 9.45449 390 110.649 350.623 464.851
1067 0 45.0518 10.3881 468 107.662 350.263 466.6
1068 0 47.3519 15.2475 722 99.036 352.461 465.76
1069 0 46.1349 10.8811 502 106.608 352.195 463.763
1070 0 49.148 9.50192 467 109.195 353.116 465.21
1071 0 51.0613 12.3577 631 104.93 353.756 461.756
1072 0 51.179 13.3062 681 104.314 353.567 464.827
1073 0 52.0923 11.6332 606 107.383 354.035 465.206
1074 0 55.1133 12.81 706 105.171 354.939 463.986
1075 0 56.1098 12.529 703 105.292 354.632 464.792
1076 0 59.1006 13.1809 779 104.543 355.303 463.893
1077 0 59.1006 13.164 778 118.692 356.317 463.923
1078 0 62.0775 16.2378 1008 100.723 354.941 464.934
1079 0 66.15 14.3764 951 103.855 355.249 463.267
1080 0 68.2404 13.5843 927 104.585 354.064 464.013
1081 0 70.2818 12.8625 904 105.888 354.283 465.727
1082 0 71.202 12.4856 889 107.505 354.44 465.648
1083 0 78.4218 16.628 1304 100.628 354.278 465.657
1084 0 78.2558 10.7596 842 108.448 353.35 468.071
1085 0 83.2465 14.9556 1245 104.255 353.16 460.707
1086 1 45.0893 13.0186 587 105.518 352.162 479.455
1087 0 46.048 10.5542 486 110.22 351.833 478.866
1088 0 48.5348 12.9598 629 104.593 353.866 478.652
1089 0 46.3522 11.0459 512 109.02 353.592 476.574
1090 0 49.6913 11.6721 580 110.397 351.691 475.117
1091 0 50.529 13.8138 698 107.342 352.434 472.456
1092 0 52.3466 12.6656 663 109.701 351.843 473.967
1093 0 54.4711 11.474 625 111.597 351.163 471.256
1094 0 57.4765 15.8674 912 103.737 349.617 471.155
1095 0 58.6738 13.5665 796 107.833 349.593 467.443
1096 0 58.6738 13.5324 794 139.73 349.593 467.456
1097 0 56.0881 12.6408 709 106.227 349.893 469.269
1098 0 56.0881 12.6408 709 123.467 349.887 469.22
1099 0 62.1713 12.2886 764 105.707 350.887 465.687
1100 0 63.1608 12.5869 795 105.616 350.752 463.326
1101 0 66.116 14.9586 989 102.837 350.719 459.479
1102 0 69.1738 14.6154 1011 103.288 349.877 459.749
1103 0 71.2911 13.2836 947 105.241 349.471 455.614
1104 0 74.3193 12.6212 938 105.249 351.832 455.438
1105 0 76.1563 12.4349 947 105.482 351.238 453.706
1106 0 78.191 10.5511 825 108.104 352.112 453.104
1107 0 81.2832 11.4784 933 108.228 350.375 448.59
1108 0 83.4164 14.7093 1227 103.518 352.882 445.059
1109 0 86.2073 11.6579 1005 106.536 352.846 450.241
1110 0 87.2104 10.1708 887 107.731 354.38 451.23
1111 0 94.1994 12.654 1192 105.126 354.177 445.302
1112 0 95.2919 12.1626 1159 106.186 354.962 444.272
1113 0 95.2632 8.80718 839 109.915 355.774 447.546
1114 0 100.291 13.5406 1358 104.637 355.286 438.506
1115 0 103.253 14.1691 1463 103.809 356.2 435.799
1116 0 106.123 12.0803 1282 105.42 357.037 445.497
1117 0 113.509 15.8578 1800 100.966 356.174 441.869
1118 0 110.314 9.52733 1051 111.148 357.34 436.074
1119 0 117.342 12.2292 1435 107.143 356.338 435.949
1120 1 61.1583 11.5275 705 107.774 358.289 461.408
1121 0 60.4113 11.1734 675 111.867 356.636 459.554
1122 0 63.5623 11.5635 735 110.562 356.378 463.842
1123 0 64.4624 10.8435 699 113.329 353.96 463.881
1124 0 68.2835 14.9377 1020 105.889 353.69 465.854
1125 0 71.5506 13.1795 943 109.165 353.636 463.362
1126 0 73.3787 16.0264 1176 105.916 354.036 463.063
1127 0 78.4862 18.0159 1414 101.566 353.8 465.37
1128 0 78.3391 12.6246 989 110.841 352.203 463.177
1129 0 82.4054 13.5792 1119 109.109 352.139 462.345
1130 0 82.3117 15.0161 1236 108.68 351.245 464.644
1131 0 85.883 13.9492 1198 110.093 351.274 459.719
1132 0 87.3764 13.6078 1189 111.077 349.902 461.241
1133 0 91.4711 14.7369 1348 110.543 349.315 461.099
1134 0 93.5772 19.6522 1839 102.113 347.569 457.142
1135 0 97.8564 14.1432 1384 110.921 348.827 458.514
1136 0 96.4102 9.6774 933 117.484 347.601 457.22
1137 0 96.6428 14.5588 1407 111.896 347.832 448.979
1138 0 103.48 14.4763 1498 111.615 347.646 444.962
1139 0 103.387 11.0168 1139 111 347.561 442.333
1140 0 111.432 12.7971 1426 105.963 348.165 451.741
1141 0 113.32 14.1281 1601 108.079 347.886 443.439
1142 0 116.549 12.2781 1431 113.67 348.432 435.704
1143 1 64.8468 12.1054 785 107.781 348.107 462.573
1144 0 65.2947 12.0837 789 108.46 348.202 464.024
1145 0 68.4432 17.1967 1177 100.594 347.288 461.723
1146 0 70.3752 11.1545 785 109.777 346.778 458.325
1147 0 73.2425 13.0116 953 107.961 347.27 455.946
1148 0 74.3493 15.9786 1188 103.21 347.603 454.023
1149 0 77.3731 14.708 1138 104.717 348.518 456.34
1150 0 80.324 16.4708 1323 103.349 348.258 452.374
1151 0 81.2884 17.0996 1390 103.267 349.44 452.85
1152 0 85.3224 16.0099 1366 105.437 350.33 448.316
1153 0 87.3927 12.5296 1095 111.405 349.978 447.744
1154 0 87.3927 12.4724 1090 138.822 348.942 448.072
1155 0 92.2605 14.8926 1374 109.368 352.036 444.041
1156 0 95.3804 12.6231 1204 112.42 352.471 445.068
1157 0 98.4708 13.4151 1321 112.241 354.036 441.002
1158 0 102.486 11.2698 1155 114.684 355.117 441.784
1159 0 108.504 18.4048 1997 103.238 354.889 444.716
1160 1 55.3614 11.434 633 113.667 355.237 462.679
1161 0 56.1947 12.3855 696 111.246 357.329 467.483
1162 0 59.1176 13.7353 812 108.755 356.341 464.275
1163 0 60.3057 11.3256 683 117.457 356.77 464.911
1164 0 62.3528 15.284 953 110.319 355.142 464.235
1165 0 65.3124 13.5043 882 112.29 355.999 463.334
1166 0 68.4343 15.5332 1063 109.379 355.797 462.317
1167 0 70.3277 16.1103 1133 108.975 355.815 459.629
1168 0 71.4594 13.4622 962 113.427 355.758 460.526
1169 0 75.2734 13.8429 1042 112.715 355.75 461.941
1170 0 75.3767 12.8422 968 114.76 355.181 461.401
1171 0 78.52 13.0285 1023 116.088 354.7 460.02
1172 0 82.3228 11.8315 974 117.967 354.046 459.671
1173 0 86.4574 12.4686 1078 115.945 353.535 459.514
1174 0 89.3123 15.5634 1390 111.177 352.752 455.856
1175 0 91.3015 14.8957 1360 112.475 351.943 456.556
1176 0 94.3237 14.0474 1325 114.012 351.638 455.377
1177 0 95.2742 13.4979 1286 116.037 350.361 451.442
1178 1 51.0549 13.2015 674 111.924 351.46 474.377
1179 0 52.0658 11.2166 584 113.865 350.647 478.652
1180 0 53.2093 13.5879 723 110.423 349.975 473.21
1181 0 57.097 11.1389 636 112.14 349.212 473.459
1182 0 55.2766 11.5419 638 112.917 349.11 473.038
1183 0 59.3491 13.7997 819 110.416 349.375 470.195
1184 0 59.0861 10.7809 637 114.342 349.76 469.826
1185 0 62.111 13.2183 821 110.033 349.068 465.982
1186 0 66.1132 17.0314 1126 103.331 348.32 463.83
1187 0 66.0795 10.6236 702 113.236 349.413 462.999
1188 0 66.0795 10.7295 709 141.102 350.406 463.062
1189 0 73.2764 13.1284 962 109.812 348.347 455.765
1190 0 74.0536 15.6913 1162 106.517 349.343 454.361
1191 0 76.1403 11.8859 905 112.466 351.023 453.234
1192 0 77.2679 13.8091 1067 109.803 350.246 451.291
1193 0 80.1445 15.1601 1215 107.545 351.644 447.836
1194 0 82.1237 13.1509 1080 111.209 353.133 446.946
1195 0 83.1148 12.6572 1052 113.274 352.606 446.034
1196 0 88.1169 13.6977 1207 110.818 353.692 445.469
1197 0 93.1893 16.8582 1571 106.094 354.31 444.413
1198 0 95.1518 14.7238 1401 110.996 353.817 440.056
1199 0 96.2298 11.0153 1060 116.374 354.958 444.264
1200 0 99.205 13.5074 1340 114.069 354.981 434.639
1201 0 101.166 11.9803 1212 117.222 355.882 438.039
1202 0 105.265 15.0953 1589 111.901 356.03 438.108
1203 0 110.339 11.655 1286 115.779 354.59 438.2
1204 0 114.251 17.339 1981 106.746 354.408 438.199
1205 1 61.1257 9.25961 566 112.972 353.191 467.783
1206 0 61.3896 12.4614 765 113.216 353.499 462.469
1207 0 65.2752 14.1248 922 108.214 353.047 460.751
1208 0 68.2336 14.421 984 111.657 353.775 462.702
1209 0 68.2017 11.7006 798 116.82 353.893 463.873
1210 0 73.2296 16.2503 1190 107.577 353.348 463.743
1211 0 77.372 16.3754 1267 107.276 352.616 463.437
1212 0 79.3158 12.8978 1023 114.743 353.368 460.772
1213 0 80.2376 15.5164 1245 110.68 352.623 458.879
1214 0 85.143 15.5268 1322 108.562 353.948 461.224
1215 0 86.2237 13.1054 1130 112.819 353.135 460.722
1216 0 92.2348 15.6991 1448 108.418 352.292 458.666
1217 0 92.2803 16.1356 1489 109.746 351.921 456.804
1218 0 91.3417 11.4187 1043 118.177 350.984 456.546
1219 0 94.3389 12.5399 1183 116.899 350.439 454.196
1220 0 101.222 18.6619 1889 106.258 349.759 454.439
1221 0 99.2028 13.2254 1312 117.658 349.187 451.97
1222 0 106.407 16.0609 1709 111.843 348.514 452.504
1223 0 106.267 14.8776 1581 115.472 348.256 449.46
1224 0 113.317 12.9901 1472 117.484 348.004 446.477
1225 0 110.241 14.1598 1561 119.184 347.922 443.272
1226 0 116.393 13.2396 1541 117.228 348.005 437.491
1227 0 120.255 14.8934 1791 112.374 346.964 437.08
1228 0 124.39 15.8051 1966 111.129 347.204 432.124
1229 0 127.405 14.2538 1816 113.494 347.287 423.085
1230 0 132.528 12.8727 1706 115.734 347.119 424.109
1231 1 69.2008 11.6039 803 111.87 346.374 459.012
1232 0 72.3259 18.3337 1326 103.411 346.422 454.35
1233 0 74.2422 11.2739 837 110.07 348.3 451.845
1234 0 76.4168 14.6695 1121 104.885 349.43 450.681
1235 0 76.1676 9.33468 711 112.904 349.61 440.814
1236 0 81.1785 11.4562 930 109.08 349.083 445.485
1237 0 81.3128 11.7325 954 110.336 350.91 441.499
1238 0 85.2397 11.3914 971 108.674 350.295 446.201
1239 0 90.2309 12.202 1101 107.815 351.589 441.123
1240 0 93.4563 12.8937 1205 108.124 351.863 433.507
1241 0 95.3155 14.4258 1375 105.652 352.68 438.804
1242 0 99.2803 13.1547 1306 107.215 353.688 434.498
1243 0 103.436 12.6262 1306 108.139 354.723 437.844
1244 1 55.1667 13.0332 719 110.647 354.847 464.727
1245 0 59.1837 12.9428 766 108.482 357.298 461.333
1246 0 57.2038 11.6601 667 112.727 357.511 459.751
1247 0 63.103 16.6712 1052 103.037 358.476 462.366
1248 0 62.171 13.3342 829 113.852 358.415 460.622
1249 0 64.2403 13.7608 884 111.562 358.844 464.557
1250 0 68.0758 12.442 847 113.407 359.523 463.054
1251 0 70.0852 13.6263 955 111.45 359.282 463.795
1252 0 71.0955 12.1105 861 114.315 358.526 459.677
1253 0 74.0975 12.3216 913 113.423 357.692 463.716
1254 0 76.2275 12.2134 931 113.561 356.894 465.134
1255 0 77.0982 12.4387 959 114.119 356.628 460.041
1256 0 82.236 11.771 968 115.095 356.45 462.028
1257 0 84.1601 17.6093 1482 104.789 356.228 462.831
1258 0 87.1966 13.957 1217 111.335 355.514 459.723
1259 0 89.1588 13.9863 1247 111.832 354.86 457.203
1260 0 94.1285 13.5878 1279 111.694 352.818 458.869
1261 0 96.1622 12.5309 1205 113.392 352.951 454.421
1262 0 100.166 14.6557 1468 110.337 352.939 454.279
1263 1 57.1072 11.9775 684 109.987 351.545 476.692
1264 0 56.2367 12.8208 721 108.526 349.071 474.417
1265 0 56.2367 12.8208 721 130.06 348.075 474.409
1266 0 59.3346 14.8649 882 101.241 347.064 466.315
1267 0 60.3201 11.0245 665 107.032 346.925 468.547
1268 0 61.2043 10.277 629 107.973 345.404 467.87
1269 0 62.087 13.6099 845 103.149 346.054 464.974
1270 0 66.2401 13.0888 867 103.794 345.062 461.33
1271 0 68.305 13.0737 893 103.319 346.67 461.803
1272 0 74.21 11.2518 835 104.283 346.362 460.751
1273 0 73.0412 12.3629 903 104.355 346.808 456.112
1274 0 76.0893 12.1962 928 104.548 346.719 456.222
1275 0 78.1687 16.6691 1303 98.3853 347.604 454.631
1276 0 81.1003 14.1676 1149 101.599 347.198 450.1
1277 0 84.3259 14.9183 1258 101.357 348.751 447.683
1278 0 83.3025 12.0525 1004 105.538 348.615 445.756
1279 1 47.2052 10.5073 496 103.234 348.433 465.889
1280 0 48.1514 11.6923 563 99.6021 348.853 467.798
1281 0 50.276 11.2976 568 101.979 350.303 463.438
1282 0 51.1439 11.2623 576 101.573 350.351 464.002
1283 0 53.1599 12.3401 656 100.755 351.654 464.027
1284 0 52.0688 10.4285 543 103.807 352.503 463.304
1285 0 55.2564 9.51927 526 104.992 352.49 459.728
1286 0 57.1618 13.0857 748 100.925 352.921 461.964
1287 0 58.2202 14.9433 870 98.9805 354.602 463.961
1288 0 59.1179 13.6676 808 102.108 353.855 462.874
1289 0 58.2221 13.3283 776 102.912 354.291 461.854
1290 0 64.2352 13.1704 846 101.796 355.162 463.917
1291 0 69.1542 12.3348 853 102.72 355.008 464.203
1292 0 68.145 14.8947 1015 99.9527 354.555 463.784
1293 0 71.1572 17.6089 1253 95.9561 355.181 466.368
1294 0 72.21 12.7129 918 102.129 355.184 466.605
1295 0 76.2944 14.6144 1115 101.287 355.113 458.31
1296 0 79.371 12.0951 960 104.95 353.845 464.842
1297 0 82.2756 15.7519 1296 99.2955 354.096 464.832
1298 1 43.0667 10.5418 454 107.082 353.39 481.639
1299 0 46.0664 9.7468 449 107.165 353.465 481.944
1300 0 46.1119 12.3179 568 106.775 353.342 479.433
1301 0 48.0738 12.0648 580 105.283 352.431 482.316
1302 0 49.3476 15.2186 751 100.24 352.381 479.932
1303 0 52.1028 14.5866 760 101.359 351.501 479.857
1304 0 54.1945 15.1491 821 100.594 350.677 477.285
1305 0 54.124 12.9887 703 103.115 349.632 476.458
1306 0 54.0414 12.3054 665 104.74 348.684 475.179
1307 0 59.106 18.4922 1093 96.022 348.339 475.897
1308 0 56.1408 9.95711 559 102.887 346.322 475.102
1309 0 64.2358 15.3653 987 99.4053 348.495 465.743
1310 0 65.2524 10.2678 670 105.713 347.825 466.8
1311 0 67.1766 15.8984 1068 99.0562 346.987 465.525
1312 0 70.3269 14.589 1026 101.583 347.887 461.797
1313 0 69.2247 10.0253 694 107.872 348.048 456.818
1314 0 76.2447 16.0011 1220 100.032 347.677 458.136
1315 0 76.1536 10.4657 797 107.246 348.487 452.009
1316 0 80.307 11.8171 949 104.014 348.105 449.472
1317 0 80.4701 11.5447 929 105.51 348.915 448.475
1318 0 83.3704 12.5464 1046 104.198 349.611 443.228
1319 0 86.7057 11.5333 1000 105.466 350.091 443.81
1320 1 47.2953 12.1154 573 102.599 350.923 465.035
1321 0 50.2561 14.2868 718 100.617 351.256 459.357
1322 0 52.2554 12.8599 672 103.801 352.03 463.632
1323 0 53.2425 13.7109 730 103.096 353.467 460.66
1324 0 53.259 11.2094 597 106.709 354.147 460.405
1325 0 56.1536 11.8959 668 104.943 354.9 459.948
1326 0 55.227 11.2626 622 106.394 355.773 458.83
1327 0 58.0987 10.6371 618 106.43 355.573 460.888
1328 0 61.4228 12.6337 776 103.986 355.789 457.039
1329 0 64.2756 11.5907 745 104.26 357.115 460.98
1330 0 67.246 13.5324 910 101.867 356.218 460.776
1331 0 66.1961 9.59272 635 107.444 357.216 462.304
1332 0 72.2916 13.3626 966 103.294 356.767 456.24
1333 0 75.5397 14.1647 1070 101.176 357.208 454.478
1334 0 75.2123 15.6756 1179 100.405 355.74 455.883
1335 0 80.2809 10.4384 838 107.741 357.218 460.73
1336 0 83.1763 14.0545 1169 102.34 356.711 456.983
1337 0 85.2577 13.0311 1111 104.352 356.097 458.193
1338 0 84.1558 16.6477 1401 100.671 355.323 456.192
1339 0 91.2956 18.3032 1671 95.8815 354.956 462.891
1340 0 94.2282 12.1089 1141 104.138 355.099 461.162
1341 1 51.1675 14.306 732 101.926 355.193 476.986
1342 0 55.0834 14.3782 792 100.539 354.04 479.855
1343 0 53.4265 11.586 619 106.956 354.514 477.178
1344 0 55.1896 12.5205 691 101.172 352.236 474.874
1345 0 56.0753 13.8029 774 99.7494 352.385 472.563
1346 0 60.1378 16.9278 1018 95.3644 351.056 471.754
1347 0 60.0978 12.28 738 100.936 351.591 474.687
1348 0 59.0584 12.0559 712 102.808 351.073 468.56
1349 0 61.1373 12.3656 756 103.075 350.504 467.53
1350 0 61.096 12.3249 753 107.667 347.365 475.661
1351 0 61.1468 10.2376 626 113.067 346.85 471.837
1352 0 67.163 15.172 1019 103.738 346.161 463.439
1353 0 68.1962 13.7398 937 106.354 346.736 461.452
1354 0 73.0712 12.6041 921 106.59 346.605 456.388
1355 0 73.1204 11.8572 867 107.699 346.238 458.622
1356 0 76.2236 15.4283 1176 106.389 346.337 453.335
1357 0 75.101 10.8387 814 110.156 347.076 450.741
1358 0 77.1278 10.6058 818 109.225 346.855 447.754
1359 0 84.2584 15.2507 1285 101.72 347.326 446.688
1360 0 87.1313 15.9759 1392 99.7507 347.099 451.061
1361 0 87.2518 9.28348 810 106.12 347.744 441.125
1362 0 87.2518 9.28348 810 132.43 348.744 441.125
1363 1 46.0754 10.9603 505 100.988 348.121 459.513
1364 0 48.0672 11.4631 551 101.691 348.915 457.434
1365 0 51.1405 6.9221 354 103.167 351.127 453.073
1366 0 54.1609 14.3092 775 95.0594 350.538 456.374
1367 0 53.1308 8.2438 438 102.021 352.584 458.135
1368 0 54.4259 7.69855 419 102.811 352.893 457.382
1369 0 56.1814 11.5163 647 97.8393 353.79 459.131
1370 0 60.4444 9.66178 584 101.618 353.08 452.479
1371 0 60.1857 12.4282 748 97.238 354.231 454.175
1372 0 63.1614 10.6077 670 98.0537 354.206 456.248
1373 0 67.3211 11.2892 760 97.0421 354.557 456.014
1374 0 67.1176 9.99738 671 99.8495 354.675 450.937
1375 0 70.2402 14.0518 987 94.7528 354.986 454.043
1376 0 74.2993 11.1037 825 97.1758 355.847 453.667
1377 0 79.495 14.8311 1179 93.419 356.333 448.671
1378 0 78.1296 9.22826 721 100.907 355.7 451.11
1379 0 80.3492 10.7779 866 99.3718 356.338 450.643
1380 0 85.2496 12.5748 1072 97.5942 355.429 451.245
1381 0 89.3098 11.9808 1070 96.2028 354.893 457.573
1382 1 47.2697 9.18136 434 97.9539 353.88 471.753
1383 0 51.3549 15.1689 779 90.8716 354.693 474.656
1384 0 51.4211 11.26 579 97.8411 354.713 470.347
1385 0 53.3544 10.8707 580 95.3828 353.733 473.269
1386 0 54.1099 9.81336 531 98.4143 351.431 471.972
1387 0 58.0973 12.875 748 99.2406 351.112 476.762
1388 0 59.1208 16.6777 986 95.7292 349.473 473.135
1389 0 60.1433 9.9263 597 103.114 348.772 476.447
1390 0 61.1534 14.8152 906 99.3245 347.939 470.002
1391 0 61.1478 11.3659 695 103.597 347.809 471.996
1392 0 63.1106 15.7977 997 97.6349 348.279 471.482
1393 0 69.124 15.0599 1041 99.44 346.939 468.112
1394 0 71.1295 16.7441 1191 97.0369 347.222 469.293
1395 0 72.1304 12.4497 898 104.127 346.483 464.766
1396 0 72.1843 12.3018 888 103.457 346.435 467.892
1397 0 74.2108 13.2999 987 104.614 346.893 458.792
1398 0 80.2634 13.5678 1089 100.028 345.725 463.811
1399 0 81.1635 12.8752 1045 102.058 346.734 454.918
1400 0 84.1879 15.0734 1269 99.5264 346.426 454.202
1401 1 46.0937 11.1295 513 101.988 346.255 472.189
1402 0 50.0677 13.0424 653 100.285 346.554 470.066
1403 0 49.4018 16.1128 796 99.5138 347.486 464.779
1404 0 51.4778 14.4528 744 102.897 347.441 464.22
1405 0 51.5613 14.4876 747 103.803 348.135 462.601
1406 0 55.6071 15.9692 888 100.457 348.932 463.524
1407 0 55.3992 12.3648 685 107.727 349.387 459.977
1408 0 58.4094 15.7338 919 102.254 350.184 457.569
1409 0 60.6419 18.601 1128 98.32 350.776 459.28
1410 0 58.8063 13.723 807 107.861 352.076 458.527
1411 0 58.2264 11.919 694 111.646 352.582 459.481
1412 0 60.5313 11.0521 669 114.262 352.768 462.021
1413 0 64.3531 13.4104 863 111.13 353.093 460.315
1414 0 66.3994 15.7381 1045 108.293 353.89 457.256
1415 0 67.2662 16.7543 1127 107.141 354.184 457.037
1416 0 68.2063 11.7878 804 115.755 354.093 457.93
1417 0 74.3734 15.1667 1128 110.033 355.043 457.853
1418 0 75.3618 15.3128 1154 110.153 354.893 458.371
1419 0 75.2777 13.3107 1002 114.532 355.081 458.211
1420 0 78.3843 17.8862 1402 107.058 354.929 460.052
1421 0 81.3746 13.997 1139 114.234 355.328 459.279
1422 0 86.6783 16.5901 1438 109.407 355.516 460.156
1423 1 43.2154 13.5137 584 113.635 355.339 479.296
1424 0 45.3552 10.7595 488 116.221 355.318 476.213
1425 0 42.2516 8.78074 371 120.294 354.997 477.415
1426 0 50.2284 12.3635 621 112.008 353.517 476.269
1427 0 50.3658 13.124 661 113.526 353.667 478.077
1428 0 50.3658 13.0843 659 148.992 353.672 478.059
1429 0 53.3803 13.7504 734 114.737 352.966 475.466
1430 0 54.1984 16.2551 881 111.62 351.035 473.07
1431 0 56.3934 14.9131 841 114.863 351.149 471.102
1432 0 56.3358 16.9164 953 112.286 349.285 471.235
1433 0 59.3382 13.4146 796 117.04 350.588 470.598
1434 0 60.3198 14.8542 896 114.1 348.779 470.085
1435 0 60.1217 12.9238 777 116.045 348.274 471.323
1436 0 64.2817 14.5298 934 113.154 347.292 469.685
1437 0 64.4048 11.2725 726 114.583 348.452 467.675
1438 0 67.2538 15.4638 1040 107.567 348.238 463.012
1439 0 69.3621 13.0042 902 110.455 348.044 461.27
1440 0 72.5083 11.1298 807 113.82 347.067 462.467
1441 0 74.2744 13.0193 967 111.745 347.272 459.066
1442 0 75.2861 13.3358 1004 112.107 347.006 455.54
1443 0 77.496 14.233 1103 110.9 347.642 452.808
1444 0 80.205 14.5004 1163 110.408 347.215 444.854
1445 0 85.4874 17.6985 1513 105.146 347.688 443.843
1446 1 44.3792 13.3621 593 110.707 348.116 461.769
1447 0 47.3712 12.4548 590 112.373 348.971 462.329
1448 0 48.4156 14.5408 704 108.19 348.214 463.457
1449 0 48.6774 11.9152 580 114.221 349.214 461.919
1450 0 50.4286 17.8073 898 105.763 350.205 460.218
1451 0 53.2092 13.7382 731 108.423 350.356 453.713
1452 0 53.2331 14.3896 766 108.295 351.273 457.521
1453 0 55.4357 13.1504 729 109.278 350.638 462.802
1454 0 56.2059 15.1585 852 107.065 352.077 463.33
1455 0 59.2896 12.498 741 111.579 352.796 458.564
1456 0 61.4519 11.9606 735 112.558 353.77 457.258
1457 0 63.3445 12.8346 813 111.897 354.555 458.258
1458 0 65.4605 13.7793 902 111.254 354.573 455.462
1459 0 66.2976 11.8104 783 112.936 355.119 461.848
1460 0 72.2126 16.9223 1222 105.043 355.345 461.435
1461 0 75.3108 16.2394 1223 105.997 355.591 459.357
1462 0 74.2226 13.4999 1002 111.256 354.95 461.449
1463 0 79.3626 14.8433 1178 109.282 354.99 459.213
1464 0 79.1908 14.2188 1126 110.901 354.901 460.821
1465 0 82.2119 13.7936 1134 112.546 354.81 455.43
1466 0 88.3555 13.5475 1197 112.501 355.403 450.569
1467 0 91.3988 14.7923 1352 111.169 354.254 454.597
1468 1 45.2082 15.0194 679 111.168 354.359 474.15
1469 0 48.3831 14.1578 685 112.695 353.804 474.436
1470 0 49.2401 14.7238 725 111.519 353.218 477.692
1471 0 51.1689 16.9243 866 107.823 351.889 473.544
1472 0 53.2429 14.5747 776 112.727 351.169 473.22
1473 0 55.2885 14.5962 807 111.927 350.045 472.447
1474 0 56.1231 16.1253 905 109.733 349.459 470.265
1475 0 57.1798 15.1452 866 111.165 349.046 472.628
1476 0 62.4007 15.4325 963 110.278 348.712 470.519
1477 0 62.3128 17.2998 1078 108.567 348.116 469.399
1478 0 65.3677 18.373 1201 106.819 347.522 466.798
1479 0 66.346 17.6198 1169 109.026 348.155 463.455
1480 0 68.3998 18.1287 1240 108.823 346.258 459.273
1481 0 73.403 16.1983 1189 112.196 346.415 459.823
1482 0 72.4176 13.1736 954 118.265 346.37 458.196
1483 0 75.2169 15.6215 1175 113.563 346.73 458.088
1484 0 82.287 14.4737 1191 114.937 346.361 454.909
1485 0 81.424 17.0834 1391 112.197 346.834 450.577
1486 0 86.5189 19.0941 1652 106.782 347.338 449.561
1487 0 89.6329 15.7085 1408 113.491 347.402 446.43
1488 1 44.0469 12.237 539 118.484 348.328 470.967
1489 0 46.0398 10.3172 475 117.686 347.331 468.109
1490 0 48.5135 13.254 643 109.212 347.72 461.051
1491 0 52.3161 14.6227 765 107.621 348.173 465.82
1492 0 52.1667 14.7029 767 109.986 349.734 464.442
1493 0 53.509 13.6426 730 111.351 350.347 464.055
1494 0 56.2767 17.1474 965 106.26 350.214 462.641
1495 0 58.2848 13.1767 768 112.24 351.072 462.043
1496 0 59.4414 14.9895 891 109.818 351.707 463.056
1497 0 61.1731 15.0556 921 110.597 353.368 459.071
1498 0 64.281 15.09 970 110.374 352.512 456.932
1499 0 65.5814 14.0741 923 111.758 353.608 457.472
1500 0 68.3579 13.8536 947 113.03 353.794 456.685
1501 0 71.3851 14.1066 1007 111.753 355.066 456.774
1502 0 74.5876 13.7691 1027 112.031 354.252 455.766
1503 0 75.4364 12.6066 951 114.922 354.831 456.783
1504 0 78.5026 15.6683 1230 111.056 354.44 452.705
1505 0 82.6178 16.0619 1327 111.258 355.03 452.023
1506 0 83.5343 11.9233 996 120.858 355.158 455.012
1507 0 88.7771 14.2942 1269 116.076 353.224 454.523
1508 1 46.3988 11.8106 548 114.792 354.301 475.358
1509 0 47.317 13.4412 636 111.717 353.077 477.98
1510 0 46.3372 8.50289 394 120.437 354.16 472.127
1511 0 50.5259 11.8751 600 114.753 352.737 475.813
1512 0 51.1063 11.9946 613 116.77 352.153 480.285
1513 0 52.0789 11.7514 612 118.402 352.487 479.502
1514 0 54.3227 13.2909 722 116.479 351.935 478.478
1515 0 56.2539 15.1101 850 113.2 351.732 474.998
1516 0 59.2657 15.2871 906 112.743 350.644 476.832
1517 0 59.1712 12.7596 755 117.286 349.89 472.944
1518 0 63.4046 12.4124 787 114.526 349.881 476.536
1519 0 65.2409 12.906 842 118.806 349.382 470.451
1520 0 66.2588 10.6552 706 122.499 349.178 467.997
1521 0 69.2586 12.5472 869 118.346 348.749 466.305
1522 0 71.263 12.938 922 115.73 347.663 469.134
1523 0 76.307 16.7219 1276 109.741 347.586 464.732
1524 0 76.2221 12.5161 954 115.897 346.868 465.565
1525 0 81.3232 15.4691 1258 111.18 346.444 459.119
1526 0 84.2788 13.1113 1105 114.178 347.49 457.082
1527 0 87.1984 12.9704 1131 114.235 346.899 456.263
1528 0 88.3491 15.6991 1387 112.555 347.166 450.988
1529 1 47.1302 11.2879 532 113.605 346.581 472.008
1530 0 46.1697 11.0679 511 113.215 347.812 471.166
1531 0 46.1697 10.9812 507 131.256 348.751 471.124
1532 0 51.2641 9.36328 480 117.092 347.892 468.127
1533 0 52.2678 12.3403 645 111.691 347.673 469.45
1534 0 53.3003 12.3639 659 112.824 348.425 461.561
1535 0 55.449 11.9028 660 112.945 349.079 462.973
1536 0 54.3334 11.8343 643 114.582 350.224 461.551
1537 0 60.2684 12.7762 770 111.936 350.564 458.777
1538 0 60.1611 10.2225 615 116.59 351.511 457.031
1539 0 65.3031 14.4863 946 109.5 351.707 458.346
1540 0 66.0675 10.4287 689 115.779 352.183 460.598
1541 0 69.1167 13.8317 956 109.624 352.608 456.722
1542 0 72.177 16.1132 1163 105.96 352.958 457.115
1543 0 75.2711 17.1248 1289 101.621 353.315 463.466
1544 0 77.1972 13.5886 1049 108.234 354.141 455.918
1545 0 79.6683 13.9579 1112 109.835 355.067 452.491
1546 0 80.8068 12.7341 1029 111.238 354.702 456.933
1547 0 82.4872 14.7902 1220 109.247 354.922 453.219
1548 1 169.459 14.5404 2464 114.35 354.826 411.319
1549 1 86.6251 11.6017 1005 113.404 354.78 452.248
1550 0 93.802 14.2214 1334 109.053 354.346 456.476
1551 0 94.6264 13.5163 1279 110.55 353.57 451.748
1552 0 97.0118 12.2047 1184 112.759 354.297 449.242
1553 0 100.815 12.518 1262 112.442 354.227 448.06
1554 1 51.6617 12.8528 664 110.529 354.136 471.349
1555 0 54.5463 11.9348 651 112.332 353.241 472.054
1556 0 56.3744 13.7296 774 109.51 353.358 477.525
1557 0 57.2899 13.3531 765 110.488 353.467 474.919
1558 0 58.5614 12.8583 753 110.987 353.088 473.466
1559 0 61.8679 17.5212 1084 103.017 351.113 472.599
1560 0 61.4967 10.8298 666 112.411 349.656 470.498
1561 0 63.3658 13.1459 833 108.819 349.616 464.941
1562 0 66.7958 14.1476 945 107.411 349.389 462.641
1563 0 68.4747 14.4579 990 106.668 349.284 462.227
1564 0 69.4133 16.1352 1120 105.143 348.797 457.953
1565 0 72.7776 11.542 840 109.929 347.877 462.606
1566 0 74.8051 13.3146 996 107.985 347.943 459.814
1567 0 77.6373 15.3019 1188 105.167 347.494 458.524
1568 0 79.4262 14.0382 1115 106.953 346.714 455.4
1569 0 83.4761 15.2858 1276 106.676 346.66 449.7
1570 0 84.4562 13.2732 1121 109.926 346.447 450.256
1571 0 89.4313 11.7073 1047 112.469 348.095 450.116
1572 0 91.7724 12.8034 1175 111.267 347.714 447.064
1573 0 94.6273 14.1608 1340 110.2 348.162 444.517
1574 0 98.712 12.5415 1238 111.483 347.879 443.926
1575 0 99.1255 13.9722 1385 111.328 349.203 437.754
1576 1 52.4134 13.8514 726 106.358 348.895 459.811
1577 0 54.7076 11.9545 654 107.989 349.289 461.151
1578 0 59.8301 11.2151 671 108.255 349.495 458.991
1579 0 58.515 8.27138 484 112.161 349.99 459.626
1580 0 62.5324 13.6089 851 105.075 350.897 456.717
1581 0 62.3868 12.9835 810 106.386 351.122 456.731
1582 0 64.5376 12.024 776 108.385 351.576 455.071
1583 0 68.2739 12.362 844 107.101 351.617 456.288
1584 0 69.4412 14.7751 1026 103.879 353.092 452.702
1585 0 69.4412 14.7751 1026 128.951 354.142 452.45
1586 0 72.2212 13.334 963 106.925 354.855 450.634
1587 0 76.4465 12.8456 982 107.408 351.871 451.481
1588 0 79.3732 14.7531 1171 104.595 353.4 450.294
1589 0 81.3131 14.5487 1183 104.998 353.671 449.238
1590 0 86.593 12.5068 1083 106.747 354.381 455.431
1591 0 87.4861 13.3964 1172 106.642 354.416 448.183
1592 0 90.5703 13.7021 1241 106.667 354.207 447.09
1593 0 93.6176 14.1426 1324 105.256 353.434 448.68
1594 0 97.5273 13.5039 1317 106.599 353.389 447.131
1595 0 98.5936 13.368 1318 106.882 353.568 448.718
1596 0 102.774 12.7172 1307 108.175 353.41 446.142
1597 0 105.598 14.8677 1570 104.873 353.548 446.174
1598 0 109.441 11.0105 1205 110.674 353.546 445.557
1599 1 58.4253 10.6974 625 107.608 351.901 472.31
1600 0 58.4752 8.41382 492 111.579 351.955 470.171
1601 0 61.1026 10.0978 617 108.794 351.164 473.959
1602 0 62.3624 12.8763 803 106.781 350.734 461.724
1603 0 69.3599 13.12 910 105.377 349.075 462.878
1604 0 68.2162 12.4457 849 107.668 349.284 464.151
1605 0 71.4274 14.6022 1043 104.939 348.677 464.522
1606 0 70.3436 11.387 801 110.583 348.402 460.398
1607 0 76.518 15.199 1163 105.077 348.432 459.897
1608 0 77.289 10.8942 842 110.983 347.396 458.058
1609 0 80.2653 11.6613 936 110.215 346.826 451.548
1610 0 85.1846 16.6814 1421 103.284 347.258 452.733
1611 0 88.3874 15.7149 1389 104.755 346.243 451.566
1612 0 90.2509 15.1245 1365 106.226 346.473 449.199
1613 0 94.2983 15.5782 1469 103.862 346.05 451.646
1614 0 97.3149 16.5237 1608 103.866 346.043 446.73
1615 0 98.3024 12.1665 1196 110.497 345.34 443.581
1616 0 103.333 15.0678 1557 106.088 346.814 439.281
1617 0 107.573 12.4845 1343 109.086 346.512 436.399
1618 1 59.2646 13.0938 776 105.365 346.637 461.028
1619 0 59.1988 11.6556 690 108.23 348.252 460.172
1620 0 62.2605 12.4477 775 106.117 350.689 457.87
1621 0 65.3362 14.5708 952 102.856 350.776 454.549
1622 0 66.241 13.3301 883 105.231 352.012 452.684
1623 0 71.1744 15.0897 1074 101.683 352.277 452.441
1624 0 73.2694 15.832 1160 100.684 353.679 451.986
1625 0 74.2941 11.3872 846 106.482 353.729 447.188
1626 0 76.3242 13.9012 1061 104.812 354.29 446.553
1627 0 80.3612 13.514 1086 105.473 354.35 444.352
1628 0 84.3823 14.2684 1204 104.487 355.233 442.856
1629 0 85.3619 13.3198 1137 105.938 355.551 444.037
1630 0 86.3819 15.0495 1300 118.422 356.392 441.955
1631 0 90.333 13.7159 1239 106.387 355.966 444.22
1632 0 95.1721 13.9221 1325 105.112 356.492 445.073
1633 1 51.0737 14.2147 726 101.818 356.857 471.55
1634 0 49.1024 13.2988 653 104.447 357.348 469.34
1635 0 50.0502 10.2297 512 109.225 357.451 469.473
1636 0 52.0669 10.5057 547 109.093 357.956 471.042
1637 0 53.1689 15.4226 820 102.618 356.404 474.511
1638 0 55.0406 13.1721 725 105.138 356.156 474.549
1639 0 57.1379 13.6687 781 104.98 355.342 472.608
1640 0 59.1433 12.9854 768 105.941 354.792 472.172
1641 0 62.1439 16.317 1014 101.418 355.151 471.654
1642 0 63.0849 12.6179 796 106.519 353.492 469.755
1643 0 66.1367 14.3037 946 104.81 352.9 465.913
1644 0 68.0946 15.082 1027 104.384 352.449 466.798
1645 0 69.1424 13.2046 913 106.461 351.658 469.895
1646 0 71.1633 13.5463 964 106.654 351.205 465.577
1647 0 75.3153 13.875 1045 105.61 349.879 465.753
1648 0 77.2861 15.1903 1174 103.798 349.468 460.039
1649 0 79.1543 12.8357 1016 107.871 350.083 459.344
1650 0 82.3249 14.212 1170 104.765 348.685 460.897
1651 0 86.3505 15.7382 1359 103.235 348.512 455.832
1652 0 86.2944 12.1213 1046 108.645 348.609 457.795
1653 1 47.2563 10.9827 519 111.775 349.039 470.008
1654 0 52.2562 12.5535 656 107.581 347.759 471.072
1655 0 51.7079 13.1508 680 108.329 347.263 463.097
1656 0 53.5151 12.333 660 102.527 347.694 461.497
1657 0 56.2772 13.2558 746 96.7198 347.438 460.096
1658 0 57.0661 14.2466 813 99.4526 347.116 466.93
1659 0 58.0655 13.9842 812 100.967 349.406 461.871
1660 0 60.2056 12.5238 754 102.196 349.565 459.792
1661 0 64.1715 13.1211 842 100.667 349.466 457.634
1662 0 66.2575 11.9534 792 102.417 350.283 454.571
1663 0 70.3205 13.1398 924 100.17 351.105 454.028
1664 0 70.1631 8.70829 611 107.527 351.759 456.606
1665 0 73.2985 14.2568 1045 101.078 353.02 453.134
1666 0 74.2851 13.3405 991 103.319 352.814 452.274
1667 0 77.4059 13.3194 1031 104.004 353.231 448.592
1668 0 79.2488 13.0601 1035 105.833 353.789 446.419
1669 0 82.212 11.8109 971 107.674 355.027 448.308
1670 0 84.1399 11.6235 978 107.959 354.96 450.832
1671 0 90.4068 14.1472 1279 103.926 355.23 448.873
1672 0 88.1958 11.792 1040 109.51 355.73 448.482
1673 0 91.597 13.079 1198 114.333 356.803 449.79
1674 0 94.5614 13.4516 1272 113.529 356.671 447.421
1675 0 98.4036 13.9223 1370 113.619 356.932 444.2
1676 0 102.376 13.216 1353 115.112 357.237 445.503
1677 0 103.456 14.2573 1475 113.974 357.137 441.23
1678 0 108.303 16.3892 1775 109.623 357.562 447.175
1679 0 110.476 13.1612 1454 116.683 357.37 438.861
1680 0 115.341 13.3604 1541 110.267 356.322 443.158
1681 0 119.579 12.3015 1471 112.059 355.678 446.196
1682 0 121.27 10.555 1280 113.798 354.029 445.225
1683 1 66.1516 11.7004 774 111.86 351.492 469.298
1684 0 69.1888 13.2391 916 111.022 351.997 467.085
1685 0 71.3317 12.9255 922 115.588 350.688 466.642
1686 0 73.0826 12.5611 918 115.728 349.529 465.002
1687 0 76.0881 13.3924 1019 114.722 348.41 463.052
1688 0 77.0712 11.7164 903 118.117 348.277 461.838
1689 0 81.146 12.6562 1027 115.771 346.803 461.112
1690 0 83.1587 12.903 1073 115.88 347.961 462.354
1691 0 87.1988 14.1516 1234 113.365 347.807 452.846
1692 0 90.0726 12.8563 1158 115.004 346.865 457.313
1693 0 91.2555 11.6157 1060 118.103 346.542 453.998
1694 1 48.1623 11.2536 542 115.103 345.046 474.675
1695 0 50.1962 10.8175 543 115.731 345.645 473.906
1696 0 52.0782 12.6156 657 108.122 345.426 473.003
1697 0 52.2044 12.1446 634 109.26 345.577 470.782
1698 0 55.0672 12.8207 706 110.547 344.174 467.299
1699 0 58.0967 17.6602 1026 102.028 344.995 465.4
1700 0 59.1027 14.5002 857 107.226 346.016 467.088
1701 0 61.1046 13.8451 846 109.525 345.807 464.53
1702 0 62.1484 17.957 1116 103.246 346.657 460.583
1703 0 64.1665 16.1299 1035 106.242 347.187 461.903
1704 0 66.1263 12.8996 853 112.124 346.994 457.674
1705 0 65.1084 12.9784 845 109.918 349.25 461.279
1706 0 70.1871 12.4097 871 109.069 348.959 458.13
1707 0 70.2338 10.4366 733 112.955 349.89 453.442
1708 0 72.0999 12.7185 917 108.751 350.196 452.14
1709 0 77.3373 14.0295 1085 105.476 351.01 448.308
1710 0 78.1078 11.5865 905 109.393 351.171 447.722
1711 0 83.1712 12.7448 1060 106.775 351.786 450.327
1712 1 41.2129 10.0454 414 111.256 352.063 468.517
1713 0 44.1348 9.65225 426 111.378 351.533 465.261
1714 0 46.0416 11.7937 543 106.116 352.457 469.899
1715 0 48.1449 10.1984 491 109.53 352.232 469.348
1716 0 48.221 12.422 599 106.427 353.165 465.371
1717 0 51.196 14.298 732 102.653 353.597 465.878
1718 0 50.1308 10.5125 527 109.598 354.047 466.33
1719 0 55.418 11.693 648 106.46 354.239 467.279
1720 0 54.2151 13.2066 716 105.559 353.536 464.349
1721 0 55.2784 10.4562 578 109.583 352.865 467.607
1722 0 57.202 11.5555 661 107.896 353.121 464.337
1723 0 59.1918 13.8026 817 104.973 353.49 466.368
1724 0 61.2195 13.0841 801 105.584 352.65 463.008
1725 0 64.1234 12.32 790 107.043 352.476 465.072
1726 0 65.152 15.3641 1001 102.837 353.018 466.105
1727 0 64.2022 10.9342 702 110.286 351.869 468.148
1728 0 69.1601 12.5217 866 107.998 351.206 462.848
1729 0 70.2285 11.8328 831 109.446 351.754 462.353
1730 0 73.2784 14.52 1064 105.031 349.751 464.211
1731 0 76.3431 14.3824 1098 103.983 350.093 462.185
1732 0 77.284 14.6861 1135 104.162 349.562 464.024
1733 0 81.5597 14.2718 1164 104.29 348.817 459.189
1734 0 82.294 12.6984 1045 106.883 348.498 461.981
1735 0 82.294 12.7348 1048 120.715 348.498 462.156
1736 0 88.1604 14.4623 1275 101.749 347.986 460.956
1737 0 93.1774 14.0807 1312 102.739 347.678 454.342
1738 0 93.4824 14.2594 1333 102.9 347.906 451.039
1739 1 47.2406 12.4681 589 103.031 347.428 472.319
1740 0 50.2595 10.983 552 104.741 348.054 466.641
1741 0 50.3085 14.6496 737 100.974 346.978 465.834
1742 0 49.4098 10.4837 518 107.917 347.817 464.266
1743 0 49.247 8.32538 410 110.834 348.354 462.373
1744 0 54.3128 11.0103 598 106.087 348.161 462.134
1745 0 59.239 14.9057 883 106.239 347.386 464.625
1746 0 59.4447 13.1214 780 109.651 347.855 463.108
1747 0 60.4531 13.5642 820 110.85 347.795 457.082
1748 0 62.5144 11.7893 737 112.429 348.919 459.57
1749 0 64.4201 13.0704 842 110.803 349.759 457.116
1750 0 64.4201 12.9463 834 138.241 350.74 457.055
1751 0 65.6681 12.35 811 113.009 350.801 453.781
1752 0 70.5299 15.7805 1113 107.078 351.797 451.165
1753 0 74.4569 14.4647 1077 108.734 352.238 451.978
1754 0 75.3624 15.8832 1197 106.807 353.13 450.543
1755 0 74.5238 13.8479 1032 111.292 354.011 448.991
1756 0 79.3104 12.6843 1006 110.494 354.033 452.047
1757 0 82.3525 14.3651 1183 108.525 354.981 449.356
1758 0 84.2136 12.9195 1088 110.383 354.426 450.896
1759 0 90.466 16.2492 1470 104.14 356.718 447.929
1760 0 91.2587 14.7054 1342 103.791 357.742 445.964
1761 0 99.6843 18.7693 1871 97.2555 358.458 437.357
1762 0 102.373 19.8001 2027 96.4139 357.016 440.357
1763 1 51.2124 14.3715 736 99.9456 359.144 467.758
1764 0 54.4674 13.1271 715 100.727 358.235 468.165
1765 0 56.3633 17.192 969 96.4984 356.901 466.264
1766 0 58.2551 14.9686 872 99.5103 357.303 468.087
1767 0 58.2656 12.443 725 103.956 356.617 470.498
1768 0 61.5549 13.3864 824 102.165 356.535 468.653
1769 0 65.3308 14.9853 979 98.6599 355.305 469.304
1770 0 64.225 13.6396 876 101.06 354.932 468.188
1771 0 65.2912 11.8239 772 104.385 354.503 462.722
1772 0 70.3554 17.0705 1201 95.8226 352.878 469.525
1773 0 73.3678 13.6572 1002 100.417 352.635 464.816
1774 0 75.4618 16.6044 1253 96.9489 350.885 459.17
1775 0 77.3178 10.6961 827 104.393 350.056 461.276
1776 1 41.109 10.4113 428 101.217 349.822 466.224
1777 0 43.1031 9.81368 423 103.208 350.262 473.395
1778 0 42.4445 10.178 432 100.859 349.627 474.806
1779 0 43.1671 12.4864 539 99.4267 349.334 471.794
1780 0 45.1361 10.3686 468 103.156 349.299 469.942
1781 0 47.1511 11.092 523 104.08 348.977 473.436
1782 0 50.0558 17.001 851 95.1516 349.08 469.636
1783 0 47.0224 10.7821 507 104.152 348.233 472.961
1784 0 55.1041 14.7539 813 94.7602 347.583 465.336
1785 0 51.0832 16.0131 818 96.8288 348.902 468.171
1786 0 54.1369 14.3155 775 96.8826 348.64 470.037
1787 0 56.1418 15.1224 849 96.258 348.061 464.172
1788 0 58.0861 15.3049 889 95.8178 349.251 463.95
1789 0 58.0296 14.3892 835 97.6275 349.295 462.509
1790 0 61.1125 17.3123 1058 94.5038 348.646 460.793
1791 0 62.2383 16.1958 1008 95.9087 350.058 458.731
1792 0 66.242 13.5715 899 98.198 351.076 456.561
1793 0 67.354 12.4714 840 100.083 351.529 453.1
1794 0 68.4023 16.403 1122 95.8271 352.117 450.713
1795 0 71.4572 13.6305 974 99.346 352.061 448.753
1796 0 73.2342 14.0508 1029 98.828 353.022 451.756
1797 0 74.413 15.7768 1174 97.2947 353.704 448.49
1798 0 77.2823 19.7717 1528 92.7166 353.844 448.421
1799 0 83.2585 14.2688 1188 98.8939 354.421 450.724
1800 0 84.3846 12.0164 1014 102.661 355.204 446.18
1801 0 84.3982 11.5879 978 103.384 354.328 445.858
1802 0 88.5063 14.4622 1280 99.3742 355.457 448.8
1803 0 88.2027 13.4463 1186 101.97 355.648 449.361
1804 0 95.2257 13.5888 1294 102.905 355.88 450.124
1805 1 52.1926 10.672 557 103.07 355.609 469.28
1806 0 53.0535 13.0623 693 98.57 355.361 473.292
1807 0 55.0605 11.9142 656 99.9619 355.61 473.593
1808 0 58.2221 13.4828 785 98.2548 354.851 462.98
1809 0 61.3905 21.9904 1350 87.7385 353.921 469.406
1810 0 62.2797 14.9166 929 96.042 356.086 469.667
1811 0 62.3191 14.859 926 96.0626 353.934 467.052
1812 0 68.1857 13.5072 921 96.8491 355.55 466.868
1813 0 70.1473 14.384 1009 95.8583 354.793 466.329
1814 0 70.3172 10.993 773 100.171 354.01 465.665
1815 0 74.2909 14.6451 1088 95.4724 353.28 463.102
1816 0 79.4195 16.394 1302 93.0607 351.781 463.394
1817 0 79.2948 13.2796 1053 97.3552 350.805 463.101
1818 0 82.2049 11.9093 979 98.6302 350.938 463.431
1819 0 86.4607 12.3293 1066 98.8724 350.145 458.875
1820 0 89.3603 16.965 1516 93.5336 349.013 456.486
1821 0 93.2846 13.7 1278 97.6362 348.925 452.804
1822 0 96.1713 12.4257 1195 99.0109 348.849 454.977
1823 1 50.088 11.1803 560 102.839 349.523 471.227
1824 0 54.1008 11.3677 615 101.48 349.515 472.616
1825 0 54.1672 12.1291 657 96.3364 347.266 458.432
1826 0 52.0428 8.66595 451 101.843 346.228 457.439
1827 0 56.2545 12.2657 690 96.6319 346.601 462.949
1828 0 60.1459 13.6834 823 94.407 347.135 462.966
1829 0 58.1404 12.659 736 97.3546 347.497 458.746
1830 0 60.2014 10.1659 612 100.887 347.712 456.845
1831 0 60.2568 10.8038 651 100.859 348.518 454.28
1832 0 63.1943 11.3143 715 99.5944 348.694 454.348
1833 0 68.1711 14.1409 964 95.5986 348.648 453.821
1834 0 68.1616 15.0378 1025 96.5356 349.042 450.903
1835 0 72.2025 14.7225 1063 95.7281 349.75 453.575
1836 0 71.1877 10.395 740 103.764 349.373 443.327
1837 0 74.1992 13.4503 998 99.7786 351.158 446.926
1838 0 78.3567 13.0684 1024 101.393 351.673 441.077
1839 0 80.3088 12.6263 1014 102.71 352.495 442.145
1840 0 82.2805 14.9367 1229 101.607 351.448 439.949
1841 0 85.3424 18.7246 1598 96.938 352.235 441.066
1842 0 88.2622 12.2136 1078 107.344 352.514 437.216
1843 0 92.1862 13.8524 1277 105.682 353.262 438.459
1844 1 49.3992 13.9273 688 107.721 355.435 458.262
1845 0 54.2505 14.7648 801 102.895 356.538 464.486
1846 0 53.2483 14.6484 780 129.249 357.533 464.08
1847 0 55.3169 13.0882 724 106.036 356.128 466.001
1848 0 58.2784 14.0189 817 103.27 355.163 466.982
1849 0 59.7291 13.2766 793 106.387 356.313 466.393
1850 0 63.6779 12.5789 801 106.317 355.375 468.71
1851 0 63.3913 13.1721 835 107.248 356.334 465.287
1852 0 65.5689 13.6955 898 107.549 355.004 465.267
1853 0 66.5553 12.2004 812 109.381 353.539 465.16
1854 0 71.3678 14.9227 1065 105.642 353.622 457.579
1855 0 75.4609 15.7565 1189 103.171 353.971 457.471
1856 0 78.8443 14.0023 1104 106.547 353.87 458.492
1857 0 80.0261 13.3706 1070 108.573 353.635 456.996
1858 0 82.8144 11.9786 992 109.012 352.677 459.445
1859 0 83.8454 9.88725 829 112.423 351.758 455.908
1860 1 47.551 14.679 698 102.45 350.404 470.033
1861 0 50.5225 10.8862 550 108.398 350.24 474.471
1862 0 50.7761 10.4774 532 108.776 349.442 474.63
1863 0 50.4061 10.6336 536 109.97 348.235 473.218
1864 0 54.6308 13.2709 725 105.655 348.252 470.912
1865 0 54.6632 15.0558 823 104.516 348.22 466.684
1866 0 55.5426 12.0268 668 111.254 348.175 465.371
1867 0 58.794 15.6138 918 104.196 346.291 466.013
1868 0 62.0665 15.0162 932 104.509 346.337 464.153
1869 0 60.7821 13.5402 823 108.225 346.645 461.583
1870 0 64.1521 14.8085 950 104.812 345.941 462.369
1871 0 64.2553 12.3258 792 107.183 346.134 461.578
1872 0 66.5749 14.495 965 103.896 346.692 458.595
1873 0 68.3428 11.6472 796 106.799 346.848 463.529
1874 0 71.6807 15.862 1137 102.002 346.094 456.367
1875 0 72.2236 10.7167 774 110.222 347.08 457.18
1876 0 73.5796 11.2259 826 110.669 347.714 448.849
1877 0 78.5402 15.0751 1184 105.332 347.07 445.446
1878 0 81.7574 17.503 1431 99.4312 347.309 452.096
1879 0 83.0668 11.2199 932 110.969 348.777 444.321
1880 1 50.9231 12.9018 657 103.543 348.463 462.151
1881 0 49.8517 13.1189 654 103.676 350.168 461.133
1882 0 47.7011 11.4882 548 103.748 349.796 464.206
1883 0 50.3183 11.0497 556 105.57 350.496 459.932
1884 0 52.4256 11.9407 626 105.005 351.925 458.123
1885 0 54.5262 13.4798 735 103.136 351.922 463.222
1886 0 52.331 10.4145 545 108.639 352.149 458.516
1887 0 54.1315 9.88334 535 109.381 352.512 462.421
1888 0 60.4206 12.3633 747 104.375 354.012 458.893
1889 0 61.3813 12.0232 738 104.939 354.634 458.024
1890 0 62.2631 9.50804 592 108.49 354.623 461.446
1891 0 64.4779 12.6245 814 105.742 353.467 458.088
1892 0 68.2061 10.3656 707 108.03 356.074 463.154
1893 0 69.2009 11.9363 826 107.241 355.611 458.644
1894 0 73.2149 10.3941 761 109.134 356.314 463.188
1895 0 75.2058 11.4885 864 109.366 355.336 458.447
1896 0 77.2206 12.2636 947 108.921 355.721 458.56
1897 0 80.1458 11.0299 884 111.632 354.587 456.877
1898 0 82.567 12.3899 1023 108.694 355.402 458.133
1899 0 86.2379 13.486 1163 106.976 355.048 458.761
1900 0 90.5244 13.5544 1227 107.511 354.227 457.69
1901 0 94.1179 14.6518 1379 107.399 353.786 456.732
1902 0 96.1757 13.1738 1267 110.466 351.493 455.28
1903 0 99.4222 14.9162 1483 108.496 351.351 449.954
1904 0 102.337 12.6543 1295 112.568 350.101 448.879
1905 1 58.2366 14.4239 840 100.963 351.037 475.535
1906 0 58.0672 13.7427 798 104.566 350.741 474.432
1907 0 64.0675 14.2038 910 104.558 349.253 472.624
1908 0 62.2046 13.5199 841 105.901 348.891 468.754
1909 0 64.226 11.6775 750 108.033 348.949 468.076
1910 0 66.2673 17.2483 1143 101.115 347.387 462.074
1911 0 67.2174 13.6126 915 106.358 348.019 464.844
1912 0 70.4632 14.0215 988 105.342 347.866 464.379
1913 0 73.3097 12.6995 931 107.676 347.924 462.396
1914 0 73.2466 12.7241 932 108.885 347.534 454.923
1915 0 75.2441 13.3964 1008 107.375 347.935 456.226
1916 0 77.3202 11.2778 872 110.052 348.123 456.589
1917 0 80.458 12.6029 1014 107.652 348.521 455.464
1918 0 83.1799 13.2965 1106 107.067 348.611 450.487
1919 0 84.2862 14.5575 1227 105.508 349.662 447.709
1920 0 89.1854 13.029 1162 107.139 350.715 449.238
1921 0 89.1793 11.9534 1066 108.354 350.048 445.727
1922 0 94.3377 11.6178 1096 108.585 350.812 444.526
1923 0 97.1416 12.631 1227 107.098 350.218 443.87
1924 1 58.1784 15.0743 877 99.7161 350.266 462.932
1925 0 58.3537 13.6581 797 102.91 352.335 457.028
1926 0 59.0506 12.5824 743 105.592 353.132 459.678
1927 1 110.426 17.505 1933 104.872 353.349 434.638
1928 0 113.297 15.1902 1721 107.853 353.697 435.693
1929 0 116.393 12.0969 1408 112.156 354.117 435.391
1930 0 119.454 12.4734 1490 112.117 354.458 429.303
1931 0 121.355 11.1903 1358 113.746 354.546 431.932
1932 1 71.1568 12.2827 874 108.01 355.955 457.392
1933 0 70.1083 9.94177 697 110.522 357.598 457.722
1934 0 75.0903 13.6103 1022 105.543 356.001 455.614
1935 0 79.1246 14.8753 1177 102.711 356.993 453.658
1936 0 82.078 14.0354 1152 103.722 356.719 456.219
1937 0 84.1824 13.3995 1128 104.512 356.967 455.774
1938 0 87.1795 12.6865 1106 105.027 355.859 455.166
1939 0 91.1655 14.2269 1297 102.143 355.68 451.355
1940 0 93.3203 13.384 1249 103.617 356.144 455.169
1941 0 99.3081 14.0774 1398 101.781 354.834 457.64
1942 0 105.35 18.4337 1942 96.9706 354.081 443.453
1943 1 261.58 6.86597 1796 113.74 352.998 400.733
1944 1 184.755 13.2229 2443 100.37 351.525 426.884
1945 1 59.1348 13.224 782 99.4182 352.421 445.944
1946 0 57.1313 10.9222 624 103.296 351.587 453.66
1947 0 61.1707 14.0427 859 98.8452 351.281 447.226
1948 0 59.1746 12.0829 715 102.621 350.193 442.916
1949 0 63.327 16.0595 1017 97.0777 348.814 440.315
1950 0 63.2471 10.04 635 106.266 348.148 441.351
1951 0 66.2015 11.752 778 104.216 347.287 444.612
1952 0 69.3024 13.8379 959 100.93 347.537 456.144
1953 0 69.2799 16.1086 1116 97.5708 346.834 457.462
1954 0 73.3287 12.519 918 102.576 347.986 451.796
1955 0 74.2217 10.6573 791 104.953 347.446 449.98
1956 0 76.3108 11.7546 897 104.289 347.961 449.18
1957 0 79.4006 13.7027 1088 102.026 347.312 448.067
1958 0 79.3952 16.5123 1311 99.6461 346.325 447.735
1959 0 81.279 13.0538 1061 104.156 347.42 444.092
1960 0 85.3036 14.8528 1267 100.901 346.899 445.054
1961 0 87.1207 13.7166 1195 102.471 348.368 447.781
1962 0 92.0994 14.0718 1296 101.765 347.651 444.07
1963 0 93.3095 13.0533 1218 104.358 348.804 439.841
1964 0 97.198 11.42 1110 106.339 349.391 439.959
1965 1 49.1572 10.3952 511 107 349.614 462.826
1966 0 53.3565 12.8757 687 105.748 349.284 457.763
1967 0 54.1997 12.3063 667 103.739 352.622 457.252
1968 0 58.248 14.9876 873 99.8683 353.468 454.792
1969 0 59.4507 16.1142 958 98.4572 352.647 457.599
1970 0 61.5188 12.6791 780 103.387 353.572 456.144
1971 0 61.4934 15.1398 931 100.744 354.353 458.729
1972 0 64.6204 11.3122 731 105.629 353.843 459.242
1973 0 63.4657 10.9035 692 106.945 354.782 456.123
1974 0 69.5295 18.7403 1303 95.7813 354.157 451.766
1975 0 70.1208 10.8812 763 105.237 354.202 455.767
1976 0 72.1545 16.1598 1166 98.5069 354.563 454.776
1977 0 75.2283 13.1599 990 101.757 355.162 459.216
1978 0 78.1022 13.7128 1071 101.385 354.879 455.263
1979 0 80.1815 16.5375 1326 99.0822 355.118 454.675
1980 0 84.1634 15.1491 1275 100.907 354.328 455.751
1981 0 89.5983 14.3306 1284 101.144 353.578 453.977
1982 0 89.9787 19.9158 1792 95.8605 352.955 443.749
1983 0 95.8574 16.0342 1537 100.444 352.742 443.332
1984 0 98.0031 16.3464 1602 101.262 352.25 447.574
1985 0 98.3027 12.0139 1181 108.963 351.957 453.489
1986 0 104.578 14.8502 1553 105.522 349.556 445.129
1987 1 59.27 12.2996 729 103.351 349.811 472.233
1988 0 62.184 14.1194 878 101.842 350.043 469.737
1989 0 64.3257 9.79391 630 109.86 350.181 472.124
1990 0 66.4222 12.6163 838 104.588 348.243 468
1991 0 70.1754 13.5945 954 102.826 349.327 466.604
1992 0 71.2148 13.3821 953 103.738 348.932 463.449
1993 0 72.5884 11.5032 835 106.177 347.995 463.423
1994 0 75.7968 12.4939 947 106.309 347.548 459.192
1995 0 76.7369 11.3765 873 106.944 347.699 460.289
1996 0 78.6505 13.5028 1062 104.916 346.84 451.358
1997 0 80.9696 10.7942 874 107.415 347.392 454.557
1998 0 83.603 10.9207 913 107.447 346.087 446.54
1999 1 49.7598 9.80711 488 104.096 344.619 467.77
2000 0 50.4444 11.5771 584 102.584 344.194 466.661
2001 0 49.2933 7.68867 379 108.836 345.38 464.074
2002 0 53.5294 11.1714 598 104.661 344.681 461.273
2003 0 53.6438 10.4206 559 105.875 345.402 461.916
2004 0 56.434 12.0317 679 103.514 346.094 459.508
2005 0 57.4077 12.7335 731 104.594 346.382 456.198
2006 0 58.495 13.6422 798 103.404 347.353 454.914
2007 0 61.1058 11.701 715 104.912 349.836 460.957
2008 0 61.1641 12.2784 751 106.008 350.321 457.664
2009 0 59.1141 8.66121 512 113.383 351.772 454.613
2010 0 64.2499 9.24514 594 109.88 351.603 456.456
2011 0 66.2249 12.3518 818 106.628 352.973 451.576
2012 0 71.14 13.4664 958 104.211 352.88 453.052
2013 0 75.1391 15.0787 1133 101.678 355.11 451.966
2014 0 74.0598 13.6241 1009 104.851 354.786 448.064
2015 0 72.0678 9.92121 715 111.513 355.071 444.793
2016 0 80.2727 14.5628 1169 102.244 355.267 450.09
2017 0 84.3574 13.099 1105 103.591 356.48 450.567
2018 0 83.272 11.0121 917 109.543 356.592 443.941
2019 0 88.098 12.611 1111 106.917 356.472 443.238
2020 0 91.0971 19.7811 1802 97.7497 356.544 438.82
2021 0 94.2196 18.0217 1698 99.7521 356.164 444.832
2022 0 96.2372 10.1104 973 110.821 357.222 445.756
2023 0 100.169 16.1128 1614 101.293 355.994 452.864
2024 0 101.423 10.7964 1095 107.338 353.747 446.255
2025 0 110.472 14.8544 1641 101.124 352.945 446.436
2026 0 108.453 10.788 1170 110.053 351.992 441.706
2027 0 115.465 14.5325 1678 104.235 351.907 443.217
2028 0 118.718 13.5026 1603 107.135 351.548 442.585
2029 1 69.4134 14.4353 1002 100 349.598 461.87
2030 0 70.1109 14.0492 985 98.6822 349.563 462.069
2031 0 71.4588 13.1684 941 99.4623 347.847 462.891
2032 0 71.2635 10.0753 718 104.227 348.283 460.178
2033 0 76.1883 13.5848 1035 98.1942 347.736 460.693
2034 0 75.4633 9.56756 722 104.715 346.698 455.42
2035 0 79.3397 12.4276 986 96.8813 347.252 457.149
2036 0 82.397 10.9349 901 100.407 347.139 453.807
2037 0 86.3506 16.2477 1403 94.9715 346.643 447.788
2038 0 86.2448 12.1515 1048 99.3874 345.933 453.534
2039 0 85.6234 12.228 1047 99.9904 345.238 450.307
2040 0 88.5333 12.052 1067 101.209 346.429 445.678
2041 0 94.3366 12.784 1206 101.512 345.57 442.772
2042 0 92.2641 9.41861 869 109.85 346.334 432.932
2043 0 97.4526 15.0022 1462 101.355 345.923 438.701
2044 0 97.1944 8.96142 871 112.481 346.824 427.323
2045 1 49.1836 6.0386 297 110.862 344.96 452.768
2046 0 59.2623 11.4069 676 103.584 345.488 454.58
2047 0 56.1733 9.88014 555 106.827 346.099 452.018
2048 0 59.1391 10.7881 638 103.284 346.677 453.53
2049 0 61.4192 10.0457 617 105.342 348.378 450.673
2050 0 63.2672 11.5226 729 103.021 349.968 448.077
2051 0 66.2821 10.4402 692 109.254 350.85 448.558
2052 0 66.2664 9.05436 600 111.608 352.037 445.793
2053 0 69.4214 10.6883 742 109.934 351.954 445.562
2054 0 69.3374 13.0233 903 105.545 353.238 448.539
2055 0 73.3825 13.6817 1004 105.633 352.269 445.786
2056 0 76.6367 15.5931 1195 101.907 353.609 447.859
2057 0 77.3641 9.94001 769 110.966 353.554 445.09
2058 0 80.6504 12.2752 990 108.353 353.586 442.963
2059 0 84.3485 12.7922 1079 107.378 354.488 445.746
2060 0 86.2969 15.4119 1330 102.718 353.577 449.869
2061 0 89.4219 11.7533 1051 110.161 354.399 446.561
2062 0 92.6154 12.2658 1136 110.451 354.925 442.739
2063 0 93.358 11.6648 1089 110.875 354.975 446.99
2064 0 99.5201 15.414 1534 106.291 354.272 443.765
2065 0 100.59 11.6612 1173 111.986 353.433 443.206
2066 0 104.449 12.8962 1347 110.764 351.912 443.973
2067 0 106.794 13.2592 1416 111.281 353.18 440.508
2068 1 57.4718 9.8831 568 108.762 352.889 468.648
2069 0 59.378 14.6182 868 103.37 353.085 468.003
2070 0 68.8451 16.8204 1158 101.236 352.338 467.535
2071 0 66.3946 13.6005 903 107.334 352.456 464.324
2072 0 66.5672 12.1381 808 109.808 351.559 464.352
2073 0 68.3215 14.3879 983 105.919 349.546 466.065
2074 0 73.6844 16.4214 1210 101.525 349.401 462.658
2075 0 74.5004 13.5301 1008 104.868 347.913 465.424
2076 0 76.6724 11.8296 907 108.26 348.624 459.165
2077 0 78.418 13.6193 1068 106.456 348.309 456.022
2078 0 82.8573 14.2172 1178 104.612 348.013 456.098
2079 0 83.5241 12.667 1058 106.577 347.35 451.707
2080 0 85.7024 12.5434 1075 107.978 346.958 453.39
2081 0 88.4189 13.9337 1232 105.647 346.019 446.12
2082 0 92.4321 22.4705 2077 94.027 345.312 451.838
2083 0 94.5371 13.8993 1314 105.614 345.636 445.445
2084 0 92.5919 10.6273 984 111.028 346.359 442.188
2085 0 98.4088 14.3788 1415 105.652 346.111 440.929
2086 0 99.6011 16.4657 1640 103.161 345.301 442.687
2087 0 99.6023 16.4354 1637 119.552 344.328 442.692
2088 0 106.68 14.6232 1560 106.815 346.462 433.212
2089 0 110.071 11.5653 1273 111.141 347.251 433.801
2090 0 111.853 14.7337 1648 106.016 346.97 436.192
2091 0 112.777 12.8395 1448 113.95 347.979 421.717
2092 1 69.5687 11.0251 767 111.162 349.055 449.37
2093 0 69.6793 12.127 845 104.135 348.396 449.809
2094 0 73.6677 13.7781 1015 101.639 349.026 448.244
2095 0 75.2018 13.4837 1014 105.383 347.957 445.621
2096 0 78.3236 15.1295 1185 102.552 349.677 444.405
2097 0 80.2714 12.4826 1002 106.134 350.031 448.13
2098 0 82.1663 11.7688 967 107.785 350.709 441.868
2099 0 86.1848 17.7177 1527 98.3314 350.763 446.788
2100 0 87.1792 12.2048 1064 107.456 352.185 442.268
2101 0 88.112 12.4614 1098 107.309 351.757 442.069
2102 0 94.2864 15.3893 1451 102.899 354.522 445.509
2103 0 97.2915 13.9375 1356 105.117 354.71 443.111
2104 0 100.235 14.0171 1405 105.417 354.991 440.876
2105 0 103.602 12.4804 1293 108.381 355.184 440.876
2106 0 106.338 13.0809 1391 107.248 355.113 445.093
2107 1 62.1643 12.3061 765 105.247 354.642 468.761
2108 0 65.0519 13.5738 883 106.588 352.983 464.062
2109 0 67.0898 15.129 1015 105.165 352.175 464.507
2110 0 70.2018 15.8543 1113 104.271 355.93 464.907
2111 0 74.1924 12.5889 934 109.384 355.457 467.919
2112 0 72.0741 14.4573 1042 108.611 354.27 468.626
2113 0 74.0843 12.7827 947 111.248 353.852 466.138
2114 0 77.1818 12.0495 930 112.46 353.683 464.108
2115 0 81.3387 12.073 982 112.996 352.241 460.571
2116 0 83.3116 12.5793 1048 113.034 351.569 456.847
2117 0 85.4611 13.3511 1141 112.181 350.798 454.347
2118 0 89.2625 12.312 1099 113.62 350.104 453.83
2119 0 89.2625 12.3008 1098 149.535 349.103 453.957
2120 0 93.3168 18.9784 1771 103.413 347.439 451.137
2121 0 97.3594 13.938 1357 111.269 347.605 448.696
2122 0 99.236 13.7349 1363 109.701 348.054 448.117
2123 0 102.377 12.161 1245 113.05 347.73 443.247
2124 0 106.349 14.9225 1587 108.33 348.228 443.219
2125 0 107.262 13.9844 1500 109.752 347.705 444.831
2126 0 109.186 11.6133 1268 112.931 347.476 446.195
2127 0 116.447 16.3164 1900 107.583 347.548 436.857
2128 0 117.632 12.165 1431 112.88 345.96 436.029
2129 0 122.682 12.3734 1518 112.341 346.5 432.526
2130 0 126.72 17.7084 2244 105.162 346.283 423.38
2131 0 128.603 15.8939 2044 107.794 346.651 429.684
2132 0 130.582 14.8489 1939 110.917 347.743 424.872
2133 0 132.48 13.1416 1741 114.461 348.338 420.149
2134 0 138.474 16.5446 2291 109.014 348.698 411.732
2135 0 143.702 14.5996 2098 111.327 348.657 413.796
2136 0 146.755 13.2398 1943 114.542 348.565 409.876
2137 0 151.539 15.5076 2350 108.503 348.733 416.397
2138 1 78.2522 11.0284 863 107.194 348.826 448.497
2139 0 80.2495 9.96891 800 109.871 348.98 447.296
2140 0 85.1915 14.7667 1258 104.654 349.637 443.526
2141 0 87.1959 13.0167 1135 107.998 350.332 442.925
2142 0 87.1407 11.8314 1031 111.029 349.774 441.155
2143 0 91.4578 14.5204 1328 106.049 350.657 441.879
2144 0 94.2346 12.2885 1158 111.173 351.868 439.389
2145 0 98.2585 15.2353 1497 106.367 351.864 439.682
2146 0 98.2694 14.7655 1451 107.9 352.915 438.173
2147 0 101.457 12.2713 1245 112.173 350.713 440.008
2148 0 104.354 14.3263 1495 109.71 352.027 436.346
2149 0 107.494 13.8426 1488 110.468 352.731 437.186
2150 0 110.351 12.4964 1379 112.781 353.108 431.245
2151 1 52.2164 9.32656 487 103.979 353.626 463.485
2152 0 55.2284 13.58 750 96.5813 352.495 468.391
2153 0 56.4831 10.5872 598 107.371 353.38 465.604
2154 0 56.2106 9.25093 520 105.719 352.379 465.523
2155 0 61.0604 12.3484 754 100.922 351.972 470.369
2156 0 60.1711 11.1515 671 105.982 353.45 470.329
2157 0 63.3929 10.1115 641 107.187 352.576 467.977
2158 0 66.3401 11.1999 743 105.132 351.423 470.464
2159 0 64.4389 7.94551 512 111.67 350.932 466.635
2160 0 72.2262 13.3747 966 102.012 349.852 465.729
2161 0 72.2385 10.8945 787 106.324 349.196 464.761
2162 0 77.3359 12.2194 945 104.289 347.877 465.519
2163 0 77.2187 14.2453 1100 102.597 347.299 461.806
2164 0 79.4946 12.0637 959 105.359 347.531 460.709
2165 0 82.1169 13.359 1097 103.727 345.864 461.382
2166 0 79.2943 8.71437 691 112.968 345.065 451.968
2167 0 84.4456 11.3446 958 109.112 344.577 453.706
2168 0 88.4453 13.5338 1197 104.266 344.564 455.157
2169 0 89.1878 9.25014 825 110.724 345.541 453.242
2170 0 91.4429 9.09857 832 109.814 345.155 453.96
2171 0 95.3731 10.7578 1026 109.168 344.977 446.51
2172 1 54.0761 13.1851 713 101.365 344.237 465.247
2173 0 54.3543 8.83095 480 105.81 345.096 466.825
2174 0 58.2441 12.0184 700 102.451 347.861 463.743
2175 0 58.2441 12.0012 699 116.996 349.89 463.609
2176 0 61.1228 12.2867 751 107.534 348.953 461.784
2177 0 62.0609 12.8583 798 106.58 350.272 454.696
2178 0 65.1049 13.9774 910 103.355 350.031 459.226
2179 0 66.1149 13.0076 860 105.147 351.074 454.97
2180 0 68.219 14.8786 1015 102.434 351.412 455.87
2181 0 68.0702 14.1325 962 104.501 352.324 456.081
2182 0 70.0928 14.224 997 104.976 353.318 453.269
2183 0 73.1247 15.6719 1146 103.258 352.984 453.776
2184 0 71.0763 13.9287 990 107.575 354.612 450.956
2185 0 74.1324 13.6917 1015 105.776 354.144 458.785
2186 0 78.1533 15.6232 1221 103.586 354.78 455.35
2187 0 79.1241 13.0554 1033 109.388 354.559 451.359
2188 0 80.295 14.4716 1162 108.171 355.504 448.725
2189 0 82.2826 20.4904 1686 99.8316 355.51 450.949
2190 0 84.2661 16.9819 1431 105.345 356.215 451.593
2191 0 88.2092 12.391 1093 112.586 356.239 450.209
2192 0 92.2455 13.9085 1283 110.387 355.872 448.496
2193 0 93.2502 13.8123 1288 110.516 355.314 448.909
2194 0 96.7279 14.3909 1392 109.769 353.69 445.58
2195 0 99.344 17.1525 1704 100.82 353.491 450.326
2196 0 102.444 14.5348 1489 108.129 353.481 441.707
2197 0 105.375 15.0699 1588 108.681 352.185 438.489
2198 0 112.344 15.8888 1785 107.305 352.942 436.138
2199 0 114.29 13.8507 1583 109.774 352.202 441.742
2200 0 119.4 17.2696 2062 106.253 351.793 433.213
2201 0 123.271 15.2915 1885 109.627 350.074 430.688
2202 0 124.312 13.3857 1664 113.759 349.696 428.695
2203 0 131.529 15.7913 2077 109.323 348.914 431.462
2204 0 135.371 15.0402 2036 111.58 348.348 423.407
2205 0 140.459 15.9762 2244 110.099 347.447 422.293
2206 0 146.412 14.9851 2194 111.5 347.228 416.411
2207 0 151.466 16.4261 2488 109.047 346.978 421.748
2208 0 154.562 12.7327 1968 115.635 347.225 413.713
2209 1 87.2171 11.4656 1000 110.028 346.335 452.573
2210 0 92.3454 12.7889 1181 106.839 346.944 448.205
2211 0 94.3818 11.0297 1041 108.842 347.11 452.926
2212 0 97.3748 12.0873 1177 110.514 346.938 450.044
2213 0 100.254 13.2264 1326 110.449 347.917 445.17
2214 0 104.206 14.6441 1526 107.199 346.829 443.004
2215 0 105.274 13.7735 1450 109.263 347.692 441.572
2216 0 106.317 9.85735 1048 115.701 346.357 437.795
2217 0 111.366 14.4478 1609 109.339 347.463 434.94
2218 0 116.377 17.7097 2061 105.018 347.249 430.263
2219 0 120.399 15.8889 1913 107.422 348.328 427.228
2220 0 122.471 15.4404 1891 107.961 348.922 423.778
2221 0 126.525 13.3255 1686 111.792 349.423 424.148
2222 0 131.589 15.2368 2005 107.658 349.588 428.021
2223 0 134.483 12.4997 1681 113.34 351.535 420.524
2224 0 139.53 13.3591 1864 113.526 351.36 413.104
2225 0 144.95 15.1708 2199 110.234 351.202 416.26
2226 1 84.3565 13.7275 1158 105.162 351.093 450.439
2227 0 84.472 14.49 1224 106.2 350.708 443.592
2228 0 87.4546 12.4064 1085 107.435 352.471 449.739
2229 0 91.4786 18.5617 1698 100.326 352.644 445.402
2230 0 91.1931 10.6039 967 111.821 353.831 448.047
2231 0 96.2659 15.8727 1528 105.556 352.722 444.685
2232 0 101.244 15.1713 1536 107.153 355.133 438.035
2233 0 104.428 12.0274 1256 112.578 355.171 435.466
2234 0 106.426 13.5494 1442 111.282 354.647 433.73
2235 0 108.277 11.0919 1201 116.009 354.674 435.568
2236 0 114.508 14.0427 1608 111.493 354.521 435.688
2237 0 115.439 12.1709 1405 114.123 353.635 439.182
2238 0 120.528 17.3321 2089 107.728 354.796 437.282
2239 0 124.472 14.2763 1777 113.347 354.128 433.671
2240 0 127.461 16.0912 2051 111.447 352.974 433.844
2241 1 72.3213 10.4948 759 113.673 352.519 463.428
2242 0 76.2215 11.7814 898 110.62 352.766 454.251
2243 0 74.3769 9.38463 698 115.414 350.835 459.775
2244 0 80.4872 14.0022 1127 109.65 349.366 458.652
2245 0 80.2732 12.7938 1027 112.772 348.225 457.967
2246 0 82.4127 12.8378 1058 112.206 348.933 458.252
2247 0 86.4245 11.6402 1006 115.558 348.626 453.558
2248 0 90.4577 11.9946 1085 115.769 347.942 451.349
2249 0 93.2271 15.178 1415 110.686 347.163 450.101
2250 0 94.4899 12.4669 1178 117.847 347.705 445.851
2251 0 98.5768 14.3847 1418 114.635 347.144 446.037
2252 0 100.326 13.5559 1360 116.099 346.863 447.168
2253 0 102.27 12.5746 1286 117.892 345.507 442.351
2254 0 102.27 12.4866 1277 142.234 344.517 442.41
2255 0 107.497 14.1306 1519 117.702 346.263 434.992
2256 0 110.438 13.039 1440 119.228 346.319 436.037
2257 0 114.642 15.6662 1796 115.585 346.359 435.65
2258 0 116.535 14.1674 1651 117.461 346.305 437.205
2259 0 118.285 14.0847 1666 119.953 346.239 431.818
2260 0 122.48 14.0431 1720 119.892 347.882 432.073
2261 0 126.234 14.9008 1881 119.251 347.705 422.756
2262 0 130.399 13.8268 1803 122.763 348.54 424.599
2263 0 132.289 14.0223 1855 121.438 348.123 421.075
2264 0 138.278 15.2519 2109 117.457 349.829 424.784
2265 0 142.605 17.5379 2501 113.926 350.906 417.01
2266 0 144.422 13.4744 1946 121.944 351.084 414.417
2267 0 150.421 14.8849 2239 120.177 352.44 411.737
2268 0 155.354 14.4252 2241 123.124 352.424 404.219
2269 1 89.4542 14.2531 1275 121.404 352.349 442.032
2270 0 91.221 16.2572 1483 119.375 353.139 438.755
2271 0 94.2425 18.9087 1782 115.435 353.932 442.345
2272 0 99.1529 16.7922 1665 117.233 354.55 443.583
2273 0 102.242 15.8546 1621 120.175 354.549 442.038
2274 0 104.415 14.2508 1488 123.505 355.329 438.368
2275 0 108.282 16.2261 1757 119.585 355.038 437.28
2276 0 113.244 16.1775 1832 117.57 355.25 431.727
2277 0 117.308 18.3875 2157 114.112 355.537 432.322
2278 0 122.434 13.983 1712 120.626 354.555 436.328
2279 0 124.392 13.0796 1627 123.626 354.557 431.41
2280 0 128.235 13.6468 1750 121.726 352.3 431.177
2281 0 137.245 14.7255 2021 120.736 353.78 427.16
2282 0 141.474 13.112 1855 122.947 352.916 427.847
2283 0 150.373 19.0194 2860 112.402 352.59 426.937
2284 0 154.621 14.2607 2205 121.566 352.263 422.145
2285 1 81.1815 13.2789 1078 116.744 351.378 459.02
2286 0 84.3196 13.8995 1172 117.201 350.566 456.187
2287 0 89.3219 16.2334 1450 108.267 349.661 455.501
2288 0 89.3897 12.2497 1095 117.405 348.413 450.619
2289 0 93.2456 16.3547 1525 111.262 349.041 450.254
2290 0 98.4511 17.5519 1728 109.466 347.792 449.031
2291 0 100.26 14.4724 1451 115.693 348.225 449.65
2292 0 102.406 17.9189 1835 109.85 347.992 446.456
2293 0 100.219 14.628 1466 115.027 346.973 445.95
2294 0 109.747 14.3147 1571 115.675 346.897 438.936
2295 0 114.434 14.279 1634 115.226 346.388 438.985
2296 0 114.427 12.5582 1437 119.156 346.018 430.48
2297 1 61.1097 10.2275 625 119.554 346.109 459.299
2298 0 66.0857 12.968 857 114.758 346.033 458.015
2299 0 69.5775 15.0336 1046 110.892 346.196 452.974
2300 0 73.4993 14.9933 1102 112.794 346.974 450.923
2301 0 74.3715 15.3016 1138 112.377 346.269 451.645
2302 0 76.8133 13.6304 1047 114.075 346.58 450.705
2303 0 77.5534 14.7253 1142 113.131 346.903 447.768
2304 0 83.6283 17.0517 1426 106.703 347.356 448.895
2305 0 83.5151 15.0033 1253 111.923 348.426 444.343
2306 0 86.9942 14.2883 1243 112.327 347.81 441.614
2307 0 88.6855 15.1885 1347 110.463 349.472 444.845
2308 0 93.7343 16.1414 1513 109.065 349.18 442.259
2309 0 93.5675 16.6831 1561 109.565 350.78 439.41
2310 0 96.8284 16.3795 1586 111.156 350.097 435.275
2311 0 101.645 18.3186 1862 106.76 351.628 437.964
2312 0 103.786 14.1059 1464 115.574 352.583 433.726
2313 0 108.736 16.2412 1766 112.337 352.751 432.202
2314 0 110.546 14.2023 1570 116.387 353.045 433.305
2315 0 112.511 17.4294 1961 112.104 353.5 430.81
2316 0 118.406 18.3521 2173 110.351 354.352 433.755
2317 0 121.282 14.7425 1788 117.463 355.056 426.219
2318 0 126.334 15.6727 1980 116.202 354.239 427.603
2319 1 144.526 25.5802 3697 98.1509 353.455 416.372
2320 0 147.934 22.1788 3281 103.388 354.165 415.852
2321 0 144.293 23.5008 3391 104.638 353.943 422.965
2322 0 148.519 23.1217 3434 106.785 353.62 423.759
2323 0 150.786 14.1857 2139 121.669 353.736 435.051
2324 0 156.631 17.9147 2806 118.087 353.096 423.541
2325 1 85.4126 13.8387 1182 123.814 352.568 457.387
2326 0 90.6866 15.1511 1374 122.485 352.533 456.207
2327 0 94.4298 17.4098 1644 118.774 351.327 453.937
2328 0 95.3615 14.7019 1402 125.444 350.64 449.236
2329 0 99.6461 15.2239 1517 125.177 349.713 449.572
2330 0 104.441 16.6602 1740 122.809 349.374 446.14
2331 0 106.471 15.7038 1672 125.733 349.147 444.47
2332 0 109.641 17.156 1881 123.13 348.041 442.133
2333 0 112.631 15.4043 1735 127.883 347.286 439.697
2334 0 121.779 18.1148 2206 120.651 347.821 439.213
2335 0 122.427 15.3071 1874 126.288 346.677 434.649
2336 0 127.676 16.8552 2152 123.191 346.929 433.999
2337 0 129.584 13.7749 1785 129.148 346.645 428.336
2338 0 134.615 14.7532 1986 125.854 346.607 429.775
2339 0 137.539 15.7991 2173 125.396 346.751 424.715
2340 0 143.945 15.4573 2225 125.517 346.785 418.42
2341 0 146.802 14.3595 2108 127.056 346.91 419.345
2342 0 152.595 15.4395 2356 123.635 347.647 421.657
2343 0 154.657 14.5548 2251 126.956 347.293 413.49
2344 0 161.45 18.2719 2950 120.693 347.762 407.122
2345 0 166.666 15.6781 2613 124.956 348.211 405.258
2346 0 168.616 15.8822 2678 123.544 348.268 405.466
2347 0 172.597 16.2401 2803 123.171 348.774 400.007
2348 0 180.082 15.8317 2851 122.429 348.593 405.156
2349 0 182.714 16.0962 2941 124.116 350.323 393.306
2350 0 187.528 15.8696 2976 124.456 349.714 390.584
2351 0 193.956 17.901 3472 121.058 351.218 386.613
2352 0 197.836 14.8052 2929 126.839 351.528 388.09
2353 0 205.732 16.05 3302 123.895 352.002 383.31
2354 0 214.853 16.6393 3575 122.369 352.158 381.259
2355 1 163.487 11.4199 1867 130.185 353.822 409.447
2356 0 171.732 18.8025 3229 118.665 354.502 408.433
2357 0 179.633 17.892 3214 121.164 355.18 400.55
2358 0 184.811 13.3379 2465 129 354.51 397.569
2359 0 195.381 15.3699 3003 125.394 355.151 394.134
2360 0 203.536 16.4934 3357 122.433 353.874 382.864
2361 0 214.824 16.5391 3553 120.484 354.388 395.429
2362 0 223.133 17.447 3893 120.787 354.599 384.643
2363 1 52.2734 11.6694 610 113.562 355.21 470.259
2364 0 56.1808 15.8595 891 107.287 353.88 470.189
2365 0 56.1703 13.281 746 111.501 354.44 471.767
2366 0 57.1947 11.7668 673 115.367 353.239 467.47
2367 0 61.1331 17.9117 1095 104.389 352.536 471.679
2368 0 62.1935 12.2842 764 113.39 351.817 470.3
2369 0 63.1148 13.8319 873 111.076 351.186 469.231
2370 0 65.2579 15.9521 1041 109.512 350.119 465.102
2371 0 67.1224 15.1216 1015 109.969 349.029 466.703
2372 0 71.164 14.3893 1024 110.143 348.263 465.88
2373 0 76.3841 15.0424 1149 108.149 346.85 462.573
2374 0 78.4775 14.4882 1137 108.122 346.077 459.384
2375 0 80.238 14.0706 1129 109.803 345.238 462.94
2376 0 80.328 15.2749 1227 109.587 344.733 458.051
2377 0 84.3345 14.0275 1183 109.707 344.748 459.907
2378 0 84.2182 12.8713 1084 114.672 343.743 452.339
2379 0 88.3555 13.5249 1195 113.831 343.65 452.567
2380 0 91.2726 17.1136 1562 109.254 343.245 448.512
2381 0 93.2415 14.1353 1318 113.766 343.556 449.734
2382 0 95.2125 15.8908 1513 112.738 343.314 443.37
2383 0 96.3107 15.8446 1526 113.936 344.444 439.769
2384 0 101.167 17.9307 1814 110.073 345.017 441.922
2385 0 125.766 20.7449 2609 98.9475 343.477 423.833
2386 0 127.611 19.2773 2460 102.554 344.633 422.87
2387 0 133.92 18.2272 2441 103.814 344.022 417.522
2388 0 128.625 23.4168 3012 99.3967 343.952 420.588
2389 0 125.583 23.7852 2987 101.114 344.704 420.412
2390 0 118.433 16.1948 1918 114.268 346.455 425.654
2391 0 123.394 19.7579 2438 108.103 346.927 421.786
2392 0 126.418 17.9642 2271 111.526 347.783 422.323
2393 0 130.336 17.3936 2267 113.516 347.411 423.071
2394 0 131.487 17.5455 2307 114.078 349.468 419.091
2395 0 138.504 24.382 3377 103.23 346.97 414.976
2396 0 140.358 17.9683 2522 114.208 350.001 416.2
2397 0 144.56 15.9518 2306 119.154 350.61 415.385
2398 0 151.648 18.1407 2751 114.576 350.611 415.359
2399 0 156.394 21.4587 3356 109.011 349.088 413.824
2400 0 163.691 19.2191 3146 113.078 350.022 408.81
2401 0 164.864 15.3157 2525 123.37 352.037 404.23
2402 0 175.66 18.4162 3235 117.051 350.347 400.248
2403 0 179.108 17.8998 3206 119.285 351 404.233
2404 0 189.076 20.5314 3882 114.913 349.459 403.444
2405 0 191.194 19.0226 3637 119.863 350.246 399.159
2406 0 198.845 20.3525 4047 118.412 349.313 394.47
2407 0 204.132 17.3662 3545 124.221 350.085 391.134
2408 0 213.078 18.7349 3992 121.593 349.925 390.573
2409 0 223.996 20.0807 4498 118.703 349.281 390.604
2410 0 231.834 19.3328 4482 119.821 349.215 379.833
2411 1 162.547 15.0664 2449 125.695 348.067 421.365
2412 0 169.592 15.1363 2567 126.731 348.018 419.432
2413 0 181.023 15.788 2858 126.55 347.395 408.239
2414 0 185.685 16.1564 3000 126.86 346.171 404.052
2415 0 192.689 16.9081 3258 125.204 345.651 399.128
2416 0 200.65 16.7007 3351 125.116 345.784 397.406
2417 0 205.092 16.0611 3294 127.264 345.695 386.668
2418 1 217.061 16.7418 3634 125.634 345.23 384.403
2419 0 221.871 18.5603 4118 121.492 344.524 383.572
2420 0 227.827 16.1833 3687 126.841 345.25 369.638
2421 0 236.544 16.2422 3842 126.171 345.589 370.647
2422 1 253.804 21.9579 5573 114.89 344.384 350.208
2423 0 256.599 20.4365 5244 117.977 345.062 347.964
2424 0 258.676 15.6992 4061 127.197 345.407 357.466
2425 0 263.874 15.0754 3978 129.376 344.647 346.642
2426 1 325.645 12.8391 4181 131.906 346.015 329.659
2427 0 322.813 13.4443 4340 130.059 346.123 334.509
2428 1 298.323 17.4643 5210 121.433 346.235 350.554
2429 0 307.481 19.933 6129 118.212 346.889 319.835
2430 0 313.785 19.7779 6206 119.284 347.406 311.324
2431 0 320.519 19.874 6370 119.876 348.109 309.288
2432 0 332.083 17.5077 5814 123.664 348.969 294.199
2433 0 333.038 14.0494 4679 130.721 349.226 314.177
2434 0 332.937 14.4111 4798 130.531 349.905 309.364
2435 0 286.743 14.6752 4208 129.181 350.036 329.102
2436 0 296.012 17.6243 5217 124.044 349.78 324.817
2437 0 300.741 14.5009 4361 130.287 351.221 324.909
2438 0 309.615 13.5943 4209 133.216 351.879 315.978
2439 0 309.625 13.5842 4206 157.103 351.881 315.823
2440 0 318.932 11.1027 3541 134.699 352.576 328.439
2441 0 316.999 11.0032 3488 134.565 353.193 332.476
2442 0 356.862 17.8108 6356 124.783 351.925 291.446
2443 0 370.749 19.2934 7153 121.858 352.81 294.12
2444 0 379.796 24.6475 9361 114.357 352.019 288.563
2445 0 377.222 17.2683 6514 127.86 352.031 280.508
2446 0 378.634 19.1504 7251 124.088 350.777 283.781
2447 0 372.636 25.7731 9604 111.867 351.585 285.119
2448 0 370.711 18.211 6751 124.647 350.728 280.103
2450 0 366.715 21.2181 7781 120.184 349.632 280.146
2451 0 384.141 19.3809 7445 125.588 350.43 281.067
