time division length width area intensity CMx CMy
0 0 49.114 16.2276 797 143.227 590.429 470.246
1 0 49.1213 16.1844 795 142.893 590.442 470.204
2 0 49.1213 16.1844 795 142.535 590.442 470.204
3 0 50.1151 17.5396 879 137.916 590.443 469.336
4 0 50.1151 17.5396 879 137.837 590.443 469.336
5 0 54.1217 14.7445 798 122.049 585.645 469.019
6 0 56.2502 14.4711 814 123.724 585.163 466.495
7 0 56.2278 14.3168 805 127.275 583.891 466.502
8 0 58.1542 14.238 828 122.932 584.138 464.988
9 0 58.3795 12.3502 721 131.293 582.369 466.141
10 0 60.1323 16.2808 979 124.325 581.931 461.98
11 0 63.3332 15.1895 962 123.965 580.915 460.833
12 0 68.1715 18.5415 1264 117.466 580.867 461.314
13 0 69.1338 16.4319 1136 119.19 579.388 454.263
14 0 70.1923 17.2526 1211 121.22 579.692 453.648
15 0 72.2661 13.4641 973 124.455 579.891 455.496
16 0 75.0784 15.011 1127 120.723 580.265 451.902
17 0 77.3075 15.6518 1210 122.418 580.177 451.293
18 0 82.4153 16.1742 1333 121.335 579.54 449.132
19 0 80.2843 15.6569 1257 122.788 580.26 445.788
20 1 42.1985 11.8724 501 122.766 579.381 463.311
21 0 44.0718 17.9934 793 112.197 580.499 461.946
22 0 44.048 12.8496 566 123.878 579.59 460.383
23 0 46.0857 12.8239 591 125.743 582.146 456.704
24 0 50.1465 14.5972 732 120.1 582.955 455.995
25 0 51.0461 14.4575 738 123.543 582.359 455.1
26 0 50.1447 14.6177 733 124.471 583.458 453.884
27 0 54.0437 13.3226 720 124.708 583.558 455.872
28 0 55.0874 12.2169 673 127.037 584.297 452.82
29 0 58.1422 14.3097 832 122.344 585.493 450.786
30 0 60.1293 14.5852 877 122.526 585.564 449.814
31 0 63.1158 15.4003 972 121.313 587.054 450.452
32 0 64.0842 15.1832 973 117.825 587.851 451.696
33 0 66.0933 15.7959 1044 118.109 588.813 449.595
34 0 66.0609 14.199 938 119.805 588.389 451.706
35 0 70.0825 19.2345 1348 112.77 589.109 447.695
36 0 73.223 14.9407 1094 119.851 590.645 448.622
37 0 74.0997 16.2889 1207 115.421 591.824 447.171
38 0 77.0661 15.3115 1180 116.661 593.006 445.264
39 0 80.3612 14.8579 1194 117.86 591.981 446.389
40 0 81.0877 13.8862 1126 117.674 592.722 445.238
41 0 86.1212 13.0398 1123 121.501 592.291 448.484
42 0 92.289 14.3246 1322 117.595 592.313 445.779
43 1 46.0323 15.1416 697 114.564 591.528 464.759
44 0 48.0787 13.1451 632 113.013 591.133 464.633
45 0 54.2959 14.9919 814 109.478 591.757 466.502
46 0 54.124 14.7254 797 119.927 590.937 467.402
47 0 52.1854 15.6174 815 120.796 590.598 465.877
48 0 55.0575 13.9309 767 119.172 588.834 467.492
49 0 59.4698 13.8053 821 119.643 588.212 468.227
50 0 61.3189 15.0198 921 118.696 587.435 464.833
51 0 61.0706 18.4377 1126 117.185 586.515 463.291
52 0 63.062 11.9406 753 127.097 585.708 464.624
53 0 65.2024 15.6283 1019 124.781 585.401 460.472
54 0 67.1632 13.4895 906 129.235 584.52 459.384
55 0 69.0877 15.502 1071 125.382 584.04 458.929
56 0 74.1727 16.9065 1254 122.338 583.529 456.315
57 0 78.103 15.3131 1196 124.996 583.778 455.343
58 0 78.1358 17.0216 1330 124.138 583.195 448.611
59 0 81.214 12.5717 1021 131.049 583.87 451.476
60 0 83.2039 13.3047 1107 130.658 582.51 448.06
61 0 87.2414 14.7522 1287 126.94 581.307 444.76
62 0 90.174 14.9489 1348 127.269 582.438 441.546
63 0 90.3572 13.0593 1180 132.797 583.066 440.369
64 0 94.1259 13.7369 1293 125.7 581.179 441.862
65 0 98.1644 16.2686 1597 121.916 582.244 433.22
66 0 102.251 14.2003 1452 124.315 582.218 433.509
67 0 105.322 15.5523 1638 122.474 582.781 430.962
68 0 110.128 15.3276 1688 124.752 582.758 427.384
69 0 114.305 14.2426 1628 125.115 583.172 429.578
70 1 59.2834 14.0849 835 118.174 582.736 453.554
71 0 60.2963 12.5878 759 118.779 584.319 456.726
72 0 63.2697 14.288 904 118.879 585.539 453.086
73 0 63.153 11.0208 696 125.089 585.432 450.754
74 0 68.0897 15.9495 1086 116.472 585.692 447.92
75 0 68.1418 13.5159 921 120.951 585.93 448.089
76 0 70.2433 15.247 1071 118.226 585.457 446.356
77 0 73.2747 13.5244 991 121.419 586.751 447.314
78 0 74.15 11.5577 857 125.372 586.693 448.8
79 0 79.149 17.0564 1350 112.816 587.574 454.223
80 0 80.1886 15.7628 1264 118.023 588.388 448.065
81 0 83.1425 12.8454 1068 123.001 588.568 449.488
82 0 85.3047 14.8995 1271 119.777 588.266 447.924
83 0 88.3075 14.4608 1277 120.901 588.128 446.05
84 0 88.2589 12.7013 1121 124.45 588.574 446.459
85 0 91.3175 12.4511 1137 125.04 587.461 446.441
86 0 94.2263 14.1468 1333 121.601 587.806 444.302
87 0 99.2419 17.805 1767 114.556 587.057 447.087
88 0 105.444 18.1519 1914 113.868 587.498 445.307
89 0 105.296 15.1098 1591 122.9 586.407 441.931
90 0 109.168 10.5984 1157 127.156 585.615 445.099
91 0 113.345 12.6692 1436 124.214 586.185 443.622
92 0 117.484 12.972 1524 124.537 585.455 441.354
93 0 123.289 16.5546 2041 119.039 584.897 439.121
94 1 69.1913 15.2187 1053 116.76 583.888 461.556
95 0 70.1916 10.1009 709 126.891 582.575 459.574
96 0 72.1581 11.6272 839 123.952 582.23 462.057
97 0 75.3159 11.2061 844 125.3 581.895 458.532
98 0 77.1483 12.4176 958 122.997 581.28 457.462
99 0 79.103 10.2651 812 123.195 580.57 463.384
100 0 83.1501 10.9681 912 123.635 580.288 458.329
101 0 85.2457 11.8716 1012 123.528 579.023 451.752
102 0 87.2474 14.0062 1222 121.592 578.701 446.957
103 0 91.2698 15.3063 1397 118.699 578.878 446.44
104 0 95.0753 13.0844 1244 121.256 579.046 445.994
105 0 94.131 9.3168 877 124.696 578.642 449.978
106 0 99.1136 11.9459 1184 122.556 578.418 440.441
107 0 103.204 12.7902 1320 121.84 579.017 437.141
108 0 106.158 10.635 1129 123.019 579.37 434.51
109 0 112.27 18.8297 2114 112.277 579.15 431.335
110 1 62.1818 12.576 782 117.449 578.54 453.311
111 0 63.11 12.5337 791 117.078 579.583 453.898
112 0 67.2525 13.4865 907 113.935 581.273 454.401
113 0 68.4256 14.5267 994 111.844 582.738 452.345
114 0 67.2216 10.3538 696 118.657 581.726 452.944
115 0 72.205 13.8356 999 113.856 583.616 449.834
116 0 73.1852 14.8254 1085 113.315 584.521 448.701
117 0 71.2003 13.0056 926 118.145 584.941 448.467
118 0 75.2892 12.2063 919 119.557 586.268 450.282
119 0 78.3057 10.9443 857 123.022 586.519 447.699
120 0 80.1971 11.4842 921 122.2 587.237 444.562
121 0 85.2939 12.7793 1090 120.223 588.287 445.346
122 0 88.2397 11.8994 1050 120.78 588.778 445.578
123 0 91.1903 13.8611 1264 118.01 589.286 443.188
124 0 94.2446 13.3483 1258 119.605 588.329 441.727
125 0 97.2971 12.1895 1186 120.565 588.761 440.289
126 1 51.0686 10.7894 551 120.338 588.225 465.399
127 0 55.1664 12.997 717 116.033 588.849 464.53
128 0 52.1144 12.1272 632 113.672 588.574 469.566
129 0 53.0323 10.503 557 117.898 587.33 467.472
130 0 54.121 10.1439 549 118.829 587.63 465.811
131 0 58.0484 10.3879 603 116.627 587.202 469.119
132 0 63.3689 14.0921 893 111.036 587.682 469.617
133 0 63.1052 14.8007 934 113.147 587.087 465.209
134 0 63.3712 16.4744 1044 111.151 586.051 464.659
135 0 66.1659 11.9095 788 117.259 585.909 463.97
136 0 65.3011 10.0611 657 121.219 584.167 466.332
137 0 71.1896 14.8336 1056 114.475 585.615 463.966
138 0 72.4183 14.72 1066 114.749 584.483 464.042
139 0 72.4181 14.6925 1064 121.485 583.467 463.95
140 0 77.1516 14.0762 1086 115.889 582.399 460.02
141 0 82.137 15.2185 1250 114.74 582.447 461.002
142 0 83.2888 13.5672 1130 119.224 582.172 456.087
143 1 45.0772 14.2201 641 115.314 581.507 473.08
144 0 46.1497 12.2211 564 119.23 581.227 469.808
145 0 48.2113 11.014 531 119.885 577.46 469.311
146 0 47.0571 11.9854 564 117.387 578.133 468.86
147 0 49.2661 13.9447 687 112.818 577.965 467.604
148 0 51.1687 14.1297 723 110.668 577.017 469.845
149 0 54.2519 12.2945 667 114.91 576.916 465.994
150 0 53.2886 11.8975 634 116.749 578.118 464.396
151 0 55.1327 13.7305 757 114.433 579.415 461.872
152 0 54.1911 12.7327 690 116.867 580.788 460.626
153 0 59.0738 12.8314 758 114.854 581.202 459.022
154 0 60.1282 15.4337 928 111.564 581.125 459.128
155 0 59.0756 13.3219 787 117.853 581.338 451.677
156 0 63.1373 15.0941 953 115.093 581.417 452.321
157 0 67.0991 14.188 952 114.882 581.814 450.812
158 0 67.1281 11.6494 782 118.839 582.955 453.616
159 0 69.1499 13.478 932 117.254 584.491 449.683
160 0 71.2415 13.7701 981 117.492 584.508 450.214
161 0 75.271 20.8845 1572 105.622 585.315 451.544
162 0 74.1585 12.0957 897 121.794 584.788 444.981
163 0 76.1651 12.3547 941 121.646 586.264 444.715
164 0 80.3113 12.7006 1020 118.762 586.365 449.011
165 0 84.3087 13.3201 1123 118.619 586.621 444.138
166 0 88.1798 13.1549 1160 122.952 586.841 441.487
167 0 92.1405 14.2066 1309 118.345 587.979 446.461
168 1 51.0459 11.1664 570 121.067 589.218 461.758
169 0 51.0468 11.1662 570 144.391 589.233 461.626
170 0 55.1263 15.5643 858 111.758 588.897 465.495
171 0 56.039 14.8647 833 116.934 589.441 462.453
172 0 57.1168 14.1464 808 117.844 589.048 464.58
173 0 58.203 13.7278 799 118.163 588.498 465.832
174 0 62.1371 14.114 877 118.788 588.267 463.226
175 0 62.1013 15.7968 981 116.403 587.681 463.496
176 0 66.0443 20.2591 1338 108.235 587.18 465.019
177 0 65.0641 13.2946 865 118.97 587.076 466.392
178 0 65.1574 14.0736 917 117.969 586.166 461.06
179 0 70.0605 17.2422 1208 113.266 585.953 460.599
180 0 71.1397 14.4223 1026 117.095 584.716 462.925
181 0 73.2368 14.2961 1047 117.171 583.997 460.339
182 0 73.0817 11.7403 858 122.61 583.72 456.534
183 0 78.0988 12.5994 984 120.958 582.811 454.494
184 0 83.0926 14.4778 1203 117.113 581.415 454.748
185 0 87.1109 15.1416 1319 115.187 581.942 454.77
186 1 47.1016 10.3181 486 116.107 581.399 473.887
187 0 46.091 11.6942 539 114.447 579.727 471.935
188 0 49.0613 13.5952 667 110.507 578.243 469.675
189 0 49.2071 12.2746 604 112.123 576.257 468.25
190 0 52.173 14.4903 756 108.442 576.607 466.741
191 0 52.4637 13.781 723 110.357 576.9 465.058
192 0 55.1297 13.9308 768 110.001 576.254 463.432
193 0 55.1784 16.0751 887 108.837 576.844 458.129
194 0 58.2205 12.2809 715 112.309 575.836 461.397
195 0 59.2278 15.4995 918 109.658 576.692 455.874
196 0 59.2004 11.1993 663 115.517 576.914 457.643
197 0 63.4724 18.9531 1203 104.503 577.694 458.342
198 0 65.1317 17.3034 1127 107.878 578.229 456.956
199 0 66.2994 14.9473 991 113.72 579.636 449.136
200 0 70.2894 15.4504 1086 113.374 580.189 448.215
201 0 69.3856 13.7781 956 119.124 580.364 449.406
202 0 75.2241 15.3674 1156 113.965 580.6 450.542
203 0 77.328 14.1217 1092 116.96 580.774 447.895
204 0 78.399 13.7629 1079 116.304 580.88 447.126
205 0 81.2951 13.3218 1083 118.408 582.359 443.597
206 0 86.2191 12.6074 1087 119.365 582.868 440.731
207 0 87.2738 15.2279 1329 116.14 583.275 439.643
208 1 46.0229 8.53923 393 122.125 582.583 465.079
209 0 49.0721 14.0406 689 114.02 583.916 463.232
210 0 46.1678 9.63875 445 122.029 584.083 461.643
211 0 51.1156 12.638 646 115.362 584.847 462.429
212 0 50.1628 12.1604 610 112.19 586.418 456.574
213 0 50.0531 10.2092 511 116.086 585.086 466.409
214 0 53.2318 13.0185 693 113.789 587.417 463.736
215 0 57.1829 15.0569 861 108.721 587.333 468.684
216 0 54.0279 12.7156 687 115.713 587.46 466.627
217 0 57.1489 10.8314 619 116.037 587.069 466.606
218 0 59.1053 11.1665 660 114.815 587.427 470.333
219 0 61.3703 11.4714 704 117.04 586.456 464.92
220 0 60.2929 10.9134 658 118.424 585.467 467.464
221 0 67.0521 13.9593 936 112.895 585.047 464.589
222 0 66.1612 13.981 925 114.474 583.939 463.321
223 0 68.1548 11.063 754 118.664 583.57 467.691
224 0 73.303 14.6515 1074 112.949 582.705 462.732
225 0 75.2904 12.4053 934 116.868 581.514 462.119
226 0 79.205 15.8323 1254 111.495 581.286 463.307
227 0 81.1245 14.0895 1143 113.523 579.46 458.129
228 0 84.2086 16.3166 1374 110.02 578.955 457.156
229 0 88.4652 16.7636 1483 107.049 578.305 459.814
230 0 88.2213 15.2571 1346 110.792 577.268 450.712
231 0 94.3244 15.7329 1484 107.868 575.901 457.113
232 0 95.2605 14.2032 1353 111.294 576.061 450.78
233 0 98.4405 12.5863 1239 114.061 577.155 447.799
234 0 102.246 10.3671 1060 117.607 575.912 444.88
235 0 108.349 22.5936 2448 103.112 576.296 444.165
236 0 108.33 12.9419 1402 117.996 576.337 436.334
237 0 114.364 15.5994 1784 113.402 575.329 429.283
238 0 120.637 21.7429 2623 103.898 575.797 432.104
239 0 121.411 13.1208 1593 116.769 576.501 422.761
240 1 61.4355 9.37568 576 114.573 578.339 454.802
241 0 67.5766 14.1173 954 108.844 577.227 449.056
242 0 72.4149 12.5665 910 109.975 578.787 449.852
243 0 73.3442 14.7796 1084 107.919 579.064 451.006
244 0 73.1672 14.05 1028 109.898 578.748 450.173
245 0 74.3095 14.1436 1051 111.172 580.255 445.303
246 0 75.4692 10.9846 829 116.059 579.765 448.09
247 0 77.3563 14.3363 1109 115.288 578.965 448.809
248 0 77.3563 14.4138 1115 147.323 578.945 449.075
249 0 82.5041 10.6661 880 122.82 580.458 443.66
250 0 87.4719 14.8391 1298 117.595 582.656 442.592
251 0 94.3078 12.6183 1190 119.685 582.199 440.416
252 0 90.1296 11.5833 1044 124.254 583.834 437.818
253 0 96.235 16.9377 1630 114.733 584.734 439.846
254 0 95.2713 11.4515 1091 123.799 583.179 439.009
255 1 53.444 10.497 561 117.914 585.679 463.235
256 0 60.31 15.5198 936 106.611 582.584 460.387
257 0 60.168 13.5454 815 110.535 586.038 464.634
258 0 60.1035 12.1291 729 112.576 584.617 465.225
259 0 60.0874 10.0687 605 117.638 585.126 462.223
260 0 64.1901 13.0082 835 114.11 585.052 461.899
261 0 64.4304 11.8578 764 112.754 583.912 463.864
262 0 67.396 14.2293 959 108.673 582.965 462.805
263 0 66.1159 10.3455 684 114.075 582.015 459.757
264 0 72.0307 13.2582 955 109.556 583.214 459.866
265 0 73.0684 11.5782 846 112.002 582.015 459.642
266 0 78.2512 11.3353 887 110.489 581.604 461.298
267 0 86.3579 11.7303 1013 107.269 580.76 463.893
268 0 84.1834 11.7006 985 109.881 580.368 458.477
269 0 85.5184 11.2023 958 112.465 579.486 450.697
270 1 43.4446 12.959 563 107.162 578.81 469.769
271 0 46.6396 7.9975 373 112.247 577.665 470.509
272 0 49.3186 10.4423 515 108.579 577.559 471.588
273 0 49.084 11.246 552 106.647 576.922 472.741
274 0 49.3046 8.96468 442 110.346 576.563 471.265
275 0 52.2322 11.3723 594 108.17 576.556 465.205
276 0 54.3221 13.3279 724 104.613 576.097 465.88
277 0 55.2766 11.3791 629 108.386 576.081 462.672
278 0 57.2345 15.2356 872 103.478 576.092 461.539
279 0 59.344 12.4023 736 106.459 576.409 458.655
280 0 59.2252 9.7087 575 110.617 575.852 456.65
281 0 63.3076 12.8894 816 106.556 576.001 456.026
282 0 72.3124 12.2386 885 103.259 576.01 460.809
283 0 72.3124 12.1279 877 117.42 576.013 460.893
284 0 68.1451 15.8192 1078 103.404 577.009 448.871
285 0 71.3612 13.0743 933 106.19 576.824 449.407
286 0 75.3079 12.429 936 106.033 577.038 448.359
287 0 76.3076 12.4103 947 106.343 578.094 446.017
288 0 78.4707 13.7503 1079 105.899 577.699 444.021
289 0 82.3075 15.8187 1302 103.657 579.007 443.849
290 0 82.4232 12.0476 993 109.317 580.257 442.434
291 0 84.5065 14.7563 1247 101.735 580.617 448.48
292 0 92.6054 17.3964 1611 101.055 581.457 439.937
293 0 89.3131 11.2302 1003 109.613 583.56 438.347
294 0 94.4262 13.905 1313 107.919 584.337 434.675
295 1 47.5358 11.1074 528 107.795 585.731 455.661
296 0 47.5358 11.1284 529 131.836 587.745 455.56
297 0 52.2506 12.9185 675 107.753 587.625 456.742
298 0 53.2103 10.9941 585 110.947 588.851 457.031
299 0 57.081 16.4853 941 102.202 587.679 458.367
300 0 56.2274 13.6944 770 106.697 588.882 461.094
301 0 59.1832 12.8246 759 108.209 588.959 456.847
302 0 62.2135 14.9324 929 104.485 588.803 458.323
303 0 63.0436 14.1648 893 104.776 588.968 460.122
304 0 65.1069 14.0999 918 104.918 589.099 458.448
305 0 64.2786 11.1857 719 109.389 588.54 455.392
306 0 69.1835 15.6396 1082 102.956 586.742 459.221
307 0 70.2248 12.9726 911 107.12 587.135 460.733
308 0 72.1458 15.6627 1130 104.222 586.215 456.087
309 0 77.1409 14.8041 1142 103.996 585.502 455.369
310 0 78.0924 11.3071 883 109.974 585.41 454.617
311 0 81.3846 12.2505 997 106.64 583.502 454.3
312 0 84.3772 11.1642 942 108.117 583.189 450.625
313 1 44.1096 11.2447 496 103.857 583.554 472.589
314 0 49.353 12.5828 621 99.752 579.676 469.808
315 0 44.326 10.9868 487 103.462 578.725 466.46
316 0 46.0398 9.36148 431 103.854 578.176 470.452
317 0 49.1566 11.4532 563 101.341 577.165 468.188
318 0 47.0574 8.69151 409 106.391 576.548 464.731
319 0 53.1478 18.6273 990 93.5232 576.554 467.041
320 0 53.1718 15.5157 825 96.3939 576.545 467.126
321 0 54.2187 16.5072 895 97.324 576.631 459.402
322 0 58.0952 11.7049 680 102.899 576.982 459.144
323 0 61.1447 16.9761 1038 96.132 575.463 456.54
324 0 62.0868 15.881 986 97.9554 576.015 456.682
325 0 64.3126 14.3829 925 100.078 576.696 455.166
326 1 135.513 14.8547 2013 99.8857 577.11 430.439
327 1 69.1554 12.696 878 102.451 577.507 450.866
328 0 72.2714 15.4418 1116 100.053 578.163 446.41
329 0 75.1743 11.6795 878 104.155 578.085 447.608
330 0 76.301 11.0221 841 106.644 578.879 446.96
331 0 79.615 19.0542 1517 98.3817 579.798 442.411
332 0 85.324 19.1623 1635 97.1425 580.978 443.602
333 0 83.5387 12.1141 1012 107.633 581.072 441.661
334 0 86.4395 13.6049 1176 105.536 581.794 441.478
335 1 44.0313 14.9212 657 102.799 582.83 459.31
336 0 44.1473 12.7075 561 104.073 584.884 454.644
337 0 44.1077 9.34078 412 104.381 585.063 456.172
338 0 47.058 14.9178 702 98.2365 585.99 457.543
339 0 50.2144 13.283 667 101.909 587.211 454.597
340 0 47.092 12.2102 575 103.833 587.87 457.873
341 0 50.2078 10.8151 543 106.698 587.179 456.634
342 0 52.1665 12.6326 659 104.927 588.306 455.648
343 0 51.1709 12.8393 657 141.251 589.256 455.388
344 0 56.058 11.3454 636 106.733 589.168 457.182
345 0 56.2829 13.2189 744 105.327 589.661 457.263
346 0 59.2426 10.4317 618 107.958 589.401 459.565
347 0 62.0574 15.7757 979 101.924 589.12 460.346
348 0 63.0748 13.0956 826 109.433 589.314 465.182
349 0 63.1611 14.1543 894 110.715 589.222 459.767
350 0 67.1366 15.2376 1023 108.564 589.099 460.107
351 0 68.1376 13.9864 953 108.224 589.106 464.758
352 0 74.3407 14.9716 1113 108.403 587.986 460.084
353 0 73.1778 12.0802 884 112.702 587.382 460.862
354 0 74.3655 11.2956 840 112.531 587.223 460.004
355 0 79.1936 16.668 1320 106.304 585.926 454.214
356 1 41.042 12.4019 509 113.116 586.845 471.921
357 0 46.1768 13.5999 628 108.197 586.678 473.352
358 0 42.1236 11.7511 495 114.747 585.222 469.97
359 0 46.163 13.8422 639 110.019 583.167 469.069
360 0 47.0448 7.65228 360 118.192 580.792 469.725
361 0 49.0878 11.7545 577 112.698 580.095 466.591
362 0 52.1773 12.2084 637 110.438 580.994 468.788
363 0 55.0845 15.9936 881 104.939 580.212 465.807
364 0 55.0281 13.1387 723 110.862 579.888 461.676
365 0 55.2158 12.7319 703 111.807 579.859 461.415
366 0 59.0983 15.1443 895 108.389 579.523 460.366
367 0 58.1065 15.5232 902 109.773 579.968 454.643
368 0 61.1039 13.7144 838 112.408 579.866 452.002
369 0 64.3075 15.3326 986 109.581 580.001 452.588
370 0 66.1164 14.0207 927 112.19 580.315 451.708
371 0 66.1277 11.8256 782 115.523 580.591 449.852
372 0 68.1592 12.9843 885 115.456 580.836 443.184
373 0 70.0692 17.0688 1196 108.232 581.213 448.82
374 0 73.2612 12.0801 885 112.933 582.391 446.456
375 0 77.2659 16.6438 1286 106.232 583.615 445.74
376 0 77.1571 13.6604 1054 112.768 583.329 442.311
377 0 80.3718 12.6786 1019 113.898 584.442 439.671
378 0 83.305 16.6977 1391 108.651 585.357 441.103
379 0 88.2141 15.3944 1358 112.742 586.421 436.07
380 1 43.0874 10.4671 451 116.215 589.574 458.213
381 0 48.0887 12.9552 623 112.509 587.141 455.589
382 0 52.2878 16.1988 847 105.165 587.988 460.37
383 0 52.3929 12.6544 663 110.578 589.018 458.419
384 0 52.2729 11.7461 614 112.547 588.43 459.446
385 0 55.4163 13.4617 746 110.189 588.843 458.731
386 0 55.4093 12.6874 703 110.619 589.034 460.37
387 0 57.1126 17.0015 971 105.313 589.412 460.078
388 0 58.189 14.1092 821 109.621 590.805 456.347
389 0 60.3568 12.4758 753 111.45 589.932 460.393
390 0 62.1894 13.684 851 110.331 589.204 461.6
391 0 65.2336 14.1798 925 111.231 589.229 457.515
392 0 67.1116 13.9618 937 112.219 589.419 458.214
393 0 69.155 13.5927 940 113.335 587.532 456.465
394 0 71.4682 16.7767 1199 110.444 587.855 458.591
395 0 73.3008 12.1145 888 117.874 586.587 459.197
396 0 74.2611 11.3384 842 118.487 586.198 459.219
397 0 81.319 14.3878 1170 114.611 587.02 454.854
398 0 83.2881 12.7629 1063 117.494 586.364 452.964
399 0 87.4111 18.087 1581 109.751 585.347 453.258
400 0 89.2218 14.01 1250 116.136 585.233 449.508
401 1 47.2782 12.2678 580 113.679 585.021 471.472
402 0 47.0884 11.0855 522 115.51 584.423 468.904
403 0 50.1316 13.0058 652 110.232 582.443 470.632
404 0 54.0724 14.684 794 106.429 582.987 468.709
405 0 52.0978 14.8375 773 108.895 582.41 464.925
406 0 54.0338 15.4718 836 107.598 581.164 464.102
407 0 56.1493 12.7161 714 110.846 578.961 465.146
408 0 59.2435 12.2883 728 112.857 578.258 461.141
409 0 61.1452 18.0881 1106 105.588 579.403 458.351
410 0 61.2137 13.9511 854 112.203 578.187 455.58
411 0 62.311 12.4858 778 116.267 578.509 451.748
412 0 67.0952 16.171 1085 107.521 578.643 458.947
413 0 70.2523 14.875 1045 112.225 578.236 451.457
414 0 71.2069 15.0968 1075 112.522 578.801 452.694
415 0 71.1406 12.5948 896 118.392 579.547 450.262
416 0 75.2457 14.4327 1086 116.673 580.168 448.719
417 0 76.1276 14.5151 1105 119.379 580.499 444.825
418 0 79.2214 16.1446 1279 116.509 580.98 444.185
419 0 84.2461 13.7811 1161 120.431 582.151 443.216
420 0 83.1578 12.6266 1050 124.691 583.713 438.909
421 0 87.3664 17.1576 1499 118.083 584.091 436.993
422 1 49.1423 12.3722 608 120.65 584.459 458.845
423 0 51.0656 12.3371 630 122.506 584.475 455.321
424 0 54.1289 12.655 685 117.702 585.984 454.984
425 0 53.0665 14.284 758 116.187 587.724 456.935
426 0 56.1082 12.2086 685 117.523 587.511 458.096
427 0 57.0931 13.0489 745 114.952 587.521 459.878
428 0 63.2135 22.6217 1430 99.6888 588.535 460.696
429 0 61.3545 12.9412 794 113.987 589.244 459.787
430 0 63.1362 14.445 912 111.558 590.809 458.515
431 0 68.1624 13.7319 936 111.984 589.958 456.47
432 0 68.0912 13.1148 893 112.655 590.415 458.82
433 0 70.2028 11.7659 826 115.483 590.654 456.436
434 0 73.0694 13.5625 991 112.245 590.726 456.595
435 0 75.2115 12.0593 907 113.097 590.408 459.302
436 0 79.2915 15.1466 1201 110.621 589.943 452.505
437 0 81.1944 11.7865 957 114.473 588.636 457.507
438 0 84.2042 14.358 1209 111.864 588.444 453.493
439 0 87.223 16.9909 1482 108.812 586.974 452.854
440 0 90.141 15.509 1398 111.387 586.719 448.357
441 0 92.1529 13.3148 1227 115.13 585.555 448.156
442 0 94.2621 11.903 1122 117.274 585.455 447.356
443 0 97.4922 10.5547 1029 118.501 585.058 449.007
444 0 102.553 14.3828 1475 114.937 584.531 439.516
445 0 105.254 14.7928 1557 116.914 583.552 437.783
446 0 107.378 12.3303 1324 121.586 583.798 436.903
447 0 113.322 13.5631 1537 118.418 583.992 437.348
448 1 60.2975 10.6306 641 117.014 582.74 465.106
449 0 62.2806 12.54 781 116.082 581.942 458.846
450 0 64.1897 15.4542 992 115.744 580.158 457.38
451 0 70.1716 14.9348 1048 114.957 580.891 455.809
452 0 70.1716 14.9918 1052 128.588 581.894 455.735
453 0 75.2071 17.2856 1300 112.027 579.659 451.359
454 0 75.1456 13.068 982 119.161 579.095 451.613
455 0 80.3801 14.3195 1151 115.997 578.8 447.001
456 0 82.1479 13.0375 1071 116.892 578.973 447.991
457 0 86.2682 16.24 1401 112.278 579.234 443.319
458 0 88.3485 13.3562 1180 117.916 579.717 440.663
459 0 91.2367 16.0133 1461 114.362 579.435 438.172
460 0 93.6845 12.1258 1136 120.083 580.708 439.251
461 1 49.0799 14.9552 734 111.828 583.467 460.36
462 0 51.1762 14.9093 763 113.414 583.507 456.562
463 0 52.0854 16.7225 871 110.67 583.375 457.568
464 0 53.2296 13.8645 738 112.092 581.806 458.171
465 0 53.2432 9.31574 496 117.706 581.258 461.169
466 0 56.2311 11.4883 646 116.215 583.266 457.031
467 0 57.0632 11.9692 683 114.799 582.96 459.486
468 0 60.4155 13.3079 804 114.294 583.325 457.041
469 0 61.3312 14.169 869 112.245 584.205 460.033
470 0 64.1685 13.2775 852 115.065 585.095 457.183
471 0 66.3689 14.2537 946 114.543 585.243 454.351
472 0 68.2376 14.4055 983 113.191 585.411 460.801
473 0 72.2516 14.0758 1017 114.251 585.605 460.141
474 0 74.2054 12.4789 926 117.914 585.827 459.204
475 0 75.3176 13.37 1007 117.725 585.426 457.576
476 0 77.3023 15.6658 1211 113.617 585.441 460.642
477 0 81.1954 14.7422 1197 116.554 584.842 458.322
478 0 85.2179 14.4805 1234 116.869 584.657 459.757
479 0 84.1248 12.743 1072 120.359 583.986 460.101
480 1 43.1323 14.7453 636 112.623 582.533 478.909
481 0 45.3086 11.2341 509 116.301 584.057 481.385
482 0 47.3313 10.2681 486 117.479 584.558 478.393
483 0 48.1132 14.9855 721 110.456 583.516 478.617
484 0 49.1605 12.9169 635 120.261 583.723 476.625
485 0 51.097 13.8756 709 117.319 581.309 478.233
486 0 53.13 15.0009 797 115.427 581.398 478.059
487 0 55.2396 12.3643 683 120.615 581.177 476.756
488 0 57.0562 16.1244 920 109.68 580.186 481.068
489 0 57.0755 14.5422 830 115.729 579.41 475.107
490 0 59.0923 16.4489 972 113.606 579.371 471.406
491 0 60.0998 16.1232 969 113.567 577.552 470.797
492 0 64.1945 15.0792 968 114.049 577.659 472.404
493 0 65.0707 16.1978 1054 113.949 577.32 466.586
494 0 66.1907 18.764 1242 110.531 575.915 466.255
495 0 69.1223 16.9121 1169 114.46 575.534 462.548
496 0 70.1046 15.6766 1099 116.468 575.969 460.428
497 0 74.1754 15.7599 1169 116.636 575.013 457.684
498 0 78.285 17.564 1375 113.068 575.22 455.831
499 0 79.2309 16.0922 1275 117.494 576.104 452.449
500 0 81.2171 13.9872 1136 120.288 575.969 451.643
501 0 86.2719 16.0655 1386 117.209 576.445 449.848
502 1 44.0639 11.5514 509 119.99 577.401 468.963
503 0 45.0264 10.9491 493 118.899 578.874 469.964
504 0 49.1202 13.9657 686 113.713 577.797 466.866
505 0 50.1676 12.3586 620 115.182 578.861 465.221
506 0 50.1676 12.3785 621 145.359 578.813 465.348
507 0 50.1776 11.6387 584 118.413 579.801 464.478
508 0 54.1172 14.8936 806 109.481 581.653 464.267
509 0 57.1235 13.7247 784 113.346 582.797 460.977
510 0 57.2012 14.4053 824 112.905 582.664 462.143
511 0 58.0991 12.8573 747 115.803 584.236 459.562
512 0 61.2147 13.4935 826 115.07 585.036 457.827
513 0 66.1109 20.9496 1385 103.165 585.722 458.804
514 0 68.1466 18.2694 1245 103.994 585.534 460.729
515 0 70.1472 13.4574 944 110.851 586.016 460.571
516 0 69.1551 14.5036 1003 110.506 584.328 458.994
517 0 73.0984 13.5297 989 111.214 585.143 459.208
518 0 75.1297 16.6379 1250 106.07 584.191 460.596
519 0 75.2151 12.9628 975 113.449 585.097 458.365
520 0 78.2234 15.7881 1235 108.801 581.942 458.435
521 0 78.2278 12.7576 998 113.779 584.355 458.06
522 0 81.1239 12.8939 1046 113.337 584.247 458.246
523 0 86.2929 13.0718 1128 110.782 584.099 459.335
524 0 89.1737 11.5281 1028 113.425 583.083 456.124
525 0 92.2221 12.3398 1138 111.74 582.092 456.467
526 0 100.309 17.1569 1721 104.713 581.632 457.791
527 1 56.1517 11.9676 672 105.388 581.546 476.743
528 0 57.1242 14.8449 848 102.123 581.131 476.144
529 0 57.1242 14.8274 847 119.091 582.152 476.103
530 0 60.2111 16.9238 1019 101.515 580.31 473.654
531 0 61.2474 12.7189 779 108.189 579.641 470.27
532 0 64.228 13.2964 854 105.56 578.541 471.564
533 0 63.1835 14.355 907 106.009 578.525 462.044
534 0 68.2647 13.3158 909 107.645 578.283 466.974
535 0 69.1764 13.7475 951 107.668 576.753 467.161
536 0 72.0671 12.1276 874 109.804 575.117 464.074
537 0 73.39 12.8628 944 107.896 575.002 464.07
538 0 77.2693 10.9487 846 109.881 574.442 458.056
539 0 80.2622 15.8107 1269 103.004 575.2 458.489
540 0 81.3648 13.04 1061 109.391 575.073 452.002
541 0 86.4085 17.5214 1514 100.398 575.406 449.989
542 1 43.0302 13.874 597 104.73 575.727 471.683
543 0 46.0702 14.1089 650 103.935 574.751 472.674
544 0 46.2661 12.3416 571 106.082 576.398 468.566
545 0 46.2661 12.4281 575 123.922 577.384 468.677
546 0 46.2422 12.3696 572 123.589 578.365 468.636
547 0 52.0422 13.2008 687 105.06 579.143 464.418
548 0 53.1634 13.261 705 105.448 578.864 462.82
549 0 53.0747 9.91056 526 109.3 579.403 461.15
550 0 56.2529 15.1637 853 102.118 580.64 458.027
551 0 58.1348 15.7737 917 100.634 580.448 462.207
552 0 57.1215 15.8259 904 104.947 581.439 462.21
553 0 61.2434 11.0216 675 106.207 580.967 461.49
554 0 62.065 10.8596 674 106.663 581.981 460.877
555 0 66.3038 18.3398 1216 98.3643 581.882 456.747
556 0 66.2225 13.0167 862 105.91 583.333 453.536
557 0 70.3042 12.0619 848 107.261 584.522 455.81
558 0 72.2589 13.936 1007 104.799 584.289 452.264
559 0 75.3375 16.8309 1268 101.905 584.308 452.267
560 0 77.3401 14.4427 1117 105.368 585.555 456.047
561 0 81.2789 17.9874 1462 100.507 584.652 453.595
562 0 84.2477 13.0924 1103 107.108 585.72 452.495
563 1 45.034 11.5024 518 105.6 585.878 475.216
564 0 41.1002 9.1727 377 111.695 585.737 475.631
565 0 47.2493 14.032 663 101.839 583.863 473.394
566 0 42.187 11.1883 472 103.561 583.163 472.964
567 0 44.0491 13.6439 601 99.203 583.774 474.691
568 0 46.0763 10.2656 473 105.192 583.338 469.319
569 0 48.0812 9.27597 446 105.534 582.87 470.987
570 0 47.1555 12.0453 568 103.447 581.66 470.447
571 0 51.1389 9.71862 497 105.96 581.219 467.885
572 0 53.3134 12.1358 647 108.552 579.331 474.952
573 0 58.3398 13.9013 811 105.02 577.777 472.924
574 0 58.3398 13.7299 801 128.589 576.76 472.903
575 0 59.5304 11.2884 672 110.022 576.601 470.665
576 0 62.5016 13.3277 833 107.789 576.174 470.108
577 0 65.4129 13.3154 871 106.99 575.481 467.877
578 0 69.2296 15.0514 1042 105.064 575.535 464.316
579 0 69.4309 12.9481 899 107.571 575.158 466.168
580 0 71.2699 11.2811 804 112.688 574.637 463.859
581 0 77.246 13.5282 1045 109.209 575.3 459.647
582 0 83.4464 16.5136 1378 103.419 575.049 457.231
583 1 40.1543 10.6589 428 107.888 573.498 476.491
584 0 41.1757 14.9117 614 102.336 573.604 473.974
585 0 45.0392 18.4284 830 95.4964 574.278 470.277
586 0 42.1155 11.7059 493 104.836 575.195 474.304
587 0 45.0458 10.4782 472 107.157 576.237 469.129
588 0 46.1258 13.7017 632 103.392 576.79 467.525
589 0 46.1158 13.2926 613 105.339 576.589 466.279
590 0 50.3714 17.9467 904 97.7766 576.549 467.779
591 0 49.1381 12.6582 622 106.207 578.146 464.542
592 0 50.1018 9.56054 479 110.476 578.207 465.161
593 0 53.2172 15.8595 844 102.219 579.25 461.332
594 0 54.2075 13.9649 757 106.218 579.244 461.91
595 0 54.2038 13.0249 706 108.316 579.659 460.157
596 0 59.1868 14.6823 869 104.979 581.06 461.937
597 0 61.1215 18.226 1114 100.186 581.233 459.526
598 0 62.1562 10.5058 653 110.086 581.628 462.054
599 0 62.1375 12.0861 751 108.792 582.081 459.788
600 0 65.3645 13.9831 914 106.312 582.138 456.034
601 0 69.3578 13.005 902 106.884 582.364 454.896
602 0 71.197 16.8547 1200 102.202 582.691 457.329
603 0 74.2952 14.2001 1055 105.315 583.142 459.361
604 0 76.2405 12.9196 985 108.236 583.46 453.997
605 0 78.5305 12.7466 1001 108.742 583.309 459.181
606 1 42.1411 11.0818 467 105.418 582.713 475.009
607 0 43.1801 13.8721 599 103.164 585.611 473.87
608 0 43.0468 9.68712 417 107.494 582.237 481.309
609 0 45.1637 16.4513 743 99.1925 582.413 478.678
610 0 45.1637 16.5177 746 118.59 581.43 478.692
611 0 47.3565 14.2536 675 103.517 581.858 477.073
612 0 49.1745 13.6046 669 105.018 581.422 476.559
613 0 50.1939 13.8463 695 104.237 581.606 476.636
614 0 53.2273 13.8839 739 103.877 580.455 476.162
615 0 54.1619 12.9427 701 107.1 580.358 474.528
616 0 56.2633 12.2282 688 108.392 578.538 473.315
617 0 57.4874 14.5597 837 104.969 578.295 471.104
618 0 60.246 14.1752 854 105.275 578.321 471.342
619 0 63.2357 12.7934 809 107.504 577.358 466.576
620 0 63.2589 12.5358 793 109.266 575.429 466.831
621 0 67.0905 13.2657 890 111.025 578.002 464.785
622 0 71.0996 14.2054 1010 110.434 576.703 463.158
623 0 71.0907 13.2085 939 112.806 577.133 459.488
624 0 74.4044 13.1713 980 111.936 577.389 459.827
625 0 79.334 14.7478 1170 109.399 576.414 458.45
626 0 78.1107 10.7028 836 115.311 576.566 456.518
627 1 38.0715 15.1557 577 104.87 576.513 472.667
628 0 39.1259 13.8272 541 106.333 577.068 471.292
629 0 42.2748 14.6896 621 102.353 577.974 470.807
630 0 41.3122 10.8443 448 111.473 577.574 464.991
631 0 46.2391 14.2953 661 104.057 578.218 466.224
632 0 48.0217 15.1806 729 105.258 577.388 467.008
633 0 48.0949 13.6397 656 106.854 579.585 466.913
634 0 49.1711 10.738 528 112.619 580.076 463.347
635 0 52.0859 15.0713 785 106 580.489 464.238
636 0 51.1691 11.2959 578 110.953 580.73 466.73
637 0 53.4892 13.4793 721 109.893 581.214 463.438
638 0 57.2073 15.7497 901 106.18 581.341 460.905
639 0 58.1062 15.0586 875 107.485 582.035 461.339
640 0 59.1401 14.3219 847 108.557 583.052 460.929
641 0 63.3453 17.0652 1081 104.366 583.9 458.216
642 0 64.3636 15.0706 970 106.756 584.206 456.245
643 0 64.3005 13.779 886 108.306 585.462 463.359
644 0 66.2883 11.9025 789 112.25 585.786 459.207
645 0 67.5497 11.251 760 112.45 585.984 463.2
646 0 70.2334 13.5263 950 109.883 584.963 460.265
647 0 75.2457 13.2233 995 110.569 585.194 456.798
648 0 75.4044 10.8482 818 113.846 583.63 459.622
649 0 81.6725 15.8683 1296 105.543 584.419 451.961
650 0 82.3903 13.8123 1138 108.351 583.756 459.698
651 0 85.725 15.1764 1301 106.763 583.915 457.601
652 1 45.7255 10.3662 474 113.485 582.487 475.08
653 0 48.5907 13.9944 680 106.562 583.476 471.401
654 0 52.5714 12.0788 635 110.52 582.162 473.946
655 0 52.4184 13.5639 711 110.201 583.637 475.172
656 0 56.5315 13.4084 758 109.094 582.685 476.058
657 0 55.3734 13.6528 756 110.979 581.286 473.003
658 0 57.3392 14.6322 839 110.573 580.884 469.84
659 0 60.3856 14.8877 899 110.048 578.769 471.256
660 0 58.5497 15.2691 894 112.387 579.273 467.22
661 0 63.4181 12.5201 794 116.024 578.248 468.626
662 0 63.5222 13.0663 830 117.21 577.722 466.328
663 0 62.4676 11.1098 694 122.474 577.53 462.137
664 0 69.4492 12.8871 895 117.739 576.623 461.088
665 0 71.4143 14.6189 1044 115.388 576.273 458.854
666 0 73.4226 16.3438 1200 111.052 577 459.722
667 0 75.3054 16.0281 1207 111.811 575.988 458.945
668 1 42.1225 13.437 566 110.966 575.562 473.915
669 0 45.0967 14.5022 654 110.206 575.758 470.69
670 0 44.0556 11.1904 493 116.314 575.635 471.519
671 0 45.0829 14.4179 650 112.355 575.718 468.678
672 0 52.7767 15.8593 837 106.213 575.2 463.8
673 0 48.2267 12.4412 600 115.295 575.077 456.105
674 0 50.2888 14.0389 706 115.031 576.518 463.749
675 0 50.1132 14.3475 719 116.435 575.866 461.263
676 0 52.1811 12.974 677 120.035 577.214 461.001
677 0 54.1801 13.8243 749 117.505 577.86 462.896
678 0 56.1918 14.3437 806 117.624 578.773 458.534
679 0 56.2162 13.7861 775 119.724 579.11 459.684
680 0 59.1362 15.1684 897 115.536 580.328 461.032
681 0 59.2607 12.7572 756 121.753 579.501 457.505
682 0 63.1473 14.9808 946 116.66 580.109 457.023
683 0 63.147 15.0284 949 117.391 581.935 455.479
684 0 67.1755 13.4722 905 119.916 581.99 456.663
685 0 69.097 13.3436 922 117.956 582.17 456.751
686 0 71.3837 12.9721 926 120.124 581.578 453.623
687 0 74.1417 17.0754 1266 112.473 583.135 452.295
688 0 77.1584 17.315 1336 111.351 583.347 451.707
689 0 79.2634 12.7045 1007 117.965 582.811 450.362
690 0 81.1952 14.188 1152 114.562 583.753 454.278
691 1 43.3742 10.2826 446 111.518 583.641 467.8
692 0 45.5328 10.1465 462 111.859 583.703 469.331
693 0 48.3932 11.6132 562 109.386 583.925 470.139
694 0 48.1462 12.1505 585 110.053 582.918 467.099
695 0 49.2045 10.0804 496 105.438 583.786 474.732
696 0 52.2281 12.5028 653 103.79 582.89 472.473
697 0 53.1122 10.4119 553 106.362 583.776 473.924
698 0 55.067 14.3825 792 101.346 583.018 473.052
699 0 55.1886 10.5275 581 108.243 581.833 471.589
700 0 59.2034 11.0129 652 107.512 580.946 469.706
701 0 59.0982 10.914 645 108.451 579.814 466.907
702 0 62.0765 11.067 687 107.581 578.811 470.144
703 0 63.1083 10.585 668 109.343 578.758 467.451
704 0 66.1274 12.5969 833 107.503 578.508 463.947
705 0 67.1836 10.4936 705 110.906 577.416 461.834
706 0 69.2296 10.1979 706 111.147 577.309 460.542
707 0 74.2811 13.3681 993 105.269 576.73 461.411
708 0 76.5228 15.8646 1214 101.848 578.171 457.293
709 0 80.342 13.791 1108 104.187 576.198 456.402
710 0 83.1657 11.7597 978 106.268 576.244 458.242
711 1 44.1447 11.7341 518 105.932 575.849 472.43
712 0 43.1752 10.0057 432 107.102 573.407 471.778
713 0 47.1003 13.5668 639 107.427 574.484 471.535
714 0 47.0374 13.8401 651 106.862 573.937 471.049
715 0 47.1508 12.5555 592 109.564 574.834 469.478
716 0 50.0714 12.0029 601 108.636 575.138 469.852
717 0 49.155 13.8541 681 104.348 576.151 465.395
718 0 53.3782 11.1656 596 103.356 575.968 464.904
719 0 54.1852 13.5461 734 100.647 577.03 466.467
720 0 55.3221 13.1955 730 102.325 577.985 464.553
721 0 57.1444 15.0846 862 102.284 578.287 463.249
722 0 58.1494 10.8342 630 109.156 578.119 458.586
723 0 64.2072 14.9672 961 102.548 580.14 461.285
724 0 63.2358 13.8213 874 105.695 580.007 457.423
725 0 65.1304 15.6609 1020 104.342 580.405 456.816
726 0 67.1844 13.4555 904 107.425 580.389 458.352
727 0 70.198 14.0887 989 106.589 581.945 458.245
728 0 69.3328 11.4376 793 111.784 582.309 453.981
729 0 76.2644 13.8203 1054 107.296 582.772 454.184
730 0 80.2114 15.883 1274 103.075 584.474 457.913
731 0 82.3472 13.9167 1146 105.961 584.211 458.398
732 1 43.132 10.6186 458 107.384 585.485 477.55
733 0 44.1673 13.4942 596 104.384 584.673 474.631
734 0 47.1208 11.0142 519 106.863 583.917 477.197
735 0 44.1859 12.04 532 107.32 584.56 476.086
736 0 47.1385 10.9465 516 107.233 584.279 478.659
737 0 50.1 13.0339 653 104.56 584.75 477.688
738 0 49.185 9.53542 469 109.77 580.277 475.851
739 0 51.4895 9.9632 513 107.433 581.24 475.994
740 0 52.1928 13.6226 711 104.117 580.729 473.388
741 0 53.1568 13.526 719 104.189 580.127 477.641
742 0 51.128 8.89924 455 110.725 579.453 471.708
743 0 55.1378 12.4053 684 108.219 579.069 472.879
744 0 60.3168 15.6673 945 101.668 579.269 473.581
745 0 60.2249 12.5696 757 106.571 578.111 470.09
746 0 62.1554 16.5231 1027 101.684 578.01 470.13
747 0 66.2094 16.4478 1089 99.5647 577.224 470.459
748 0 67.2716 13.3043 895 103.584 576.697 470.323
749 0 71.3211 18.7742 1339 98.6348 577.201 461.568
750 0 70.1677 15.1494 1063 105.167 577.079 459.587
751 0 75.3151 12.7597 961 107.73 576.982 460.399
752 0 76.45 15.0425 1150 103.237 576.784 460.341
753 0 80.6268 13.085 1055 106.113 576.239 456.878
754 0 82.4902 15.1048 1246 104.915 576.579 448.377
755 0 85.4243 19.0227 1625 99.6043 576.566 453.627
756 0 85.3899 10.6453 909 111.034 577.069 451.926
757 1 51.2658 13.1277 673 105.212 578.006 469.342
758 0 49.0945 10.6122 521 110.374 578.797 467.37
759 0 54.2346 11.69 634 112.703 577.899 464.511
760 0 53.1135 13.3111 707 110.512 578.533 466.864
761 0 58.1123 17.0016 988 106.16 579.508 460.214
762 0 59.1128 13.7195 811 111.499 580.226 460.702
763 0 59.1705 11.9823 709 111.231 578.578 459.821
764 0 60.1342 13.7692 828 109.391 579.581 457.856
765 0 62.236 13.8505 862 107.889 579.574 462.063
766 0 66.1584 16.3547 1082 103.238 579.169 462.414
767 0 68.1993 12.2875 838 111.951 580.149 455.891
768 0 71.2396 12.7878 911 110.426 581.408 454.836
769 0 75.1287 12.2856 923 110.88 581.515 452.368
770 0 77.4316 15.123 1171 107.98 581.741 450.298
771 0 80.3285 15.7852 1268 106.558 582.721 453.314
772 0 80.3285 15.6731 1259 125.416 583.718 453.255
773 1 44.0266 12.6514 557 108.487 581.77 469.731
774 0 44.1859 11.7458 519 105.975 583.96 465.815
775 0 46.2664 11.2609 521 102.825 585.614 467.708
776 0 46.1649 10.5058 485 104.148 584.761 470.272
777 0 49.0942 13.912 683 98.8638 584.842 471.394
778 0 50.1476 12.7823 641 100.986 584.507 470.134
779 0 54.1241 17.0903 925 99.8562 585.103 472.315
780 0 54.0645 13.9833 756 104.221 585.003 471.967
781 0 53.0583 13.438 713 107.557 583.76 471.449
782 0 55.0825 13.6704 753 106.85 583.667 470.005
783 0 53.0724 9.74142 517 113.884 584.845 474.462
784 0 58.1174 14.8148 861 106.7 582.525 471.613
785 0 62.2322 18.431 1147 100.832 582.372 470.178
786 0 62.1246 12.9417 804 108.252 582.478 472.461
787 0 62.1375 13.1 814 110.017 581.367 468.348
788 0 68.3321 13.9027 950 106.721 581.381 469.167
789 0 67.2335 14.2935 961 107.271 579.962 466.948
790 0 71.366 19.5611 1396 100.458 579.057 460.448
791 0 74.2148 15.0644 1118 106.895 579.394 460.268
792 0 75.2222 14.065 1058 108.512 579.868 458.322
793 0 78.128 17.8937 1398 103.635 578.329 451.811
794 0 81.2273 11.3139 919 113.344 578.994 456.053
795 0 83.4735 14.7831 1234 109.062 578.339 450.985
796 0 86.1343 13.7576 1185 111.091 577.828 450.427
797 1 42.0497 10.3925 437 116.751 578.924 469.428
798 0 45.0373 11.7902 531 116.441 579.2 466.154
799 0 47.088 12.7421 600 114.788 579.398 466.475
800 0 51.0278 14.012 715 110.232 580.968 466.81
801 0 53.1159 14.0824 748 106.693 577.999 464.463
802 0 53.0816 11.4352 607 108.585 580.25 465.784
803 0 55.165 14.7739 815 102.281 579.848 467.185
804 0 56.0474 11.5438 647 108.638 580.02 463.032
805 0 59.113 12.1293 717 107.487 580.721 459.939
806 0 62.1849 11.1763 695 108.577 581.308 460.406
807 0 62.069 15.8694 985 102.949 581.584 458.113
808 0 68.1264 10.5246 717 106.936 581.838 461.731
809 0 66.2828 13.7743 913 106.455 583.088 453.932
810 0 69.4682 15.2012 1056 105.15 584.156 451.759
811 0 69.4584 15.2177 1057 122.451 585.23 451.848
812 0 72.3259 13.6604 988 107.247 585.167 453.631
813 0 72.3259 13.5498 980 125.751 585.152 453.724
814 0 78.2428 14.4678 1132 106.99 584.942 454.201
815 0 80.6676 14.0949 1137 108.456 585.118 451.951
816 1 41.0895 12.6066 518 111.232 584.514 468.299
817 0 39.1573 13.5096 529 110.021 585.987 468.94
818 0 41.1857 12.7229 524 114.649 585.097 466.763
819 0 43.0455 11.0813 477 115.34 585.256 470.74
820 0 45.1825 11.5089 520 118.287 584.985 474.937
821 0 49.2348 16.2283 799 108.209 584.233 476.573
822 0 49.2087 11.9491 588 116.98 584.563 475.145
823 0 48.1826 11.4149 550 121.4 584.402 473.804
824 0 51.265 12.6597 649 119.914 583.656 471.305
825 0 51.1428 12.905 660 120.026 583.6 473.065
826 0 55.3349 15.1442 838 117.14 582.618 470.95
827 0 59.4144 13.3469 793 119.185 583.121 468.056
828 0 59.4204 18.3102 1088 111.659 582.315 466.142
829 0 61.3568 15.8255 971 116.323 580.838 465.031
830 0 63.4273 13.8426 878 119.383 580.166 462.793
831 0 64.428 13.5655 874 120.119 580.082 461.839
832 0 68.5504 16.3529 1121 114.842 580.002 462.97
833 0 71.5369 14.4121 1031 118.248 579.523 461.296
834 0 70.2319 15.7905 1109 116.546 578.556 460.379
835 0 75.4601 14.1267 1066 117.275 579.389 460.645
836 0 79.5298 14.1456 1125 117.178 578.308 456.673
837 0 80.7253 13.6265 1100 117.613 577.925 455.995
838 0 83.7306 13.424 1124 118.809 577.281 452.716
839 1 44.3608 13.7283 609 109.015 576.043 472.22
840 0 47.0348 11.9911 564 111.31 577.025 471.349
841 0 49.1082 14.1524 695 109.388 576.176 467.63
842 0 49.3597 12.2772 606 111.708 577.814 468.304
843 0 51.209 14.2944 732 109.967 578.118 463.279
844 0 55.2093 12.7152 702 109.113 578.134 467.105
845 0 55.2043 14.2561 787 108.313 579.539 464.597
846 0 56.2091 12.5247 704 110.78 579.5 462.372
847 0 55.3211 12.075 668 113.454 580.19 461.235
848 0 60.0214 13.8284 830 110.807 580.826 457.261
849 0 62.2216 14.9948 933 108.758 580.969 458.031
850 0 62.0734 11.1803 694 115.311 582.111 458.026
851 0 66.0792 12.8331 848 114.048 583.099 452.936
852 0 66.0593 13.3971 885 114.379 582.98 453.314
853 0 73.1783 15.0728 1103 111.129 584.448 451.381
854 0 74.1095 13.3586 990 114.042 584.721 454.899
855 0 74.284 13.3138 989 114.464 584.935 455.445
856 0 79.1179 17.5687 1390 107.59 584.325 452.131
857 0 83.1535 14.347 1193 114.186 585.56 453.163
858 0 81.1683 14.1681 1150 116.939 584.972 449.137
859 0 88.1995 15.2042 1341 113.381 586.524 451.971
860 0 89.291 16.9894 1517 111.515 585.856 452.25
861 0 93.3471 15.1478 1414 114.788 586.815 451.731
862 0 93.1609 12.9883 1210 119.932 586.485 450.64
863 0 96.2637 14.2214 1369 117.018 585.124 449.568
864 1 50.0774 12.92 647 117.847 587.247 468.085
865 0 55.4158 14.8153 821 111.996 586.196 470.015
866 0 53.2366 12.1533 647 119.38 585.739 468.264
867 0 55.2512 16.7417 925 110.711 585.511 468.638
868 0 55.1793 12.9578 715 118.027 584.277 468.243
869 0 59.2031 13.9351 825 116.244 584.216 468.655
870 0 59.2363 16.0712 952 112.54 584.165 471.056
871 0 62.1533 13.3058 827 117.626 583.611 470.734
872 0 63.1196 15.637 987 114.526 582.721 465.645
873 0 64.1342 13.9395 894 119.21 582.022 466.487
874 0 66.1492 14.5127 960 118.724 581.421 464.205
875 0 69.338 14.7827 1025 118.373 581.067 461.563
876 0 70.2992 14.3245 1007 120.707 580.482 461.305
877 0 73.1898 12.7887 936 123.631 580.138 460.994
878 0 76.3724 13.8532 1058 121.478 579.327 455.486
879 0 79.2715 14.4945 1149 120.855 580.219 455.145
880 0 83.3977 16.9909 1417 113.877 579.76 451.511
881 0 84.4248 13.74 1160 120.325 580.241 452.475
882 0 89.2434 15.3177 1367 116.004 579.418 453.159
883 0 88.3045 12.7513 1126 121.674 578.988 448.049
884 0 94.2462 14.0377 1323 119.692 578.849 447.285
885 0 97.2351 14.2438 1385 118.926 579.394 442.339
886 1 48.1756 9.29932 448 126.304 580.092 463.482
887 0 55.088 12.235 674 118.272 580.332 464.479
888 0 53.1189 11.992 637 122.137 579.397 462.631
889 0 55.0966 14.6652 808 118.035 580.406 464.65
890 0 56.0876 13.6929 768 122.266 581.819 456.97
891 0 60.0737 13.2338 795 117.43 582.452 458.312
892 0 63.0805 14.315 903 117.77 582.317 454.715
893 0 62.0342 13.5409 840 118.66 583.855 458.002
894 0 64.1995 13.3802 859 120.184 583.246 452.851
895 0 69.1649 13.6196 942 117.936 584.52 456.69
896 0 71.088 14.7704 1050 117.258 585.03 453.253
897 0 72.2554 16.76 1211 113.904 585.2 455.483
898 0 76.1261 12.9785 988 119.859 585.092 454.93
899 0 76.1192 13.3869 1019 119.215 586.064 455.386
900 0 78.2465 12.5117 979 121.764 586.642 451.081
901 0 83.2274 14.5265 1209 116.256 587.335 448.684
902 0 85.2004 15.1995 1295 116.075 587.201 451.339
903 0 88.2908 15.936 1407 113.844 587.903 451.745
904 0 92.204 12.8086 1181 119.794 586.931 449.257
905 1 49.1098 9.8351 483 122.253 587.53 470.201
906 0 51.0374 13.6958 699 114.886 588.136 469.991
907 0 47.0828 8.38947 395 119.696 587.205 467.456
908 0 50.1193 18.6754 936 99.3355 584.504 466.718
909 0 49.0981 9.22643 453 113.241 584.378 464.428
910 0 54.0981 13.8083 747 106.738 584.367 465.764
911 0 54.0803 7.02659 380 121.095 583.734 474.005
912 0 60.1432 13.3348 802 111.774 583.019 467.278
913 0 62.1923 12.3809 770 112.025 581.522 470.022
914 0 64.1775 13.4315 862 111.327 580.617 469.615
915 0 70.2197 14.6113 1026 108.115 580.244 464.495
916 0 71.2272 14.1378 1007 110.163 578.825 463.235
917 0 74.1771 12.4567 924 112.184 578.521 467.94
918 0 72.1886 11.9132 860 115.828 578.858 466.613
919 0 75.3306 13.235 997 115.192 578.083 459.471
920 0 78.2746 12.5711 984 115.907 577.203 459.196
921 1 41.1206 10.5543 434 117.935 575.286 475.419
922 0 46.1204 13.5732 626 111.139 575.947 473.118
923 0 44.2202 11.1261 492 114.272 575.234 473.289
924 0 48.2457 14.0945 680 108.697 576.041 470.45
925 0 48.2559 13.0554 630 110.821 575.943 469.324
926 0 50.1315 13.305 667 109.667 576.411 468.345
927 0 52.1759 11.3846 594 111.71 575.429 469.581
928 0 54.2336 15.6176 847 104.476 576.392 459.374
929 0 55.1361 10.7371 592 114.147 577.341 462.137
930 0 55.1361 10.6464 587 127.559 578.324 462.409
931 0 57.1697 12.9789 742 109.154 577.093 463.357
932 0 60.1309 14.3853 865 106.692 578.417 461.015
933 0 59.1369 11.1775 661 113.389 578.303 458.43
934 0 62.1764 14.3463 892 108.337 579.175 456.725
935 0 64.1174 12.1496 779 110.793 579.647 453.04
936 0 63.069 13.6359 860 109.083 581.117 454.721
937 0 68.2232 13.8369 944 108.48 581.461 451.819
938 0 71.2398 15.9602 1137 104.44 581.71 451.498
939 0 73.0831 13.8609 1013 108.58 582.101 448.934
940 0 76.2761 15.0113 1145 105.818 581.748 447.794
941 1 39.0343 11.3746 444 108.743 581.079 469.311
942 0 41.1107 11.2866 464 109.741 581.302 468.929
943 0 43.0815 14.8324 639 104.782 581.457 466.521
944 0 44.1583 14.7877 653 103.657 583.397 470.291
945 0 44.153 11.6187 513 104.869 583.275 469.086
946 0 46.2104 13.6549 631 101.122 583.471 469.441
947 0 49.4324 11.3893 563 101.472 583.424 470.97
948 0 49.4324 11.2477 556 107.597 583.453 470.989
949 0 50.4757 10.4011 525 104.019 584.463 466.587
950 0 53.2412 12.6969 676 100.92 584.901 469.756
951 0 53.4198 12.617 674 101.251 584.174 470.638
952 0 55.2336 11.9311 659 102.504 584.206 468.604
953 0 54.278 9.8751 536 105.66 584.144 470.955
954 0 56.3911 12.3601 697 103.242 583.509 469.459
955 0 61.3735 11.373 698 103.284 582.888 470.861
956 0 60.3089 7.80979 471 107.361 582.157 472.234
957 0 66.6356 12.2157 814 102.273 581.961 467.216
958 0 66.3661 12.2201 811 102.948 581.261 464.154
959 0 66.4444 12.597 837 102.57 579.957 464.09
960 0 68.2628 10.2252 698 105.466 580.05 466.083
961 0 72.3665 12.6025 912 102.821 579.402 458.341
962 0 71.301 10.659 760 107.363 579.928 456.501
963 0 74.4464 10.5714 787 107.814 579.305 453.601
964 0 78.3792 13.4092 1051 103.471 578.889 449.872
965 0 77.3126 6.82942 528 109.5 577.799 458.112
966 1 42.1701 11.0505 466 103.33 576.438 473.045
967 0 43.4807 12.2583 533 99.0919 577.375 470.767
968 0 41.2353 7.59059 313 107.687 576.15 475.144
969 0 43.2351 9.85311 426 105.805 575.81 473.117
970 0 46.4516 11.1945 520 102.754 576.158 473.012
971 0 49.3216 10.8675 536 101.761 576.44 469.849
972 0 51.4623 14.36 739 97.3938 577.405 469.317
973 0 52.226 15.184 793 97.6822 576.776 466.566
974 0 50.2947 11.0151 554 104.108 577.13 468.119
975 0 55.2399 16.8357 930 97.028 577.394 463.86
976 0 56.294 14.9217 840 99.3131 578.48 462.654
977 0 55.5102 13.9974 777 102.557 578.839 459.647
978 0 56.1565 13.6048 764 104.134 579.586 458.874
979 0 60.2982 14.362 866 102.042 579.779 455.241
980 0 59.4889 12.0527 717 105.382 580.526 453.905
981 0 64.3375 15.0146 966 102.384 581.949 453.334
982 0 67.3491 14.9074 1004 100.795 581.694 452.092
983 0 67.3942 12.8498 866 105.318 582.559 454.462
984 0 71.3522 15.2203 1086 100.368 583.216 456.394
985 0 71.377 13.7019 978 103.222 584.392 456.207
986 0 75.251 11.7739 886 105.703 584.412 445.441
987 0 75.211 9.121 686 110.242 584.552 444.965
988 0 80.3382 17.8247 1432 100.179 584.024 448.34
989 0 79.3156 13.5408 1074 124.282 584.315 444.246
990 0 86.1803 15.5024 1336 101.171 584.12 444.114
991 0 88.4764 15.6652 1386 97.6717 585.128 443.947
992 0 88.6296 10.8767 964 102.855 585.236 436.73
993 0 93.7256 11.7257 1099 104.609 584.75 448.342
994 0 99.281 19.1174 1898 95.5975 584.902 439.438
995 1 50.3359 11.9 599 104.381 584.716 462.397
996 0 55.2341 16.6926 922 98.5054 585.615 459.433
997 0 54.132 13.7627 745 110.788 584.89 469.503
998 0 58.3154 12.3981 723 106.055 583.704 473.19
999 0 56.1379 11.9883 673 109.498 583.054 466.523
1000 0 60.2205 12.4376 749 108.131 582.335 471.096
1001 0 63.1014 12.7572 805 108.806 581.995 467.271
1002 0 68.2497 14.066 960 106.688 580.598 467.896
1003 0 69.4954 11.6842 812 110.095 579.771 466.324
1004 0 69.5866 12.2294 851 110.357 580.128 462.19
1005 0 73.5915 16.1703 1190 106.04 579.287 463.129
1006 0 73.5138 10.9367 804 115.019 579.627 459.469
1007 0 77.4859 13.8219 1071 110.68 578.603 458.467
1008 0 77.4859 13.8993 1077 134.164 577.603 458.474
1009 0 81.9642 13.4815 1105 110.327 578.457 455.781
1010 0 83.9179 13.0842 1098 112.192 578.137 450.365
1011 0 85.2691 14.5187 1238 111.071 578.156 448.341
1012 0 86.6682 13.8344 1199 112.063 577.923 450.499
1013 0 91.6145 16.2092 1485 109.217 577.818 445.708
1014 0 94.6865 14.8807 1409 111.563 577.314 439.146
1015 1 50.4585 12.5846 635 112.838 571.113 462.499
1016 0 51.4622 13.1941 679 109.887 572.954 458.599
1017 0 52.0814 13.9397 726 114.05 579.066 454.624
1018 0 55.3955 12.3476 684 117.485 579.019 457.405
1019 0 54.1189 16.2235 878 109.99 578.352 457.372
1020 0 55.1028 19.2912 1063 106.598 578.344 455.989
1021 0 56.1951 12.1185 681 118.927 578.502 453.441
1022 0 57.4574 12.8617 739 117.951 579.23 452.318
1023 0 59.1231 15.4931 916 114.035 580.313 449.424
1024 0 64.2028 12.554 806 118.169 580.506 449.666
1025 0 67.1872 16.4317 1104 111.288 582.651 448.462
1026 0 66.1693 14.4327 955 116.423 582.058 447.459
1027 0 65.3132 11.7434 767 122.389 583.488 449.171
1028 0 70.3082 15.1192 1063 116.222 583.688 447.4
1029 0 73.1876 12.8437 940 119.296 584.189 444.833
1030 0 73.1449 16.5699 1212 114.5 583.55 445.159
1031 0 77.2061 13.1596 1016 121.35 585.11 444.708
1032 0 77.1966 13.0317 1006 148.295 586.133 444.619
1033 0 81.3091 16.4926 1341 116.903 585.782 443.954
1034 0 82.4338 12.6162 1040 122.459 585.417 449.845
1035 0 87.4205 14.3216 1252 121.538 585.944 448.277
1036 1 47.3119 10.8429 513 121.762 583.916 465.589
1037 0 47.1197 13.4126 632 117.821 584.494 470.06
1038 0 53.1683 11.7551 625 115.568 584.758 473.346
1039 0 55.1259 13.9499 769 111.216 584.805 474.687
1040 0 57.1449 14.787 845 109.736 584.407 473.679
1041 0 57.278 10.8419 621 115.968 584.335 474.285
1042 0 60.2269 13.831 833 111.516 583.181 472.491
1043 0 64.1592 13.2951 853 110.151 582.645 470.29
1044 0 68.2173 13.9701 953 107.551 582.331 470.55
1045 0 67.3988 12.8786 868 112.282 581.088 462.589
1046 0 72.2457 13.634 985 109.586 581.529 463.992
1047 0 74.4738 12.9844 967 110.658 579.514 463.588
1048 0 77.2307 15.7191 1214 105.393 579.774 462.959
1049 0 77.3127 10.27 794 115.668 579.44 456.632
1050 0 82.5538 13.894 1147 108.133 577.881 447.806
1051 0 87.5574 15.7725 1381 105.138 579.308 450.334
1052 0 87.6014 15.7988 1384 121.273 581.282 450.356
1053 1 47.2342 11.7288 554 108.505 578.56 467.004
1054 0 47.0663 9.73095 458 112.325 579.181 467.974
1055 0 46.1933 8.09641 374 112.257 578.711 466.767
1056 0 52.0652 13.5791 707 101.235 576.068 468.822
1057 0 50.0923 9.64221 483 112.625 578.267 461.075
1058 0 52.1696 11.9801 625 108.654 576.525 459.414
1059 0 54.1276 11.1403 603 110.526 576.983 459.149
1060 0 56.1573 10.987 617 111.475 577.348 457.31
1061 0 57.1026 11.0328 630 111.749 577.876 456.597
1062 0 58.2126 9.92913 578 111.529 578.687 459.611
1063 0 61.2008 17.1076 1047 103.003 578.386 456.092
1064 0 62.1147 15.3909 956 107.274 579.13 450.536
1065 0 63.2089 15.1561 958 106.396 579.759 453.681
1066 0 64.1319 10.2445 657 113.403 579.837 451.222
1067 0 69.1987 11.9944 830 110.911 579.928 450.846
1068 0 70.1249 11.8646 832 111.337 581.737 449.779
1069 0 74.1445 11.9766 888 111.794 581.239 447.761
1070 0 77.1019 12.49 963 110.701 582.478 447.483
1071 0 79.0718 13.1905 1043 108.856 583.007 450.482
1072 0 79.1412 9.00921 713 115.353 582.575 450.349
1073 0 85.089 12.1167 1031 110.505 583.108 451.415
1074 0 87.1072 12.2493 1067 112.157 584.001 445.1
1075 0 89.1491 12.0584 1075 112.85 583.601 445.668
1076 0 96.223 14.9756 1441 107.262 585.192 444.5
1077 0 97.2811 13.7334 1336 107.122 585.462 439.589
1078 0 99.1552 14.8454 1472 106.45 584.846 438.412
1079 0 103.188 12.8988 1331 109.208 585.116 440.136
1080 0 108.501 14.1013 1530 107.602 583.863 437.972
1081 0 108.419 10.856 1177 119.758 585.007 444.53
1082 0 113.296 15.4904 1755 111.481 584.459 434.807
1083 0 113.212 10.582 1198 117.595 584.249 435.528
1084 1 62.105 11.2551 699 106.014 583.129 464.371
1085 0 64.1453 12.2222 784 103.718 582.659 466.207
1086 0 63.0916 10.033 633 106.155 582.378 464.861
1087 0 67.0686 11.3317 760 105.904 581.704 458.654
1088 0 71.1776 11.6329 828 105.361 581.066 459.408
1089 0 72.186 10.5699 763 107.689 580.582 456.76
1090 0 76.2554 14.9104 1137 102.177 579.252 455.834
1091 0 79.5743 9.85243 784 109.018 580.182 453.948
1092 0 80.1908 12.7446 1022 105.333 579.382 455.456
1093 0 84.2533 10.7177 903 108.364 579.079 454.779
1094 0 89.4514 14.7231 1317 103.111 577.325 452.494
1095 0 89.3688 13.517 1208 106.166 577.71 448.776
1096 0 87.3108 11.1899 977 138.041 577.718 444.008
1097 0 94.2752 10.1193 954 111.959 576.544 446.893
1098 0 94.2752 10.0875 951 141.968 575.542 446.62
1099 0 98.2461 11.8478 1164 111.456 576.528 436.656
1100 1 52.18 11.5561 603 101.708 576.927 468.342
1101 0 56.1893 14.4511 812 105.573 578.458 469.623
1102 0 56.0586 12.8259 719 108.726 578.374 466.28
1103 0 56.2217 12.4507 700 109.521 578.336 467.079
1104 0 59.0211 13.1817 778 108.231 579.932 465.838
1105 0 61.2044 13.0873 801 108.508 579.115 459.335
1106 0 62.4738 14.198 887 106.051 579.457 462.425
1107 0 67.2889 17.1351 1153 101.949 577.833 458.605
1108 0 70.281 15.5234 1091 103.748 580.632 458.314
1109 0 68.1133 13.3601 910 107.511 580.294 458.147
1110 0 71.5076 18.6554 1334 99.1739 581.264 457.909
1111 0 73.3661 14.4072 1057 106.284 582.032 452.234
1112 0 74.4083 13.0362 970 108.394 582.674 453.444
1113 0 74.4798 12.2046 909 110.48 583.631 449.534
1114 0 79.4436 14.3624 1141 107.077 583.246 449.516
1115 0 82.529 13.5225 1116 108.361 584.332 447.048
1116 0 82.5049 14.3749 1186 107.468 584.777 449.514
1117 0 86.6383 14.07 1219 107.489 584.094 449.936
1118 0 92.2018 19.5224 1800 100.987 584.622 439.867
1119 0 91.3083 20.1296 1838 100.919 583.852 442.772
1120 0 94.3653 14.6876 1386 108.955 585.161 441.91
1121 0 98.5915 17.2226 1698 106.003 584.308 437.538
1122 0 101.393 15.0306 1524 109.236 584.837 446.552
1123 0 103.374 13.098 1354 112.92 584.144 444.185
1124 0 107.413 19.2063 2063 104.05 583.276 441.062
1125 0 107.339 13.4527 1444 114.017 583.367 437.122
1126 0 111.504 13.0757 1458 113.952 583.247 443.75
1127 0 112.444 13.3755 1504 113.307 582.938 447.178
1128 0 120.421 15.1054 1819 111.155 581.095 440.568
1129 0 125.41 13.1728 1652 113.588 581.077 442.382
1130 0 125.299 10.9498 1372 119.068 580.131 438.915
1131 0 132.279 12.2771 1624 117.036 579.932 432.245
1132 1 79.2519 14.0691 1115 112.81 579.591 454.9
1133 0 81.2063 13.164 1069 114.948 578.656 456.471
1134 0 86.2817 13.34 1151 113.231 577.09 459.537
1135 0 88.4065 13.0194 1151 116.629 578.461 457.318
1136 0 92.932 14.7097 1367 112.519 576.914 449.89
1137 0 97.4308 13.3325 1299 112.728 576.842 454.977
1138 0 97.7357 14.9689 1463 113.002 576.632 446.563
1139 0 101.674 14.0744 1431 114.426 575.958 445.771
1140 0 103.477 12.7564 1320 115.761 575.976 445.308
1141 0 109.904 15.0677 1656 113.65 575.88 443.529
1142 0 111.473 13.5818 1514 115.728 575.894 441.21
1143 0 114.551 13.3565 1530 117.761 575.611 430.869
1144 0 121.711 16.7199 2035 108.852 575.353 427.496
1145 0 122.669 10.7525 1319 116.832 576.034 434.187
1146 0 125.815 10.6823 1344 115.349 575.755 437.251
1147 0 130.513 11.11 1450 117.235 576.19 424.708
1148 0 137.048 12.886 1766 113.997 576.223 421.121
1149 0 141.991 13.5995 1931 111.85 577.113 423.242
1150 0 144.501 10.3806 1500 117.994 576.759 421.269
1151 0 148.67 14.7239 2189 114.281 577.927 418.485
1152 0 154.046 13.6648 2105 117.653 578.456 411.747
1153 1 80.5661 13.5293 1090 112.022 578.563 446.844
1154 0 80.5661 13.5789 1094 135.937 577.576 446.998
1155 0 86.7449 14.9749 1299 111.377 580.186 444.396
1156 0 89.7899 17.5632 1577 104.751 579.889 449.585
1157 0 90.8083 17.0249 1546 107.918 581.069 442.426
1158 0 93.7983 13.2412 1242 113.966 581.462 442.957
1159 0 98.7559 13.0524 1289 115.141 581.964 439.678
1160 0 100.941 13.4633 1359 114.02 581.318 441.03
1161 0 102.615 12.698 1303 116.487 583.049 439.327
1162 0 109.741 15.0537 1652 111.811 582.222 438.296
1163 0 110.862 12.8087 1420 115.478 583.263 439.798
1164 0 112.855 15.7813 1781 112.653 581.807 433.68
1165 0 118.615 13.9611 1656 114.798 582.539 433.1
1166 0 121.955 10.4957 1280 119.624 582.859 436.945
1167 0 127.647 14.023 1790 114.226 582.44 433.202
1168 0 131.74 15.8114 2083 112.203 582.398 427.426
1169 0 133.622 14.6383 1956 114.653 582.368 428.442
1170 0 137.64 12.7361 1753 117.199 581.883 431.415
1171 0 143.647 14.5008 2083 116.13 581.564 425.798
1172 1 157.534 12.2322 1927 116.583 581.138 433.717
1173 1 81.794 13.0327 1066 112.025 580.303 459.184
1174 0 81.5562 9.9318 810 116.822 579.254 459.084
1175 0 88.2275 13.9866 1234 109.776 577.998 461.677
1176 0 87.3206 11.9216 1041 115.142 577.532 455.124
1177 0 92.3705 15.178 1402 110.434 576.456 450.089
1178 0 98.8929 14.8342 1467 107.849 576.177 455.198
1179 0 98.377 13.3771 1316 111.807 575.646 449.47
1180 0 104.517 13.261 1386 110.665 575.354 446.719
1181 0 107.595 13.2256 1423 109.271 574.335 447.332
1182 0 108.431 13.391 1452 111.176 574.73 440.142
1183 0 114.354 16.344 1869 106.894 575.319 441.398
1184 0 113.46 11.1493 1265 108.983 574.617 452.747
1185 0 123.681 16.3486 2022 105.827 574.239 434.641
1186 0 124.651 13.4856 1681 110.11 573.509 434.358
1187 0 131.429 14.8522 1952 107.367 574.32 432.855
1188 0 131.429 14.8902 1957 134.562 575.319 432.987
1189 1 145.412 16.7868 2441 105.246 573.324 416.85
1190 0 143.515 14.319 2055 109.243 574.53 417.182
1191 0 149.613 18.1669 2718 103.83 576.033 419.657
1192 0 149.305 15.619 2332 109.697 575.42 414.334
1193 0 157.727 21.3153 3362 101.878 576.518 412.484
1194 0 157.399 13.0496 2054 114.41 578.114 409.284
1195 1 87.228 12.3126 1074 112.494 577 448.816
1196 0 86.2484 12.1046 1044 116.101 578.28 442.969
1197 0 90.1298 12.9036 1163 115.07 578.967 446.451
1198 0 96.2235 14.3104 1377 111.833 578.352 444.988
1199 0 99.2077 15.644 1552 110.938 579.278 441.901
1200 0 101.218 13.6735 1384 113.772 579.496 437.775
1201 0 107.111 17.0104 1822 107.494 580.552 438.843
1202 0 109.126 15.6516 1708 110.426 580.607 435.866
1203 0 115.176 15.307 1763 110.22 581.173 439.036
1204 0 117.283 17.1124 2007 107.874 581.063 436.272
1205 0 123.33 15.3653 1895 109.44 581.087 435.277
1206 0 124.293 13.2992 1653 112.187 581.716 439.312
1207 0 128.289 10.2191 1311 110.918 582.302 434.444
1208 0 136.665 14.6123 1997 108.009 582.575 430.225
1209 0 140.324 11.5233 1617 110.577 582.565 439.771
1210 1 78.1713 11.0527 864 109.175 581.934 463.369
1211 0 82.2715 13.2488 1090 106.083 582.008 460.432
1212 0 85.2203 15.1607 1292 104.004 583.426 457.688
1213 0 85.2012 12.2181 1041 108.459 582.377 458.776
1214 0 93.4641 14.4012 1346 103.798 582.574 459.787
1215 0 91.2191 15.5669 1420 104.92 581.541 452.344
1216 0 95.4623 14.236 1359 105.757 580.879 455.243
1217 0 99.3463 16.2865 1618 103.499 580.567 455.026
1218 0 102.388 15.0994 1546 106.404 579.336 451.53
1219 0 105.373 12.47 1314 110.068 578.953 447.249
1220 0 108.293 17.6743 1914 102.631 578.197 450.824
1221 0 110.46 15.4897 1711 108.172 577.545 443.164
1222 0 116.425 13.8114 1608 109.436 577.276 445.658
1223 0 120.548 14.7078 1773 109.73 576.067 438.186
1224 0 124.372 22.7463 2829 100.016 575.865 434.476
1225 0 125.523 14.6746 1842 112.864 576.061 427.42
1226 0 130.34 17.6845 2305 107.016 575.429 435.51
1227 0 136.509 14.4826 1977 115.082 574.608 429.533
1228 1 57.2751 10.1964 584 117.06 574.603 463.642
1229 0 61.2217 13.1653 806 113.373 573.46 461.361
1230 0 63.1799 14.2134 898 112.327 573.793 464.437
1231 0 64.0981 12.0284 771 113.922 573.625 465.968
1232 0 68.3288 14.5473 994 113.788 575.239 457.695
1233 0 69.296 13.0022 901 113.868 578.295 458.876
1234 0 70.1594 15.1797 1065 110.954 578.818 455.331
1235 0 71.0956 13.292 945 113.456 579.226 458.677
1236 0 74.1536 15.7511 1168 110.915 578.866 451.197
1237 0 75.1964 12.1681 915 115.92 580.603 453.024
1238 0 80.1749 15.2791 1225 110.77 579.539 450.929
1239 0 82.1563 13.45 1105 112.856 580.86 449.933
1240 0 83.122 12.5959 1047 114.536 581.142 448.092
1241 0 87.266 15.0689 1315 110.835 581.931 449.147
1242 0 89.2432 16.1805 1444 111.361 582.962 442.504
1243 0 92.3241 18.3917 1698 107.602 583.786 445.071
1244 0 94.1515 12.5436 1181 117.719 584.274 446.141
1245 0 100.236 15.3338 1537 112.44 584.351 446.455
1246 0 100.362 12.9431 1299 118.007 584.683 444.229
1247 0 106.363 13.2846 1413 115.903 585.632 446.184
1248 1 56.5293 12.4714 705 119.414 584.74 460.257
1249 0 57.2215 11.7788 674 113.295 583.97 463.601
1250 0 61.2189 15.5181 950 107.844 583.757 467.503
1251 0 63.2097 13.3207 842 112.365 583.341 466.943
1252 0 67.3096 19.8783 1338 100.907 582.542 468.863
1253 0 64.2133 13.3617 858 114.86 582.207 465.348
1254 0 68.18 12.4963 852 115.34 581.398 467.115
1255 0 69.2549 16.6198 1151 109.898 581.367 463.991
1256 0 73.1334 13.701 1002 114.166 581.31 464.124
1257 0 74.2497 14.7071 1092 112.503 581.461 463.264
1258 0 78.3061 15.9758 1251 110.702 580.38 460.945
1259 0 80.2399 16.5254 1326 110.087 579.952 457.806
1260 0 80.2006 13.6408 1094 115.5 578.002 459.821
1261 0 86.1269 15.4307 1329 111.521 578.073 457.483
1262 0 85.4546 13.1181 1121 117.609 578.437 457.902
1263 0 91.2601 16.8968 1542 110.641 577.671 451.67
1264 0 91.2601 16.8639 1539 138.747 577.664 451.595
1265 1 48.0648 13.0033 625 114.469 575.611 467.907
1266 0 52.0786 13.5756 707 113.276 575.908 465.918
1267 0 51.1122 11.6215 594 117.348 576.178 465.963
1268 0 54.2875 12.5075 679 115.122 574.583 464.483
1269 0 51.179 11.4305 585 118.889 574.839 456.15
1270 0 58.4734 14.451 845 110.034 574.167 464.529
1271 0 59.4748 16.7634 997 108.765 575.664 457.475
1272 0 60.2054 15.3475 924 111.475 575.408 453.976
1273 0 63.3481 14.0178 888 113.38 575.751 452.675
1274 0 65.1662 14.6241 953 112.467 575.794 453.065
1275 0 68.3645 14.6714 1003 112.773 576.417 446.282
1276 0 67.1492 12.7031 853 116.033 576.224 447.152
1277 0 70.22 13.5004 948 115.396 577.811 443.578
1278 0 74.234 16.1112 1196 111.175 577.366 443.875
1279 0 78.4465 16.916 1327 109.351 578.035 446.584
1280 0 81.298 16.5564 1346 111.278 578.149 439.53
1281 0 82.1976 13.6865 1125 117.343 579.148 435.908
1282 0 83.1871 15.7596 1311 113.169 579.464 438.41
1283 0 88.1644 14.6091 1288 116.096 580.676 436.276
1284 0 91.0602 16.4507 1498 113.368 581.545 437.128
1285 1 46.3538 13.1381 609 110.435 581.217 463.092
1286 0 46.0995 12.7984 590 113.912 581.763 459.417
1287 0 47.2491 10.6245 502 112.671 583.797 458.036
1288 0 51.163 17.3563 888 105.67 582.534 463.233
1289 0 50.1056 12.4138 622 116.839 582.732 462.323
1290 0 54.0514 13.1356 710 113.931 583.582 464.428
1291 0 53.3366 12.2055 651 117.696 584.146 459.903
1292 0 58.3235 16.6314 970 108.515 583.524 458.402
1293 0 59.6866 13.8557 827 113.121 584.357 460.155
1294 0 59.3561 14.2024 843 112.084 584.216 463.526
1295 0 63.37 13.6027 862 113.676 583.892 462.094
1296 0 64.455 13.6529 880 113.957 582.924 463.276
1297 0 68.2924 15.3019 1045 109.518 583.014 462.355
1298 0 68.282 13.7664 940 113.699 583.124 458.977
1299 0 71.5042 13.6216 974 112.91 583.102 463.204
1300 0 74.3384 19.048 1416 105.861 583.206 454.689
1301 0 76.2329 18.2205 1389 107.174 582.258 458.291
1302 0 79.2101 14.6825 1163 112.645 581.827 455.869
1303 0 80.2349 15.5792 1250 112.154 580.856 454.099
1304 0 82.2158 12.7226 1046 116.729 579.94 450.65
1305 0 85.1934 14.3908 1226 113.789 578.97 449.334
1306 0 89.2768 11.806 1054 117.171 577.981 452.732
1307 0 89.2849 14.4929 1294 114.447 577.345 448.686
1308 0 97.3099 14.8803 1448 114.653 574.973 440.911
1309 0 102.287 14.1367 1446 115.665 576.859 434.712
1310 1 58.0501 11.5418 670 118.01 576.342 460.072
1311 0 58.1922 14.4177 839 114.493 575.083 454.243
1312 0 61.1578 13.179 806 117.03 575.741 455.122
1313 0 61.1006 12.2094 746 117.922 575.005 455.882
1314 0 69.2041 15.3026 1059 110.807 575.025 457.509
1315 0 69.0862 13.7509 950 114.24 575.633 453.24
1316 0 73.1372 15.7786 1154 110.929 574.894 449.56
1317 0 76.2442 17.3653 1324 108.637 575.334 447.079
1318 0 75.2293 13.9706 1051 115.375 576.305 441.629
1319 0 79.2253 12.9883 1029 116.315 576.742 438.338
1320 0 83.1335 17.7786 1478 109.288 576.909 434.67
1321 0 87.3253 15.4594 1350 110.765 578.181 439.543
1322 0 89.1742 16.7201 1491 110.642 578.104 434.487
1323 0 90.316 13.8957 1255 116.486 579.61 434.804
1324 0 92.425 14.6822 1357 115.984 580.103 431.001
1325 0 96.2275 15.64 1505 114.65 581.058 429.734
1326 1 52.3813 13.8217 724 113.037 581.599 451.086
1327 0 53.1484 11.6466 619 117.549 581.326 449.22
1328 0 58.237 13.5996 792 110.734 581.797 452.086
1329 0 62.4251 13.312 831 110.011 583.36 453.397
1330 0 61.4763 10.9798 675 116.616 582.505 451.476
1331 0 62.3508 13.1193 818 113.786 582.98 449.998
1332 0 63.0752 11.2564 710 117.528 582.675 449.47
1333 0 64.3002 11.6951 752 117.926 583.57 444.203
1334 0 69.2208 16.1368 1117 108.881 582.105 448.601
1335 0 70.4027 17.1584 1208 107.795 583.542 452.419
1336 0 71.4908 14.1277 1010 113.067 583.182 448.75
1337 0 76.4562 15.1459 1158 111.157 582.424 450.818
1338 0 78.2725 12.5459 982 115.938 581.977 450.232
1339 0 79.2284 13.1771 1044 113.979 581.791 451.286
1340 0 80.2662 11.6114 932 117.685 581.189 449.583
1341 0 85.5438 11.3743 973 117.26 581.012 449.406
1342 0 87.5274 12.0762 1057 117.704 580.015 445.211
1343 0 94.5975 13.3513 1263 113.331 580.409 451.301
1344 0 92.3042 14.3005 1320 113.254 577.772 446.912
1345 1 45.1167 8.99889 406 115.904 577.062 461.453
1346 0 51.1089 6.28071 321 114.224 576.33 460.81
1347 0 56.3706 9.96973 562 108.607 576.863 464.641
1348 0 61.3832 16.3074 1001 103.505 576.254 469.671
1349 0 59.5232 10.7185 638 113.541 575.647 468.528
1350 0 63.1722 13.2495 837 109.611 575.061 468.822
1351 0 63.3142 14.2622 903 108.961 574.54 464.493
1352 0 65.3934 10.7197 701 114.516 574.156 460.081
1353 0 65.2284 11.0841 723 115.429 574.971 459.31
1354 0 68.3031 11.449 782 114.716 574.824 459.293
1355 0 73.1443 12.6872 928 112.483 574.442 457.263
1356 0 74.3041 15.3827 1143 112.669 574.577 449.652
1357 0 77.3564 12.2033 944 114.803 575.307 455.136
1358 0 75.2485 10.7112 806 118.359 574.928 450.019
1359 0 80.1518 13.7115 1099 112.809 575.329 447.251
1360 0 84.136 14.738 1240 110.794 575.136 449.656
1361 0 87.2689 14.3694 1254 110.324 575.723 450.196
1362 0 87.2689 14.5069 1266 125.31 575.676 450.19
1363 1 48.126 9.99459 481 117.106 576.218 463.748
1364 0 54.4994 8.93588 487 117.63 576.665 461.446
1365 0 54.1853 11.9774 649 113.655 577.378 457.975
1366 0 55.4064 12.5437 695 112.547 577.317 456.134
1367 0 58.1277 13.0575 759 111.254 579.253 458.502
1368 0 60.0809 12.4665 749 112.899 579.826 457.905
1369 0 62.2778 14.4835 902 108.625 580.58 457.121
1370 0 63.2441 12.1909 771 113.765 579.597 457.371
1371 0 66.1661 14.1009 933 108.998 581.119 456.837
1372 0 67.2305 13.8628 932 109.759 581.115 452.525
1373 0 67.2106 10.4001 699 116.26 581.461 454.976
1374 0 70.3492 14.5275 1022 108.802 581.351 457.757
1375 0 73.3672 11.5447 847 112.934 581.893 453.891
1376 0 75.2757 14.5864 1098 108.521 582.765 455.992
1377 0 76.1898 11.9701 912 114.05 582.989 453.63
1378 0 81.3789 13.0992 1066 111.616 582.555 451.706
1379 0 83.7242 11.8843 995 113.97 583.491 451.153
1380 0 85.3491 12.9117 1102 112.554 582.336 448.197
1381 0 90.7012 13.6492 1238 110.792 582.664 451.029
1382 0 91.5772 11.564 1059 115.599 582.353 442.209
1383 1 49.4377 10.0328 496 111.75 583.272 466.617
1384 0 50.078 8.22717 412 110.5 583.57 471.813
1385 0 52.1036 9.30838 485 108.198 583.266 474.441
1386 0 57.396 20.2104 1160 93.8259 579.678 471.284
1387 0 56.6033 12.7201 720 103.996 579.075 466.282
1388 0 57.1453 13.5969 777 103.223 577.792 467.978
1389 0 59.1992 12.3481 731 104.239 577.677 470.358
1390 0 59.2967 11.7882 699 105.429 576.342 472.531
1391 0 63.1878 12.4866 789 105.657 576.568 466.885
1392 0 63.2286 11.2924 714 107.896 576.259 465.763
1393 0 67.2277 13.7443 924 105.598 575.181 460.708
1394 0 69.1709 13.2715 918 106.562 575.285 463.02
1395 0 67.2897 11.8592 798 110.358 574.79 458.861
1396 0 71.1971 12.7674 909 108.582 575.1 456.112
1397 0 73.2002 11.6393 852 109.898 575.136 459.559
1398 0 76.4485 11.8904 909 109.254 573.908 452.67
1399 0 79.1221 14.7873 1170 105.212 575.211 452.303
1400 0 83.4586 17.0144 1420 101.187 574.22 452.014
1401 0 82.4081 12.1347 1000 109.753 574.598 448.939
1402 0 87.3054 11.4655 1001 110.268 574.794 449.492
1403 1 48.265 11.2918 545 110.233 574.457 459.338
1404 0 52.2242 12.0634 630 108.908 574.151 460.868
1405 0 53.0985 18.3621 975 102.05 576.751 463.915
1406 0 55.262 13.246 732 112.042 575.585 456.064
1407 0 55.1062 12.0495 664 116.423 575.804 458.776
1408 0 56.1446 17.1343 962 107.997 576.641 458.36
1409 0 58.1316 12.5405 729 116.841 577.299 454.495
1410 0 61.1493 14.4891 886 113.501 578.649 453.982
1411 0 60.2157 10.9772 661 121.421 578.946 456.315
1412 0 64.1616 14.1206 906 116.006 579.307 457.465
1413 0 63.2215 12.7488 806 121.015 579.453 455.635
1414 0 67.1336 14.4339 969 116.701 580.213 456.01
1415 0 66.2586 12.5116 829 121.592 580.556 454.434
1416 0 70.278 13.4466 945 119.475 580.849 454.647
1417 0 74.2095 13.947 1035 119.153 581.637 449.138
1418 0 75.0954 16.8719 1267 113.894 581.725 452.494
1419 0 75.0954 16.7387 1257 140.758 581.679 452.475
1420 0 81.3662 19.3569 1575 109.052 581.55 451.938
1421 0 83.2756 18.3487 1528 111.196 582.17 451.512
1422 0 86.3557 13.3865 1156 118.875 582.086 454.187
1423 0 88.2785 12.8004 1130 120.948 582.087 450.042
1424 0 88.3824 11.9028 1052 122.347 581.083 451.391
1425 0 95.6814 15.0813 1443 113.816 580.825 453.759
1426 0 98.2942 13.5613 1333 116.928 580.072 453.351
1427 1 50.133 10.9309 548 118.62 579.964 473.177
1428 0 50.133 10.9309 548 135.263 579.964 473.237
1429 0 55.0968 10.9988 606 116.206 582.457 474.771
1430 0 56.6395 14.4422 818 111.134 579.495 469.949
1431 0 59.4952 14.0516 836 106.188 579.146 465.298
1432 0 57.1754 10.2142 584 108.443 577.187 463.93
1433 0 62.3654 14.3509 895 108.251 577.48 468.26
1434 0 63.2542 13.7856 872 109.547 576.253 465.862
1435 0 66.1814 13.3421 883 108.879 576.237 470.011
1436 0 67.1786 12.0425 809 111.691 574.544 458.822
1437 0 69.5871 13.2352 921 109.488 575.845 462.716
1438 0 70.3718 13.0308 917 110.328 575.974 459.62
1439 0 75.3442 15.2633 1150 103.728 575.628 463.931
1440 0 78.3478 14.2697 1118 106.616 574.708 455.884
1441 0 78.5836 18.1208 1424 101.977 575.15 452.47
1442 0 81.5449 15.6969 1280 105.67 574.551 445.938
1443 0 83.8424 13.585 1139 109.062 575.172 445.266
1444 0 86.3633 14.0801 1216 108.271 575.248 441.791
1445 0 87.5974 14.852 1301 107.891 575.926 439.867
1446 0 91.863 12.388 1138 110.213 576.064 436.309
1447 1 52.0974 11.9776 624 106.409 578.915 463.474
1448 0 54.1433 12.6516 685 107.388 578.688 462.742
1449 0 55.0828 12.7263 701 108.314 579.646 459.854
1450 0 56.0905 13.2286 742 108.646 580.271 458.363
1451 0 55.0716 16.6329 916 104.014 580.357 458.389
1452 0 62.1841 15.6953 976 103.897 581.035 458.629
1453 0 61.1288 15.3283 937 106.378 580.646 455.105
1454 0 62.2436 12.7242 792 111.731 582.434 456.282
1455 0 64.1343 13.5029 866 111.443 581.909 455.345
1456 0 69.1059 14.8178 1024 107.113 583.419 458.986
1457 0 68.1186 13.9169 948 111.091 584.203 454.565
1458 0 70.1274 14.6305 1026 109.498 583.854 457.146
1459 0 73.1099 15.6066 1141 106.958 584.58 457.454
1460 0 73.244 17.8035 1304 104.475 584.596 453.648
1461 0 77.3315 17.2892 1337 104.4 584.604 451.952
1462 0 79.2463 13.0479 1034 111.806 584.336 455.447
1463 0 81.3377 12.6018 1025 111.817 584.246 460.518
1464 0 84.3286 16.329 1377 105.551 584.585 460.155
1465 0 87.1499 14.5037 1264 108.722 584.356 459.162
1466 0 89.2795 14.6842 1311 109.963 584.916 454.38
1467 0 96.2368 20.4392 1967 100.503 583.551 456.307
1468 0 98.3287 16.7398 1646 106.156 583.684 451.439
1469 0 99.2238 13.9382 1383 111.707 582.928 450.241
1470 1 56.1731 11.9452 671 112.642 582.787 473.739
1471 0 56.1001 14.2959 802 109.574 581.59 474.086
1472 0 57.3259 11.7922 676 115.241 581.334 473.154
1473 0 60.2746 14.0192 845 111.458 577.955 467.299
1474 0 59.2233 13.1198 777 112.327 577.049 466.461
1475 0 63.175 15.37 971 107.495 576.493 467.446
1476 0 65.1717 13.8097 900 109.9 575.948 468.782
1477 0 67.1214 13.4383 902 111.433 575.85 465.213
1478 0 71.1454 16.4874 1173 105.965 575.035 463.02
1479 0 70.4174 13.1928 929 112.189 575.445 461.977
1480 0 75.1799 11.3062 850 112.785 573.182 461.878
1481 0 76.2042 15.2616 1163 108.708 573.702 456.85
1482 0 77.1103 13.6039 1049 112.146 573.766 451.378
1483 0 81.2685 13.7692 1119 109.819 574.218 456.976
1484 0 84.2896 14.4976 1222 110.104 573.689 448.412
1485 0 85.166 13.2447 1128 112.36 574.255 446.699
1486 0 90.15 14.8419 1338 109.267 574.551 446.037
1487 1 48.0499 9.49014 456 111.724 573.79 462.792
1488 0 50.0756 10.1047 506 109.089 576.935 457.518
1489 0 47.0221 9.39984 442 112.756 577.165 457.561
1490 0 54.2566 14.5973 792 100.777 577.287 460.736
1491 0 53.3037 10.6559 568 110.113 577.125 451.489
1492 0 56.2656 11.9611 673 107.242 577.467 455.597
1493 0 59.1043 13.6369 806 105.359 577.85 455.576
1494 0 57.1251 12.2363 699 106.88 577.711 454.685
1495 0 60.0414 10.0098 601 110.541 578.666 453.696
1496 0 65.1169 13.0381 849 109.534 578.353 454.561
1497 0 64.2216 12.0209 772 110.025 579.952 456.421
1498 0 69.1205 14.5109 1003 105.722 579.381 453.053
1499 0 70.1622 12.9557 909 107.312 580.692 454.635
1500 0 73.1888 11.3132 828 110.237 580.995 452.141
1501 0 76.5004 13.9607 1068 105.398 582.703 456.417
1502 0 77.3593 11.5048 890 109.942 582.14 454.455
1503 0 80.5093 13.8245 1113 107.64 582.643 452.053
1504 0 79.3052 11.3738 902 111.793 582.212 451.714
1505 0 85.405 11.3459 969 111.716 582.812 451.394
1506 0 86.2247 13.604 1173 106.888 583.343 456.234
1507 0 88.4995 11.3899 1008 110.763 581.036 452.072
1508 0 92.2064 10.6066 978 113.658 582.123 448.647
1509 1 49.4643 8.75379 433 111.173 582.333 473.582
1510 0 52.233 11.8316 618 108.72 581.652 467.451
1511 0 55.3832 12.7114 704 106.477 581.875 467.827
1512 0 60.4357 12.2444 740 105.605 581.524 468.273
1513 0 58.0623 13.3994 778 107.033 579.663 472.82
1514 0 61.1311 14.2317 870 104.346 579.054 476.305
1515 0 62.1402 11.0878 689 111.771 578.62 468.9
1516 0 64.1927 14.2851 917 107.017 577.711 469.707
1517 0 66.3433 14.0632 933 107.352 577.033 466.796
1518 0 68.3531 9.9776 682 114.298 577.235 462.233
1519 0 70.2647 15.0716 1059 107.286 576.81 462.985
1520 0 72.3252 16.5502 1197 103.404 576.705 468.714
1521 0 72.2254 12.6964 917 111.781 576.128 459.839
1522 0 78.3586 14.1401 1108 107.79 575.348 462.402
1523 0 80.3602 13.6884 1100 110.262 575.211 456.6
1524 0 81.4936 13.5103 1101 110.79 574.672 457.599
1525 0 85.5858 14.5234 1243 110.085 574.366 450.13
1526 0 86.7028 11.1876 970 110.752 576.056 446.663
1527 0 89.6539 9.77091 876 113.592 575.397 441.79
1528 0 94.507 16.8347 1591 103.372 575.718 446.4
1529 0 97.4992 10.0206 977 113.993 575.551 440.047
1530 0 102.508 15.8816 1628 105.923 576.238 434.595
1531 0 100.436 14.1583 1422 123.297 577.416 437.049
1532 1 60.0669 13.1686 791 104.224 576.181 459.807
1533 0 60.1643 12.1002 728 105.882 576.19 455.089
1534 0 63.3172 11.2766 714 107.167 575.483 453.185
1535 0 67.2991 14.1458 952 102.957 576.114 458.689
1536 0 66.1776 11.3785 753 109.865 578.794 456.926
1537 0 67.3142 8.70544 586 112.198 579.005 456.22
1538 0 72.1968 12.4659 900 108.314 580.559 452.552
1539 0 74.2264 11.7883 875 109.064 580.947 453.422
1540 0 76.2994 13.198 1007 107.334 581.728 453.575
1541 0 81.3684 16.8616 1372 102.222 582.185 447.839
1542 0 81.4663 11.8331 964 109.591 582.62 448.607
1543 0 84.3239 12.1911 1028 109.587 582.926 449.743
1544 0 87.3808 14.2594 1246 107.006 583.884 448.706
1545 0 89.348 13.1061 1171 109.304 584.23 446.659
1546 0 92.2968 13.4133 1238 107.954 584.017 450.961
1547 0 98.2898 14.1724 1393 107.267 583.86 446.308
1548 0 100.207 12.6139 1264 110.578 583.359 442.74
1549 0 104.564 14.0584 1470 107.391 583.59 447.174
1550 0 104.377 14.3231 1495 108.441 583.313 448.882
1551 0 109.175 15.0676 1645 107.936 582.244 443.094
1552 0 113.43 13.3739 1517 110.519 582.75 445.499
1553 1 62.163 13.0946 814 108.192 583.574 468.049
1554 0 65.1853 16.2306 1058 103.446 583.075 465.796
1555 0 70.2331 15.4343 1084 103.379 581.97 467.493
1556 0 71.2658 15.9123 1134 104.989 581.666 465.936
1557 0 71.2046 11.2774 803 111.775 582.144 467.837
1558 0 75.2792 11.7297 883 110.801 581.519 467.364
1559 0 78.3473 13.5295 1060 107.919 579.588 462.699
1560 0 81.3723 14.8208 1206 106.171 577.767 461.566
1561 0 82.368 12.5291 1032 109.784 578.207 460.247
1562 0 84.2826 13.8107 1164 108.978 578.071 458.534
1563 0 88.3303 14.525 1283 106.93 577.835 456.001
1564 0 89.2875 11.5582 1032 112.244 577.231 451.521
1565 0 93.4007 17.0556 1593 104.349 576.264 455.007
1566 0 95.2295 11.9186 1135 111.909 576.475 451.155
1567 0 96.2745 12.5267 1206 112.4 576.017 447.966
1568 0 100.298 12.4928 1253 112.645 575.141 443.96
1569 0 100.219 9.04021 906 116.828 575.184 444.391
1570 0 106.326 15.1798 1614 109.104 574.817 438.048
1571 0 107.229 12.1142 1299 114.363 576.64 439.289
1572 0 113.249 12.627 1430 111.117 576.748 439.195
1573 0 114.394 14.8522 1699 108.099 576.699 434.719
1574 0 118.272 15.6166 1847 107.21 576.115 426.554
1575 0 121.516 13.4551 1635 111.168 577.155 422.434
1576 0 127.509 12.454 1588 111.762 576.758 421.843
1577 0 130.374 13.8754 1809 110.735 577.03 416.898
1578 1 77.5139 10.282 797 107.782 576.035 453.184
1579 0 76.3458 14.4343 1102 104.432 576.806 446.45
1580 0 78.4347 14.2156 1115 106.307 577.631 442.857
1581 0 80.176 11.7117 939 109.342 578.163 443.94
1582 0 86.3534 12.3099 1063 107.65 578.213 444.763
1583 0 87.2711 13.8075 1205 107.698 578.39 439.829
1584 0 89.2407 13.0322 1163 108.248 579.643 441.216
1585 0 94.2486 12.0108 1132 110.143 580.153 441.056
1586 0 96.2177 12.4094 1194 112.052 581.458 439.683
1587 0 98.2052 14.3882 1413 108.856 581.195 437.684
1588 0 102.449 13.275 1360 110.32 582.572 437.996
1589 0 108.177 12.1375 1313 111.58 582.984 441.054
1590 0 111.35 15.3211 1706 107.762 582.977 436.045
1591 0 113.299 11.8712 1345 112.283 583.211 435.83
1592 0 114.346 12.3573 1413 113.762 582.391 433.6
1593 0 119.323 12.4453 1485 112.894 581.889 431.193
1594 0 123.252 14.3771 1772 111.523 581.685 432.609
1595 1 70.235 12.1734 855 107.131 583.083 463.2
1596 0 73.187 12.4612 912 106.19 582.902 464.211
1597 0 74.3031 13.3776 994 103.893 582.752 459.053
1598 0 75.1316 11.7128 880 107.18 582.608 462.956
1599 0 78.0834 10.0021 781 109.449 581.326 460.175
1600 0 82.3175 10.2773 846 108.195 580.839 462.398
1601 0 86.3272 13.9817 1207 103.981 578.209 457.837
1602 0 86.177 17.6845 1524 100.844 578.297 455.073
1603 0 92.1369 18.0167 1660 99.55 577.156 458.352
1604 0 91.4044 12.0563 1102 108.574 577.339 457.007
1605 0 96.4529 13.6647 1318 106.32 576.608 446.307
1606 0 100.391 12.8498 1290 107.45 576.17 444.836
1607 0 102.574 12.5177 1284 108.871 576.217 443.689
1608 0 107.598 15.6601 1685 103.639 575.077 443.299
1609 0 108.767 13.9656 1519 106.753 574.492 440.072
1610 0 110.472 13.2251 1461 108.601 574.958 434.175
1611 0 118.273 13.8916 1643 109.388 573.513 439.572
1612 0 119.47 12.2374 1462 112.914 574.408 436.082
1613 0 122.652 11.8791 1457 113.726 573.886 429.044
1614 0 130.751 14.6385 1914 108.414 573.447 427.863
1615 1 71.3161 10.769 768 105.988 573.152 457.562
1616 0 72.299 16.7361 1210 98.7711 574.096 452.324
1617 0 74.2953 13.056 970 102.696 573.97 452.119
1618 0 75.151 13.0803 983 103.502 574.544 451.78
1619 0 79.4289 15.196 1207 100.094 575.022 451.683
1620 0 78.2646 8.07517 632 111.195 576.109 445.081
1621 0 85.0877 14.7965 1259 102.09 576.164 443.788
1622 0 86.1584 15.8197 1363 101.838 577.333 441.158
1623 0 89.3134 12.193 1089 107.177 577.54 440.961
1624 0 91.1199 15.4192 1405 103.816 579.917 440.586
1625 0 92.4946 18.8768 1746 98.0332 581.089 444.552
1626 0 93.4468 13.9224 1301 108.477 581.3 441.045
1627 0 96.6139 13.911 1344 109.148 581.279 439.737
1628 0 98.425 15.2603 1502 107.037 582.259 441.231
1629 0 98.5872 12.1517 1198 114.49 582.379 437.467
1630 0 98.5872 12.1618 1199 143.261 583.374 437.489
1631 0 106.359 18.2402 1940 105.733 582.744 430.185
1632 0 109.499 14.4659 1584 111.107 583.177 436.005
1633 0 108.165 15.0326 1626 111.562 582.432 438.206
1634 0 111.266 13.7778 1533 112.766 582.431 433.474
1635 0 115.207 19.2697 2220 104.616 582.682 428.791
1636 0 116.139 13.4408 1561 114.141 583.085 432.327
1637 0 123.261 15.3576 1893 111.135 581.849 426.748
1638 0 125.59 16.4663 2068 109.76 581.56 422.216
1639 0 131.426 13.9241 1830 112.444 581.31 424.635
1640 0 135.627 14.562 1975 111.861 580.751 424.09
1641 1 74.2736 13.1675 978 108.635 581.953 458.121
1642 0 79.1537 12.4568 986 111.736 578.757 457.032
1643 0 82.1807 13.2391 1088 109.901 578.473 460.643
1644 0 84.2807 13.633 1149 109.288 578.098 456.687
1645 0 86.3011 13.0821 1129 110.532 577.292 457.569
1646 0 87.1899 16.206 1413 105.376 576.813 457.562
1647 0 90.5608 15.2163 1378 106.668 575.89 456.988
1648 0 93.5669 15.6893 1468 107.089 575.724 447.241
1649 0 99.3417 14.2639 1417 107.83 576.486 450.516
1650 0 99.2013 14.2539 1414 108.924 575.19 448.843
1651 0 103.392 15.1656 1568 106.814 575.267 448.525
1652 0 107.612 14.4872 1559 109.388 575.146 438.924
1653 0 115.034 12.9788 1493 110.616 575.972 436.479
1654 1 64.605 16.7944 1085 97.718 574.5 462.804
1655 0 60.2819 10.003 603 108.187 574.294 449.968
1656 0 66.2435 12.6654 839 103.409 574.583 450.611
1657 0 66.1055 10.0748 666 103.291 575.036 449.48
1658 0 69.1191 12.37 855 100.801 574.999 447.712
1659 0 74.1317 10.9939 815 102.222 575.836 445.029
1660 0 76.4429 12.7023 971 98.9186 576.045 446.718
1661 0 77.4147 10.4115 806 102.421 575.955 440.258
1662 0 81.1982 13.2146 1073 98.6701 576.999 440.784
1663 0 84.6889 17.0625 1445 94.6685 578.004 439.869
1664 0 85.4001 17.0023 1452 94.9277 578.354 440.056
1665 0 87.6139 18.3989 1612 94.8027 579.798 431.563
1666 0 89.3925 11.4998 1028 104.155 579.522 436.432
1667 0 94.4505 11.6251 1098 104.843 579.787 431.557
1668 0 92.5125 13.9008 1286 103.256 580.512 426.13
1669 0 95.6075 13.3044 1272 105.314 581.024 428.921
1670 0 101.254 14.8142 1500 102.801 581.103 432.36
1671 0 100.275 14.6896 1473 103.949 581.506 430.691
1672 0 108.31 13.3321 1444 105.981 582.148 433.307
1673 0 112.408 16.9471 1905 100.984 583.01 433.942
1674 0 115.516 17.2963 1998 101.92 583.064 429.23
1675 0 112.613 13.0891 1474 109.689 583.311 421.309
1676 1 63.1956 12.7857 808 105.118 583.745 458.08
1677 0 65.2917 10.8283 707 108.806 583.608 453.945
1678 0 68.2701 9.90184 676 110.959 584.212 452.661
1679 0 69.3352 10.442 724 110.802 583.996 454.296
1680 0 73.3045 12.1275 889 105.87 583.426 459.493
1681 0 77.509 10.4117 807 107.74 583.378 458.955
1682 0 76.6803 13.1585 1009 105.5 583.234 455.864
1683 0 81.4878 11.0937 904 108.579 581.799 452.936
1684 0 79.473 13.8915 1104 105.156 581.99 454.544
1685 0 90.7354 12.1452 1102 105.322 580.944 453.95
1686 0 92.2878 13.3387 1231 103.617 579.602 453.413
1687 0 95.5119 13.8098 1319 103.24 578.423 448.941
1688 1 56.2876 9.57582 539 103.481 577.484 469.204
1689 0 53.2006 8.66532 461 104.69 575.451 471.924
1690 0 55.3166 11.1359 616 103.067 576.888 465.071
1691 0 56.292 12.8082 721 100.111 576.716 466.141
1692 0 58.3054 15.0243 876 99.0251 576.514 467.256
1693 0 56.4345 11.7304 662 101.109 576.529 464.866
1694 0 61.121 10.6674 652 102.018 574.534 462.202
1695 0 62.557 11.2697 705 99.9277 574.799 467.218
1696 0 62.2144 11.7336 730 102.007 574.289 458.985
1697 0 65.328 12.9194 844 100.949 574.18 459.092
1698 0 66.1485 13.122 868 101.528 573.454 455.94
1699 0 69.3541 13.3085 923 100.454 574.209 455.156
1700 0 70.1118 14.3057 1003 101.318 575.33 448.548
1701 0 71.2904 12.8348 915 103.67 575.299 447.282
1702 0 73.0972 10.3424 756 106.329 575.804 445.947
1703 0 77.196 13.4463 1038 102.513 576.285 446.137
1704 0 76.3547 9.3511 714 109.315 576.304 438.45
1705 0 82.2216 9.98521 821 108.365 577.494 434.519
1706 0 81.226 13.407 1089 126.687 578.345 439.076
1707 0 87.2853 12.9117 1127 104.641 578.669 434.628
1708 1 50.2903 12.7261 640 100.188 579.273 457.347
1709 0 53.3196 14.5725 777 99.2677 578.904 458.416
1710 0 54.4816 11.9123 649 104.661 579.994 460.132
1711 0 53.0996 11.5443 613 105.997 582.155 462.33
1712 0 56.3387 12.6556 713 103.54 583.202 462.058
1713 0 59.2238 13.7782 816 100.799 583.023 461.537
1714 0 60.1324 12.8882 775 101.599 583.591 464.497
1715 0 61.308 12.5595 770 103.168 583.784 461.906
1716 0 62.0708 8.92529 554 108.404 584.774 459.047
1717 0 66.1102 11.148 737 105.336 584.969 460.834
1718 0 64.1724 10.0666 646 107.356 585.206 457.726
1719 0 68.3208 13.0121 889 102.79 584.958 462.117
1720 0 73.3135 16.0816 1179 98.3393 584.035 456.72
1721 0 75.3627 13.6142 1026 101.059 583.562 457.7
1722 0 76.3626 12.4668 952 102.22 583.612 459.592
1723 0 80.396 14.1549 1138 99.6081 583.728 460.015
1724 0 86.2216 13.7205 1183 99.5503 582.859 459.84
1725 1 48.043 12.5929 605 101.091 583.689 475.283
1726 0 51.0983 13.6795 699 98.7325 583.914 477.976
1727 0 51.1492 10.4791 536 105.593 583.362 475.159
1728 0 55.2133 14.5436 803 98.5866 582.583 477.542
1729 0 54.1114 13.0471 706 103.187 582.895 471.87
1730 0 56.1387 12.8076 719 104.074 580.908 471.453
1731 0 56.056 12.7729 716 104.811 581.52 469.645
1732 0 60.1596 13.4476 809 103.813 579.946 468.021
1733 0 58.1909 11.72 682 107.107 579.164 467.308
1734 0 63.0951 11.6808 737 104.984 578.474 471.676
1735 0 63.0951 11.6808 737 127.033 577.49 471.56
1736 0 66.1357 14.44 955 101.15 577.158 461.822
1737 0 70.1821 17.3549 1218 97.0591 577.048 463.929
1738 0 70.2597 12.283 863 104.437 577.137 462.727
1739 0 72.1687 16.7386 1208 98.3982 576.969 463.864
1740 0 72.2204 13.3896 967 103.62 576.404 458.974
1741 0 73.1517 13.3695 978 104.267 575.148 454.393
1742 0 78.1921 15.2829 1195 100.993 575.599 449.557
1743 0 84.2454 19.0871 1608 95.7071 576.192 456.543
1744 0 82.1364 18.4084 1512 98.3353 576.217 450.696
1745 0 85.2215 14.0223 1195 103.4 576.616 452.678
1746 0 88.2602 12.6784 1119 105.617 577.193 449.504
1747 0 92.3247 14.7739 1364 101.958 576.449 442.53
1748 0 86.1358 9.81009 845 109.707 577.908 442.33
1749 0 96.1319 15.874 1526 101.581 578.722 443.892
1750 0 96.1319 15.7492 1514 125.398 580.762 443.866
1751 0 102.293 13.8328 1415 104.837 579.947 439.201
1752 0 104.315 14.993 1564 103.644 580.978 438.093
1753 1 54.3895 11.3257 616 107.727 581.873 462.716
1754 0 58.1094 11.7537 683 105.695 582.286 463.026
1755 0 59.1191 14.4454 854 103.438 583.107 460.836
1756 0 63.0974 13.9625 881 103.171 583.34 458.781
1757 0 64.3824 13.0315 839 104.8 584.207 457.713
1758 0 68.2577 16.8333 1149 99.0087 583.466 460.737
1759 0 70.2791 12.8915 906 104.556 585.666 460.656
1760 0 70.2154 21.6192 1518 94.9835 585.577 456.889
1761 0 74.1433 16.7109 1239 98.2058 586.09 463.726
1762 0 76.1656 13.2737 1011 104.335 585.33 456.985
1763 0 79.3575 14.2268 1129 102.894 585.919 459.536
1764 0 82.4805 14.0882 1162 103.179 585.622 458.384
1765 0 82.1625 17.295 1421 99.7319 584.132 459.356
1766 0 86.216 15.4844 1335 100.842 584.936 462.885
1767 0 91.2158 14.9645 1365 102.952 584.267 457.396
1768 0 94.1946 15.9669 1504 102.568 584.366 453.931
1769 0 93.0582 17.0538 1587 101.463 583.285 452.556
1770 0 97.1619 17.2187 1673 101.171 582.708 452.488
1771 0 99.1782 17.1812 1704 102.018 582.252 449.543
1772 0 104.152 15.1126 1574 104.625 580.681 445.939
1773 0 105.296 12.0328 1267 106.254 579.672 445.937
1774 0 108.279 15.46 1674 102.293 578.658 443.088
1775 0 112.571 12.4278 1399 106.536 577.403 435.256
1776 1 57.1234 11.5539 660 105.086 576.959 460.711
1777 0 64.3762 16.823 1083 102.068 575.978 467.763
1778 0 65.1237 11.5933 755 108.381 575.714 460.689
1779 0 63.1167 11.6451 735 109.527 576.049 458.816
1780 0 66.1262 13.0206 861 107.18 575.813 453.345
1781 0 68.1812 15.2095 1037 100.833 575.35 451.122
1782 0 72.3592 16.501 1194 99.8886 575.644 451.855
1783 0 72.31 14.507 1049 103.457 575.227 451.48
1784 0 77.4249 13.8328 1071 102.93 575.024 455.254
1785 0 78.2099 13.3615 1045 105.958 576.348 446.462
1786 0 82.3304 12.1948 1004 107.164 575.784 444.977
1787 0 84.3368 21.2007 1788 95.5397 575.25 440.594
1788 0 86.2728 16.0305 1383 102.852 576.685 438.548
1789 0 85.3368 11.4019 973 111.266 576.722 436.878
1790 0 92.2434 14.8954 1374 105.567 576.319 440.578
1791 0 95.2746 17.2134 1640 104.007 577.395 434.746
1792 0 97.194 17.5834 1709 104.425 577.539 432.556
1793 0 99.3121 14.9126 1481 110.904 578.016 427.244
1794 0 100.17 14.0062 1403 112.74 578.728 425.933
1795 0 103.287 14.9292 1542 112.115 578.7 423.591
1796 0 110.322 18.6364 2056 104.857 579.635 430.487
1797 0 113.426 16.8303 1909 106.955 580.651 430.323
1798 1 62.1257 10.2051 634 109.027 580.852 456.546
1799 0 68.0424 10.0526 684 111.092 581.206 451.687
1800 0 68.1499 12.2671 836 110.774 582.285 452.167
1801 0 71.2087 15.9952 1139 102.344 582.013 447.798
1802 0 79.2251 13.7456 1089 104.421 582.952 451.828
1803 0 76.1031 13.9416 1061 105.847 582.994 450.668
1804 0 81.1501 13.9248 1130 106.156 583.355 447.566
1805 0 82.2585 14.6368 1204 106.076 583.567 446.072
1806 0 85.2211 14.0576 1198 105.898 583.88 450.056
1807 0 87.5579 10.987 962 110.581 583.52 448.458
1808 0 89.2225 11.4769 1024 110.587 583.719 448.334
1809 0 94.1345 16.0303 1509 104.65 583.7 448.036
1810 0 98.2668 14.9186 1466 105.838 583.339 443.922
1811 0 96.2562 15.4068 1483 107.15 581.469 441.517
1812 0 102.316 14.9927 1534 105.971 582.839 448.72
1813 0 107.233 14.8742 1595 106.39 581.831 444.996
1814 0 106.549 9.35719 997 115.786 580.925 442.389
1815 0 113.308 14.1738 1606 110.375 580.22 437.181
1816 0 118.448 12.6638 1500 112.883 578.798 436.261
1817 0 123.519 15.5442 1920 108.396 577.707 436.749
1818 1 71.1599 11.3407 807 112.001 577.688 461.757
1819 0 75.1078 13.8601 1041 108.455 577.73 458.668
1820 0 77.2362 12.7272 983 107.786 575.754 456.219
1821 0 81.1339 13.5455 1099 105.466 575.756 457.466
1822 0 85.1305 13.4617 1146 106.305 575.374 449.894
1823 0 88.4368 13.5916 1202 106.308 575.208 451.651
1824 0 91.2554 14.3663 1311 105.738 575.286 452.038
1825 0 96.3238 20.0158 1928 97.8408 575.317 447.494
1826 0 93.3289 13.5006 1260 108.374 574.103 441.46
1827 0 96.2966 16.9165 1629 104.721 574.44 434.603
1828 0 97.2704 13.7863 1341 109.376 574.87 437.705
1829 0 103.457 17.0603 1765 104.543 575.309 435.736
1830 0 106.32 13.8921 1477 109.628 575.437 435.853
1831 0 108.266 15.3973 1667 106.764 575.954 440.289
1832 0 112.533 15.4621 1740 108.115 576.432 429.999
1833 0 116.415 14.8349 1727 109.727 576.71 427.873
1834 0 117.412 15.3476 1802 110.433 577.261 425.516
1835 0 121.377 14.5909 1771 111.452 578.14 419.671
1836 0 127.496 17.075 2177 107.389 577.421 416.777
1837 0 132.509 16.6328 2204 108.196 579.392 416.995
1838 1 73.143 15.2578 1116 104.95 580.099 446.416
1839 0 72.5383 11.5112 835 115.902 581.731 447.568
1840 0 79.1243 16.354 1294 107.637 580.832 451.546
1841 0 79.1243 16.3161 1291 134.587 580.83 451.552
1842 0 78.1273 13.158 1028 146.668 580.906 448.192
1843 0 88.2988 13.1599 1162 112.645 582.666 439.275
1844 0 91.4436 12.2917 1124 113.772 583.236 445.424
1845 0 97.6997 17.4412 1704 105.495 583.754 447.517
1846 0 97.6997 17.3081 1691 131.616 583.773 447.369
1847 0 100.245 17.4274 1747 106.67 583.948 439.355
1848 0 104.57 16.4865 1724 108.457 583.473 438.885
1849 0 104.221 12.7902 1333 116.302 584.573 438.96
1850 0 107.198 14.7204 1578 113.151 583.853 435.911
1851 0 113.255 17.5886 1992 106.091 584.803 444.663
1852 0 111.158 11.4342 1271 119.994 582.205 429.855
1853 0 119.571 15.5808 1863 112.565 581.12 434.244
1854 0 122.222 13.5164 1652 116.827 581.188 429.94
1855 0 127.456 15.7466 2007 113.033 581.936 429.638
1856 0 133.386 15.084 2012 113.787 581.722 428.777
1857 1 71.1765 10.1157 720 120.047 580.412 454.821
1858 0 72.1028 12.6763 914 117.423 579.562 447.938
1859 0 77.0843 14.5944 1125 112.859 578.833 454.843
1860 0 78.1959 11.7142 916 119.386 577.517 448.765
1861 0 81.2576 12.3927 1007 117.866 577.324 449.623
1862 0 86.6113 12.2039 1057 118.1 576.865 449.733
1863 0 89.4191 12.5812 1125 118.419 575.366 445.474
1864 0 89.1454 12.5637 1120 118.763 575.17 445.683
1865 0 91.1764 11.3845 1038 123.361 574.876 436.98
1866 0 96.3176 14.2653 1374 117.848 574.792 439.788
1867 0 97.2696 14.7734 1437 116.721 573.367 440.343
1868 0 103.381 15.6799 1621 115.287 573.504 435.167
1869 0 107.25 12 1287 121.938 573.355 436.214
1870 0 111.554 14.9345 1666 116.047 573.226 437.88
1871 0 112.364 16.1528 1815 115.612 573.399 431.539
1872 0 117.559 14.0099 1647 118.029 573.653 424.804
1873 1 67.3931 10.1197 682 120.818 573.849 445.644
1874 0 66.457 11.5112 765 117.013 573.76 450.166
1875 0 73.3815 14.0362 1030 107.12 574.864 446.678
1876 0 77.4601 13.8265 1071 106.249 576.61 451.54
1877 0 80.4723 16.5274 1330 102.813 576.656 449.768
1878 0 82.3249 10.3614 853 111.117 576.887 451.804
1879 0 84.3315 14.3244 1208 106.589 577.967 446.765
1880 0 86.2853 11.8212 1020 111.103 577.612 444.184
1881 0 89.3942 14.6989 1314 106.78 579.197 442.617
1882 0 94.5869 17.1483 1622 103.341 579.122 441.274
1883 0 94.4851 13.3037 1257 111.251 579.534 436.131
1884 0 98.3845 12.319 1212 113.609 580.809 440.066
1885 0 101.228 13.8796 1405 110.748 580.969 438.953
1886 0 107.277 18.7272 2009 103.551 581.06 434.99
1887 0 107.279 11.4002 1223 115.611 581.619 436.149
1888 0 112.633 14.818 1669 110.558 582.433 432.179
1889 0 117.73 12.9194 1521 112.222 582.825 434.155
1890 0 121.713 13.8686 1688 111.368 583.037 430.34
1891 0 123.43 13.7325 1695 110.81 582.185 434.504
1892 1 70.7267 12.4705 882 109.81 583.322 456.879
1893 0 73.5077 13.9849 1028 106.5 583.815 455.613
1894 0 75.3628 12.6455 953 108.692 584.488 459.96
1895 0 77.4136 10.9283 846 110.688 583.033 461.604
1896 0 81.4238 13.2271 1077 108.361 583.235 458.341
1897 0 84.4073 14.3826 1214 106.755 582.298 458.338
1898 0 86.3194 14.7939 1277 106.748 582.136 455.28
1899 0 90.3429 17.4225 1574 101.76 581.853 460.843
1900 0 91.5226 11.5053 1053 110.925 581.068 459.383
1901 0 92.4285 9.932 918 113.622 580.803 459.821
1902 0 97.4873 13.3146 1298 109.068 578.552 455.354
1903 0 101.467 15.2463 1547 107.836 578.328 448.017
1904 0 104.834 11.4371 1199 111.961 577.411 453.617
1905 0 104.487 11.7143 1224 113.223 577.294 443.77
1906 0 110.483 16.3011 1801 106.941 576.566 444.441
1907 0 112.767 14.9777 1689 109.664 575.753 443.758
1908 0 117.763 13.9092 1638 111.521 574.882 438.109
1909 0 120.733 16.1017 1944 107.963 574.706 433.237
1910 0 124.556 15.3586 1913 108.6 573.662 434.761
1911 0 130.633 13.5035 1764 111.804 574.146 428.565
1912 0 131.703 14.4416 1902 111.148 573.814 425.922
1913 1 67.5259 11.0476 746 112.637 574.639 459.692
1914 0 70.2275 13.7126 963 110.043 574.394 452.192
1915 0 71.1065 9.9147 705 116.935 573.755 451.79
1916 0 75.2301 13.6913 1030 108.501 573.434 455.553
1917 0 75.1523 13.8519 1041 109.027 573.752 451.857
1918 0 82.2154 17.0771 1404 103.412 574.272 448.869
1919 0 83.3741 18.2311 1520 102.907 575.949 441.959
1920 0 83.6931 13.5854 1137 110.46 576.995 442.294
1921 0 86.2697 12.8203 1106 111.469 576.31 436.799
1922 0 88.4116 14.0592 1243 110.095 577.165 439.051
1923 0 92.8522 14.69 1364 109.834 578.199 436.611
1924 0 95.1892 16.8191 1601 106.46 577.876 436.269
1925 0 100.713 16.0159 1613 107.552 579.2 434.825
1926 0 103.277 13.4298 1387 111.211 579.713 438.347
1927 0 105.462 15.2661 1610 110.212 580.563 432.761
1928 0 107.735 17.8494 1923 107.686 580.666 425.341
1929 0 108.322 15.4354 1672 111.904 581.138 429.251
1930 0 114.315 15.8072 1807 110.439 581.619 430.302
1931 0 113.332 13.1825 1494 116.195 581.718 423.971
1932 0 120.53 14.9423 1801 112.075 582.797 424.892
1933 0 125.273 18.2401 2285 107.082 583.706 424.445
1934 0 127.537 15.0937 1925 112.272 582.965 424.855
1935 1 71.3932 14.8193 1058 110.45 583.865 451.118
1936 0 77.4152 11.7677 911 115.422 583.424 448.043
1937 0 79.2201 14.0116 1110 110.488 583.178 450.396
1938 0 80.2967 13.8611 1113 112.667 583.086 448.903
1939 0 81.3189 12.949 1053 114.392 582.259 447.115
1940 0 86.2074 16.6459 1435 107.709 582.691 450.054
1941 0 90.3208 16.1425 1458 109.573 581.497 444.975
1942 0 90.208 15.8522 1430 110.016 580.581 450.151
1943 0 95.2943 17.0314 1623 108.049 579.979 446.449
1944 0 98.5531 16.6205 1638 109.174 578.56 443.068
1945 0 101.203 14.881 1506 112.215 578.995 440.023
1946 0 106.439 15.9153 1694 109.597 578.04 442.091
1947 0 107.454 17.9612 1930 104.192 577.583 450.278
1948 0 111.478 12.6482 1410 113.814 576.838 442.692
1949 0 116.717 18.1979 2124 106.155 575.765 437.802
1950 0 118.787 13.0318 1548 114.715 574.85 431.645
1951 0 126.332 16.1796 2044 107.556 574.405 436.26
1952 0 127.765 16.1077 2058 110.369 574.372 428.314
1953 0 135.686 15.16 2057 108.621 573.535 432.524
1954 0 138.68 12.7848 1773 113.98 574.857 420.779
1955 0 141.402 14.6532 2072 110.384 574.386 423.025
1956 1 74.3092 7.92634 589 112.652 574.747 452.589
1957 0 76.4751 10.9186 835 110.538 573.964 449.334
1958 0 79.2144 12.6492 1002 108.926 572.834 448.86
1959 0 84.1116 14.2905 1202 104.855 573.773 448.452
1960 0 85.182 12.3031 1048 108.862 573.212 443.901
1961 0 87.2048 14.6208 1275 105.46 574.501 440.735
1962 0 90.2708 12.1966 1101 106.758 574.111 444.553
1963 0 90.329 11.1038 1003 111.691 575.272 433.901
1964 0 93.1425 11.3375 1056 110.955 575.512 435.033
1965 0 99.1361 13.3756 1326 107.157 575.773 436.029
1966 0 100.283 13.4319 1347 109.49 576.268 429.046
1967 0 101.332 11.9508 1211 112.101 577.847 423.724
1968 0 106.321 11.9731 1273 110.518 579.02 428.707
1969 0 111.332 15.6918 1747 104.394 579.142 432.492
1970 0 114.252 12.5862 1438 109.504 579.861 427.647
1971 1 63.2461 9.59743 607 105.25 580.278 455.591
1972 0 67.2815 12.901 868 101.424 579.67 458.841
1973 0 70.2789 14.4851 1018 103.988 580.852 451.376
1974 0 71.1059 12.7838 909 105.452 579.922 458.317
1975 0 76.1446 16.1141 1227 101.695 579.971 455.597
1976 0 78.1324 10.8662 849 109.651 580.774 452.337
1977 0 80.1261 13.0045 1042 106.801 581.13 451.986
1978 0 85.221 13.8346 1179 105.007 581.332 451.484
1979 0 87.2589 17.6715 1542 100.577 581.859 447.657
1980 0 91.506 16.5672 1516 103.825 581.646 447.201
1981 0 92.3075 13.1517 1214 107.829 581.542 451.155
1982 0 93.1839 13.7577 1282 105.66 580.917 455.851
1983 0 101.2 13.9427 1411 103.376 580.663 448.589
1984 0 103.462 14.8171 1533 103.683 580.355 446.676
1985 0 107.544 14.3662 1545 104.551 579.469 447.305
1986 0 108.339 12.867 1394 107.845 577.529 444.87
1987 1 64.2343 12.5322 805 105.937 577.891 464.277
1988 0 64.34 11.5636 744 108.398 576.403 466.31
1989 0 68.3721 11.9201 815 106.994 576.461 466.068
1990 0 68.331 12.5712 859 107.052 575.485 461.279
1991 0 71.1053 13.4167 954 106.896 575.257 463.723
1992 0 71.1766 15.1454 1078 108.247 575.861 460.743
1993 0 73.2363 14.6239 1071 108.079 574.989 460.379
1994 0 76.183 12.2337 932 112.383 575.232 459.675
1995 0 79.1307 12.5109 990 110.966 575.564 460.648
1996 0 81.1999 10.9852 892 114.657 574.767 455.123
1997 0 84.1947 13.5044 1137 111.99 575.464 450.172
1998 0 86.1798 11.8241 1019 113.501 574.403 453.302
1999 0 88.2462 12.6918 1120 112.692 574.25 450.615
2000 0 90.1672 12.5988 1136 114.53 574.106 445.949
2001 0 94.4181 17.5072 1653 105.613 575.609 450.211
2002 0 96.3744 15.5643 1500 109.68 574.091 445.127
2003 0 102.879 15.5133 1596 109.638 575.432 443.335
2004 0 101.493 13.5872 1379 114.185 575.835 442.376
2005 0 105.606 14.895 1573 112.947 575.301 438.986
2006 0 108.496 15.1066 1639 111.381 576.453 441.815
2007 0 109.664 13.3225 1461 115.667 576.257 438.352
2008 0 113.494 19.1905 2178 107.346 576.921 436.884
2009 0 110.451 14.7305 1627 115.921 577.733 431.406
2010 1 64.23 10.6492 684 116.373 577.123 449.341
2011 0 69.0711 11.7415 811 115.491 578.137 450.916
2012 0 70.1543 15.024 1054 105.685 577.584 451.018
2013 0 71.1094 14.0066 996 108.184 580.13 453.347
2014 0 77.096 13.2043 1018 108.861 579.148 453.402
2015 0 75.0992 13.3423 1002 111.168 579.528 450.679
2016 0 78.0903 15.6486 1222 107.149 580.12 452.461
2017 0 83.2141 11.3082 941 112.542 580.605 454.855
2018 0 84.1332 12.1474 1022 112.851 580.688 448.725
2019 0 89.314 13.2902 1187 110.551 580.878 449.779
2020 0 90.2418 9.28616 838 117.093 581.679 448.906
2021 0 94.1676 12.0848 1138 112.55 580.955 453.07
2022 0 97.2984 15.7968 1537 107.41 581.898 451.887
2023 0 99.2633 15.0509 1494 109.495 581.754 448.061
2024 0 101.243 12.5342 1269 113.794 580.972 441.602
2025 0 107.115 16.1696 1732 109.388 580.136 443.043
2026 0 111.167 15.5351 1727 110.632 579.346 444.819
2027 0 113.394 15.6799 1778 111.142 579.446 444.371
2028 0 116.145 19.4929 2264 105.246 578.739 444.033
2029 0 119.277 14.4034 1718 112.214 578.084 444.889
2030 0 123.279 12.2567 1511 115.298 578.022 436.968
2031 0 127.336 13.4605 1714 113.828 576.293 434.15
2032 0 134.321 16.0287 2153 110.436 576.752 432.461
2033 0 140.262 14.1806 1989 113.807 575.671 432.258
2034 1 76.17 12.6953 967 111.697 574.155 464.12
2035 0 78.0874 11.7561 918 113.772 574.451 460.98
2036 0 81.3188 13.5762 1104 111.841 574.829 459.351
2037 0 83.4843 16.4821 1376 107.804 575.262 455.618
2038 0 86.2867 11.8095 1019 116.901 574.541 449.56
2039 0 90.3258 13.6174 1230 114.237 573.694 445.407
2040 0 92.2486 17.5612 1620 107.741 573.72 447.794
2041 0 94.3979 12.5321 1183 115.705 572.623 446.384
2042 0 98.1198 14.5638 1429 112.747 572.656 447.231
2043 0 97.1206 13.0045 1263 117.779 572.646 445.198
2044 0 102.136 14.373 1468 115.471 573.486 442.779
2045 0 104.28 13.7227 1431 117.179 573.002 435.87
2046 0 104.2 13.9156 1450 117.217 574.043 436.122
2047 0 112.195 14.6442 1643 115.732 574.324 436.458
2048 0 113.339 13.2346 1500 118.402 575.355 428.453
2049 0 115.416 13.7329 1585 119.464 575.278 427.204
2050 0 121.44 14.0317 1704 117.597 577.228 429.768
2051 0 125.319 10.7805 1351 117.686 578.147 434.252
2052 1 70.2947 12.9597 911 113.777 578.801 453.69
2053 0 72.0995 13.3011 959 113.961 578.633 451.287
2054 0 76.1454 12.8307 977 114.025 580.4 450.387
2055 0 77.6112 12.0988 939 114.286 580.105 453.2
2056 0 81.4997 16.859 1374 105.788 582.108 452.229
2057 0 82.4713 15.2053 1254 109.478 581.714 449.343
2058 0 84.6419 14.0238 1187 112.785 582.112 444.844
2059 0 89.4397 18.314 1638 106.977 583.176 436.982
2060 0 95.7305 17.8418 1708 106.998 582.102 440.713
2061 0 94.5962 18.0557 1708 107.904 583.116 440.148
2062 0 95.4764 17.1246 1635 109.391 583.17 441.709
2063 0 100.405 17.6883 1776 108.587 583.406 439.797
2064 0 107.499 15.535 1670 111.572 582.183 440.107
2065 0 105.333 13.9653 1471 115.536 582.997 437.3
2066 1 62.3689 11.9451 745 118.67 581.591 460.984
2067 0 62.3943 11.0427 689 118.451 582.21 463.134
2068 0 64.5205 10.9423 706 120.63 582.538 460.163
2069 0 68.5272 13.761 943 116.647 582.471 459.91
2070 0 69.5739 12.1597 846 119.293 581.462 457.583
2071 0 75.396 17.0301 1284 109.782 580.118 463.9
2072 0 78.2928 13.2068 1034 112.567 578.876 456.129
2073 0 80.5328 13.8205 1113 112.384 577.081 458.376
2074 0 82.4234 12.5207 1032 114.837 576.944 452.903
2075 0 86.3616 14.3003 1235 112.164 575.207 456.004
2076 0 86.3869 14.5971 1261 113.974 575.739 452.139
2077 0 89.5054 13.8204 1237 115.47 575.356 451.618
2078 0 95.8055 16.8988 1619 109.702 575.056 453.085
2079 0 94.2929 13.4369 1267 116.704 574.32 448.184
2080 0 98.4231 15.1082 1487 114.576 574.046 443.952
2081 0 99.57 12.9758 1292 118.263 573.118 441.901
2082 0 99.57 12.8452 1279 143.095 572.145 441.937
2083 0 108.296 15.5869 1688 113.936 572.796 439.538
2084 0 107.43 15.5078 1666 114.733 573.112 438.824
2085 0 111.522 14.7864 1649 116.6 573.083 435.303
2086 0 114.337 10.3466 1183 121.822 572.206 439.365
2087 0 114.337 10.2679 1174 158.204 572.223 439.405
2088 0 119.462 16.6496 1989 114.029 573.347 428.095
2089 0 124.579 13.9509 1738 118.926 574.205 423.096
2090 0 129.54 13.656 1769 119.027 573.981 423.229
2091 0 132.621 14.8846 1974 117.391 574.656 421.508
2092 1 71.4894 12.4354 889 120.417 575.64 447.654
2093 0 75.2436 13.8351 1041 118.206 576.041 446.529
2094 0 76.2195 12.5821 959 120.928 576.592 442.968
2095 0 80.2478 14.2185 1141 117.134 576.593 444.143
2096 0 83.2887 12.1385 1011 120.109 578.323 442.549
2097 0 84.3231 13.9701 1178 119.003 578.998 438.508
2098 0 86.118 13.737 1183 118.67 579.534 440.328
2099 0 93.3976 15.5893 1456 114.804 579.537 440.142
2100 0 93.1681 15.8531 1477 115.196 581.054 436.092
2101 0 96.5105 14.558 1405 117.138 581.125 438.408
2102 0 98.1935 14.5325 1427 117.626 582.922 437.579
2103 0 106.442 14.1485 1506 116.759 583.108 435.887
2104 0 106.338 13.5324 1439 119.771 583.485 430.781
2105 0 111.196 14.344 1595 118.285 583.285 431.853
2106 0 115.206 13.5063 1556 118.857 582.886 432.744
2107 0 121.473 13.4433 1633 119.159 582.992 424.333
2108 0 126.734 12.7038 1610 120.129 582.43 424.068
2109 1 73.3833 12.8231 941 113.781 581.751 457.562
2110 0 75.1328 13.3497 1003 111.278 580.868 459.335
2111 0 77.1529 11.4578 884 109.221 581.129 451.342
2112 0 78.286 9.75909 764 112.906 580.669 451.976
2113 0 82.3054 12.4658 1026 108.263 579.468 453.656
2114 0 86.2489 11.432 986 108.017 579.203 457.476
2115 0 92.1987 13.2865 1225 107.11 577.898 452.624
2116 0 90.319 11.6697 1054 111.544 577.176 444.405
2117 0 96.3518 13.9489 1344 106.642 577.176 446.356
2118 0 98.353 12.2416 1204 110.37 576.316 439.922
2119 0 98.353 12.3128 1211 137.983 575.323 440.035
2120 0 104.404 11.6567 1217 110.873 574.184 438.643
2121 0 105.384 12.9337 1363 110.124 574.228 436.588
2122 0 109.319 12.5779 1375 108.819 574.371 438.481
2123 0 118.326 12.1021 1432 111.974 574.353 428.698
2124 0 120.198 12.4295 1494 110.817 574.721 433.571
2125 0 125.16 13.9262 1743 107.086 574.053 436.067
2126 0 127.196 8.89965 1132 115.09 574.248 428.714
2127 0 134.487 10.7445 1445 112.761 573.627 424.623
2128 0 137.316 10.2828 1412 110.273 573.639 430.396
2129 1 67.1924 5.56611 374 112.845 574.65 442.957
2130 0 79.4374 14.7664 1173 99.8022 573.816 447.138
2131 0 81.4213 12.3064 1002 106.174 573.591 445.506
2132 0 82.3367 13.8213 1138 103.403 574.743 443.962
2133 0 85.3437 11.2955 964 106.301 575.786 443.036
2134 0 90.207 15.9078 1435 99.561 575.98 445.767
2135 0 93.2898 12.7988 1194 104.346 576.123 437.598
2136 0 94.5002 13.746 1299 103.605 576.271 435.791
2137 0 95.2429 15.3817 1465 102.095 576.719 433.601
2138 0 100.258 14.3231 1436 103.378 577.813 434.171
2139 0 100.266 10.7314 1076 108.023 578.578 422.927
2140 0 102.549 14.3639 1473 104.55 579.447 427.981
2141 0 108.226 14.4236 1561 103.695 581.09 428.239
2142 0 110.276 10.51 1159 109.06 580.236 421.5
2143 0 113.21 13.2409 1499 106.031 580.99 433.07
2144 0 115.356 12.6045 1454 108.365 581.801 430.808
2145 0 117.502 10.4679 1230 112.035 581.02 421.38
2146 0 123.352 13.7898 1701 107.42 582.009 423.574
2147 0 127.415 10.3128 1314 111.381 579.604 428.989
2148 0 132.548 9.74742 1292 112.956 581.023 416.536
2149 0 139.268 11.6753 1626 111.597 581.285 419.801
2150 0 145.258 13.1353 1908 108.789 581.721 423.777
2151 0 150.769 11.5077 1735 113.281 581.316 416.957
2152 1 84.3279 10.0441 847 117.358 579.497 443.627
2153 0 91.3008 12.1138 1106 112.571 579.744 450.041
2154 0 90.2236 9.72029 877 117.732 580.09 446.991
2155 0 96.2683 14.7816 1423 109.693 578.933 448.63
2156 0 101.236 17.3457 1756 106.062 578.817 447.719
2157 0 101.364 14.512 1471 111.748 578.095 446.141
2158 0 106.329 13.4583 1431 112.454 577.081 443.39
2159 0 107.306 12.7952 1373 113.555 576.442 444.597
2160 0 113.492 13.7367 1559 112.772 576.013 439.647
2161 0 117.328 14.9836 1758 110.856 575.256 437.219
2162 0 112.271 12.9508 1454 114.314 574.023 442.463
2163 0 122.402 12.2057 1494 116.301 573.661 435.782
2164 0 123.74 18.555 2296 107.104 574.186 430.223
2165 0 126.406 11.2099 1417 118.975 572.908 431.163
2166 0 128.264 11.6479 1494 117.428 572.532 433.83
2167 0 136.442 13.8447 1889 114.697 572.567 424.828
2168 0 139.436 14.3866 2006 113.15 571.924 425.726
2169 0 143.499 14.3903 2065 113.055 574.225 415.037
2170 0 146.842 15.3907 2260 111.343 573.672 417.354
2171 0 152.66 15.2757 2332 112.132 573.733 411.979
2172 0 155.702 15.7673 2455 111.735 572.862 408.409
2173 0 158.658 16.5954 2633 111.529 572.548 407.52
2174 0 164.511 14.4489 2377 113.998 574.389 401.034
2175 0 165.489 12.1458 2010 119.354 575.131 397.109
2176 1 178.519 8.48088 1514 117.235 574.086 414.927
2177 0 177.373 12.9163 2291 115.121 575.194 397.106
2178 0 181.583 17.6283 3201 107.946 575.008 398.669
2179 0 181.389 10.7724 1954 119.746 576.452 379.627
2180 0 190.846 13.6183 2599 113.499 576.962 396.136
2181 0 198.623 14.0568 2792 111.947 577.716 397.433
2182 0 203.697 17.472 3559 109.048 578.945 387.393
2183 0 209.965 13.788 2895 114.303 578.479 387.276
2184 0 217.583 16.0307 3488 111.963 580.175 376.658
2185 0 228.673 13.3378 3050 114.546 580.027 383.653
2186 0 228.625 15.3089 3500 113.775 580.847 373.275
2187 0 239.004 16.3093 3898 110.322 581.387 380.417
2188 0 239.826 9.98222 2394 115.444 582.498 394.172
2189 0 238.858 7.72424 1845 120.996 581.845 384.766
2190 1 205.761 11.1829 2301 114.752 582.752 394.161
2191 0 209.691 12.7617 2676 116.272 582.621 380.771
2192 1 67.3607 9.51593 641 104.151 583.033 458.743
2193 0 70.3433 9.56737 673 102.733 583.804 457.958
2194 0 71.2635 10.1174 721 102.092 582.684 456.929
2195 0 76.3475 9.70562 741 102.289 582.564 458.613
2196 0 77.3301 12.2074 944 101.133 581.818 455.71
2197 0 80.5371 8.98965 724 104.501 580.262 459.333
2198 0 81.4036 9.07822 739 106.84 580.654 451.451
2199 0 83.2537 13.549 1128 100.785 580.03 459.675
2200 0 87.3504 14.4704 1264 99.6843 578.825 461.237
2201 0 85.256 10.6503 908 106.794 577.118 457.116
2202 0 85.256 10.6503 908 119.51 575.116 457.309
2203 0 92.3488 13.9363 1287 102.959 576.038 452.036
2204 0 94.2793 13.0676 1232 105.059 575.846 446.645
2205 0 96.32 11.9601 1152 105.753 574.54 448.958
2206 0 103.201 12.9165 1333 104.938 574.151 443.944
2207 0 105.39 13.4263 1415 104.507 574.216 443
2208 0 105.196 16.1033 1694 100.917 574.347 446.863
2209 0 108.359 10.982 1190 109.028 574.014 440.995
2210 0 111.73 11.5547 1291 108.793 574.198 434.891
2211 0 117.362 15.0985 1772 103.978 574.387 437.851
2212 0 116.438 11.5427 1344 109.862 573.83 430.58
2213 0 119.766 12.5745 1506 109.775 574.668 431.323
2214 1 71.2695 9.07822 647 107.059 572.777 457.097
2215 0 71.4092 9.62061 687 106.921 574.261 458.185
2216 0 71.2241 12.4115 884 106.029 573.597 449.787
2217 0 78.3378 11.744 920 105.372 574.33 450.012
2218 0 75.1171 10.2507 770 107.217 573.878 450.9
2219 0 74.1744 9.11366 676 110.013 573.962 443.411
2220 0 80.1644 12.2124 979 104.106 574.506 442.035
2221 0 83.3077 14.3684 1197 101.049 575.119 443.901
2222 0 83.2563 14.1251 1176 102.27 575.449 439.882
2223 0 84.2224 11.6952 985 106.22 577.525 438.179
2224 0 86.23 16.3168 1407 100.484 577.812 439.323
2225 0 89.1006 12.1772 1085 106.163 577.721 440.205
2226 0 92.2394 14.8743 1372 102.855 577.786 439.453
2227 0 95.1614 15.1532 1442 102.882 577.438 432.566
2228 0 97.3623 12.7154 1238 105.479 579.017 438.319
2229 0 99.3733 12.6895 1261 106.721 579.36 435.361
2230 0 100.176 13.2167 1324 107.06 580.544 437.07
2231 0 103.272 14.1181 1458 106.14 579.561 432.204
2232 0 107.35 15.7801 1694 104.6 580.739 430.582
2233 0 110.282 13.5108 1490 108.552 580.834 425.1
2234 0 112.248 12.8732 1445 110.358 580.669 431.163
2235 0 116.318 11.7523 1367 112.351 581.23 424.681
2236 0 122.281 15.7342 1924 106.867 581.235 426.176
2237 0 122.454 13.1315 1608 111.325 580.754 424.02
2238 0 127.565 14.3848 1835 109.196 581.96 431.423
2239 0 134.314 9.26191 1244 115.207 581.319 429.969
2240 0 137.573 13.4329 1848 111.495 580.186 419.034
2241 1 50.0632 9.92744 497 104.988 578.73 464.459
2242 0 60.2376 9.49573 572 108.47 578.455 456.093
2243 0 57.056 14.144 807 102.841 577.695 457.798
2244 0 62.1149 13.1209 815 104.128 575.708 467.264
2245 0 67.1928 18.5585 1247 97.2847 574.705 463.99
2246 0 67.1496 10.7968 725 108.343 575.022 460.215
2247 0 74.1312 13.6919 1015 103.67 574.631 458.361
2248 0 74.1237 14.0576 1042 103.698 574.019 455.557
2249 0 77.1816 11.8811 917 107.036 573.234 455.034
2250 0 79.2393 13.0617 1035 104.925 573.617 456.524
2251 0 82.2145 13.1242 1079 104.93 573.17 450.541
2252 0 82.162 15.5181 1275 102.944 573.033 450.198
2253 0 87.1483 10.9698 956 108.075 571.708 451.183
2254 0 87.1483 10.7747 939 139.561 570.698 451.187
2255 0 92.2698 17.102 1578 100.457 572.39 444.255
2256 0 95.3449 11.9776 1142 106.967 572.693 439.293
2257 0 98.3539 10.8587 1068 108.786 572.866 443.583
2258 0 99.3376 15.7644 1566 103.161 573.195 441.484
2259 0 102.24 15.0822 1542 104.098 573.271 442.576
2260 0 104.396 12.3377 1288 109.098 574.87 437.5
2261 1 63.1716 11.8408 748 107.04 574.007 454.592
2262 0 66.2436 9.75189 646 111.469 575.074 455.005
2263 0 62.2779 13.7609 857 107.338 574.966 450.196
2264 0 70.3758 15.4172 1085 101.441 578.268 456.065
2265 0 68.153 12.8681 877 107.026 577.512 454.906
2266 0 71.3337 11.9158 850 109.896 577.406 450.772
2267 0 71.3569 11.982 855 111.047 578.575 451.472
2268 0 73.2162 13.4396 984 110.728 578.542 448.778
2269 0 76.3549 15.022 1147 107.221 578.486 452.336
2270 0 76.4066 14.0695 1075 109.779 579.619 446.563
2271 0 79.1949 13.814 1094 110.261 581.084 448.334
2272 0 87.3317 20.3019 1773 99.586 581.099 443.899
2273 0 89.3737 18.6968 1671 101.835 581.099 442.723
2274 0 92.45 19.8918 1839 100.219 581.897 442.048
2275 0 98.366 23.6769 2329 95.0992 581.853 435.649
2276 0 99.5536 18.1912 1811 102.239 582.397 439.264
2277 0 97.3941 16.1817 1576 106.468 582.515 446.947
2278 0 105.399 16.0058 1687 104.835 581.658 440.576
2279 0 105.299 18.1768 1914 102.859 581.741 445.875
2280 0 106.428 12.5062 1331 112.069 579.509 435.3
2281 1 62.1816 10.1638 632 108.538 580.536 467.29
2282 0 61.3262 11.1861 686 107.776 580.69 462.735
2283 0 65.3916 11.2859 738 103.737 580.78 462.938
2284 0 68.2411 12.8661 878 100.874 580.918 458.596
2285 0 71.1237 16.9282 1204 95.4668 580.109 459.824
2286 0 71.2382 9.77004 696 104.004 579.491 463.57
2287 0 73.1811 13.1045 959 101.112 578.508 457.415
2288 0 74.1564 10.9768 814 104.517 577.108 454.657
2289 0 77.2877 9.21234 712 106.287 577.882 457.343
2290 0 81.2003 11.7364 953 103.984 576.558 454.377
2291 0 83.2234 19.9103 1657 93.7387 576.754 451.479
2292 0 81.223 12.1025 983 104.33 576.266 449.372
2293 0 85.2199 9.31707 794 107.943 575.098 445.6
2294 0 88.2062 14.6588 1293 100.828 575.22 448.476
2295 0 89.3994 14.6533 1310 100.629 574.805 449.289
2296 0 92.223 12.9035 1190 103.698 574.35 443.308
2297 0 94.3173 14.8223 1398 101.397 574.742 439.815
2298 0 97.1902 13.1906 1282 103.855 575.497 439.771
2299 0 103.302 12.9136 1334 103.325 575.109 438.645
2300 0 105.241 12.8373 1351 104.078 575.412 433.98
2301 0 105.241 12.9038 1358 123.021 575.414 433.711
2302 0 111.354 16.5508 1843 100.138 575.315 431.364
2303 0 113.256 13.677 1549 104.762 575.374 426.648
2304 0 111.289 11.7622 1309 106.511 576.025 430.993
2305 0 117.301 13.427 1575 104.784 577.357 427.667
2306 0 121.293 13.1335 1593 105.421 576.636 423.287
2307 0 127.169 13.6354 1734 104.312 578.371 425.593
2308 0 128.171 12.6004 1615 107.336 577.549 418.159
2309 0 133.274 12.8757 1716 106.101 579.522 420.674
2310 0 138.449 14.908 2064 104.5 578.587 414.3
2311 1 75.2758 12.3811 932 104.209 580.556 450.174
2312 0 77.1365 11.6158 896 107.288 581.562 445.472
2313 0 83.453 12.8456 1072 105.493 579.206 444.16
2314 0 86.249 12.4523 1074 107.402 580.142 435.928
2315 0 89.1174 15.5862 1389 103.425 579.585 441.633
2316 0 92.3195 14.7206 1359 105.057 580.384 439.962
2317 0 96.2002 13.0145 1252 107.79 581.113 431.769
2318 0 100.25 14.783 1482 105.414 579.933 440.775
2319 0 102.244 11.2379 1149 112.458 580.48 435.701
2320 0 104.231 11.0332 1150 113.155 580.602 441.774
2321 0 112.155 12.2777 1377 111.169 580.234 440.481
2322 0 111.164 12.4951 1389 111.977 579.749 441.136
2323 0 116.361 12.3839 1441 113.696 579.803 435.975
2324 0 123.404 12.3091 1519 111.845 579.334 446.449
2325 0 122.214 16.3812 2002 107.613 578.938 442.457
2326 0 128.306 13.5302 1736 113.192 578.784 436.001
2327 0 132.297 14.6187 1934 111.754 577.916 433.324
2328 0 136.354 15.5697 2123 109.991 577.674 435.902
2329 0 139.354 14.3879 2005 114.171 576.478 430.22
2330 0 146.397 12.9716 1899 115.968 576.1 429.125
2331 0 153.359 15.9756 2450 111.8 576.034 427.745
2332 0 154.491 14.5057 2241 115.791 575.336 413.685
2333 0 158.509 9.6146 1524 122.829 574.762 420.923
2334 0 170.538 19.2567 3284 109.402 575.016 416.281
2335 0 168.517 15.8382 2669 115.688 573.985 404.929
2336 0 177.571 15.7402 2795 117.473 574.759 399.873
2337 0 183.696 14.6601 2693 119.801 574.643 397.9
2338 0 186.723 17.4322 3255 114.883 574.725 403.492
2339 0 188.732 14.8412 2801 120.675 574.926 398.168
2340 0 196.508 15.1444 2976 121.427 574.876 388.08
2341 0 201.588 17.7391 3576 118.065 574.896 380.423
2342 0 206.831 16.4579 3404 119.692 575.672 383.234
2343 0 210.51 17.3863 3660 113.499 574.282 382.137
2344 0 215.572 15.2849 3295 117.542 574.706 370.724
2345 0 219.685 15.4175 3387 116.424 575.311 382.775
2346 0 227.697 18.2567 4157 112.599 575.412 370.844
2347 0 234.807 15.0421 3532 117.763 575.988 368.316
2348 1 51.0592 7.01147 358 108.648 577.682 456.603
2349 0 52.1397 10.8171 564 106.021 579.264 455.924
2350 0 55.095 12.8868 710 104.47 578.535 453.937
2351 0 54.1584 9.41682 510 110.953 580.561 453.635
2352 0 58.2616 13.0275 759 106.087 580.331 452.559
2353 0 60.2331 12.7339 767 106.492 579.432 457.781
2354 0 64.1574 14.0592 902 103.269 580.731 455.511
2355 0 65.2627 14.4646 944 103.182 582.636 455.896
2356 0 65.2673 12.5024 816 107.985 581.448 453.744
2357 0 66.1009 14.5081 959 107.364 581.146 456.589
2358 0 69.0795 16.4159 1134 106.899 580.508 453.804
2359 0 72.1221 17.4426 1258 104.538 581.002 458.37
2360 0 75.1197 14.7631 1109 108.624 580.123 456.512
2361 0 78.138 15.3958 1203 107.603 580.748 454.451
2362 0 80.1612 16.392 1314 106.176 580.812 457.991
2363 0 82.1247 16.6941 1371 106.271 580.821 456.222
2364 0 83.3288 13.9448 1162 111.211 579.938 455.145
2365 0 87.2587 12.4572 1087 113.691 580.541 452.232
2366 0 92.1944 15.3589 1416 109.119 579.696 453.963
2367 0 97.2478 16.967 1650 105.764 579.981 447.357
2368 1 345.961 10.6717 3692 112.787 578.814 365.484
2369 0 335.536 5.85333 1964 117.347 578.42 406.473
2370 0 190.288 24.8307 4725 96.6648 577.632 378.477
2371 0 187.778 20.258 3804 103.865 576.093 384.553
2372 1 115.52 14.9758 1730 110.787 575.871 429.786
2373 0 120.546 12.7089 1532 113.128 574.928 439.375
2374 0 122.407 13.063 1599 113.559 574.705 441.355
2375 0 124.215 11.4881 1427 113.267 572.526 437.959
2376 1 72.1858 11.0687 799 111.793 572.345 456.416
2377 0 74.1532 13.8767 1029 103.373 572.659 451.135
2378 0 77.2296 13.9325 1076 103.277 572.159 451.804
2379 0 78.1908 15.8203 1237 101.706 571.914 450.375
2380 0 81.0823 14.1091 1144 104.114 571.746 449.413
2381 0 85.1358 16.4208 1398 101.05 572.097 440.235
2382 0 88.0642 14.8187 1305 103.144 571.731 441.072
2383 0 89.2982 14.9051 1331 102.727 572.74 443.544
2384 0 92.3082 13.7149 1266 105.917 573.663 438.799
2385 0 95.2846 15.3015 1458 105.138 573.73 438.689
2386 0 96.2001 11.9335 1148 110.51 574.925 437.591
2387 0 100.187 18.216 1825 102.369 573.85 434.017
2388 0 103.168 16.1193 1663 105.249 575.661 428.238
2389 0 108.134 13.3816 1447 109.01 575.862 429.253
2390 0 111.208 17.5257 1949 103.604 575.832 423.576
2391 0 115.42 12.3548 1426 110.327 575.72 429.407
2392 1 66.0866 14.708 972 101.252 575.045 459.781
2393 0 66.217 12.459 825 108.024 574.63 452.722
2394 0 70.1715 18.412 1292 99.4915 576.768 454.184
2395 0 69.2149 12.0205 832 109.671 575.766 453.04
2396 0 75.3026 15.6834 1181 103.378 577.379 452.56
2397 0 73.1606 13.2585 970 108.526 577.755 452.298
2398 0 76.0742 13.2765 1010 108.695 579.198 450.227
2399 0 81.1946 15.9124 1292 104.36 579.53 451.564
2400 0 84.1088 14.4694 1217 106.887 579.29 448.016
2401 0 89.1338 13.5302 1206 107.287 579.585 452.164
2402 0 90.1904 12.1964 1100 110.115 579.332 451.012
2403 0 93.2348 14.4581 1348 107.78 579.609 447.076
2404 0 95.2717 14.1595 1349 108.758 578.416 447.908
2405 0 99.2961 13.7367 1364 109.392 578.265 448.472
2406 0 101.295 14.5614 1475 108.603 577.412 447.732
2407 0 104.215 13.0212 1357 111.303 577.058 445.862
2408 1 120.257 7.80828 939 114.669 577.067 454.458
2409 0 117.366 9.80695 1151 111.624 577.137 441.857
2410 0 116.288 12.3486 1436 110.373 576.717 436.693
2411 0 117.427 11.3006 1327 112.785 575.586 433.454
2412 0 121.359 8.91571 1082 116.105 575.497 432.105
2413 0 129.528 9.23355 1196 113.485 575.026 437.986
2414 0 134.442 11.7225 1576 108.259 574.131 439.888
2415 0 138.294 13.464 1862 108.872 573.453 425.033
2416 0 143.186 12.4453 1782 110.669 573.518 419.857
2417 0 149.44 10.7334 1604 111.706 573.188 422.481
2418 0 154.329 13.225 2041 109.921 572.741 406.923
2419 0 162.453 14.2195 2310 107.305 572.16 411.189
2420 0 167.386 13.9737 2339 108.331 572.581 406.823
2421 1 85.1348 13.7194 1168 102.045 573.244 444.858
2422 0 87.1294 10.8804 948 105.912 572.819 444.616
2423 0 93.2513 14.0588 1311 98.18 573.407 450.605
2424 0 93.2474 13.8127 1288 100.311 573.364 445.682
2425 0 95.3081 14.5843 1390 100.142 572.422 439.134
2426 0 98.1175 13.0965 1285 102.616 573.922 435.219
2427 0 100.304 14.6056 1465 100.906 573.971 438.085
2428 0 105.278 14.4095 1517 100.914 574.194 431.609
2429 0 108.146 14.4065 1558 99.9602 575.017 439.273
2430 0 112.481 16.5005 1856 99.2441 575.374 428.763
2431 0 115.511 11.5141 1330 105.295 576.261 432.445
2432 0 124.512 9.41276 1172 132.661 576.278 435.329
2433 0 125.588 14.3246 1799 109.476 578.034 418.828
2434 0 128.836 13.979 1801 109.641 578.373 418.187
2435 1 60.1034 9.66668 581 106.473 579.609 459.408
2436 0 60.3919 12.8825 778 106.413 578.841 451.157
2437 0 61.1813 9.57809 586 111.328 580.894 451.087
2438 0 64.1659 11.9534 767 106.276 581.636 454.055
2439 0 64.1659 11.9378 766 131.47 581.64 454.069
2440 0 70.1501 16.8353 1181 96.812 581.492 458.225
2441 0 74.077 10.1381 751 108.477 583.048 450.72
2442 0 76.1241 14.7916 1126 101.653 581.497 455.28
2443 0 81.1219 12.3641 1003 104.633 582.465 458.221
2444 0 78.1021 9.05225 707 109.687 581.743 458.484
2445 0 81.1732 14.3274 1163 102.132 580.571 459.738
2446 0 78.3031 9.00347 705 111.874 580.096 451.638
2447 1 92.481 14.0894 1303 103.998 580.117 455.14
2448 0 90.4751 14.7444 1334 104.09 579.801 452.58
2449 0 95.6184 11.0544 1057 109.261 579.588 451.313
2450 0 98.6521 11.0692 1092 110.417 578.29 445.229
2451 0 100.33 12.3692 1241 109.624 578.678 444.314
2452 0 106.64 13.7284 1464 107.268 578.086 444.678
2453 0 109.561 13.4811 1477 107.348 577.4 445.456
2454 0 113.322 12.0101 1361 108.025 576.535 447.316
2455 1 65.3265 11.343 741 106.243 574.968 462.953
2456 0 66.253 13.7956 914 103.787 574.806 461.379
2457 0 70.6702 13.8531 979 107.517 574.056 460.645
2458 0 72.4109 15.5778 1128 104.88 573.655 463.131
2459 0 73.3922 16.514 1212 103.95 572.937 460.081
2460 0 73.7743 12.5111 923 111.242 572.996 455.569
2461 0 77.5486 12.3535 958 111.105 572.565 454.463
2462 0 76.7495 12.1695 934 111.456 572.418 453.677
2463 0 82.7244 16.2588 1345 101.403 573.872 451.246
2464 0 81.4838 11.9901 977 108.162 574.008 449.162
2465 0 80.2945 10.3992 835 109.097 574.06 449.305
2466 0 86.4529 14.8289 1282 104.463 574.472 446.728
2467 0 90.7391 14.8668 1349 102.861 574.602 447.82
2468 0 88.2826 10.1266 894 110.076 574.058 445.157
2469 0 93.368 14.1269 1319 105.415 573.727 441.145
2470 0 94.3763 12.0369 1136 109.528 574.848 435.618
2471 0 97.3697 15.056 1466 105.168 575.389 436.353
2472 0 101.416 12.0987 1227 109.313 576.09 436.437
2473 0 104.518 13.9784 1461 106.447 575.899 436.944
2474 0 105.389 14.3279 1510 107.589 576.507 431.015
2475 0 107.886 11.475 1238 111.104 577.375 431.382
2476 0 112.417 15.656 1760 105.064 578.79 431.445
2477 0 115.341 13.6292 1572 108.279 578.257 425.896
2478 0 120.499 16.3238 1967 103.99 579.156 423.887
2479 0 124.843 12.0311 1502 111.249 578.61 415.715
2480 0 131.427 10.6371 1398 110.799 579.846 423.052
2481 0 132.304 11.8742 1571 110.242 580.363 411.29
2482 1 76.2292 13.4332 1024 99.3379 581.1 453.958
2483 0 80.6895 12.7278 1027 100.316 580.04 445.772
2484 0 82.2829 10.5247 866 102.781 580.778 444.42
2485 0 86.2408 13.8334 1193 99.7519 579.179 444.357
2486 0 89.3018 10.7277 958 102.93 578.836 443.901
2487 0 93.4115 19.4194 1814 93.5386 578.551 449.549
2488 0 93.4115 19.4837 1820 113.809 579.531 449.69
2489 0 98.3139 14.7894 1454 99.2902 578.518 447.133
2490 0 98.3139 14.9114 1466 119.632 576.516 447.251
2491 0 102.656 12.6344 1297 102.331 577.508 444.796
2492 0 107.336 12.6519 1358 102.767 576.689 443.697
2493 0 107.299 12.1343 1302 104.849 577.066 436.369
2494 0 118.486 11.6385 1379 103.004 575.515 443.538
2495 0 116.477 11.7105 1364 106.43 574.037 431.287
2496 0 117.72 11.9096 1402 105.598 574.427 435.912
2497 0 124.739 15.0154 1873 101.709 573.274 436.162
2498 0 127.418 17.2267 2195 99.1289 573.38 432.94
2499 0 133.492 12.3078 1643 105.772 572.973 430.32
2500 1 72.581 9.24484 671 103.116 572.642 456.44
2501 0 77.2742 8.68337 671 103.174 571.784 457.384
2502 0 80.2228 16.716 1341 94.6115 571.649 451.724
2503 0 83.1708 11.3982 948 101.347 572.043 450.831
2504 0 83.0821 10.4716 870 103.151 571.801 449.541
2505 0 85.3013 13.8216 1179 100.013 572.466 449.873
2506 0 87.0526 11.315 985 102.209 573.092 453.337
2507 0 89.2094 12.5884 1123 102.698 573.124 445.438
2508 0 93.1698 10.1642 947 105.069 572.909 445.128
2509 0 96.3181 13.0297 1255 101.984 574.163 439.44
2510 0 100.172 11.9394 1196 103.897 574.547 438.843
2511 0 105.536 18.6098 1964 95.723 575.285 434.224
2512 0 104.223 12.1471 1266 104.586 575.22 434.239
2513 0 107.204 13.1339 1408 102.33 575.245 438.496
2514 0 110.258 10.675 1177 106.509 575.521 432.302
2515 0 116.291 12.6063 1466 104.121 576.02 428.926
2516 1 62.0606 12.4556 773 101.31 577.51 459.483
2517 0 66.1596 15.5986 1032 96.6957 575.463 455.379
2518 0 70.3836 15.1456 1066 97.6313 577.103 447.879
2519 0 69.2385 12.3631 856 102.197 577.392 449.009
2520 0 74.0714 9.27484 687 104.387 578.073 454.394
2521 0 75.173 11.5467 868 103.107 578.174 447.219
2522 0 79.0861 10.4064 823 104.061 578.978 452.752
2523 0 82.1857 15.6353 1285 98.9774 578.255 448.77
2524 0 82.2946 10.4624 861 106.071 579.265 452.232
2525 0 86.1759 10.9659 945 105.984 578.074 450.972
2526 0 90.3324 14.2806 1290 102.484 578.55 449.294
2527 0 92.1578 14.3884 1326 102.73 579.118 445.807
2528 0 95.1935 15.9885 1522 100.625 579.524 452.533
2529 0 91.1678 9.10409 830 109.096 579.746 444.308
2530 0 101.436 13.2301 1342 104.156 579.716 441.851
2531 0 106.193 14.3794 1527 102.815 578.891 448.601
2532 0 109.2 11.5018 1256 109.448 578.153 443.484
2533 0 112.242 13.3284 1496 106.376 579.334 445.572
2534 0 118.333 13.7155 1623 106.97 576.665 437.007
2535 0 124.368 12.6962 1579 108.558 578.018 437.15
2536 0 126.348 12.4418 1572 108.151 576.852 441.688
2537 0 130.529 13.8361 1806 108.172 575.849 431.367
2538 0 135.649 16.3142 2213 105.982 576.041 429.807
2539 0 143.33 15.0771 2161 106.646 575.06 432.264
2540 0 142.217 9.93549 1413 115.081 574.283 424.64
2541 0 153.668 17.6745 2716 104.436 574.489 416.342
2542 0 155.482 15.616 2428 107.441 573.66 424.999
2543 0 162.35 15.5898 2531 106.836 573.333 423.964
2544 0 170.292 15.8962 2707 106.488 572.766 409.69
2545 1 77.2178 10.6582 823 109.389 572.926 450.979
2546 0 83.3654 13.5308 1128 103.95 572.121 454.554
2547 0 85.258 10.4976 895 110.484 573.32 447.566
2548 0 87.5224 12.4425 1089 107.712 572.916 448.77
2549 0 90.3236 13.6731 1235 107.526 573.049 443.375
2550 0 92.2833 14.1521 1306 107.179 573.237 443.39
2551 0 96.1254 17.0402 1638 102.763 571.749 443.797
2552 0 99.2282 14.3407 1423 106.829 574.261 439.065
2553 0 97.1478 12.4758 1212 109.484 573.295 442.589
2554 0 106.266 17.2304 1831 103.509 573.523 430.26
2555 0 112.491 15.4146 1734 104.55 574.428 436.901
2556 1 55.1927 13.7881 761 104.36 575.866 457.48
2557 0 57.4261 12.5727 722 106.813 575.798 455.978
2558 0 57.4553 14.533 835 103.508 576.659 460.189
2559 0 60.191 16.6138 1000 101.633 576.824 456.229
2560 0 60.4667 12.0397 728 109.57 579.457 454.816
2561 0 63.2653 15.0477 952 105.94 578.234 456.389
2562 0 65.365 19.0469 1245 100.949 579.436 455.455
2563 0 69.2131 13.1045 907 107.641 579.843 459.114
2564 0 70.4322 15.5185 1093 106.166 579.98 453.906
2565 0 74.3952 14.9741 1114 105.918 579.922 456.769
2566 0 75.565 17.7463 1341 103.542 579.687 452.166
2567 0 80.6493 16.7639 1352 104.446 579.171 457.476
2568 0 79.5424 14.4074 1146 110.766 579.19 453.052
2569 0 82.4896 15.905 1312 110.188 579.461 451.282
2570 0 83.5245 11.5894 968 116.55 578.836 451.501
2571 0 91.7248 16.3315 1498 109.04 578.197 454.989
2572 0 91.6047 13.7329 1258 114.026 578.231 454.454
2573 0 98.6182 14.7843 1458 111.718 577.749 453.567
2574 0 102.616 14.6176 1500 111.448 577.136 455.371
2575 0 100.372 13.3902 1344 116.632 577.219 452.164
2576 0 111.403 16.4178 1829 111.859 575.846 445.068
2577 0 112.65 16.538 1863 112.477 575.452 446.564
2578 0 117.41 17.1621 2015 112.046 574.209 443.786
2579 0 119.275 18.3776 2192 110.552 574.538 438.318
2580 1 66.1875 15.577 1031 110.648 573.465 464.761
2581 0 67.3609 15.5431 1047 111.005 573.06 465.978
2582 0 70.2687 16.5365 1162 109.669 573.863 462.209
2583 0 74.1482 13.9451 1034 112.717 573.155 446.408
2584 0 76.4173 15.8734 1213 109.216 572.332 448.615
2585 0 76.4173 15.7818 1206 143.062 572.308 448.524
2586 0 80.1396 16.309 1307 108.085 572.548 445.209
2587 0 80.2345 17.0625 1369 108.84 571.812 436.518
2588 0 80.2345 17.05 1368 138.319 571.797 436.389
2589 0 85.1163 15.6609 1333 112.165 572.877 430.2
2590 0 87.235 15.1086 1318 111.912 573.454 433.774
2591 0 91.2714 16.4236 1499 110.031 573.752 435.117
2592 0 94.3861 17.0152 1606 108.886 573.791 435.104
2593 0 95.0956 14.9744 1424 112.761 574.777 435.139
2594 0 99.2674 16.652 1653 109.518 574.851 433.325
2595 0 102.231 23.2318 2375 100.901 574.162 433.853
2596 0 106.387 20.1715 2146 105.342 575.37 432.952
2597 0 107.469 18.2378 1960 108.241 574.912 429.481
2598 0 111.399 16.248 1810 111.157 576.013 425.941
2599 0 117.379 14.3637 1686 111.276 577.189 426.926
2600 1 64.133 13.8306 887 104.238 576.719 456.328
2601 0 69.1909 13.7446 951 103.658 578.068 455.61
2602 0 67.321 11.3486 764 109.353 578.563 451.602
2603 0 72.5394 11.6764 847 107.901 578.658 452.216
2604 0 76.1901 11.8126 900 108.748 578.946 449.52
2605 0 76.212 13.1869 1005 106.541 579.41 450.663
2606 0 78.3125 10.9944 861 108.465 578.836 455.617
2607 0 78.3125 10.9689 859 148.605 577.824 455.638
2608 0 86.3783 17.2381 1489 101.366 579.031 453.801
2609 0 90.5465 14.8542 1345 103.413 578.719 455.126
2610 0 92.3598 12.0507 1113 106.498 578.744 454.462
2611 0 96.1547 13.7175 1319 104.688 578.813 453.227
2612 0 103.305 17.8404 1843 97.1877 579.02 454.331
2613 0 107.202 15.578 1670 101.178 578.572 449.614
2614 0 113.512 15.9983 1816 100.997 578.837 449.214
2615 0 118.287 15.4371 1826 101.337 577.974 448.866
2616 0 123.335 12.4863 1540 103.555 577.58 442.048
2617 1 69.188 11.1146 769 100.887 575.982 472.568
2618 0 75.293 14.1049 1062 100.015 575.693 462.923
2619 0 78.5171 14.0352 1102 99.5626 575.494 461.635
2620 0 78.2203 13.9606 1092 100.181 574.423 458.479
2621 0 81.4823 13.6717 1114 100.388 573.689 455.402
2622 0 85.6671 12.1867 1044 101.525 573.867 457.664
2623 0 92.3266 10.8636 1003 103.555 573.661 452.17
2624 0 92.3398 13.3095 1229 99.8316 573.538 457.534
2625 0 94.3979 14.4601 1365 99.8769 572.933 450.914
2626 0 98.528 15.7214 1549 98.9219 572.092 446.992
2627 0 104.41 13.6194 1422 101.421 572.223 447.316
2628 0 100.317 10.3671 1040 106.398 572.13 444.562
2629 0 106.525 9.78172 1042 105.537 572.789 449.262
2630 0 111.65 12.0735 1348 104.635 573.071 439.228
2631 0 113.387 14.7371 1671 101.56 573.266 438.531
2632 1 66.5805 11.9555 796 102.568 572.627 454.217
2633 0 67.4521 12.8684 868 102.497 573.632 455.494
2634 0 72.3357 16.3267 1181 98.7104 574.775 452.811
2635 0 71.3763 10.7459 767 107.299 574.206 450.107
2636 0 78.3794 13.2815 1041 102.752 574.566 451.702
2637 0 78.2605 14.209 1112 102.944 576.581 449.799
2638 0 78.3907 12.9352 1014 106.065 576.59 445.872
2639 0 85.9224 14.839 1275 101.885 577.456 451.249
2640 0 85.3998 11.2295 959 108.682 577.994 447.595
2641 0 92.3482 13.3733 1235 105.625 578.598 446.016
2642 1 64.5223 11.8719 766 101.435 580.628 459.922
2643 0 65.6931 10.1837 669 100.211 581.372 467.517
2644 0 70.9576 15.7982 1121 96.5968 582.036 465.715
2645 0 67.5258 11.6252 785 105.229 580.469 458.306
2646 0 68.3844 13.2925 909 101.723 580.728 462.542
2647 0 71.686 14.4519 1036 101.292 579.47 461.473
2648 0 76.7427 17.6043 1351 98.1562 579.583 461.106
2649 0 78.3772 13.3585 1047 103.367 579.352 460.832
2650 0 79.9103 14.1909 1134 102.857 577.714 454.876
2651 0 81.7542 16.9655 1387 99.0606 577.904 460.003
2652 0 85.739 13.786 1182 103.992 576.221 455.049
2653 0 86.8835 10.8766 945 107.881 575.561 457.011
2654 0 88.74 18.8528 1673 98.7191 574.683 457.891
2655 0 89.8631 14.8893 1338 104.978 573.897 447.825
2656 0 97.9366 18.2057 1783 99.7869 573.43 451.015
2657 0 98.9124 18.5922 1839 99.7461 572.705 447.22
2658 0 104.008 20.4696 2129 97.6247 571.205 448.377
2659 0 106.743 15.0268 1604 103.527 571.645 446.817
2660 0 109.805 20.4999 2251 97.9138 570.399 444.706
2661 0 110.739 13.7892 1527 107.154 571.114 440.053
2662 0 115.656 17.725 2050 98.8395 570.765 449.286
2663 1 65.4988 12.1224 794 103.377 570.635 459.018
2664 0 68.3835 14.8866 1018 98.1955 570.768 463.82
2665 0 72.5245 16.2152 1176 99.051 569.994 458.654
2666 0 76.7366 12.5885 966 101.65 570.656 459.467
2667 0 75.4553 16.4336 1240 100.152 571.174 454.269
2668 0 81.4088 15.6249 1272 101.404 570.023 450.72
2669 0 81.4913 11.0073 897 108.096 570.883 447.78
2670 0 85.7211 18.0936 1551 100.159 571.115 444.188
2671 0 89.6274 15.7318 1410 102.302 572.597 442.59
2672 0 89.6298 16.9475 1519 101.715 572.623 441.04
2673 0 92.6837 17.0904 1584 101.271 573.116 441.479
2674 0 96.6758 15.9709 1544 102.638 572.98 440.367
2675 0 100.656 14.2167 1431 104.799 574.48 435.985
2676 0 100.738 15.2673 1538 103.691 574.527 435.399
2677 0 107.624 14.8759 1601 103.155 574.82 434.648
2678 0 109.486 13.8008 1511 105.637 576.234 430.022
2679 0 113.421 19.0794 2164 98.1908 576.388 436.657
2680 0 119.682 12.5249 1499 104.95 576.852 434.388
2681 1 62.4338 12.7815 798 101.434 577.806 454.756
2682 0 70.1926 18.4208 1293 94.3766 577.25 461.516
2683 0 75.2785 16.9371 1275 97.2431 578.169 454.326
2684 0 75.3827 12.6952 957 102.213 577.634 452.661
2685 0 80.2137 14.0001 1123 99.7925 578.693 453.737
2686 0 82.4092 14.3309 1181 99.0627 578.88 451.795
2687 0 85.2076 17.7801 1515 92.3822 578.927 461.874
2688 0 88.2965 13.2735 1172 98.6015 576.883 454.34
2689 0 90.2746 15.8406 1430 96.8909 576.894 453.066
2690 0 91.24 15.2784 1394 96.4362 578.088 458.465
2691 0 95.3222 13.0924 1248 98.5994 577.321 455.949
2692 0 93.6861 11.4531 1073 101.822 576.647 444.281
2693 0 99.3497 14.1621 1407 98.4584 577.301 451.593
2694 0 101.51 14.0479 1426 99.3626 576.249 444.737
2695 0 106.969 19.1457 2048 93.4487 575.84 450.248
2696 0 107.293 11.5944 1244 101.447 575.898 447.58
2697 0 114.522 12.3295 1412 100.907 574.562 435.504
2698 0 114.732 11.8014 1354 100.852 574.064 442.564
2699 0 118.238 15.1221 1788 96.0296 574.129 441.287
2700 0 125.343 16.8418 2111 92.4964 573.124 448.171
2701 0 127.476 14.3243 1826 98.4474 573.201 433.859
2702 0 128.528 9.1809 1180 89.1203 571.343 435.595
2703 0 135.367 18.1359 2455 85.3813 571.167 436.991
2704 1 80.2029 22.8919 1836 79.6329 569.975 460.937
2705 0 80.1237 12.3559 990 89.1293 570.489 449.231
2706 0 86.2101 9.63924 831 91.8255 568.978 448.132
2707 0 90.4624 21.1469 1913 79.8678 569.448 461.583
2708 0 88.6256 15.5937 1382 85.1122 569.251 454.611
2709 0 97.2431 13.1423 1278 87.9937 571.091 449.534
2710 0 96.5471 15.754 1521 86.7219 571.55 441.884
2711 0 102.388 14.4548 1480 87.1703 570.753 448.364
2712 0 102.787 12.1416 1248 90.1362 571.525 439.966
2713 0 104.655 18.2409 1909 85.7858 571.834 434.513
2714 0 106.65 13.6428 1455 89.7601 572.066 435.809
2715 0 108.6 8.7109 946 92.2188 573.613 444.278
2716 0 113.429 16.3979 1860 87.9774 573.706 434.285
2717 0 114.593 12.8193 1469 91.3533 573.521 421.812
2718 0 120.577 19.357 2334 85.2498 573.262 431.594
2719 1 221.44 15.6024 3455 92.8208 575.168 372.26
2720 0 227.793 14.219 3239 94.0815 575.79 374.625
2721 0 237.115 22.3056 5289 87.9705 576.398 374.676
2722 0 245.242 15.6988 3850 93.2906 576.918 369.229
2723 1 199.102 14.4097 2869 92.6326 577.309 394.709
2724 1 147.515 16.622 2452 89.3622 577.472 407.847
2725 1 82.6076 11.5002 950 89.2179 577.421 449.325
2726 0 84.2615 13.9091 1172 85.6766 577.996 455.875
2727 0 90.332 12.598 1138 90.5062 578.264 445.553
2728 0 91.533 13.0991 1199 91.4887 578.387 450.993
2729 0 90.4415 14.3186 1295 91.2147 579.007 450.139
2730 0 102.3 23.8124 2436 83.3855 578.051 452.436
2731 0 100.51 16.267 1635 88.2936 578.416 455.887
2732 0 104.291 16.6265 1734 89.4435 577.751 445.183
2733 0 105.772 15.8454 1676 90.2309 577.291 443.215
2734 0 109.222 16.3612 1787 89.775 577.354 446.889
2735 0 113.491 16.7591 1902 88.6714 577.279 451.816
2736 0 115.768 11.2466 1302 95.5522 577.87 447.162
2737 0 122.536 15.8321 1940 90.7784 576.426 442.939
2738 0 120.581 18.9334 2283 89.1305 576.352 435.599
2739 0 124.817 19.3243 2412 88.206 575.358 446.039
2740 0 126.877 13.3672 1696 95.4357 575.97 431.591
2741 1 197.791 12.3211 2437 98.5002 575.195 402.774
2742 1 138.683 16.9235 2347 91.9523 574.283 430.762
2743 0 144.976 19.3618 2807 89.4656 574.078 420.518
2744 0 146.725 18.3472 2692 90.2292 573.385 426.101
2745 0 151.774 17.6907 2685 91.1065 572.987 421.356
2746 0 154.429 15.7289 2429 94.1914 573.466 417.611
2747 0 160.769 14.9905 2410 93.4963 571.839 422.463
2748 0 165.72 16.1236 2672 93.5389 572.226 415.138
2749 0 166.943 22.3609 3733 89.3544 571.019 411.597
2750 0 177.737 16.8957 3003 93.9198 572.068 408.229
2751 0 183.321 18.2357 3343 93.6455 571.608 396.991
2752 0 185.012 24.1822 4474 89.4707 571.464 397.211
2753 0 191.622 19.5072 3738 92.4797 571.57 403.389
2754 0 196.774 23.3059 4586 96.6853 571.605 396.61
2755 0 202.643 19.1025 3871 102.191 572.987 389.397
2756 0 209.518 17.1919 3602 105.444 573.258 377.842
2757 0 215.869 18.2935 3949 104.22 574.059 381.339
2758 0 220.687 17.7854 3925 105.845 574.046 373.977
2759 0 230.93 25.3237 5848 97.7006 574.86 364.666
2760 0 237.494 16.6152 3946 106.997 575.454 365.596
2761 1 247.013 14.2138 3511 110.518 576.415 366.907
2762 0 258.245 21.1659 5466 101.835 576.608 362.016
2763 0 262.394 13.7198 3600 110.462 577.316 354.554
2764 1 209.156 15.3283 3206 106.804 578.669 384.254
2765 0 214.06 12.2863 2630 110.117 578.746 383.913
2766 0 221.814 11.5547 2563 112.424 579.653 374.668
2767 1 235.004 16.9274 3978 105.527 579.465 379.698
2768 0 239.74 20.2344 4851 102.113 580.19 371.487
2769 0 251.139 19.7699 4965 101.874 580.525 380.684
2770 1 186.45 16.9858 3167 103.802 580.566 403.053
2771 0 186.857 16.4725 3078 105.784 580.193 392.144
2772 0 193.752 16.3301 3164 104.985 580.165 394.296
2773 1 71.5184 14.0943 1008 93.7054 579.98 460.629
2774 0 75.3697 9.32736 703 98.2262 580.754 460.824
2775 0 73.6445 13.1442 968 101.33 579.164 451.769
2776 0 78.7163 18.6111 1465 92.9195 580.144 455.122
2777 0 76.3821 16.9804 1297 95.6199 580.015 453.049
2778 0 82.4322 13.9266 1148 97.3554 581.23 460.867
2779 0 82.4152 12.619 1040 99.5625 580.101 457.352
2780 0 84.659 11.6467 986 101.923 579.403 450.618
2781 0 92.8559 13.1494 1221 98.8984 578.776 454.541
2782 0 94.6295 12.8713 1218 100.044 578.374 446.584
2783 0 97.7003 13.6745 1336 99.4266 578.332 445.719
2784 0 97.4832 13.1305 1280 99.7039 577.719 446.489
2785 0 104.936 17.4868 1835 94.8027 577.861 442.967
2786 0 103.652 11.6544 1208 101.494 576.833 443.541
2787 0 109.666 15.8937 1743 97.0993 576.277 437.176
2788 0 107.444 8.35786 898 104.026 575.959 444.4
2789 1 65.8906 14.7062 969 93.1197 575.319 463.785
2790 0 69.4572 10.4237 724 97.8716 574.358 458.275
2791 0 71.1446 13.9153 990 94.7525 574.729 459.464
2792 0 71.1446 13.8591 986 128.883 574.71 459.597
2793 0 85.1753 26.1696 2229 82.0265 573.789 448.252
2794 1 110.099 12.8793 1418 90.7553 574.401 445.328
2795 0 101.754 22.4365 2283 83.3395 574.336 432.905
2796 0 176.235 8.98798 1584 92.4356 574.573 445.926
2797 0 232.246 18.6785 4338 85.7494 573.52 379.695
2798 0 224.42 18.6926 4195 86.9569 574.145 384.652
2799 0 213.78 15.7779 3373 91.5443 575.63 394.622
2800 0 221.349 28.4393 6295 81.1846 574.931 379.867
2801 1 125.758 26.1216 3285 81.7674 575.895 428.789
2802 0 124.93 24.0775 3008 83.6649 576.56 423.835
2803 0 116.463 18.6067 2167 90.0683 576.894 423.406
2804 0 121.451 25.2283 3064 84.813 576.916 426.867
2805 0 115.966 21.0147 2437 89.9044 578.936 434.195
2806 0 114.225 23.515 2686 89.2267 578.061 423.842
2807 0 115.09 22.2174 2557 90.9652 579.515 423.26
2808 0 118.529 20.7037 2454 92.7624 580.514 431.208
2809 0 118.578 14.1763 1681 100.194 581.087 429.556
2810 0 119.392 15.0597 1798 100.258 581.562 423.602
2811 0 123.439 14.4687 1786 100.765 581.185 424.457
2812 0 125.484 13.5794 1704 101.771 581.34 425.701
2813 0 130.599 17.4274 2276 98.0488 582.179 420.435
2814 0 134.799 18.5833 2505 95.0547 581.984 425.44
2815 1 72.5002 10.7034 776 102.125 581.764 453.625
2816 0 78.3815 16.1263 1264 93.7627 581.819 458.498
2817 0 79.6274 17.72 1411 94.4479 581.502 450.928
2818 0 79.8462 13.4759 1076 99.8169 582.65 449.388
2819 0 86.6832 16.4161 1423 95.4975 581.403 452.11
2820 0 87.669 18.2391 1599 93.606 581.301 454.953
2821 0 92.5805 15.3488 1421 96.5855 580.956 453.246
2822 0 90.5054 12.6954 1149 101.993 581.604 445.611
2823 0 94.3468 14.7965 1396 99.4613 580.506 446.252
2824 0 95.7232 13.8733 1328 101.172 580.28 442.142
2825 0 99.377 21.9669 2183 92.7627 579.926 446.769
2826 0 102.494 13.6301 1397 102.424 579.145 444.12
2827 0 106.529 18.0421 1922 95.8429 578.413 444.625
2828 0 108.496 17.4846 1897 97.243 578.142 439.725
2829 0 113.766 19.083 2171 95.093 576.584 437.89
2830 0 121.745 20.543 2501 92.3375 576.7 441.552
2831 0 119.523 15.4698 1849 99.0297 577.309 433.452
2832 0 122.591 15.2622 1871 98.3474 576.049 434.863
2833 0 130.532 15.1304 1975 98.2972 574.944 429.925
2834 0 132.632 12.3274 1635 100.881 574.5 430.966
2835 0 134.215 16.0191 2150 97.0809 573.422 428.131
2836 0 141.568 12.0649 1708 100.594 573.412 422.039
2837 1 85.1663 16.5206 1407 91.8273 573.406 453.92
2838 0 89.188 17.5472 1565 91.0767 574.045 440.549
2839 0 89.3563 15.6788 1401 94.6395 573.886 433.117
2840 0 96.4774 19.4864 1880 89.8808 574.289 439.577
2841 0 96.4635 11.4447 1104 98.7364 574.323 430.726
2842 0 102.69 19.0964 1961 91.5716 575.593 425.797
2843 0 99.3517 13.7189 1363 96.8525 575.332 429.36
2844 0 103.364 17.4818 1807 94.3702 574.844 422.717
2845 0 105.695 17.664 1867 93.978 576.027 428.358
2846 0 112.411 17.1603 1929 94.8699 577.189 425.636
2847 0 113.321 10.5982 1201 100.359 577.846 431.386
2848 0 116.979 14.1393 1654 99.3936 578.295 416.641
2849 0 119.272 11.7714 1404 99.9573 578.952 426.596
2850 0 125.74 19.8822 2500 92.794 579.502 424.932
2851 0 129.496 16.541 2142 95.9178 580.185 419.474
2852 0 133.451 20.322 2712 93.4458 580.746 416.265
2853 0 135.43 27.0914 3669 87.9065 580.638 420.312
2854 0 142.357 15.3207 2181 98.8308 581.66 413.091
2855 0 144.74 11.151 1614 103.901 581.581 407.559
2856 0 149.419 15.8012 2361 99.0025 581.358 408.277
2857 0 154.848 13.736 2127 101.873 582.86 399.709
2858 0 154.848 13.8135 2139 148.332 582.849 399.6
2859 1 169.901 18.8286 3199 95.5377 582.792 411.652
2860 1 85.9087 8.8466 760 98.9868 583.303 451.511
2861 0 93.194 13.0373 1215 98.3663 582.724 440.994
2862 0 97.5538 11.6449 1136 97.0792 582.929 448.229
2863 0 94.6354 15.9454 1509 95.9284 582.229 439.981
2864 0 100.357 13.3225 1337 97.4899 581.985 441.808
2865 0 106.435 15.4648 1646 94.4034 582.051 443.224
2866 0 110.456 15.3002 1690 95.484 581.719 437.943
2867 0 112.452 18.3634 2065 91.4237 581.2 442.02
2868 0 110.423 13.5026 1491 98.4299 581.109 434.384
2869 0 117.521 14.3549 1687 95.987 580.39 437.3
2870 0 124.752 13.0339 1626 98.7159 579.741 427.378
2871 0 122.694 12.4945 1533 100.908 578.158 413.951
2872 0 130.417 11.3482 1480 99.95 578.586 424.795
2873 0 137.669 14.3751 1979 97.3845 576.426 421.605
2874 1 70.2322 11.6471 818 93.846 576.37 450.762
2875 0 74.3848 11.4943 855 92.407 575.669 451.103
2876 0 80.3844 11.3082 909 90.813 576.418 455.611
2877 0 84.5125 12.4952 1056 88.6837 575.719 455.365
2878 0 82.2656 9.45717 778 91.0887 575.801 456.952
2879 0 83.282 15.3935 1282 88.0304 575.218 450.495
2880 0 84.2245 12.0155 1012 91.9802 575.611 444.827
2881 0 85.3832 8.53798 729 97.0343 574.775 436.34
2882 0 91.2945 5.03864 460 96.0717 575.587 450.546
2883 0 87.2057 10.6874 932 95.2618 574.856 435.103
2884 0 95.2692 9.81429 935 96.6107 575.457 426.219
2885 0 96.305 10.9236 1052 95.5352 576.233 432.464
2886 0 102.298 15.3961 1575 91.2686 576.174 433.832
2887 0 110.52 17.0286 1882 89.4729 575.592 433.75
2888 0 107.654 13.7849 1484 93.1152 576.624 431.85
2889 0 111.351 12.5549 1398 95.0072 576.923 426.574
2890 0 112.634 10.3699 1168 99.9692 577.214 414.836
2891 0 115.67 10.8671 1257 97.9531 578.194 419.407
2892 1 31.1325 4.36842 136 89.1471 581.382 465.419
2893 0 27.0652 15.6659 424 80.1486 581.12 466.922
2894 0 29.0445 6.16296 179 87.2067 581.028 464.078
2895 0 28.0848 12.4266 349 82.2579 580.564 468.725
2896 0 28.0848 12.035 338 91.3846 581.692 468.793
2897 0 31.1306 3.05166 95 89.8421 580.526 473.053
2898 1 72.1216 10.4823 756 88.9299 582.939 448.087
2899 0 73.3661 8.95509 657 90.3683 581.18 442.09
2900 0 73.5855 7.93635 584 92.1969 581.305 446.476
2901 0 76.504 9.79034 749 88.8905 582.483 455.091
2902 0 79.5479 14.7458 1173 85.8738 582.385 447.851
2903 0 80.4005 11.7537 945 88.1365 582.53 454.35
2904 0 81.3305 12.1726 990 89.0768 582.366 450.992
2905 0 88.2629 9.65298 852 93.3016 583.015 444.451
2906 0 84.2205 10.7456 905 91.158 583.187 453.251
2907 0 91.2747 14.8782 1358 87.4558 582.916 453.721
2908 0 92.2164 17.1119 1578 86.6863 582.181 451.231
2909 0 94.198 14.8092 1395 88.7398 582.679 448.563
2910 0 95.3577 12.4269 1185 91.8354 581.882 447.774
2911 0 102.628 11.7122 1202 92.0266 581.562 449.541
2912 0 104.326 12.0488 1257 92.8067 581.328 442.541
2913 0 102.299 16.0314 1640 90.4006 580.274 438.426
2914 0 109.592 14.0247 1537 92.4886 578.647 437.931
2915 0 109.424 8.56299 937 97.6681 578.112 442.985
2916 0 111.621 11.5659 1291 95.8768 576.948 436.934
2917 0 114.25 12.7702 1459 95.0822 577.158 436.452
2918 0 118.301 18.2924 2164 90.5864 576.293 428.218
2919 0 118.301 18.2924 2164 112.629 576.293 428.218
2920 0 121.315 13.4938 1637 93.3482 575.356 427.851
2921 0 123.645 14.485 1791 93.0346 575.236 425.2
2922 0 128.295 11.5281 1479 96.8925 575.299 415.014
2923 0 131.328 13.4244 1763 95.025 574.77 418.845
2924 0 135.64 15.2757 2072 95.3055 575.412 419.058
2925 0 141.424 16.6803 2359 93.5617 574.788 411.791
2926 0 141.424 16.7298 2366 132.19 573.798 411.678
2927 0 147.399 12.4628 1837 98.5395 574.637 411.076
2928 0 146.5 9.15361 1341 104.44 574.399 388.037
2929 0 153.732 16.0344 2465 95.4799 574.647 398.022
2930 0 161.631 14.0196 2266 96.9047 575.119 405.775
2931 0 159.624 11.596 1851 102.089 576.214 383.77
2932 0 168.612 13.9848 2358 95.4813 577.035 407.83
2933 0 172.012 20.3416 3499 92.2238 577.055 386.307
2934 0 179.183 12.6072 2259 101.662 577.853 387.811
2935 0 181.638 16.0154 2909 98.2716 578.838 383.925
2936 0 189.803 15.1526 2876 99.0309 579.509 372.47
2937 0 191.694 16.5785 3178 98.0717 579.928 384.601
2938 0 201.628 19.7195 3976 93.2664 580.272 372.872
2939 0 214.332 28.1199 6027 85.8067 579.659 375.512
2940 0 210.963 25.8718 5458 88.524 580.118 376.712
2941 0 222.44 27.7693 6177 87.2077 580.485 375.571
2942 0 228.272 27.5242 6283 88.4821 580.691 364.822
2943 0 229.814 20.5253 4717 95.5099 582.168 356.268
2944 0 239.306 23.681 5667 92.9486 581.97 356.124
2945 0 238.172 26.8798 6402 90.4402 581.644 357.74
2946 0 247.154 22.0632 5453 94.5731 582.418 351.521
2947 0 249.825 24.1409 6031 93.4177 582.021 350.926
2948 1 185.683 13.1191 2436 98.8855 582.64 408.364
2949 0 188.571 16.2539 3065 96.2339 581.87 407.023
2950 0 193.607 11.7919 2283 104.038 582.129 390.838
2951 0 199.538 14.6137 2916 102.169 581.588 384.596
2952 0 207.428 18.3534 3807 98.8687 581.476 375.626
2953 0 211.828 14.0397 2974 104.34 581.413 377.54
2954 0 211.03 15.5049 3272 101.865 581.598 388.583
2955 1 219.963 10.9655 2412 109.354 579.905 368.435
2956 0 229.926 18.2667 4200 100.68 580.298 369.203
2957 0 233.62 13.5905 3175 107.731 578.979 353.432
2958 0 242.923 13.0082 3160 107.343 579.545 359.501
2959 0 251.593 15.8987 4000 104.134 578.543 353.955
2960 0 254.85 13.0626 3329 108.015 578.721 346.13
2961 0 296.06 8.61649 2551 110.128 577.87 360.259
2962 0 298.169 11.3459 3383 106.154 578.361 366.167
2963 0 298.189 24.0753 7179 94.3716 576.852 317.798
2964 0 299.822 16.5264 4955 103.638 576.763 315.843
2965 0 299.551 11.7443 3518 111.93 576.653 305.675
2966 1 33.0808 10.7918 357 83.028 574.768 473.779
2967 0 29.0278 7.47559 217 86.8986 573.991 469.677
2968 1 128.366 7.68896 987 93.7062 574.934 432.136
2969 0 123.708 8.77066 1085 97.7991 575.352 418.806
2970 0 124.757 15.0613 1879 91.8504 575.255 421.871
2971 0 126.684 8.75409 1109 99.7737 576.509 417.934
2972 0 126.654 15.2383 1930 115.968 576.763 411.021
2973 0 130.827 11.6643 1526 96.2621 575.374 422.581
