time division length width area intensity CMx CMy
0 0 50.1736 18.0972 908 117.781 59.9075 468.989
1 0 56.3818 16.0335 904 117.834 59.0774 470.316
2 0 55.1972 15.1457 836 119.738 57.7524 469.459
3 0 54.0791 15.5143 839 119.445 57.8808 469.908
4 0 57.3347 13.2729 761 119.378 56.6216 470.43
5 0 57.1258 11.676 667 123.403 56.0555 469.301
6 0 61.1268 18.6007 1137 111.294 54.9296 468.719
7 0 61.1417 12.7572 780 125.942 54.4795 467.52
8 0 66.0802 14.0284 927 119.554 54.7994 465.212
9 0 64.5176 14.1512 913 122.42 52.0186 465.501
10 0 68.2875 14.1607 967 123.555 52.3051 462.769
11 0 69.1298 13.9303 963 120.071 50.4299 462.788
12 0 74.2471 14.8423 1102 121.038 50.1724 458.34
13 0 74.0746 16.0514 1189 118.141 50.5013 460.325
14 0 77.1288 16.7123 1289 117.53 50.2358 455.217
15 1 43.039 14.0338 604 114.601 50.4172 473.343
16 0 43.0851 12.603 543 121.939 51.1897 467.552
17 0 43.0585 12.332 531 112.751 50.9944 463.437
18 0 49.3039 14.5628 718 104.663 51.6936 464.636
19 0 45.1152 13.9643 630 114.014 50.9333 463.149
20 0 47.0729 12.47 587 116.06 50.7939 461.233
21 0 52.0711 20.8177 1084 101.727 51.6578 461.636
22 0 50.0859 15.0342 753 111.466 51.2749 459.738
23 0 51.1179 13.5765 694 113.944 54.3228 458.829
24 0 54.0473 15.0239 812 111.67 52.4951 458.666
25 0 58.1011 16.8671 980 107.538 55.5337 458.877
26 0 57.064 13.6338 778 113.262 55.2146 456.108
27 0 57.0984 14.3437 819 112.319 56.4225 454.026
28 0 62.1142 13.4752 837 111.513 57.4767 454.711
29 0 62.1182 15.6154 970 107.019 58.934 450.979
30 0 64.2931 11.6342 748 111.056 59.7955 452.576
31 0 69.302 15.9159 1103 107.085 60.4832 447.548
32 0 74.5565 13.9089 1037 107.593 61.1234 450.504
33 0 73.2636 15.2327 1116 106.854 62.6416 444.067
34 0 77.7348 15.2699 1187 106.202 62.6192 446.149
35 0 81.1055 17.1752 1393 105.342 63.9885 444.67
36 0 83.2256 13.8539 1153 108.25 62.6288 444.022
37 0 82.2913 10.6087 873 111.393 64.5853 448.514
38 1 41.2099 13.9044 573 105.66 63.4642 464.972
39 0 44.2219 16.3494 723 101.549 65.805 464.99
40 0 46.2552 15.6091 722 100.719 65.3033 466.109
41 0 47.0842 12.7219 599 107.175 63.581 467.679
42 0 48.0402 20.6494 992 96.7016 63.3034 469.755
43 0 51.1617 16.8095 860 99.9384 62.7733 466.562
44 0 55.1741 14.9889 827 100.091 61.8706 466.891
45 0 53.1706 11.9615 636 110.544 61.8176 469.16
46 0 53.2385 8.69671 463 121.013 60.7711 471.434
47 0 58.197 12.9216 752 115.299 60.246 467.871
48 0 60.1848 16.7817 1010 108.559 59.7772 466.176
49 0 61.1504 15.0285 919 112.99 59.2111 467.013
50 0 64.4516 14.8018 954 113.066 59.6352 465.898
51 0 67.193 14.3021 961 115.913 58.0021 462.95
52 0 69.2038 13.3952 927 116.863 56.6731 464.428
53 0 74.273 16.6278 1235 112.589 55.302 459.798
54 0 78.2948 18.9923 1487 109.224 55.9637 460.101
55 0 80.2828 14.1749 1138 115.946 55.2135 458.468
56 0 79.1563 13.6313 1079 116.926 54.7674 457.415
57 0 83.2283 13.517 1125 117.692 54.1671 450.252
58 0 86.1984 12.5524 1082 118.484 53.4714 450.56
59 0 89.103 14.3093 1275 115.34 53.0235 450.141
60 1 47.1358 10.6713 503 118.137 53.837 466.982
61 0 53.1779 15.7772 839 110.505 53.2086 463.554
62 0 54.1055 13.8249 748 112.104 51.8289 462.328
63 0 56.1256 13.7727 773 115.472 50.978 459.225
64 0 58.0638 19.4441 1129 106.163 51.6997 460.748
65 0 61.1702 20.0915 1229 104.141 52.3116 459.5
66 0 62.1271 14.5186 902 112.779 51.3503 454.823
67 0 65.0504 15.7263 1023 109.008 52.6921 457.545
68 0 68.1591 17.2978 1179 106.005 53.2265 457.098
69 0 68.1598 16.7254 1140 108.831 53.0649 453.591
70 0 72.2111 13.6406 985 112.434 53.9107 452.984
71 0 72.0374 14.9506 1077 110.8 53.0158 451.64
72 0 78.1367 20.8481 1629 103.362 54.4475 449.368
73 0 81.0658 13.3225 1080 113.217 54.7889 445.653
74 0 82.2646 15.207 1251 112.515 56.4229 447.247
75 0 83.4556 13.3005 1110 113.819 57.727 449.901
76 1 45.153 14.7498 666 107.491 59.2522 466.15
77 0 46.225 14.1265 653 106.721 56.8208 463.256
78 0 49.2065 14.7948 728 111.26 58.9794 463.698
79 0 50.1923 12.0536 605 115.731 59.6198 464.326
80 0 51.2806 13.2799 681 113.838 61.1145 465.787
81 0 53.1102 14.5923 775 112.458 61.1639 466.172
82 0 54.205 12.2129 662 116.198 60.5801 463.502
83 0 57.1132 13.0268 744 114.253 59.8562 465.616
84 0 58.1366 16.2892 947 110.72 59.6125 465.943
85 0 59.1524 13.8118 817 113.787 59.3476 466.863
86 0 60.3592 15.9711 964 111.188 59.7894 467.829
87 0 63.2742 15.1089 956 113.813 58.8504 464.262
88 0 65.212 16.454 1073 111.642 58.4585 465.707
89 0 66.1254 14.1549 936 115.496 58.0128 464.28
90 0 70.211 14.2285 999 114.448 57.4705 463.618
91 0 71.4038 15.6854 1120 112.085 56.4188 464.654
92 0 76.2611 16.3911 1250 110.055 57.6376 462.018
93 0 80.3636 14.3846 1156 112.948 56.9862 463.079
94 0 80.235 15.9407 1279 112.211 55.4034 461.343
95 0 83.228 12.5559 1045 116.354 55.6641 458.602
96 1 44.0634 11.96 527 111.655 51.0721 479.163
97 0 46.1025 10.9322 504 111.083 53.8314 479.339
98 0 46.0241 15.2963 704 103.274 51.0213 477.303
99 0 47.0826 16.1419 760 102.818 50.3013 476.404
100 0 48.1494 15.0573 725 105.141 50.189 472.716
101 0 46.0351 10.101 465 110 49.2624 476.968
102 0 50.1074 13.2316 663 106.27 49.3665 472.633
103 0 51.0878 13.4866 689 107.63 49.5559 470.575
104 0 53.2105 16.0683 855 104.47 49.4328 466.233
105 0 56.1186 13.8813 779 107.131 49.6675 465.615
106 0 55.093 14.2123 783 106.61 49.8416 466.516
107 0 58.1892 14.8481 864 106.003 48.4306 462.932
108 0 62.1942 13.4418 836 106.26 48.5431 465.199
109 0 61.1951 14.7234 901 107.531 48.5527 461.182
110 0 64.2183 12.8312 824 109.778 49.4296 458.454
111 0 66.2613 17.7177 1174 102.931 50.6874 458.537
112 0 69.0982 17.8297 1232 103.923 50.4383 450.955
113 0 71.1786 15.9598 1136 106.884 51.7086 451.116
114 0 72.0829 14.2336 1026 109.073 52.6121 452.232
115 1 155.668 9.32113 1451 120.72 52.9738 419.68
116 1 79.1394 16.1487 1278 106.752 53.0423 449.001
117 0 82.1182 13.2614 1089 110.23 54.6272 450.838
118 0 84.3871 12.0279 1015 110.227 55.4966 451.53
119 0 87.3795 15.2324 1331 107.717 55.6777 446.069
120 1 47.3158 18.535 877 100.479 56.634 467.827
121 0 48.2246 15.2827 737 110.727 56.5875 463.13
122 0 47.2089 13.5779 641 108.457 57.4743 466.161
123 0 49.1329 11.6215 571 110.666 56.8686 469.109
124 0 52.4613 19.9004 1044 99.2328 57.409 466.865
125 1 108.629 16.2756 1768 106.105 58.22 441.241
126 0 106.277 11.9123 1266 111.389 59.0269 437.19
127 0 113.26 14.9126 1689 107.211 58.5003 441.768
128 1 60.2037 14.2848 860 107.103 57.35 464.401
129 0 61.1454 13.9176 851 108.25 57.8919 466.169
130 0 62.142 14.9818 931 108.266 56.5607 463.728
131 0 68.2769 17.9124 1223 103.561 57.211 464.078
132 0 71.2768 19.4594 1387 102.412 55.3482 463.465
133 0 71.1193 17.6605 1256 105.386 55.5494 464.411
134 0 71.096 15.1063 1074 109.593 55.4758 463.535
135 0 76.3327 16.677 1273 107.065 54.9694 464.491
136 0 81.3083 19.5675 1591 102.388 56.1584 462.534
137 0 81.1694 16.8783 1370 107.038 54.1175 464.371
138 0 85.4018 17.3767 1484 107.207 54.8477 457.08
139 0 87.3275 19.2952 1685 104.893 53.0534 459.183
140 0 88.0784 12.6705 1116 112.294 52.7061 461.996
141 0 90.2956 14.1867 1281 114.098 52.3349 452.27
142 0 96.235 17.3845 1673 109.26 51.8607 451.768
143 0 102.324 18.3241 1875 106.846 51.2384 449.113
144 0 104.167 17.6832 1842 109.23 51.5559 443.406
145 0 106.301 17.4128 1851 110.848 49.8984 439.1
146 0 112.298 18.825 2114 106.482 49.6358 442.35
147 1 57.2361 13.3832 766 108.632 47.0888 465.829
148 0 60.0667 17.0644 1025 103.858 47.5463 461.683
149 0 60.1958 12.5092 753 109.005 48.8991 464.386
150 0 65.2162 17.5416 1144 103.528 47.257 460.684
151 0 65.2324 17.0621 1113 103.769 47.9407 460.6
152 0 72.1933 17.8549 1289 101.556 48.5943 458.226
153 0 70.1951 11.0407 775 108.627 49.0206 460.441
154 0 74.3633 16.527 1229 104.195 50.1253 452.751
155 0 75.1497 15.5024 1165 105.507 49.2798 453.89
156 0 80.2922 14.7586 1185 105.694 50.7705 453.037
157 0 82.1596 20.5089 1685 100.457 51.2089 447.62
158 0 84.1696 15.4331 1299 106.36 51.7244 447.681
159 0 86.153 13.6037 1172 109.173 52.8643 444.778
160 0 89.244 14.2194 1269 108.868 53.5721 442.801
161 0 93.3282 13.7793 1286 108.02 52.7838 442.301
162 0 97.508 17.5678 1713 101.717 54.0922 447.731
163 0 97.4688 16.5078 1609 106.602 54.6327 440.2
164 0 103.447 15.8826 1643 109.132 56.1649 441.398
165 0 108.633 17.9872 1954 106.592 55.9355 440.357
166 0 111.451 15.37 1713 109.536 57.1156 440.785
167 0 115.656 20.8635 2413 103.939 57.3614 437.488
168 0 119.59 16.0716 1922 109.884 56.8439 434.616
169 0 126.906 14.9796 1901 110.701 58.4582 434.163
170 0 127.24 16.6693 2121 111.009 58.4988 427.174
171 0 133.203 17.357 2312 110.951 57.667 426.191
172 0 135.829 22.786 3095 105.69 57.7771 422.49
173 0 141.315 21.2928 3009 106.254 56.6195 431.913
174 0 145.691 18.4019 2681 110.61 55.9705 424.002
175 0 151.153 14.4291 2181 116.433 55.7753 423.238
176 0 158.265 21.0154 3326 109.555 54.1957 411.8
177 0 162.841 18.1465 2955 114.026 55.2301 410.224
178 1 116.335 11.1231 1294 118.54 54.7852 450.557
179 0 115.989 11.458 1329 119.713 52.5395 446.251
180 0 112.998 14.4074 1628 112.804 52.6861 448.088
181 0 114.897 17.9117 2058 108.413 51.5933 449.324
182 0 114.15 17.5996 2009 111.471 50.8248 438.453
183 0 118.384 18.119 2145 111.225 50.9417 436.257
184 0 120.818 14.2115 1717 116.65 50.2068 434.936
185 0 125.131 18.4766 2312 111.196 48.9689 430.467
186 0 130.018 14.3288 1863 115.042 47.2947 435.236
187 0 130.026 14.1818 1844 116.953 47.8151 430.153
188 0 136.152 15.4974 2110 115.437 47.1716 423.529
189 0 140.155 14.9264 2092 115.472 47.6119 425.144
190 0 149.004 17.4223 2596 111.386 46.9753 419.475
191 0 149.004 17.2814 2575 141.415 45.9938 419.485
192 0 158.41 15.9081 2520 113.052 46.2913 410.693
193 1 101.937 13.6849 1395 109.934 45.8925 445.459
194 0 102.824 15.6968 1614 109.994 47.2169 431.416
195 0 110.22 15.1334 1668 112.028 47.1739 428.61
196 0 111.234 14.3661 1598 113.521 47.1208 428.715
197 0 116.836 14.2593 1666 112.929 47.8433 427.836
198 0 123.298 19.1731 2364 106.579 48.9124 425.284
199 0 123.989 15.2272 1888 111.409 49.4115 425.252
200 0 132.204 14.1978 1877 113.045 50.2195 420.478
201 0 133.853 12.8424 1719 114.707 49.8831 420.881
202 0 138.938 17.677 2456 108.714 50.0248 417.795
203 0 143.612 12.5616 1804 115.681 50.3509 412.446
204 0 147.179 14.9478 2200 113.46 52.5059 407.884
205 1 79.6782 17.6711 1408 102.087 52.4709 447.131
206 0 82.4669 9.24007 762 110.252 54.0643 453.037
207 0 85.1708 10.5553 899 111.865 54.9177 447.404
208 0 90.2313 12.9999 1173 109.356 55.6974 444.24
209 0 94.3265 14.63 1380 106.876 56.3971 442.974
210 0 96.4341 12.34 1190 110.962 56.595 438.565
211 0 99.4316 11.6361 1157 110.392 55.9196 443.1
212 0 107.636 14.484 1559 107.203 55.8698 437.922
213 0 107.533 15.2605 1641 106.637 55.7386 438.768
214 0 109.551 9.77624 1071 114.57 55.8394 434.144
215 0 112.637 12.1097 1364 112.383 56.9985 435.051
216 0 118.636 13.5035 1602 110.584 57.2584 434.84
217 0 121.396 18.139 2202 105.802 57.0459 431.755
218 0 126.608 12.7638 1616 113.259 55.7754 429.425
219 0 128.589 14.418 1854 111.72 56.0356 431.448
220 0 134.701 13.3555 1799 111.76 57.2212 435.252
221 0 139.622 12.9994 1815 113.976 55.4209 426.282
222 0 143.971 16.1838 2330 109.054 55.1923 428.742
223 1 252.417 9.44867 2385 121.282 53.0822 384.411
224 1 151.894 13.595 2065 113.219 51.9816 416.291
225 0 158.792 14.5222 2306 110.902 50.3604 412.32
226 0 165 17.0363 2811 107.474 49.2163 411.624
227 0 170.141 15.1403 2576 109.106 49.2081 414.333
228 0 173.766 12.5802 2186 111.468 47.9785 415.085
229 0 180.258 15.4279 2781 109.785 47.2711 402.005
230 0 183.116 13.729 2514 111.072 46.7498 404.247
231 0 192.602 18.2708 3519 103.591 46.8358 409.634
232 0 198.264 16.4982 3271 104.964 46.3265 409.603
233 0 206.118 18.4312 3799 105.219 45.8558 392.269
234 0 210.502 15.0355 3165 110.154 46.3204 381.837
235 1 116.678 16.7212 1951 102.661 46.2963 435.48
236 0 118.504 15.9319 1888 104.925 46.8861 430.044
237 0 124.741 16.7146 2085 102.618 46.3971 431.397
238 0 129.621 16.309 2114 103.835 46.3226 424.513
239 0 131.458 16.1269 2120 102.787 47.1995 428.469
240 0 135.582 11.0635 1500 110.569 45.81 419.833
241 1 57.0489 12.2001 696 101.037 48.4325 462.075
242 0 60.0696 12.6353 759 103.075 48.9289 459.634
243 0 63.1518 11.5278 728 103.857 48.1332 456.36
244 0 63.2166 17.2739 1092 94.0705 48.3297 462.622
245 0 62.0503 14.9879 930 98.7785 47.429 459.562
246 0 64.2536 8.83997 568 108.014 50.2834 457.079
247 0 65.1089 11.9185 776 105.155 49.5966 453.715
248 0 66.1751 12.9354 856 102.466 50.9159 459.255
249 0 72.1928 12.0788 872 105.72 51.8429 452.02
250 0 70.1259 9.59702 673 109.412 50.2972 451.799
251 0 78.2465 15.3234 1199 102.413 51.8707 445.931
252 0 81.135 13.1879 1070 105.564 52.8972 449.423
253 0 81.2312 12.1628 988 108.342 52.9636 448.365
254 0 87.0581 13.267 1155 105.441 53.6182 446.912
255 0 91.2275 13.3403 1217 103.073 51.0551 453.438
256 0 96.7771 18.0311 1745 98.6682 54.0172 448.943
257 1 48.5696 9.20328 447 108.859 55.915 467.928
258 0 51.0708 16.1736 826 99.5339 52.2349 469.369
259 0 53.0816 12.3207 654 103.589 52.0581 471.382
260 0 53.1549 11.4007 606 104.589 51.995 472.175
261 0 55.0921 14.3033 788 102.593 50.6853 471.874
262 0 56.092 12.8717 722 105.758 51.0443 469.823
263 0 60.0864 12.1991 733 106.813 50.5798 470.941
264 0 59.0587 11.5817 684 110.167 48.3801 470.116
265 0 62.0953 13.2216 821 106.806 50.5639 469.546
266 0 65.1422 15.1208 985 101.552 49.3665 471.123
267 0 65.239 18.6392 1216 95.0847 50.3898 476.208
268 0 69.2076 15.6775 1085 101.038 48.9382 466.279
269 0 70.2972 18.8486 1325 97.4045 48.803 470.531
270 0 73.0526 15.085 1102 103.388 47.3984 466.607
271 0 74.1651 14.3868 1067 104.143 46.8219 464.561
272 0 77.2602 13.7716 1064 105.2 45.4304 463.258
273 1 41.1481 11.009 453 105.506 45.8079 476.578
274 0 45.0645 14.6457 660 96.9667 45.2833 479.379
275 0 44.0365 14.1701 624 96.7981 45.1538 479.599
276 0 45.2575 11.534 522 103.153 44.0402 474.063
277 0 48.226 11.9645 577 98.7435 44.3102 475.915
278 0 47.2196 11.6265 549 101.789 44.5647 472.807
279 0 48.1669 15.8615 764 95.9542 43.9725 474.853
280 0 52.0767 14.4402 752 99.8564 44.4601 466.609
281 0 51.2612 12.2705 629 103.688 42.9762 463.827
282 0 52.1983 13.0081 679 102.42 44.4831 464.303
283 0 56.1695 13.0142 731 101.974 45.0123 464.456
284 0 56.0311 17.633 988 97.3958 45.4514 465.035
285 0 57.0592 12.969 740 104.139 45.1419 458.785
286 0 55.2716 11.2535 622 105.814 45.7685 461.844
287 0 62.2404 12.773 795 101.883 46.9824 459.557
288 0 60.0791 15.8125 950 98.8737 48.22 461.534
289 0 61.124 12.7119 777 104.47 48.3115 458.571
290 0 61.1285 9.29191 568 109.947 49.2482 456.864
291 0 63.0852 13.0776 825 105.442 49.4909 454.498
292 0 65.0763 9.51191 619 110.221 51.2763 455.32
293 0 71.3373 12.5601 896 104.558 52.519 455.552
294 0 70.1706 10.3462 726 108.897 53.2562 455.047
295 0 74.2518 13.5216 1004 104.626 53.3924 452.468
296 0 75.1287 10.1559 763 108.512 53.9921 452.401
297 0 81.2877 13.9997 1138 103.861 54.7135 449.878
298 0 84.3709 13.7251 1158 101.539 54.0371 455.856
299 0 83.2259 9.44418 786 109.223 55.6985 448.489
300 0 87.3733 10.5639 923 103.678 56.2188 450.658
301 1 47.0754 15.1671 714 96.6176 55.3557 471.518
302 0 46.1462 11.0302 509 101.338 55.2338 473.314
303 0 48.1472 12.2748 591 99.33 55.1878 470.349
304 0 50.0693 11.2045 561 99.4118 54.4456 473.07
305 0 49.1849 11.8329 582 99.1701 53.9485 475.517
306 0 55.0944 12.6147 695 97.541 54.0072 473.069
307 0 51.3248 8.63131 443 104.343 52.1986 474.169
308 0 57.3626 18.3743 1054 94.1148 53.0901 471.431
309 0 56.1603 9.02773 507 102.481 52.071 476.964
310 0 61.2357 13.3582 818 99.0367 52.0709 468.934
311 0 61.2252 9.5059 582 103.151 51.4863 470.385
312 0 64.171 17.765 1140 93.864 50.864 471.211
313 0 61.2745 11.6525 714 100.895 50.549 469.786
314 0 69.5174 14.313 995 97.9236 50.7256 466.53
315 0 73.64 15.6844 1155 95.8597 49.4156 463.887
316 0 73.2977 17.0401 1249 94.988 49.6437 461.23
317 0 73.2977 17.2175 1262 109.317 48.6347 461.254
318 0 79.1702 15.0056 1188 96.6035 46.9882 455.37
319 0 80.2398 14.7184 1181 97.4936 47.2574 450.754
320 0 81.3214 12.137 987 99.7285 46.5431 453.445
321 0 85.283 18.4796 1576 92.9277 46.3414 453.907
322 0 89.3349 17.2161 1538 94.5936 47.4376 447.408
323 0 89.5106 11.6299 1041 101.163 47.3391 449.831
324 0 93.3922 9.65819 902 101.807 47.2206 449.204
325 0 97.3687 14.9329 1454 98.5894 47.3494 440.263
326 1 48.1412 11.4663 552 100.574 49.3098 464.54
327 0 51.6986 24.0239 1242 88.9452 48.8237 460.404
328 0 52.4241 13.4671 706 100.511 48.983 455.37
329 0 55.3963 15.8314 877 96.2805 50.0103 455.877
330 0 58.143 14.7739 859 97.3155 50.0908 457.664
331 0 59.123 12.9391 765 99.2654 52.085 458.497
332 0 58.2808 15.065 878 96.7938 52.8257 458.622
333 0 60.1868 16.6648 1003 97.1575 52.8156 451.634
334 0 67.1473 17.0521 1145 94.4978 53.3904 455.179
335 0 64.1923 10.8424 696 103.408 54.2615 455.898
336 0 68.282 14.6891 1003 99.8664 54.7178 450.832
337 0 70.3534 12.3377 868 103.01 55.0207 450.287
338 0 74.2188 9.66062 717 106.163 54.8577 453.091
339 0 80.2109 19.6108 1573 94.2276 56.3611 451.976
340 0 78.312 19.9459 1562 95.9898 56.8924 447.869
341 0 80.6966 20.5956 1662 95.6528 57.0794 446.555
342 0 82.2501 17.7507 1460 98.3096 56.561 450.429
343 0 84.3358 21.0942 1779 94.466 56.3845 453.193
344 0 89.6382 15.808 1417 100.273 58.4199 452.798
345 0 94.4764 15.7182 1485 101.764 58.4909 443.35
346 0 94.4027 15.5822 1471 103.718 57.3032 449.42
347 0 96.5521 16.6335 1606 100.641 57.9408 452.41
348 0 106.411 20.4021 2171 96.2372 58.2266 451.251
349 1 55.1488 21.306 1175 93.6519 55.7898 469.115
350 0 55.156 16.4805 909 101.58 54.2376 465.827
351 0 58.1997 14.5877 849 103.629 53.9894 463.918
352 0 57.2361 12.9464 741 106.197 54.7976 464.69
353 0 61.1117 14.8417 907 103.664 54.4465 461.639
354 0 62.1097 12.0432 748 107.453 54.1297 461.102
355 0 72.4455 18.3448 1329 99.1535 54.5086 465.764
356 0 69.6418 13.5694 945 106.495 53 463.846
357 0 69.3548 14.7647 1024 107.027 52.5186 461.391
358 0 74.955 21.2394 1592 97.6319 52.9171 461.325
359 0 73.5572 16.273 1197 105.318 51.1604 456.215
360 0 80.7451 13.2516 1070 106.398 50.6346 459.513
361 0 86.3917 12.5591 1085 103.311 50.0442 457.896
362 0 83.2475 13.9704 1163 103.546 50.0206 453.36
363 0 87.3924 15.1386 1323 102.638 50.2018 447.3
364 0 88.435 13.8746 1227 105.024 48.7164 444.699
365 0 94.3743 16.8584 1591 99.7278 48.9843 450.239
366 0 96.2338 16.1482 1554 102.093 49.9453 442.575
367 0 98.0801 15.9869 1568 103.699 49.0638 438.868
368 1 51.0734 14.6456 748 99.7821 48.4692 461.39
369 0 54.1333 11.3608 615 100.945 49.974 466.834
370 0 55.3433 13.6602 756 101.733 49.3968 460.12
371 0 54.2396 12.8873 699 101.049 48.8383 463.894
372 0 58.5804 13.3321 781 103.834 50.9078 456.179
373 0 58.4518 12.2836 718 105.386 51.6351 452.442
374 0 63.3888 18.5048 1173 99.306 52.8338 453.847
375 0 66.2896 20.863 1383 95.9566 51.4418 454.523
376 0 67.3679 15.69 1057 104.006 53.5743 450.277
377 0 66.3665 12.1296 805 107.127 52.7925 449.216
378 0 68.2886 9.9431 679 109.965 54.7246 449.133
379 0 75.5177 14.6588 1107 103.313 56.4155 449.173
380 0 75.561 16.6753 1260 102.44 56.4738 447.17
381 0 76.6208 13.7561 1054 102.053 56.8397 452.615
382 0 79.4991 13.0945 1041 107.507 58.2402 442.713
383 0 82.6791 13.5463 1120 107.095 58.1545 443.829
384 0 85.8768 13.4495 1155 105.06 58.9983 448.874
385 0 88.5249 12.8777 1140 107.278 58.071 443.544
386 0 91.5277 12.4334 1138 108.499 59.5791 443.89
387 0 97.51 16.747 1633 103.835 59.5885 443.018
388 0 97.5158 14.4489 1409 108.761 60.1625 438.762
389 0 102.326 14.6982 1504 108.647 59.7739 437.927
390 1 55.351 13.2428 733 106.424 59.708 466.315
391 0 57.1288 15.5788 890 105.129 59.2236 465.598
392 0 60.145 13.6005 818 106.56 59.5293 467.38
393 0 62.335 18.6893 1165 101.96 57.7142 464.728
394 0 63.2697 13.7665 871 107.476 56.2009 468.155
395 0 65.4282 12.38 810 109.938 55.858 465.968
396 0 64.4392 13.3459 860 110.041 56.6814 463.229
397 0 72.5388 14.8059 1074 106.726 55.635 463.459
398 0 71.7631 16.2618 1167 105.899 54.3333 459.771
399 0 73.654 14.541 1071 108.382 53.2446 463.232
400 0 76.418 13.4785 1030 111.525 52.5291 461.333
401 0 84.8395 14.8398 1259 108.437 52.9714 455.389
402 0 80.8528 12.8258 1037 112.244 52.1379 455.089
403 0 84.5629 18.4123 1557 104.627 51.4971 454.771
404 0 87.6371 15.8951 1393 106.927 51.2807 456.33
405 0 88.5008 14.0338 1242 113.174 50.8462 448.176
406 0 94.6309 17.2671 1634 109.103 49.9412 444.857
407 0 95.6074 17.7078 1693 109.881 49.8582 441.257
408 0 99.9467 16.6289 1662 111.088 49.3754 441.623
409 0 100.983 13.7449 1388 114.942 47.1434 441.272
410 0 105.508 18.5388 1956 109.62 49.271 436.092
411 0 109.446 18.347 2008 108.967 47.5911 439.423
412 0 108.88 14.6676 1597 116.26 47.6819 432.412
413 1 59.6861 15.7826 942 111.436 48.087 456.223
414 0 58.1287 9.71981 565 120.349 48.5133 456.136
415 0 63.6103 14.1801 902 115.212 49.1286 451.131
416 0 66.5539 13.1623 876 116.896 49.266 449.5
417 0 68.4227 20.008 1369 107.487 50.1921 449.102
418 0 70.8051 16.3265 1156 112.29 51.7647 446.346
419 0 72.7618 14.6643 1067 116.189 52.5192 445.428
420 0 76.4303 15.5567 1189 114.712 52.3936 443.236
421 0 76.4015 15.4185 1178 113.675 52.1817 445.911
422 0 81.4609 15.1606 1235 116.381 54.5061 439.748
423 0 82.4665 15.8852 1310 115.947 54.7786 438.724
424 0 88.3461 17.6578 1560 110.496 55.0808 442.865
425 0 90.6024 15.0548 1364 116.224 56.3629 438.291
426 0 96.6849 22.7543 2200 105.481 57.115 439.35
427 0 97.9156 15.1865 1487 117.265 57.6261 436.293
428 0 97.5428 14.5782 1422 119.16 56.9022 437.42
429 0 102.555 17.2494 1769 116.201 58.6167 431.704
430 0 106.923 18.5273 1981 113.605 58.6315 435.919
431 0 111.814 19.2106 2148 113.014 59.3175 435.78
432 0 113.667 17.7184 2014 116.697 59.0169 432.68
433 0 116.492 17.9497 2091 116.714 58.2391 430.449
434 0 121.077 17.8481 2161 117.668 58.3207 427.155
435 0 123.737 17.0038 2104 118.791 57.2462 432.168
436 0 128.534 17.3184 2226 118.606 57.0804 429.549
437 0 131.614 16.6775 2195 119.569 56.3285 431.879
438 0 137.655 14.9795 2062 122.771 56.8099 427.342
439 0 143.538 17.0547 2448 119.457 56.098 424.525
440 0 145.594 17.7549 2585 119.412 55.6379 419.467
441 0 150.606 25.5036 3841 109.434 54.9104 416.674
442 0 156.827 16.6043 2604 120.943 53.4958 420.648
443 0 162.605 18.0314 2932 117.837 53.8854 420.63
444 0 171.679 18.8258 3232 117.561 53.5189 412.308
445 0 171.679 18.8724 3240 148.934 52.5256 412.463
446 1 89.4734 16.0942 1440 113.773 50.7882 453.729
447 0 92.3412 12.8978 1191 121.604 50.6784 445.189
448 0 95.2692 14.1809 1351 121.123 50.2243 442.155
449 0 100.87 14.6326 1476 121.729 50.1707 441.893
450 0 105.554 17.2992 1826 117.271 49.4721 438.634
451 0 107.547 16.4951 1774 118.396 48.4667 429.455
452 0 110.49 17.6034 1945 116.664 48.3743 435.154
453 0 113.537 15.1756 1723 121.826 48.3482 428.774
454 0 119.351 17.813 2126 116.151 49.0823 432.725
455 0 121.518 16.0141 1946 120.235 48.4224 428.682
456 1 257.987 17.152 4425 125.127 48.3351 352.56
457 1 131.472 18.6655 2454 117.712 49.0086 417.643
458 0 134.731 15.0819 2032 123.844 48.06 410.104
459 0 143.625 14.7885 2124 121.984 49.2359 414.269
460 1 76.3222 11.0977 847 118.603 49.5077 439.215
461 0 77.3967 8.72131 675 120.939 50.6074 439.394
462 0 85.4839 15.4649 1322 113.725 53.0893 440.8
463 0 86.5009 13.075 1131 113.932 52.5712 445.867
464 0 89.2279 12.6194 1126 114.307 53.5622 444.168
465 0 90.2618 12.918 1166 114.798 54.3533 439.604
466 0 95.3687 12.6247 1204 115.226 53.7159 440.429
467 0 98.5207 12.4542 1227 115.523 54.0896 439.799
468 0 99.3052 12.0638 1198 117.728 53.813 439.429
469 0 105.168 15.404 1620 109.364 54.4673 445.817
470 0 108.315 12.5005 1354 114.899 56.1662 440.624
471 0 112.35 12.3097 1383 115.776 56.9038 436.272
472 0 114.499 14.3494 1643 112.948 55.9994 438.657
473 0 119.425 13.9753 1669 114.442 55.8622 432.138
474 0 123.768 14.5596 1802 113.879 55.056 430.328
475 0 126.679 11.8094 1496 117.855 56.1511 420.338
476 0 128.669 14.7588 1899 112.637 55.1611 423.253
477 0 130.705 12.1954 1594 117.28 54.6405 424.389
478 1 68.248 7.91233 540 117.046 52.8407 454.852
479 0 73.305 9.78105 717 115.377 52.272 455.858
480 0 76.2299 11.6227 886 114.385 50.9391 462.204
481 0 81.1924 12.7106 1032 114.782 50.8256 460.061
482 0 85.3966 13.9935 1195 111.033 50.6887 466.197
483 0 85.2687 12.0326 1026 115.067 49.5702 465.077
484 0 89.1407 13.933 1242 111.482 48.351 464.783
485 0 94.3975 14.4495 1364 111.273 48.2742 458.883
486 0 95.2115 15.3133 1458 110.614 47.1619 456.175
487 0 99.2767 13.8603 1376 113.269 47.3263 449.724
488 0 102.145 10.955 1119 115.217 46.9008 459.669
489 0 103.246 12.0005 1239 115.032 45.6384 451.423
490 0 110.236 14.8772 1640 109.259 45.425 453.073
491 0 111.263 15.9891 1779 110.137 46.4581 446.818
492 0 114.336 13.8802 1587 112.848 45.9767 446.324
493 0 115.403 14.5923 1684 112.047 45.5683 441.949
494 0 121.408 16.2345 1971 107.978 44.6484 447.347
495 0 124.428 17.705 2203 106.281 44.4816 437.135
496 0 125.531 14.6339 1837 111.946 46.2499 439.489
497 0 130.646 17.8497 2332 109.309 45.536 430.03
498 0 136.548 14.9105 2036 112.64 44.1449 432.45
499 0 139.567 15.4979 2163 113.406 44.0888 426.218
500 0 143.523 18.3664 2636 105.434 44.2155 422.451
501 0 149.135 17.4272 2599 105.641 44.262 427.743
502 0 153.605 16.6922 2564 109.489 44.8479 423.191
503 0 159.634 18.6302 2974 110.221 44.6944 416.835
504 0 163.286 18.5441 3028 108.133 45.4138 417.58
505 0 167.647 17.8291 2989 108.139 46.7969 404.997
506 0 170.341 13.5846 2314 110.944 46.1638 411.662
507 1 92.3752 15.2638 1410 102.411 47.5745 444.148
508 0 97.2883 19.7454 1921 98.5747 49.4992 444.662
509 0 95.1994 12.206 1162 107.935 50.6377 444.688
510 0 102.276 16.9248 1731 100.825 51.6129 444.899
511 0 103.189 16.3874 1691 103.536 52.1597 434.504
512 0 109.304 17.2363 1884 102.643 52.7404 437.171
513 0 115.26 18.1849 2096 99.4256 53.9098 444.334
514 0 117.409 14.0364 1648 105.482 53.9217 440.896
515 0 116.413 11.8372 1378 111.03 54.8404 434.82
516 0 122.533 17.1382 2100 104.2 55.2 439.038
517 0 126.3 15.6136 1972 107.7 55.1384 434.95
518 0 131.269 18.8849 2479 103.904 55.3707 439.073
519 0 132.254 10.9032 1442 115.083 55.1332 440.702
520 0 137.403 16.0259 2202 108.984 53.1694 438.689
521 0 141.556 14.0792 1993 112.482 52.8113 433.092
522 0 150.374 17.7225 2665 107.101 51.6011 425.727
523 0 149.525 13.5964 2033 111.97 51.425 435.638
524 0 158.709 22.2293 3528 100.972 50.6247 432.113
525 1 78.3028 21.1614 1657 99.4104 50.0296 456.053
526 0 82.2261 16.8803 1388 101.619 50.2154 470.824
527 0 84.0478 13.6589 1148 109.425 51.3058 461.106
528 0 88.0821 16.689 1470 103.983 51.4327 464.016
529 0 91.1622 18.7139 1706 102.486 51.0211 462.525
530 0 92.2021 14.0669 1297 109.333 49.754 461.347
531 0 96.2107 15.1854 1461 108.031 48.6304 456.565
532 0 98.2295 13.9571 1371 111.001 48.3786 454.422
533 0 102.154 16.2304 1658 107.392 47.3498 450.386
534 0 106.364 12.8144 1363 113.059 47.9457 449.756
535 0 109.356 12.6651 1385 114.181 47.3928 448.641
536 0 116.522 18.7517 2185 103.593 46.2302 453.031
537 0 116.168 13.6096 1581 112.042 45.6882 447.191
538 0 121.341 23.0177 2793 98.096 44.7032 452.91
539 0 123.473 12.3266 1522 112.956 45.661 439.61
540 0 126.703 16.7321 2120 106.716 44.0571 440.638
541 0 133.509 15.205 2030 110.147 43.7158 434.757
542 0 138.375 16.3036 2256 109.325 43.9176 425.889
543 0 139.534 13.8891 1938 111.276 44.4577 434.375
544 0 136.578 14.5558 1988 111.506 44.7827 434.504
545 1 214.891 19.3959 4168 106.454 45.8498 379.182
546 0 219.952 13.8848 3054 113.74 45.6483 372.134
547 0 232.16 16.7859 3897 107.569 45.5591 383.538
548 0 236.764 15.2979 3622 110.006 46.0627 365.046
549 0 244.026 13.9043 3393 110.916 46.4645 372.892
550 0 254.699 16.0189 4080 109.263 46.6627 358.445
551 1 225.214 18.831 4241 103.338 47.6744 383.303
552 1 100.322 13.9251 1397 101.458 48.7051 430.183
553 0 103.252 13.6947 1414 99.5085 49.5778 436.042
554 0 108.437 12.883 1397 100.986 50.194 432.2
555 0 110.32 9.273 1023 103.797 50.1388 431.093
556 1 75.527 13.9023 1050 99.1133 51.6743 451.78
557 0 78.0725 17.6246 1376 100.671 50.9055 458.126
558 0 82.1916 14.2594 1172 104.777 51.7329 458.725
559 0 79.0679 11.7241 927 109.704 51.2147 456.236
560 0 83.3268 17.1973 1433 101.733 50.8458 453.711
561 0 89.2246 15.5338 1386 103.33 51.7857 452.74
562 0 91.1523 15.5235 1415 103.381 50.5887 456.727
563 0 92.3902 14.4821 1338 104.27 50.8117 458.533
564 0 92.5705 12.1097 1121 108.577 50.504 454.472
565 0 98.3158 16.5487 1627 102.399 50.5974 454.393
566 0 101.367 14.2847 1448 103.953 51.0249 451.68
567 0 107.394 16.919 1817 100.401 50.7457 449.075
568 0 107.331 13.9661 1499 104.551 51.1194 449.85
569 1 60.0362 13.3419 801 102.134 48.6804 477.978
570 0 59.189 11.7927 698 105.457 48.7736 475.112
571 0 60.2213 13.4006 807 105.206 47.8017 476.988
572 0 64.223 14.2939 918 102.456 49.7473 471.489
573 0 64.1673 12.296 789 106.044 48.8238 473.905
574 0 68.4414 15.9407 1091 100.631 46.8717 471.753
575 0 71.3306 13.9632 996 102.639 46.1044 472.28
576 0 71.2261 16.8197 1198 99.2454 46.4892 470.523
577 0 74.2408 19.1943 1425 96.0442 46.2716 470.069
578 0 76.4067 20.0244 1530 96.6582 46.1314 463.622
579 0 78.1882 17.9439 1403 98.5502 45.5139 465.157
580 0 82.6581 14.0337 1160 102.994 46.5371 460.488
581 0 83.5179 11.0755 925 105.418 44.7859 465.431
582 0 85.4653 13.5143 1155 103.894 45.2043 460.847
583 0 90.673 14.7563 1338 102.756 46.0441 455.126
584 0 91.3527 16.0805 1469 101.199 46.9027 455.587
585 0 97.7644 17.041 1666 100.202 46.5504 449.179
586 1 48.577 14.2248 691 102.305 45.5427 471.572
587 0 49.3658 11.9719 591 101.599 46.687 465.77
588 0 51.1547 12.6675 648 99.8657 49.0478 462.986
589 0 52.3417 12.6286 661 100.504 48.5174 463.903
590 0 53.3557 12.2948 656 102.384 48.3003 461.105
591 0 55.262 14.3136 791 100.64 48.2705 460.645
592 0 58.3416 13.0953 764 103.041 50.8652 462.068
593 0 60.1508 15.6939 944 100.388 50.4142 457.83
594 0 62.1053 14.5076 901 101.629 51.0766 460.273
595 0 61.0734 12.4604 761 104.062 51.9842 460.825
596 0 67.1021 11.9221 800 101.888 51.8912 462.628
597 0 68.1925 14.0191 956 100.839 53.34 461.198
598 0 72.1984 21.8426 1577 95.4521 53.4464 459.012
599 0 72.1013 11.04 796 106.26 53.7726 461.775
600 0 74.2468 12.2295 908 105.445 54.185 459.716
601 0 79.2102 15.1874 1203 101.777 54.7681 457.034
602 0 79.1473 15.5533 1231 100.826 54.6076 457.756
603 0 83.2125 16.1634 1345 100.167 54.539 459.847
604 0 85.0808 12.4235 1057 104.335 54.7881 456.088
605 0 90.1781 14.3383 1293 100.128 54.8329 459.727
606 1 46.0969 13.0161 600 97.4083 53.0383 480.772
607 0 48.3931 17.4405 844 93.3483 52.4621 475.852
608 0 52.6316 12.92 680 98.8632 53.3294 479.576
609 0 48.1513 11.8792 572 100.701 53.0367 478.6
610 0 51.1503 14.389 736 98.4905 52.0679 479.399
611 0 54.1878 11.0911 601 100.812 51.3827 481.621
612 0 53.0684 7.31132 388 105.088 52.732 481.534
613 0 56.1409 12.4864 701 100.141 51.4665 479.048
614 0 58.1135 12.4584 724 101.282 51.3218 475.673
615 0 59.107 10.3033 609 103.729 50.3021 475.77
616 0 64.4056 14.0205 903 99.3732 49.0199 476.992
617 0 64.2553 11.1275 715 104.287 47.6629 472.954
618 0 66.164 10.0206 663 107.294 47.1735 471.718
619 0 70.2157 12.8176 900 105.213 46.6256 468.46
620 0 72.1904 13.8661 1001 104.295 46.8162 469.832
621 0 79.4861 21.7019 1725 96.0284 46.5322 462.281
622 0 82.6886 17.1487 1418 99.9513 45.5282 463.793
623 0 82.663 13.6216 1126 106.388 45.2105 458.131
624 0 83.4078 16.749 1397 104.716 44.3837 449.449
625 0 86.812 12.7171 1104 109.308 44.0154 452.745
626 1 46.6633 11.7866 550 110.162 45.0673 470.373
627 0 47.0809 11.2785 531 111.719 44.2844 471.369
628 0 49.5592 13.5394 671 109.384 44.6855 468.2
629 0 52.0984 18.4075 959 104.777 44.1846 470.45
630 0 53.1443 13.3787 711 113.039 44.7103 467.56
631 0 55.3694 15.4959 858 111.224 44.352 463.796
632 0 56.2474 15.0051 844 112.615 46.0509 461.277
633 0 60.2803 17.0537 1028 109.77 44.6206 460.53
634 0 60.2768 15.1468 913 113.687 46.1205 455.353
635 0 63.3458 14.3182 907 114.913 46.7552 455.264
636 0 66.5382 14.4729 963 115.808 47.3406 453.342
637 0 65.4478 14.4543 946 115.875 48.3203 456.202
638 0 69.7348 16.6058 1158 113.508 49.5691 453.245
639 0 68.5657 14.7742 1013 117.549 49.8657 452.597
640 0 74.169 13.294 986 118.417 50.6359 452.971
641 0 77.5592 14.2214 1103 117.122 50.8377 451.832
642 0 79.9682 15.5187 1241 113.16 52.6068 455.67
643 0 83.5578 12.1832 1018 120.479 52.1238 449.627
644 0 86.4932 14.637 1266 116.772 52.3175 450.047
645 0 92.48 16.8793 1561 112.896 52.6515 451.248
646 0 94.8286 14.3944 1365 118.058 52.1011 449.121
647 0 95.5917 14.1749 1355 120.089 52.9395 445.196
648 1 49.4626 12.7369 630 116.19 52.8317 468.11
649 0 52.5123 17.634 926 109.855 52.0335 474.887
650 0 50.3321 12.5765 633 118.526 51.2859 473.16
651 0 54.4581 13.5701 739 114.694 51.0731 470.551
652 0 59.353 23.0822 1370 99.0584 51.5759 475.32
653 0 56.4208 11.7687 664 116.765 51.8087 471.175
654 0 60.5087 14.7417 892 112.729 50.7321 472.029
655 0 63.3409 13.7983 874 113.979 49.1842 470.047
656 0 63.4194 13.2925 843 113.906 49.4733 472.313
657 0 66.3724 15.8349 1051 111.653 49.431 466.992
658 0 69.1503 14.8372 1026 111.366 50.1959 468.483
659 0 70.1848 13.6497 958 114.207 50.5814 466.515
660 0 72.3609 13.6676 989 112.294 48.4216 463.101
661 1 156.472 17.4281 2727 112.339 47.473 430.08
662 0 160.676 17.2085 2765 113.38 47.7754 427.508
663 0 164.625 16.3159 2686 114.685 47.7751 422.911
664 1 81.214 13.4336 1091 114.714 47.7415 456.227
665 0 83.2268 16.7134 1391 108.543 47.8699 459.378
666 0 86.4418 14.7498 1275 112.299 46.8439 452.927
667 0 89.5065 13.675 1224 114.048 47.1258 451.929
668 0 93.3271 15.7189 1467 108.991 45.6244 450.378
669 0 94.2878 10.6164 1001 115.558 46.4795 450.19
670 0 100.413 19.4896 1957 103.993 46.9295 449.262
671 0 103.755 14.698 1525 110.507 46.6243 443.115
672 0 108.245 15.1878 1644 110.227 46.9154 440.876
673 0 113.509 15.6022 1771 108.893 47.1609 433.125
674 0 116.519 16.3321 1903 109.521 47.6269 431.729
675 0 119.721 16.2462 1945 111.503 47.8746 429.442
676 0 123.556 13.6538 1687 111.237 47.5027 429.641
677 1 68.4554 11.6426 797 103.087 47.2961 457.055
678 0 73.3817 13.0823 960 101.795 48.1927 455.136
679 0 75.3397 13.844 1043 101.547 49.3547 453.534
680 0 76.4156 9.94562 760 107.142 50.6724 451.279
681 0 82.4404 12.5181 1032 103.693 51.1269 453.452
682 0 85.298 15.6276 1333 98.7314 51.1793 459.125
683 1 44.11 9.13624 403 105.64 49.8189 473.355
684 0 44.2333 12.5019 553 102.26 51.1664 471.358
685 0 47.189 13.2234 624 100.867 52.1362 472.982
686 0 50.1771 14.2296 714 100.86 53.5854 469.301
687 0 48.091 9.64837 464 105.759 51.6358 476.026
688 0 48.2196 7.63174 368 110.288 53.1522 474.845
689 0 51.3393 12.7583 655 103.421 53.0076 475.003
690 0 53.2443 15.3068 815 100.528 53.3068 473.762
691 0 55.1604 12.3639 682 103.034 51.3358 476.658
692 0 57.1826 10.825 619 104.58 52.0614 476.557
693 0 59.4231 11.7463 698 103.818 52.6361 473.52
694 0 60.3722 11.4954 694 104.439 53.0303 475.131
695 0 63.1831 8.92644 564 106.574 52.1897 476.429
696 0 64.2225 11.1332 715 103.017 51.5692 477.179
697 0 67.2843 11.548 777 104.465 50.2613 469.705
698 0 70.2486 12.3134 865 103.231 50.6532 467.424
699 0 72.4246 11.6811 846 104.207 49.2506 468.134
700 0 75.3467 12.542 945 102.085 48.9672 471.931
701 0 75.5629 11.8709 897 103.525 48.4192 468.061
702 0 78.5742 10.7287 843 104.429 47.2989 469.721
703 0 82.2991 13.3659 1100 101.398 47.6836 464.621
704 0 86.3459 11.674 1008 104.662 46.7173 457.4
705 0 88.1944 10.7717 950 105.361 47.0758 460.992
706 0 90.0606 12.2917 1107 103.514 46.9052 455.109
707 0 96.2156 15.0495 1448 99.808 46.2528 452.389
708 1 50.1876 11.5168 578 101.318 45.6367 474.971
709 0 53.2105 16.726 890 93.8719 45.8236 476.836
710 0 55.2073 9.45528 522 101.236 46.3525 475.774
711 0 56.3249 12.4634 702 97.1097 46.4302 472.957
712 0 58.3328 12.4287 725 103.12 46.4566 470.851
713 0 61.2646 15.833 970 98.6959 44.935 469.564
714 0 64.289 17.3124 1113 96.5436 46.6442 470.121
715 0 63.2815 12.6419 800 104.278 45.74 465.129
716 0 68.2894 11.1291 760 104.793 47.5947 459.186
717 1 129.097 14.6014 1885 104.582 46.8074 429.013
718 0 136.23 12.0238 1638 107.294 47.4969 429.971
719 0 138.797 8.09094 1123 108.657 47.1914 434.728
720 1 75.2998 10.9031 821 105.1 49.1413 454.49
721 0 80.0798 11.2513 901 103.616 49.465 452.482
722 0 82.1911 13.2861 1092 102.897 50.4029 448.746
723 0 83.1412 15.0948 1255 98.5817 50.3227 449.124
724 0 89.3244 13.4118 1198 100.362 50.5058 446.302
725 0 93.3339 17.8499 1666 96.9004 51.1885 451.819
726 0 96.2105 13.3665 1286 103.064 52.4067 446.32
727 1 49.0978 11.4669 563 101.94 53.5044 473.121
728 0 48.1403 12.4012 597 100.235 53.9598 470.005
729 0 47.039 8.82247 415 106.783 54.306 473.039
730 0 50.2097 12.2287 614 102.593 54.3078 470.427
731 0 54.1131 14.4512 782 99.5307 54.633 473.109
732 0 55.1636 12.8889 711 102.444 54.3277 472.789
733 0 56.3316 22.5273 1269 91.6359 54.0599 471.819
734 0 53.1348 13.0235 692 104.367 54.2211 473.114
735 0 59.1143 13.2117 781 103.108 53.7682 476.732
736 0 58.2045 13.212 769 105.241 54.6021 474.03
737 0 59.1165 10.8092 639 107.598 54.5117 476.631
738 0 65.2012 13.5734 885 101.542 54.2056 474.626
739 0 63.123 12.7846 807 105.428 53.0545 472.2
740 0 66.195 13.2941 880 102.5 53.2636 477.917
741 0 66.2353 13.0444 864 106.051 53.0278 469.208
742 0 70.2897 12.5907 885 105.793 53.2949 469.605
743 0 69.2809 10.9843 761 108.439 51.5848 472.46
744 0 74.2126 14.0003 1039 106.598 50.7863 466.926
745 0 78.1296 16.4342 1284 102.805 50.6044 464.94
746 0 79.2158 14.2648 1130 106.047 49.4646 462.008
747 0 79.1388 11.4861 909 109.614 48.9703 461.769
748 0 85.2282 18.2803 1558 101.327 48.7792 458.54
749 0 91.4821 15.5659 1424 102.045 47.9298 462.714
750 0 89.147 14.9753 1335 106.079 48.2142 456.19
751 0 92.4393 14.1174 1305 107.747 47.118 449.913
752 0 97.3518 12.234 1191 107.034 46.9102 449.741
753 0 103.454 16.7611 1734 100.542 46.9804 450.093
754 0 103.273 14.9604 1545 99.8647 47.5437 436.723
755 0 107.656 15.5681 1676 98.8628 46.2828 441.772
756 0 107.683 15.4992 1669 98.6123 45.6034 443.489
757 1 52.0564 13.8119 719 94.8929 44.9249 462.378
758 0 55.4798 11.8241 656 96.3826 46.8841 464.732
759 0 55.1086 11.9401 658 96.6611 47.5502 462.962
760 0 58.3641 11.4454 668 96.5479 47.0329 464.582
761 0 57.2748 9.2711 531 99.5574 48.0979 458.262
762 0 61.1938 13.1059 802 95.2157 48.2082 460.387
763 0 64.2844 12.5536 807 100.297 50.7175 467.377
764 0 63.1875 11.2522 711 105.346 51.0844 459.948
765 0 69.0949 16.1662 1117 98.521 52.3321 460.388
766 0 65.2651 12.9319 844 103.092 52.2322 458.874
767 0 69.1255 10.2422 708 105.791 52.7387 459.376
768 0 74.1704 14.8846 1104 100.43 52.6214 456.949
769 0 79.3021 14.5519 1154 100.239 53.6586 457.768
770 0 80.2485 16.6981 1340 98.444 54.2866 456.172
771 0 80.2654 10.6148 852 104.752 54.8545 453.797
772 0 85.2981 13.447 1147 102.128 53.6565 448.103
773 1 49.1664 14.1764 697 100.978 55.5538 469.415
774 0 50.2568 16.8336 846 97.318 55.2045 472.668
775 0 52.1027 12.8016 667 103.304 56.0135 472.516
776 0 53.2116 14.9404 795 98.9107 55.8189 474.721
777 0 53.1038 12.0519 640 104.464 55.3891 471.206
778 0 55.1138 12.0841 666 103.805 55.6111 473.988
779 0 56.0504 13.6663 766 102.291 55.4269 476.424
780 0 60.2168 15.6269 941 100.109 54.848 472.418
781 0 63.0894 13.9009 877 101.185 54.5074 474.527
782 0 62.3424 14.3883 897 101.973 53.7079 469.502
783 0 65.1687 15.5596 1014 100.859 54.0986 471.334
784 0 67.3367 18.905 1273 97.326 52.7549 469.059
785 0 67.1634 12.4175 834 106.283 51.8345 472.059
786 0 74.1151 18.6602 1383 97.2169 50.867 469.364
787 0 76.2229 14.1165 1076 103.83 51.5167 467.485
788 0 75.2296 13.2129 994 105.73 51.0181 463.494
789 0 79.1288 14.5459 1151 104.401 50.3058 460.938
790 0 80.1864 13.531 1085 106.1 49.9899 462.38
791 0 83.1898 12.9703 1079 108.124 49.7563 458.243
792 0 85.1224 15.1547 1290 105.711 48.6217 459.578
793 0 86.0923 10.5352 907 111.203 49.8071 465.786
794 1 98.2419 11.6142 1141 110.395 48.7967 460.232
795 0 92.5087 16.8525 1559 105.861 46.9731 447.845
796 0 91.4255 9.98627 913 115.026 48.0832 441.345
797 0 94.3253 9.74288 919 117.745 47.8564 450.155
798 0 101.781 11.8883 1210 113.605 47.3264 450.622
799 0 106.474 14.8111 1577 109.552 47.5973 448.663
800 0 108.552 12.9984 1411 114.118 46.6138 441.162
801 1 57.2768 16.202 928 102.836 46.2123 469.181
802 0 54.1508 15.2352 825 107.139 45.1927 465.636
803 0 58.2757 16.7995 979 104.631 45.9295 465.941
804 0 56.0398 10.1713 570 115.667 47.0614 467.64
805 0 61.1067 16.8394 1029 106.187 48.7444 461.449
806 0 60.0892 12.6479 760 112.645 48.8382 460.109
807 0 65.1246 14.3571 935 109.41 48.4118 460.134
808 0 69.1115 15.3954 1064 108.384 50.718 456.605
809 0 71.0825 12.6332 898 113.035 51.2138 457.569
810 0 68.0936 9.78065 666 117.839 51.4474 456.905
811 0 73.2183 17.1542 1256 105.832 51.5557 460.298
812 0 75.1599 13.5312 1017 112.485 51.6323 455.668
813 0 78.1339 14.2192 1111 110.262 52.7588 459.622
814 0 80.1518 12.8381 1029 113.011 52.8912 458.376
815 0 85.2242 15.1483 1291 110.222 53.1874 453.412
816 0 87.1383 14.4942 1263 110.394 53.3032 453.07
817 1 48.0332 13.0118 625 112.501 52.1584 473.16
818 0 50.0528 13.6256 682 109.019 51.7845 473.252
819 0 52.0926 15.5492 810 105.604 52.1321 476.105
820 0 53.1295 17.3162 920 104.928 52.5674 472.867
821 0 50.054 8.37096 419 115.291 52.8831 477.759
822 0 55.4333 12.2129 677 107.535 52.5421 476.756
823 0 58.0929 15.5096 901 104.886 52.8479 471.811
824 0 57.2968 9.23262 529 112.354 51.8488 474.121
825 0 61.1111 13.9091 850 106.1 51.2459 475.736
826 0 61.2118 10.7006 655 109.882 51.9573 474.258
827 0 64.174 11.4065 732 110.876 50.7254 470.91
828 0 68.3711 13.5584 927 107.702 50.9914 469.833
829 0 68.5103 12.5529 860 109.513 49.7023 466.467
830 0 72.2318 13.7197 991 106.587 49.3754 468.58
831 0 75.1892 15.6937 1180 105.041 49.1686 463.064
832 0 77.1763 10.4695 808 111.495 48.4629 465.4
833 0 81.2939 16.4957 1341 103.122 48.0477 464.484
834 1 48.1821 13.366 644 107.752 46.9689 476.208
835 0 48.29 14.4336 697 104.271 47.3085 476.321
836 0 45.1553 9.69986 438 111.438 46.589 474.929
837 0 49.2084 13.8797 683 105.625 47.5359 472.053
838 0 54.1073 16.2455 879 101.812 45.8919 470.849
839 0 52.142 12.6002 657 107.297 45.1705 470.061
840 0 56.1026 12.6019 707 106.417 45.8769 470.627
841 0 56.1879 14.7363 828 104.181 46.5217 469.672
842 0 57.1723 16.0392 917 103.676 46.6314 464.918
843 0 58.3384 14.913 870 105.864 45.7805 463.28
844 0 60.2286 11.9877 722 110.007 46.4432 462.115
845 0 64.1793 18.5418 1190 100.671 46.9622 462.34
846 0 63.1324 12.1174 765 110.702 45.1412 455.503
847 0 68.1442 15.9368 1086 103.985 47.0552 456.284
848 0 70.2732 14.0736 989 104.914 49.0475 459.453
849 0 71.3027 12.0332 858 108.389 49.0326 456.643
850 0 75.4205 15.0357 1134 103.734 50.5467 454.667
851 0 79.162 19.7696 1565 97.1783 50.3987 457.181
852 0 82.2703 17.6978 1456 100.472 51.4712 452.312
853 0 84.2094 13.8939 1170 104.952 49.9479 449.607
854 0 86.4084 10.1958 881 107.933 51.8536 456.671
855 1 45.0688 13.1355 592 104.221 51.3868 471.304
856 0 45.0312 13.0132 586 109.415 51.5768 468.189
857 0 46.0509 12.3125 567 104.605 53.2734 470.637
858 0 49.5707 10.5506 523 104.946 54.501 464.763
859 0 49.2164 9.4684 466 107.088 54.3798 464.476
860 0 52.4436 14.3774 754 100.297 54.069 467.219
861 0 54.1923 12.8247 695 100.387 55.5252 468.387
862 0 54.3239 11.7444 638 106.058 54.6254 464.71
863 0 58.4927 18.1048 1059 94.9707 54.5996 470.644
864 0 57.3417 13.2888 762 104.4 52.8753 463.222
865 0 60.3451 13.4228 810 104.552 52.9728 462.93
866 0 60.2948 10.0009 603 109.184 53.602 461.844
867 0 62.4302 15.3612 959 102.125 53.2012 469.198
868 0 67.2413 14.5446 978 103.303 52.8231 465.096
869 0 67.1626 15.1721 1019 99.789 52.9401 467.88
870 0 72.2969 14.5373 1051 99.9581 52.7127 470.829
871 0 75.349 15.1694 1143 99.3473 51.0884 465.277
872 0 79.1944 18.3725 1455 95.2021 50.1423 469.441
873 0 78.2268 10.8531 849 105.755 49.609 466.324
874 0 83.2329 13.0477 1086 103.23 49.1344 461.198
875 1 46.2356 12.1551 562 103.422 48.9182 479.343
876 0 49.1109 14.5385 714 101.324 48.8641 481.527
877 0 46.2314 11.529 533 107.023 47.7167 479.199
878 0 49.0668 11.3111 555 107.668 47.4396 475.584
879 0 48.0886 11.0837 533 108.807 46.8743 477.664
880 0 50.241 14.4105 724 104.721 47.1285 474.616
881 0 53.1435 15.2041 808 103.447 45.8205 469.512
882 0 58.1641 18.0696 1051 98.2369 45.7184 471.331
883 0 57.0852 14.9601 854 104.012 45.7506 468.852
884 0 57.1814 11.0525 632 108.897 45.4968 470.233
885 0 60.1321 14.3684 864 104.549 45.4792 465.133
886 0 62.3597 17.351 1082 101.604 46.3799 460.103
887 0 63.3047 14.1064 893 106.046 47.075 459.737
888 0 65.1139 14.083 917 105.399 46.5322 460.077
889 0 67.3742 13.8629 934 104.502 48 462.094
890 0 69.3468 11.118 771 109.051 46.8781 459.233
891 0 73.1458 13.1245 960 105.878 48.0635 459.715
892 0 71.0835 10.6916 760 110.358 48.9263 456.412
893 0 79.1736 15.0934 1195 104.391 49.5071 449.006
894 0 81.1969 10.5546 857 109.168 50.6558 455.86
895 0 82.2322 13.0363 1072 105.673 50.1175 456.592
896 0 87.3703 12.1666 1063 107.906 50.5626 453.871
897 0 89.3906 10.0122 895 111.029 51.2804 453.761
898 0 90.2624 12.0205 1085 110.054 51.8747 442.71
899 0 98.5587 18.0299 1777 99.4851 52.3737 442.951
900 0 101.44 8.53705 866 111.097 52.5277 447.441
901 0 104.698 16.6765 1746 101.05 52.7755 441.723
902 1 58.4026 12.3453 721 105.347 55.4938 465.519
903 0 59.4925 13.3966 797 106.723 54.8996 462.74
904 0 63.3518 12.2964 779 107.539 56.1271 463.619
905 0 62.4358 16.4008 1024 103.328 54.2539 460.415
906 0 63.3372 12.5519 795 108.068 54.6201 459.293
907 0 69.287 15.0245 1041 102.608 54.9395 464.263
908 0 73.7494 17.3561 1280 100.461 54.3758 462.761
909 0 75.4965 17.7889 1343 99.3634 54.1839 463.909
910 0 77.2858 12.4732 964 107.738 53.7624 460.941
911 0 79.41 12.4795 991 108.331 53.5217 458.484
912 0 78.2794 12.0338 942 109.006 53.2994 459.97
913 0 82.2715 12.4952 1028 108.101 51.4971 459.05
914 0 86.2523 12.1388 1047 107.574 52.127 462.353
915 0 91.4061 18.7077 1710 98.9713 52.1275 465.292
916 0 92.4094 14.2193 1314 107.791 50.4635 454
917 0 93.3987 12.377 1156 110.594 49.5251 454.219
918 0 97.359 12.6439 1231 110.129 48.4955 453.34
919 0 100.42 15.3654 1543 107.107 48.9099 448.688
920 0 103.326 18.9497 1958 102.454 48.2549 446.583
921 1 56.1391 10.8124 607 109.685 49.687 472.807
922 0 58.0635 12.6586 735 108.721 49.0272 467.234
923 0 59.2199 10.976 650 113.905 48.7908 465.795
924 0 61.054 11.0066 672 110.121 48.2039 465.618
925 0 66.3043 13.8453 918 109.167 46.0882 462.094
926 0 71.4638 14.9586 1069 105.362 45.5201 458.563
927 0 70.1443 14.3846 1009 101.04 48.2081 465.194
928 0 72.205 10.4563 755 107.542 48.8344 463.441
929 0 74.2323 10.777 800 106.886 49.37 464.695
930 0 76.1633 13.8912 1058 105.44 48.0189 453.945
931 0 80.291 14.1734 1138 104.837 48.5589 451.369
932 0 82.1226 13.8695 1139 105.778 48.1247 450.725
933 0 85.4081 12.9379 1105 107.08 49.8516 449.884
934 0 92.2594 13.5921 1254 104.976 49.7719 451.302
935 0 90.2135 14.6209 1319 105.556 50.4375 448.876
936 0 97.3555 15.808 1539 103.409 51.219 441.936
937 0 98.3166 14.4838 1424 105.57 52.0639 445.021
938 0 101.218 14.6614 1484 105.827 52.7985 442.791
939 0 106.589 14.57 1553 105.837 53.5731 437.905
940 0 108.354 17.8213 1931 102.267 53.2191 439.872
941 1 56.0952 8.73514 490 113.045 54.7816 468.463
942 0 59.0794 12.1193 716 109.264 55.2723 465.339
943 0 63.0796 15.0128 947 102.85 53.4963 465.881
944 0 66.0667 15.6206 1032 104.995 55.8333 462.304
945 0 68.2743 17.5176 1196 98.9532 55.4214 463.894
946 0 68.1548 13.3813 912 107.166 54.6316 462.818
947 0 72.3361 18.262 1321 99.0008 55.1113 465.29
948 0 73.1274 13.2098 966 106.142 55.5041 460.388
949 0 90.507 22.5728 2043 91.0705 54.8718 456.85
950 0 81.2028 14.236 1156 103.119 55.3201 465.307
951 0 83.1737 18.0706 1503 99.0286 54.6214 462.904
952 0 83.3034 16.1578 1346 100.588 54.8447 465.385
953 0 92.3718 15.7191 1452 99.2748 54.4394 465.775
954 0 90.1856 17.5527 1583 96.0272 53.3588 460.19
955 0 93.3254 13.3297 1244 102.236 51.9092 452.419
956 0 97.2121 15.173 1475 99.2644 52.7966 456.936
957 0 98.322 12.8557 1264 102.64 51.7603 451.734
958 0 101.256 13.293 1346 100.03 50.2467 459.891
959 1 56.037 9.70788 544 99.3805 48.2463 481.469
960 0 59.2639 20.9571 1242 95.2899 49.1143 476.589
961 0 58.163 10.5222 612 107.314 48.5637 479.24
962 0 58.2482 11.7257 683 101.773 46.4641 471.531
963 0 61.1557 12.5745 769 99.762 48.6554 476.837
964 0 64.4594 17.3598 1119 95.0634 46.4334 469.718
965 0 62.2641 12.4149 773 101.912 47.0492 468.944
966 0 66.2343 11.6103 769 103.419 47.1899 465.521
967 0 70.1246 13.1908 925 101.091 47.1362 465.139
968 0 74.1567 17.436 1293 95.1338 47.0611 464.998
969 0 74.2947 15.2097 1130 98.7239 47.5973 457.381
970 0 78.107 16.8487 1316 96.9719 45.7918 461.104
971 0 81.3112 15.742 1280 98.3234 46.6211 453.911
972 0 83.4705 19.0007 1586 95.2156 46.2541 448.979
973 0 85.5465 12.952 1108 101.097 47.4513 459.016
974 0 89.1993 13.2512 1182 101.424 46.5245 452.762
975 0 91.2855 15.698 1433 99.305 46.8737 451.486
976 0 96.3601 16.0959 1551 98.4242 47.8298 451.176
977 1 46.2588 14.354 664 102.672 48.6145 465.709
978 0 46.3702 10.4593 485 109.449 49.0784 465.586
979 0 48.3632 11.8065 571 107.713 50.4501 464.524
980 0 54.4197 13.6348 742 102.611 49.6833 460.974
981 0 54.2312 15.3233 831 102.58 51.3767 464.437
982 0 56.382 11.3689 641 107.443 50.6303 464.952
983 0 60.1648 13.4796 811 102.015 51.5413 465.541
984 0 61.1434 17.4344 1066 98.1792 52.8208 462.798
985 0 63.1876 20.5103 1296 94.091 52.8542 464.961
986 0 63.3969 14.212 901 100.96 54.0544 463.594
987 0 67.2409 16.5524 1113 100.296 52.9371 459.698
988 0 70.1991 14.0173 984 103.683 53.8943 459.861
989 0 77.2817 20.4447 1580 92.4576 54.5728 459.077
990 0 76.3043 19.5795 1494 95.326 55.7209 455.28
991 0 77.4986 18.6842 1448 96.2086 55.3115 453.242
992 0 82.5498 17.5652 1450 96.2731 56.3628 456.906
993 0 85.7157 16.7297 1434 100.06 55.6213 455.655
994 0 88.6597 17.4262 1545 103.094 55.8168 454.476
995 1 184.021 12.6888 2335 105.983 53.9859 419.914
996 1 143.941 9.26072 1333 111.374 53.4824 443.432
997 1 96.8126 14.7501 1428 113.926 54.2136 454.459
998 0 101.696 16.6869 1697 111.791 54.9175 450.304
999 1 49.4153 14.0645 695 107.872 53.5396 474.691
1000 0 51.363 15.4197 792 105.751 52.5732 474.974
1001 0 54.5559 14.5905 796 106.129 51.0088 472.541
1002 0 54.378 12.9096 702 108.131 51.1481 474.101
1003 0 57.1778 15.7579 901 107.459 50.2286 473.198
1004 0 61.3032 17.9273 1099 102.283 48.3731 475.47
1005 0 59.0733 13.9996 827 114.006 48.3096 469.769
1006 0 64.0796 16.4483 1054 108.884 48.296 469.729
1007 0 65.3188 15.4626 1010 111.412 48.8059 470.945
1008 0 66.1499 14.195 939 114.176 47.8371 469.263
1009 0 67.2641 13.276 893 117.149 47.449 460.897
1010 0 70.4188 14.2718 1005 115.411 48.0229 461.801
1011 0 75.2104 20.1036 1512 105.434 47.6343 463.027
1012 0 73.2059 13.824 1012 117.802 47.252 456.489
1013 0 78.3869 15.87 1244 113.588 47.4373 455.672
1014 0 78.6068 14.0319 1103 118.616 47.6147 452.364
1015 0 81.3449 18.1327 1475 112.763 42.699 448.842
1016 0 84.4612 15.2733 1290 116.869 43.5977 449.025
1017 0 86.1913 13.6209 1174 120.325 44.6141 446.4
1018 0 90.4197 16.1027 1456 117.163 44.9966 443.538
1019 0 93.3547 17.8459 1666 114.942 48.6513 443.303
1020 0 94.2507 16.9972 1602 116.246 48.9863 440.844
1021 0 98.6 18.499 1824 112.658 49.057 440.913
1022 0 102.899 15.3063 1575 117.81 49.2648 438.532
1023 1 54.427 13.2471 721 117.11 48.9015 456.928
1024 0 56.6066 12.0304 681 117.391 49.0294 455.42
1025 0 57.5348 14.2001 817 116.01 49.7723 456.804
1026 0 60.6836 17.5665 1066 109.342 51.046 458.895
1027 0 63.3129 14.0256 888 114.282 52.7466 452.914
1028 0 65.4667 18.5285 1213 105.173 52.7345 462.3
1029 0 66.4409 13.576 902 114.165 53.9113 454.157
1030 0 72.5778 15.349 1114 110.572 55.3492 454.992
1031 0 72.5023 12.2755 890 114.939 55.2786 456.8
1032 0 75.5881 16.9868 1284 109.077 55.1978 455.966
1033 0 78.5469 17.4036 1367 109.04 56.1317 454.447
1034 0 78.449 13.563 1064 116.15 54.515 450.93
1035 0 81.3633 15.9654 1299 111.976 53.6289 451.878
1036 0 86.6439 15.858 1374 112.376 54.4723 454.64
1037 0 90.7937 16.9065 1535 111.146 51.7824 451.999
1038 0 90.7992 17.9737 1632 110.096 54.3774 454.997
1039 0 90.8729 11.4776 1043 122.919 52.9962 446.745
1040 0 94.7835 16.0998 1526 114.438 52.5406 451.98
1041 0 98.0446 14.422 1414 116.733 51.4972 452.331
1042 0 100.875 12.5204 1263 121.964 51.4751 446.626
1043 0 105.714 13.8865 1468 120.72 50.2684 444.327
1044 1 59.594 10.9743 654 116.391 49.6942 470.165
1045 0 61.53 12.1242 746 111.63 47.6314 471.331
1046 0 63.2932 13.951 883 109.742 49.735 469.371
1047 0 66.3953 11.6123 771 113 50.3787 471.508
1048 0 68.2476 13.451 918 110.757 49.2364 470.338
1049 0 73.3171 14.7033 1078 108.685 48.4249 468.097
1050 0 72.5635 12.2376 888 111.988 48.6982 469.313
1051 0 76.3838 13.2751 1014 112.087 46.9507 462.887
1052 0 78.2956 12.1846 954 114.383 47.6792 461.644
1053 0 79.2966 11.0471 876 116.378 47.387 454.659
1054 0 79.7182 12.08 963 114.166 47.758 459.124
1055 0 86.2149 13.2924 1146 111.977 47.7539 454.214
1056 0 87.4077 12.5961 1101 112.852 46.7357 452.144
1057 0 89.3162 13.0995 1170 111.921 47.565 453.247
1058 0 92.2652 11.6946 1079 116.436 47.7572 446.208
1059 0 98.099 17.0338 1671 106.336 48.2035 449.294
1060 0 99.258 16.2808 1616 110.386 48.5167 440.793
1061 0 104.331 14.1185 1473 112.06 49.1752 442.394
1062 1 57.05 11.4636 654 110.474 48.0627 465.734
1063 0 59.1308 12.3455 730 109.627 49.4356 461.866
1064 0 60.0526 11.5565 694 109.699 48.9265 463.059
1065 0 64.0805 12.0474 772 109.253 50.035 459.807
1066 0 66.1595 12.6059 834 114.604 51.0863 458.873
1067 0 67.4018 10.8157 729 118.986 52.2071 456.104
1068 0 71.1371 13.5091 961 112.081 52.3143 457.489
1069 0 72.2606 11.7491 849 116.676 53.311 450.736
1070 0 72.2163 11.9364 862 116.01 54.5835 456.987
1071 0 74.2291 12.6231 937 116.188 54.9392 450.679
1072 0 78.1811 15.5408 1215 110.077 54.316 456.318
1073 0 79.3115 12.1924 967 116.633 54.9586 452.577
1074 0 85.2777 14.658 1250 112.002 56.1272 451.902
1075 0 86.1682 14.6922 1266 112.844 56.1082 450.778
1076 0 88.2545 13.7443 1213 115.219 56.0091 449.528
1077 0 93.1891 13.4565 1254 114.161 56.1172 448.965
1078 0 97.1542 14.2866 1388 112.529 56.6578 450.806
1079 1 49.1379 10.847 533 114.653 56.1445 473.383
1080 0 49.1062 12.2388 601 111.925 56.7904 473.898
1081 0 51.1413 10.6568 545 113.527 55.5651 474.954
1082 0 54.2954 15.6919 852 107.144 54.9554 471.458
1083 0 56.1056 8.53748 479 118.305 54.8142 476.946
1084 0 57.0175 11.8385 675 114.053 54.723 473.99
1085 0 58.2646 15.996 932 107.674 52.7994 476.226
1086 0 64.1854 12.6041 809 111.333 52.3288 474.984
1087 0 63.2304 12.3517 781 114.398 52.1805 473.983
1088 0 70.205 15.1556 1064 108.25 51.813 473.04
1089 0 66.3348 11.5927 769 114.333 50.8049 473.635
1090 0 69.3775 13.1022 909 113.529 51.1903 471.74
1091 0 71.3297 13.9073 992 113.862 49.7157 467.511
1092 0 71.0821 15.6157 1110 110.79 48.7622 468.526
1093 0 74.1828 11.2829 837 114.719 49.6476 470.951
1094 0 77.3448 15.4374 1194 109.246 48.7546 466.797
1095 0 78.3396 12.7011 995 115.245 48.9538 458.004
1096 0 81.2241 15.0571 1223 109.9 48.018 459.493
1097 0 84.1965 14.8343 1249 110.766 48.229 458.38
1098 0 87.3001 15.6014 1362 110.398 48.3642 452.999
1099 0 88.0793 14.5437 1281 111.679 47.6027 449.722
1100 0 90.1864 13.0951 1181 113.848 47.6249 457.918
1101 0 93.2689 16.0396 1496 110.153 47.4051 448.648
1102 0 97.0923 15.4183 1497 109.839 48.5918 449.977
1103 0 101.309 19.0803 1933 104.854 48.0642 445.257
1104 1 54.0349 10.7893 583 115.182 48.0549 465.66
1105 0 55.0727 10.4771 577 118.107 48.6638 463.679
1106 0 58.2066 12.9195 752 114.684 48.4388 463.669
1107 0 60.4635 17.7463 1073 107.253 49.8798 458.15
1108 0 60.2802 14.499 874 106.357 49.1201 464.694
1109 0 62.1519 14.8668 924 106.645 51.0271 462.255
1110 0 63.152 10.7202 677 112.465 52.0236 463.583
1111 0 65.2387 10.6992 698 112.461 51.2335 461.625
1112 0 67.3572 10.4072 701 113.538 51.9929 460.823
1113 0 71.4394 11.3243 809 108.224 53.2262 462.166
1114 0 73.2506 15.2763 1119 103.231 53.1519 459.768
1115 0 82.8105 14.4426 1196 104.186 54.5962 459.725
1116 1 147.678 11.5589 1707 112.611 53.3328 432.514
1117 1 82.2352 12.294 1011 109.686 54.4708 459.108
1118 0 84.2417 15.7404 1326 105.652 53.3756 454.154
1119 0 86.2032 8.71197 751 112.357 54.9587 463.731
1120 0 91.2097 11.7641 1073 110.383 54.5834 458.298
1121 1 50.0468 13.0478 653 107.179 54.4502 480.283
1122 0 51.093 13.6026 695 112.492 54.4144 475.976
1123 0 54.1949 16.8097 911 106.895 55.0044 476.249
1124 0 55.1 18.294 1008 106.058 54.2966 474.15
1125 0 58.2508 14.4376 841 112.925 53.6147 474.64
1126 0 56.1977 15.1608 852 111.164 52.7371 479.545
1127 0 59.1297 13.3097 787 115.048 53.2287 477.859
1128 0 64.117 17.4369 1118 107.873 52.9893 477
1129 0 63.1674 12.8389 811 117.266 50.0123 476.106
1130 0 65.1042 13.3018 866 117.679 50.3106 470.936
1131 0 67.121 13.9003 933 115.638 49.3955 473.151
1132 0 70.1563 13.8548 972 116.954 49.3663 469.538
1133 0 73.2032 14.3163 1048 114.544 49.083 471.364
1134 0 74.1122 13.52 1002 117.607 49.5459 468.103
1135 0 76.2233 14.9429 1139 115.5 46.7989 467.99
1136 0 76.2621 11.7096 893 121.38 47.9698 464.94
1137 0 80.1458 17.2685 1384 112.73 46.9639 463.297
1138 0 82.1509 14.0838 1157 118.823 46.4451 459.918
1139 1 45.0797 11.402 514 118.043 47.4086 481.539
1140 0 46.0426 14.5734 671 114.218 46.9061 477.444
1141 0 48.147 15.8058 761 112.173 44.9527 478.352
1142 0 49.6071 15.2196 755 114.032 43.8583 473.142
1143 0 50.0344 13.5507 678 117.999 45.1313 475.08
1144 0 52.0402 17.5826 915 106.469 44.6055 471.028
1145 0 55.2106 18.9456 1046 103.753 44.3556 471.454
1146 0 52.046 12.7964 666 116.303 46.2853 470.413
1147 0 54.1093 11.1626 604 118.25 46.0099 472.508
1148 0 56.1661 15.8459 890 111.64 46.3438 467.615
1149 0 57.1424 15.4176 881 112.463 46.1998 464.091
1150 0 56.2667 12.9384 728 117.412 48.3173 464.61
1151 0 60.2231 12.9352 779 116.837 49.1258 465.652
1152 0 62.1822 12.9458 805 115.043 48.4919 468.776
1153 0 64.1227 14.9401 958 113.235 50.6701 465.047
1154 0 64.1711 11.968 768 119.533 50.4661 463.862
1155 0 69.29 15.5434 1077 113.499 51.6175 461.11
1156 0 71.1172 17.0282 1211 110.807 51.8398 462.145
1157 0 75.3046 15.5103 1168 113.458 51.3151 460.491
1158 0 77.1155 20.6444 1592 106.57 51.8078 460.281
1159 0 80.2044 15.2111 1220 113.843 52.3 458.657
1160 0 81.2397 14.5865 1185 115.578 54.3823 456.089
1161 0 85.0675 15.1292 1287 114.206 53.1158 458.641
1162 1 46.196 12.9881 600 115.603 55.3533 477.118
1163 0 49.1126 14.6806 721 113.022 54.5659 475.215
1164 0 50.1698 13.1354 659 114.871 54.4704 475.59
1165 0 49.3752 12.7189 628 114.409 54.828 475.116
1166 0 51.1578 13.8786 710 112.251 54.1423 475.003
1167 0 52.1333 16.1317 841 104.065 53.9976 470.478
1168 0 53.2726 8.37204 446 114.751 53.6839 470.845
1169 0 56.1655 13.5492 761 107.555 52.8725 468.164
1170 0 59.0999 13.2318 782 108.418 52.078 471.482
1171 0 63.1463 13.8884 877 108.58 51.2543 471.387
1172 0 64.2214 14.995 963 107.098 50.9159 471.691
1173 0 67.2498 16.2528 1093 105.296 49.9076 469.747
1174 0 70.1521 12.3731 868 109.824 47.9539 474.093
1175 0 71.1271 12.5831 895 109.802 49.1978 472.998
1176 0 74.4823 17.7089 1319 103.25 47.8089 464.246
1177 0 74.483 12.0162 895 111.587 47.2592 462.604
1178 0 79.2541 11.747 931 109.683 46.0505 464.814
1179 0 81.1873 12.4281 1009 109.92 46.8087 462.199
1180 0 83.3619 16.1945 1350 105.818 45.7437 454.818
1181 0 86.9968 16.1615 1406 105.582 45.8115 455.759
1182 0 90.4718 14.137 1279 107.137 45.5504 459.279
1183 1 47.0706 12.3219 580 106.431 45.9414 474.545
1184 0 49.1305 13.6168 669 105.868 45.6951 469.302
1185 0 50.1156 13.2893 666 107.176 45.1291 468.147
1186 0 55.1564 17.3688 958 100.256 44.9102 467.051
1187 0 55.1386 10.7729 594 110.022 44.9461 460.246
1188 0 58.1691 16.2458 945 102.281 45.764 460.933
1189 0 57.2454 14.3243 820 105.915 45.4756 459.112
1190 0 59.3516 11.8447 703 109.239 45.7994 454.044
1191 0 61.1776 13.044 798 107.887 45.9737 452.544
1192 0 67.2571 13.7978 928 108.917 47.0022 457.551
1193 0 72.3967 18.8268 1363 107.654 48.1438 459.595
1194 0 70.2869 14.7111 1034 115.504 47.3095 453.262
1195 0 72.6037 14.3519 1042 115.531 48.8157 454.804
1196 0 76.4292 14.5232 1110 114.169 48.6676 454.83
1197 0 77.3431 13.7827 1066 116.856 49.6201 451.387
1198 0 83.5419 14.6633 1225 113.51 50.3722 454.103
1199 0 84.3461 15.7328 1327 111.984 49.9141 452.307
1200 0 84.253 14.1479 1192 112.853 50.7576 450.07
1201 0 89.5319 16.0055 1433 109.471 51.6029 451.433
1202 0 91.2615 12.2176 1115 116.261 51.6924 443.287
1203 0 96.3209 13.8911 1338 113.592 52.2459 447.889
1204 0 100.746 15.6234 1574 111.25 52.0699 449.912
1205 0 107.485 14.5508 1564 112.097 51.6669 445.215
1206 1 53.0924 12.9962 690 112.778 52.9956 467.746
1207 0 55.1426 16.1218 889 108.504 52.6907 465.315
1208 0 55.0506 13.1515 724 116.662 55.0318 471.939
1209 0 57.0947 11.6999 668 117.906 55.1048 473.695
1210 0 62.119 18.8026 1168 105.288 52.8759 474.506
1211 0 64.2441 14.2426 915 113.267 53.6262 470.169
1212 0 69.4969 13.2236 919 110.822 52.4625 476.716
1213 0 67.2974 14.6068 983 113.369 52.3571 471.385
1214 0 72.3593 15.8376 1146 111.488 51.3159 471.322
1215 0 76.559 18.6523 1428 105.779 51.4405 473.315
1216 0 76.3419 17.068 1303 110.225 50.1842 469.704
1217 0 77.3768 15.1337 1171 113.801 49.1332 468.685
1218 0 79.421 14.8827 1182 116.058 48.4611 464.798
1219 0 81.3099 11.696 951 120.468 49.2976 464.563
1220 0 87.448 15.1747 1327 114.513 47.6127 463.943
1221 0 89.4854 14.2258 1273 117.548 47.1917 459.378
1222 1 48.9906 13.6148 667 109.106 45.5952 478.963
1223 0 49.3487 11.8949 587 115.6 46.2589 472.94
1224 0 49.3676 12.0322 594 114.636 44.7071 472.032
1225 0 48.4204 12.3708 599 116.521 42.9983 468.786
1226 0 50.2987 12.5649 632 111.027 42.5063 471.353
1227 0 53.4524 12.1229 648 111.585 44.0926 470.404
1228 0 57.5136 13.9967 805 107.229 44.4571 469.974
1229 0 58.3595 11.2749 658 112.312 43.4422 460.67
1230 0 60.3572 15.6899 947 106.21 43.8574 465.117
1231 0 63.7168 14.4703 922 106.555 45.2527 466.736
1232 0 62.365 11.9939 748 119.352 45.5909 466.357
1233 0 65.5242 16.6503 1091 111.743 44.8827 464.131
1234 0 71.4218 16.1575 1154 111.817 45.6005 462.341
1235 0 72.5078 15.157 1099 114.188 45.6479 462.42
1236 0 71.5704 15.6349 1119 115.5 47.6202 457.934
1237 0 71.5781 10.9251 782 125.132 48.5703 455.033
1238 0 76.3365 15.5103 1184 116.858 49.0709 456.138
1239 0 79.3188 17.5999 1396 114.34 49.4857 450.532
1240 0 80.4203 14.6356 1177 119.743 50.0399 451.982
1241 0 83.3597 16.1589 1347 114.93 51.0022 455.471
1242 0 84.6027 13.1911 1116 121.849 51.2294 451.296
1243 0 89.7076 13.8338 1241 120.234 51.6148 449.95
1244 0 94.7841 17.1337 1624 114.382 51.8017 444.565
1245 0 96.826 15.626 1513 117.132 52.3186 444.968
1246 0 98.6499 15.6716 1546 117.793 53.7115 441.254
1247 1 53.3207 12.3779 660 113.052 54.5545 467.964
1248 0 53.7574 16.2396 873 107.693 53.1409 468.533
1249 0 53.2212 14.4491 769 108.88 53.2835 470.792
1250 0 57.2576 13.0812 749 110.25 51.6943 472.558
1251 0 58.1135 14.3168 832 108.18 53.7067 475.65
1252 0 59.204 14.8132 877 107.022 51.5838 477.864
1253 0 59.1071 13.89 821 111.203 52.4482 472.985
1254 0 63.3879 11.406 723 112.769 51.7234 477.462
1255 0 67.1508 14.5791 979 108.811 51.6823 473.31
1256 0 66.2928 15.9143 1055 108.301 51.8284 472.124
1257 0 71.2995 14.3199 1021 109.81 51.1645 471.586
1258 0 72.388 15.9557 1155 106.9 50.632 474.886
1259 0 74.5049 11.6234 866 114.774 50.2875 473.331
1260 0 78.3107 16.4345 1287 108.19 48.9666 469.184
1261 0 80.1968 14.8011 1187 109.5 47.8854 473.055
1262 0 84.5975 15.2369 1289 108.93 47.1815 470.856
1263 0 85.3877 14.5806 1245 112.352 46.6434 462.525
1264 0 91.5911 14.7394 1350 110.695 46.3348 465.133
1265 0 94.3904 15.0015 1416 111.326 47.7549 455.511
1266 0 95.3424 21.7112 2070 102.488 46.2048 455.909
1267 1 52.1239 15.4823 807 111.496 47.1338 477.492
1268 0 51.3051 13.9947 718 121.007 47.2075 470.476
1269 0 49.31 11.0728 546 120.132 46.4707 474.43
1270 0 51.495 12.875 663 117.801 45.8371 469.529
1271 0 53.3281 11.8137 630 117.302 45.5444 475.032
1272 0 53.3813 12.5325 669 118.501 46.3513 469.756
1273 0 57.5484 13.9361 802 116.606 45.6746 466.535
1274 0 62.6988 15.1199 948 114.238 46.5612 465.062
1275 0 62.5836 13.9174 871 119.023 45.8657 462.769
1276 0 64.5425 17.5233 1131 116.188 46.7507 460.074
1277 0 66.9079 16.59 1110 117.865 46.8901 459.683
1278 0 68.8794 14.4891 998 122.769 47.3056 455.99
1279 0 71.8093 16.5856 1191 119.166 48.1553 454.778
1280 0 74.8091 14.0357 1050 123.89 48.4019 455.994
1281 0 75.7733 14.0155 1062 125.48 49.2768 451.142
1282 0 75.9668 13.0847 994 128.544 50.7807 445.772
1283 0 81.959 16.9841 1392 121.784 50.0726 447.014
1284 0 86.7092 17.0916 1482 122.062 52.0493 446.63
1285 0 89.2027 15.5825 1390 125.048 52.818 444.617
1286 0 92.0667 15.9124 1465 124.729 53.7413 445.903
1287 0 100.756 15.741 1586 123.296 52.7402 447.592
1288 0 101.679 14.7819 1503 127.008 53.6607 444.1
1289 1 48.7457 12.637 616 127.946 54.4805 468.211
1290 0 50.6066 12.7256 644 129.797 54.7438 470.143
1291 0 55.6616 14.3007 796 125.687 55.4296 468.338
1292 0 56.6742 13.5158 766 128.55 55.5183 468.67
1293 0 55.6237 14.5442 809 128.749 55.225 468.925
1294 0 62.4863 18.404 1150 116.843 54.3565 470.141
1295 0 62.387 15.2436 951 124.608 53.9138 469.198
1296 0 66.5509 16.3634 1089 122.238 54.8329 464.782
1297 0 67.564 14.6528 990 125.858 54.5444 467.015
1298 0 71.5102 15.9558 1141 121.923 55.5355 470.028
1299 0 72.6366 14.607 1061 124.889 54.8944 467.919
1300 0 77.5946 19.5503 1517 116.318 52.9183 467.425
1301 0 77.5491 13.6945 1062 126.93 52.6912 466.859
1302 0 82.2828 14.1099 1161 125.829 50.9009 465.086
1303 0 83.2305 15.9437 1327 122.967 50.006 457.583
1304 0 85.3575 14.3983 1229 125.867 48.8373 460.896
1305 0 90.3533 15.384 1390 121.711 48.4547 464.727
1306 0 91.6427 15.6696 1436 123.703 47.9373 459.783
1307 0 95.4171 16.8418 1607 121.471 48.0081 456.175
1308 0 102.303 17.282 1768 121.333 45.6075 449.859
1309 1 54.2242 13.4073 727 123.243 45.5048 470.604
1310 0 56.1798 13.0474 733 125.472 46.206 467.431
1311 0 58.1789 12.5647 731 126.186 44.8413 463.67
1312 0 58.6079 12.6433 741 127.367 43.5668 457.933
1313 0 64.6035 14.0395 907 123.409 42.7321 459.528
1314 0 62.312 14.1706 883 124.51 43.3862 457.037
1315 0 66.2896 16.4128 1088 120.916 42.8842 454.674
1316 0 71.3444 14.3809 1026 122.858 43.5244 452.374
1317 0 73.4832 18.4396 1355 116.849 43.7018 451.204
1318 0 72.3018 13.2638 959 127.081 44.0688 448.268
1319 0 76.7101 17.8595 1370 116.784 44.4555 451.917
1320 0 78.4487 16.3674 1284 122.528 45.264 442.937
1321 0 82.3546 14.8019 1219 123.112 45.2978 447.194
1322 0 84.3228 15.4525 1303 124.677 46.891 441.217
1323 0 88.38 15.456 1366 124.134 47.6801 441.257
1324 0 89.3746 15.1273 1352 126.445 49.1967 437.109
1325 0 91.251 13.0629 1192 130.492 50.2651 439.174
1326 0 96.3358 12.4876 1203 130.924 48.9543 434.364
1327 0 102.276 13.9623 1428 126.352 50.1204 441.223
1328 0 103.331 14.6423 1513 127.044 51.8553 435.238
1329 1 59.3208 13.8906 824 114.71 49.9794 465.911
1330 0 60.117 13.1244 789 118.809 50.9303 459.439
1331 0 62.1071 10.4175 647 120.734 50.204 463.944
1332 0 64.056 10.9748 703 119.792 51.0754 463.421
1333 0 66.1836 10.2291 677 115.278 50.322 465.84
1334 0 69.2746 12.7753 885 113.386 51.3435 462.086
1335 0 70.2377 10.735 754 116.176 51.9509 463.985
1336 0 72.1238 9.98283 720 118.408 52.0667 459.103
1337 0 78.2637 12.6623 991 112.047 50.4178 462.198
1338 0 80.168 14.295 1146 109.315 49.8525 462.291
1339 0 81.4281 11.2615 917 114.931 50.3479 456.075
1340 0 83.3257 10.2609 855 116.492 49.3333 457.382
1341 0 87.1816 13.8905 1211 112.206 49.3931 454.336
1342 0 88.2006 10.7029 944 115.954 49.1356 459.157
1343 0 91.565 11.8386 1084 115.836 48.1264 451.699
1344 1 53.2475 10.7047 570 113.432 47.5351 476.133
1345 0 55.3258 11.1341 616 113.14 45.5552 474.463
1346 0 54.3691 10.0976 549 115.186 45.9599 473.047
1347 0 60.1798 15.8525 954 105.916 45.2505 473.679
1348 0 58.4387 10.2501 599 116.032 44.6861 470.561
1349 0 60.395 10.63 642 115.64 43.9081 465.882
1350 0 59.1577 9.61837 569 113.763 45.2882 472.294
1351 0 64.1342 10.3065 661 113.729 45.2995 468.095
1352 0 65.1506 11.1741 728 112.254 43.8365 465.217
1353 0 65.1013 8.35621 544 117.844 44.5772 460.2
1354 0 66.2858 9.47413 628 115.363 42.8392 460.581
1355 0 71.3205 8.595 613 115.856 43.69 464.044
1356 0 78.3082 10.8545 850 111.586 42.7047 457.987
1357 0 75.1494 10.4725 787 112.206 42.7065 454.28
1358 0 82.3884 11.0331 909 110.56 43.4906 450.918
1359 0 83.3273 10.9088 909 110.926 43.6458 446.66
1360 0 84.4093 6.07753 513 116.544 44.6082 454.928
1361 0 90.3965 7.92066 716 115.387 45.4539 447.056
1362 0 92.4228 12.1507 1123 116.864 44.7996 441.999
1363 0 92.4664 9.97119 922 120.131 47.6898 441.313
1364 0 98.5844 14.3633 1416 112.566 47.3912 442.126
1365 0 97.4943 12.7084 1239 116.882 49.5262 441.333
1366 0 94.5143 9.55411 903 119.795 50.9402 449.183
1367 0 98.6334 11.7506 1159 117.003 49.3305 445.975
1368 0 106.613 12.1749 1298 117.366 50.379 440.218
1369 1 60.1248 11.842 712 116.636 52.5 463.728
1370 0 56.0445 9.7601 547 126.077 53.543 457.113
1371 0 64.1501 13.749 882 113.56 53.4887 461.587
1372 1 281.759 15.3784 4333 125.65 53.3349 359.487
1373 0 290.591 16.9551 4927 124.697 52.2957 347.364
1374 0 297.402 13.7592 4092 129.015 53.9567 340.278
1375 0 307.466 15.1041 4644 125.606 52.941 350.491
1376 0 316.833 15.535 4922 124.874 53.7316 348.499
1377 1 141.669 10.8493 1537 120.802 54.2167 429.314
1378 0 148.861 14.0803 2096 113.968 54.5372 430.017
1379 0 153.668 9.71573 1493 120.514 53.6035 429.301
1380 0 158.824 8.51886 1353 122.048 53.8056 432.645
1381 0 163.772 14.6423 2398 112.928 53.5567 427.472
1382 1 84.8387 13.0129 1104 114.639 54.5236 458.6
1383 0 86.6652 10.9156 946 119.502 52.0655 456.093
1384 1 53.4846 11.8913 636 111.23 53.8664 477.013
1385 0 49.3092 9.38973 463 117.486 52.5097 478.197
1386 0 56.2285 11.8445 666 110.554 51.3649 478.716
1387 0 57.064 12.5123 714 113.031 49.8025 474.293
1388 0 56.8353 11.5245 655 115.805 48.6229 472.496
1389 0 57.4379 13.6147 782 112.532 47.1087 472.178
1390 0 61.4211 13.4156 824 112.316 47.432 472.944
1391 0 61.8035 14.4652 894 111.827 47.0716 471.081
1392 0 64.4748 14.7965 954 109.689 47.413 471.399
1393 0 64.5984 11.9817 774 118.043 47.0698 466.397
1394 0 65.4303 12.7464 834 117.507 46.9856 465.162
1395 0 68.5527 14.5436 997 113.712 45.3089 463.954
1396 0 71.6073 14.0907 1009 113.704 45.9762 462.993
1397 0 71.3914 15.4781 1105 113.059 44.4326 460.998
1398 0 76.517 15.9311 1219 111.848 45.0386 459.43
1399 0 76.3846 13.6153 1040 115.599 45.0067 457.639
1400 0 78.4219 15.3274 1202 113.82 45.1256 453.71
1401 0 80.3169 14.7416 1184 115.388 45.5895 451.027
1402 0 81.3942 13.4653 1096 118.88 45.5575 449.798
1403 0 84.2551 13.6372 1149 118.621 45.0366 445.644
1404 0 92.3266 13.149 1214 116.6 44.9967 450.811
1405 0 89.234 15.0391 1342 117.256 45.6617 443.335
1406 0 88.1276 8.57848 756 123.493 49.131 449.476
1407 0 92.0942 13.4971 1243 118.424 49.815 445.182
1408 0 96.1796 13.506 1299 117.514 46.943 444.48
1409 0 100.376 15.5415 1560 115.07 47.7558 440.976
1410 0 102.228 15.7295 1608 115.912 47.4882 439.644
1411 1 155.548 12.1313 1887 122.255 48.8654 420.39
1412 0 160.023 12.0857 1934 120.127 50.121 428.924
1413 1 113.292 12.4898 1415 121.188 49.5922 437.917
1414 0 114.669 12.2265 1402 123.688 50.9879 430.658
1415 0 119.578 13.9741 1671 120.563 51.9234 433.117
1416 0 121.792 17.6613 2151 111.722 51.9777 432.133
1417 0 124.534 20.6691 2574 108.885 52.1088 428.258
1418 0 126.457 12.3916 1567 121.366 52.141 418.444
1419 0 132.444 14.9346 1978 116.279 52.1866 422.194
1420 0 139.411 12.811 1786 118.427 53.1523 422.479
1421 0 145.637 13.568 1976 116.575 52.2718 426.892
1422 1 75.1633 12.1203 911 113.831 52.64 454.273
1423 0 80.3322 13.5064 1085 109.698 52.1889 458.174
1424 0 78.1966 10.9851 859 115.168 51.9255 452.374
1425 0 84.2976 13.2863 1120 111.958 52.0348 451.639
1426 0 88.2587 15.5679 1374 108.086 52.0721 450.889
1427 0 89.3792 13.0679 1168 110.284 50.1276 457.524
1428 0 93.2773 14.3014 1334 113.779 49.937 456.256
1429 0 98.374 12.7269 1252 116.027 47.8347 454.466
1430 0 101.286 15.3525 1555 112.065 47.6277 455.544
1431 0 107.341 16.3685 1757 109.146 46.9106 453.713
1432 1 58.1928 15.7923 919 109.001 45.37 474.032
1433 0 58.2042 13.6073 792 111.828 43.9773 472.64
1434 0 61.1174 14.3494 877 110.551 44.2794 471.543
1435 0 62.0816 14.0299 871 110.285 42.9162 471.688
1436 0 62.1406 10.8142 672 116.497 44.2054 469.938
1437 0 62.168 11.7424 730 114.471 42.8781 469.985
1438 0 67.1153 12.9032 866 111.798 43.1686 469.971
1439 0 71.2526 14.9609 1066 109.141 41.5328 466.999
1440 0 67.358 13.4505 906 113.126 40.6578 461.725
1441 0 74.1899 17.1587 1273 105.931 42.597 462.361
1442 0 77.2878 13.8055 1067 110.561 42.9719 455.806
1443 0 78.2415 11.2217 878 114.115 42.9077 456.498
1444 0 80.2518 14.5293 1166 109.4 44.0352 454.476
1445 0 84.209 13.324 1122 111.417 43.0882 451.957
1446 0 87.3985 14.0506 1228 111.081 45.0187 446.182
1447 0 90.4759 14.9432 1352 109.49 45.9815 444.229
1448 1 51.336 13.9668 717 108.287 45.1297 465.095
1449 0 51.477 13.8314 712 110.482 45.1334 462.827
1450 0 51.8107 12.4878 647 107.623 47.6275 459.641
1451 0 52.69 12.1655 641 109.741 48.9033 458.253
1452 0 52.6884 9.92628 523 116.61 49.6444 458.818
1453 0 57.6309 16.4842 950 106.142 49.4684 457.313
1454 0 58.5868 11.9652 701 113.762 49.0499 461.103
1455 0 60.7521 16.8883 1026 106.567 49.8333 459.331
1456 0 61.7907 13.3839 827 112.307 50.8017 456.769
1457 0 59.5798 12.37 737 116.094 51.3311 454.288
1458 0 64.6373 12.779 826 112.895 50.9298 459.706
1459 0 67.2432 12.7299 856 115.053 51.8645 457.202
1460 0 67.528 14.4977 979 112.259 51.857 461.222
1461 0 72.5963 13.7473 998 113.59 53.6914 460.331
1462 0 72.3582 13.5576 981 114.945 53.8186 460.327
1463 0 72.4409 11.8027 855 118.823 53.6772 461.513
1464 0 77.6573 13.4952 1048 115.527 52.4847 459.924
1465 0 81.266 17.4366 1417 107.651 51.7763 459.745
1466 0 82.563 15.9272 1315 109.78 51.3316 459.795
1467 0 84.6564 12.5566 1063 115.931 51.7629 456.632
1468 0 89.7541 15.7876 1417 110.107 51.0212 456.158
1469 0 93.1664 16.5081 1538 108.955 51.041 454.015
1470 0 92.1712 12.6287 1164 116.302 50.3986 447.546
1471 1 52.7112 10.548 556 117.408 50.9227 474.964
1472 0 51.4117 10.9314 562 110.927 48.8648 472.674
1473 0 53.5274 13.2829 711 107.803 47.5106 471.526
1474 0 53.3423 11.6605 622 109.717 47.3553 470.109
1475 0 54.2442 8.88574 482 109.656 48.2573 472.33
1476 0 59.3201 15.0202 891 102.281 47.6453 465.963
1477 0 60.341 11.7499 709 106.838 46.3963 468.226
1478 0 61.1122 11.6016 709 109.776 47.5035 473.694
1479 0 65.0467 14.3282 932 106.097 46.9313 468.329
1480 0 66.0842 12.3327 815 109.528 45.9607 466.319
1481 0 69.1078 14.0939 974 106.041 46.2156 467.514
1482 0 70.1546 12.6863 890 107.071 45.7843 465.86
1483 0 73.1835 12.8308 939 107.532 45.5996 459.766
1484 0 75.0765 12.5738 944 108.655 46.0477 457.94
1485 0 77.1759 14.1884 1095 106.901 46.3105 453.59
1486 0 79.0903 13.1242 1038 108.397 46.6792 455.835
1487 0 83.2813 15.4056 1283 104.84 46.5565 453.499
1488 0 83.3714 11.9345 995 110.868 47.6794 447.555
1489 0 88.1492 17.5838 1550 103.03 47.3426 447.274
1490 0 89.3229 13.0873 1169 108.689 48.0445 447.388
1491 0 92.2657 11.6836 1078 110.818 48.1438 445.378
1492 0 96.5844 12.7557 1232 109.725 47.0455 441.506
1493 1 54.2531 13.6029 738 106.73 50.4621 459.893
1494 0 54.3218 15.0952 820 106.033 49.1061 457.135
1495 0 53.0975 12.5053 664 109.925 47.0151 462.66
1496 0 57.1559 11.3199 647 110.737 47.8825 462.672
1497 0 60.122 18.1132 1089 100.837 48.3095 462.412
1498 0 62.1658 13.3031 827 106.4 48.5683 463.296
1499 0 65.1039 18.4474 1201 99.5179 49.378 461.522
1500 0 62.1463 13.3717 831 108.344 50.207 459.647
1501 0 65.1011 14.3469 934 107.275 50.2869 460.268
1502 0 68.2534 13.4792 920 108.761 50.5087 458.602
1503 0 69.2088 11.328 784 111.237 49.6199 461.487
1504 0 74.1022 13.1035 971 108.542 50.6704 461.037
1505 0 76.1524 12.6982 967 108.693 50.8387 461.172
1506 0 77.1221 18.0493 1392 102.649 50.7924 456.311
1507 0 81.1656 18.6286 1512 102.366 51.6396 456.063
1508 0 84.2222 12.6807 1068 109.584 50.0515 454.327
1509 0 85.1738 13.0087 1108 109.282 51.5641 458.633
1510 0 90.3037 13.1335 1186 108.677 50.2631 457.622
1511 0 89.2013 13.1612 1174 110.191 50.2104 453.38
1512 0 92.3543 10.7846 996 113.647 50.6265 459.04
1513 0 101.189 15.1894 1537 105.159 49.367 459.298
1514 1 53.0508 11.7623 624 112.212 49.0561 473.167
1515 0 53.2124 10.6742 568 115.269 48.4032 471.583
1516 0 58.0487 18.0538 1048 99.5945 47.4943 477.83
1517 0 59.3265 16.5356 981 101.701 46.841 468.5
1518 0 63.2975 13.7288 869 105.53 44.9793 470.582
1519 0 63.2615 11.0178 697 109.588 44.6356 472.974
1520 0 63.1159 16.4935 1041 101.281 44.268 472.525
1521 0 67.2091 13.5696 912 105.946 43.4145 467.069
1522 0 68.4399 12.7996 876 107.562 43.9121 464.416
1523 0 71.5493 16.1427 1155 103.198 43.6623 461.235
1524 0 72.2372 11.5176 832 108.941 43.4639 460.815
1525 0 73.4406 13.0582 959 103.981 45.659 452.301
1526 0 77.4993 11.342 879 105.499 44.4448 450.827
1527 0 79.4597 13.617 1082 102.954 45.3466 446.822
1528 0 83.2767 11.0235 918 104.144 45.2135 451.885
1529 0 85.5761 14.7471 1262 100.11 45.6854 451.287
1530 0 88.4036 10.5652 934 106.747 44.8672 439.425
1531 0 89.5364 15.0442 1347 100.843 45.5449 441.713
1532 1 50.4662 7.25238 366 103.855 45.3169 459.189
1533 0 49.0561 11.7824 578 101.687 46.9758 458.012
1534 0 52.4264 9.84236 516 103.143 46.9709 458.86
1535 0 54.3617 12.0489 655 100.024 47.0321 457.537
1536 0 53.1999 9.09776 484 104.401 47.9669 452.75
1537 0 56.3751 17.0998 964 95.2531 48.5259 453.504
1538 0 55.4348 11.8698 658 102.258 50.3495 455.798
1539 0 57.3147 9.52635 546 105.346 50.4194 451.247
1540 0 55.1837 11.0721 611 104.437 50.8298 451.147
1541 0 59.2508 14.177 840 99.6798 51.3464 453.856
1542 0 64.1517 11.5663 742 103.515 51.5472 448.063
1543 0 66.206 13.6997 907 101.259 51.7398 448.745
1544 0 69.4124 12.7067 882 103.068 52.2426 448.823
1545 0 67.1504 13.6559 917 102.751 52.277 446.906
1546 0 71.3402 12.0689 861 104.142 52.5099 450.06
1547 0 73.1019 15.0885 1103 99.757 52.0852 454.6
1548 0 70.1899 11.7966 828 105.737 52.5024 449.566
1549 0 80.1998 9.66337 775 108.036 52.2774 444.854
1550 0 83.3606 13.3756 1115 103.279 51.9839 451.914
1551 0 88.1766 13.575 1197 103.591 52.2281 448.779
1552 0 85.1398 12.6615 1078 105.335 51.321 448.637
1553 0 90.218 13.6336 1230 104.048 52.0374 447.585
1554 0 95.3121 12.8106 1221 105.664 51.1441 447.541
1555 1 51.084 10.9623 560 103.879 51.1607 466.786
1556 0 53.1664 7.39188 393 107.837 50.7048 468.768
1557 0 59.3835 10.7269 637 103.204 49.1146 466.788
1558 0 53.3429 12.2041 651 103.657 48.2273 464.395
1559 0 60.3247 9.9296 599 105.563 47.8097 463.135
1560 0 62.3929 12.4213 775 102.415 48.0761 462.959
1561 0 63.4039 14.589 925 100.085 47.1665 460.563
1562 0 65.2029 13.2049 861 101.821 47.0406 457.963
1563 0 66.1662 9.5366 631 106.848 46.1949 454.916
1564 0 66.4072 12.5589 834 103.871 46.4976 457.016
1565 0 73.1307 10.3513 757 105.573 46.2589 456.194
1566 0 77.5385 17.8105 1381 96.8161 45.8914 453.589
1567 0 73.2502 11.4266 837 105.738 45.8136 450.053
1568 0 86.4591 13.0582 1129 102.687 45.7679 449.299
1569 0 84.5896 20.1089 1701 95.1764 45.0223 452.301
1570 0 84.4864 15.0202 1269 100.054 44.4925 452.556
1571 0 87.4162 15.1116 1321 101.965 43.2218 444.326
1572 0 90.623 12.6679 1148 105.518 43.4146 438.733
1573 0 93.4064 11.4553 1070 106.002 44.2766 443.595
1574 0 100.239 16.0715 1611 100.686 44.6319 438.167
1575 0 98.3446 13.0561 1284 106.284 45.0109 434.557
1576 0 98.2827 12.3928 1218 107.967 46.367 434.227
1577 1 49.1985 5.00015 246 111.74 46.8618 450.244
1578 0 60.1138 8.71681 524 107.229 47.0439 454.882
1579 0 60.0382 10.3101 619 110.121 46.5444 450.599
1580 0 62.0841 13.4495 835 104.896 47.7437 451.738
1581 0 61.1228 11.7632 719 106.613 47.8178 454.455
1582 1 123.367 13.0424 1609 110.121 49.3207 426.279
1583 1 71.1217 14.4681 1029 104.1 48.8824 453.649
1584 0 72.113 10.65 768 109.314 48.431 450.927
1585 0 70.0872 13.0409 914 106.98 49.7834 449.892
1586 0 77.2626 13.7842 1065 104.979 50.4084 449.641
1587 0 74.2782 10.1645 755 111.779 51.4901 444.138
1588 0 78.1178 12.5452 980 108.385 50.7898 450.062
1589 0 79.0803 11.8487 937 110.683 50.7481 444.985
1590 0 84.0782 14.4865 1218 106.946 51.0796 446.406
1591 0 89.1567 12.0574 1075 108.825 51.5544 451.412
1592 0 92.1675 13.9854 1289 107.002 51.3739 451.366
1593 0 95.1946 17.0493 1623 103.453 51.0924 446.72
1594 0 97.1802 12.1424 1180 110.025 51.2305 449.069
1595 0 99.3106 14.0066 1391 105.275 51.0748 443.111
1596 1 55.5298 10.5349 585 106.407 51.6667 469.205
1597 0 53.293 10.0576 536 110.42 51.0224 465.392
1598 0 58.259 11.1571 650 108.32 51.4877 467.709
1599 0 61.3019 10.0976 619 109.859 51.1147 466.249
1600 0 61.3596 15.7596 967 102.219 49.2968 469.375
1601 0 64.1667 11.0493 709 109.264 48.9111 463.188
1602 0 66.0937 13.9801 924 106.514 45.6613 471.328
1603 0 68.2355 13.7318 937 104.079 46.2316 475.725
1604 0 73.2076 15.217 1114 103.638 44.1777 471.36
1605 0 74.0527 11.4783 850 107.982 44.8412 470.305
1606 0 74.4346 10.4118 775 111.219 44.1652 463.463
1607 0 81.277 15.3549 1248 102.803 43.0497 465.546
1608 0 80.3104 16.4113 1318 103.683 43.8429 460.861
1609 0 81.2882 11.4408 930 111.06 42.1968 459.675
1610 0 86.1513 14.3469 1236 106.981 42.9078 455.134
1611 0 94.5625 23.3179 2205 95.502 43.0485 453.723
1612 0 94.2419 14.8236 1397 105.094 42.4796 453.192
1613 0 96.1246 14.3252 1377 106.644 43.228 450.939
1614 0 99.447 14.5806 1450 107.702 42.2131 444.16
1615 0 102.304 16.6953 1708 104.304 43.1329 441.049
1616 0 103.208 13.7587 1420 108.459 42.7239 441.691
1617 1 59.3968 14.0243 833 107.313 43.4166 461.315
1618 0 59.1128 11.9263 705 110.231 44.5716 462.2
1619 0 59.0896 12.8111 757 109.332 44.5667 461.305
1620 0 64.2168 19.4809 1251 98.7762 44.7434 463.744
1621 0 64.219 14.653 941 107.888 45.7428 455.824
1622 0 65.1017 14.7308 959 107.814 46.0188 456.634
1623 0 68.1968 18.5346 1264 102.263 47.4612 456.163
1624 0 71.1503 18.5523 1320 102.356 47.4379 453.436
1625 0 75.0512 15.576 1169 106.435 46.9162 451.273
1626 0 77.1343 15.9592 1231 105.594 47.9919 454.16
1627 0 75.1517 15.2492 1146 108.243 48.1571 451.658
1628 0 84.1879 19.0645 1605 102.138 49.7115 446.021
1629 0 85.1668 13.0332 1110 111.002 50.1333 447.932
1630 0 85.1406 14.8813 1267 108.686 50.3402 446.631
1631 0 90.1983 16.9626 1530 105.298 50.6843 444.925
1632 0 93.1851 22.4285 2090 99.323 50.7522 445.006
1633 0 95.2491 14.3938 1371 109.338 51.1065 448.984
1634 0 97.3264 14.1791 1380 110.933 51.5123 443.875
1635 0 98.3644 16.4389 1617 106.537 52.0928 452.075
1636 0 103.701 16.9332 1756 106.81 49.9915 446.559
1637 0 104.38 13.2018 1378 112.036 50.2598 438.797
1638 0 109.553 15.7914 1730 107.949 50.6971 442.057
1639 1 57.1738 12.7856 731 106.777 50.3885 463.722
1640 0 61.3102 7.78011 477 107.553 50.6373 470.243
1641 0 63.3543 8.36566 530 107.857 50.5321 469.653
1642 0 68.182 16.3533 1115 97.4825 50.5686 472.596
1643 0 68.3566 17.1161 1170 96.1188 50.4889 474.293
1644 0 67.3353 11.5393 777 105.849 49.4183 468.232
1645 0 75.3553 17.1985 1296 98.8287 48.8434 465.255
1646 0 75.482 14.0696 1062 103.433 47.2985 460.666
1647 0 81.276 15.9949 1300 100.13 47.9738 461.839
1648 0 83.4865 14.2897 1193 101.815 47.8718 463.638
1649 0 84.1905 15.2393 1283 101.763 46.2214 461.946
1650 0 86.3129 18.1201 1564 98.837 46.7545 457.05
1651 0 87.2391 14.145 1234 103.885 45.6621 456.012
1652 0 91.3358 17.5725 1605 98.2031 45.8966 460.229
1653 0 94.3185 16.4019 1547 101.698 44.7253 453.132
1654 0 95.3574 13.7378 1310 105.115 43.9924 452.14
1655 0 100.878 11.4891 1159 106.975 42.9042 449.855
1656 1 56.2089 9.62482 541 105.067 43.3715 473.839
1657 0 56.2861 9.46948 533 104.801 43.8837 456.178
1658 0 60.2799 13.9184 839 99.2527 44.6412 458.716
1659 0 62.1511 8.39889 522 106.741 44.7203 455.324
1660 0 61.2836 11.1939 686 102.999 45.9854 453.803
1661 0 66.3045 13.3475 885 100.446 47.2 455.84
1662 0 69.2495 11.3791 788 103.386 47.0279 453.278
1663 0 70.1746 12.7967 898 102.627 46.2283 446.31
1664 0 71.4218 10.879 777 104.197 48.408 446.134
1665 0 73.4668 15.1361 1112 99.7347 47.7716 443.578
1666 0 71.1635 11.846 843 103.979 48.5611 444.934
1667 0 81.4832 17.206 1402 97.1726 49.5385 438.305
1668 0 83.5949 12.6682 1059 100.98 50.0066 448.788
1669 0 86.4555 13.3942 1158 101.805 51.5112 439.745
1670 0 89.2797 15.3562 1371 99.3815 51.9183 443.975
1671 0 86.3798 13.5796 1173 103.587 52.3222 440.891
1672 0 95.1648 14.3435 1365 101.186 53.1451 444.254
1673 0 95.5396 11.8485 1132 104.208 53.1537 443.528
1674 0 98.3974 12.0328 1184 110.656 54.0287 446.579
1675 0 92.8906 10.507 976 112.701 54.3965 443.81
1676 1 56.3862 13.1238 740 98.6622 52.8824 466.227
1677 0 57.2551 11.5099 659 101.648 53.1912 461.876
1678 0 59.4099 12.8261 762 100.075 53.7283 455.663
1679 0 62.382 15.357 958 97.8914 53.0532 460.173
1680 0 62.4371 11.3074 706 104.048 51.8215 462.12
1681 0 63.2721 12.4067 785 102.665 50.9146 461.173
1682 0 67.4849 10.1208 683 103.646 49.5608 466.001
1683 0 69.28 11.9804 830 102.376 50.5699 464.847
1684 0 71.4343 10.0232 716 104.922 50.2277 463.816
1685 0 71.3303 13.7249 979 102.187 49.9152 461.387
1686 0 76.2557 13.2056 1007 103.405 48.6852 455.5
1687 0 78.4282 14.4718 1135 101.544 48.3982 458.692
1688 0 80.4274 11.1778 899 105.546 48.228 460
1689 0 82.2604 11.3299 932 106.413 47.5161 454.472
1690 0 86.1693 12.9745 1118 103.92 46.5769 453.428
1691 1 48.1788 12.3914 597 101.68 45.0921 469.278
1692 0 49.0938 11.1623 548 103.33 45.3704 471.456
1693 0 50.1711 11.7 587 103.683 45.0273 466.426
1694 0 52.2413 18.7591 980 94.6367 44.4418 472.782
1695 0 53.3558 9.18364 490 108.773 44.5367 466.794
1696 0 54.3856 12.0252 654 105.625 43.818 464.214
1697 0 52.2293 10.5879 553 110.597 45.0524 459.427
1698 0 56.3872 9.61211 542 110.828 45.0535 462.526
1699 0 56.21 13.3606 751 106.294 44.4807 461.132
1700 0 63.3474 14.3337 908 103.802 44.7786 458.524
1701 0 65.3185 14.9116 974 103.679 44.6201 454.968
1702 0 63.266 10.9221 691 111.187 46.4848 453.355
1703 0 67.1581 15.7092 1055 104.287 44.9156 452.431
1704 0 72.1976 12.2026 881 107.535 46.5789 453.526
1705 0 71.2222 10.4181 742 110.438 46.0189 452.767
1706 0 73.2454 12.8336 940 108.595 47.7426 447.439
1707 0 76.3006 19.2921 1472 100.331 47.1481 444.329
1708 0 79.173 11.6454 922 109.368 47.7701 446.482
1709 0 82.238 16.5374 1360 103.199 47.5941 446.178
1710 0 86.3046 17.1949 1484 103.53 48.3167 445.682
1711 0 88.2536 12.9513 1143 110.618 50.0149 444.563
1712 0 90.2104 15.6745 1414 107.479 50.4802 443.467
1713 0 96.3735 18.5424 1787 103.718 50.9239 440.714
1714 0 99.403 13.4805 1340 111.402 51.3858 438.696
1715 0 101.194 18.1533 1837 104.067 51.4349 445.531
1716 1 55.0704 12.9471 713 106.739 51.195 465.568
1717 0 57.2082 14.6657 839 105.881 51.8153 459.999
1718 0 61.2294 10.8608 665 108.271 51.3489 467.068
1719 0 60.2724 14.6833 885 106.412 52.365 464.194
1720 0 64.1371 13.1905 846 112.844 52.0567 467.124
1721 0 66.3165 13.2697 880 112.311 53.0705 468.468
1722 0 69.1415 17.9632 1242 105.507 51.9968 466.213
1723 0 71.2027 14.1568 1008 110.846 51.0397 468.092
1724 0 73.3023 15.02 1101 109.555 51.1562 470.214
1725 0 74.4598 11.8453 882 115.256 51.4342 468.391
1726 0 77.3068 14.8629 1149 112.285 50.8085 463.568
1727 0 79.2438 13.9822 1108 114.014 51.704 464.673
1728 0 83.2031 13.5452 1127 114.772 50.9547 463.865
1729 0 86.1763 15.6772 1351 112.185 48.9386 461.087
1730 0 86.3135 14.5864 1259 115.407 50.4551 458.674
1731 0 93.2544 14.7017 1371 114.073 47.4296 457.112
1732 0 93.2947 14.4917 1352 114.932 48.5451 459.351
1733 0 99.3858 16.4309 1633 112.196 47.3258 453.615
1734 0 99.526 14.8705 1480 116.196 47.0818 448.899
1735 0 102.396 13.1743 1349 118.981 44.9503 447.746
1736 1 58.2994 11.8354 690 120.241 46.3145 467.246
1737 0 61.1668 13.8801 849 116.708 46.4217 467.923
1738 0 63.4019 16.1667 1025 112.878 46.1268 467.845
1739 0 63.0742 12.0652 761 121.113 46.2865 466.438
1740 0 67.2419 14.1132 949 115.836 46.7956 465.868
1741 0 67.0818 11.8065 792 120.986 46.1591 463.287
1742 0 69.1634 15.2826 1057 115.345 46.5005 460.906
1743 0 71.0821 12.8724 915 118.887 46.3672 457.683
1744 0 71.2076 14.9001 1061 116.696 46.7955 452.304
1745 0 77.2296 13.6735 1056 117.647 46.4053 451.834
1746 0 78.489 12.6387 992 119.435 47.4748 453.231
1747 0 80.1876 12.0343 965 119.659 47.9337 454.255
1748 0 84.3883 15.0969 1274 116.046 47.5612 449.85
1749 0 86.4483 12.6781 1096 119.331 48.3285 448.816
1750 0 89.3365 13.1637 1176 120.726 48.3631 443.073
1751 0 93.3201 15.1522 1414 116.244 48.9427 443.264
1752 1 52.1125 11.1106 579 122.508 50.6183 461.052
1753 0 53.1509 11.5896 616 121.896 50.7971 460.914
1754 0 56.2846 10.9622 617 121.522 50.3517 464.029
1755 0 56.3129 17.0121 958 114.041 49.2109 461.581
1756 0 59.3076 12.1064 718 119.838 50.2256 456.311
1757 0 60.2567 15.6829 945 113.867 48.3143 461.151
1758 0 60.1239 15.6344 940 115.759 49.6606 460.007
1759 0 60.0714 11.786 708 122.853 49.9619 459.637
1760 0 65.1241 13.2363 862 117.694 50.08 462.579
1761 0 67.134 13.7039 920 118.404 50.4109 461.392
1762 0 69.2839 17.5077 1213 112.523 51.3034 460.22
1763 0 72.3857 13.3037 963 118.354 52.2887 463.952
1764 0 74.2385 16.8511 1251 114.1 51.8241 459.976
1765 0 77.3649 13.0809 1012 117.965 51.5376 466.084
1766 0 78.3627 14.2159 1114 117.428 52.1661 462.86
1767 0 83.3204 17.3187 1443 112.945 50.8226 458.131
1768 0 82.5658 12.6808 1047 120.805 50.7469 460.331
1769 0 90.8319 18.1874 1652 111.471 51.8541 456.025
1770 0 92.6012 14.989 1388 117.103 51.0677 453.95
1771 0 95.5663 15.947 1524 113.169 48.3799 454.965
1772 1 52.3762 9.92818 520 121.048 48.2615 474.24
1773 0 55.5148 13.5459 752 115.231 46.3883 471.227
1774 0 55.7082 12.4398 693 115.657 47.267 472.766
1775 0 58.1359 13.7609 800 114.802 45.1112 468.959
1776 0 57.087 12.3321 704 119.112 44.8509 463.626
1777 0 63.3193 15.8404 1003 110.87 43.8694 462.989
1778 0 60.1196 12.3753 744 120.442 43.3696 460.493
1779 0 60.185 14.7046 885 116.519 42.4034 460.092
1780 0 65.1472 17.944 1169 107.998 42.0171 466.123
1781 0 62.2085 12.1045 753 122.777 42.9097 458.197
1782 0 66.0946 13.5563 896 119.326 42.8594 457.526
1783 0 69.1259 13.2656 917 120.531 42.7895 453.501
1784 0 71.1972 17.3883 1238 113.585 42.4071 455.373
1785 0 71.0959 13.7279 976 120.615 41.5799 457.391
1786 0 74.1742 13.293 986 121.004 42.9067 452.805
1787 0 79.0991 16.1317 1276 115.462 43.5572 450.287
1788 0 82.2733 16.506 1358 114.667 43.3314 448.263
1789 0 83.332 12.7202 1060 120.942 42.6906 448.942
1790 0 86.1284 15.802 1361 116.98 44.047 443.684
1791 0 89.2943 14.7154 1314 118.227 44.4475 443.743
1792 0 91.204 19.1 1742 112.358 45.438 438.095
1793 0 95.4282 14.5764 1391 120.3 45.5356 433.409
1794 0 99.8172 15.3781 1535 118.212 47.6678 438.616
1795 0 103.483 16.7854 1737 116.396 48.4744 433.796
1796 0 105.381 15.98 1684 118.156 47.4632 431.034
1797 0 107.422 16.7563 1800 117.664 47.7778 425.714
1798 0 113.46 17.5833 1995 115.634 49.38 429.552
1799 0 115.572 18.11 2093 115.649 48.6555 427.756
1800 0 119.34 15.7449 1879 117.152 49.7935 425.116
1801 1 65.18 13.4244 875 118.114 50.0674 455.655
1802 0 69.3049 14.5011 1005 116.44 50.7393 455.102
1803 0 70.2987 14.3104 1006 116.489 50.6193 461.634
1804 0 75.4529 18.0775 1364 109.854 50.6092 459.778
1805 0 77.2665 15.906 1229 114.055 50.3515 456.146
1806 0 81.5384 15.2076 1240 113.782 52.525 455.669
1807 0 81.5384 15.2811 1246 148.279 54.5185 455.635
1808 0 84.5717 13.7989 1167 116.916 51.1251 450.073
1809 0 87.4662 16.0634 1405 112.992 51.3673 449.863
1810 0 92.4665 14.5999 1350 114.053 50.5585 453.706
1811 0 95.9617 14.7976 1420 114.573 50.6225 448.73
1812 0 97.5907 13.157 1284 117.126 48.8598 450.209
1813 0 101.341 15.8277 1604 113.928 49.5966 445.513
1814 0 105.642 14.9751 1582 114.475 49.3331 445.569
1815 0 108.3 16.3435 1770 113.062 48.183 444.062
1816 0 113.617 16.4676 1871 109.371 47.791 452.149
1817 0 115.545 21.0654 2434 106.148 46.2995 441.336
1818 0 119.474 18.1378 2167 109.757 45.9566 439.336
1819 0 122.416 16.6809 2042 112.353 44.9594 436.906
1820 0 128.569 18.7759 2414 107.781 45.2813 437.323
1821 0 130.524 18.3337 2393 108.093 44.0706 433.325
1822 0 135.609 15.552 2109 113.39 45.0119 423.992
1823 0 140.286 15.1904 2131 112.842 43.8353 420.023
1824 1 73.2113 13.4679 986 113.001 43.003 455.834
1825 0 76.1533 13.4991 1028 106.826 43.3774 451.09
1826 0 76.4679 14.9213 1141 105.642 43.894 452.5
1827 0 78.3104 13.6891 1072 108.484 43.9534 446.185
1828 0 81.3072 16.2839 1324 104.313 42.8353 449.177
1829 0 85.7506 13.4926 1157 108.607 42.8375 447.55
1830 0 88.5243 15.8939 1407 107.725 43.8323 442.55
1831 0 89.3302 15.8065 1412 112.113 43.9851 445.108
1832 0 93.4688 15.1708 1418 113.221 43.7341 443.14
1833 0 95.3152 19.4513 1854 107.68 44.9396 442.702
1834 0 99.4792 14.5759 1450 114.636 44.5676 442.361
1835 0 100.219 13.8396 1387 116.262 44.2841 437.477
1836 0 106.597 14.3813 1533 114.69 45.8493 436.718
1837 0 109.537 17.4462 1911 110.546 45.2187 431.599
1838 0 112.595 17.4697 1967 109.115 46.7214 435.918
1839 0 118.183 13.9614 1650 114.852 47.2594 429.118
1840 1 66.2684 9.74823 646 117.2 47.2848 458.306
1841 0 69.2763 13.4678 933 113.137 46.8242 452.003
1842 0 70.1011 11.4549 803 114.188 48.335 452.995
1843 0 74.7591 18.9542 1417 102.219 49.2915 454.984
1844 0 74.2531 14.1139 1048 110.845 49.9924 448.739
1845 0 78.1918 17.8791 1398 104.409 48.9943 447.133
1846 0 81.2804 14.4438 1174 108.529 50.2811 449.052
1847 0 82.294 14.2173 1170 110.307 50.1205 446.356
1848 0 85.3451 15.0331 1283 110.556 50.8737 446.234
1849 0 88.683 16.2489 1441 108.583 49.8515 449.259
1850 0 90.795 12.3135 1118 115.229 50.5152 445.585
1851 0 91.4647 12.0046 1098 116.316 50.3188 446.588
1852 0 95.5221 14.0596 1343 113.853 50.1616 442.994
1853 0 99.5355 12.9301 1287 116.308 50.3372 443.301
1854 0 105.424 12.9667 1367 115.992 49.0914 444.336
1855 0 107.543 15.3706 1653 113.724 49.9056 439.08
1856 0 111.205 16.6899 1856 111.567 49.1121 437.499
1857 1 60.457 8.33651 504 121.728 46.9603 467.349
1858 0 63.2396 12.255 775 117.215 47.4348 465.547
1859 0 67.2717 14.5975 982 112.659 46.2841 465.405
1860 0 70.139 14.2432 999 113.05 45.7167 464.398
1861 0 72.1796 19.2021 1386 105.305 45.469 464.136
1862 0 76.1898 13.1645 1003 114.647 44.2542 461.415
1863 0 77.239 16.6108 1283 109.632 44.1247 458.652
1864 0 79.2685 16.1603 1281 111.12 43.2022 455.386
1865 0 82.3752 15.2837 1259 111.955 42.1263 455.176
1866 0 85.4146 18.1468 1550 107.888 43.1013 452.834
1867 0 90.2739 20.3935 1841 104.351 42.4574 449.975
1868 0 92.5935 17.1934 1592 109.143 42.4491 449.688
1869 0 94.489 16.2982 1540 110.61 42.6747 448.213
1870 0 97.4116 19.1558 1866 107.42 42.217 443.152
1871 0 99.2823 15.3905 1528 112.454 42.8174 439.258
1872 0 103.292 16.5162 1706 110.792 42.2737 433.293
1873 1 57.1829 14.4973 829 112.908 42.1665 459.992
1874 0 61.7831 16.4932 1019 108.312 43.213 459.269
1875 0 61.4487 11.8473 728 117.394 43.9025 454.651
1876 0 64.0498 13.427 860 113.65 43.4895 454.581
1877 0 66.3087 13.5729 900 112.922 44.07 455.473
1878 0 68.3241 16.4949 1127 107.003 44.7169 453.764
1879 0 69.2778 16.4555 1140 108.695 44.4544 449.613
1880 0 71.3201 17.3303 1236 107.436 45.7193 446.611
1881 0 74.4134 17.8597 1329 106.188 45.8156 447.632
1882 0 77.5623 13.8985 1078 113.479 47.5492 442.768
1883 0 77.5657 12.1188 940 116.498 47.3787 442.17
1884 0 79.6176 15.16 1207 110.767 48.145 445.363
1885 0 81.6797 15.4016 1258 111.516 48.9452 442.606
1886 0 87.6923 14.7219 1291 111.607 48.7436 440.361
1887 0 89.8479 12.7215 1143 115.09 50.5879 439.212
1888 0 90.4072 15.0873 1364 111.66 50.3233 440.158
1889 0 98.0217 15.6904 1538 109.908 51.632 438.694
1890 1 185.998 10.6991 1990 118.407 51.5709 402.15
1891 1 103.65 19.3247 2003 105.39 52.5147 429.635
1892 0 109.766 15.3052 1680 110.014 50.5875 431.77
1893 1 57.4253 12.9908 746 113.629 51.2279 458.906
1894 0 58.2969 12.2305 713 114.912 49.5596 459.359
1895 0 61.1968 12.5333 767 115.295 49.4381 459.795
1896 0 63.2051 14.7615 933 111.665 48.9303 459.056
1897 0 65.0779 12.6157 821 115.491 49.5359 457.934
1898 0 68.1281 11.8306 806 115.37 48.5695 460.669
1899 0 73.1386 12.9754 949 112.612 49.1517 461.279
1900 0 76.1591 14.7192 1121 109.114 48.4095 462.556
1901 0 76.2258 17.4613 1331 105.022 47.3591 462.899
1902 0 77.1739 10.4569 807 117.606 47.3643 457.746
1903 0 82.1263 13.6741 1123 113.321 45.7133 453.224
1904 0 85.475 14.9517 1278 110.646 45.3725 455.781
1905 0 87.4608 13.5261 1183 114.767 44.4683 450.309
1906 0 89.5713 14.5359 1302 112.737 44.5445 450.686
1907 0 92.4443 18.5409 1714 106.978 44.1826 451.966
1908 0 96.5163 14.7643 1425 113.152 43.3221 445.358
1909 0 95.401 16.5722 1581 110.743 42.9741 448.696
1910 0 99.5181 13.0027 1294 117.242 43.7287 441.606
1911 0 103.554 13.5968 1408 117.538 42.9155 437.89
1912 0 108.576 13.9625 1516 115.73 43.3212 438.931
1913 1 56.3835 9.70143 547 120.731 41.4808 456.177
1914 0 56.3835 9.77237 551 162.274 40.4991 456.103
1915 0 62.3988 12.2759 766 113.17 43.2193 459.625
1916 0 63.1751 16.4147 1037 105.588 43.7001 454.976
1917 0 60.3033 11.7241 707 114.586 42.1598 451.564
1918 0 67.5187 15.1365 1022 107.707 42.8513 453.673
1919 0 70.347 14.4853 1019 110.241 42.6389 450.148
1920 0 70.2969 18.7917 1321 106.662 43.1749 447.048
1921 0 76.536 12.3863 948 114.311 43.5232 447.643
1922 0 77.4133 12.7885 990 115.136 44.3626 443.317
1923 0 80.3348 13.3815 1075 112.787 44.2112 443.38
1924 0 84.5979 12.5299 1060 114.355 46.8991 441.216
1925 0 86.3719 18.2467 1576 106.997 47.5266 434.101
1926 0 89.4544 16.7348 1497 108.228 48.4028 442.146
1927 0 91.5217 15.876 1453 110.617 48.6683 438.898
1928 0 94.5039 15.5549 1470 111.759 50.185 438.291
1929 0 97.8467 20.5321 2009 104.869 50.9258 435.117
1930 0 91.6214 7.8366 718 126.728 51.0487 435.121
1931 0 91.7012 9.75996 895 168.523 53.0525 433.399
1932 0 105.508 15.468 1632 112.509 52.4804 434.289
1933 0 109.729 14.4903 1590 113.904 53.2453 433.679
1934 0 108.751 11.2367 1222 121.139 52.1931 428.475
1935 0 113.947 12.7778 1456 117.276 51.8152 432.26
1936 0 121.6 15.8553 1928 112.004 52.0104 433.99
1937 0 123.938 25.3029 3136 101.033 51.1046 434.13
1938 0 129.175 13.7798 1780 114.691 50.8034 435.135
1939 0 134.14 17.6383 2366 111.09 51.0232 422.65
1940 0 140.343 16.8516 2365 111.023 49.9844 432.616
1941 0 143.989 15.779 2272 114.214 51.3301 426.261
1942 0 147.864 15.8592 2345 112.85 50.0264 433.521
1943 0 155.052 16.1365 2502 114.551 49.8761 420.229
1944 1 94.7557 13.0019 1232 111.601 48.9545 457.558
1945 0 97.8955 11.6757 1143 115.688 46.042 451.799
1946 0 100.672 14.9198 1502 111.212 46.4834 444.782
1947 0 100.836 10.9882 1108 117.522 45.7608 445.059
1948 0 104.854 10.92 1145 116.107 44.8323 443.478
1949 0 109.602 12.6549 1387 114.237 44.8356 442.68
1950 0 114.834 15.6051 1792 110.733 44.3186 436.522
1951 0 119.017 15.7036 1869 110.509 43.618 436.342
1952 0 119.902 13.1191 1573 114.983 43.6446 437.397
1953 0 125.81 14.4185 1814 113.794 43.613 431.95
1954 0 130.936 14.8164 1940 113.035 44.3289 427.404
1955 0 133.065 12.9711 1726 115.865 42.6564 425.509
1956 0 135.641 13.838 1877 114.34 42.2744 419.24
1957 0 137.946 13.0413 1799 115.014 43.1334 419.78
1958 0 146.13 16.0405 2344 109.135 44.0013 422.257
1959 0 153.002 15.6926 2401 108.621 44.5023 421.064
1960 0 154.889 13.0351 2019 114.938 44.6171 404.87
1961 1 86.7929 10.8649 943 110.705 44.14 445.341
1962 0 88.8718 10.9709 975 111.146 45.0554 443.977
1963 0 96.0529 14.6586 1408 105.58 45.2301 443.44
1964 0 96.8973 14.9437 1448 105.464 45.5856 441.898
1965 0 100.19 13.8037 1383 107.158 47.5994 438.351
1966 0 101.154 11.6456 1178 111.324 47.5357 433.314
1967 0 106.902 13.1803 1409 107.979 48.1043 437.469
1968 0 111.972 19.4424 2177 100 48.7993 437.137
1969 0 111.859 12.9181 1445 108.037 50.0166 436.846
1970 0 113.742 13.9263 1584 108.849 49.7696 432.321
1971 0 118.081 12.9826 1533 111.177 50.0718 427.226
1972 0 121.753 15.7532 1918 107.569 50.7331 429.447
1973 0 125.798 17.7665 2235 103.889 50.464 434.477
1974 0 126.846 14.8526 1884 109.36 50.1868 430.228
1975 0 131.496 15.6962 2064 106.416 50.6032 434.416
1976 0 135.489 13.9421 1889 110.355 51.6125 418.546
1977 0 146.786 17.6651 2593 102.027 51.5318 432.539
1978 0 145.926 12.0472 1758 110.408 52.4152 428.756
1979 0 154.665 14.108 2182 108.649 52.0445 417.21
1980 0 158.587 14.7742 2343 108.426 52.662 415.331
1981 1 93.5884 17.3953 1628 97.7918 51.2015 458.674
1982 0 98.6251 14.9252 1472 101.018 50.5645 455.987
1983 0 102.738 14.9311 1534 103.396 50.6708 453.838
1984 0 101.523 10.4902 1065 111.242 50.6563 445.482
1985 0 105.618 12.157 1284 108.832 49.3178 443.379
1986 0 110.488 15.9655 1764 102.57 49.8118 455.007
1987 0 114.692 14.3689 1648 106.297 47.182 445.388
1988 0 119.62 15.0142 1796 105.205 48.0807 447.236
1989 0 122.689 17.198 2110 102.17 46.245 450.329
1990 0 125.715 12.7669 1605 107.982 46.8798 448.298
1991 0 127.707 12.6069 1610 110.41 46.4609 436.855
1992 0 131.922 13.5004 1781 109.193 45.7108 437.392
1993 0 134.928 11.9767 1616 112.085 45.185 429.829
1994 0 140.647 12.798 1800 109.221 45.475 435.547
1995 0 143.915 12.1252 1745 112.66 43.2178 425.108
1996 0 149.759 14.5501 2179 108.747 43.6893 429.532
1997 1 84.8443 11.9395 1013 109.284 42.3603 452.046
1998 0 85.6672 12.2801 1052 109.7 44.0285 448.509
1999 0 90.6808 10.6086 962 109.793 42.9314 454.343
2000 0 89.5977 9.88865 886 111.942 42.7167 448.813
2001 0 95.0163 15.6078 1483 104.156 40.532 443.163
2002 0 97.828 14.0348 1373 107.587 42.5222 437.508
2003 0 100.836 14.4492 1457 106.628 41.7097 439.089
2004 0 102.729 14.8643 1527 106.722 44.6555 436.832
2005 0 107.806 13.6635 1473 109.133 44.852 431.1
2006 0 111.716 14.8144 1655 106.749 43.4079 431.125
2007 0 119.481 18.2624 2182 98.9537 44.8185 437.879
2008 0 120.892 14.0456 1698 106.564 44.8987 429.249
2009 0 119.942 11.1638 1339 111.917 46.2084 421.393
2010 0 124.627 17.1151 2133 104.042 47.241 423.38
2011 0 126.822 12.1114 1536 111.761 47.8965 420.716
2012 0 130.545 20.9966 2741 100.251 47.3411 418.221
2013 0 135.607 13.9079 1886 107.805 47.7762 419.557
2014 0 137.777 16.4759 2270 105.191 48.5458 416.45
2015 0 142.732 13.2065 1885 109.903 49.1019 412.588
2016 0 151.576 15.9524 2418 105.863 50.2279 405.029
2017 1 81.2322 6.48757 527 114.945 49.8653 434.421
2018 0 91.5494 12.1028 1108 103.767 50.046 440.362
2019 0 95.6986 13.7933 1320 101.295 51.9136 439.002
2020 0 92.5487 15.5918 1443 101.139 52.0728 431.863
2021 0 97.3704 11.7489 1144 105.24 51.3016 437.802
2022 0 97.4426 10.7551 1048 107.935 51.8864 428.079
2023 0 103.485 14.2146 1471 104.665 51.8749 427.608
2024 0 104.466 9.25659 967 111.948 51.304 428.301
2025 0 112.448 12.6192 1419 107.084 50.2946 433.517
2026 0 116.647 12.7821 1491 106.663 51.063 432.776
2027 0 119.433 11.6802 1395 108.276 49.0057 428.71
2028 0 121.582 13.5464 1647 106.921 50.3169 426.015
2029 0 126.62 24.1273 3055 95.0268 49.0376 433.411
2030 0 127.797 11.8547 1515 109.594 47.866 432.02
2031 0 128.567 12.2504 1575 109.484 47.3003 429.944
2032 0 132.657 10.2068 1354 113.098 46.2179 422.62
2033 0 142.632 15.5155 2213 105.922 46.8739 420.249
2034 0 148.649 15.2507 2267 107.36 46.5024 412.254
2035 0 157.596 9.66397 1523 114.066 44.5003 413.565
2036 1 9.00142 5.55468 50 88.98 47.32 484.12
2037 0 17.0852 6.2042 106 87.6604 46.3774 482.557
2038 0 11.0135 8.17178 90 87.9667 45.8111 481.256
2039 1 99.3478 12.1392 1206 105.194 43.3847 437.913
2040 0 104.461 13.5648 1417 105.403 43.4008 436.603
2041 0 105.423 11.0128 1161 112.069 43.23 432.117
2042 0 110.509 11.8633 1311 111.403 43.5698 435.183
2043 0 112.521 14.6461 1648 107.343 43.2324 436.991
2044 0 117.568 14.6128 1718 108.169 43.0838 432.584
2045 0 117.508 12.1609 1429 112.77 41.3093 427.91
2046 0 120.571 15.9574 1924 107.594 41.5764 427.375
2047 0 123.666 12.2912 1520 113.07 42.4072 429.77
2048 0 126.469 14.3592 1816 111.346 42.799 423.79
2049 0 130.302 12.8778 1678 111.433 45.612 424.209
2050 0 135.816 13.9085 1889 106.19 45.009 421.882
2051 0 135.218 11.7292 1586 110.936 46.0214 417.689
2052 0 141.364 13.7588 1945 107.956 46.9306 414.294
2053 0 145.349 11.2006 1628 111.615 47.059 417.46
2054 0 149.489 12.603 1884 110.96 48.0117 406.151
2055 0 154.739 10.8893 1685 111.977 50.5982 414.327
2056 0 156.475 11.3628 1778 112.245 49.4173 414.972
2057 0 162.4 13.2143 2146 111.423 50.7721 400.393
2058 1 98.2129 11.9842 1177 107.636 51.4843 440.295
2059 0 99.2348 14.7025 1459 101.454 52.4592 439.84
2060 0 103.299 12.033 1243 107.555 51.7289 440.623
2061 0 104.508 12.468 1303 108.401 51.35 436.058
2062 0 109.325 16.4098 1794 102.842 50.9309 438.871
2063 0 111.444 13.5584 1511 107.16 50.8901 438.778
2064 0 113.395 14.7008 1667 106.127 51.787 441.478
2065 0 116.277 13.0379 1516 109.435 51.5937 432.597
2066 0 120.261 13.4957 1623 108.336 52.2711 438.396
2067 0 122.379 16.1221 1973 105.295 50.9777 435.847
2068 0 124.349 14.4272 1794 107.172 51.2793 442.508
2069 0 126.466 14.5336 1838 109.124 50.3917 438.415
2070 1 137.25 11.6503 1599 112.042 51.9975 435.696
2071 0 139.248 14.7578 2055 108.872 50.8039 432.67
2072 0 140.284 13.0521 1831 113.358 49.7236 426.718
2073 0 144.449 13.8734 2004 112.525 49.7011 430.934
2074 0 148.419 9.74944 1447 120.932 47.783 416.967
2075 0 152.379 12.8626 1960 113.246 47.849 420.208
2076 0 148.443 11.5667 1717 115.209 46.0646 420.191
2077 0 153.219 11.5456 1769 117.747 45.4584 408.393
2078 1 163.417 16.6691 2724 109.537 44.3172 409.561
2079 0 170.564 14.3993 2456 111.736 44.4259 411.508
2080 0 175.744 11.5566 2031 119.175 43.2797 391.074
2081 0 181.622 14.0071 2544 113.698 43.6293 400.482
2082 0 179.408 12.5301 2248 117.932 43.8172 391.625
2083 1 191.698 12.6657 2428 116.971 42.5482 389.492
2084 1 121.403 8.43472 1024 113.53 44.1436 429.138
2085 0 122.317 12.4758 1526 111.336 42.9037 421.99
2086 0 119.28 10.3454 1234 141.574 42.1216 415.771
2087 0 121.262 8.94755 1085 111.535 44.2977 415.776
2088 0 132.786 12.7047 1687 106.357 43.2881 415.19
2089 0 136.405 7.91028 1079 109.093 42.6265 425.786
2090 0 139.475 12.0811 1685 109.864 42.5941 424.696
2091 0 143.369 12.011 1722 110.58 43.8357 420.756
2092 0 150.841 13.9882 2110 108.291 44.3303 412.916
2093 0 152.612 11.0476 1686 107.732 44.9703 420.021
2094 0 159.713 14.1817 2265 108.745 45.5046 407.942
2095 0 164.746 11.7211 1931 110.357 46.8374 410.03
2096 0 166.46 13.2765 2210 108.772 49.0145 409.15
2097 1 97.4588 12.0359 1173 103.312 47.584 443.275
2098 0 99.4707 7.77114 773 102.774 48.6753 456.419
2099 0 103.554 12.5152 1296 103.802 49.1605 435.602
2100 0 109.078 19.6006 2138 94.7605 50.1342 441.308
2101 0 109.879 11.6765 1283 103.731 51.0507 438.37
2102 0 105.464 9.23535 974 110.011 51.0154 424.996
2103 0 117.825 13.3418 1572 104.846 52.0649 431.341
2104 1 67.696 6.80986 461 104.811 51.5662 463.618
2105 0 67.577 8.46442 572 104.463 51.507 458.659
2106 0 69.5642 14.0015 974 101.053 52.1294 453.355
2107 0 73.3464 16.7698 1230 99.6789 49.4049 461.752
2108 0 73.1399 11.5122 842 107.875 48.5487 461.211
2109 0 77.3057 11.267 871 107.628 48.5936 464.419
2110 0 79.5843 13.4826 1073 106.925 48.8677 459.03
2111 0 84.6978 13.9201 1179 101.203 49.4385 457.362
2112 0 87.5533 12.9064 1130 104.375 48.4619 457.073
2113 0 89.3032 12.2952 1098 105.089 49.1002 457.038
2114 0 92.725 10.7199 994 108.044 48.0654 458.121
2115 0 91.1929 9.3209 850 111.485 47.5859 452.513
2116 0 97.2604 13.4176 1305 106.624 45.9824 453.775
2117 0 97.6751 11.4461 1118 109.97 45.364 452.377
2118 0 100.699 11.4997 1158 110.482 46.3601 445.802
2119 0 106.913 13.684 1463 107.206 46.1094 444.687
2120 0 105.704 11.343 1199 111.102 46.176 442.759
2121 0 106.699 11.2747 1203 112.695 44.3067 442.575
2122 0 111.844 10.2554 1147 114.387 43.6103 440.071
2123 0 114.548 12.0298 1378 113.686 43.7199 432.028
2124 0 123.562 11.6217 1436 112.272 43.8148 436.043
2125 0 125.873 15.0946 1900 108.446 44.2616 434.342
2126 0 122.814 12.0833 1484 114.223 44.0505 427.777
2127 1 72.7744 10.8005 786 107.519 43.1234 458.448
2128 0 77.8926 17.5883 1370 98.1504 44.1869 458.659
2129 0 77.5867 12.4506 966 106.703 42.206 451.875
2130 0 80.5541 11.9795 965 107.075 43.6632 452.026
2131 0 80.3385 13.0946 1052 106.317 44.6388 451.587
2132 0 84.4405 13.1927 1114 105.165 43.4533 449.505
2133 0 86.6781 12.2176 1059 106.586 45.475 447.495
2134 0 88.6064 17.2222 1526 99.6415 45.4174 450.902
2135 0 90.4928 12.1336 1098 107.295 44.8297 440.697
2136 0 92.3544 13.8488 1279 105.81 44.8663 441.702
2137 0 90.7523 10.7215 973 110.503 46.2004 433.775
2138 0 98.6638 16.7133 1649 102.37 46.5609 435.408
2139 0 97.5344 10.8167 1055 110.987 47.6464 433.255
2140 0 104.649 16.5889 1736 103.586 48.7586 431.848
2141 0 107.852 11.8773 1281 111.118 47.1382 434.896
2142 0 110.393 13.6421 1506 110.377 48.1713 433.517
2143 0 114.377 13.403 1533 110.725 47.9054 434.369
2144 0 115.44 14.579 1683 109.132 48.4373 432.399
2145 0 125.639 18.2826 2297 102.911 49.8694 435.879
2146 0 121.51 12.5421 1524 113.096 49.4738 428.163
2147 0 123.742 12.615 1561 113.48 51.4516 429.587
2148 0 129.578 16.847 2183 108.049 50.3958 426.101
2149 0 133.887 12.4059 1661 113.68 50.8098 424.031
2150 0 140.103 12.4194 1740 112.946 50.5069 428.871
2151 0 143.074 14.7126 2105 110.155 49.076 427.848
2152 0 147.783 11.7402 1735 114.423 50.0092 426.516
2153 0 152.941 12.6062 1928 113.426 50.0773 424.406
2154 0 159.837 17.5492 2805 106.244 49.5094 421.16
2155 0 165.94 17.0423 2828 106.889 48.2864 424.03
2156 0 169.874 14.6579 2490 111.406 47.5149 416.452
2157 0 179.71 18.8971 3396 105.835 47.1976 409.657
2158 0 181.791 17.3441 3153 111.025 44.484 408.278
2159 0 187.803 12.8433 2412 116.278 45.109 401.766
2160 0 196.993 12.9903 2559 113.719 43.263 409.215
2161 0 202.89 14.4167 2925 113.493 44.2523 396.693
2162 0 206.743 18.6463 3855 107.816 43.5738 390.826
2163 1 219.059 18.228 3993 106.285 43.3093 401.037
2164 0 221.952 12.3991 2752 115.507 43.3804 383.504
2165 0 230.902 14.2441 3289 112.397 42.2256 383.705
2166 1 55.2727 9.89638 547 101.143 41.4753 469.338
2167 0 58.2551 12.6684 738 97.8252 42.3957 466.367
2168 0 56.2192 13.6964 770 96.9636 41.8299 467.132
2169 0 60.223 15.4094 928 94.7888 41.1002 465.762
2170 0 58.3929 11.7651 687 100.435 41.3202 461.652
2171 0 62.2338 12.3888 771 99.4215 40.5305 463.56
2172 0 64.2871 13.7819 886 97.7144 40.4944 462.951
2173 0 66.2643 11.9371 791 100.202 41.5259 459.939
2174 0 67.5938 12.0573 815 100.883 41.6417 457.616
2175 0 67.1515 12.2857 825 101.327 42.4824 455.24
2176 0 71.4638 13.2095 944 100.201 41.9153 452.582
2177 0 74.2072 12.519 929 101.578 41.9666 453.137
2178 0 77.187 14.9766 1156 99.8227 42.5882 449.285
2179 0 78.0893 14.5859 1139 100.865 43.9895 446.37
2180 0 78.2681 12.0356 942 104.184 44.7346 447.287
2181 0 81.534 13.9942 1141 101.44 45.4803 447.402
2182 0 84.0875 15.1866 1277 99.3085 45.7236 452.162
2183 0 86.3931 21.7494 1879 93.4401 47.2326 444.773
2184 0 87.3938 18.3537 1604 97.2032 46.6908 446.632
2185 0 90.2286 11.9253 1076 105.39 46.4126 445.02
2186 0 94.3975 14.5343 1372 100.505 47.4402 446.934
2187 0 93.3272 20.7871 1940 94.6773 47.9897 443.675
2188 0 97.2502 16.9563 1649 97.3693 49.7107 442.827
2189 0 98.379 10.8966 1072 107.355 50.1707 443.39
2190 1 59.1609 11.5617 684 104.863 48.9459 464.24
2191 0 63.2208 12.9704 820 99.3293 50.1524 467.841
2192 0 67.2072 14.4032 968 96.7035 48.1952 467.836
2193 0 64.1684 15.9736 1025 97.3112 49.3932 463.813
2194 0 66.1212 11.9175 788 102.397 49.099 467.236
2195 1 149.416 10.2666 1534 101.368 48.6121 443.613
2196 0 139.524 12.8652 1795 100.51 48.7114 440.104
2197 1 83.3792 21.4322 1787 89.8556 48.4158 459.357
2198 0 82.3002 18.4204 1516 93.8417 48.0884 461.803
2199 0 77.3121 14.7066 1137 100.746 47.2797 464.972
2200 0 77.3298 13.3196 1030 103.53 45.8534 464.368
2201 0 82.2366 13.0112 1070 101.162 45.8682 469.339
2202 0 84.5169 14.1747 1198 102.166 43.7871 463.069
2203 0 85.2635 13.8512 1181 102.685 43.4395 461.956
2204 0 86.1262 15.0361 1295 102.239 44.4541 457.38
2205 0 88.5118 13.1508 1164 104.793 44.2483 458.852
2206 0 92.246 12.2499 1130 105.195 42.8 457.042
2207 0 95.2736 12.0705 1150 105.126 42.5261 454.238
2208 0 97.3864 13.8931 1353 103.995 42.1064 452.403
2209 0 102.321 18.6668 1910 97.3696 41.7984 453.984
2210 0 102.348 14.5679 1491 103.023 41.9001 451.828
2211 0 106.331 13.4956 1435 104.129 41.6843 449.865
2212 0 108.704 11.2784 1226 108.865 43.4698 440.933
2213 0 111.662 18.5381 2070 99.7188 42.9971 441.867
2214 0 114.602 15.1394 1735 102.237 43.6939 442.967
2215 0 117.431 13.4121 1575 104.333 43.3111 441.308
2216 1 73.5148 14.6093 1074 98.621 44.6294 461.343
2217 0 72.2961 12.4903 903 103.585 43.2625 453.779
2218 0 76.19 14.1488 1078 100.893 45.3154 457.53
2219 0 77.2198 15.5919 1204 99.3563 45.3115 456.463
2220 0 78.3856 14.99 1175 101.338 46.8843 450.473
2221 0 80.1473 14.4484 1158 102.698 47.4974 449.171
2222 0 84.2283 15.7429 1326 99.3182 46.9932 451.439
2223 0 84.1211 9.99749 841 105.367 47.8026 449.36
2224 0 88.1601 16.9578 1495 96.2682 48.3177 454.364
2225 0 93.1964 13.5306 1261 100.956 50.0365 448.228
2226 0 91.1679 12.8006 1167 103.735 49.7052 447.337
2227 0 95.3513 13.015 1241 103.873 50.4932 443.359
2228 0 100.439 12.4056 1246 103.112 49.5618 441.356
2229 0 106.079 17.8263 1891 96.6134 51.2946 441.479
2230 0 100.138 11.1745 1119 106.039 51.8329 435.717
2231 0 112.237 14.9237 1675 100.414 52.2591 438.541
2232 0 107.163 6.55074 702 110.436 52.3875 443
2233 0 117.349 13.9072 1632 101.757 52.1299 443.514
2234 0 119.237 9.44337 1126 108.411 53.2078 440.832
2235 0 126.508 18.5443 2346 100.011 51.2553 432.418
2236 0 129.29 12.5918 1628 106.948 51.0768 435.108
2237 0 132.476 9.83571 1303 109.261 50.4106 435.995
2238 0 141.826 18.5086 2625 99.3177 47.952 421.71
2239 1 84.3767 22.9566 1937 94.443 48.6448 456.099
2240 0 87.3671 13.1972 1153 105.219 47.7381 457.59
2241 0 93.1792 13.9301 1298 99.1325 49.9083 460.494
2242 0 93.3113 13.7925 1287 100.546 48.31 457.681
2243 0 96.435 10.6185 1024 104.211 48.958 453.329
2244 0 103.31 17.2103 1778 96.5787 46.8414 455.01
2245 0 102.189 15.1582 1549 100.538 46.7024 447.244
2246 0 105.229 11.7553 1237 104.277 45.9281 448.842
2247 0 111.304 13.6383 1518 102.017 45.2754 446.158
2248 0 112.324 17.494 1965 98.8789 45.513 443.093
2249 0 116.399 15.9709 1859 101.038 44.1872 435.144
2250 0 117.283 11.7665 1380 106.795 44.3623 436.666
2251 0 125.487 18.5358 2326 98.224 44.4192 437.58
2252 0 126.575 12.8145 1622 106.16 43.5056 430.357
2253 0 130.592 17.0532 2227 100.542 43.7135 433.692
2254 0 136.409 13.8994 1896 104.957 42.6851 424.934
2255 0 137.596 14.0629 1935 105.598 41.7349 429.776
2256 0 143.484 10.8165 1552 108.78 42.0992 421.162
2257 0 143.756 9.67612 1391 107.842 41.7268 434.903
2258 1 86.3464 16.5959 1433 99.6329 42.4124 450.361
2259 0 85.2426 14.1244 1204 104.406 42.6445 446.25
2260 0 92.3085 16.629 1535 98.9759 43.2208 448.321
2261 0 95.4294 15.5088 1480 98.1689 44.6115 445.206
2262 0 90.4055 6.02839 545 111.969 43.7963 436.431
2263 0 98.42 11.4611 1128 103.977 44.9096 442.88
2264 0 99.3156 11.4081 1133 102.808 46.3407 435.097
2265 0 103.312 9.35034 966 103.406 46.4006 441.534
2266 0 107.251 12.2982 1319 103.97 47.345 430.071
2267 0 105.337 10.4237 1098 104.429 46.2505 437.124
2268 0 110.615 12.6746 1402 104.235 46.266 424.626
2269 0 119.41 14.1026 1684 102.913 47.7625 434.037
2270 0 122.292 12.0531 1474 104.746 48.2307 440.75
2271 1 68.3609 16.7347 1144 96.326 48.3435 462.573
2272 0 66.1517 6.21299 411 109.416 51.3431 458.019
2273 0 73.1277 12.9363 946 101.942 50.2178 458.349
2274 0 72.3574 11.3188 819 103.853 52.7094 457.114
2275 0 76.1524 10.5972 807 105.669 52.2367 455.527
2276 0 76.2883 10.9715 837 105.34 51.2879 459.216
2277 0 84.2401 16.9159 1425 96.9467 50.6877 460.765
2278 0 87.3102 12.9767 1133 102.216 51.9718 459.145
2279 0 89.1849 15.8659 1415 97.6368 51.2982 451.758
2280 0 91.4966 14.6344 1339 100.833 51.7998 447.34
2281 0 93.4627 11.4484 1070 105.946 49.815 445.494
2282 0 97.375 16.7189 1628 97.6419 49.7162 452.876
2283 0 99.431 10.0975 1004 108.227 50.0787 445.413
2284 0 104.662 14.0357 1469 102.307 49.1627 447.568
2285 0 107.669 12.1205 1305 106.641 48.9418 437.443
2286 0 110.546 10.0773 1114 110.609 48.2837 441.073
2287 0 113.48 12.2929 1395 110.659 47.4939 435.96
2288 0 117.774 13.857 1632 110.676 47.1274 432.852
2289 0 121.625 13.2949 1617 109.307 46.3921 441.101
2290 0 123.47 15.8581 1958 108.286 46.3044 435.015
2291 0 126.499 11.5574 1462 116.875 44.0144 424.942
2292 1 74.4402 9.94087 740 111.136 45.3905 455.484
2293 0 76.3564 12.6774 968 106.811 43.2872 452.317
2294 0 83.4356 15.0535 1256 101.299 42.5796 458.201
2295 0 84.3529 13.1709 1111 107.005 40.9181 451.14
2296 0 86.4584 12.8848 1114 107.952 41.6104 450.859
2297 0 86.3139 10.6008 915 113.427 42.0973 446.002
2298 0 90.4397 11.4441 1035 111.425 41.8251 446.136
2299 0 92.6586 15.0553 1395 106.685 41.8889 445.427
2300 0 96.4827 15.4535 1491 106.354 42.106 443.415
2301 0 99.6216 13.0996 1305 110.527 42.6038 439.555
2302 0 102.354 13.7659 1409 110.962 42.2115 438.539
2303 0 102.618 12.2006 1252 115.45 42.5695 435.732
2304 0 107.279 15.9863 1715 108.542 43.4251 438.308
2305 0 110.391 15.273 1686 110.095 43.4419 434.297
2306 0 113.374 15.171 1720 111.098 44.6099 429.195
2307 0 115.619 14.0029 1619 111.827 43.6726 432.319
2308 0 117.443 13.7684 1617 113.667 46.2888 427.698
2309 0 119.401 12.2445 1462 117.717 46.4788 425.063
2310 0 120.357 11.3662 1368 119.221 47.8224 424.018
2311 0 128.62 15.433 1985 111.291 47.9053 427.308
2312 0 132.479 14.5155 1923 114.439 48.2168 421.11
2313 0 138.609 13.9673 1936 115.12 49.1462 419.065
2314 0 139.903 11.6653 1632 119.676 49.4786 414.26
2315 0 144.426 11.9508 1726 121.098 50.051 409.465
2316 1 81.5156 11.2616 918 113.456 50.6885 449.592
2317 0 85.3629 12.8276 1095 112.509 49.9571 448.135
2318 0 88.2616 12.4403 1098 111.973 49.7459 452.172
2319 0 91.3821 11.9936 1096 114.451 48.8166 448.188
2320 0 93.4674 15.4706 1446 109.942 48.5028 445.438
2321 0 96.4481 14.0386 1354 112.823 48.4225 446.302
2322 0 101.444 15.0427 1526 110.276 48.3617 451.599
2323 0 106.417 20.3539 2166 104.224 47.4344 447.866
2324 0 107.256 11.6171 1246 117.126 47.756 446.387
2325 0 113.318 14.1196 1600 113.457 47.4656 435.968
2326 0 114.358 12.9418 1480 116.289 48.9459 442.205
2327 0 116.512 15.6035 1818 112.441 48.665 440.019
2328 0 121.485 15.4916 1882 113.749 48.2248 437.429
2329 0 128.293 14.7631 1894 114.789 46.6383 433.148
2330 0 133.633 13.6717 1827 114.809 46.0296 437.902
2331 1 78.3182 10.4573 819 116.054 43.9121 457.237
2332 0 80.2455 11.6393 934 113.324 44.1863 460.668
2333 0 84.2118 15.1879 1279 109.069 43.8913 456.851
2334 0 87.1617 13.2857 1158 111.237 42.8022 453.947
2335 0 88.1362 12.5261 1104 112.099 42.6422 451.431
2336 0 91.1671 14.4789 1320 110.13 41.978 449.248
2337 0 95.2123 13.6327 1298 110.374 41.9615 452.272
2338 0 97.2474 13.8924 1351 109.986 42.4138 449.313
2339 0 101.2 12.4802 1263 111.54 41.6516 447.046
2340 0 103.28 15.5112 1602 108.701 41.7996 442.361
2341 0 105.27 14.553 1532 110.637 42.8277 438.747
2342 0 108.192 17.4043 1883 106.183 42.1057 437.643
2343 0 110.396 14.0675 1553 110.286 42.1043 440.171
2344 0 110.216 10.8061 1191 116.966 43.2678 428.894
2345 0 116.169 12.0945 1405 113.96 43.2128 432.178
2346 0 118.478 16.0199 1898 107.952 43.8867 431.068
2347 0 122.312 15.1335 1851 108.589 43.6704 433.34
2348 0 125.191 12.7325 1594 113.768 45.2836 424.775
2349 0 129.192 12.4311 1606 113.34 44.9788 423.824
2350 0 133.508 14.6133 1951 109.72 46.4439 421.672
2351 0 138.495 14.6576 2030 111.236 47.0961 414.676
2352 0 145.323 18.1251 2634 108.208 46.7692 408.279
2353 1 82.2521 12.1091 996 109.381 48.2329 446.044
2354 0 86.4744 13.9579 1207 108.093 49.7374 438.934
2355 0 89.2214 14.2006 1267 104.872 48.3717 444.042
2356 0 94.4178 12.6036 1190 106.514 48.9731 444.402
2357 0 98.6836 16.0513 1584 101.097 48.2191 447.676
2358 0 101.316 13.1371 1331 106.434 50.6251 441.46
2359 0 105.253 17.0731 1797 101.576 50.9761 442.288
2360 0 106.319 12.1992 1297 107.823 50.5112 442.749
2361 0 111.364 13.3077 1482 108.248 49.782 436.275
2362 0 116.585 12.4287 1449 108.504 50.1325 436.986
2363 0 119.382 14.9855 1789 106.58 49.4902 431.231
2364 0 123.514 13.5613 1675 108.448 50.5045 431.405
2365 0 126.316 13.4029 1693 109.3 49.7838 426.17
2366 0 132.413 15.7915 2091 105.133 48.7561 438.242
2367 0 136.328 15.2793 2083 107.472 48.7744 431.752
2368 0 141.288 15.6206 2207 106.995 47.6434 430.277
2369 0 147.18 13.5209 1990 110.58 45.2925 421.584
2370 1 90.1388 16.2416 1464 99.4064 44.696 465.293
2371 0 90.2308 11.6036 1047 108.265 44.0363 454.243
2372 0 91.1177 14.794 1348 104.962 42.092 450.565
2373 0 98.2292 14.0081 1376 106.621 42.5785 457.054
2374 0 94.1815 12.2954 1158 112.325 41.4551 446.074
2375 0 101.147 13.426 1358 110.452 40.4404 444.633
2376 0 104.154 16.7444 1744 106.089 40.2982 444.478
2377 0 108.461 12.5483 1361 111.526 39.7641 445.088
2378 0 113.481 15.8176 1795 107.327 39.8724 441.15
2379 0 114.299 20.4639 2339 102.365 39.5887 435.418
2380 0 118.325 15.1194 1789 109.272 39.6708 431.388
2381 0 120.396 12.8576 1548 110.781 41.1802 433.997
2382 0 121.435 13.8098 1677 111.049 40.9123 428.791
2383 0 127.328 12.4874 1590 112.21 39.5704 431.17
2384 0 128.4 12.8972 1656 113.327 40.1842 423.641
2385 0 134.407 12.8193 1723 113.416 40.9518 420.914
2386 0 136.419 13.8031 1883 111.724 41.6596 426.273
2387 0 140.622 12.0749 1698 114.12 43.0271 422.595
2388 0 147.581 13.3418 1969 113.527 42.9345 409.699
2389 0 148.613 11.4459 1701 117.601 43.2293 404.384
2390 0 153.442 11.4506 1757 117.448 44.0142 406.367
2391 1 74.3078 9.43374 701 114.93 44.515 444.158
2392 0 77.3316 11.6899 904 112.946 42.9679 447.313
2393 0 79.1086 13.6648 1081 108.178 44.2969 449.502
2394 0 81.1619 11.7296 952 111.572 44.7027 447.45
2395 0 86.2688 14.0027 1208 107.441 45.6424 451.05
2396 0 90.2094 12.4932 1127 110.003 45.6646 446.104
2397 0 91.1963 17.4678 1593 104.605 47.2524 440.629
2398 0 94.0993 16.2488 1529 102.212 47.3872 455.162
2399 0 95.1779 14.226 1354 110.276 47.7474 440.973
2400 0 99.3626 15.69 1559 108.673 48.4676 440.479
2401 0 100.28 13.9111 1395 112.03 48.1133 436.171
2402 0 107.205 12.3408 1323 113.566 47.0794 442.213
2403 0 113.312 13.9791 1584 110.823 46.1231 441.012
2404 0 115.301 16.869 1945 107.682 47.328 438.629
2405 0 121.195 16.8736 2045 107.052 46.7247 431.748
2406 1 68.1614 13.8348 943 105.528 45.2057 464.628
2407 0 66.09 12.1652 804 109.851 45.393 463.238
2408 0 74.2926 12.1546 903 111.231 46.6855 465.955
2409 0 75.4897 13.472 1017 109.902 47.7994 462.666
2410 0 81.5124 14.7217 1200 106.488 45.4042 464.38
2411 0 82.3682 13.294 1095 110.29 45.1333 459.374
2412 0 84.4701 14.8573 1255 108.622 43.553 462.524
2413 0 85.8863 11.6317 999 110.024 43.3293 468.502
2414 0 90.4876 12.1785 1102 109.923 42.9002 463.565
2415 0 94.3787 9.76915 922 116.392 42.8861 452.586
2416 0 94.8777 11.4674 1088 114.197 42.6829 450.803
2417 0 97.3081 11.0782 1078 109.145 42.9286 450.611
2418 0 104.608 15.9835 1672 102.305 41.942 447.478
2419 0 104.499 15.1197 1580 103.166 40.6937 449.688
2420 0 108.77 12.2276 1330 107.977 40.7391 436.525
2421 0 106.752 9.73288 1039 111.565 41.4254 436.035
2422 0 112.788 11.6679 1316 109.186 42.0737 439.41
2423 0 117.64 11.0506 1300 109.579 41.3385 437.356
2424 0 119.681 16.7194 2001 103.534 41.4938 433.691
2425 0 118.772 11.08 1316 112.386 41.614 426.78
2426 0 129.622 11.3021 1465 110.54 41.4109 427.599
2427 0 130.658 14.404 1882 106.807 41.2885 423.845
2428 0 133.564 15.6929 2096 105.186 42.2218 411.345
2429 0 138.568 13.9209 1929 106.776 42.506 421.51
2430 0 142.565 15.0037 2139 106.591 43.9406 413.434
2431 0 146.696 12.0999 1775 110.357 44.4586 417.543
2432 0 150.409 11.1895 1683 110.931 44.1723 417.35
2433 0 156.666 15.8171 2478 104.588 45.5654 419.391
2434 0 160.869 14.2476 2292 109.468 45.9062 401.057
2435 0 169.444 20.5673 3485 99.3366 46.2901 416.526
2436 0 171.582 14.5237 2492 109.46 47.4298 395.346
2437 0 177.422 13.854 2458 110.454 47.0252 395.682
2438 0 185.685 18.3968 3416 105.124 46.8484 398.826
2439 0 186.939 12.6726 2369 113.84 47.2866 405.497
2440 0 187.008 11.1653 2088 114.994 48.4976 407.952
2441 0 186.598 11.6936 2182 113.613 47.4991 414.343
2442 1 207.932 13.9421 2899 112.958 48.6871 399.26
2443 0 212.864 13.8539 2949 114.64 47.4412 392.23
2444 0 221.633 16.1709 3584 111.338 48.9833 394.083
2445 0 226.674 12.8908 2922 116.993 47.8573 385.305
2446 1 240.797 17.1099 4120 110.275 48.734 384.204
2447 0 252.022 18.1294 4569 108.021 48.4898 385.51
2448 0 261.903 17.9265 4695 109.208 48.0824 373.984
2449 0 269.962 15.0207 4055 114.222 46.9667 365.33
2450 1 152.164 12.2105 1858 113.321 46.268 432.015
2451 0 155.5 21.2668 3307 100.78 45.6084 434.819
2452 0 161.554 14.5771 2355 112.254 44.7958 417.898
2453 0 168.556 17.5728 2962 106.652 43.5523 421.836
2454 1 100.919 11.9799 1209 111.049 42.3581 446.065
2455 0 106.751 12.5901 1344 109.173 42.6042 444.54
2456 0 111.214 13.7663 1531 106.58 41.3383 438.421
2457 0 112.286 13.0114 1461 105.765 39.9596 450.372
2458 0 115.747 17.0545 1974 102.009 39.8627 441.612
2459 0 119.353 18.4327 2200 100.491 40.5291 437.728
2460 0 125.659 14.3881 1808 105.183 40.0271 434.81
2461 0 123.4 12.9659 1600 108.508 40.3931 431.89
2462 0 128.534 13.7395 1766 107.76 40.9298 425.467
2463 0 133.427 16.9681 2264 103.366 41.3754 430.478
2464 0 137.435 16.6261 2285 103.73 40.7912 427.39
2465 0 141.829 20.2145 2867 98.5058 40.8204 431.55
2466 0 143.738 17.7615 2553 103.899 41.011 415.357
2467 0 148.759 10.796 1606 112.189 40.9882 422.009
2468 0 153.689 19.9819 3071 101.251 42.0892 416.144
2469 0 157.744 12.5013 1972 111.97 42.1496 408.855
2470 0 158.01 11.417 1804 114.495 42.9302 402.845
2471 0 164.642 13.9454 2296 111.542 44.1355 403.047
2472 0 172.928 16.5561 2863 108.468 44.7269 394.852
2473 0 179.383 15.2969 2744 109.416 44.52 399.112
2474 0 182.225 18.1643 3310 106.456 45.4218 392.278
2475 0 188.171 15.2096 2862 110.792 46.4333 389.075
2476 0 193.779 15.8015 3062 110.551 46.984 389.531
2477 0 198.25 13.5032 2677 114.89 48.1685 388.725
2478 0 207.173 20.4467 4236 105.934 48.1601 384.073
2479 0 212.828 14.2932 3042 115.594 48.7867 370.354
2480 0 219.913 16.9294 3723 110.442 47.6328 380.193
2481 0 225.024 16.9404 3812 110.339 48.7453 386.976
2482 0 231.866 17.4713 4051 111.66 48.4619 367.277
2483 1 296.311 10.3472 3066 114.377 48.8376 386.544
2484 1 62.6006 14.1532 886 101.239 45.6479 458.521
2485 0 62.6858 9.22059 578 109.336 46.7024 457.875
2486 0 64.2804 11.092 713 107.191 46.108 463.21
2487 0 71.6411 13.5956 974 98.0945 46.922 469.474
2488 0 72.2709 12.9928 939 100.416 46.4175 461.354
2489 0 76.1353 12.8193 976 100.319 49.3248 462.52
2490 0 79.3882 13.6166 1081 98.6402 47.4459 465.782
2491 0 79.2901 15.0208 1191 98.2418 45.7699 463.753
2492 0 82.3486 11.0749 912 103.805 46.6206 464.121
2493 0 85.4649 14.9418 1277 101.204 45.5372 465.63
2494 0 84.3187 9.47595 799 109.138 44.5181 459.705
2495 0 87.4274 12.0443 1053 106.088 45.6524 452.585
2496 0 92.3856 16.4744 1522 99.4074 43.2214 462.501
2497 0 92.1392 13.5556 1249 105.825 43.249 443.066
2498 0 98.5481 13.7598 1356 104.285 44.0243 444.822
2499 1 114.621 19.8655 2277 94.0307 43.6706 431.415
2500 0 104.46 14.6372 1529 103.935 44.5206 430.198
2501 0 107.535 13.0097 1399 106.278 42.7312 433.583
2502 0 111.532 13.5208 1508 103.773 42.5278 446.998
2503 0 113.489 13.3934 1520 106.081 42.2941 440.282
2504 0 119.908 15.8121 1896 101.797 42.5042 440.027
2505 0 121.867 12.9075 1573 106.722 42.3503 434.355
2506 0 125.85 18.1804 2288 98.9388 42.1337 439.324
2507 0 127.578 13.3644 1705 108.401 42.6457 425.03
2508 0 134.785 15.8104 2131 103.754 42.8949 430.4
2509 1 77.6789 15.5255 1206 99.2587 43.0738 454.409
2510 0 79.778 13.0487 1041 105.107 42.6426 452.385
2511 0 77.8006 12.9819 1010 106.229 41.6436 448.746
2512 0 84.7214 15.4152 1306 102.786 43.0559 450.956
2513 0 83.7067 16.51 1382 102.656 44.3929 443.898
2514 0 85.6607 18.655 1598 99.7109 46.0056 447.616
2515 0 86.5285 15.4862 1340 106.084 44.4515 445.905
2516 0 88.4507 12.0858 1069 113.316 45.421 443.883
2517 0 92.5742 15.2958 1416 107.686 45.9922 443.561
2518 0 92.7959 12.8346 1191 112.712 45.4962 440.783
2519 0 97.5935 12.4598 1216 112.4 45.6752 442.229
2520 0 97.4635 12.9484 1262 112.941 46.4651 438.702
2521 0 102.712 17.8947 1838 104.023 47.8232 444.804
2522 0 108.316 13.9961 1516 104.317 47.0185 443.111
2523 0 109.484 13.6276 1492 106.029 48.8485 441.708
2524 1 211.899 13.4876 2858 111.61 47.9111 395.422
2525 0 213.702 18.8487 4028 104.068 48.539 401.983
2526 0 217.866 11.2868 2459 115.48 48.9512 392.583
2527 1 120.573 13.0543 1574 108.936 47.8526 432.433
2528 0 126.535 13.1268 1661 108.577 47.3841 435.039
2529 0 131.685 11.9528 1574 109.476 47.1442 434.864
2530 0 138.78 14.0438 1949 106.546 46.8645 433.594
2531 0 141.657 14.0339 1988 107.044 47.0714 426.033
2532 0 147.504 14.9352 2203 107.451 47.3572 425.74
2533 1 83.2258 12.7485 1061 106.469 45.476 452.6
2534 0 91.5726 11.783 1079 106.242 45.0686 450.38
2535 0 91.1386 11.3563 1035 107.017 43.2676 449.545
2536 0 90.2205 18.5324 1672 98.0987 42.1435 451.9
2537 0 97.1285 14.1359 1373 103.508 42.0838 446.398
2538 0 101.27 9.63756 976 109.45 41.1865 445.596
2539 0 103.355 15.3936 1591 101.612 41.2885 448.425
2540 0 108.27 11.065 1198 106.356 40.8581 448.381
2541 0 114.271 14.1243 1614 103.883 40.3916 436.737
2542 0 112.349 12.2209 1373 106.732 40.2833 440.8
2543 0 118.322 14.1394 1673 105.063 40.2875 433.035
2544 0 123.544 13.6146 1682 105.498 40.3258 427.765
2545 0 124.668 14.342 1788 104.829 41.193 430.192
2546 0 134.542 14.3524 1931 104.804 41.623 429.893
2547 0 137.998 18.2611 2520 101.031 41.2163 414.976
2548 0 138.679 13.6574 1894 109.382 40.9989 414.15
2549 0 145.732 15.8373 2308 105.445 41.4749 419.176
2550 0 149.886 11.9624 1793 111.853 40.8846 408.48
2551 0 152.775 12.1682 1859 109.938 41.6154 416.682
2552 0 153.404 13.6959 2101 107.111 40.6402 409.424
2553 0 165.943 15.204 2523 102.027 43.264 414.387
2554 0 158.817 12.6435 2008 108.585 41.8536 405.798
2555 1 100.432 11.1718 1122 106.785 43.279 436.733
2556 0 107.732 21.5906 2326 93.0374 44.2584 445.056
2557 0 107.583 12.5856 1354 105.679 45.3892 436.462
2558 0 112.041 14.575 1633 103.503 45.7869 430.366
2559 0 110.748 12.6684 1403 104.815 47.4391 431.289
2560 0 104.202 13.541 1411 102.592 46.3522 420.035
2561 0 111.428 8.73212 973 107.102 46.5344 424.573
2562 0 114.449 14.7053 1683 99.4985 47.2602 426.118
2563 1 67.2121 11.739 789 97.3371 47.2535 449.792
2564 0 68.2958 5.95937 407 108.071 47.2604 442.285
2565 0 71.1362 9.15146 651 105.264 46.1674 442.329
2566 0 71.1303 9.79891 697 105.799 46.4089 441.142
2567 0 81.2921 17.7139 1440 95.441 46.0153 451.934
2568 0 86.3688 13.535 1169 98.1745 47.4611 458.702
2569 0 84.1675 11.7385 988 102.438 46.8927 448.745
2570 0 84.1787 11.2855 950 103.504 45.4126 447.862
2571 0 92.2115 18.0888 1668 95.0731 46.298 447.501
2572 0 100.282 13.9406 1398 98.3205 46.0114 449.624
2573 0 98.2515 13.2517 1302 99.7888 45.0184 444.708
2574 0 107.481 15.3888 1654 96.448 44.5689 444.103
2575 0 105.26 13.7469 1447 99.5681 43.3801 442.624
2576 0 109.469 12.3413 1351 101.05 43.3294 443.294
2577 0 116.263 16.6347 1934 96.0321 41.5832 443.827
2578 0 117.254 16.767 1966 97.1765 41.9563 432.986
2579 0 121.328 12.0418 1461 103.148 40.4949 435.081
2580 0 118.168 14.2086 1679 101.905 40.7671 435.191
2581 0 123.327 13.1114 1617 103.278 41.1874 430.061
2582 0 133.373 12.0489 1607 103.978 40.2576 435.143
2583 0 136.347 11.2507 1534 104.747 39.3892 438.027
2584 0 137.513 13.4314 1847 103.703 39.477 420.814
2585 1 79.3677 14.1997 1127 100.232 42.0417 451.958
2586 0 87.4173 16.7816 1467 93.8494 41.03 447.469
2587 0 90.3179 12.6332 1141 96.4768 42.5022 450.228
2588 0 91.4159 11.5078 1052 98.211 40.751 446.866
2589 0 94.358 7.2066 680 99.4926 42.3603 456.206
2590 0 98.3259 11.2788 1109 96.1001 42.1362 455.083
2591 0 100.368 12.2549 1230 98.3764 41.8748 441.68
2592 0 104.442 14.8121 1547 96.2133 42.3633 433.083
2593 0 106.363 15.3248 1630 96.4018 41.9877 434.572
2594 0 109.348 14.2756 1561 97.5708 42.7444 437.683
2595 0 113.699 13.5885 1545 99.2938 43.6324 430.529
2596 0 115.314 14.5863 1682 99.7741 43.1492 429.519
2597 0 122.489 14.3604 1759 99.0523 44.88 433.474
2598 0 123.55 17.847 2205 95.5982 45.6821 432.835
2599 0 122.418 11.9917 1468 103.338 45.9905 422.605
2600 0 128.533 13.1718 1693 101.967 46.912 423.307
2601 0 131.275 15.1362 1987 99.6266 46.9532 427.084
2602 0 134.547 11.6985 1574 103.765 46.1646 420.297
2603 1 64.193 12.883 827 91.8501 47.954 463.218
2604 0 61.5545 15.6934 966 91.1625 47.7547 458.467
2605 0 64.3214 11.598 746 95.9222 48.9772 464.344
2606 0 67.1834 17.4894 1175 89.7796 48.9174 465.054
2607 0 68.1946 12.8309 875 94.1269 48.3406 460.323
2608 0 68.14 13.1054 893 95.6439 49.7223 465.445
2609 0 70.114 10.6541 747 100.565 49.4833 462.916
2610 0 71.0938 11.2668 801 100.022 48.4008 459
2611 0 74.0776 10.597 785 100.732 49.2917 463.454
2612 0 78.1882 16.3068 1275 93.5859 49.1373 463.125
2613 0 79.2514 14.8893 1180 95.9441 48.172 463.036
2614 0 86.4185 11.7799 1018 99.1542 47.9145 463.228
2615 0 90.8002 15.3634 1395 94.5082 46.7262 465.652
2616 0 89.3203 13.961 1247 98.1435 45.49 459.736
2617 0 93.5718 13.4763 1261 98.6883 44.3497 449.007
2618 0 92.3191 12.3918 1144 101.728 44.4056 453.983
2619 0 93.3738 11.5129 1075 103.323 43.0335 451.076
2620 0 101.254 12.0687 1222 103.126 42.4386 447.366
2621 0 100.215 12.7027 1273 102.087 43.2561 446.002
2622 0 105.406 12.8645 1356 98.4329 42.924 449.249
2623 0 109.364 12.0424 1317 98.3075 42.4996 442.259
2624 0 112.492 15.0055 1688 95.8169 41.66 442.499
2625 0 118.247 19.916 2355 90.9236 41.3406 441.682
2626 0 121.385 13.9968 1699 97.9865 42.3608 435.059
2627 0 126.455 16.0294 2027 95.6966 41.1584 433.88
2628 0 125.345 9.03903 1133 102.718 40.9682 423.115
2629 0 127.421 13.5613 1728 95.1661 40.2679 437.003
2630 0 138.473 17.6569 2445 93.5333 41.6973 419.014
2631 0 129.376 13.6192 1762 96.8513 41.6226 421.657
2632 1 79.2306 9.60487 761 96.523 43.4652 448.837
2633 0 79.2578 16.5283 1310 90.1069 42.1084 440.627
2634 0 88.584 18.5361 1642 86.1577 42.6285 433.37
2635 0 85.2521 12.246 1044 95.5881 43.4703 434.39
2636 0 88.31 11.437 1010 95.399 44.7297 439.688
2637 0 93.4559 10.9998 1028 96.999 44.8648 433.874
2638 0 86.1865 9.83913 848 100.226 46.434 428.096
2639 1 101.443 10.4394 1059 96.9452 45.7167 430.402
2640 0 101.302 11.7569 1191 97.56 47.5567 423.767
2641 0 109.366 10.5974 1159 102.594 47.6419 437.268
2642 1 138.474 18.3717 2544 91.1352 48.0012 428.113
2643 0 143.645 14.4523 2076 93.5804 49.4196 429.888
2644 1 195.906 15.5789 3052 93.2169 49.3893 416.548
2645 1 207.705 16.4079 3408 91.762 48.8104 403.531
2646 1 158.002 21.9871 3474 85.1062 48.7979 439.115
2647 0 157.663 11.4231 1801 96.2449 49.0122 426.256
2648 0 165.678 17.7936 2948 90.3647 47.8996 423.782
2649 0 170.811 18.418 3146 90.0728 46.3694 418.102
2650 0 174.877 24.0341 4203 84.6581 45.0683 429.89
2651 0 179.099 15.3602 2751 92.5882 44.7928 409.678
2652 1 104.461 13.9191 1454 87.9037 45.0612 438.24
2653 0 93.5277 5.91269 553 96.3219 41.9855 434.347
2654 0 110.347 14.5722 1608 88.2046 41.7886 438.718
2655 0 112.258 15.696 1762 87.5187 41.0817 440.476
2656 0 110.595 12.487 1381 90.924 40.5959 433.696
2657 1 8.04292 8.95197 72 76.2778 39.3889 487.903
2658 0 7 3 21 76.4762 38.1905 494
2659 1 123.563 17.1735 2122 88.7191 39.6221 425.44
2660 0 129.506 17.2888 2239 87.2689 38.3644 436.569
2661 0 134.141 18.9278 2539 88.3324 38.7491 421.806
2662 0 137.746 17.6775 2435 89.3532 38.4472 421.721
2663 0 140.538 22.4779 3159 86.0601 38.9905 421.592
2664 0 140.913 15.1441 2134 91.3402 38.9733 422.706
2665 0 142.589 10.5127 1499 96.974 38.8833 414.668
2666 0 154.51 18.5748 2870 90.2181 39.2321 402.34
2667 0 162.657 18.4007 2993 89.6418 39.5657 412.112
2668 0 171.75 20.2853 3484 88.911 40.0419 396.534
2669 0 167.725 15.3347 2572 93.2018 39.2488 397.532
2670 1 104.412 14.6535 1530 93.0268 42.7771 428.699
2671 0 100.435 12.1371 1219 94.2158 41.1206 431.807
2672 0 107.276 9.2192 989 94.5996 40.2417 424.112
2673 0 106.48 16.313 1737 87.167 40.9591 428.887
2674 0 114.468 15.7425 1802 87.8468 42.1332 429.758
2675 0 119.569 12.0265 1438 92.5814 42.4033 420.269
2676 0 123.52 29.1613 3602 80.3873 42.1796 432.519
2677 0 123.411 17.2189 2125 89.9379 44.0654 416.517
2678 0 122.442 24.6485 3018 84.8366 43.7876 424.692
2679 0 130.334 13.4117 1748 93.3461 44.6476 420.57
2680 0 129.347 16.9622 2194 91.2124 45.2119 420.397
2681 1 140.617 12.6087 1773 94.3142 45.5471 422.691
2682 1 13.0399 10.9663 143 72.4825 48.4476 483.406
2683 0 12.0252 10.6443 128 74.1328 48.6094 482.781
2684 1 147.698 15.4979 2289 91.8886 47.0166 413.333
2685 0 153.533 10.3887 1595 95.6176 46.0708 413.186
2686 0 241.265 7.96635 1922 100.377 46.4214 382.306
2687 0 241.739 8.73255 2111 100.427 46.9166 375.505
2688 0 251.085 8.45133 2122 97.3973 47.1767 397.189
2689 0 255.203 12.7898 3264 96.9899 47.5242 364.531
2690 0 259.712 10.8967 2830 99.0565 46.6053 369.246
2691 1 115.402 9.16798 1058 90.0085 48.2486 451.213
2692 0 116.558 18.0768 2107 84.6018 47.5719 448.325
2693 0 118.429 15.5705 1844 86.7104 45.9523 441.352
2694 0 125.549 12.983 1630 88.4773 46.3307 440.569
2695 0 124.784 18.4238 2299 85.291 46.0426 443.059
2696 0 122.546 12.4607 1527 90.482 44.8625 435.038
2697 1 134.434 14.5871 1961 88.1183 44.5018 436.722
2698 0 138.921 11.6253 1615 89.1777 43.6929 434.023
2699 0 141.556 13.2951 1882 87.8029 42.4357 427.026
2700 0 146.658 18.7306 2747 84.873 42.4878 424.839
2701 0 154.717 16.0939 2490 87.0554 41.5313 433.248
2702 0 155.27 8.41759 1307 76.1813 41.2219 465.487
2703 0 159.578 26.5639 4239 75.4376 39.6662 430.803
2704 0 168.954 17.2709 2918 80.5685 38.9952 421.368
2705 0 174.78 12.4671 2179 84.86 40.0546 408.179
2706 0 173.858 12.4584 2166 85.3855 39.1856 406.028
2707 0 179.956 11.3972 2051 84.2282 38.6689 423.707
2708 0 179.713 10.1161 1818 85.4318 39.121 420.645
2709 0 352.308 26.491 9333 80.7538 38.6451 318.978
2710 0 347.925 13.7041 4768 88.8712 39.5088 332.02
2711 0 339.453 8.36936 2841 92.8314 40.8574 344.085
2712 0 350.039 14.5927 5108 86.4342 39.2848 363.056
2713 0 340.797 18.8176 6413 84.8595 39.5693 346.518
2714 0 344.258 11.6047 3995 91.3995 40.7469 338.301
2715 0 337.997 21.086 7127 83.3745 39.8204 358.589
2716 0 333.154 26.3031 8763 82.6085 40.0799 327.106
2717 0 340.282 26.3752 8975 81.9412 40.2943 299.905
2718 0 344.124 25.5867 8805 83.0354 42.0964 310.947
2719 1 253.49 21.0738 5342 84.3482 43.8459 362.753
2720 0 257.139 14.0858 3622 89.2024 44.9376 354.27
2721 0 263.065 15.8972 4182 87.1915 44.3587 365.403
2722 1 69.1417 18.3826 1271 73.0598 44.3761 459.521
2723 0 66.2463 14.1442 937 76.0384 45.4333 470.139
2724 0 67.5457 19.3943 1310 73.771 45.3779 468.83
2725 0 65.2586 11.8452 773 79.2264 46.2548 453.344
2726 0 72.1234 11.7576 848 78.6274 46.059 463.396
2727 0 71.2513 11.8594 845 79.5266 47.084 457.877
2728 0 73.188 9.46877 693 81.1948 47.14 460.975
2729 0 76.1969 13.4389 1024 78.6885 47.6211 457.594
2730 0 85.6179 15.721 1346 77.0312 48.078 459.253
2731 0 74.2624 9.45297 702 81.7507 47.3177 462.164
2732 0 80.1756 16.0273 1285 76.7385 47.13 467.153
2733 0 80.19 9.58972 769 82.2796 47.2354 458.352
2734 0 83.6611 9.23966 773 81.5589 47.1669 459.14
2735 1 9.00909 9.32392 84 74.7381 45.8452 496.536
2736 0 8.01457 4.74136 38 78.7105 46.0789 494.974
2737 0 12.8464 10.9759 141 69.6454 44.2979 500.929
2738 1 161.827 21.6157 3498 78.0972 44.7267 435.503
2739 1 100.763 13.6459 1375 82.4247 44.7673 447.233
2740 0 103.598 17.0949 1771 81.6059 43.1547 438.171
2741 0 106.389 12.5765 1338 84.7556 43.6996 424.358
2742 0 108.688 13.5893 1477 83.2884 41.606 443.877
2743 0 113.626 13.4652 1530 84.2046 42.3307 416.833
2744 0 109.543 18.9789 2079 79.6224 40.2179 433.376
2745 0 107.777 9.60318 1035 84.1314 41.3633 448.591
2746 1 175.555 6.67028 1171 83.8907 39.7959 406.22
2747 0 177.961 6.80487 1211 81.9133 40.1974 426.116
2748 1 190.828 22.7483 4341 75.0219 39.1626 413.671
2749 1 134.71 20.2657 2730 75.6974 39.018 431.16
2750 0 137.695 17.1756 2365 77.9674 37.6419 418.368
2751 0 137.951 15.6288 2156 77.8363 38.7811 436.243
2752 0 136.192 17.747 2417 77.9677 39.6789 429.371
2753 0 144.835 10.3705 1502 82.014 39.5839 428.643
2754 1 86.611 14.8826 1289 83.7362 40.353 446.305
2755 0 88.5474 9.68973 858 87.0746 40.4009 449.74
2756 0 88.6016 14.1419 1253 85.5658 42.0646 442.384
2757 0 92.689 15.4819 1435 83.8042 41.4251 451.293
2758 1 168.981 23.3873 3952 81.2735 41.185 423.44
2759 1 91.1365 22.1865 2022 82.3961 42.7661 433.774
2760 0 96.7999 20.0207 1938 83.531 42.7245 436.833
2761 0 99.5719 20.548 2046 82.6584 42.9414 443.65
2762 1 178.435 12.3406 2202 88.4432 44.0132 415.118
2763 1 148.872 9.67944 1441 89.2998 45.5357 429.824
2764 0 155.527 15.3157 2382 87.628 45.1482 409.653
2765 1 116.657 18.9701 2213 83.8875 45.8319 438.984
2766 0 122.539 20.3037 2488 82.3018 45.1608 449.879
2767 0 122.918 13.4724 1656 91.6775 46.8841 430.72
2768 0 128.83 18.1402 2337 85.7843 45.837 432.964
2769 0 131.123 22.6428 2969 84.0034 46.1421 415.751
2770 1 141.618 5.72668 811 93.6831 47.5758 445.977
2771 0 146.681 7.62198 1118 92.4061 48.975 435.744
2772 0 147.089 11.0341 1623 89.1707 49.1547 433.512
2773 0 149.658 16.785 2512 84.707 48.6139 434.768
2774 0 151.736 19.4285 2948 84.1981 48.7042 429.704
2775 1 90.1498 16.517 1489 83.5588 48.6038 454.566
2776 0 87.2675 19.2855 1683 82.8075 47.6251 441.497
2777 0 94.3384 17.3312 1635 83.5951 47.6385 455.114
2778 0 95.3751 13.0852 1248 87.4712 48.0897 449.209
2779 0 96.3968 17.0026 1639 85.0818 46.8353 446.633
2780 0 99.5169 17.5247 1744 85.2712 47.5602 448.954
2781 0 99.3004 7.11981 707 92.8515 47.9293 445.422
2782 0 109.335 16.5821 1813 86.273 46.6277 438.263
2783 0 114.483 19.1469 2192 84.6843 46.162 440.535
2784 0 115.301 7.36331 849 93.1861 45.7279 441.941
2785 0 114.483 11.4777 1314 89.8105 45.6225 438.08
2786 0 118.481 11.4027 1351 87.7853 45.1466 448.269
2787 0 120.329 12.9146 1554 89.1647 43.8526 433.941
2788 0 119.876 12.2627 1470 91.5646 43.4646 429.696
2789 0 118.529 12.073 1431 89.9518 42.051 442.269
2790 1 137.972 24.9833 3447 82.6359 41.6319 425.605
2791 0 142.884 18.2875 2613 85.8029 41.305 425.199
2792 0 147.83 14.3069 2115 89.2326 42.2998 411.871
2793 0 154.596 11.2487 1739 92.4112 41.8988 416.011
2794 0 156.969 8.82342 1385 92.8881 42.6534 423.688
2795 0 159.699 11.4215 1824 92.9123 42.8865 404.053
2796 0 164.643 7.50108 1235 96.1927 41.9498 409.982
2797 0 169.288 12.5644 2127 91.3282 42.6549 410.185
2798 0 164.63 7.0218 1156 91.5432 44.0086 436.816
2799 1 103.453 17.8438 1846 85.3554 44.0845 438.703
2800 0 106.825 20.22 2160 85.1569 43.3315 431.81
2801 0 109.516 18.1891 1992 87.2691 43.1752 420.966
2802 0 115.595 17.0509 1971 87.62 44.5961 414.706
2803 0 117.516 14.9596 1758 90.0808 44.2992 415.28
2804 0 119.658 12.5524 1502 91.9807 45.8895 419.356
2805 0 125.76 17.5334 2205 87.6045 44.9506 422.693
2806 0 133.135 23.4199 3118 84.796 45.8512 410.757
2807 0 129.499 11.4364 1481 94.0169 48.1769 422.231
2808 0 139.585 15.5962 2177 90.6412 47.3868 414.572
2809 1 79.8818 15.8985 1270 90.8669 46.863 438.471
2810 0 83.9856 20.3487 1709 87.2534 47.6922 438.181
2811 0 84.6911 28.6571 2427 82.8068 47.1669 437.883
2812 0 92.3448 16.4276 1517 88.7007 49.2294 446.915
2813 0 91.1319 18.3031 1668 89.3585 49.6067 440.437
2814 0 96.7157 18.725 1811 88.0751 48.0237 443.628
2815 0 97.7737 15.8938 1554 92.2806 47.5566 435.02
2816 0 107.2 16.6418 1784 89.5774 48.0527 443.421
2817 0 107.58 14.9656 1610 92.9317 49.2118 439.948
2818 0 106.305 14.9381 1588 91.1902 49.2078 436.01
2819 0 110.536 14.8549 1642 91.4257 49.8995 433.521
2820 0 111.517 17.3336 1933 88.986 48.8189 439.022
2821 0 123.005 15.3815 1892 90.1258 49.5576 440.035
2822 0 121.306 20.6503 2505 86.6427 48.5481 437.174
2823 0 128.134 16.9744 2175 89.9917 48.6864 431.952
2824 0 129.562 10.1032 1309 94.9572 48.1704 438.212
2825 0 135.782 20.5623 2792 86.2547 47.3635 436.465
2826 0 136.3 7.91638 1079 98.1307 48.6163 428.705
2827 0 133.554 9.82374 1312 95.3857 47.734 435.096
2828 1 204.974 21.2515 4356 86.2615 45.9775 413.325
2829 1 228.386 14.0989 3220 93.9326 46.2425 382.068
2830 0 230.753 22.6779 5233 86.3413 44.6709 397.04
2831 1 159.686 13.8459 2211 92.8752 44.8431 401.441
2832 0 170.101 17.3015 2943 89.9952 43.8328 405.701
2833 0 179.269 20.9852 3762 87.8631 43.3325 407.38
2834 0 186.814 25.2122 4710 84.9796 42.5907 405.57
2835 0 190.242 28.7791 5475 83.6886 42.2988 400.468
2836 0 199.433 16.8227 3355 89.3627 42.6703 411.184
2837 0 198.172 13.6548 2706 95.0684 42.7635 390.299
2838 1 210.99 18.5459 3913 92.3215 42.6213 382.284
2839 0 208.029 14.3778 2991 95.5018 43.1655 392.216
2840 0 324.981 23.7675 7724 89.8555 42.8391 311.16
2841 0 329.826 23.1243 7627 89.9296 42.899 339.723
2842 1 133.589 15.4504 2064 92.765 43.0044 419.933
2843 0 131.439 9.61663 1264 98.9003 43.538 413.403
2844 0 137.734 13.5478 1866 94.8821 44.8537 420.337
2845 0 144.683 14.5975 2112 94.1856 44.9366 417.028
2846 0 148.776 16.8105 2501 92.5706 45.6497 413.377
2847 0 157.902 16.6495 2629 92.9703 46.1727 406.976
2848 0 158.809 14.2813 2268 94.6495 47.3827 411.279
2849 0 164.785 14.6373 2412 95.6546 47.5311 402.739
2850 0 170.152 13.3352 2269 97.3389 48.5535 400.239
2851 1 250.33 17.8125 4459 91.12 48.3678 391.23
2852 0 250.538 19.5739 4904 93.4299 48.6493 371.74
2853 1 106.861 14.8417 1586 94.8525 50.1589 422.431
2854 0 112.666 22.7929 2568 87.9817 49.9735 428.898
2855 0 114.538 14.947 1712 95.4048 50.3493 425.775
2856 1 206.999 16.9808 3515 95.0404 50.9767 381.745
2857 0 209.886 9.65761 2027 101.267 49.6482 392.461
2858 1 124.604 13.4506 1676 96.6229 51.1456 425.853
2859 0 127.458 18.2021 2320 92.8034 51.1664 421.13
2860 0 136.19 21.9399 2988 89.6225 49.8042 422.606
2861 0 140.865 25.7765 3631 87.4453 49.2021 422.077
2862 0 146.056 20.3004 2965 89.7366 50.0985 434.164
2863 0 146.935 19.7435 2901 91.8014 49.8525 419.808
2864 0 151.518 16.0377 2430 95.2004 50.1584 418.876
2865 0 158.708 15.0906 2395 96.8096 49.9775 417.975
2866 0 161.345 13.7221 2214 98.0136 50.1427 418.379
2867 0 158.772 11.3118 1796 100.139 49.8235 420.242
2868 0 169.706 17.7542 3013 94.6482 48.2396 413.531
2869 0 170.451 19.0026 3239 94.7126 47.1757 404.856
2870 1 180.009 11.3383 2041 101.065 46.8775 408.56
2871 0 187.81 14.3336 2692 98.2143 47.1029 401.002
2872 0 196.742 18.5522 3650 94.4178 45.6973 395.102
2873 0 202.697 14.2873 2896 98.9772 46.4603 389.376
2874 0 203.734 19.3487 3942 93.3204 43.985 399.357
2875 0 202.546 8.02287 1625 105.522 44.1957 394.723
2876 0 205.559 9.19446 1890 99.8275 44.0952 422.733
2877 0 208.044 9.82966 2045 100.111 43.4034 414.38
2878 0 202.613 12.3536 2503 97.9776 43.2593 408.335
2879 1 190.789 16.6938 3185 97.286 43.129 395.84
2880 0 199.191 23.1536 4612 90.8829 42.5006 396.882
2881 0 202.267 15.2373 3082 99.0075 43.4127 383.529
2882 0 206.85 11.2352 2324 101.478 43.6463 386.962
2883 1 279.999 19.2751 5397 95.217 43.3871 331.868
2884 0 279.587 16.9249 4732 94.06 42.9341 374.264
2885 0 276.142 15.2422 4209 99.0499 44.9444 347.517
2886 0 277.337 13.709 3802 96.7388 44.6881 375.013
2887 1 181.159 11.0952 2010 100.632 44.4323 389.574
2888 0 187 18.0482 3375 93.4447 44.2836 396.42
2889 0 192.56 10.5993 2041 100.737 44.9633 394.448
2890 0 201.581 14.426 2908 97.0664 46.4715 399.192
2891 0 209.8 17.7693 3728 92.3863 47.2084 403.815
2892 0 213.535 16.3064 3482 97.6356 47.38 385.888
2893 0 215.63 19.5242 4210 95.8005 47.9043 374.619
2894 1 229.898 18.8518 4334 93.6006 48.5122 390.28
2895 0 234.384 24.2807 5691 90.829 48.1824 383.768
2896 0 237.952 12.9606 3084 102.039 47.9831 369.726
2897 1 251.215 18.4583 4637 93.8281 49.2014 384.651
2898 0 257.118 16.0743 4133 98.0767 49.2173 349.612
2899 0 266.116 22.3324 5943 91.593 49.9615 366.727
2900 0 267.273 13.0765 3495 99.7748 50.8026 368.842
2901 1 220.685 14.7269 3250 96.6723 50.6449 392.329
2902 0 223.841 15.7031 3515 93.9215 51.7619 406.742
2903 0 233.937 17.2995 4047 94.9108 50.9879 388.616
2904 0 241.804 20.3925 4931 92.64 51.61 379.716
2905 0 247.153 15.7757 3899 97.2703 51.5545 377.788
2906 1 258.14 18.1956 4697 92.8035 50.6362 396.071
2907 0 270.398 21.9381 5932 90.7013 50.5379 375.512
2908 0 273.228 24.9681 6822 88.6722 50.5516 378.933
2909 0 280.259 17.9013 5017 94.8637 49.5497 369.226
2910 0 298.616 26.4788 7907 88.7993 50.0626 343.378
2911 0 304.197 19.9312 6063 93.7701 49.1418 339.319
2912 1 218.407 10.7048 2338 98.3062 49.4192 410.568
2913 0 222.92 23.6722 5277 90.3072 48.8795 386.911
2914 0 231.725 20.0496 4646 91.6868 47.0286 401.05
2915 0 237.958 14.7001 3498 97.1612 46.1304 392.163
2916 0 246.86 21.9638 5422 91.2032 46.0415 398.434
2917 0 253.542 15.1652 3845 98.7701 45.8101 380.85
2918 0 377.454 24.0082 9062 91.8186 45.4233 316.563
2920 1 212.953 14.5807 3105 99.2564 44.7907 395.997
2921 0 217.715 15.5525 3386 99.1923 45.0115 390.124
2922 0 224.653 15.3392 3446 99.7249 43.7351 386.184
2923 0 234.178 24.0458 5631 91.2117 42.726 394.776
2924 0 242.775 19.4131 4713 96.2243 43.3552 377.915
2925 0 250.649 16.7166 4190 99.3504 44.7215 375.624
2926 0 260.719 19.4654 5075 97.066 44.304 355.112
2927 0 267.773 20.0842 5378 97.0946 43.315 348.625
2928 0 278.421 22.3151 6213 94.2577 43.3337 349.868
2930 0 74.2139 14.2426 1057 97.4872 45.2526 444.528
2931 0 80.4657 20.7666 1671 89.6571 44.2537 450.22
2932 0 81.996 20.4766 1679 89.7022 43.7909 445.592
2933 0 83.2048 15.4558 1286 94.2916 45.0964 446.554
2934 0 87.6512 23.2398 2037 86.5376 46.0275 447.098
2935 0 90.172 14.2173 1282 95.6669 47.9704 444.543
2936 0 90.6274 17.9526 1627 91.536 47.7253 449.679
2937 0 92.1793 14.8406 1368 96.2332 48.4686 441.697
2938 0 97.0663 22.5722 2191 90.0256 49.4158 434.966
2939 0 101.675 19.8082 2014 91.6862 49.1559 442.51
2940 0 102.467 15.8881 1628 94.2027 50.2967 440.139
2941 0 105.34 10.5848 1115 100.789 50.9157 432.26
2942 0 111.617 18.5545 2071 91.2279 50.718 443.354
2943 0 110.726 16.148 1788 94.4485 51.1018 433.464
2944 0 114.02 17.0321 1942 92.0036 51.4882 442.472
2945 0 111.846 15.6555 1751 94.7224 51.1896 440.479
2946 0 131.632 27.8959 3672 83.8897 51.2595 433.691
2947 0 133.189 31.4516 4189 82.233 51.3206 432.204
2948 0 134.2 22.0418 2958 88.8675 51.2285 432.883
2949 0 143.148 31.7434 4544 82.4714 51.5348 427.963
2950 0 143.022 25.1569 3598 87.4739 50.5153 427.24
2951 0 146.607 22.8025 3343 89.286 50.0248 421.173
2952 0 144.702 19.1705 2774 93.3565 49.5703 424.488
2953 0 153.689 28.5577 4389 85.6015 49.612 426.013
2954 0 163.852 28.9651 4746 84.8228 48.8961 420.138
2955 0 166.149 27.3671 4547 86.1324 49.1581 422.893
2956 0 172.208 30.6142 5272 83.7792 48.0768 422.973
2957 0 181.46 27.1024 4918 85.8217 46.9024 412.155
2958 0 183.408 24.0284 4407 89.1355 46.6599 407.63
2959 1 104.02 19.8135 2061 89.2043 45.9379 453.494
2960 0 109.92 20.1965 2220 87.5896 46.1212 451.503
2961 0 113.113 26.0802 2950 85.3047 45.8925 446.886
2962 0 116.765 19.3124 2255 90.5322 45.4204 444.952
2963 0 117.743 14.8629 1750 95.0326 45.736 440.762
2964 0 123.697 18.2382 2256 92.6826 43.8054 435.35
2965 0 125.946 15.3161 1929 95.9839 43.8595 436.188
2966 0 133.698 23.1042 3089 89.1615 44.4014 439.435
2967 0 133.667 18.8978 2526 93.2633 44.1465 429.426
2968 0 139.742 18.2908 2556 92.1142 44.0571 438.258
2969 0 139.615 18.465 2578 93.294 42.8472 431.539
2970 0 142.639 16.5172 2356 96.0378 43.0433 417.904
2971 0 146.472 18.0922 2650 94.1181 42.2932 422.505
2972 0 152.037 18.3574 2791 94.9291 44.7517 416.79
2973 0 159.079 19.3803 3083 93.6747 44.625 418.516
2974 1 227.742 21.4498 4885 92.704 44.4976 395.725
2975 1 162.898 13.0082 2119 100.212 45.9202 411.145
2976 1 93.7456 5.26958 494 104.421 47.3704 442.769
2977 0 101.464 18.7949 1907 90.8348 48.1248 446.504
2978 0 106.38 17.7289 1886 92.6707 46.7031 440.7
2979 0 107.565 11.7882 1268 100.55 47.4842 427.328
2980 1 202.51 22.8532 4628 91.3332 47.1852 394.949
2981 0 203.809 15.2103 3100 98.1458 48.25 400.001
2982 1 119.618 15.3405 1835 96.4185 49.5417 432.763
2983 0 122.408 13.7573 1684 98.1324 50.0208 431.696
2984 0 128.655 15.5532 2001 96.1674 50.3853 431.418
2985 0 130.962 16.3635 2143 96.2198 50.4218 428.873
2986 0 135.662 16.4674 2234 96.6602 50.8917 422.081
2987 0 137.732 13.9619 1923 98.5621 52.1986 427.911
2988 0 143.524 15.1403 2173 98.3516 51.8145 418.208
2989 0 146.536 18.405 2697 95.2013 51.9225 420.176
2990 0 152.664 16.4676 2514 95.9944 52.2904 419.965
2991 0 158.702 10.838 1720 101.433 51.1099 414.699
2992 0 161.457 17.5031 2826 95.8772 50.8015 410.764
2993 0 170.577 14.8789 2538 97.0343 50.5091 423.271
2994 0 174.954 18.3477 3210 96.305 50.2006 412.686
2995 0 177.882 13.9643 2484 100.816 49.7444 412.122
2996 0 184.04 15.9476 2935 98.2184 49.1751 407.924
2997 0 189.874 26.1752 4970 88.6306 48.8771 418.966
2998 0 196.076 14.6015 2863 97.6158 49.6588 418.162
2999 1 113.517 8.97662 1019 98.8518 48.5015 449.074
3000 0 124.398 16.608 2066 93.4109 48.4124 444.05
3001 0 125.408 12.8859 1616 97.7036 47.5953 439.368
3002 0 130.469 17.4218 2273 93.6348 47.1104 438.737
3003 0 134.384 14.6148 1964 96.1013 47.0066 434.475
3004 0 138.726 18.569 2576 92.4918 46.1083 436.918
3005 0 143.402 11.8687 1702 99.4013 43.171 428.15
3006 0 143.551 11.9052 1709 99.5535 43.6202 430.124
3007 0 151.676 12.7179 1929 98.1032 44.0202 428.41
3008 0 154.615 13.7115 2120 97.6646 42.7425 426.425
3009 0 162.094 14.3436 2325 97.68 43.234 420.336
3010 1 318.193 15.2926 4866 99.2941 42.0789 368.284
3011 1 237.834 12.6853 3017 103.701 41.7365 371.909
3012 1 179.967 15.1361 2724 98.7382 42.6773 401.168
3013 0 184.771 14.2176 2627 99.0324 42.6783 405.586
3014 0 192.844 13.9336 2687 99.3085 42.8266 403.496
3015 0 198.835 19.2622 3830 95.7172 43.3465 394.264
3016 0 198.133 10.18 2017 106.378 42.8071 373.177
3017 0 365.452 22.1315 8088 96.954 43.5022 290.381
3018 0 378.339 21.6393 8187 96.5481 42.9712 320.574
3019 0 127.487 16.4487 2097 95.8269 44.8712 426.187
3020 0 130.547 14.4699 1889 97.3547 44.7088 425.25
3021 0 139.002 20.2084 2809 92.3275 43.7334 418.668
3022 0 139.479 16.2174 2262 96.2012 46.2529 418.057
3023 0 145.916 15.9612 2329 96.283 47.2568 418.471
3024 0 147.707 15.849 2341 97.0773 46.9551 416.592
3025 0 154.107 14.0422 2164 99.1798 48.0032 407.454
3026 0 157.136 10.755 1690 101.34 48.7467 416.05
3027 0 166.112 13.7859 2290 99.0122 49.8616 412.276
3028 0 164.814 11.959 1971 101.62 49.863 411.504
3029 0 177.667 21.6529 3847 92.5014 49.6616 415.013
3030 0 175.715 10.1926 1791 104.989 49.718 403.59
3031 0 179.744 16.2565 2922 99.0982 49.6595 409.642
3032 0 189.951 17.1044 3249 99.2576 49.8787 396.854
3033 0 196.087 13.3257 2613 101.122 49.729 411.519
3034 0 199.802 12.4673 2491 104.601 49.6443 392.973
3035 0 200.128 19.7773 3958 95.4358 49.1647 413.388
3036 1 312.602 20.9852 6560 95.1796 48.736 376.317
3037 1 216.126 15.1069 3265 102.46 49.1096 390.356
3038 0 224.044 20.7549 4650 96.9116 49.3813 392.575
3039 0 232.974 18.4398 4296 98.2311 48.3864 390.963
3040 0 241.044 18.0921 4361 98.626 46.8633 390.927
3041 0 245.412 16.0424 3937 101.134 48.0394 385.041
3042 1 182.412 17.1315 3125 94.897 46.2054 428.214
3043 0 183.709 13.8915 2552 100.854 46.4616 410.756
3044 0 188.913 12.6461 2389 101.866 44.5931 407.794
3045 0 198.695 22.5874 4488 89.6941 44.5332 427.771
3046 0 205.226 20.2654 4159 95.8002 44.3229 395.246
3047 0 205.067 9.85043 2020 107.039 43.4406 388.461
3048 0 211.267 14.3941 3041 102.262 42.2601 385.087
3049 0 220.308 20.8072 4584 96.3375 40.9725 392.128
3050 1 318.097 20.7264 6593 98.0575 40.8673 354.873
3051 0 312.867 12.0754 3778 104.621 40.6488 367.139
3052 1 242.595 14.7942 3589 100.525 41.2881 387.736
3053 0 247.388 19.6372 4858 97.557 40.9718 376.215
3054 0 254.562 17.8699 4549 99.931 40.4946 369.185
3055 0 312.876 13.2736 4153 104.777 41.9369 346.785
3056 0 311.81 13.6526 4257 102.759 42.0324 362.154
3057 0 309.629 9.47586 2934 106.21 41.8306 372.363
3058 0 307.928 15.0133 4623 99.6228 41.2157 379.89
3059 0 322.39 27.0014 8705 91.9393 39.75 333.574
3060 0 317.002 28.9431 9175 91.1077 40.6816 333.286
3061 0 313.783 31.8788 10003 89.3888 40.2629 331.019
3062 0 325.175 25.6508 8341 94.0269 42.3551 319.015
3063 0 333.891 27.8474 9298 92.5671 42.1436 314.772
3064 0 342.422 21.0062 7193 98.528 44.3487 294.275
3065 0 374.675 24.4959 9178 93.6585 43.7859 293.681
3067 0 284.083 25.4116 7219 93.7617 45.1655 342.239
3068 0 296.025 27.4673 8131 92.489 45.9621 333.495
3069 0 292.473 25.2639 7389 94.9521 46.7659 325.633
3070 0 301.245 24.7307 7450 95.1573 47.3809 311.762
3071 0 307.598 15.9429 4904 102.767 47.3724 334.25
3072 1 15.1653 4.94549 75 82.2533 50 481.973
3073 0 7.00157 22.5664 158 75.6772 50.1329 475.943
3074 0 13.039 5.44519 71 82.6056 50.9296 479.31
3075 0 14.1304 5.16617 73 83.6301 50.1644 477.726
3076 0 19.0435 3.83334 73 81.4521 50.0959 486.055
3077 0 375.07 22.5291 8450 96.224 47.6155 306.446
3078 0 374.904 17.6285 6609 99.1726 47.7904 322.216
3079 0 374.661 16.8899 6328 99.2489 47.3699 329.858
3080 0 377.912 18.5625 7015 99.1234 47.0017 321.568
3081 0 50.1349 8.65664 434 86.7166 46.6659 471.555
3082 0 61.9002 18.0613 1118 79.4374 46.517 464.309
3083 0 57.7723 29.4951 1704 75.1191 46.9988 468.502
3084 0 54.5503 12.9055 704 82.375 46.2472 470.155
3085 0 54.5503 13.0155 710 103.224 44.3 470.19
3086 0 53.073 5.06849 269 92.2045 44.3755 460.082
3087 1 15.0413 4.32144 65 85.9692 47.0308 482.923
3088 0 14.048 6.19306 87 85.4828 45.6092 480.575
3089 0 13.0072 2.7677 36 87.8056 45.2222 479.333
3090 0 23.0498 21.0414 485 75.9093 43.2928 478.367
3094 0 274.189 25.8726 7094 90.4316 41.575 335.457
3095 0 283.098 16.0368 4540 98.5685 41.2236 339.202
3096 0 296.468 26.2693 7788 90.4005 40.9626 341.298
3097 0 300.359 21.3611 6416 94.2305 41.0927 319.848
3098 0 310.797 30.9044 9605 88.1195 40.8308 327.682
3099 0 320.771 28.2787 9071 90.1092 40.5966 323.897
3100 0 324.217 21.208 6876 95.4727 41.1934 310.635
3101 1 120.849 13.2397 1600 87.6988 41.8662 436.31
3102 0 121.684 8.96586 1091 90.9982 40.0128 443.116
