time division length width area intensity CMx CMy
0 0 52.0849 12.902 672 126.89 136.345 468.897
1 0 56.0566 14.4854 812 122.406 135.272 469.416
2 1 108.376 12.8626 1394 129.204 134.021 439.329
3 0 114.548 12.9466 1483 129.425 133.94 440.582
4 0 120.521 17.5323 2113 117.336 133.18 439.5
5 0 128.906 13.568 1749 123.259 132.561 438.722
6 1 66.151 19.3497 1280 112.797 131.441 462.668
7 0 68.2097 12.5935 859 124.939 131.081 466.385
8 0 70.1345 12.6186 885 119.697 131.461 465.84
9 0 71.2467 14.3164 1020 122.809 128.638 460.12
10 1 37.0424 13.1741 488 124.836 129.197 476.172
11 0 37.0231 11.6954 433 122.453 126.64 476.185
12 0 37.1375 10.9862 408 128.402 126.716 474.199
13 0 41.0477 15.4698 635 120.466 126.976 471.008
14 0 40.064 11.8061 473 120.814 127.469 475.025
15 0 41.0751 12.1241 498 121.026 127.749 469.781
16 0 43.1325 16.4609 710 114.193 127.469 469.175
17 0 46.1213 16.1531 745 110.358 127.67 466.728
18 0 46.06 9.63959 444 118.867 128.477 467.41
19 0 47.2617 14.3245 677 117.055 127.753 463.595
20 0 49.1363 15.7928 776 115.122 127.558 461.006
21 0 50.209 16.272 817 114.078 128.632 458.534
22 0 52.2739 13.5632 709 117.049 128.271 460.071
23 0 55.0831 18.5719 1023 110.237 131.17 458.377
24 0 57.0746 16.1718 923 114.199 129.483 456.108
25 0 61.1188 20.8774 1276 106.728 132.264 455.408
26 0 64.4445 18.8069 1212 107.259 132.507 456.671
27 0 65.3035 20.3052 1326 106.889 133.061 453.128
28 0 65.1353 12.451 811 117.73 134.104 449.194
29 0 67.1768 12.6085 847 114.798 135.483 448.485
30 0 73.3356 14.945 1096 110.349 136.341 449.772
31 0 76.2755 15.7324 1200 110.138 136.824 447.394
32 0 76.1327 16.4712 1254 109.23 137.466 443.098
33 0 84.257 15.5477 1310 107.925 138.949 445.514
34 0 82.1738 15.3577 1262 107.941 138.849 445.54
35 0 85.1583 14.2441 1213 112.129 139.988 444.304
36 1 46.1375 12.5061 577 107.002 138.711 467.097
37 0 46.3109 18.1383 840 102.832 140.205 465.101
38 0 46.1477 18.8742 871 100.445 139.093 464.846
39 0 46.3289 13.1883 611 109.429 141.478 463.216
40 0 51.2385 14.0129 718 104.553 140.925 465.269
41 0 51.2244 14.7781 757 106.535 140.25 464.843
42 0 57.3605 17.2767 991 100.445 139.276 467.549
43 0 56.2624 16.1742 910 103.114 139.026 464.392
44 0 58.8422 13.8846 817 104.581 138.133 466.2
45 0 59.2363 13.3195 789 111.992 137.611 467.02
46 0 64.0925 16.9287 1085 116.102 136.071 463.916
47 0 64.1151 15.8621 1017 118.411 135.963 462.215
48 0 67.2866 14.2376 958 118.04 135.482 462.225
49 0 70.3128 18.7306 1317 114.087 134.87 459.136
50 0 75.1618 15.5531 1169 115.361 135.176 464.52
51 0 75.2434 17.0779 1285 116.752 133.882 460.532
52 0 75.2277 13.8513 1042 123.147 132.322 458.208
53 0 78.1508 15.6364 1222 120.19 131.561 453.807
54 0 81.2604 14.792 1202 120.368 131.869 454.506
55 0 85.1947 16.5738 1412 117.081 131.516 451.741
56 0 86.3232 15.2219 1314 119.073 130.699 451.568
57 0 91.2443 17.7655 1621 114.201 130.254 449.901
58 0 94.1607 15.9833 1505 117.227 129.859 446.518
59 1 51.3006 14.9511 767 113.634 129.911 467.966
60 0 52.1122 13.279 692 116.699 130.445 465.707
61 0 52.1894 12.493 652 117.808 129.951 462.971
62 0 54.1356 14.7223 797 111.586 128.716 461.193
63 0 56.1102 12.7963 718 114.063 128.914 461.744
64 0 56.1467 12.592 707 115.578 129.61 457.396
65 0 61.2683 16.4522 1008 108.042 129.976 460.041
66 0 64.2398 13.4652 865 112.202 129.365 457.86
67 0 63.3736 13.0023 824 114.183 130.528 455.049
68 0 64.3729 13.282 855 113.768 130.973 453.672
69 0 68.6175 15.4625 1061 111.29 130.433 451.647
70 0 70.2075 15.7818 1108 110.293 131.527 453.264
71 0 68.1708 12.2486 835 118.043 130.547 449.993
72 0 75.1247 16.7056 1255 109.288 132.217 451.627
73 0 75.0951 12.5041 939 116.188 132.434 449.109
74 0 78.2557 16.3311 1278 112.203 132.703 446.585
75 0 81.3282 15.0378 1223 114.329 133.656 444.414
76 0 82.4631 12.2358 1009 118.758 134.525 443.236
77 0 88.1161 15.2866 1347 114.239 134.293 443.308
78 0 87.2056 12.4419 1085 119.706 135.364 442.789
79 0 87.2056 12.5221 1092 149.044 137.378 442.732
80 0 97.277 14.8442 1444 116.769 136.958 443.042
81 0 107.313 13.7821 1479 119.551 137.454 442.83
82 1 54.1344 14.2608 772 114.426 136.781 463.347
83 0 55.1848 13.5544 748 116.115 135.989 462.975
84 0 54.186 11.1652 605 117.122 136.362 469.051
85 0 56.3553 12.1728 686 116.085 135.933 468.19
86 0 57.1735 13.8526 792 116.672 136.234 466.318
87 0 61.1913 13.5967 832 115.387 135.367 468.947
88 0 61.0835 14.2101 868 116.547 135.23 468.07
89 0 64.1633 17.6113 1130 112.773 134.585 464.026
90 0 66.1252 14.412 953 116.528 134.321 467.515
91 0 69.1907 13.7157 949 118.88 133.965 464.893
92 0 76.2707 14.5403 1109 114.763 134.586 467.262
93 0 72.3161 16.1237 1166 114.444 133.901 467.633
94 0 75.2503 13.0365 981 121.265 132.11 464.926
95 0 77.3539 15.6295 1209 116.629 132.278 463.37
96 0 82.317 16.0599 1322 114.964 128.403 465.379
97 0 83.2607 19.0967 1590 112.291 130.819 461.705
98 0 85.2626 21.0878 1798 110.568 128.58 456.115
99 1 171.696 12.9531 2224 127.362 127.821 418.265
100 1 93.2856 19.049 1777 112.568 127.636 453.265
101 0 94.507 13.3535 1262 121.661 126.702 450.717
102 1 50.2189 13.242 665 118.982 126.039 465.132
103 0 50.1608 10.2869 516 124.36 127.165 467.831
104 0 53.1386 12.8908 685 117.174 127.044 468.59
105 0 56.2157 14.0886 792 116.381 127.217 464.539
106 0 58.0786 11.2262 652 120.722 127.707 463.66
107 0 57.186 13.3774 765 118.115 126.001 462.817
108 0 60.1787 11.7816 709 118.788 126.327 461.867
109 0 62.1937 13.1685 819 118.204 126.352 458.679
110 0 65.3114 15.4797 1011 113.736 127.058 456.559
111 0 69.4007 14.9422 1037 115.19 128.06 452.908
112 0 70.3207 15.5715 1095 113.062 127.822 455.304
113 0 75.3066 16.0676 1210 112.463 128.928 451.346
114 0 75.5563 15.4852 1170 114.089 130.121 449.25
115 0 78.3147 14.0842 1103 117.28 130.506 446.548
116 0 80.1498 12.5515 1006 114.612 130.235 449.292
117 0 82.2156 11.3725 935 118.729 131.889 444.721
118 0 87.4156 12.8924 1127 114.669 132.637 444.996
119 0 89.3064 11.1862 999 118.56 132.527 442.264
120 1 45.3344 10.1248 459 116.231 132.072 463.381
121 0 48.2972 14.2244 687 111.664 131.632 462.036
122 0 48.2598 14.6084 705 110.047 132.997 463.441
123 0 52.046 13.6226 709 110.071 132.323 464.377
124 0 50.107 14.7085 737 109.621 132.427 463.353
125 0 56.8015 19.1192 1086 102.57 132.565 460.295
126 0 52.0528 12.0647 628 113.108 133.229 464.318
127 0 55.0691 17.4508 961 105.838 133.194 464.503
128 0 58.1042 10.877 632 115.098 132.266 463.653
129 0 59.0549 13.7669 813 110.609 132.494 465.455
130 0 61.2101 13.4291 822 111.359 131.299 466.123
131 0 68.4888 17.2729 1183 104.736 132.492 464.275
132 0 67.1824 13.054 877 112.881 130.052 465.002
133 0 64.1257 11.6022 744 116.367 130.124 466.378
134 0 65.0715 13.247 862 115.758 129.918 464.477
135 0 68.1916 12.5969 859 116.464 129.807 465.403
136 0 70.0663 16.6699 1168 110.998 130.757 464.954
137 0 76.1297 14.1995 1081 113.78 128.191 462.112
138 0 79.1213 14.5852 1154 113.562 129.107 461.332
139 0 80.1672 15.5425 1246 113.115 127.191 459.281
140 0 81.3852 11.8449 964 119.108 126.766 456.995
141 0 88.2023 17.1651 1514 108.956 126.914 461.692
142 0 89.2628 18.1823 1623 109.203 128.155 456.42
143 0 89.2628 18.1823 1623 125.416 128.108 456.443
144 1 46.1171 10.3432 477 117.352 128.688 476.252
145 0 48.0762 13.9986 673 112.389 126.337 471.666
146 0 51.4452 16.2309 835 107.929 124.144 468.371
147 0 49.0838 11.6739 573 111.4 122.681 470.517
148 0 49.2583 13.013 641 110.739 122.563 468.877
149 0 51.1626 14.7178 753 108.073 122.965 466.988
150 0 53.1504 9.85881 524 114.59 120.922 467.845
151 0 57.1647 15.8489 906 104.501 122.616 467.86
152 0 57.1201 14.3207 818 109.34 122.985 462.928
153 0 58.0288 17.0605 990 106.259 123.209 460.206
154 0 61.0317 11.6497 711 112.92 124.459 460.155
155 0 66.0817 14.2097 939 109.134 123.692 458.512
156 0 64.1917 13.9582 896 111.814 124.987 453.068
157 0 67.0865 17.0973 1147 107.951 125.738 451.4
158 0 67.1806 11.5658 777 116.254 126.001 453.171
159 1 161.749 13.5704 2195 116.925 128.179 413.432
160 1 75.1719 15.0588 1132 112.105 128.059 448.532
161 0 77.0796 17.6571 1361 106.451 127.229 450.052
162 0 81.1191 15.2122 1234 108.994 128.916 448.395
163 0 84.2766 12.2572 1033 113.568 129.42 443.364
164 1 47.2876 9.85459 466 106.94 129.436 471.929
165 0 45.0882 11.91 537 110.426 129.78 466.352
166 0 49.3038 12.1695 600 108.125 131.378 466.828
167 0 49.3038 12.1897 601 131.24 132.381 466.804
168 0 50.0846 13.8566 694 108.032 131.141 465.978
169 0 50.1087 10.3774 520 113.252 132.448 468.467
170 0 51.1375 10.8335 554 113.329 132.596 468.141
171 0 52.149 14.0559 733 110.326 132.127 467.116
172 0 54.1448 12.3927 671 111.186 132.173 472.396
173 0 56.1816 11.1246 625 114.611 130.818 469.418
174 0 59.1818 14.5146 859 109.696 130.593 469.027
175 0 59.1852 12.7397 754 112.458 130.121 469.399
176 0 62.2037 14.0024 871 110.766 128.831 468.925
177 0 66.1009 15.3099 1012 106.495 131.643 473.051
178 1 131.8 11.4188 1505 119.042 131.672 438.076
179 1 70.092 14.1671 993 111.565 130.583 464.906
180 0 72.1446 11.4908 829 110.106 130.668 469.455
181 0 73.1226 12.103 885 113.564 129.805 463.763
182 0 76.0534 13.7666 1047 111.952 128.775 461.245
183 0 79.2995 12.5852 998 112.974 128.914 457.673
184 1 44.0723 10.3239 455 113.963 128.505 478.398
185 0 47.054 13.6014 640 109.512 127.133 475.475
186 0 47.0304 15.2455 717 108.289 122.073 472.799
187 0 48.041 13.0097 625 112.458 122.498 471.715
188 0 46.0865 16.252 749 101.9 122.266 476.466
189 0 50.1376 14.7793 741 104.727 122.578 470.453
190 0 53.1238 10.9179 580 106.638 121.607 474.816
191 0 53.234 11.2146 597 109.407 121.074 468.556
192 0 52.0892 11.3267 590 108.629 121.181 469.064
193 0 54.125 12.933 700 107.611 120.981 465.104
194 0 55.0808 14.1247 778 106.301 122.226 461.793
195 0 57.2453 17.2241 986 101.266 122.413 464.156
196 0 58.6306 16.4419 964 102.34 122.334 463.453
197 0 59.0988 13.9089 822 106.474 122.991 460.964
198 0 60.2054 14.0851 848 107.349 124.116 454.933
199 0 64.0795 16.6512 1067 102.835 124.828 454.385
200 0 66.2046 13.9265 922 105.707 125.171 455.832
201 0 68.1682 11.2369 766 109.47 124.983 453.557
202 0 70.2114 14.1288 992 104.303 125.333 455.479
203 0 74.0925 13.8745 1028 106.306 125.413 449.645
204 0 74.0925 13.9285 1032 139.72 126.385 449.701
205 0 77.1608 11.5732 893 108.646 127.822 450.606
206 0 80.2224 13.7742 1105 106.544 129.2 445.452
207 0 87.3166 18.851 1646 100.552 129.165 443.958
208 0 86.3551 16.4553 1421 102.752 130.344 448.414
209 0 91.5445 13.6764 1252 106.286 131.446 447.282
210 0 90.2675 15.8861 1434 106.161 131.757 443.4
211 0 94.4429 12.5155 1182 109.911 130.767 443.188
212 0 100.364 16.1811 1624 108.737 131.984 439.744
213 0 106.404 17.6215 1875 106.264 131.576 443.246
214 0 105.432 12.7571 1345 109.388 131.659 447.545
215 1 57.1028 11.3129 646 108.72 133.65 470.918
216 0 58.3207 16.5121 963 101.949 133.683 471.008
217 0 61.1184 15.6581 957 104.135 133.553 467.343
218 0 60.2443 13.8436 834 107.568 132.531 466.65
219 0 63.0707 13.9367 879 106.635 132.763 469.94
220 0 67.1521 13.7151 921 106.278 133.695 470.023
221 0 68.0919 14.921 1016 106.678 131.906 464.851
222 0 69.171 14.3991 996 107.319 131.706 466.719
223 0 72.0978 14.3971 1038 107.301 129.744 464.185
224 0 75.1904 15.5605 1170 106.5 128.279 463.185
225 0 78.3442 16.4658 1290 104.893 126.528 462.429
226 0 80.3721 12.6537 1017 110.482 125.254 461.382
227 0 85.2623 16.7249 1426 105.111 125.291 459.154
228 0 86.1242 11.6808 1006 112.937 123.866 455.343
229 0 90.1669 14.2957 1289 110.53 122.976 452.402
230 0 95.4414 17.11 1633 107.06 122.406 451.153
231 0 98.2242 11.8097 1160 112.711 122.657 456.247
232 0 101.525 12.3517 1254 114.493 120.574 447.21
233 0 103.606 12.8082 1327 115.594 120.067 443.251
234 0 106.436 13.3226 1418 113.39 120.743 444.473
235 1 56.3872 13.6733 771 108.304 119.545 468.59
236 0 58.1304 21.3486 1241 96.8268 120.05 470.813
237 0 61.3868 18.1309 1113 102.761 119.783 459.426
238 0 62.1542 15.1719 943 106.705 119.599 459.657
239 0 64.2833 19.2118 1235 101.797 120.605 454.96
240 0 65.1723 19.1032 1245 102.474 119.555 451.956
241 0 68.3945 14.3871 984 108.287 121.684 454.548
242 0 71.2112 20.5445 1463 100.941 122.048 454.571
243 0 72.2368 16.2521 1174 107.068 121.528 449.799
244 0 73.2609 12.5306 918 112.166 122.645 451.37
245 0 78.1134 14.991 1171 105.893 122.813 446.804
246 0 80.252 15.6881 1259 105.968 125.442 441.33
247 0 84.2036 14.6787 1236 107.162 124.7 443.741
248 0 87.3145 14.9918 1309 107.005 125.976 445.196
249 0 91.3842 15.6263 1428 105.567 126.34 445.602
250 1 44.1257 10.1075 446 111.7 123.747 463.525
251 0 48.1064 15.632 752 103.848 125.836 463.168
252 0 48.2779 12.4902 603 108.277 126.954 465.935
253 0 53.1281 14.0227 745 105.593 127.949 464.2
254 0 51.0721 15.018 767 105.914 129.889 461.229
255 0 53.066 12.6069 669 109.371 128.849 466.807
256 0 54.0711 11.3924 616 111.468 130.774 465.05
257 0 55.3317 13.2293 732 108.328 131.91 462.839
258 0 56.2522 11.804 664 111.443 131.815 463.94
259 0 58.1119 11.8736 690 111.267 130.622 465.229
260 0 58.1007 9.79335 569 113.61 130.742 468.81
261 0 62.045 12.6843 787 112.089 129.522 465.762
262 0 66.3162 17.3261 1149 105.197 130.523 465.061
263 0 67.1543 13.3424 896 111.656 129.905 463.802
264 0 67.246 12.8632 865 113.172 127.695 467.578
265 0 72.0887 14.4822 1044 110.807 129.323 464.645
266 0 74.1191 13.7616 1020 108.964 128.538 463.735
267 0 77.305 15.8334 1224 107.04 128.823 459.78
268 0 75.0903 11.3463 852 111.766 127.192 464.897
269 0 80.3939 13.9314 1120 111.03 126.641 459.974
270 0 83.1634 14.4174 1199 110.548 125.326 457.018
271 0 87.4653 13.1023 1146 111.949 125.236 453.504
272 0 85.2384 12.3536 1053 112.9 123.081 456.406
273 0 95.1866 16.5149 1572 106.557 124.825 451.422
274 0 93.2256 18.6108 1735 103.435 123.836 455.462
275 0 96.1975 10.2497 986 115.869 123.628 447.819
276 0 100.381 13.7975 1385 111.001 122.739 443.223
277 0 102.301 10.4007 1064 114.008 123.284 444.009
278 0 107.488 14.7551 1586 108.821 123.018 440.169
279 1 56.2754 13.9493 785 109.031 123.045 460.777
280 0 57.1718 14.1853 811 104.893 123.046 463.788
281 0 57.1371 11.6387 665 108.988 121.683 459.447
282 0 59.1483 8.6393 511 112.91 123.016 456.66
283 0 63.2117 12.387 783 107.751 123.621 457.462
284 0 65.051 11.5909 754 108.649 123.466 459.313
285 0 65.142 12.0506 785 110.754 123.13 451.763
286 0 71.3085 15.0753 1075 104.139 123.824 454.308
287 0 73.2838 17.439 1278 101.935 124.393 449.937
288 0 80.5192 12.4939 1006 103.349 126.617 456.981
289 0 78.2412 16.398 1283 104.915 126.72 447.123
290 0 80.1807 22.1126 1773 95.9774 126.837 453.078
291 0 82.2424 14.7126 1210 106.675 127.931 442.355
292 0 82.4014 16.007 1319 106.378 129.801 442.577
293 0 88.2082 14.7265 1299 105 130.594 447.375
294 0 90.3926 13.8064 1248 104.611 131.853 451.059
295 0 91.2047 15.6352 1426 107.375 131.726 437.945
296 0 96.1312 16.4671 1583 104.669 132.064 442.167
297 0 95.1426 14.0316 1335 136.781 132.09 439.084
298 0 104.156 16.216 1689 106.006 132.606 432.612
299 0 107.531 15.0468 1618 107.539 133.899 434.933
300 0 112.306 17.4523 1960 104.098 134.406 437.562
301 0 114.246 13.0332 1489 110.537 134.064 434.424
302 0 118.273 12.2429 1448 111.561 134.129 431.13
303 0 126.2 16.046 2025 107.026 133.761 431.21
304 0 130.424 18.1408 2366 103.738 133.086 435.51
305 0 135.604 9.38024 1272 113.509 132.756 434.747
306 0 141.726 15.2689 2164 107.777 132.576 421.047
307 0 148.404 13.6991 2033 109.03 131.066 430.957
308 1 76.1401 12.3851 943 109.949 131.259 458.49
309 0 76.3957 13.9537 1066 107.066 130.602 461.913
310 0 78.2715 13.0954 1025 109.933 130.321 457.867
311 0 85.1962 15.8575 1351 105.945 129.824 454.314
312 0 85.3813 12.8482 1097 110.512 128.895 456.442
313 0 88.247 14.0061 1236 109.066 128.228 455.298
314 0 91.3352 13.2808 1213 111.153 128.652 452.843
315 0 95.1783 13.3854 1274 110.969 127.002 445.436
316 0 96.8922 14.0775 1364 110.288 126.857 446.611
317 0 99.45 16.4807 1639 106.883 124.832 444.507
318 0 102.28 17.2077 1760 105.119 124.042 447.182
319 0 106.487 13.8702 1477 109.38 123.852 443.475
320 0 108.585 11.2446 1221 114.913 122.812 435.703
321 0 108.585 11.2815 1225 146.694 122.796 435.807
322 1 121.534 10.351 1258 111.238 122.962 427.738
323 0 122.365 22.7762 2787 96.1102 123.09 423.062
324 1 66.2766 15.7974 1047 93.8472 122.839 442.317
325 0 71.3259 11.847 845 97.6734 123.426 447.859
326 0 73.2305 15.5673 1140 95.1667 124.251 442.988
327 0 75.2124 9.79892 737 102.754 124.81 440.924
328 0 74.2534 12.7267 945 98.0127 125.516 445.255
329 0 75.1999 9.52129 716 106.152 124.626 429.757
330 0 81.2956 12.9773 1055 101.571 125.212 435.115
331 0 83.2303 15.379 1280 99.7602 127.135 431.821
332 0 87.1964 14.7483 1286 100.05 127.951 434.977
333 0 88.3106 12.5919 1112 103.611 128.098 429.832
334 0 91.2384 14.5772 1330 101.389 128.562 428.398
335 0 95.2666 15.126 1441 102.009 128.82 432.876
336 0 101.492 13.3213 1352 101.098 129.521 437.521
337 0 104.36 14.9771 1563 109.41 129.465 430.123
338 0 107.173 14.7612 1582 110.129 128.997 428.56
339 0 111.303 16.3787 1823 109.066 131.982 428.695
340 1 58.3668 15.197 887 103.13 132.542 459.232
341 0 63.0534 14.1626 893 105.094 134.102 456.141
342 0 61.1669 10.6921 654 112.677 133.005 453.578
343 0 64.4702 12.6105 813 108.728 132.51 455.54
344 0 68.3059 14.8596 1015 105.224 134.426 452.603
345 0 68.3373 12.8627 879 107.619 134.268 456.347
346 0 70.4139 14.4574 1018 106.127 132.566 455.898
347 0 73.396 14.7147 1080 106.275 133.427 454.557
348 0 77.4418 12.9388 1002 107.528 133.559 458.471
349 0 77.3016 13.6996 1059 107.541 133.444 457.917
350 0 77.3624 12.8745 996 109.961 131.963 455.384
351 0 84.7288 13.0888 1109 110.262 131.894 450.601
352 0 85.3981 14.6725 1253 108.087 132.582 454.085
353 0 87.6841 12.1003 1061 111.441 132.399 450.827
354 0 91.6617 14.3462 1315 108.592 131.931 448.652
355 0 94.3905 12.3318 1164 111.327 130.68 446
356 0 99.6562 14.1286 1408 107.896 128.725 451.377
357 0 99.7901 10.9129 1089 115.417 128.345 441.624
358 0 104.446 13.1359 1372 107.238 127.572 441.822
359 0 107.341 13.7598 1477 104.15 126.012 449.046
360 1 56.2011 11.6368 654 105.861 124.92 466.552
361 0 60.3187 15.4347 931 101.076 126.156 464.187
362 0 61.6283 13.3867 825 103.999 125.875 465.147
363 0 62.3823 15.2287 950 102.195 125.923 462.119
364 0 63.4172 12.9618 822 105.981 124.485 458.108
365 0 64.7546 15.2113 985 101.706 124.623 460.44
366 0 68.3431 11.8959 813 107.296 125.389 455.501
367 0 67.3136 15.3312 1032 104.512 125.354 451.856
368 0 71.6031 17.1082 1225 101.591 125.219 451.489
369 0 72.7657 16.1889 1178 103.185 125.525 450.232
370 0 78.9597 14.5391 1148 105.325 125.436 446.458
371 0 78.1091 14.6462 1144 107.636 125.119 440.129
372 0 79.7748 15.1802 1211 107.64 126.879 439.605
373 0 80.5729 12.6842 1022 108.696 126.774 437.912
374 0 83.5953 13.1108 1096 109.92 128.164 436.326
375 0 92.9078 23.5825 2191 95.2296 126.809 441.359
376 1 46.4906 15.7236 731 102.196 129.33 455.233
377 0 49.4752 10.2475 507 113.479 128.469 455.797
378 0 53.1396 15.5816 828 99.2428 130.604 461.133
379 0 54.1016 13.5486 733 107.754 129.677 459.098
380 0 52.0929 15.434 804 106.251 130.09 460.255
381 0 52.0588 9.06667 472 117.341 129.191 454.828
382 0 57.1415 15.8379 905 104.514 131.411 457.885
383 0 58.1165 18.7554 1090 101.312 131.772 459.027
384 0 59.0629 12.2243 722 109.44 131.839 460.209
385 0 62.093 10.9996 683 110.428 131.067 459.906
386 0 65.091 13.7346 894 108.444 132.751 457.44
387 0 64.1607 12.7025 815 111.861 132.793 457.675
388 0 70.3327 21.7537 1530 98.1993 133.24 461.749
389 0 65.1514 11.2047 730 116.733 133.085 456.463
390 0 70.1501 15.1105 1060 110.95 133.19 457.722
391 0 71.2614 18.0883 1289 106.321 133.277 460.88
392 0 73.2007 13.825 1012 115.083 133.563 455.007
393 0 74.1559 13.8087 1024 115.566 132.099 457.427
394 0 78.1154 17.871 1396 110.147 130.566 457.705
395 0 81.1224 14.4103 1169 114.899 130.392 456.697
396 0 85.2601 14.8839 1269 114.474 131.377 454.531
397 0 86.4956 16.4748 1425 113.368 130.804 453.676
398 1 47.0388 11.2248 528 113.843 128.466 475.428
399 0 46.1407 13.5889 627 115.365 127.707 473.888
400 0 50.0634 13.6427 683 113.41 126.801 473.097
401 0 52.2106 17.6209 920 105.732 127.63 472.76
402 0 54.2434 14.8958 808 110.193 126.699 472.65
403 0 54.1112 14.2484 771 112.532 126.067 467.027
404 0 59.3361 12.7578 757 112.053 126.185 469.135
405 0 57.2161 16.5688 948 108.92 125.846 465.999
406 0 58.1586 13.979 813 114.603 124.945 462.779
407 0 61.1702 20.8108 1273 104.945 125.124 461.955
408 0 61.1702 20.7617 1270 121.114 125.146 462.009
409 0 65.1038 15.867 1033 110.965 122.393 461.62
410 0 66.1066 15.9742 1056 113.116 124.405 454.17
411 0 70.137 16.1969 1136 112.795 122.873 454.127
412 0 72.2156 21.8789 1580 104.251 123.118 456.233
413 0 74.2468 15.4485 1147 113.602 123.443 453.091
414 0 73.2002 14.1393 1035 118.002 123.714 449.072
415 0 77.1853 14.7696 1140 116.877 124.318 446.789
416 0 77.3544 14.8408 1148 117.853 124.491 445.989
417 0 83.3088 13.1799 1098 119.914 125.494 444.067
418 0 85.2505 12.0468 1027 121.848 128.984 444.063
419 0 84.2025 14.3701 1210 120.18 129.62 438.874
420 0 89.3613 13.5853 1214 120.119 129.647 439.433
421 0 93.192 15.8383 1476 116.111 129.768 437.162
422 0 97.5868 16.4059 1601 114.44 131.77 439.45
423 0 96.1672 14.9531 1438 118.522 132.18 437.207
424 0 100.336 14.0129 1406 119.551 132.85 434.924
425 0 101.436 13.6441 1384 120.616 133.864 433.436
426 0 104.153 13.1154 1366 121.381 134.932 431.936
427 0 110.438 15.0129 1658 117.672 134.679 431.366
428 0 116.602 17.0838 1992 113.626 133.567 431.48
429 0 121.675 13.3716 1627 118.119 134.615 432.272
430 1 65.5751 14.045 921 114.874 134.739 451.528
431 0 68.6358 12.4134 852 114.81 134.819 458.796
432 0 74.2941 20.3112 1509 104.394 136.521 451.199
433 0 74.1752 14.3175 1062 111.65 136.026 455.437
434 0 77.3692 14.2951 1106 111.618 135.783 454.441
435 0 79.3195 14.7505 1170 111.228 134.938 455.35
436 0 81.2232 12.2748 997 114.642 135.106 456.937
437 0 84.2191 13.1918 1111 115.229 134.257 451.381
438 0 89.1704 13.906 1240 113.107 134.739 453.753
439 0 89.1656 11.9441 1065 116.436 134.08 454.626
440 0 95.1406 14.8517 1413 112.41 133.211 450.597
441 0 97.2906 16.0242 1559 111.602 132.64 443.124
442 0 97.2613 12.2556 1192 118.527 131.13 448.55
443 1 56.3384 11.1824 630 112.794 129.67 472.505
444 0 57.2963 9.72139 557 118.018 128.476 464.768
445 0 57.2818 10.0032 573 110.283 129.438 453.969
446 0 59.1818 14.2443 843 100.902 127.37 459.607
447 0 63.1295 13.6069 859 107.176 125.928 466.756
448 0 62.3074 11.363 708 112.715 125.058 462.345
449 0 65.397 11.392 745 112.85 124.94 461.748
450 0 68.0987 12.012 818 111.564 124.224 460.935
451 0 70.2461 12.2711 862 110.688 123.276 460.541
452 0 72.3489 13.6699 989 108.545 123.441 456.46
453 0 75.0984 13.9417 1047 109.979 123.452 451.061
454 0 79.239 15.876 1258 103.427 123.874 460.343
455 0 79.2921 9.87488 783 115.063 123.033 454.309
456 0 84.4067 11.8711 1002 113.316 122.916 451.937
457 0 85.2264 12.3905 1056 114.271 123.902 446.076
458 0 90.3076 12.2027 1102 113.467 123.144 444.346
459 0 94.1312 10.8678 1023 116.474 123.802 444.206
460 1 145.555 17.2375 2509 106.811 125.355 429.089
461 1 101.627 13.8841 1411 112.296 125.773 436.335
462 0 107.237 13.279 1424 110.768 126.532 437.813
463 0 111.252 16.2784 1811 105.17 126.208 439.033
464 1 59.1225 13.9879 827 102.96 126.851 462.277
465 0 60.2092 16.3596 985 104.294 127.525 457.245
466 0 60.2469 13.677 824 108.13 126.735 456.814
467 0 63.132 12.1808 769 114.039 127.285 460.746
468 0 66.3762 14.3726 954 111.81 126.997 456.853
469 0 69.2182 19.3735 1341 104.008 128.125 457.969
470 0 72.0981 15.1183 1090 108.628 129.553 460.4
471 0 71.1676 12.7305 906 115.268 129.794 454.173
472 0 74.1262 13.3016 986 114.022 129.307 456.057
473 0 79.2704 17.0429 1351 106.005 129.366 461.038
474 0 79.231 15.8271 1254 108.009 128.996 455.71
475 0 77.1835 12.1529 938 115.21 129.749 457.859
476 0 83.0929 15.7174 1306 108.216 129.662 455.903
477 0 82.235 12.5859 1035 114.417 129.505 459.051
478 0 86.3042 15.7814 1362 109.543 129.518 454.032
479 0 89.415 14.5054 1297 111.597 127.775 457.667
480 0 92.3429 14.2187 1313 111.933 127.746 460.935
481 0 97.4318 16.4731 1605 107.69 127.478 459.33
482 0 100.322 15.54 1559 107.877 128.74 457.03
483 0 97.2342 8.45382 822 119.001 128.393 456.192
484 0 101.41 10.5414 1069 116.072 126.592 453.495
485 0 107.241 16.0106 1717 107.098 126.296 460.432
486 0 110.361 15.3134 1690 111.044 125.369 450.792
487 1 57.1395 9.59057 548 117.17 126.274 472.272
488 0 60.1662 12.6815 763 113.063 125.375 474.05
489 0 63.2144 12.6395 799 106.768 123.797 476.524
490 0 58.0418 9.30364 540 112.907 123.274 474.707
491 0 65.2694 11.9658 781 107.809 123.932 476.914
492 0 68.0995 13.8474 943 106.108 122.883 471.225
493 0 72.1375 16.5379 1193 102.689 122.425 467.028
494 0 70.112 10.0981 708 111.278 122.229 467.462
495 0 75.3052 14.2089 1070 104.112 121.42 465.176
496 0 77.1371 14.1048 1088 106.086 122.272 459.825
497 0 80.2579 11.6375 934 109.89 121.974 459.222
498 0 79.1665 15.2969 1211 106.948 120.177 454.815
499 0 80.0668 13.3264 1067 110.707 120.557 453.505
500 0 87.1563 13.7913 1202 108.187 121.23 451.909
501 0 92.2529 14.4061 1329 106.792 121.434 449.497
502 0 93.2412 15.7548 1469 107.715 121.967 439.927
503 0 100.503 20.0789 2018 100.032 121.758 442.785
504 0 100.233 12.491 1252 110.502 123.646 438.337
505 1 54.0989 14.2332 770 102.666 124.206 462.475
506 0 52.3767 11.3218 593 110.899 122.852 457.474
507 0 51.2268 8.96015 459 109.294 126.588 457.501
508 1 109.636 14.1195 1548 107.172 126.045 433.862
509 1 57.3254 12.1587 697 104.587 127.492 457.956
510 0 63.0475 12.1179 764 105.509 128.471 454.586
511 0 60.0447 12.524 752 106.812 129.041 452.855
512 0 63.1328 11.3095 714 108.338 129.786 452.794
513 0 60.0443 13.923 836 105.343 130.868 457.145
514 0 65.1101 12.3022 801 106.717 130.879 456.93
515 0 68.098 16.3147 1111 103.844 131.284 455.391
516 0 68.0628 10.0348 683 114.138 131.82 451.436
517 0 68.1409 13.5601 924 109.527 131.845 454.308
518 0 75.0796 14.6511 1100 110.04 132.84 459.61
519 0 78.0984 15.5957 1218 109.451 131.962 458.142
520 0 79.1959 13.1572 1042 113.03 130.879 460.91
521 0 80.1253 13.3541 1070 112.277 130.757 461.603
522 0 83.3108 13.4676 1122 111.6 129.914 456.575
523 0 86.3793 9.87506 853 117.191 129.701 457.363
524 0 86.107 12.6819 1092 112.228 128.529 453.283
525 0 92.0659 12.5997 1160 110.389 128.55 458.278
526 1 51.1143 13.3035 680 104.888 128.06 478.151
527 0 52.3233 13.7797 721 104.928 126.223 480.623
528 0 51.1741 10.435 534 107.927 123.953 481.822
529 0 50.3436 10.9448 551 108.552 123.417 483.252
530 0 52.1633 12.25 639 107.859 122.056 478.191
531 0 54.152 13.4436 728 105.864 121.141 480.42
532 0 55.1582 11.9837 661 109.985 121.101 476.126
533 0 57.2142 14.7865 846 106.89 120.297 474.684
534 0 59.1475 15.3007 905 105.028 120.292 477.032
535 0 64.1588 10.4896 673 112.526 119.707 472.193
536 0 64.4678 11.5562 745 109.784 119.714 473.909
537 0 65.1434 13.4012 873 109.371 119.058 467.045
538 0 68.1923 13.7846 940 107.144 118.703 468.014
539 0 71.1701 15.203 1082 104.591 119.814 466.27
540 0 72.3047 12.9037 933 108.617 118.467 463.313
541 0 76.1686 17.8682 1361 102.099 118.179 464.415
542 0 76.2793 12.7295 971 110.249 118.511 460.151
543 0 78.5484 14.386 1130 108.42 119.374 457.596
544 0 83.2633 19.1681 1596 101.734 120.279 458.459
545 0 85.4185 13.3812 1143 112.591 120.986 451.922
546 0 89.2037 16.4231 1465 107.416 121.043 451.128
547 0 92.2233 15.8203 1459 107.157 121.146 451.398
548 0 97.3882 16.0286 1561 105.361 121.953 449.147
549 0 100.803 20.0887 2025 99.1941 122.36 451.327
550 0 102.47 22.4553 2301 99.2712 122.678 441.689
551 0 100.671 11.8306 1191 111.766 124.096 441.557
552 0 106.595 19.316 2059 103.145 124.989 437.543
553 0 112.162 12.4463 1396 109.728 126.374 439.225
554 1 56.5992 12.2263 692 107.162 126.645 461.997
555 0 63.2814 24.3041 1538 92.0572 126.54 460.902
556 0 67.163 16.0654 1079 99.2039 128.024 465.779
557 0 67.3482 15.264 1028 102.104 128.572 462.461
558 0 69.2146 15.9648 1105 101.871 129.641 463.131
559 0 69.5372 12.31 856 106.959 128.911 463.876
560 0 71.4242 14.7989 1057 105.021 128.327 460.509
561 0 75.4128 15.2494 1150 104.183 129.45 461.471
562 0 79.4961 14.1265 1123 105.203 128.354 462.679
563 0 81.374 21.2967 1733 97.9406 127.99 459.349
564 0 82.4423 13.4882 1112 107.977 128.092 460.826
565 0 88.4519 14.539 1286 105.382 127.677 463.061
566 0 89.4931 17.8449 1597 102.833 127.917 454.898
567 0 90.419 16.1913 1464 105.544 127.796 457.676
568 0 93.506 13.7531 1286 109.666 127.927 456.815
569 1 50.2999 13.3201 670 106.206 127.024 480.525
570 0 54.4673 12.9436 705 107.723 126.767 476.665
571 0 54.7075 9.74272 533 112.173 125.259 476.994
572 0 51.5107 10.2309 527 113.808 123.664 474.759
573 0 55.7229 13.1364 732 108.049 122.654 475.51
574 0 56.2846 14.7287 829 104.797 124.121 474.212
575 0 57.2849 14.5064 831 106.071 123.691 473.995
576 0 61.1988 13.8075 845 106.285 122.456 474.518
577 0 61.2801 16.6938 1023 102.268 122.553 475.765
578 0 64.2185 14.3728 923 106.623 122.444 469.73
579 0 68.1672 17.4571 1190 102.276 121.824 465.838
580 0 68.3111 16.2638 1111 102.512 123.336 467.003
581 0 66.1617 10.9882 727 112.598 122.051 458.707
582 0 76.3368 15.7198 1200 104.562 121.782 456.924
583 0 75.2057 12.9511 974 109.557 122.888 457.5
584 0 77.4048 15.1799 1175 106.827 123.591 452.437
585 0 82.3106 16.62 1368 104.214 123.179 451.005
586 0 82.1712 12.5105 1028 110.088 123.714 448.978
587 0 84.2775 14.9031 1256 107.619 124.063 443.557
588 0 91.4154 18.0495 1650 101.993 125.146 445.917
589 0 88.0998 10.7719 949 112.448 125.081 435.738
590 0 90.1828 14.6702 1323 107.411 124.273 429.883
591 0 97.253 17.4802 1700 101.493 124.072 441.494
592 0 97.569 21.6257 2110 100.209 124.488 430.341
593 0 101.454 16.234 1647 104.913 124.908 430.689
594 0 105.917 23.7922 2520 96.3448 124.648 435.796
595 0 111.692 17.4676 1951 103.678 126.161 422.088
596 1 56.1431 9.10175 511 106.961 125.164 450.796
597 0 57.1413 10.3953 594 105.062 126.717 452.466
598 0 60.1857 12.1291 730 100.871 129.001 451.447
599 0 63.3395 10.2464 649 102.359 128.373 453.968
600 0 70.2122 16.7492 1176 94.2798 128.961 458.28
601 0 68.1808 10.1495 692 103.678 129.448 453.606
602 0 74.2581 16.0656 1193 96.306 129.467 453.003
603 0 77.2603 18.8454 1456 93.785 129.698 454.554
604 0 74.1644 11.9195 884 103.053 129.695 449.877
605 0 78.2817 12.2762 961 101.703 130.285 452.976
606 0 81.3484 13.5344 1101 99.8347 130.258 454.755
607 0 82.0901 16.421 1348 96.3583 127.621 456.784
608 0 85.3928 11.652 995 103.7 128.812 455.753
609 0 91.225 14.8315 1353 100.828 129.085 456.075
610 0 92.4065 13.6895 1265 112.312 127.568 455.301
611 0 102.337 12.4393 1273 110.705 127.246 461.37
612 0 103.489 13.4507 1392 111.691 128.66 453.922
613 0 104.416 13.3792 1397 112.654 127.802 451.944
614 0 103.548 5.74612 595 119.57 126.662 446.272
615 0 109.477 11.5823 1268 109.676 124.734 445.993
616 0 112.358 11.8372 1330 108.25 124.167 451.029
617 1 62.1656 24.1613 1502 89.7084 122.311 473.997
618 0 62.0798 13.7404 853 100.959 121.469 469.386
619 0 64.3126 12.0505 775 101.259 120.511 470.404
620 0 65.2855 11.6412 760 102.591 120.486 467.441
621 0 69.2193 15.8337 1096 96.9078 120.845 465.533
622 0 71.4319 15.6513 1118 97.4293 119.86 460.968
623 0 73.466 14.4012 1058 99.0274 119.584 462.761
624 0 77.2927 12.1486 939 101.294 119.572 460.782
625 0 76.244 11.4632 874 102.756 119.28 459.459
626 0 76.2629 14.7778 1127 100.823 120.898 453.264
627 0 80.3504 10.8898 875 105.198 120.051 453.951
628 0 84.4045 16.8119 1419 97.2678 121.109 446.602
629 0 85.3489 11.7166 1000 104.508 120.469 449.632
630 0 90.251 13.7284 1239 102.291 120.571 447.048
631 1 48.1453 11.4238 550 103.378 118.636 465.864
632 0 49.1634 10.8617 534 104.916 120.431 466.028
633 0 51.1701 9.77133 500 104.932 119.088 465.602
634 0 54.1982 22.5469 1222 89.3052 120.273 468.76
635 0 51.0399 14.2438 727 101.726 122.59 464.056
636 0 54.1903 16.7927 910 97.3648 122.578 458.911
637 0 55.1939 13.6972 756 101.829 123.311 460.86
638 0 54.2208 13.2975 721 102.879 124.535 462.542
639 0 57.1765 12.4877 714 104.86 124.913 461.111
640 0 61.3263 15.3931 944 99.5975 125.791 460.756
641 0 62.2644 13.1696 820 104.227 125.518 459.709
642 0 66.1374 17.1915 1137 99.0888 127.579 458.417
643 0 65.1529 14.9648 975 102.481 126.876 461.556
644 0 71.2241 16.9184 1205 99.6921 127.207 457.794
645 0 71.2512 15.9436 1136 101.502 127.378 457.274
646 0 74.1504 15.2528 1131 102.565 126.708 460.304
647 0 77.4 19.5607 1514 98.1281 127.52 456.087
648 0 81.3006 14.5386 1182 103.607 127.926 458.035
649 0 80.1294 12.2053 978 107.686 126.708 456.945
650 0 85.3393 12.714 1085 106.649 126.87 458.411
651 0 88.2004 15.5782 1374 103.217 126.365 454.609
652 0 90.3291 14.6686 1325 104.136 127.365 455.851
653 0 93.2551 16.3316 1523 102.481 127.353 455.689
654 1 48.1104 10.1433 488 109.656 125.123 476.617
655 0 51.0633 11.5151 588 108.571 123.83 471.155
656 0 51.3455 9.87429 507 101.037 126.195 473.002
657 0 54.3065 11.4167 620 98.6645 126.334 474.269
658 0 55.0756 11.7838 649 105.225 124.455 477.775
659 0 58.3804 17.8142 1040 95.7673 123.332 477.068
660 0 55.3714 9.40919 521 108.37 121.397 468.62
661 0 58.2491 12.2577 714 104.657 121.252 467.176
662 0 58.4918 9.28336 543 108.359 121.227 470.083
663 0 61.1236 11.4195 698 107.304 120.874 472.371
664 0 66.1668 13.3602 884 106.531 120.15 467.317
665 0 67.089 11.373 763 109.235 120.109 464.512
666 0 67.1135 8.85067 594 111.219 119.025 466.236
667 0 75.0866 13.3446 1002 106.259 119.471 458.833
668 0 76.1191 16.8026 1279 99.2346 118.327 463.611
669 0 78.6202 12.1343 954 104.491 119.151 463.331
670 0 80.0816 13.4488 1077 104.851 119.951 456.685
671 0 84.1501 14.8782 1252 103.327 119.627 454.264
672 1 41.3391 11.4662 474 106.124 120.112 468.401
673 0 43.1801 7.92032 342 104.787 120.74 466.006
674 0 45.1599 14.1719 640 98.4594 121.347 463.838
675 0 47.4217 17.2073 816 96.2831 121.922 462.985
676 0 48.1129 8.33456 401 105.963 121.918 462.646
677 0 49.2995 11.1969 552 100.891 122.632 461.746
678 0 54.3476 18.9889 1032 90.1444 123.023 467.161
679 0 53.2186 12.195 649 101.1 124.43 459.317
680 0 56.2208 10.939 615 103.018 125.707 461.229
681 0 57.2183 13.9815 800 101.094 126.036 456.259
682 0 60.2589 11.7327 707 102.881 126.28 459.932
683 0 59.1993 14.8819 881 99.5301 126.121 461.01
684 0 62.2566 13.0588 813 101.807 127.339 459.879
685 0 63.3073 10.1726 644 107.408 127.911 455.578
686 0 67.2382 10.619 714 105.542 129.595 459.2
687 0 70.1726 12.9538 909 102.551 128.068 459.909
688 0 71.254 9.97838 711 106.425 128.532 457.267
689 0 76.1234 12.9789 988 102.305 128.577 458.272
690 0 75.45 13.2141 997 103.339 128.926 451.892
691 0 80.2186 13.5131 1084 101.559 127.379 457.597
692 0 83.3486 8.93836 745 107.644 127.815 453.894
693 0 84.3907 10.5106 887 105.441 128.382 457.842
694 0 92.263 14.1444 1305 99.6376 128.994 460.656
695 0 92.393 11.0073 1017 102.969 130.037 463.235
696 0 95.1371 12.1194 1153 102.775 129.552 456.516
697 0 97.293 9.66154 940 105.756 127.594 462.246
698 0 102.389 10.2062 1045 107.1 127.629 462.742
699 0 104.445 11.9489 1248 105.102 126.416 460.514
700 1 56.1767 12.3717 695 103.191 126.396 478.568
701 0 57.2579 13.3606 765 100.016 126.468 479.514
702 0 58.3742 10.6896 624 105.143 125.38 476.196
703 0 61.1694 12.9967 795 101.02 125.454 476.936
704 0 62.1234 9.91575 616 105.343 124.748 476.36
705 0 62.1517 14.8508 923 99.429 122.992 475.298
706 0 66.2852 12.3104 816 104.06 122.537 469.472
707 0 67.1409 10.8578 729 105.56 122.307 469.041
708 0 71.1383 13.4808 959 103.04 121.647 465.204
709 0 76.4753 13.4553 1029 99.931 122.049 470.832
710 0 77.2886 13.0938 1012 103.514 122.382 463.657
711 0 79.4649 14.7361 1171 101.342 121.818 459.257
712 0 83.3517 15.4526 1288 100.609 121.902 459.672
713 0 89.4126 16.4183 1468 98.7929 120.517 458.03
714 0 90.3141 15.125 1366 101.759 122.835 456.025
715 0 95.3862 13.9748 1333 104.11 121.102 454.23
716 0 101.437 15.7438 1597 101.433 122.607 450.387
717 0 101.334 17.6643 1790 100.752 122.608 445.668
718 1 54.2301 13.9775 758 102.695 124.463 470.959
719 0 54.0741 13.1116 709 103.19 123.797 468.575
720 0 57.1629 12.893 737 103.972 125.501 465.563
721 0 57.0963 20.6668 1180 95.4136 124.378 468.816
722 0 63.2698 18.7293 1185 95.6684 125.487 468.846
723 0 65.1366 14.815 965 103.131 125.691 465.491
724 0 64.1858 15.7667 1012 103.288 126.207 463.248
725 0 68.1642 18.3821 1253 99.2953 126.976 463.884
726 0 70.1954 13.961 980 105.524 127.886 460.87
727 0 73.2913 19.1155 1401 97.9372 128.493 465.874
728 0 73.2626 14.3047 1048 106.585 128.989 455.444
729 0 76.1378 16.4176 1250 103.806 129.481 460.885
730 0 80.2359 14.3327 1150 106.781 129.814 458.791
731 0 82.2474 14.9063 1226 106.135 130.236 461.177
732 0 81.3105 13.7867 1121 109.484 129.647 460.245
733 0 89.3929 18.2789 1634 102.602 129.955 455.748
734 0 88.3508 12.009 1061 112.317 130.016 459.972
735 0 95.2505 16.2414 1547 106.51 129.326 458.621
736 0 94.175 11.3937 1073 114.073 130.055 458.528
737 0 102.325 15.1771 1553 107.721 129.453 453.521
738 0 103.188 16.184 1670 104.429 127.196 451.243
739 1 55.2676 14.8731 822 105.283 125.117 476.899
740 0 55.2172 15.6835 866 104.238 125.56 478.134
741 0 58.3253 14.9335 871 106.255 125.503 473.473
742 0 60.153 12.9836 781 108.27 125.469 477.191
743 0 62.2254 16.8581 1049 104.131 123.878 476.242
744 0 63.4143 16.1951 1027 105.348 123.23 475.322
745 0 65.2544 17.4548 1139 105.09 123.313 472.422
746 0 66.1646 15.6126 1033 107.953 122.838 471.623
747 0 68.0771 16.4519 1120 106.766 121.572 469.024
748 0 70.2602 13.4073 942 111.979 122.068 468.373
749 0 71.1233 15.0443 1070 109.612 120.656 467.75
750 0 75.152 16.6463 1251 108.5 121.027 464.695
751 0 77.3243 14.6138 1130 110.963 120.009 463.573
752 0 81.127 14.8656 1206 108.914 120.065 461.024
753 0 83.1771 13.0445 1085 111.832 120.441 455.075
754 0 86.2148 19.6138 1691 103.306 121.642 452.878
755 0 89.3848 13.5929 1215 112.022 120.23 452.7
756 1 50.1377 18.0702 906 104.39 118.786 472.685
757 0 51.0369 14.0486 717 111.216 120.071 469.515
758 0 53.1485 13.0766 695 111.422 123.776 464.776
759 0 53.2187 14.5626 775 109.117 124.521 463.312
760 0 54.1396 18.6001 1007 102.673 123.533 462.44
761 0 57.1807 14.9176 853 106.914 124.675 463.95
762 0 61.1884 20.0855 1229 99.7014 124.474 463.962
763 0 60.2013 13.3054 801 110.152 126.275 463.236
764 0 63.1283 19.6584 1241 99.9138 126.249 465.466
765 0 63.0911 10.8256 683 113.023 128.521 465.712
766 0 67.2784 15.4136 1037 107.086 127.531 456.458
767 0 68.1407 15.9376 1086 105.958 128.017 461.518
768 0 68.2011 12.3458 842 113.494 128.52 457.713
769 0 72.3185 15.8051 1143 106.851 129.643 460.18
770 0 74.1025 12.4017 919 113.022 130.419 455.829
771 0 78.1629 17.5147 1369 105.181 130.184 452.722
772 0 81.1841 14.7935 1201 108.729 129.729 456.425
773 0 82.1047 15.0052 1232 109.613 130.544 454.917
774 0 89.205 17.6335 1573 104.492 130.594 454.107
775 0 90.1289 16.0104 1443 107.042 131.082 453.765
776 0 92.2873 15.5276 1433 108.548 131.201 449.776
777 0 94.1221 14.8212 1395 110.529 130.795 451.171
778 0 96.444 14.371 1386 110.27 130.748 452.433
779 0 98.2769 16.3721 1609 108.902 130.066 455.04
780 0 100.121 13.6734 1369 112.623 130.515 453.126
781 1 55.0935 12.3064 678 113.925 130.786 472.94
782 0 55.1596 11.512 635 113.189 128.906 473.962
783 0 59.2213 12.6306 748 110.705 128.242 467.91
784 0 58.185 8.43861 491 111.44 128.153 476.923
785 0 59.2908 9.25945 549 111.71 126.361 473.339
786 0 67.0892 19.7945 1328 97.378 125.45 472.766
787 0 67.1666 12.0447 809 108.213 126.206 470.7
788 0 72.2394 17.3728 1255 100.367 125.749 468.442
789 0 75.1674 17.1484 1289 100.355 125.656 468.13
790 0 78.3035 15.9252 1247 101.872 125.324 466.335
791 0 77.2639 12.4767 964 108.281 125.037 462.74
792 0 81.5647 16.5513 1350 102.166 124.185 462.922
793 0 83.2496 17.8499 1486 101.208 124.699 461.086
794 0 83.096 12.3111 1023 110.498 124.471 454.902
795 0 89.3259 14.9117 1332 105.24 123.31 457.005
796 0 93.4059 14.2282 1329 107.959 123.843 450.113
797 0 96.3942 17.9886 1734 101.809 124.357 455.111
798 0 100.721 17.3847 1751 102.018 124.182 455.413
799 0 102.334 13.2019 1351 110.604 123.632 447.279
800 0 107.336 16.5183 1773 106.83 122.818 443.864
801 1 57.3901 12.6677 727 111.417 124.087 460.21
802 0 59.532 17.3688 1034 103.201 123.127 464.099
803 0 63.4755 13.5958 863 109.293 124.123 463.38
804 0 64.4359 15.3796 991 107.229 125.21 463.66
805 0 66.3977 13.2384 879 110.126 126.314 458.871
806 0 70.2579 13.8063 970 108.767 126.516 460.07
807 0 72.3171 15.9713 1155 107.519 126.358 456.548
808 0 73.2569 15.1931 1113 109.194 128.711 456.156
809 0 74.3616 14.4026 1071 111.825 128.965 454.258
810 0 76.2603 13.6375 1040 113.054 129.502 452.64
811 0 80.3997 14.9627 1203 111.279 129.244 454.768
812 0 81.3106 14.8566 1208 112.747 129.228 453.987
813 0 83.3612 12.2719 1023 118.315 130.28 451.551
814 0 91.4268 18.5285 1694 106.322 130.292 455.12
815 0 91.6609 13.6372 1250 114.709 130.366 452.151
816 0 95.0282 13.2276 1257 114.435 131.206 452.234
817 0 97.0504 14.3534 1393 115.215 130.79 449.319
818 0 97.1056 14.8395 1441 117.113 130.105 441.749
819 0 103.031 16.199 1669 113.977 130.356 444.464
820 0 105.599 14.5362 1535 117.883 130.711 444.203
821 1 59.7917 14.584 872 110.505 131.237 470.494
822 0 60.225 11.8721 715 114.399 130.415 471.07
823 0 63.3995 16.7509 1062 107.153 129.786 470.036
824 0 65.3046 15.2669 997 110.482 129.416 468.166
825 0 66.2571 11.9685 793 116.339 127.989 467.021
826 0 67.3238 11.1996 754 116.988 129.2 468.235
827 0 72.3402 13.9065 1006 114.279 127.723 465.78
828 0 75.2959 13.4934 1016 115.49 128.071 465.628
829 0 79.3262 17.3335 1375 109.724 126.577 462.305
830 0 79.5697 11.9392 950 118.774 126.373 463.781
831 0 82.3276 14.1994 1169 116.308 125.669 460.482
832 0 85.5429 16.5414 1415 113.348 124.933 457.047
833 0 91.6611 18.0775 1657 110.907 123.963 452.042
834 0 94.0134 20.2631 1905 108.218 123.735 450.709
835 0 98.0448 13.0451 1279 118.233 124.28 449.976
836 1 50.6156 16.2993 825 110.545 123.617 468.275
837 0 52.5829 15.7276 827 110.78 124.172 467.676
838 0 54.4975 12.9731 707 114.222 122.472 467.794
839 0 56.6172 14.9778 848 110.337 122.033 467.744
840 0 58.1137 13.6629 794 109.292 124.456 469.052
841 0 57.0592 11.935 681 113.868 125.421 464.902
842 0 61.0863 14.1439 864 109.841 125.215 463.991
843 0 63.1023 13.4226 847 110.841 124.404 464.302
844 0 62.1373 13.4219 834 113.146 125.281 457.647
845 0 69.2063 14.3628 994 108.599 125.373 458.288
846 0 70.2734 13.6467 959 109.619 123.834 457.054
847 0 78.762 14.7152 1159 107.951 125.431 457.883
848 0 77.2321 18.0106 1391 105.933 127.388 454.824
849 0 76.0963 13.8509 1054 113.613 127.546 449.526
850 0 80.0997 13.8952 1113 112.444 129.184 448.504
851 0 84.4293 17.0675 1441 104.734 128.183 456.444
852 0 87.3927 17.2211 1505 106.958 129.426 451.971
853 0 90.6036 14.0171 1270 112.358 127.957 448.774
854 0 92.6322 15.3726 1424 111.13 130.176 444.579
855 1 50.1729 11.7793 591 112.876 130.54 464.294
856 0 55.2203 14.415 796 104.247 131.167 468.839
857 0 55.2536 17.1753 949 100.163 131.181 470.068
858 0 50.3533 9.41349 474 113.188 131.842 462.032
859 0 56.2978 11.9898 675 108.41 131.736 468.711
860 0 57.225 16.042 918 103.704 131.229 467.113
861 0 64.326 13.245 852 105.437 132.811 466.506
862 0 61.3943 14.2684 876 105.686 131.814 468.209
863 0 62.262 15.1778 945 104.665 131.747 467.708
864 0 61.2758 11.897 729 110.989 130.224 464.033
865 0 63.3451 11.2242 711 111.401 130.243 464.284
866 0 72.4753 20.6277 1495 97.0054 130.782 464.235
867 0 70.1856 12.3387 866 109.613 130.244 465.044
868 0 73.3877 13.9533 1024 105.691 129.967 465.086
869 0 74.309 9.3663 696 112.397 129.659 464.139
870 0 81.4905 20.4196 1664 95.1478 128.73 470.144
871 0 82.377 14.64 1206 104.814 128.689 462.268
872 0 85.3774 14.7229 1257 104.819 128.036 463.545
873 1 43.2233 9.41622 407 110.216 129.359 479.953
874 0 46.0699 10.6143 489 107.472 128.556 478.716
875 0 47.1061 10.6568 502 107.01 128.821 475.707
876 0 49.2129 14.0207 690 102.183 128.648 473.503
877 0 50.1829 14.8058 743 100.774 127.069 472.264
878 0 50.1099 13.5502 679 103.113 126.059 469.423
879 0 54.507 18.3096 998 95.7445 125.142 471.597
880 0 51.0337 9.66029 493 109.897 126.456 466.937
881 0 57.161 12.9109 738 103.911 124.837 468.362
882 0 57.4424 10.689 614 107.391 124.752 464.59
883 0 60.1115 11.462 689 106.099 124.491 465.756
884 0 61.1319 16.1454 987 100.467 124.792 461.422
885 0 64.2637 14.1915 912 100.997 124.882 461.203
886 0 64.0914 12.2793 787 105.036 125.596 457.286
887 0 67.1325 10.2186 686 107.048 126.345 453.732
888 0 65.3142 11.7739 769 105.871 125.625 455.694
889 0 65.3142 11.7126 765 132.28 125.607 455.618
890 0 74.2217 13.4866 1001 100.787 126.216 458.393
891 0 74.2852 11.9539 888 104.307 127.465 452.392
892 0 78.1438 9.18819 718 106.726 128.072 445.511
893 0 82.4085 17.0492 1405 96.1302 128.059 449.105
894 0 85.2131 11.5358 983 102.306 129.63 449.967
895 0 85.2454 14.1826 1209 99.9074 128.845 452.379
896 0 82.1459 11.3822 935 103.292 126.082 452.32
897 1 46.1044 10.0207 462 103.63 125.851 465.221
898 0 48.2114 10.7444 518 101.979 126.788 461.637
899 0 49.1101 13.1337 645 97.0605 126.777 467.076
900 0 52.1275 14.7139 767 94.9922 127.537 465.069
901 0 52.1021 13.416 699 97.7439 127.82 467.601
902 0 52.1986 8.37188 437 102.059 128.437 466.648
903 0 56.1838 18.2971 1028 90.9484 128.526 467.519
904 0 56.3074 12.6626 713 96.1206 129.205 465.893
905 0 60.2159 17.1715 1034 91.7573 128.378 466.331
906 0 60.1104 11.6452 700 97.57 127.687 466.024
907 0 61.3568 14.5542 893 94.6741 128.197 462.645
908 0 64.0551 11.818 757 98.1823 127.649 468.284
909 0 69.5463 16.924 1177 91.7358 127.528 461.635
910 0 69.1417 13.6387 943 95.1803 126.621 470.348
911 0 74.205 15.3763 1141 94.1998 126.905 465.056
912 0 72.2887 12.0766 873 99.1581 126.079 464.706
913 0 75.2703 11.917 897 99.6566 124.452 463.337
914 0 82.2221 18.6203 1531 91.74 125.054 462.999
915 0 85.2832 16.8028 1433 94.1961 125.308 456.062
916 0 85.2013 13.1336 1119 99.0795 123.636 459.647
917 1 50.1202 11.1332 558 102.253 121.939 475.702
918 0 51.05 9.26543 473 106.254 120.934 480.421
919 0 55.3732 12.9666 718 99.5571 121.773 479.837
920 0 54.2239 11.9689 649 102.308 123.003 474.464
921 0 54.1678 13.8643 751 100.786 121.656 471.602
922 0 57.173 11.9287 682 102.877 121.23 471.444
923 0 58.1362 10.2174 594 108.702 121.189 467.054
924 0 59.1968 12.1459 719 105.374 120.204 466.764
925 0 63.2379 11.1642 706 104.197 120.074 470.171
926 0 65.1004 12.3194 802 103.91 120.709 459.663
927 0 71.5089 14.7954 1058 98.7372 120.798 463.73
928 0 68.1442 13.5888 926 104.219 121.569 458.449
929 0 71.1357 15.4493 1099 100.17 122.211 459.204
930 0 72.1249 14.3085 1032 101.402 121.423 458.562
931 0 74.3375 15.9274 1184 97.8826 121.695 459.464
932 0 75.1708 18.744 1409 95.9787 121.396 457.16
933 0 79.1205 13.7259 1086 102.316 123.268 451.885
934 0 82.198 17.0564 1402 96.7361 123.193 456.304
935 0 83.1639 15.3793 1279 99.8006 124.198 449.813
936 0 87.2052 18.0953 1578 96.109 125.204 447.059
937 0 88.319 19.3616 1710 94.0556 125.57 449.272
938 0 90.312 10.2976 930 104.525 126.038 447.141
939 0 95.2295 14.0608 1339 101.413 127.01 440.443
940 1 51.123 14.1228 722 98.1842 125.857 467.181
941 0 52.0783 12.8652 670 100.012 126.381 462.337
942 0 53.6473 14.2412 764 99.1741 127.914 459.544
943 0 56.2539 14.7012 827 97.8102 127.261 459.962
944 0 57.1593 12.054 689 102.469 128.015 467.46
945 0 59.193 13.2279 783 101.082 127.903 462.613
946 0 59.078 12.0011 709 103.718 126.495 465.858
947 0 69.7884 14.501 1012 97.6502 127.572 465.275
948 0 67.0564 20.1025 1348 91.546 127.334 469.502
949 0 69.1093 11.1996 774 103.448 128.132 467.08
950 0 71.16 16.2451 1156 97.4351 128.142 466.377
951 0 74.2712 12.5082 929 100.511 127.589 468.235
952 0 74.3276 19.562 1454 93.4539 127.935 467.937
953 0 76.15 11.8713 904 103.069 127.362 463.072
954 0 77.1972 12.3839 956 102.008 127.236 468.711
955 0 85.2236 17.2018 1466 96.0437 126.228 464.98
956 0 85.284 13.5547 1156 101.33 126.142 461.546
957 0 90.13 18.0628 1628 95.9208 125.014 461.246
958 0 88.2051 12.0741 1065 104.198 124.626 459.001
959 0 95.4486 16.8572 1609 97.4686 124.894 457.029
960 0 95.2292 15.8565 1510 98.5848 123.711 458.103
961 0 100.34 15.7564 1581 98.6369 122.434 456.092
962 0 101.303 15.883 1609 98.4382 121.667 452.215
963 0 102.077 14.352 1465 100.58 123.77 454.911
964 0 105.376 12.8018 1349 103.396 121.541 449.454
965 1 55.2442 15.3138 846 95.2849 122.637 478.655
966 0 56.1147 17.0722 958 95.9196 122.58 473.176
967 0 57.244 9.3285 534 105.105 121.433 473.303
968 0 59.4668 15.5213 923 97.8017 121.602 462.632
969 0 63.1592 13.2364 836 99.3337 121.722 467.968
970 0 63.2757 14.8714 941 98.5877 120.417 464.968
971 0 64.4798 13.0118 839 102.31 121.622 462.452
972 0 65.3344 12.2294 799 102.641 120.621 464.815
973 0 70.5594 14.8811 1050 100.001 122.489 459.785
974 0 74.3199 14.5856 1084 104.684 123.906 458.893
975 0 78.1857 16.8445 1317 101.714 123.91 456.787
976 0 77.2085 14.7393 1138 105.977 125.231 452.777
977 0 76.2003 11.0761 844 111.707 125.145 455.091
978 0 82.354 13.5877 1119 109.675 125.582 448.785
979 1 163.714 12.3753 2026 111.028 126.451 416.89
980 1 87.4676 13.6622 1195 109.089 127.203 446.382
981 0 92.2227 16.2433 1498 106.549 128.342 443.043
982 0 94.396 13.0302 1230 109.841 127.079 448.493
983 1 187.66 12.4107 2329 110.635 127.612 409.766
984 1 49.0362 10.788 529 111.248 128.769 464.153
985 0 56.3198 13.5831 765 101.844 128.523 467.14
986 0 54.1818 14.1561 767 101.617 129.15 465.773
987 0 59.0906 14.4355 853 105.462 127.208 464.563
988 0 56.1909 12.3508 694 109.932 127.932 466.388
989 0 62.2061 20.8501 1297 96.2907 128.725 463.641
990 0 64.1312 15.3435 984 103.292 130.165 466.034
991 0 65.1969 15.2921 997 102.003 129.197 465.278
992 0 72.249 14.7268 1064 101.102 130.122 465.496
993 0 75.3606 18.3518 1383 96.5184 129.743 465.562
994 0 73.2652 15.6964 1150 103.529 129.355 468.311
995 0 73.2803 16.7576 1228 98.9927 128.297 473.494
996 0 75.0904 12.718 955 108.569 126.941 463.121
997 0 81.1473 18.374 1491 105.083 127.99 468.929
998 0 82.1141 14.492 1190 111.655 128.115 466.191
999 0 88.3408 16.5382 1461 106.695 126.98 463.723
1000 0 88.1115 15.5939 1374 109.507 126.029 460.964
1001 0 89.2503 13.9383 1244 112.011 124.6 460.935
1002 0 89.0989 11.549 1029 116.361 124.394 458.072
1003 1 47.0881 10.0238 472 111.769 123.968 480.678
1004 0 49.0519 12.3543 606 107.71 122.883 478.541
1005 0 48.0914 11.0207 530 111.54 123.968 479.194
1006 0 52.2718 13.3916 700 107.657 123.819 477.16
1007 0 50.1432 12.1851 611 109.401 123.408 481.082
1008 0 53.2277 11.7232 624 108.753 122.603 480.292
1009 0 53.1991 12.4438 662 111.134 121.918 474.514
1010 0 54.0747 14.0731 761 110.188 122.47 472.2
1011 0 56.2756 13.2206 744 112.09 122.355 469.927
1012 0 59.0995 14.2641 843 110.676 121.888 466.686
1013 0 59.3082 13.2022 783 111.98 122.609 468.688
1014 0 62.3458 14.6281 912 110.387 122.8 465.601
1015 0 63.0995 13.5342 854 112.31 117.909 464.408
1016 0 64.2612 14.1921 912 113.591 118.925 458.387
1017 0 72.19 13.0489 942 112.485 119.997 460.564
1018 0 71.2806 11.9668 853 116.147 120.815 458.494
1019 0 72.225 13.0287 941 114.44 124.663 458.512
1020 0 76.6487 16.5039 1265 107.758 124.812 458.394
1021 0 74.2602 14.3684 1067 111.782 125.638 455.757
1022 0 80.2651 13.58 1090 113.442 125.627 451.188
1023 0 81.3818 14.9788 1219 111.663 125.874 451.306
1024 0 81.46 11.0729 902 117.805 126.57 451.152
1025 0 88.3611 15.3688 1358 111.491 127.124 449.504
1026 0 92.415 15.2356 1408 111.543 128.737 447.643
1027 0 93.4425 12.0823 1129 117.198 130.035 447.481
1028 0 97.5013 16.9639 1654 108.437 129.748 447.487
1029 0 100.299 13.8286 1387 113.548 130.979 443.906
1030 1 53.1154 12.3128 654 114.379 132.859 467.268
1031 0 55.1047 14.0823 776 110.119 132.879 468.15
1032 0 55.4561 12.875 714 113.58 129.98 464.909
1033 0 56.2917 13.2169 744 113.269 131.117 461.671
1034 0 61.2484 15.5433 952 109.331 129.45 462.173
1035 0 62.2687 14.7265 917 110.939 128.788 462.164
1036 0 66.3202 17.6115 1168 106.735 129.542 460.9
1037 0 69.241 15.0489 1042 110.891 127.645 465.146
1038 0 70.2132 20.3238 1427 103.865 131.325 467.535
1039 0 71.2752 15.2928 1090 112.68 130.295 465.945
1040 0 73.3617 14.0809 1033 115.008 129.848 466.078
1041 0 77.3164 14.8998 1152 113.816 129.004 464.937
1042 0 78.7088 14.5219 1143 115.361 128.631 462.911
1043 0 79.3112 12.9616 1028 119.122 127.479 464.568
1044 0 84.3427 15.5556 1312 114.617 127.12 462.8
1045 0 84.3106 14.1856 1196 117.732 125.611 459.893
1046 0 85.1967 15.5053 1321 116.453 125.317 459.814
1047 0 90.6277 15.6354 1417 116.289 125.541 459.006
1048 0 96.2882 16.0248 1543 115.338 124.544 456.451
1049 0 93.4451 14.9714 1399 119.218 123.818 451.509
1050 0 97.5267 14.8677 1450 119.028 124.227 451.97
1051 0 101.285 16.2709 1648 115.241 122.83 448.527
1052 0 104.233 15.6284 1629 117.344 123.535 446.193
1053 0 104.349 14.2598 1488 120.807 123.358 438.46
1054 0 108.24 13.1005 1418 120.72 123.82 444.862
1055 0 112.136 16.0163 1796 115.606 123.699 437.305
1056 0 112.589 13.5804 1529 118.271 122.398 433.738
1057 1 58.2651 9.21649 537 120.834 123.218 456.074
1058 0 59.4129 10.1998 606 121.868 123.302 450.444
1059 0 67.0754 11.6138 779 114.258 124.546 456.67
1060 0 68.0789 13.1906 898 112.109 124.601 455.078
1061 0 70.1846 12.6808 890 115.571 125.48 449.492
1062 0 72.0599 12.8782 928 115.415 124.639 450.793
1063 0 77.1312 15.3505 1184 109.1 126.018 452.277
1064 0 78.2312 14.3804 1125 113.553 125.586 445.486
1065 0 79.0699 11.7238 927 118.14 126.849 444.413
1066 0 83.1554 14.3106 1190 114.372 127.011 441.775
1067 0 87.2351 13.6872 1194 115.58 128.145 443.172
1068 0 88.1756 12.4978 1102 117.009 128.616 441.846
1069 0 86.1392 12.7352 1097 119.472 129.318 435.613
1070 1 45.0783 9.87171 445 113.499 130.721 461.465
1071 0 49.543 11.4244 566 110.205 129.555 459.136
1072 0 51.4784 11.8108 608 109.22 129.492 460.14
1073 0 51.1784 8.38245 429 107.779 128.604 459.462
1074 0 53.1505 11.1946 595 104.029 131.183 457.662
1075 0 60.1195 13.6894 823 109.789 131.806 469.332
1076 0 62.2535 14.7622 919 109.217 132.161 466.622
1077 0 61.1468 13.9664 854 111.701 131.946 465.511
1078 0 63.1846 11.6484 736 115.792 132.576 463.697
1079 0 66.1883 14.0659 931 112.699 131.672 463.711
1080 0 67.1959 13.1258 882 113.368 132.232 465.742
1081 0 70.1221 11.5228 808 116.176 130.942 464.53
1082 0 73.3006 11.8144 866 115.773 131.925 463.575
1083 0 75.1281 13.0976 984 113.497 129.916 466.251
1084 0 78.4288 17.6211 1382 106.866 128.652 466.057
1085 1 40.0342 5.74508 230 118.778 128.474 484.774
1086 0 40.0601 9.01147 361 117.091 127.726 481.745
1087 0 44.0652 10.893 480 112.592 127.227 481.808
1088 0 42.0301 8.827 371 115.429 125.108 479.038
1089 0 48.0666 15.0416 723 102.842 123.185 480.609
1090 0 47.0695 12.9383 609 107.475 123.384 479.233
1091 0 47.1293 12.7522 601 107.098 121.834 479.89
1092 0 45.1265 10.7032 483 111.267 120.816 479.437
1093 0 47.253 10.1581 480 110.473 121.329 478.333
1094 0 49.1478 9.58334 471 108.603 120.633 480.79
1095 0 51.1111 9.78261 500 111.304 120.876 473.998
1096 0 55.1557 10.3706 572 108.348 120.294 473.86
1097 0 56.2862 14.3552 808 102.827 120.254 475.72
1098 0 57.1327 12.8473 734 106.025 120.898 468.948
1099 0 58.1702 11.0194 641 107.68 119.846 470.354
1100 0 60.1321 11.3084 680 109.322 120.388 465.087
1101 0 62.2054 13.7769 857 105.855 120.505 462.873
1102 0 63.2279 12.0516 762 108.462 121.182 464.545
1103 0 67.2719 12.4718 839 106.478 120.949 464.305
1104 0 71.3514 12.7538 910 106.715 120.126 460.357
1105 0 70.1609 12.3288 865 107.154 120.711 461.723
1106 0 73.3281 10.3507 759 110.304 120.65 461.433
1107 0 76.2847 17.8148 1359 101.912 122.973 456.761
1108 0 79.6419 14.5526 1159 103.767 122.072 459.431
1109 0 82.237 18.1184 1490 101.736 124.509 450.473
1110 0 83.2798 14.2291 1185 107.252 125.461 449.468
1111 0 85.2747 12.6181 1076 110.035 124.41 448.937
1112 0 88.2516 10.1755 898 113.764 125.372 448.097
1113 0 92.6692 11.4493 1061 111.621 126.553 446.857
1114 0 94.3047 11.7385 1107 108.742 126.553 452.816
1115 1 50.0686 12.383 620 109.052 130.477 470.118
1116 0 52.1132 12.6647 660 108.292 129.195 468.948
1117 0 56.2416 13.3709 752 104.812 130.836 469.434
1118 0 55.3119 11.2634 623 109.08 128.618 472.324
1119 0 58.2742 10.0731 587 110.903 131.259 466.998
1120 0 59.3236 11.5468 685 108.914 130.829 467.194
1121 0 60.3978 9.50365 574 111.232 130.319 470.488
1122 0 63.535 12.6859 806 108.372 129.741 464.404
1123 0 65.5098 11.9066 780 107.997 130.886 469.364
1124 0 68.3922 14.9432 1022 104.523 129.689 467.227
1125 0 69.2045 15.3747 1064 107.896 129.556 467.345
1126 0 66.3332 9.00002 597 117.152 129.379 469.608
1127 0 73.3788 13.7233 1007 111.279 128.39 470.91
1128 0 78.4072 17.7662 1393 107.144 128.321 463.219
1129 0 77.286 12.3179 952 116.124 126.419 464.193
1130 0 81.3712 13.1373 1069 115.228 124.989 465.275
1131 0 85.3988 15.9955 1366 110.228 124.416 465.366
1132 0 84.6204 13.4365 1137 115.729 124.17 465.211
1133 0 88.5604 14.1711 1255 116.113 123.739 460.348
1134 0 91.4509 12.422 1136 118.219 124.324 456.484
1135 1 50.2882 9.54498 480 118.81 121.183 479.896
1136 0 53.1821 12.429 661 112.136 122.92 479.941
1137 0 54.4539 15.6646 853 108.025 121.11 477.578
1138 0 54.7304 14.4161 789 109.058 119.852 468.94
1139 0 55.279 11.8852 657 111.222 119.204 473.619
1140 0 57.3482 13.1478 754 110.007 119.3 469.902
1141 0 57.223 11.6387 666 113.209 118.384 470.468
1142 0 61.2502 11.9183 730 112.837 119.262 465.226
1143 0 61.2283 11.0406 676 115.317 118.217 464.83
1144 0 63.4361 16.6624 1057 108.025 117.905 462.052
1145 0 65.3419 13.8961 908 111.129 117.747 465.36
1146 0 68.3556 13.6492 933 112.576 119.683 455.338
1147 0 68.235 11.607 792 116.668 119.064 459.269
1148 0 71.4269 14.5323 1038 112.639 120.013 457.294
1149 0 74.3166 13.7923 1025 113.36 120.093 454.141
1150 0 76.2686 12.1151 924 116.934 121.998 450.732
1151 0 81.243 17.4784 1420 108.401 122.861 448.948
1152 0 83.2518 12.8646 1071 115.49 121.858 450.95
1153 0 86.2912 15.2275 1314 114.02 124.235 445.24
1154 0 87.2338 13.6988 1195 116.969 124.407 441.638
1155 0 91.293 14.4261 1317 115.705 125.121 446.033
1156 1 52.2269 12.8861 673 115.119 124.62 466.135
1157 0 48.1276 12.1967 587 118.784 124.097 465.143
1158 0 51.3097 13.7791 707 114.59 124.754 465.429
1159 0 50.3148 10.2952 518 111.595 127.079 461.079
1160 0 44.1973 9.88748 437 124.895 130.796 459.705
1161 0 53.1397 10.2184 543 119.276 129.344 462.039
1162 0 53.1609 11.9825 637 116.738 130.954 459.754
1163 0 57.0252 17.4835 997 107.301 130.278 462.355
1164 0 60.2468 11.901 717 115.983 130.865 459.445
1165 0 60.0666 9.88902 594 119.492 131.33 459.507
1166 0 62.3191 11.7781 734 112.056 129.35 456.76
1167 0 64.3101 11.6467 749 112.577 129.494 460.051
1168 0 67.4462 12.4099 837 110.339 128.699 461.685
1169 0 69.1982 14.2634 987 105.426 127.873 467.404
1170 0 74.2207 15.5213 1152 106.846 126.784 459.295
1171 0 76.2444 12.0796 921 112.95 126.483 459.806
1172 0 79.1967 16.137 1278 107.12 126.688 461.169
1173 0 80.2447 14.0072 1124 109.846 125.293 461.506
1174 0 80.3163 12.264 985 113.484 123.972 456.785
1175 0 85.4306 13.0281 1113 111.904 124.962 459.466
1176 0 87.4275 14.0917 1232 110.963 123.361 456.103
1177 0 92.3045 12.9571 1196 112.937 123.501 447.304
1178 1 46.177 13.8814 641 107.343 120.95 469.407
1179 0 48.3641 13.8119 668 112.383 122.252 470.38
1180 0 48.5074 13.3588 648 112.472 121.185 470.026
1181 0 47.2624 13.4779 637 113.705 122.144 471.102
1182 0 52.2779 12.8926 674 114.878 121.51 465.525
1183 0 56.3523 13.3269 751 112.874 122.305 468.164
1184 0 55.2347 12.3654 683 110.154 121.605 466.324
1185 0 59.2631 11.8792 704 112.403 120.717 461.075
1186 0 60.318 13.7438 829 109.838 120.552 458.496
1187 0 63.2008 10.8227 684 113.829 120.393 453.364
1188 0 66.3515 14.8904 988 106.894 121.056 453.148
1189 0 67.4311 10.7962 728 112.93 121.266 454.173
1190 0 68.2076 11.553 788 113.758 121.742 450.112
1191 0 72.3088 9.39028 679 116.442 121.624 449.317
1192 0 72.3145 12.5701 909 110.191 121.023 453.534
1193 0 75.3188 12.5467 945 113.025 121.514 446.91
1194 0 79.2815 10.9231 866 114.568 120.703 446.393
1195 0 85.2626 14.731 1256 109.324 122.297 444.236
1196 0 86.1206 11.1936 964 115.855 122.004 442.815
1197 0 91.2532 15.6159 1425 110.727 123.188 440.676
1198 1 48.2338 11.3821 549 109.2 123.173 465.443
1199 0 48.3136 5.81616 281 115.772 122.79 467.879
1200 0 51.2416 9.83577 504 110.73 127.016 468.073
1201 0 55.35 10.9485 606 108.018 125.175 466.12
1202 0 56.1472 10.3478 581 110.819 125.551 461.632
1203 0 57.6874 10.9383 631 107.106 126.634 464.146
1204 0 61.3881 6.53221 401 111.818 126.322 466.903
1205 0 62.3984 10.7535 671 107.537 127.863 456.481
1206 0 63.492 9.10351 578 109.938 128.891 461.77
1207 0 65.5921 10.1537 666 109.53 129.201 458.802
1208 0 64.435 8.9082 574 115.596 129.692 458.094
1209 1 128.923 9.79658 1263 118.731 128.949 434.624
1210 1 73.7232 16.0601 1184 102.507 126.943 464.918
1211 0 72.3536 8.90074 644 114.275 127.949 461.741
1212 0 75.6604 10.6925 809 110.927 127.744 462.088
1213 0 81.4165 10.2927 838 112.848 127.662 459.259
1214 0 83.4663 16.0903 1343 105.751 126.396 459.976
1215 0 83.4869 12.3133 1028 112.729 126.594 457.935
1216 0 90.5962 15.9278 1443 107.365 125.045 461.541
1217 0 89.6546 12.1355 1088 111.546 123.865 463.967
1218 0 90.4771 12.3236 1115 113.955 123.43 459.488
1219 0 98.4391 14.8823 1465 107.887 122.453 461.133
1220 0 99.8538 13.69 1367 110.584 121.301 457.393
1221 0 103.341 17.6212 1821 106.896 121.076 446.628
1222 0 105.73 14.2344 1505 109.671 119.924 450.476
1223 1 55.2068 9.5278 526 113.458 120.57 473.129
1224 0 58.2674 8.71842 508 114.114 120.024 471.793
1225 0 58.2267 11.5411 672 110.978 118.484 468.93
1226 0 62.3353 18.962 1182 101.138 118.377 466.537
1227 0 64.3926 13.1692 848 106.403 119.356 464.44
1228 0 67.493 13.4681 909 105.917 119.7 462.253
1229 0 69.3491 12.8625 892 105.283 119.96 463.474
1230 0 69.3253 13.516 937 106.467 119.848 456.156
1231 0 73.292 13.9442 1022 106.042 120.669 451.72
1232 0 75.5138 11.3622 858 109.066 120.276 452.228
1233 0 77.3485 12.5148 968 108.008 120.121 448.92
1234 0 81.445 14.2059 1157 106.022 120.666 448.77
1235 0 82.2527 11.5984 954 110.787 120.516 447.362
1236 0 85.335 12.8787 1099 109.019 122.252 448.582
1237 0 88.3273 11.8876 1050 111.27 123.004 446.362
1238 0 95.3234 14.4141 1374 107.675 123.806 442.406
1239 0 95.4689 13.8684 1324 108.326 124.27 441.375
1240 0 97.3438 12.5945 1226 110.772 124.854 440.075
1241 0 101.431 14.9264 1514 105.632 125.574 440.865
1242 0 101.431 15.0743 1529 131.231 127.574 440.841
1243 0 106.366 11.8177 1257 109.239 126.221 439.305
1244 1 57.1716 9.98748 571 107.098 125.604 463.884
1245 0 58.326 11.8301 690 102.7 126.723 459.89
1246 0 59.2657 8.52096 505 105.798 129.428 458.98
1247 0 60.2468 10.4072 627 103.845 130.427 458.218
1248 0 64.4254 12.4019 799 100.26 128.668 460.752
1249 0 65.4318 10.1327 663 102.869 129.418 460.538
1250 0 71.3436 13.7504 981 98.0285 127.811 463.809
1251 0 71.3953 14.1746 1012 99.9456 129.622 462.512
1252 0 75.2473 12.8111 964 101.338 127.529 463.825
1253 0 77.141 15.0244 1159 98.5772 127.879 462.176
1254 0 80.2919 19.6907 1581 94.4421 127.552 463.479
1255 0 77.3516 10.7819 834 104.754 126.86 459.488
1256 0 81.5179 10.513 857 104.833 126.924 461.625
1257 0 88.4225 12.2141 1080 102.903 126.331 458.301
1258 0 90.2628 10.968 990 104.606 125.985 457.302
1259 0 92.2704 10.9786 1013 105.879 125.531 456.445
1260 0 96.3428 15.0193 1447 100.905 124.052 456.202
1261 1 52.0486 11.47 597 102.925 121.814 478.807
1262 0 55.3034 14.1764 784 96.2168 121.365 476.568
1263 0 57.3657 12.3419 708 98.226 121.713 472.562
1264 0 59.1554 17.1075 1012 97.7441 120.266 473.901
1265 0 58.3082 10.9762 640 105.688 120.922 473.869
1266 0 61.4119 12.6034 774 103.539 119.664 472.349
1267 0 65.4087 12.8423 840 103.729 120.479 468.318
1268 0 66.3562 13.4125 890 102.806 120.034 469.819
1269 0 65.4583 9.92998 650 104.72 119.408 474.678
1270 0 63.5111 13.3677 849 103.181 119.616 468.377
1271 0 73.5392 13.1766 969 102.089 119.393 465.549
1272 0 75.6244 12.8794 974 102.844 120.177 461.66
1273 0 78.3348 14.8593 1164 100.939 120.058 455.595
1274 0 82.7128 11.5097 952 104.876 120.712 456.449
1275 0 84.3301 16.0441 1353 100.783 120.206 449.525
1276 0 86.3834 17.978 1553 98.5628 120.771 449.69
1277 0 90.3699 16.189 1463 100.849 121.093 447.261
1278 0 92.5262 12.1911 1128 105.936 121.606 447.574
1279 0 98.5507 18.1125 1785 98.8571 122.3 442.119
1280 0 100.452 12.8818 1294 105.385 123.656 443.05
1281 1 52.3027 10.5922 554 103.617 123.809 467.157
1282 0 52.6329 12.8627 677 102.456 126.393 461.337
1283 0 53.5422 15.4084 825 101.018 125.519 455.465
1284 0 57.619 13.3984 772 103.76 124.662 461.64
1285 0 57.0744 16.0843 918 100.682 125.709 461.956
1286 0 54.0943 9.24312 500 111.87 125.936 460.874
1287 0 59.1424 12.732 753 105.732 125.481 459.069
1288 0 58.2288 10.8194 630 109.522 126.187 460.816
1289 0 61.0525 11.9078 727 106.541 126.944 462.32
1290 0 65.197 11.7644 767 106.482 127.236 460.815
1291 0 64.1696 15.0071 963 101.126 128.123 463.814
1292 0 66.4409 11.6946 777 104.717 128.106 468.099
1293 0 71.1691 16.9034 1203 98.7024 127.951 466.895
1294 0 73.1878 12.0785 884 106.045 127.019 461.814
1295 0 75.2365 15.1256 1138 101.832 126.673 463.189
1296 0 76.2365 10.192 777 107.281 127.39 465.561
1297 0 78.1292 11.7242 916 105.384 127.425 464.802
1298 0 84.2785 13.4317 1132 103.9 128.705 456.553
1299 0 89.5311 15.3019 1370 99.7803 127.983 465.582
1300 1 45.209 8.84781 400 109.08 125.455 478.805
1301 0 46.2521 9.23202 427 106.288 125.766 479.998
1302 0 46.1942 12.7722 590 100.156 123.953 470.783
1303 0 49.2493 11.4519 564 100.41 123.007 473.734
1304 0 50.2224 11.8672 596 100.971 121.666 471.997
1305 0 49.1117 11.3211 556 101.892 121.529 472.14
1306 0 51.1804 11.6451 596 102.391 121.015 468.436
1307 0 54.1229 14.0606 761 98.3377 121.159 467.051
1308 0 58.1021 11.2388 653 103.305 118.985 462.418
1309 0 60.1896 10.7328 646 104.912 118.522 459.105
1310 0 69.4652 18.2682 1269 94.1655 119.511 461.084
1311 0 66.1858 10.8482 718 104.426 118.852 458.843
1312 0 68.0881 13.4091 913 101.79 119.154 457.656
1313 0 70.2972 15.8043 1111 99.1161 118.773 457.546
1314 0 70.2451 13.7376 965 103.124 119.228 452.286
1315 0 75.2883 13.1096 987 104.159 118.973 447.277
1316 0 77.2742 14.3385 1108 103.068 119.668 447.514
1317 0 84.2997 18.3512 1547 98.2754 119.997 446.806
1318 0 83.1866 13.4276 1117 104.728 120.187 443.413
1319 1 41.2207 9.82515 405 102.857 122.519 460.659
1320 0 45.0671 11.2721 508 101.15 122.589 459.299
1321 0 48.1638 18.3956 886 92.0158 122.018 464.252
1322 0 48.4237 13.0308 631 98.7861 125.208 459.086
1323 0 48.2835 9.25782 447 104.727 125.622 458.669
1324 0 51.2388 13.076 670 99.8552 126.882 458.873
1325 0 51.2561 8.42827 432 106.544 127.782 455.377
1326 0 55.338 13.9326 771 101.166 126.965 458.091
1327 0 59.1464 15.1996 899 100.336 128.57 463.07
1328 0 60.1985 14.2196 856 102.227 130.202 464.539
1329 0 65.6459 15.6446 1027 97.8345 129.51 470.678
1330 0 64.2837 13.2693 853 104.097 129.81 462.656
1331 0 65.2971 17.1524 1120 99.1786 128.84 467.302
1332 0 72.309 12.5849 910 104.907 130.197 463.851
1333 0 72.3202 14.9612 1082 102.53 129.223 459.876
1334 0 76.3294 17.6079 1344 99.2374 129.622 459.54
1335 0 77.3794 14.0735 1089 104.253 128.881 459.897
1336 0 83.2403 15.5694 1296 101.679 128.854 457.194
1337 0 82.2655 12.8243 1055 106.012 128.974 460.759
1338 0 88.2726 16.0186 1414 101.339 127.859 458.238
1339 0 95.2122 10.5449 1004 106.88 127.413 465.119
1340 0 96.2855 13.3353 1284 105.084 127.904 453.701
1341 0 95.4053 15.0201 1433 103.318 127.627 453.876
1342 1 49.0937 11.4271 561 108.116 128.759 478.547
1343 0 50.1731 9.42736 473 109.474 127.478 481.93
1344 0 49.2668 12.8078 631 107.409 123.518 473.082
1345 0 56.2332 13.7285 772 102.188 120.81 482.475
1346 0 55.2576 14.351 793 105.043 121.831 476.842
1347 0 58.1177 25.6892 1493 91.6651 120.5 475.686
1348 0 59.1418 14.5075 858 104.826 120.555 468.84
1349 0 60.0487 15.554 934 104.181 119.806 472.243
1350 0 62.1032 12.8818 800 108.211 120.381 465.038
1351 0 64.1015 15.3975 987 105.762 120.592 465.635
1352 0 66.166 13.5115 894 108.459 119.217 464.696
1353 0 69.2762 14.2329 986 106.828 120.153 467.447
1354 0 72.229 14.2187 1027 107.449 118.583 460.634
1355 0 75.2625 17.6715 1330 101.663 119.23 463.743
1356 0 76.1657 13.1424 1001 109.122 118.031 460.756
1357 0 75.1139 16.7745 1260 104.867 118.261 460.432
1358 0 80.255 13.2577 1064 110.271 118.634 455.344
1359 0 82.4277 17.5669 1448 104.653 118.882 451.783
1360 0 85.2906 15.2655 1302 108.484 119.598 452.314
1361 0 86.251 15.4781 1335 108.133 120.064 452.095
1362 0 88.1441 14.3629 1266 111.583 120.591 443.575
1363 1 50.1393 12.4852 626 115.95 120.954 460.826
1364 0 54.1293 14.5762 789 109.975 120.819 462.831
1365 0 54.1835 11.2211 608 117.118 122.88 460.85
1366 0 56.3082 14.3851 810 109.142 124.078 460.416
1367 0 61.7806 19.7959 1223 95.0392 124.787 456.772
1368 0 60.1477 11.9872 721 105 125.789 456.411
1369 0 59.426 9.5581 568 109.275 127.146 454.616
1370 0 64.2196 14.9954 963 103.484 127.568 450.494
1371 0 66.3182 12.5757 834 104.353 127.93 453.596
1372 0 69.4302 14.6622 1018 101.694 128.661 452.393
1373 0 68.2162 10.2615 700 109.11 127.27 448.257
1374 0 72.3769 12.2553 887 104.856 129.338 453.623
1375 0 75.1716 16.2029 1218 100.044 128.279 449.081
1376 0 78.2296 10.7632 842 106.052 128.951 449.697
1377 0 80.1354 14.75 1182 101.927 129.036 446.017
1378 0 83.4074 12.5408 1046 103.595 129.228 453.527
1379 0 90.4038 16.7028 1510 98.694 128.275 448.815
1380 0 90.3407 12.1761 1100 104.679 128.189 445.534
1381 0 99.3042 19.1029 1897 94.8782 128.352 451.952
1382 1 50.2157 10.3553 520 101.904 129.525 469.544
1383 0 52.2813 12.5858 658 102.676 127.284 468.195
1384 0 55.1371 12.6593 698 98.1347 129.245 472.51
1385 0 57.198 14.3886 823 96.7582 127.277 471.199
1386 0 58.4884 18.4652 1080 92.5963 125.896 471.367
1387 0 59.3035 10.6065 629 103.121 124.014 467.719
1388 0 60.1717 12.1818 733 101.243 124.392 467.944
1389 0 58.1845 14.8493 864 99.5822 122.566 462.589
1390 0 66.2489 14.6116 968 97.4897 121.756 469.102
1391 0 68.2053 10.8643 741 112.479 120.391 464.756
1392 0 69.1315 12.4545 861 110.232 120.541 460.406
1393 0 72.2527 13.2867 960 107.295 120.755 465.908
1394 0 76.3714 18.1743 1388 101.935 120.518 461.458
1395 0 77.0928 12.1153 934 111.168 118.654 455.555
1396 0 80.1833 13.3694 1072 107.749 119.597 453.421
1397 0 81.1884 12.5757 1021 109.798 117.936 449.927
1398 0 83.4611 13.1319 1096 109.38 118.54 446.86
1399 0 86.0862 13.289 1144 109.598 118.349 446.338
1400 0 91.2646 15.0223 1371 107.646 118.929 441.702
1401 1 48.0278 12.8051 615 102.938 119.444 466.141
1402 0 50.0792 12.2007 611 106.574 119.196 459.344
1403 0 53.5642 13.2738 711 103.368 120.03 457.999
1404 0 55.0598 14.911 821 101.613 118.525 457.675
1405 0 56.0844 14.5138 814 102.498 120.021 459.909
1406 0 58.0855 11.9996 697 106.877 121.337 455.805
1407 0 63.2335 14.6283 925 103.358 123.054 456.277
1408 0 62.137 10.4608 650 104.391 124.148 450.982
1409 0 65.1513 13.154 857 100.267 125.335 451.232
1410 0 62.2961 8.95722 558 104.371 124.909 456.495
1411 0 70.0916 14.6237 1025 102.948 126.101 459.677
1412 0 75.1552 14.8227 1114 103.741 128.069 456.576
1413 0 72.0882 12.457 898 109.364 127.833 447.745
1414 0 82.4688 14.3812 1186 102.108 129.067 459.521
1415 0 78.2183 10.509 822 113.174 129.991 449.022
1416 0 80.2439 12.5617 1008 110.393 130.262 449.94
1417 0 88.2289 13.737 1212 107.303 130.306 452.1
1418 0 90.3466 15.3741 1389 106.945 130.145 448.19
1419 1 49.139 11.905 585 109.038 131.026 468.47
1420 0 50.0289 11.4734 574 109.584 131.744 472.068
1421 0 52.1625 13.9564 728 103.923 130.453 471.629
1422 0 52.2259 11.6034 606 108.366 130.454 472.076
1423 0 54.1542 14.2371 771 104.652 129.623 473.195
1424 0 56.1676 15.3469 862 102.396 129.124 473.109
1425 0 61.3793 12.1213 744 105.685 129.649 474.683
1426 0 57.1857 12.3283 705 108.123 129.521 470.572
1427 0 61.1762 13.9924 856 105.103 127.527 470.207
1428 0 64.1434 14.8729 954 104.636 128.197 471.219
1429 0 63.1153 16.7947 1060 103.062 126.273 470.377
1430 0 67.2259 16.214 1090 102.716 125.876 470.468
1431 0 67.256 14.1103 949 107.073 125.217 465.067
1432 0 71.2975 16.5083 1177 102.669 124.641 464.741
1433 0 73.1859 13.1446 962 107.758 123.695 462.972
1434 0 76.1695 19.9817 1522 99.3252 120.603 465.445
1435 0 77.2859 13.4695 1041 104.843 119.327 470.195
1436 0 84.648 19.6579 1664 97.997 120.423 461.148
1437 0 83.2019 15.6006 1298 99.3297 119.837 458.299
1438 0 83.3408 19.1263 1594 97.4348 119.546 456.359
1439 0 86.1349 16.1143 1388 101.311 118.37 455.367
1440 0 90.2694 16.0852 1452 101.788 117.524 451.282
1441 1 49.0522 11.7018 574 105.436 118.605 473.315
1442 0 53.2778 12.4067 661 103.127 121.487 469.383
1443 0 53.3104 12.7555 680 105.734 121.122 465.196
1444 0 55.3036 23.8863 1321 92.8842 121.59 464.515
1445 0 58.7983 14.031 825 101.337 121.548 468.448
1446 0 57.3105 11.0102 631 108.558 122.193 466.26
1447 0 58.155 14.5473 846 106.931 122.209 462.519
1448 0 61.1358 15.8663 970 104.468 120.38 462.63
1449 0 64.1682 12.0932 776 111.015 119.978 461.461
1450 0 63.1812 16.5081 1043 107.035 121.326 458.584
1451 0 65.3068 12.5102 817 112.235 122.453 456.61
1452 1 126.614 13.624 1725 116.41 124.474 426.848
1453 0 132.713 13.0733 1735 116.888 124.818 426.077
1454 1 73.4886 12.8455 944 110.941 123.708 454.379
1455 0 75.2056 9.56045 719 114.544 124.018 457.719
1456 0 79.3558 19.2424 1527 100.639 124.758 456.682
1457 0 81.2392 13.0602 1061 109.72 126.113 453.405
1458 1 44.0757 10.6181 468 111.964 124.754 469.077
1459 0 46.0921 10.9129 503 112.006 126.022 469.233
1460 0 49.0299 12.1762 597 108.104 126.231 468.729
1461 0 48.4497 12.3633 599 106.773 130.082 466.993
1462 0 50.0819 10.2632 514 110.152 131.743 466.418
1463 0 52.3025 9.80833 513 110.671 131.91 467.363
1464 0 51.0684 13.4525 687 105.972 130.297 468.732
1465 0 54.1766 14.8957 807 102.279 130.245 471.734
1466 0 55.2564 11.2928 624 110.133 129.595 467.745
1467 0 58.0287 10.1674 590 116.281 130.551 472.219
1468 0 59.0642 11.7161 692 114.088 129.429 471.76
1469 0 63.1293 12.1497 767 113.508 129.211 467.61
1470 0 63.145 9.50194 600 114.542 128.22 466.265
1471 0 65.1195 10.857 707 112.134 128.092 474.443
1472 0 69.2217 17.5234 1213 101.892 126.754 472.816
1473 0 69.155 10.4692 724 112.88 125.162 466.525
1474 0 70.1047 10.5414 739 112.945 125.46 469.062
1475 0 74.1152 10.6456 789 112.664 125.307 469.166
1476 0 76.249 13.4953 1029 110.454 124.769 463.193
1477 0 80.3678 13.3262 1071 110.795 122.78 458.641
1478 1 47.111 12.375 583 110.453 123.149 480.662
1479 0 47.3845 10.6997 507 112.284 122.661 476.791
1480 0 50.4324 14.455 729 105.549 120.728 468.003
1481 0 51.3346 16.071 825 101.772 122.376 469.239
1482 0 56.4029 16.9317 955 98.3801 121.598 469.501
1483 0 56.2273 15.8108 889 98.9798 121.252 469.906
1484 0 57.1867 15.6855 897 100.667 121.701 466.812
1485 0 57.2312 14.1182 808 101.923 122.121 468.553
1486 0 59.2478 15.0554 892 101.606 122.446 467.644
1487 0 60.1132 14.2731 858 104.068 121.904 463.099
1488 0 61.0704 12.2154 746 106.323 122.704 462.761
1489 0 64.0542 11.459 734 106.873 122.736 463.546
1490 0 63.2023 10.949 692 108.214 123.474 459.468
1491 0 68.5431 12.1675 834 106.96 123.695 456.153
1492 0 71.2879 13.228 943 103.757 123.411 460.183
1493 0 72.154 12.5426 905 106.486 125.232 451.859
1494 0 76.1286 10.5348 802 105.566 124.227 457.464
1495 0 79.2091 12.1703 964 106.402 125.478 455.277
1496 0 83.2325 10.717 892 105.814 127.067 456.697
1497 0 86.4475 13.7193 1186 104.052 126.782 453.421
1498 0 85.2873 11.7837 1005 107.973 127.569 448.182
1499 0 92.284 14.6287 1350 103.935 127.557 444.432
1500 0 92.2145 12.677 1169 104.443 128.455 456.19
1501 0 92.4466 15.0465 1391 104.886 128.224 449.5
1502 1 53.0703 14.4337 766 104.471 128.71 468.445
1503 0 55.4263 18.8358 1044 99.7059 127.232 462.799
1504 0 54.1322 11.9337 646 108.105 129.096 470.734
1505 0 55.0827 12.6719 698 105.401 129.047 473.702
1506 0 60.1213 12.2087 734 105.572 128.268 472.101
1507 0 59.0768 11.2565 665 107.853 129.651 471.52
1508 0 63.064 10.6717 673 108.137 128.212 471.764
1509 0 65.135 13.4797 878 105.156 129.066 469.306
1510 0 64.1641 11.8446 760 104.18 126.647 475.568
1511 0 68.2613 11.0458 754 108.507 126.714 464.918
1512 0 70.2534 10.9603 770 107.958 127.047 468.097
1513 0 75.314 14.1408 1065 103.208 125.793 466.162
1514 0 74.1521 9.53446 707 110.139 126.427 465.127
1515 0 78.1911 12.3288 964 106.711 126.322 465.846
1516 0 80.3137 11.231 902 107.609 125.665 463.224
1517 0 84.2631 11.6421 981 107.246 125.033 459.342
1518 0 84.2495 12.5223 1055 108.154 123.791 453.786
1519 0 90.276 12.5836 1136 107.364 123.33 457.926
1520 0 97.4849 12.2686 1196 106.381 123.18 454.441
1521 0 95.5164 10.8149 1033 108.324 122.064 455.798
1522 0 98.2446 12.1941 1198 108.154 122.463 450.873
1523 0 104.59 12.0183 1257 107.303 121.647 449.578
1524 0 109.522 17.1015 1873 101.61 121.35 442.534
1525 1 55.4306 12.8449 712 105.868 122.607 471.902
1526 0 57.2725 13.8112 791 106.121 121.583 470.511
1527 0 57.1909 12.0998 692 108.579 122.712 469.292
1528 0 60.3126 12.8829 777 107.405 122.604 467.502
1529 0 64.2515 14.63 940 104.993 122.538 464.188
1530 0 65.3901 15.0634 985 105.065 121.978 461.032
1531 0 63.2813 11.3936 721 110.043 123.476 463.954
1532 0 67.365 16.9821 1144 103.616 122.927 458.019
1533 0 69.4332 13.8983 965 109.406 123.456 455.099
1534 0 72.2191 14.7883 1068 107.722 124.131 450.047
1535 0 74.7381 14.7047 1099 107.636 123.876 452.185
1536 0 78.4584 20.7881 1631 100.765 124.204 450.493
1537 0 79.473 13.9796 1111 110.801 125.66 445.934
1538 0 82.4536 17.6827 1458 105.687 127.25 448.025
1539 0 82.4536 17.5371 1446 129.927 129.221 447.985
1540 1 173.923 13.2358 2302 115.361 127.696 403.475
1541 1 89.7249 14.0429 1260 111.338 127.826 443.53
1542 0 92.62 13.1829 1221 113.034 128.74 446.587
1543 0 96.7741 16.6367 1610 109.75 128.994 444.46
1544 0 97.4432 14.7265 1435 112.858 129.194 441.503
1545 0 102.425 15.9629 1635 109.127 128.842 444.28
1546 0 99.5883 11.3065 1126 118.097 129.505 441.807
1547 1 51.3645 9.8901 508 117.76 128.894 457.289
1548 0 56.3941 10.9409 617 114.734 128.525 459.867
1549 0 58.0817 11.5699 672 105.801 127.915 463.518
1550 0 60.2726 10.0046 603 107.776 127.924 465.05
1551 0 62.1438 12.2941 764 104.787 128.513 464.339
1552 0 65.2438 13.7484 897 102.225 127.068 462.767
1553 0 59.1606 7.505 444 111.606 127.923 460.018
1554 0 71.3563 12.2484 874 103.77 127.278 463.96
1555 0 70.2614 10.4182 732 107.306 126.138 463.507
1556 0 74.2131 10.3216 766 105.475 126.239 468.775
1557 0 76.137 12.0835 920 105.107 124.572 462.355
1558 0 80.1836 16.113 1292 101.033 123.502 455.416
1559 0 81.2715 11.5785 941 106.367 123.194 461.55
1560 0 85.1414 17.512 1491 99.1234 123.426 458.654
1561 0 83.1347 17.4536 1451 99.306 122.504 459.524
1562 0 93.2979 14.2447 1329 103.031 122.673 452.483
1563 0 93.2101 12.6059 1175 105.342 121.616 453.522
1564 0 100.455 12.3837 1244 105.153 122.261 451.953
1565 0 102.338 13.8853 1421 104.624 121.84 446.508
1566 0 108.2 13.1608 1424 104.049 121.994 449.426
1567 1 57.3262 11.3037 648 101.285 122.512 472.829
1568 0 57.4681 11.589 666 102.099 120.404 468.791
1569 0 60.3524 12.7418 769 101.49 120.029 467.207
1570 0 59.1747 9.97048 590 103.893 120.339 465.561
1571 0 62.2957 9.98464 622 104.759 119.117 461.625
1572 0 62.2184 15.5581 968 99.3172 118.51 458.472
1573 0 64.5523 12.2227 789 101.939 119.923 460.586
1574 0 70.1558 12.1872 855 102.641 121.553 452.677
1575 0 71.4111 13.9334 995 100.91 120.521 456.601
1576 0 71.3709 10.8728 776 104.335 122.742 454.267
1577 0 76.3889 13.9418 1065 101.042 123.957 452.172
1578 0 75.4095 11.9879 904 104.777 125.414 449.518
1579 0 78.3505 17.3324 1358 98.8564 124.764 446.709
1580 0 86.4945 16.186 1400 98.4179 125.793 451.651
1581 0 84.4655 13.1415 1110 104.196 125.591 447.005
1582 0 85.6688 11.8713 1017 107.727 125.998 448.438
1583 0 88.2684 13.9688 1233 105.595 126.408 444.555
1584 0 90.4416 16.5853 1500 103.318 126.152 439.601
1585 0 95.5504 13.3019 1271 105.916 127.314 444.512
1586 0 99.4358 13.5163 1344 105.732 127.778 444.861
1587 0 105.556 22.8789 2415 95.8162 128.57 441.601
1588 0 107.504 15.9342 1713 105.079 128.992 439.973
1589 0 106.22 12.9825 1379 113.362 129.625 438.133
1590 0 110.516 10.3333 1142 117.069 129.203 445.282
1591 1 54.2527 14.3772 780 108.11 130.094 466.941
1592 0 58.2617 12.8386 748 108.828 129.882 471.997
1593 0 61.1571 15.3375 938 104.988 129.373 469.533
1594 0 63.143 14.7918 934 106.718 129.69 469.23
1595 0 64.0913 14.4793 928 107.162 128.202 466.73
1596 0 64.1438 13.61 873 109.054 128.614 467.302
1597 0 68.2946 14.4667 988 106.755 127.347 468.632
1598 0 71.3016 12.4822 890 109.551 127.782 469.971
1599 0 74.2318 16.1925 1202 105.351 127.092 467.413
1600 0 76.2328 17.053 1300 104.058 125.74 469.265
1601 0 76.2052 11.8627 904 112.1 124.775 466.177
1602 0 80.2537 12.9963 1043 110.299 123.859 465.086
1603 0 84.3738 17.4225 1470 103.982 124.107 462.247
1604 0 83.3156 10.9343 911 114.3 122.423 462.739
1605 0 87.2084 13.9322 1215 110.788 122.757 454.819
1606 1 101.675 21.1852 2154 96.8315 122.151 456.575
1607 0 105.612 16.9205 1787 101.638 121.024 439.243
1608 0 116.749 27.2122 3177 91.0205 121.048 443.161
1609 0 107.741 19.7789 2131 101.02 120.35 445.661
1610 0 107.686 18.4424 1986 103.159 120.3 435.633
1611 0 100.357 15.1061 1516 112.383 120.884 443.026
1612 0 109.457 14.8643 1627 110.927 120.953 443.376
1613 0 106.219 15.468 1643 110.54 119.75 447.257
1614 0 111.321 14.786 1646 113.586 118.693 435.861
1615 0 116.421 14.1813 1651 113.179 119.458 439.512
1616 1 64.1276 11.8358 759 113.453 118.281 461.458
1617 0 68.2661 13.2716 906 110.357 119.694 460.892
1618 0 69.1785 12.9809 898 112.09 121.168 459.455
1619 0 69.2178 13.6959 948 112.051 121.253 454.784
1620 0 69.2178 13.7681 953 119.507 122.241 454.762
1621 0 75.1562 13.2391 995 112.548 122.164 451.908
1622 0 79.3354 14.2811 1133 111.157 122.583 448.079
1623 0 84.3685 16.8428 1421 107.18 124.001 449.797
1624 0 86.2226 15.6224 1347 108.013 123.926 452.974
1625 0 88.2656 13.7426 1213 112.302 123.419 449.346
1626 0 91.3826 16.4036 1499 108.439 125.023 446.303
1627 0 93.3605 12.7998 1195 113.701 125.06 446.175
1628 1 53.3447 11.7725 628 115.545 126.495 463.973
1629 0 54.3044 13.2586 720 107.426 125.889 466.314
1630 0 57.4126 12.2447 703 109.849 125.973 463.063
1631 0 61.3344 13.3856 821 109.208 126.861 458.65
1632 0 63.3531 13.7799 873 107.506 126.687 465.331
1633 0 63.3629 11.2211 711 111.878 126.914 465.589
1634 0 61.2597 11.4104 699 113.847 127.3 465.372
1635 0 64.2577 13.6793 879 110.832 128.059 463.626
1636 0 69.2967 13.5216 937 110.481 125.524 463.937
1637 0 70.2633 15.5131 1090 108.706 126.442 459.478
1638 0 74.9171 15.377 1152 107.28 125.986 467.034
1639 0 77.3282 12.7121 983 112.324 126.04 462.813
1640 0 79.4506 14.3108 1137 110.943 125.999 462.288
1641 0 81.4103 17.1846 1399 107.001 124.555 462.002
1642 0 83.3837 13.204 1101 114.144 124.596 458.98
1643 0 84.7011 11.7 991 117.661 124.474 456.416
1644 1 164.049 15.2759 2506 112.637 123.36 424.918
1645 1 91.7612 13.8403 1270 114.457 123.422 448.956
1646 0 94.7717 15.5637 1475 112.555 121.845 452.75
1647 0 99.7147 15.5644 1552 111.028 122.285 450.524
1648 1 51.4243 12.4066 638 110.028 121.923 473.603
1649 0 54.7502 12.2009 668 106.219 119.798 476.355
1650 0 54.4659 12.9439 705 106.42 120.779 471.39
1651 0 57.3812 13.3319 765 105.392 119.367 469.127
1652 0 57.5393 14.4771 833 102.736 120.652 464.935
1653 0 58.4944 10.8728 636 108.654 118.758 468.66
1654 0 62.4104 16.4235 1025 101.352 118.485 468.363
1655 0 64.2971 12.7688 821 107.052 118.34 465.932
1656 0 65.5507 12.4026 813 108.923 119.02 462.613
1657 0 67.3888 14.5276 979 105.32 118.102 462.067
1658 0 70.4642 11.8642 836 109.156 118.931 459.909
1659 0 75.6466 18.6129 1408 98.5398 118.495 463.424
1660 0 73.4694 13.1211 964 107.501 120.021 455.566
1661 0 75.4656 12.7475 962 108.524 121.374 453.567
1662 0 80.4612 16.915 1361 103.561 121.522 451.076
1663 0 80.4097 12.884 1036 110.835 120.806 446.825
1664 0 86.5761 15.0388 1302 107.171 123.155 447.11
1665 0 86.4032 11.3422 980 113.079 122.238 445.505
1666 0 92.2752 13.774 1271 109.832 122.98 441.532
1667 1 50.5091 13.4233 678 106.869 123.333 462.482
1668 0 50.5682 14.1591 716 106.976 124.101 460.912
1669 0 52.3076 9.23383 483 113.433 125.793 457.834
1670 0 57.6902 16.5366 954 103.419 126.308 457.263
1671 0 56.4149 14.3579 810 104.577 125.886 461.915
1672 0 59.1472 11.5475 683 110.351 126.253 462.924
1673 0 58.1036 13.562 788 108.402 126.605 461.798
1674 0 61.0825 12.4422 760 109.924 127.518 462.983
1675 0 66.168 17.5311 1160 102.203 128.131 462.63
1676 0 70.2129 17.4612 1226 101.444 127.054 463.52
1677 0 70.3091 16.7546 1178 102.329 127.537 465.611
1678 0 70.1792 16.7713 1177 102.777 127.359 464.678
1679 0 74.3119 25.9313 1927 92.6808 127.254 467.486
1680 0 76.2275 15.152 1155 105.645 126.516 462.712
1681 0 76.1972 13.347 1017 108.889 125.518 460.932
1682 0 80.1224 14.4529 1158 106.122 124.941 464.246
1683 0 83.1993 15.5891 1297 106.251 125.545 460.586
1684 0 83.3092 11.4273 952 112.388 125.092 462.429
1685 0 87.509 13.4043 1173 110.758 124.896 457.1
1686 0 93.5083 19.6988 1842 101.986 123.814 451.598
1687 1 51.2857 11.6992 600 111.85 123.45 477.187
1688 0 53.3715 12.7971 683 111.663 123.451 471.202
1689 0 53.3518 12.0146 641 110.56 122.7 473.2
1690 0 54.3042 12.3011 668 108.114 123.772 469.629
1691 0 58.2517 13.7335 800 110.001 122.75 473.688
1692 0 60.4272 12.8585 777 113.142 122.708 468.819
1693 0 61.5055 13.3972 824 111.513 121.512 472.718
1694 0 65.5448 14.1888 930 110.873 121.702 467.735
1695 0 65.4717 13.334 873 112.462 120.753 469.666
1696 0 65.4636 11.9456 782 116.047 120.379 464.598
1697 0 69.3433 14.5796 1011 112.326 121.77 459.902
1698 0 72.2951 12.5873 910 114.484 121.782 462.718
1699 0 76.2303 16.7125 1274 108.069 121.369 458.201
1700 0 79.2875 14.706 1166 111.029 121.654 455.31
1701 0 81.4491 14.0701 1146 112.531 121.49 454.394
1702 0 82.3228 12.8518 1058 115.394 123.548 451.64
1703 0 84.134 10.9825 924 117.09 122.108 448.476
1704 0 89.505 14.2674 1277 111.151 123.573 450.536
1705 1 52.2087 10.7836 563 113.361 123.14 466.201
1706 0 54.184 11.6086 629 111.97 124.69 464.401
1707 0 55.082 13.3619 736 105.633 125.298 464.712
1708 0 55.2512 11.9455 660 107.488 124.944 459.389
1709 0 57.2516 13.397 767 104.598 125.4 461.913
1710 0 61.1375 15.1625 927 102.978 126.428 460.62
1711 0 61.3623 16.4107 1007 102.346 127.967 457.595
1712 0 63.201 15.4903 979 104.18 128.46 457.74
1713 0 63.0634 12.9076 814 107.2 129.077 462.467
1714 0 69.714 17.3997 1213 103.998 128.963 463.204
1715 0 68.1725 13.8766 946 111.481 129.816 459.247
1716 0 71.0522 13.7927 980 111.541 130.162 458.097
1717 0 75.1226 13.4846 1013 112.142 129.99 452.175
1718 0 78.3357 14.0804 1103 111.411 129.898 459.904
1719 0 78.0874 14.1124 1102 112.458 131.022 456.436
1720 0 84.2072 14.6662 1235 110.561 130.326 456.279
1721 0 84.1743 14.0185 1180 112.145 131.463 458.185
1722 0 87.3612 14.2397 1244 112.323 130.262 453.252
1723 0 92.2218 12.535 1156 114.691 129.465 457.446
1724 0 94.2788 16.8967 1593 108.93 129.213 450.632
1725 0 98.2484 13.5575 1332 113.082 129.592 455.318
1726 1 51.0948 11.8995 608 111.924 129.227 475.618
1727 0 52.3229 12.786 669 111.495 129.596 476.372
1728 0 54.3125 13.8458 752 107.198 128.721 477.765
1729 0 54.4255 10.3812 565 108.039 125.85 478.864
1730 0 59.1093 15.3614 908 100.589 125.769 476.574
1731 0 62.1355 16.7859 1043 99.162 122.756 471.855
1732 0 66.6686 18.0145 1201 94.9692 124.284 478.953
1733 0 63.2979 16.5092 1045 99.9923 122.831 475.056
1734 0 65.3341 16.6835 1090 99.833 122.205 472.172
1735 0 69.388 16.2852 1130 99.9531 120.771 469.592
1736 0 68.2186 14.7321 1005 102.597 122.012 467.889
1737 0 71.2469 15.2287 1085 102.458 121.899 463.468
1738 0 74.2109 13.7716 1022 104.462 122.089 463.769
1739 0 78.5434 19.3905 1523 95.4682 121.202 466.863
1740 0 78.2582 15.5894 1220 102.03 121.648 461.644
1741 0 80.2581 13.2697 1065 106.11 120.995 457.987
1742 0 84.2384 16.3109 1374 102.691 121.224 453.058
1743 0 86.3836 12.1435 1049 106.587 121.295 455.099
1744 0 89.1884 12.7819 1140 107.182 121.811 449.649
1745 0 92.3591 15.299 1413 109.068 121.124 450.074
1746 0 97.2924 13.2693 1291 112.091 121.52 447.281
1747 1 194.591 17.1591 3339 109.941 122.07 409.329
1748 1 51.1547 11.1818 572 108.766 123.601 466.967
1749 0 55.154 14.9581 825 101.055 122.731 467.27
1750 0 55.3075 16.1823 895 101.294 122.249 464.456
1751 0 55.268 14.5473 804 102.767 122.297 467.35
1752 0 56.2276 11.987 674 107.076 123.234 464.599
1753 0 56.2261 9.85307 554 110.662 123.567 463.32
1754 0 55.3092 8.94969 495 113.16 123.96 462.836
1755 0 64.1061 12.0113 770 107.112 125.271 462.882
1756 0 65.2328 17.2613 1126 101.69 125.122 457.612
1757 0 67.2875 15.6344 1052 103.228 125.538 459.98
1758 0 74.199 8.58503 637 109.501 126.356 463.856
1759 0 71.3145 11.3722 811 108.031 127.102 457.064
1760 0 75.2022 14.2283 1070 104.805 127.469 456.656
1761 0 75.3475 11.2014 844 110.078 127.763 455.525
1762 0 81.1891 17.0959 1388 102.568 128.154 453.485
1763 0 81.2914 17.5172 1424 99.6664 128.805 465.318
1764 0 84.5833 10.9478 926 111.239 129.037 456.429
1765 0 87.3307 21.5045 1878 99.8472 129.658 453.539
1766 0 95.5391 21.1641 2022 98.9822 129.815 453.177
1767 0 96.3632 17.9114 1726 104.519 128.109 451.611
1768 0 97.8113 14.5995 1428 110.006 127.8 446.668
1769 0 100.668 15.3475 1545 109.309 128.349 448.21
1770 0 106.213 18.8206 1999 104.816 127.696 447.82
1771 0 105.67 13.6747 1445 112.68 125.778 446.498
1772 0 113.442 13.011 1476 113.346 125.459 444.435
1773 1 63.4985 13.6066 864 104.965 123.7 467.692
1774 0 64.296 13.4379 864 106.123 124.655 466.613
1775 0 66.197 12.2815 813 108.236 123.677 463.991
1776 0 72.1697 16.8492 1216 100.921 123.617 465.241
1777 0 72.3548 14.6362 1059 104.339 122.608 465.26
1778 0 75.262 13.7121 1032 105.809 121.965 461.78
1779 0 77.3071 11.4867 888 108.577 121.182 462.134
1780 0 78.3298 10.2771 805 109.955 120.687 463.166
1781 0 81.3807 15.7654 1283 104.803 121.549 457.345
1782 0 85.2526 14.0758 1200 106.951 121.285 455.268
1783 0 87.443 13.14 1149 108.637 121.238 455.587
1784 0 85.3891 12.5777 1074 112.118 120.587 451.814
1785 0 92.3886 13.0968 1210 109.979 119.946 454.912
1786 0 92.249 13.2793 1225 112.751 121.646 444.452
1787 0 95.5602 12.0866 1155 111.233 122.495 446.811
1788 0 100.342 13.434 1348 110.8 121.404 439.928
1789 0 102.33 13.349 1366 111.161 120.676 436.192
1790 0 105.849 12.48 1321 112.954 122.3 435.681
1791 1 62.1566 12.8225 797 103.521 123.023 462.088
1792 0 61.1064 13.4683 823 103.348 123.977 458.874
1793 0 64.1846 13.1963 847 104.286 123.778 460.973
1794 0 67.4466 13.7442 927 105.92 125.145 458.761
1795 0 68.4422 12.6676 867 104.311 125.877 455.145
1796 0 72.3316 12.5533 908 103.826 124.96 457.542
1797 0 75.4464 14.5136 1095 100.452 125.141 457.473
1798 0 75.2678 13.1132 987 104.065 126.204 453.089
1799 0 77.307 11.4349 884 106.905 125.864 452.957
1800 0 77.3146 10.4249 806 107.361 126.364 450.739
1801 0 79.291 11.4137 905 107.402 127.632 447.336
1802 0 83.4861 13.4034 1119 105.49 128.469 450.311
1803 0 86.3735 11.2071 968 107.355 128.965 455.989
1804 0 90.4775 15.5508 1407 103.428 127.485 450.407
1805 0 92.2813 13.1012 1209 107.498 127.88 453.073
1806 0 94.3545 12.3788 1168 109.693 128.864 447.58
1807 0 100.302 14.566 1461 105.832 128.802 450.463
1808 0 100.344 10.6135 1065 113.358 128.061 444.522
1809 1 53.154 11.5702 615 106.135 129.602 473.288
1810 0 56.4092 12.4625 703 106.609 124.933 470.371
1811 0 58.2472 13.8376 806 103.969 124.77 470.329
1812 0 61.3567 12.1747 747 107.017 123.87 471.017
1813 0 62.144 13.8388 860 106.883 123.826 476.204
1814 0 64.34 14.3923 926 106.762 123.707 474.376
1815 0 66.1277 16.332 1080 104.838 122.794 470.146
1816 0 70.112 15.3897 1079 105.173 122.176 472.698
1817 0 65.2915 12.023 785 114.08 120.664 472.884
1818 0 69.2198 16.4982 1142 107.203 120.616 467.734
1819 0 72.0992 10.3607 747 116.963 119.351 468.084
1820 0 73.0906 13.1207 959 114.291 119.954 464.718
1821 0 74.2851 10.8905 809 116.11 118.381 463.906
1822 0 78.1155 14.8626 1161 110.918 119.785 462.569
1823 0 80.178 11.1751 896 115.811 118.156 461.295
1824 0 82.3258 11.3695 936 116.554 117.615 457.245
1825 0 87.1212 10.2042 889 116.748 117.396 459.405
1826 0 91.2722 17.9244 1636 105.089 118.432 458.427
1827 0 92.2724 17.7084 1634 106.793 118.73 452.855
1828 1 52.0693 9.87146 514 115.358 116.173 470.862
1829 0 53.1767 11.9413 635 113.589 116.732 465.641
1830 0 52.0382 11.5876 603 110.957 118.428 462.018
1831 0 52.1663 10.2365 534 114.839 119.936 460.972
1832 0 56.1993 10.6229 597 113.013 119.067 459.092
1833 0 56.1423 15.1935 853 105.818 120.072 458.074
1834 0 57.1168 12.2381 699 111.697 119.561 452.454
1835 0 58.1931 14.1941 826 108.038 119.525 454.551
1836 0 60.1582 8.66049 521 115.493 121.012 453.597
1837 0 62.2059 13.0856 814 109.795 119.99 449.651
1838 0 70.319 11.8034 830 109.941 122.393 450.264
1839 0 66.1915 9.6236 637 114.738 122.521 447.245
1840 0 71.065 13.4525 956 107.336 122.953 451.073
1841 0 74.2215 13.4328 997 108.804 122.277 447.551
1842 0 75.1508 9.58074 720 110.799 124.097 450.832
1843 0 77.2346 10.8501 838 110.359 124.594 444.395
1844 0 79.1748 8.95487 709 112.889 125.638 442.501
1845 0 84.1513 9.89884 833 109.364 124.583 445.377
1846 0 86.1544 12.8142 1104 106.789 126.048 438.721
1847 0 90.1673 12.0554 1087 107.373 125.571 442.489
1848 0 95.316 9.58916 914 109.049 126.206 445.427
1849 1 51.3195 9.29471 477 104.474 128.727 468.816
1850 0 53.4805 15.1457 810 95.4 127.614 465.551
1851 0 54.3563 9.30895 506 103.749 127.474 464.82
1852 0 59.292 14.437 856 102.619 124.852 468.681
1853 0 60.1026 12.462 749 105.371 125.013 471.924
1854 0 57.1896 10.3865 594 109.684 124.232 468.981
1855 0 61.097 13.1267 802 105.757 124.177 474.43
1856 0 64.2089 12.0077 771 108.336 123.49 472.157
1857 0 64.1531 11.1764 717 110.625 122.469 468.332
1858 0 65.2259 11.3299 739 110.402 122.184 473.03
1859 0 71.1481 13.4649 958 106.896 121.466 468.537
1860 0 73.1428 14.8203 1084 106.211 121.444 465.513
1861 0 73.081 11.1246 813 111.347 120.77 467.839
1862 0 78.2445 13.7134 1073 107.689 119.84 464.631
1863 0 80.1817 12.5714 1008 109.477 119.566 461.451
1864 0 82.2181 10.387 854 114.022 118.087 461.187
1865 0 84.1752 12.3789 1042 110.279 117.295 459.162
1866 0 92.1878 12.8325 1183 108.524 118.232 458.12
1867 1 49.061 8.62193 423 113.002 117.047 478.44
1868 0 51.2449 12.1378 622 111.383 117.656 474.73
1869 0 52.1977 11.399 595 105.85 120.526 467.474
1870 0 56.0944 12.6038 707 103.898 120.726 471.852
1871 0 59.1604 13.6747 809 101.618 121.011 468.192
1872 0 59.3527 18.9208 1123 96.2493 120.003 471.357
1873 0 59.111 12.3158 728 106.898 120.599 463.093
1874 0 59.1749 10.6126 628 107.814 121.537 467.518
1875 0 62.2012 9.93549 618 108.45 121.924 467.985
1876 0 62.2491 12.6106 785 104.618 121.344 467.711
1877 0 60.1253 8.86483 533 109.942 122.525 467.291
1878 0 65.3357 11.9077 778 107.764 122.895 460.644
1879 0 71.2886 13.0456 930 106.635 122.483 452.067
1880 0 75.4992 12.3842 935 107.74 123.664 453.206
1881 0 76.2487 12.3019 938 108.191 123.979 452.048
1882 0 77.3214 10.5404 815 110.849 125.308 447.72
1883 1 40.1421 9.5162 382 109.686 126.029 468.848
1884 0 45.2017 13.9154 629 103.424 126.316 468.857
1885 0 48.2787 14.1056 681 101.993 126.58 468.769
1886 0 46.5715 12.411 578 105.832 123.645 464.042
1887 0 46.074 11.3947 525 107.385 124.36 469.461
1888 0 45.0804 11.668 526 128.804 127.375 469.259
1889 0 49.051 12.7622 626 107.029 125.359 467.954
1890 0 52.094 13.3221 694 105.267 125.635 468.131
1891 0 52.1597 11.3114 590 110.395 126.117 468.439
1892 0 57.2889 16.9841 973 99.1706 124.705 473.289
1893 0 56.2588 11.8559 667 106.931 126.409 474.703
1894 0 57.1647 15.1842 868 103.658 124.974 473.069
1895 0 59.2539 18.7836 1113 98.841 125.035 475.989
1896 0 63.172 13.0279 823 106.667 124.326 476.505
1897 0 63.1813 14.9411 944 106.511 125.662 471.054
1898 0 65.2163 12.7729 833 109.478 124.589 471.421
1899 0 66.5838 14.2227 947 107.795 125.004 472.395
1900 0 68.5154 20.8128 1426 99.9137 124.209 468.575
1901 0 68.5342 11.1477 764 114.92 122.925 472.305
1902 0 71.4955 12.854 919 111.085 123.132 471.581
1903 0 74.5553 12.5276 934 112.076 121.756 470.094
1904 0 79.0381 16.1821 1279 105.939 121.464 467.435
1905 0 77.6362 14.1171 1096 111.078 120.37 460.551
1906 0 83.068 13.7117 1139 110.478 120.349 462.741
1907 0 85.1036 15.1345 1288 108.453 120.43 459.057
1908 0 87.8752 14.623 1285 110.245 119.31 454.52
1909 0 86.544 12.7334 1102 113.127 118.883 456.471
1910 0 85.9537 14.1937 1220 112.075 119.618 454.001
1911 0 95.3322 15.6715 1494 108.564 118.313 457.548
1912 1 56.3038 12.4858 703 113.878 118.381 468.033
1913 0 55.221 15.4108 851 109.456 116.787 469.88
1914 0 57.125 14.3195 818 111.62 117.95 465.908
1915 0 55.2288 10.8096 597 117.583 117.956 467.085
1916 0 59.379 12.6139 749 114.198 118.927 464.968
1917 0 60.4301 13.9997 846 112.372 117.554 466.24
1918 0 62.2507 15.293 952 110.975 118.313 461.12
1919 0 63.692 13.8793 884 112.626 118.434 459.663
1920 0 64.3028 13.1254 844 114.129 118.77 460.422
1921 0 66.488 10.438 694 117.968 119.179 460.233
1922 0 68.6114 15.2744 1048 110.974 120.197 457.928
1923 0 71.4745 15.3062 1094 110.392 119.966 453.965
1924 0 74.4544 12.2222 910 113.989 122.574 456.475
1925 0 78.3398 14.7179 1153 110.075 123.293 456.291
1926 0 75.4144 10.3163 778 118.374 123.936 449.519
1927 0 82.4093 17.9106 1476 105.93 124.299 453.14
1928 0 84.6652 14.2325 1205 110.3 125.188 453.183
1929 0 84.2587 15.132 1275 110.702 125.992 449.944
1930 0 89.303 14.4004 1286 111.371 126.876 449.748
1931 0 91.4439 21.1386 1933 102.836 126.28 443.785
1932 1 47.1601 3.45631 163 122.043 127.515 470.515
1933 0 53.1952 15.7533 838 102.977 128.124 471.208
1934 0 52.2777 13.1222 686 105.602 129.21 471.318
1935 0 57.3194 11.8982 682 106.438 128.418 464.71
1936 0 60.0753 12.9005 775 104.832 129.219 466.855
1937 0 62.1837 13.2993 827 103.108 128.55 473.615
1938 0 59.2002 12.9898 769 106.999 127.918 468.251
1939 0 62.0742 13.3872 831 107.463 127.958 469.014
1940 0 65.0851 13.8742 903 106.935 126.866 469.591
1941 0 69.213 12.541 868 107.776 128.524 472.287
1942 0 73.2307 14.229 1042 105.79 126.818 469.36
1943 0 72.1831 16.1811 1168 104.55 126.657 467.475
1944 0 71.1916 10.5771 753 113.448 125.873 470.382
1945 0 75.345 14.0023 1055 109.431 122.366 464.087
1946 0 78.2562 8.76608 686 116.592 123.192 466.16
1947 0 79.2252 12.13 961 113.416 122.091 462.31
1948 1 43.215 10.6907 462 111.944 121.727 482.05
1949 0 45.2343 12.2694 555 110.056 121.618 481.317
1950 0 44.2786 10.5017 465 113.744 121.209 478.28
1951 0 47.0817 12.1703 573 106.63 120.361 471.698
1952 0 48.16 10.299 496 109.915 120.198 475.115
1953 0 50.2542 12.5363 630 106.178 120.137 474.398
1954 0 51.0834 11.3344 579 110.266 120.829 469.37
1955 0 54.1181 17.1846 930 101.371 119.214 468.019
1956 0 52.2745 10.8657 568 110.356 117.835 465.338
1957 0 56.1805 13.1184 737 107.204 118.59 464.278
1958 0 56.431 15.0272 848 105.5 119.403 459.1
1959 0 56.2429 11.5748 651 110.908 119.837 458.598
1960 0 55.113 9.4896 523 115.866 119.696 457.604
1961 0 59.1047 15.9886 945 106.041 119.644 454.787
1962 0 62.0901 11.2417 698 121.09 118.917 463.35
1963 0 65.17 14.6693 956 115.736 118.773 459.581
1964 0 65.1696 11.9688 780 121.418 119.122 457.812
1965 0 66.2811 13.322 883 119.008 121.352 453.687
1966 0 72.1373 14.1258 1019 116.716 121.577 454.291
1967 0 74.1233 14.4354 1070 116.604 121.668 455.451
1968 0 73.2038 11.2426 823 123.67 122.543 452.096
1969 0 77.276 13.4194 1037 120.249 123.991 450.968
1970 0 78.3597 12.1363 951 122.525 123.985 452.977
1971 0 85.3392 13.7217 1171 120.071 124.611 450.816
1972 0 87.2503 13.318 1162 121.301 125.46 450.056
1973 0 88.2787 13.4121 1184 122.517 125.189 448.074
1974 1 50.2066 10.9348 549 121.814 124.67 467.668
1975 0 52.5832 13.7306 722 113.608 126.922 464.461
1976 0 56.5874 13.9784 791 111.903 128.058 465.966
1977 0 57.3877 15.648 898 112.818 127.184 461.784
1978 0 56.2435 13.2104 743 118.721 128.203 463.12
1979 0 58.2872 12.2497 714 120.063 128.639 464.396
1980 0 62.192 14.7125 915 114.822 129.032 467.06
1981 0 65.1082 12.4562 811 118.75 127.639 467.303
1982 0 66.1871 12.797 847 118.508 126.765 465.492
1983 0 68.2954 15.9308 1088 112.151 126.137 466.335
1984 0 72.2235 13.5136 976 115.27 126.389 467.785
1985 0 76.4137 13.3746 1022 114.152 125.207 467.573
1986 0 77.4002 12.1576 941 117.241 125.768 466.713
1987 0 78.3546 12.7242 997 116.209 123.427 465.958
1988 0 81.1494 13.5799 1102 115.553 124.658 461.847
1989 0 84.1922 14.0987 1187 114.813 122.533 459.709
1990 0 86.1582 17.5375 1511 109.454 123.392 457.262
1991 0 90.6153 12.7793 1158 115.083 122.809 460.541
1992 0 93.4243 14.3646 1342 114.233 122.198 457.913
1993 0 96.5332 14.7825 1427 114.315 121.755 453.351
1994 0 99.5791 15.0634 1500 114.827 122.145 449.746
1995 0 102.711 14.8182 1522 115.405 119.714 450.646
1996 1 58.1869 9.55542 556 121.088 121.138 472.504
1997 0 58.3353 9.41112 549 122.377 119.964 470.75
1998 0 60.1596 14.8439 893 113.716 120.979 468.782
1999 0 64.0924 12.6692 812 118.931 120.718 467.372
2000 0 64.0924 12.5912 807 141.055 119.699 467.385
2001 0 68.0833 12.6463 861 120.893 119.058 462.756
2002 0 69.1428 15.5186 1073 116.733 120.812 458.951
2003 0 73.0553 14.4685 1057 117.032 120.184 460.979
2004 0 76.1518 10.4003 792 123.593 123.264 459.673
2005 0 77.1441 13.9479 1076 119.148 123.086 455.809
2006 0 80.2654 13.256 1064 120.2 122.028 453.427
2007 0 84.1681 13.8176 1163 115.598 123.64 455.493
2008 0 86.2897 14.3238 1236 115.133 123.332 453.783
2009 0 90.343 15.895 1436 113.858 124.189 448.004
2010 0 93.4715 12.2069 1141 119.263 125.81 448.593
2011 1 49.3201 14.4363 712 112.542 125.499 466.131
2012 0 50.7096 12.9364 656 113.579 124.386 462.412
2013 0 53.1519 13.8847 738 111.939 125.911 466.157
2014 0 51.1853 11.8589 607 116.493 127.138 468.331
2015 0 53.2812 11.1484 594 118.714 127.569 466.453
2016 0 59.2735 13.6823 811 110.292 128.29 469.974
2017 0 60.3297 16.5259 997 107.394 128.249 466.662
2018 0 64.1251 16.1871 1038 106.877 128.352 466.269
2019 0 62.1088 11.5282 716 115.719 129.471 465.786
2020 0 64.2529 14.5052 932 110.233 129.408 467.591
2021 0 64.19 13.3666 858 114.12 128.888 465.536
2022 0 66.1682 12.6042 834 115.49 129.248 463.929
2023 0 71.3039 13.8842 990 112.569 128.643 463.874
2024 0 74.3746 13.6202 1013 111.669 128.119 466.326
2025 0 76.4814 15.5332 1188 110.187 126.79 464.72
2026 0 77.4259 12.1406 940 115.245 127.735 463.139
2027 0 80.3807 14.9041 1198 110.89 125.624 463.502
2028 0 82.5662 12.7655 1054 114.497 127.292 460.266
2029 0 86.5414 12.4565 1078 115.481 125.81 458.942
2030 0 90.3833 12.3695 1118 113.849 124.472 462.863
2031 1 48.2309 8.5837 414 115.35 124.343 479.877
2032 0 52.3202 11.9648 626 109.794 123.136 476.845
2033 0 53.5237 14.2927 765 102.609 122.414 473.274
2034 0 54.418 13.6168 741 106.072 122.031 468.683
2035 0 54.4717 8.53654 465 113.417 120.295 468.785
2036 0 58.133 13.7959 802 105.127 121.971 469.753
2037 0 60.1107 14.0907 847 104.979 121.366 471.226
2038 0 61.2309 13.4899 826 106.742 120.794 470.956
2039 0 62.1482 14.031 872 107.049 120.889 470.776
2040 0 63.1205 13.2287 835 108.784 120.048 464.622
2041 0 64.1651 13.4653 864 108.59 120.633 464.872
2042 0 67.2486 15.3609 1033 105.836 120.824 461.926
2043 0 70.2348 18.1107 1272 101.336 120.655 463.859
2044 0 70.1193 13.8621 972 108.695 120.807 458.821
2045 0 71.2374 14.7816 1053 107.25 120.606 455.453
2046 0 73.1972 15.4378 1130 106.14 120.582 455.651
2047 0 76.1462 14.3671 1094 107.77 121.354 451.893
2048 0 78.1895 11.2291 878 111.829 121.195 454.298
2049 0 83.1719 11.2899 939 110.726 124.075 454.645
2050 0 90.2962 14.7182 1329 104.708 122.362 452.272
2051 0 90.2152 14.5319 1311 106.744 123.616 444.532
2052 0 93.4838 11.7133 1095 110.516 124.744 441.462
2053 1 52.0366 15.6428 814 105.311 125.125 463.66
2054 0 53.055 13.2881 705 109.742 125.257 463.664
2055 0 57.1013 14.1328 807 107.259 127.632 462.358
2056 0 56.0957 13.5839 762 105.186 126.356 460.416
2057 0 63.1021 13.597 858 103.656 127.941 464.237
2058 0 63.1359 17.5336 1107 99.4959 127.694 461.83
2059 0 62.1288 15.1138 939 104.409 128.436 462.511
2060 0 64.2279 14.4174 926 104.583 128.563 460.695
2061 0 68.235 13.644 931 105.162 128.743 462.144
2062 0 69.1051 12.604 871 107.732 128.327 462.316
2063 0 72.2961 14.1363 1022 106.454 128.074 459.921
2064 0 75.197 16.49 1240 103.699 128.717 461.398
2065 0 76.2167 13.2254 1008 107.684 129.143 465.56
2066 0 78.1787 14.7866 1156 108.131 129.219 460.965
2067 0 82.1432 13.8782 1140 109.131 127.916 460.011
2068 0 84.458 14.9068 1259 108.381 128.575 462.904
2069 0 88.2224 16.6738 1471 106.615 127.557 461.326
2070 0 93.242 16.5376 1542 107.997 127.479 457.647
2071 0 94.1586 15.3571 1446 111.205 126.55 456.915
2072 0 95.1566 14.618 1391 144.825 125.525 457.265
2073 0 102.302 16.549 1693 109.917 124.849 457.874
2074 1 57.2964 11.8681 680 117.11 124.072 474.24
2075 0 57.1251 11.6061 663 119.315 123.472 473.326
2076 0 54.0736 11.8912 643 119.157 122.538 466.633
2077 0 59.071 13.3568 789 117.873 122.58 468.634
2078 0 62.1155 12.5572 780 120.181 121.785 468.213
2079 0 61.0653 11.7415 717 123.113 122.3 464.753
2080 0 67.1574 12.3292 828 120.498 120.849 464.368
2081 0 66.162 11.9102 788 124.105 121.291 459.306
2082 0 67.1296 13.9283 935 120.845 121.422 460.15
2083 0 69.0576 11.6135 802 124.582 120.131 458.374
2084 0 71.0578 13.2427 941 123.273 121.617 452.117
2085 0 73.1725 15.0466 1101 119.905 120.642 449.42
2086 0 75.1858 14.391 1082 120.325 121.139 450.689
2087 0 79.0995 15.2466 1206 118.493 121.409 445.837
2088 0 80.2117 14.5365 1166 120.089 121.114 446.614
2089 0 86.0727 19.4952 1678 110.191 120.642 446.27
2090 0 88.2636 15.9182 1405 112.972 121.695 443.452
2091 0 89.1379 16.166 1441 113.771 122.819 443.379
2092 0 91.1287 14.7264 1342 116.452 123.174 441.471
2093 0 91.1715 13.4362 1225 118.954 123.291 436.753
2094 0 95.1026 15.8355 1506 114.35 123.562 435.57
2095 1 52.1068 11.3037 589 121.472 125.535 456.735
2096 0 54.0807 11.113 601 121.276 126.782 457.235
2097 0 59.0959 15.111 893 112.403 126.038 457.479
2098 0 59.3105 15.5453 922 113.002 126.57 454.381
2099 0 58.054 12.2817 713 118.85 126.825 460.834
2100 0 61.1088 12.6823 775 117.53 127.843 457.778
2101 0 61.0575 12.5456 766 117.487 128.218 461.242
2102 0 63.266 15.664 991 112.115 127.826 459.78
2103 0 67.3778 15.8509 1068 112.625 128.328 456.352
2104 0 72.5306 15.1522 1099 111.134 129.046 460.271
2105 0 72.0823 17.7991 1283 108.325 128.784 452.555
2106 0 72.1737 14.8808 1074 113.863 129.769 452.97
2107 0 76.3773 19.587 1496 105.979 127.064 451.632
2108 0 77.5959 16.4699 1278 111.336 126.844 456.682
2109 0 81.3426 14.273 1161 115.983 127.018 450.836
2110 0 86.3294 14.908 1287 112.416 125.681 456.441
2111 0 86.5674 18.3787 1591 109.765 125.806 455.965
2112 0 91.3481 14.7458 1347 116.059 124.963 451.968
2113 0 93.5167 17.6439 1650 111.638 125.554 452.099
2114 0 99.913 17.5553 1754 111.795 124.456 447.93
2115 0 102.451 15.8905 1628 114.631 123.768 447.095
2116 0 103.479 17.9649 1859 112.08 122.012 448.096
2117 0 108.897 17.5579 1912 113.467 121.229 443.086
2118 1 59.6188 13.1167 782 118.495 122.04 466.292
2119 0 59.2641 11.6259 689 123.158 121.962 462.598
2120 0 61.2949 13.7858 845 117.536 121.44 463.673
2121 0 63.2479 14.2613 902 118.312 119.631 463.166
2122 0 67.5148 12.1455 820 117.489 119.152 463.204
2123 0 71.47 14.4396 1032 112.519 119.884 461.404
2124 0 72.7543 11.9581 870 116.716 119.476 459.924
2125 0 75.682 14.0853 1066 115.55 120.27 453.476
2126 0 74.3971 10.9816 817 119.001 119.952 458.04
2127 0 78.5743 12.8668 1011 118.226 118.717 451.253
2128 0 81.6846 14.9355 1220 114.361 120.489 452.491
2129 0 84.5614 13.162 1113 117.464 118.218 450.676
2130 0 87.5874 12.2506 1073 118.835 119.458 448.398
2131 0 90.1397 14.2113 1281 114.712 120.206 450.726
2132 0 86.3054 11.2044 967 122.386 119.869 446.446
2133 0 92.6702 12.3017 1140 119.96 121.721 446.035
2134 0 94.5064 12.6552 1196 117.473 122.329 448.912
2135 0 99.6651 14.4484 1440 116.548 122.522 441.91
2136 0 102.481 13.8952 1424 116.01 122.594 445.353
2137 1 56.1119 12.2612 688 113.118 124.065 462.371
2138 0 59.1211 12.1277 717 113.428 124.338 460.488
2139 0 61.0659 12.0198 734 111.943 125.213 457.435
2140 0 62.204 11.9446 743 113.509 126.825 459.567
2141 0 62.204 12.041 749 133.414 128.778 459.579
2142 0 67.1051 13.8738 931 111.318 126.45 456.168
2143 0 70.1314 14.8293 1040 108.749 126.407 458.585
2144 0 74.1808 13.157 976 111.094 126.805 457.594
2145 0 72.1991 11.5652 835 115.347 128.121 456.342
2146 0 77.2652 14.4955 1120 106.179 126.863 454.395
2147 0 77.2349 12.1189 936 110.561 128.627 454.885
2148 0 83.3774 14.7402 1229 105.839 127.525 456.849
2149 0 84.2484 13.662 1151 108.348 126.993 450.398
2150 0 85.4731 11.8283 1011 110.446 126.621 456.298
2151 0 90.153 14.1315 1274 106.801 125.093 456.103
2152 0 93.2905 14.3852 1342 108.217 126.393 449.784
2153 0 97.2555 13.5519 1318 108.811 127.439 448.843
2154 0 100.141 13.0316 1305 109.714 127.177 447.251
2155 0 101.473 12.0722 1225 112.426 125.476 446.299
2156 0 107.491 12.8197 1378 112.381 125.307 452.534
2157 1 64.386 10.1886 656 109.674 124.552 474.564
2158 0 64.1486 13.8273 887 108.584 121.984 467.755
2159 0 66.4221 12.3754 822 108.436 122.084 466.74
2160 0 70.419 16.3024 1148 101.595 120.374 468.578
2161 0 74.405 13.4265 999 106.007 121.262 463.366
2162 0 76.568 14.1443 1083 103.828 120.316 460.146
2163 0 76.2652 12.9679 989 107.316 120.328 460.036
2164 0 81.2918 11.0835 901 109.06 120.059 456.878
2165 0 82.2462 13.3015 1094 106.224 119.113 456.852
2166 0 88.4003 12.7149 1124 106.841 119.62 453.083
2167 0 92.1964 16.0418 1479 102.516 120.567 453.893
2168 1 45.0787 9.02866 407 108.319 120.649 470.472
2169 0 48.1142 8.08494 389 108.509 119.769 474.391
2170 0 50.1403 12.5448 629 103.218 120.326 467.335
2171 0 50.1806 12.6344 634 104.26 116.052 468.696
2172 0 53.1159 10.0911 536 107.627 116.808 467.987
2173 0 53.3407 11.1922 597 107.089 118.129 464.157
2174 0 55.2499 12.0181 664 106.128 117.914 464.733
2175 0 59.0511 12.0912 714 106.382 119.08 463.359
2176 0 59.1688 10.9517 648 112.256 117.44 460.798
2177 0 60.099 13.8272 831 108.176 118.792 458.569
2178 0 61.1125 11.9125 728 111.545 118.74 459.824
2179 0 62.1797 12.2709 763 111.374 120.014 457.907
2180 0 63.236 13.0305 824 110.16 121.289 457.282
2181 0 66.1845 14.52 961 107.72 122.324 455.108
2182 0 67.2927 10.863 731 113.979 122.315 455.78
2183 0 70.1833 12.5528 881 111.287 123.521 455.62
2184 0 73.1481 16.1453 1181 105.301 123.079 456.447
2185 0 71.1949 13.8774 988 110.24 123.112 454.2
2186 0 77.2444 16.2212 1253 105.733 124.178 454.914
2187 0 77.2472 13.1267 1014 110.83 124.44 453.227
2188 0 79.3152 13.4274 1065 110.378 126.131 450.528
2189 0 83.2599 15.3015 1274 108.292 126.535 455.301
2190 0 87.5809 16.1565 1415 107.071 125.684 452.363
2191 0 89.2591 14.049 1254 109.965 125.865 450.862
2192 0 91.3979 14.3329 1310 106.206 125.236 457.056
2193 0 97.4592 13.5544 1321 108.503 126.187 452.085
2194 0 98.2076 13.278 1304 109.857 126.383 448.608
2195 0 105.417 18.1565 1914 100.131 124.651 457.681
2196 1 60.3664 11.3639 686 105.512 123.066 474.953
2197 0 62.1426 12.6966 789 106.414 124.804 474.918
2198 0 65.2399 13.3507 871 104.085 126.263 470.888
2199 0 67.1922 15.5822 1047 102.278 125.469 470.115
2200 0 68.2789 13.0934 894 106.776 124.487 471.1
2201 0 69.2012 12.2686 849 106.624 124.78 470.954
2202 0 71.137 10.29 732 108.818 122.63 473.287
2203 0 76.299 18.5192 1413 99.3036 121.855 465.335
2204 0 77.2966 12.3809 957 108.972 122.958 463.551
2205 0 80.1965 14.5393 1166 105.02 122.746 466.111
2206 0 84.2821 15.6261 1317 103.809 121.24 460.11
2207 0 86.4158 15.437 1334 104.906 120.89 459.136
2208 0 88.1759 13.3143 1174 109.329 120.248 456.871
2209 0 90.1368 14.2672 1286 108.49 119.638 453.544
2210 0 93.1908 13.6816 1275 108.827 119.686 455.391
2211 1 49.1286 12.2739 603 112.073 120.209 469.788
2212 0 55.2036 10.887 601 111.496 121.572 471.185
2213 0 56.0912 15.6353 877 104.489 120.442 466.447
2214 0 57.1043 11.9256 681 109.272 120.696 466.266
2215 0 59.0519 14.7836 873 105.755 120.317 464.629
2216 0 59.0522 12.7006 750 107.433 120.911 463.501
2217 0 61.2343 14.7956 906 104.76 116.716 460.868
2218 0 60.3433 11.8157 713 110.881 118.327 458.027
2219 0 64.1602 14.1365 907 107.006 118.041 459.409
2220 0 65.2386 12.2933 802 110.493 119.747 456.587
2221 0 67.2062 12.6774 852 110.297 121.438 454.425
2222 0 71.2905 18.123 1292 99.3599 119.628 460.43
2223 0 71.2698 15.6027 1112 104.549 120.433 454.789
2224 0 73.2672 16.665 1221 103.987 121.288 453.234
2225 0 74.3066 17.4951 1300 103.311 123.225 452.3
2226 0 77.3138 15.547 1202 105.656 122.83 453.393
2227 0 79.4167 12.957 1029 109.736 123.631 451.472
2228 0 81.2685 16.9315 1376 104.485 122.778 451.143
2229 0 84.288 13.1454 1108 109.246 124.748 451.016
2230 0 86.4668 16.0987 1392 106.74 125.568 448.175
2231 0 90.428 15.4488 1397 105.763 125.853 452.64
2232 0 96.3454 14.8113 1427 106.962 126.172 446.504
2233 0 96.2516 14.2231 1369 108.701 125.666 447.843
2234 0 99.3213 13.26 1317 108.027 126.655 453.311
2235 0 100.189 16.6186 1665 105.752 126.853 445.247
2236 0 106.344 16.8416 1791 104.919 126.561 447.883
2237 0 105.167 13.3788 1407 109.362 125.959 451.328
2238 0 115.383 13.9015 1604 108.393 123.603 445.878
2239 0 119.273 15.4436 1842 105.282 125.224 450.816
2240 0 122.271 14.656 1792 107.797 124.272 442.249
2241 1 72.1768 12.2338 883 108.254 123.737 464.314
2242 0 77.4076 16.5229 1279 100.008 123.73 462.128
2243 0 76.2599 13.1917 1006 104.202 124.731 461.043
2244 0 79.3491 11.4305 907 106.599 122.965 463.436
2245 0 80.2889 14.0742 1130 104.527 122.697 459.973
2246 0 84.2026 11.7692 991 107.245 121.935 456.344
2247 0 86.2552 11.4312 986 107.797 121.483 452.036
2248 0 89.2291 13.3365 1190 106.145 121.712 450.928
2249 0 95.2932 16.507 1573 101.639 120.433 453.13
2250 0 96.2431 13.7049 1319 107.101 120.952 444.188
2251 0 101.164 13.4831 1364 105.606 121.22 454.044
2252 0 105.392 19.4227 2047 99.1593 120.195 441.09
2253 0 106.237 13.6582 1451 107.155 120.153 440.751
2254 0 110.259 13.0601 1440 107.413 119.101 437.766
2255 1 58.1063 11.3929 662 106.248 119.437 464.343
2256 0 62.2557 13.8301 861 101.052 118.942 466.66
2257 0 59.3682 10.9991 653 108.377 120.087 460.178
2258 0 63.3347 13.5787 860 104.129 121.786 459.313
2259 0 64.217 13.7035 880 104.817 121.584 459.644
2260 0 65.1208 9.59755 625 109.422 121.859 462.326
2261 0 70.1025 15.5059 1087 101.492 122.862 458.278
2262 0 69.3321 14.3224 993 105.209 121.573 454.698
2263 0 72.2039 18.2123 1315 99.4578 123.188 451.362
2264 0 76.2475 16.8399 1284 99.5335 123.942 455.211
2265 0 77.1661 17.0671 1317 101.15 123.752 449.195
2266 0 80.2521 18.7783 1507 99.0697 124.352 445.973
2267 0 80.1909 15.4132 1236 104.182 123.998 447.074
2268 0 80.3894 17.6018 1415 101.476 123.729 449.151
2269 0 86.5364 13.0928 1133 107.764 126.015 448.095
2270 0 89.3891 17.2169 1539 102.378 125.465 449.007
2271 0 89.3288 14.094 1259 107.299 125.925 448.915
2272 0 89.3379 9.79428 875 113.776 128.409 446.01
2273 0 94.3552 14.3924 1358 107.128 127.904 446.062
2274 0 99.2653 14.2547 1415 107.278 129.11 443.107
2275 0 103.556 15.3348 1588 105.787 128.674 445.062
2276 0 107.339 16.4432 1765 104.134 127.785 443.427
2277 1 58.1682 10.504 611 109.977 128.252 470.524
2278 0 61.2177 13.2478 811 106.363 129.154 468.173
2279 0 61.2723 11.1796 685 109.639 128.54 467.004
2280 0 66.2062 15.2554 1010 103.773 129.041 468.05
2281 0 68.2779 14.7193 1005 105.741 127.032 465.448
2282 0 71.1473 15.8263 1126 103.916 127.245 464.879
2283 0 73.2485 14.7989 1084 105.87 127.124 465.458
2284 0 74.0958 11.4311 847 111.058 126.614 467.019
2285 0 79.1676 17.3556 1374 102.54 125.841 465.863
2286 0 81.1151 16.1746 1312 104.371 125.034 464.649
2287 0 81.1201 13.3259 1081 108.869 124.17 465.098
2288 0 82.0719 14.3411 1177 109.386 123.824 458.107
2289 0 86.1418 14.0002 1206 109.783 122.783 456.077
2290 0 90.1961 16.7191 1508 105.718 122.464 457.064
2291 0 93.2339 15.5952 1454 107.405 120.109 455.265
2292 0 95.2117 16.8572 1605 105.213 121.972 457.369
2293 0 98.3214 14.5848 1434 108.964 120.616 452.826
2294 0 101.224 14.384 1456 109.648 120.141 451.712
2295 0 99.2306 12.0024 1191 115.23 118.411 450.405
2296 0 105.317 15.0023 1580 111.113 119.773 446.119
2297 0 109.216 14.9246 1630 109.896 120.029 449.804
2298 0 109.348 14.2298 1556 113.347 119.729 443.133
2299 0 112.385 15.7138 1766 111.263 119.476 438.737
2300 0 116.645 18.192 2122 107.131 119.272 432.676
2301 0 119.632 18.0053 2154 105.809 119.031 435.586
2302 0 124.758 19.7662 2466 104.205 118.819 427.848
2303 0 125.379 15.7602 1976 109.56 119.314 428.808
2304 0 129.332 15.3635 1987 108.815 119.903 432.787
2305 0 135.635 14.1114 1914 112.265 119.847 423.753
2306 0 136.482 14.9104 2035 113.114 121.197 415.327
2307 0 144.539 17.5732 2540 107.405 121.526 424.316
2308 0 143.695 14.0019 2012 114.089 124.367 422.006
2309 0 150.676 13.2935 2003 117.721 124.297 412.598
2310 1 85.4339 12.8286 1096 113.012 125.523 445.628
2311 0 85.151 13.5172 1151 112.146 126.059 447.649
2312 0 90.2991 15.4376 1394 109.486 125.915 444.184
2313 0 94.2323 12.9467 1220 112.147 127.095 449.707
2314 0 98.2111 14.6725 1441 111.319 127.236 447.154
2315 0 100.249 14.3842 1442 113.442 127.821 444.619
2316 0 102.281 16.0832 1645 112.401 127.915 441.77
2317 0 105.269 16.1587 1701 113.466 127.675 441.45
2318 0 108.114 14.1795 1533 117.819 128.479 440.107
2319 0 114.365 17.4354 1994 110.032 127.69 446.396
2320 0 113.292 11.3423 1285 121.293 127.1 443.854
2321 0 119.504 14.0665 1681 119.069 126.64 439.935
2322 1 64.3103 12.1909 784 116.769 124.077 465.943
2323 0 68.3754 15.02 1027 112.544 123.341 464.299
2324 0 67.4209 15.3662 1036 111.128 123.426 464.61
2325 0 68.2227 15.2149 1038 112.021 122.965 466.036
2326 0 74.356 15.1434 1126 110.527 122.907 466.563
2327 0 70.2186 12.2332 859 118.983 122.44 462.161
2328 0 79.2638 14.0543 1114 114.451 121.883 464.896
2329 0 79.2391 12.8977 1022 117.167 120.595 460.652
2330 0 82.1788 12.1929 1002 118.358 120.476 456.826
2331 0 86.2363 15.5735 1343 113.323 119.602 454.253
2332 0 89.3754 15.9664 1427 112.602 119.365 455.628
2333 0 90.4086 16.171 1462 112.321 119.413 456.259
2334 0 95.3282 15.0638 1436 113.364 118.361 454.613
2335 0 98.3217 15.9273 1566 111.991 118.425 451.012
2336 0 100.414 14.9879 1505 114.542 117.747 450.365
2337 0 102.255 15.8526 1621 114.014 118.109 445.265
2338 0 103.22 16.4309 1696 114.017 118.441 441.521
2339 0 108.21 15.5161 1679 115.154 117.861 441.058
2340 0 110.334 17.6464 1947 112.093 117.822 438.886
2341 0 114.184 13.4607 1537 119.173 118.652 438.047
2342 0 118.165 16.4261 1941 112.655 117.816 439.191
2343 0 121.219 14.049 1703 116.967 118.112 435.032
2344 0 126.463 16.4475 2080 113.127 118.792 429.716
2345 1 71.1874 9.84724 701 111.536 119.652 449.83
2346 0 73.2442 11.0999 813 109.121 120.049 451.813
2347 0 75.2311 13.6513 1027 107.547 120.019 447.865
2348 0 79.3578 13.08 1038 108.406 121.544 444.649
2349 0 80.4557 9.69478 780 112.103 121.581 448.068
2350 0 81.1722 10.4469 848 112.097 123.199 442.763
2351 0 83.3921 11.8356 987 111.827 123.782 439.586
2352 0 89.2491 12.4147 1108 109.782 123.859 440.467
2353 0 91.5023 13.4204 1228 108.849 125.216 438.77
2354 0 93.5018 12.6415 1182 110.162 125.971 437.553
2355 0 94.1755 12.0838 1138 111.638 125.902 435.728
2356 0 99.3571 12.2789 1220 111.062 126.631 431.148
2357 0 102.623 13.2524 1360 109.03 124.847 438.249
2358 0 104.795 12.1475 1273 110.809 127.233 431.729
2359 0 110.446 11.8519 1309 109.61 127.262 439.832
2360 0 114.36 12.6618 1448 109.292 127.478 429.351
2361 0 121.281 11.8238 1434 110.014 126.221 436.984
2362 1 69.1827 11.6214 804 102.969 125.944 466.519
2363 0 68.6243 13.552 930 107.67 124.901 462.855
2364 0 71.3105 11.8075 842 108.601 126.074 461.3
2365 0 74.4082 10.7515 800 109.641 124.661 466.732
2366 0 77.2734 13.2387 1023 107.429 124.44 463.762
2367 0 81.4146 13.941 1135 106.013 124.282 465.099
2368 0 84.3987 14.005 1182 106.717 123.854 459.123
2369 0 89.387 18.8842 1688 100.436 121.329 461.224
2370 0 89.2368 14.4671 1291 107.295 121.077 457.65
2371 0 92.3366 13.4724 1244 109.256 120.535 458.635
2372 0 94.584 12.9832 1228 110.756 118.678 452.208
2373 0 99.4666 15.8143 1573 106.486 119.592 454.385
2374 0 103.43 12.83 1327 112.07 118.485 452.528
2375 0 104.466 12.9038 1348 112.542 117.7 443.991
2376 0 108.308 14.588 1580 110.577 117.341 446.47
2377 0 110.318 14.8932 1643 110.055 116.522 449.919
2378 0 114.39 13.9523 1596 112.472 116.619 443.35
2379 0 119.533 16.8406 2013 107.779 116.191 442.634
2380 0 121.328 12.9566 1572 114.809 116.733 434.996
2381 0 125.319 15.704 1968 111.419 117.732 435.323
2382 0 126.344 14.0172 1771 113.216 117.383 437.787
2383 0 133.77 15.0782 2017 112.958 116.903 422.088
2384 0 135.57 15.4164 2090 113.376 117.398 420.128
2385 0 142.782 16.1365 2304 111.366 118.024 422.212
2386 0 143.496 11.7355 1684 117.744 118.71 423.223
2387 0 148.534 16.1107 2393 112.223 119.776 419.485
2388 0 156.91 16.0984 2526 112.726 119.431 413.06
2389 0 158.54 16.98 2692 110.935 119.606 417.472
2390 0 161.43 12.7671 2061 119.317 120.439 407.746
2391 0 167.457 18.2912 3063 109.558 120.823 415.115
2392 0 171.466 17.0471 2923 114.612 120.65 396.153
2393 0 173.462 13.5764 2355 121.349 122.459 396.277
2394 0 182.38 15.2265 2777 117.848 122.178 405.092
2395 0 187.647 16.2539 3050 118.395 123.584 391.56
2396 0 194.796 17.2386 3358 116.342 123.545 394.515
2397 0 197.843 14.6379 2896 120.388 124.598 395.15
2398 0 210.252 18.7632 3945 113.781 124.974 380.918
2399 0 219 17.274 3783 114.863 125.125 393.785
2400 1 169.51 13.5685 2300 121.86 126.063 412.05
2401 0 175.655 15.502 2723 119.426 125.68 405.571
2402 0 183.845 15.4804 2846 119.322 124.569 402.911
2403 0 190.647 14.0364 2676 121.424 123.869 404.481
2404 0 189.607 9.01336 1709 127.821 124.97 408.135
2405 1 220.578 10.9712 2420 124.41 124.088 401.569
2406 0 222.631 11.1575 2484 124.535 123.526 395.763
2407 1 55.0473 10.3911 572 107.243 124.836 472.073
2408 0 56.1098 9.19625 516 109.593 123.432 473.624
2409 0 60.1986 14.2861 860 102.27 124.59 475.636
2410 0 62.1649 13.6572 849 102.451 123.428 473.721
2411 0 63.3423 10.7985 684 106.803 121.991 477.243
2412 0 66.11 14.4759 957 102.526 120.457 472.678
2413 0 70.2874 12.4347 874 105.025 121.008 472.641
2414 0 70.2234 11.677 820 105.595 120.409 468
2415 0 74.2725 10.1787 756 107.524 120.183 465.078
2416 0 73.4464 10.5655 776 107.445 119.229 465.483
2417 0 77.5119 10.5661 819 106.883 118.985 464.527
2418 0 81.2761 12.3529 1004 105.111 117.912 460.901
2419 0 81.3033 8.49904 691 110.74 117.269 460.508
2420 1 47.2591 9.64894 456 104.941 119.283 479.272
2421 0 50.0841 12.4191 622 100.505 118.74 478.193
2422 0 49.2906 9.77875 482 104.863 118.104 471.5
2423 0 51.211 8.39663 430 105.356 116.965 475.151
2424 0 54.0819 12.0928 654 106.353 115.362 471.592
2425 0 54.1634 12.4623 675 106.91 115.584 469.89
2426 0 53.2098 10.9002 580 110.269 115.352 469.021
2427 0 57.2028 13.9853 800 105.295 115.548 465.342
2428 0 58.049 11.6453 676 107.123 116.352 467.717
2429 0 65.0971 15.2234 991 101.757 116.681 464.162
2430 0 63.063 14.5093 915 104.315 118.204 463.11
2431 0 68.1346 13.7669 938 104.616 118.966 461.569
2432 0 71.2692 12.6422 901 104.554 118.465 452.846
2433 0 75.6804 16.279 1232 100.151 119.874 452.652
2434 0 71.1636 17.3825 1237 101.487 120.337 456.567
2435 0 67.1468 12.3312 828 111.582 120.966 457.791
2436 0 71.1645 12.45 886 111.667 121.854 461.117
2437 0 74.2905 13.8914 1032 109.907 121.899 458.523
2438 0 75.2298 16.1372 1214 107.484 122.125 459.479
2439 0 82.3762 9.10457 750 117.705 122.345 461.413
2440 0 79.1414 12.901 1021 110.727 123.962 451.392
2441 1 158.331 18.1771 2878 107.748 124.516 416.068
2442 1 84.1897 12.4837 1051 113.903 123.777 447.693
2443 0 86.3293 16.3791 1414 108.21 122.728 448.11
2444 0 90.2342 15.7812 1424 109.397 124.341 451.409
2445 0 96.1766 14.7229 1416 110.194 123.171 452.965
2446 0 98.303 14.3841 1414 111.636 123.898 450.748
2447 0 101.654 15.5725 1583 110.119 123.911 452.862
2448 0 105.371 16.1619 1703 110.359 123.94 447.972
2449 0 109.435 15.58 1705 111.721 123.07 448.633
2450 0 112.603 14.0228 1579 113.846 123.438 449.901
2451 0 117.68 15.3722 1809 111.401 122.17 448.694
2452 0 124.628 16.1841 2017 110.567 122.081 445.3
2453 1 71.2952 11.3191 807 109.128 121.508 476.261
2454 0 70.0991 12.3682 867 111.051 120.197 469.588
2455 0 74.3242 14.1004 1048 108.917 119.417 466.41
2456 0 77.2162 11.3059 873 112.6 117.714 465.591
2457 0 79.3278 16.5894 1316 105.704 117.131 462.34
2458 0 81.603 13.6637 1115 109.491 116.862 462.798
2459 0 83.4499 13.8886 1159 110.303 117.561 457.879
2460 0 86.2648 12.8094 1105 110.5 117.14 461.322
2461 0 88.4162 12.0001 1061 112.881 117.187 457.609
2462 0 94.5797 15.3098 1448 106.905 117.248 457.541
2463 0 95.4137 12.5559 1198 112.618 118.255 449.821
2464 0 96.2479 15.3354 1476 108.9 117.419 447.689
2465 0 99.4416 13.3143 1324 112.381 117.498 441.776
2466 0 101.455 18.757 1903 103.055 116.988 452.196
2467 0 105.247 14.8508 1563 110.331 117.193 443.078
2468 0 110.331 14.2299 1570 110.887 118.041 443.606
2469 0 113.605 15.4218 1752 108.291 117.958 441.776
2470 1 61.3101 10.765 660 111.698 118.239 462.439
2471 0 63.3386 10.5465 668 111.118 118.813 462.498
2472 0 64.1877 13.1022 841 108.158 119.043 461.13
2473 0 63.1731 9.90929 626 113.153 119.315 460.804
2474 0 67.2717 15.4002 1036 103.85 120.736 459.18
2475 0 71.338 11.859 846 107.161 122.028 456.558
2476 0 73.4169 14.1793 1041 103.89 122.709 459.033
2477 0 78.2619 21.5047 1683 95.5936 123.901 453.078
2478 0 80.3567 14.3361 1152 103.433 123.806 458.329
2479 0 83.3174 15.2549 1271 103.264 124.373 455.651
2480 0 86.4072 16.8967 1460 101.179 123.439 454.563
2481 0 88.1297 12.9241 1139 105.939 124.577 458.533
2482 0 90.2579 14.2259 1284 106.252 124.316 453.815
2483 0 93.2495 15.11 1409 105.585 124.877 452.079
2484 0 96.2666 15.2493 1468 105.438 122.768 453.66
2485 0 99.2154 13.9797 1387 109.051 124.617 456.433
2486 0 99.4369 11.1226 1106 114.906 124.021 453.158
2487 0 105.386 10.9881 1158 114.312 124.041 452.22
2488 0 112.231 13.3475 1498 111.35 123.748 448.678
2489 0 115.534 12.5591 1451 112.702 124.88 448.126
2490 0 113.457 10.0214 1137 115.299 123.734 451.288
2491 0 117.306 11.6704 1369 112.036 122.507 454.191
2492 0 114.682 8.95517 1027 119.609 123.711 446.921
2493 1 72.2534 15.2934 1105 106.863 121.901 472.645
2494 0 76.1895 14.1883 1081 107.702 121.073 472.83
2495 0 81.221 14.1589 1150 106.942 122.66 471.478
2496 0 81.1557 15.9939 1298 103.903 119.807 469.778
2497 0 86.3419 17.9056 1546 100.926 119.979 469.085
2498 0 84.125 13.4918 1135 109.841 119.263 465.5
2499 0 90.5643 14.8403 1344 107.452 119.031 463.344
2500 0 90.461 13.9729 1264 111.223 119.756 459.472
2501 0 92.509 12.9501 1198 112.452 118.048 458.432
2502 0 96.6633 15.1454 1464 109.291 118.368 455.009
2503 0 99.7288 14.0281 1399 111.835 118.143 450.813
2504 0 104.756 15.665 1641 106.155 118.022 458.704
2505 0 105.74 14.5452 1538 111.519 117.773 449.682
2506 0 108.962 22.1452 2413 101.484 117.323 448.764
2507 0 108.607 14.7413 1601 113.502 117.792 444.813
2508 0 109.634 14.439 1583 114.644 117.783 442.267
2509 0 114.734 15.4096 1768 113.958 118.291 440.689
2510 0 122.141 18.7488 2290 107.68 118.28 439.186
2511 0 121.584 15.6435 1902 113.229 117.315 433.835
2512 0 126.816 16.8039 2131 111.02 118.533 435.606
2513 1 73.6608 15.4899 1141 107.589 120.249 463.303
2514 0 74.269 14.3128 1063 112.09 121.881 454.534
2515 0 76.4134 15.5208 1186 111.105 121.923 453.798
2516 0 80.3827 15.7248 1264 109.886 122.65 454.84
2517 0 84.4346 18.7482 1583 106.051 123.466 451.934
2518 0 84.3907 14.4329 1218 112.991 122.823 449.562
2519 0 88.2536 15.3875 1358 111.373 122.996 451.751
2520 0 93.3979 14.8719 1389 111.834 123.921 450.241
2521 0 93.3435 15.3948 1437 112.608 124.875 446.857
2522 0 98.1866 16.1224 1583 111.519 124.513 444.697
2523 0 105.604 23.3608 2467 101.395 125.584 448.222
2524 0 105.334 14.6771 1546 112.47 124.769 451.367
2525 0 106.556 12.5662 1339 116.325 125.435 450.98
2526 1 66.4631 12.6386 840 110.581 125.358 475.568
2527 0 62.1596 17.262 1073 108.671 124.148 470.709
2528 0 64.2132 14.1092 906 114.419 124.288 472.576
2529 0 67.3963 17.7458 1196 109.897 124.135 473.239
2530 0 69.2246 14.3013 990 115.53 124.029 472.359
2531 0 74.5202 16.4385 1225 112.299 123.918 468.755
2532 0 77.6585 16.2893 1265 112.917 123.877 470.051
2533 0 79.3752 16.8693 1339 113.451 122.719 466.524
2534 0 82.4371 14.8841 1227 116.412 122.192 466.923
2535 0 87.4804 16.0607 1405 112.938 120.696 468.895
2536 0 89.4178 15.7127 1405 115.438 119.463 462.46
2537 0 94.2242 20.2496 1908 107.329 119.295 466.467
2538 0 97.6394 27.5401 2689 100.101 118.427 461.722
2539 0 99.2073 16.9141 1678 114.352 118.344 459.327
2540 0 103.303 17.4438 1802 113.713 118.137 457.033
2541 0 106.501 17.5585 1870 114.004 117.434 454.884
2542 0 109.222 14.0174 1531 120.117 117.486 449.016
2543 0 116.519 17.3104 2017 113.907 117.232 449.511
2544 1 65.3767 14.0264 917 115.255 116.797 472.31
2545 0 68.18 14.2564 972 118.794 117.449 468.826
2546 0 73.1169 17.9849 1315 112.408 117.573 467.462
2547 0 71.4358 15.5524 1111 118.121 117.192 463.91
2548 0 75.3613 19.3601 1459 110.863 117.107 463.679
2549 0 78.4214 16.1436 1266 117.743 117.433 458.665
2550 0 81.4062 16.0921 1310 118.286 117.104 454.432
2551 0 83.7344 17.7466 1486 116.421 117.879 452.577
2552 0 86.5406 21.0999 1826 110.582 117.418 453.15
2553 0 90.4363 18.5434 1677 111.742 119.143 454.949
2554 0 93.5533 18.3745 1719 114.081 118.863 447.536
2555 0 95.8535 18.0066 1726 116.525 120.436 448.13
2556 0 98.5045 15.5221 1529 122.15 121.003 445.146
2557 0 103.449 17.1969 1779 119.14 122.146 441.44
2558 0 106.539 17.7213 1888 118.809 122.425 440.319
2559 1 54.511 14.6393 798 120.718 123.421 466.559
2560 0 56.4459 14.9878 846 119.214 122.684 466.045
2561 0 58.3558 15.3712 897 118.193 123.204 468.326
2562 0 61.6724 13.5555 836 121.737 124.181 465.801
2563 0 64.7548 15.2884 990 120.206 124.142 464.801
2564 0 62.312 13.8336 862 124.963 124.572 465.086
2565 0 67.3032 15.9576 1074 121.738 123.596 463.035
2566 0 74.1457 16.1709 1199 119.063 124.572 465.288
2567 0 73.0474 15.4283 1127 122.43 123.236 464.618
2568 0 75.3204 18.3748 1384 117.661 124.803 464.541
2569 0 82.3207 17.5533 1445 116.689 124.602 465.381
2570 0 83.0563 17.8313 1481 118.502 123.425 461.536
2571 0 85.4893 18.6573 1595 118.451 124.311 461.248
2572 0 92.5224 20.0816 1858 114.84 124.119 464.764
2573 0 93.726 20.3892 1911 113.624 122.287 468.919
2574 0 96.8208 15.131 1465 125.456 121.955 458.894
2575 0 101.654 18.0121 1831 119.538 120.99 459.069
2576 0 104.451 18.2861 1910 119.593 120.912 455.431
2577 1 54.7557 14.5008 794 124.214 119.359 481.6
2578 0 58.8898 16.7262 985 121.75 119.537 479.879
2579 0 59.3716 16.4557 977 123.712 118.129 474.296
2580 0 60.6479 16.9833 1030 121.755 118.346 476.004
2581 0 65.5289 13.9938 917 125.719 118.659 470.185
2582 0 67.4209 18.125 1222 118.962 117.955 472.233
2583 0 69.8509 20.5294 1434 114.116 116.653 472.358
2584 0 71.6449 15.2 1089 123.002 116.661 469.238
2585 0 74.6635 14.8533 1109 123.911 118.385 465.269
2586 0 75.558 16.9142 1278 119.392 116.987 461.678
2587 0 78.5296 18.0824 1420 118.232 117.835 461.902
2588 0 80.7676 17.9775 1452 118.224 116.535 459.77
2589 0 84.7383 21.0648 1785 112.577 117.186 457.866
2590 0 81.8968 13.8467 1134 125.354 117.269 458.926
2591 0 89.0365 16.3079 1452 121.432 117.629 452.195
2592 0 90.8003 16.5088 1499 122.174 118.606 450.538
2593 0 95.9473 19.4586 1867 115.505 117.779 448.328
2594 0 99.0133 16.6644 1650 120.833 118.662 445.842
2595 0 104.016 17.978 1870 118.965 119.427 443.716
2596 0 104.524 19.4405 2032 117.299 118.37 444.386
2597 0 107.087 14.7544 1580 126.513 119.744 440.048
2598 0 116.153 22.0744 2564 112.342 120.771 441.01
2599 0 116.955 18.7166 2189 117.199 121.073 433.328
2600 0 120.604 18.681 2253 117.851 122.191 435.46
2601 0 125.626 16.581 2083 120.871 122.282 435.759
2602 0 131.883 20.2377 2669 113.592 121.46 434.048
2603 0 137.053 19.1458 2624 114.5 122.326 434.504
2604 1 59.7612 13.236 791 124.796 122.612 465.416
2605 0 64.8271 17.6932 1147 116.634 123.039 463.703
2606 0 66.5685 19.6189 1306 112.296 122.983 465.476
2607 0 70.793 16.1598 1144 115.807 122.634 463.788
2608 0 71.5838 12.9778 929 124.741 123.887 466.386
2609 0 77.6517 18.1194 1407 116.237 123.575 464.821
2610 0 77.3242 15.4932 1198 122.489 122.81 465.563
2611 0 79.3673 20.0838 1594 114.927 123.376 464.544
2612 0 85.336 16.3354 1394 119.088 123.577 462.702
2613 0 88.4125 22.1575 1959 109.712 122.714 465.599
2614 0 90.4282 18.6225 1684 116.81 122.059 462.02
2615 0 96.5391 17.1329 1654 118.025 121.3 461.884
2616 0 100.416 17.059 1713 118.533 119.869 458.067
2617 0 102.275 16.0254 1639 119.66 119.301 453.651
2618 0 107.504 14.3715 1545 123.23 118.885 453.463
2619 0 112.418 17.8619 2008 117.469 117.814 450.986
2620 0 115.645 17.1646 1985 119.801 117.324 447.048
2621 0 122.409 18.8957 2313 114.665 118.109 447.491
2622 0 127.572 20.4121 2604 112.666 117.411 445.248
2623 0 130.569 21.2454 2774 110.755 116.93 434.692
2624 0 133.598 16.1829 2162 119.95 116.352 438.941
2625 0 137.379 20.367 2798 113.851 116.223 436.169
2626 0 143.474 18.0032 2583 117.406 117.204 431.999
2627 0 147.812 15.4182 2279 121.671 115.883 429.04
2628 0 150.725 17.3096 2609 119.227 116.357 421.795
2629 0 158.925 17.5995 2797 117.691 115.318 425.616
2630 0 163.768 17.2928 2832 119.727 117.104 416.994
2631 0 171.558 17.4286 2990 116.982 117.329 420.974
2632 0 172.598 13.7371 2371 124.879 117.742 412.882
2633 0 182.763 18.0452 3298 117.528 116.924 410.564
2634 0 186.647 16.5874 3096 122.161 118.052 400.323
2635 0 192.679 17.5681 3385 122.03 117.94 394.518
2636 0 200.636 17.8083 3573 122.056 119.17 395.728
2637 0 206.403 15.7556 3252 125.245 119.508 395.833
2638 1 218.589 19.2782 4214 119.258 121.115 392.602
2639 0 225.642 19.3226 4360 118.1 120.438 389.929
2640 0 235.393 19.3167 4547 118.597 122.352 391.187
2641 0 245.819 17.456 4291 121.93 121.526 375.276
2642 1 74.3064 14.521 1079 105.973 124.011 462.051
2643 0 79.1177 15.6349 1237 102.691 124.985 465.523
2644 0 78.7886 10.8138 852 110.565 124.989 463.461
2645 0 83.5588 15.3425 1282 105.28 124.339 459.681
2646 0 89.5011 15.8434 1418 103.423 124.752 461.404
2647 1 45.3603 12.6322 573 101.749 123.658 479.319
2648 0 45.7972 9.19271 421 105.523 122.843 478.508
2649 0 50.1049 11.456 574 104.07 122.275 477.038
2650 0 49.147 11.5979 570 103.207 120.805 480.732
2651 0 54.138 14.0567 761 102.854 120.118 476.962
2652 0 57.241 15.3561 879 100.297 120.844 476.375
2653 0 56.397 11.9332 673 106.349 117.423 475.642
2654 0 61.2459 13.8132 846 102.435 117.272 477.645
2655 0 59.4984 13.513 804 106.051 116.617 467.756
2656 0 61.7284 12.798 790 105.761 115.673 471.291
2657 0 62.666 11.665 731 107.839 115.026 469.995
2658 0 61.6258 7.95122 490 113.153 115.816 464.227
2659 0 72.1153 14.1302 1019 102.803 114.384 467.706
2660 0 69.4857 24.0193 1669 92.2804 114.534 470.248
2661 0 70.723 13.3054 941 105.726 114.469 464.28
2662 0 74.6056 13.7255 1024 105.255 113.854 461.866
2663 0 77.8666 12.7526 993 106.539 115.029 459.276
2664 0 79.7687 13.7773 1099 105.14 114.58 459.73
2665 0 83.0566 15.6038 1296 104.005 114.481 457.707
2666 0 83.0852 16.8743 1402 103.308 114.761 453.063
2667 0 82.6309 13.4937 1115 107.54 115.544 447.656
2668 0 88.618 15.9448 1413 103.926 115.965 450.435
2669 0 91.8464 15.1993 1396 105.019 114.94 450.219
2670 0 95.9458 17.76 1704 101.819 116.875 442.623
2671 0 97.1574 15.7579 1531 104.508 115.5 438.728
2672 0 98.9787 12.8513 1272 106.457 115.698 444.305
2673 0 105.85 20.5574 2176 97.1631 116.02 444.143
2674 0 106.282 13.9441 1482 108.035 118.022 425.806
2675 0 111.812 14.4439 1615 106.976 118.003 434.192
2676 1 61.9928 13.8242 857 100.196 118.385 455.467
2677 0 63.972 18.6332 1192 91.573 119.092 466.66
2678 0 63.4091 12.5534 796 99.4347 119.489 458.66
2679 0 66.8414 10.9513 732 102.011 121.036 457.357
2680 0 70.3525 14.5979 1027 99.4966 120.382 458.35
2681 0 72.4536 16.7003 1210 98.3331 121.027 454.806
2682 0 74.2631 14.112 1048 101.514 122.066 451.595
2683 0 77.3412 14.4037 1114 99.8644 121.68 455.888
2684 0 77.9183 11.3195 882 105.27 122.781 449.276
2685 0 84.3662 16.9381 1429 97.9559 121.197 452.43
2686 0 86.4261 15.6318 1351 99.2346 121.218 454.604
2687 0 86.6765 18.0672 1566 97.7644 121.939 451.648
2688 0 90.1778 12.9411 1167 102.034 122.348 452.58
2689 0 94.6899 12.5251 1186 102.604 122.418 454.017
2690 0 99.2643 19.5337 1939 95.4631 121.3 454.588
2691 0 100.026 13.7764 1378 100.827 122.594 455.075
2692 0 103.877 16.3078 1694 98.3424 121.864 454.122
2693 0 107.748 19.5363 2105 94.6893 120.19 453.835
2694 0 110.742 12.1092 1341 103.469 120.821 445.113
2695 0 113.935 15.5351 1770 99.9316 120.524 451.221
2696 0 115.012 17.0416 1960 97.5276 119.092 446.916
2697 1 58.3748 14.8523 867 95.045 118.797 477.085
2698 0 61.7529 14.137 873 95.0802 118.189 472.661
2699 0 63.7848 21.4001 1365 87.5209 117.045 470.574
2700 0 63.8757 10.0195 640 99.0984 117.63 467.506
2701 0 69.6581 14.3845 1002 94.7196 115.976 468.791
2702 1 141.6 16.5678 2346 85.2391 116.054 435.991
2703 0 149.195 11.6894 1744 91.3354 114.882 431.229
2704 1 76.9664 14.7597 1136 87.0475 113.665 459.8
2705 0 78.2002 12.711 994 89.2022 114.853 455.101
2706 0 82.3041 26.8759 2212 79.8739 113.48 456.062
2707 0 80.8562 13.9878 1131 89.3245 113.772 455.814
2708 0 82.8466 15.2813 1266 88.0229 113.999 454.282
2709 0 85.7152 15.6098 1338 88.012 114.823 449.571
2710 0 89.6855 24.2291 2173 81.3971 114.045 454.778
2711 0 93.718 15.5466 1457 88.6836 115.745 440.568
2712 0 93.851 12.669 1189 91.4533 115.019 438.754
2713 0 100.211 7.42436 744 94.6331 115.276 446.38
2714 0 99.485 15.53 1545 90.077 115.873 433.726
2715 0 103.042 21.8649 2253 85.1056 115.542 439.918
2716 1 52.9148 8.82552 467 90.4839 116.328 462.756
2717 0 59.3179 14.7342 874 86.1911 118.736 464.487
2718 0 59.1682 10.8504 642 88.2975 118.727 464.6
2719 0 63.3686 11.9933 760 88.7053 120.907 465.487
2720 0 67.3423 13.9734 941 86.4091 121.553 464.811
2721 0 66.4713 11.4636 762 90.5171 121.329 456.996
2722 0 69.4516 11.4756 797 90.1343 122.393 459.113
2723 0 69.3378 13.427 931 88.5983 121.263 459.318
2724 0 72.5638 10.9145 792 91.2361 121.654 457.422
2725 0 73.9763 18.0193 1333 85.937 121.437 449.333
2726 0 73.7505 8.16265 602 94.0864 120.973 454.012
2727 0 86.79 12.7664 1108 88.4052 122.057 455.338
2728 0 85.3481 14.1655 1209 89.2556 121.899 453.497
2729 0 83.9286 13.2851 1115 90.9318 122.428 447.379
2730 0 85.9496 11.6114 998 92.8717 123.184 446.851
2731 0 91.0879 13.3827 1219 89.4545 121.925 459.369
2732 1 49.3917 13.3221 658 85.6185 122.246 475.167
2733 0 51.1815 8.67501 444 88.7635 121.32 482.764
2734 0 53.139 10.8207 575 86.1756 123.73 480.706
2735 0 50.2657 10.7628 541 89.1331 121.458 474.978
2736 0 54.3354 8.83402 480 91.0521 122.167 482.896
2737 0 58.2838 12.4906 728 87.5577 121.393 479.19
2738 0 59.3135 16.4718 977 84.4964 121.078 480.213
2739 0 58.3906 8.99118 525 90.6781 121.465 479.821
2740 0 60.4053 6.91992 418 94.8612 119.969 477.321
2741 0 69.4137 14.7233 1022 86.2808 119.493 471.945
2742 0 68.4487 17.3999 1191 83.927 117.862 470.063
2743 0 71.5113 15.3123 1095 85.0959 117.467 470.078
2744 0 69.3927 11.4565 795 89.5182 116.898 472.512
2745 0 73.5953 16.2103 1193 85.7762 116.958 467.37
2746 0 74.302 9.79785 728 88.0962 116.887 472.277
2747 0 80.2585 8.049 646 91.4582 116.187 463.034
2748 0 80.6289 9.72356 784 90.7474 115.364 464.804
2749 0 84.744 16.2961 1381 86.2918 115.807 458.294
2750 0 86.7627 10.7535 933 90.2658 113.844 459.174
2751 0 96.7179 15.2505 1475 86.4698 115.452 456.233
2752 1 52.5274 18.2572 959 79.5746 116.672 476.318
2753 0 55.9206 13.7159 767 80.9244 114.346 477.897
2754 0 47.397 12.8911 611 92.126 115.62 472.944
2755 0 52.3527 12.8551 673 93.3343 115.44 472.158
2756 0 53.186 14.4587 769 92.1066 116.961 470.678
2757 0 53.2204 14.5245 773 93.2833 116.199 465.765
2758 0 55.3589 13.9273 771 94.5006 117.51 462.886
2759 0 57.3168 15.3707 881 92.6061 118.262 463.165
2760 0 63.2188 17.3366 1096 90.2737 117.954 466.454
2761 0 65.5386 11.9929 786 92.8982 117.924 471.156
2762 0 65.5636 15.7557 1033 92.7667 118.659 462.422
2763 0 65.3069 15.2511 996 94.0994 120.774 458.489
2764 0 66.6711 10.1993 680 98.6794 119.804 465.546
2765 0 66.5015 6.88706 458 102.705 120.657 462.742
2766 0 71.2449 19.6084 1397 89.8733 120.685 466.032
2767 0 74.3849 11.6287 865 99.2601 122.308 461.646
2768 0 77.5632 16.0127 1242 93.8776 122.715 457.694
2769 0 80.5888 15.97 1287 94.2098 124.303 456.479
2770 0 91.1414 11.74 1070 96.229 124.656 462.68
2771 0 86.8132 14.7328 1279 95.8694 125.292 457.425
2772 0 93.0334 18.6385 1734 90.932 125.28 458.266
2773 0 91.0112 14.6685 1335 95.5551 124.602 458.5
2774 0 95.7426 18.508 1772 93.3871 124.576 454.863
2775 0 92.7794 11.0585 1026 101.783 124.456 454.979
2776 0 99.1882 13.0056 1290 100.598 123.657 459.724
2777 0 102.069 15.6071 1593 99.5669 123.411 452.951
2778 0 103.708 13.8563 1437 100.791 123.64 456.056
2779 0 111.189 19.939 2217 93.3401 122.516 458.196
2780 0 109.772 15.7691 1731 101.07 123.154 447.91
2781 0 118.084 19.5454 2308 94.8193 122.913 455.536
2782 0 116.894 13.5849 1588 102.47 122.231 453.453
2783 0 120.493 17.6608 2128 98.352 121.564 449.915
2784 0 123.793 15.0251 1860 101.155 120.667 449.658
2785 0 126.546 15.5596 1969 100.998 120.745 445.525
2786 1 73.4152 9.98431 733 102.372 120.424 473.603
2787 0 78.5191 16.6202 1305 96.0046 119.189 470.188
2788 0 79.6457 20.2271 1611 93.396 119.379 466.156
2789 0 82.8975 22.5097 1866 91.5975 117.376 465.352
2790 0 87.8393 22.3135 1960 92.3653 117.549 458.743
2791 0 88.778 17.189 1526 96.8427 116.815 451.066
2792 1 164.953 16.6896 2753 99.0548 118.141 420.283
2793 1 94.4536 16.4102 1550 97.9187 117.26 452.084
2794 0 101.465 14.3793 1459 100.622 118.249 446.066
2795 0 102.813 21.0091 2160 94.5014 118.334 450.042
2796 0 103.896 14.9188 1550 100.363 117.414 450.274
2797 1 54.5113 12.4561 679 102.477 118.081 466.655
2798 0 60.8392 18.0476 1098 92.7395 119.313 469.677
2799 0 57.3226 14.0608 806 100.025 120.004 465.457
2800 0 60.2152 15.9926 963 96.6656 119.445 465.92
2801 0 58.0712 11.3481 659 103.926 119.804 462.936
2802 0 64.2806 15.4634 994 99.4195 120.133 464.933
2803 0 64.3113 15.8914 1022 99.2524 119.507 460.817
2804 0 72.1084 13.5768 979 99.6803 121.126 461.62
2805 0 70.1839 18.0241 1265 95.9968 120.492 460.17
2806 0 72.7584 21.8944 1593 92.5807 121.675 460.672
2807 0 76.4172 16.6716 1274 98.2786 123.808 455.94
2808 0 77.9451 17.9998 1403 96.9394 122.893 452.919
2809 1 166.255 13.8462 2302 101.605 123.014 420.505
2810 0 163.543 15.9835 2614 100.699 124.523 414.554
2811 0 170.188 18.3444 3122 98.5938 124.317 413.774
2812 0 177.831 20.2214 3596 96.8351 125.596 412.772
2813 0 185.113 27.0051 4999 91.6969 125.661 404.606
2814 1 97.6487 17.8907 1747 98.2055 124.023 447.453
2815 1 49.3767 15.6349 772 97.6412 123.688 474.289
2816 0 51.3286 12.4102 637 97.763 124.287 474.447
2817 0 54.2928 13.9245 756 98.9034 124.995 473.692
2818 0 55.5705 17.8152 990 94.7101 124.773 473.24
2819 0 59.4006 15.9931 950 97.56 125.652 470.796
2820 0 62.366 21.3899 1334 93.3261 124.633 472.115
2821 0 65.8577 23.0193 1516 90.3437 124.821 477.899
2822 0 63.2027 14.2874 903 100.952 124.08 475.044
2823 0 66.3613 13.3813 888 102.72 124.492 475.222
2824 0 72.2852 20.0871 1452 95.0255 123.457 475.548
2825 0 66.2885 15.4476 1024 103.664 123.504 470.177
2826 0 70.6118 17.7732 1255 100.424 123.665 473.818
2827 0 74.4671 24.2389 1805 94.7922 122.997 470.752
2828 0 76.4154 17.3787 1328 100.703 121.998 471.469
2829 0 77.4699 17.8779 1385 102.155 122.126 466.229
2830 0 82.4846 18.5489 1530 100.599 120.671 467.865
2831 0 84.6394 16.5762 1403 102.765 120.322 464.63
2832 0 87.5224 15.8931 1391 104.756 119.566 460.742
2833 0 90.4816 16.799 1520 103.142 119.105 459.835
2834 0 93.3347 16.7998 1568 103.202 119.168 459.109
2835 0 96.526 19.0519 1839 102.891 119.091 452.21
2836 0 102.142 18.8463 1925 99.9382 118.408 459.192
2837 1 57.2785 15.0144 860 102.935 118.206 476.972
2838 0 56.1616 20.2808 1139 98.8323 117.825 469.737
2839 0 56.3213 16.6012 935 104.781 118.809 460.916
2840 0 59.1665 22.7156 1344 97.7083 118.962 458.853
2841 0 61.2124 14.948 915 107.624 119.632 457.716
2842 0 69.5838 15.4921 1078 104.134 118.365 459.71
2843 0 64.1664 17.5325 1125 104.852 118.878 453.855
2844 0 69.5165 18.8876 1313 103.05 120.382 452.915
2845 0 71.4171 19.2391 1374 103.496 120.535 449.325
2846 0 73.3489 15.1468 1111 107.888 121.532 454.205
2847 0 75.4758 17.6878 1335 104.376 122.191 454.1
2848 0 75.245 16.4662 1239 107.246 123.336 452.824
2849 0 79.4308 22.9382 1822 98.6883 122.941 455.955
2850 0 81.6794 14.7161 1202 109.081 124.319 449.829
2851 0 86.5087 15.6516 1354 107.419 124.93 449.484
2852 0 89.4274 19.8709 1777 102.458 124.943 448.455
2853 0 91.325 22.2721 2034 99.5211 125.283 449.923
2854 0 94.6186 21.5602 2040 99.7113 125.848 452.287
2855 0 99.5666 18.6006 1852 102.815 126.019 450.601
2856 1 57.5119 14.1536 814 101.853 127.165 471.738
2857 0 55.488 13.138 729 107.169 125.134 466.11
2858 0 58.2179 16.5413 963 103.091 127.033 466.529
2859 0 63.4588 16.168 1026 101.814 127.378 470.447
2860 0 63.4588 16.1522 1025 147.955 128.426 470.499
2861 0 65.3896 16.1035 1053 105.408 126.712 466.27
2862 0 70.3909 19.1502 1348 100.909 126.843 466.749
2863 0 73.6465 15.9546 1175 104.997 126.153 464.162
2864 0 74.4952 16.5783 1235 104.631 126.471 465.07
2865 0 75.6118 12.0219 909 109.121 126.344 468.914
2866 0 79.7612 17.1387 1367 104.622 126.326 465.129
2867 0 79.2968 14.6916 1165 108.756 125.716 462.069
2868 0 82.702 15.8158 1308 107.797 124.638 459.04
2869 0 88.4036 15.3501 1357 107.55 123.438 461.423
2870 0 92.6618 21.3896 1982 99.9818 123.114 457.897
2871 0 90.4368 16.553 1497 106.362 123.416 454.405
2872 0 96.649 19.4932 1884 101.414 122.204 459.971
2873 0 100.135 15.0197 1504 107.463 123.011 456.182
2874 0 100.415 15.5056 1557 108.165 120.598 445.911
2875 0 105.548 16.8264 1776 104.748 120.89 454.851
2876 1 56.4072 11.5056 649 108.296 121.08 475.55
2877 0 60.7838 18.4095 1119 100.166 120.62 471.509
2878 0 57.4853 12.3162 708 107.124 120.072 469.603
2879 0 60.4988 15.5375 940 106.107 120.062 466.461
2880 0 59.4788 11.2645 670 112.767 119.36 461.552
2881 0 67.6948 15.0085 1016 105.32 120.06 465.16
2882 0 70.6041 16.2597 1148 103.193 119.962 463.415
2883 0 71.4195 17.6842 1263 103.137 120.38 459.41
2884 0 75.7046 21.7556 1647 96.8257 119.266 462.068
2885 0 74.434 12.36 920 109.959 121.443 456.135
2886 0 78.5162 18.1491 1425 103.278 120.908 453.117
2887 0 81.9366 16.3907 1343 104.395 120.765 453.355
2888 0 81.5205 13.653 1113 109.8 120.562 448.816
2889 0 83.647 12.9114 1080 110.343 120.582 449.194
2890 0 89.3764 26.7185 2388 95.3932 121.152 449.214
2891 0 92.5983 22.2682 2062 99.2561 122.708 447.354
2892 0 95.6164 16.7022 1597 106.49 122.768 443.955
2893 0 98.6422 16.2507 1603 106.56 124.393 444.447
2894 0 102.434 11.4806 1176 111.957 124.711 443.339
2895 0 105.331 17.4592 1839 105.681 124.846 442.1
2896 0 111.196 15.8549 1763 108.166 124.452 436.675
2897 0 113.263 17.0312 1929 105.566 125.675 436.891
2898 0 116.306 16.3534 1902 105.595 125.737 438.272
2899 0 119.444 16.2503 1941 106.558 126.089 427.557
2900 1 64.3103 13.6215 876 104.438 127.357 466.834
2901 0 63.3251 15.7126 995 103.615 127.067 462.861
2902 0 68.565 17.9392 1230 100.345 128.009 464.833
2903 0 70.5368 16.4737 1162 102.992 127.461 461.624
2904 0 74.5247 21.7109 1618 96.4135 128.013 461.684
2905 0 78.0449 17.8871 1396 100.008 127.981 462.384
2906 0 79.6672 17.2719 1376 100.688 127.194 461.125
2907 0 79.6061 15.7902 1257 102.442 127.309 457.679
2908 0 87.0962 20.9883 1828 94.9923 126.824 462.513
2909 0 88.1098 15.5828 1373 101.673 125.977 457.645
2910 0 92.4908 20.2939 1877 95.4406 126.156 462.095
2911 0 95.6671 18.4389 1764 98.6026 125.336 458.695
2912 0 97.5724 16.0291 1564 101.676 125.373 452.297
2913 0 101.447 16.5309 1677 100.538 124.63 452.073
2914 0 105.581 19.8236 2093 95.5786 122.924 457.01
2915 1 54.096 12.9215 699 99.5164 121.474 476.136
2916 0 55.2103 14.635 808 100.24 120.825 469.494
2917 0 60.4825 13.3923 810 98.9877 120.278 473.349
2918 0 62.476 14.5816 911 99.9528 120.727 464.524
2919 0 61.5287 10.4179 641 105.674 119.1 466.808
2920 0 64.5385 12.7831 825 102.964 119.659 463.24
2921 0 66.2006 15.8005 1046 100.172 119.717 458.589
2922 0 69.8509 16.0914 1124 99.9262 118.354 456.99
2923 0 73.8662 16.733 1236 96.5032 117.672 461.905
2924 0 73.3208 15.1799 1113 100.669 118.325 453.714
2925 0 76.6448 13.7778 1056 102.696 119.377 452.615
2926 0 80.4862 20.9601 1687 94.4588 119.07 451.823
2927 0 82.7398 15.8449 1311 98.9786 118.205 450.077
2928 0 89.0016 13.011 1158 100.301 118.031 450.563
2929 0 90.9177 16.0145 1456 100.003 119.565 443.251
2930 0 91.4555 13.8537 1267 101.113 119.68 448.62
2931 1 50.6901 13.3162 675 98.1348 119.667 462.499
2932 0 50.2255 17.0033 854 95.0948 119.978 464.371
2933 0 48.2021 11.4933 554 100.164 122.729 461.549
2934 0 48.3331 17.4208 842 94.101 122.76 458.645
2935 0 51.171 13.1324 672 101.003 124.705 456.618
2936 0 54.5429 13.329 727 99.3714 124.248 458.992
2937 0 56.2873 16.0072 901 96.4906 125.128 458.515
2938 0 57.5979 12.7609 735 99.8531 126.416 459.245
2939 0 60.28 13.0392 786 100.989 125.737 459.146
2940 0 64.7184 15.158 981 98.787 126.546 461.113
2941 0 63.323 12.381 784 101.188 127.093 463.376
2942 0 64.3218 13.2148 850 103.061 126.641 456.947
2943 0 68.4846 12.3677 847 102.81 127.842 460.426
2944 0 72.705 15.1434 1101 98.5686 127.999 461.64
2945 0 71.4314 11.5495 825 104.001 127.727 460.863
2946 0 73.437 20.2078 1484 95.8814 126.894 456.181
2947 0 75.3942 13.1177 989 102.186 126.419 458.949
2948 0 79.489 15.7883 1255 100.182 127.593 459.38
2949 0 82.2283 16.1988 1332 99.2185 127.624 461.651
2950 1 174.026 14.0324 2442 105.986 126.186 416.687
2951 1 89.4432 18.4698 1652 98.5775 125.734 457.864
2952 0 91.476 16.2447 1486 101.318 126.108 456.635
2953 0 92.586 16.2876 1508 101.91 125.945 457.226
2954 0 98.7691 19.6418 1940 97.15 125.858 460.884
2955 0 92.5512 8.78432 813 113.469 126.055 451.214
2956 0 102.395 17.4618 1788 101.637 123.539 456.169
2957 0 107.73 16.6156 1790 103.106 124.272 450.742
2958 0 111.451 17.7029 1973 100.252 122.791 451.034
2959 0 115.715 23.2555 2691 94.8153 121.664 448.285
2960 0 114.43 12.2433 1401 107.929 122.462 443.112
2961 0 120.888 12.9127 1561 105.752 121.901 444.206
2962 0 125.798 17.5599 2209 102.178 120.737 435.538
2963 0 130.516 21.4457 2799 97.1804 120.82 438.865
2964 0 136.627 13.6577 1866 108.031 119.257 428.563
2965 0 137.714 16.6068 2287 105.314 119.38 432.702
2966 0 145.869 15.3905 2245 106.298 119.694 430.25
2967 1 78.6108 12.4538 979 105.716 119.283 452.307
2968 0 81.6517 9.98142 815 107.864 119.183 452.011
2969 0 81.3348 9.89736 805 109.257 117.986 451.86
2970 0 86.5703 13.284 1150 104.065 118.23 453.742
2971 0 88.3005 10.6228 938 107.502 117.474 450.737
2972 1 50.0313 10.2736 514 102.804 117.835 471.829
2973 0 53.2297 15.8746 845 99.8746 118.043 471.537
2974 0 50.0729 11.0639 554 104.327 118.596 469.773
2975 0 54.1553 14.2553 772 99.6982 120.249 469.703
2976 0 55.4101 10.5035 582 104.746 121.296 468.325
2977 0 57.2488 11.7033 670 102.322 122.293 469.496
2978 0 62.8919 16.2183 1020 96.0304 121.047 468.882
2979 0 63.2333 11.2124 709 103.87 121.999 465.024
2980 0 65.385 13.0305 852 101.374 122.042 463.644
2981 0 63.1586 7.31492 462 108.372 122.658 467.639
2982 0 68.201 11.3635 775 104.479 123.827 460.099
2983 0 74.4543 12.1417 904 100.696 124.177 465.648
2984 0 75.1189 12.8197 963 101.211 124.781 463.34
2985 0 77.1211 13.4205 1035 101.255 124.806 458.145
2986 0 80.2224 12.8268 1029 99.8912 124.982 466.672
2987 0 84.3135 11.8012 995 101.616 126.53 461.991
2988 0 89.5891 18.3839 1647 94.7705 126.529 461.638
2989 0 90.4812 13.4503 1217 99.0288 127.208 463.891
2990 1 46.4968 17.27 803 93.2565 126.776 483.534
2991 0 47.2324 11.4752 542 100.661 126.024 481.535
2992 0 48.2213 13.7491 663 99.1674 125.754 482.799
2993 1 102.639 14.2539 1463 99.365 126.078 458.845
2994 0 105.723 14.2258 1504 101.023 125.943 455.856
2995 0 108.858 12.4933 1360 101.965 125.108 460.713
2996 0 112.502 11.1464 1254 103.805 125.155 453.259
2997 0 115.608 14.3848 1663 99.2646 124.619 458.784
2998 1 59.3408 14.6948 872 99.5 124.391 477.612
2999 0 57.5509 15.1518 872 98.961 123.095 479.28
3000 0 57.6189 13.9364 803 101.592 122.679 478.986
3001 0 63.5823 15.0356 956 99.6674 122.11 476.27
3002 0 65.2563 12.5965 822 102.785 121.675 477.118
3003 0 64.4547 11.8843 766 103.085 121.611 476.557
3004 1 148.128 13.2183 1958 101.135 121.609 442.493
3005 0 147.885 11.9079 1761 103.662 118.932 431.542
3006 0 150.257 10.9546 1646 101.478 118.6 452.483
3007 1 222.803 16.7817 3739 98.9355 119.43 413.511
3008 0 230.763 17.7108 4087 97.9415 118.387 409.75
3009 0 237.218 10.6316 2522 103.969 119.049 411.153
3010 1 41.0974 13.1638 541 100.911 116.375 481.884
3011 0 47.4584 15.0869 716 95.6718 116.249 482.222
3012 0 45.079 19.5435 881 92.9966 117.269 477.136
3013 0 47.3592 17.3145 820 93.9073 118.491 472.696
3014 0 55.0405 16.0972 886 93.1727 118.756 472.586
3015 0 51.3534 12.969 666 95.545 119.502 478.252
3016 0 50.488 13.4091 677 97.0679 119.431 474.721
3017 0 53.4325 16.1138 861 94.1452 120.538 473.923
3018 0 56.4667 13.9728 789 94.5437 119.25 475.577
3019 0 57.4317 15.6708 900 97.09 120.783 470.91
3020 0 61.3515 18.7444 1150 95.4087 120.408 472.313
3021 0 62.6091 22.2971 1396 93.2113 118.894 464.917
3022 0 64.6054 14.9368 965 100.803 121.229 465.771
3023 0 64.4439 15.3467 989 100.747 122.15 467.124
3024 0 65.3301 15.9804 1044 97.1762 121.965 466.457
3025 0 69.4955 13.3966 931 98.1944 123.055 464.451
3026 0 71.5722 16.5427 1184 96.7475 123.422 461.069
3027 1 225.089 19.028 4283 94.2975 124.207 402.717
3028 1 73.3229 15.9295 1168 98.4024 124.446 462.129
3029 0 78.3178 18.7186 1466 95.8465 125.076 462.889
3030 0 83.3632 20.4527 1705 94.0375 124.504 464.617
3031 0 82.2431 12.3171 1013 104.075 124.633 462.226
3032 0 87.5914 15.5495 1362 99.4354 124.993 461.043
3033 0 89.8335 19.5027 1752 96.3459 124.602 458.59
3034 1 43.2304 13.6478 590 101.205 125.91 481.944
3035 0 49.7225 19.1664 953 94.8898 125.545 483.326
3036 0 52.5556 26.4862 1392 90.518 124.48 482.632
3037 0 50.2371 11.187 562 108.488 125.384 484.509
3038 0 52.6409 20.2124 1064 96.8083 125.635 485.151
3039 0 55.9142 21.6045 1208 93.8725 124.112 487.028
3040 0 56.6082 16.941 959 101.118 122.368 482.117
3041 0 57.549 19.6876 1133 96.8155 123.425 484.022
3042 0 62.9932 21.3833 1347 95.0312 122.237 482.734
3043 0 60.499 17.1573 1038 101.197 122.164 480.87
3044 0 62.5463 18.6262 1165 99.8987 119.585 476.539
3045 0 64.5556 19.5645 1263 98.407 120.428 479.519
3046 0 62.3258 14.1675 883 107.059 119.622 474.947
3047 0 68.7595 18.0193 1239 101.524 118.852 476.5
3048 0 68.7595 17.9321 1233 151.672 117.884 476.197
3049 0 73.491 19.9616 1467 98.9209 116.747 475.56
3050 0 70.3279 15.2145 1070 107.474 117.469 470.017
3051 0 78.3086 22.1048 1731 98.4131 116.316 468.159
3052 0 89.4386 22.2499 1990 95.1618 116.535 465.916
3053 0 86.6272 29.5288 2558 90.9222 116.724 456.655
3054 0 88.8627 21.8539 1942 97.9434 116.3 456.922
3055 0 91.3837 21.0979 1928 98.5612 117.525 453.874
3056 0 94.0508 19.8297 1865 100.587 117.854 456.228
3057 0 96.6406 25.3931 2454 95.8663 117.311 455.412
3058 1 47.3466 23.2118 1099 96.2539 117.812 480.295
3059 0 50.3637 16.7581 844 103.977 118.495 474.735
3060 0 50.274 11.6959 588 109.91 119.81 475.577
3061 0 58.555 24.7972 1452 93.4649 118.933 472.03
3062 0 52.3214 16.4751 862 104.985 120.363 472.88
3063 0 58.649 16.846 988 102.027 120.785 474.194
3064 0 61.5862 21.5795 1329 97.8006 120.823 472.76
3065 0 67.0666 18.2654 1225 99.7469 120.996 473.39
3066 0 66.6905 18.4434 1230 101.646 120.757 469.254
3067 0 67.4393 17.0227 1148 104.798 122.522 466.578
3068 0 66.2547 14.565 965 109.467 123.973 467.558
3069 0 75.6043 14.232 1076 108.502 124.204 466.92
3070 0 71.1947 16.9395 1206 107.822 124.757 461.92
3071 0 72.3258 14.4485 1045 110.794 123.709 467.371
3072 0 76.3824 15.3569 1173 109.627 124.885 467.911
3073 0 79.3113 22.2919 1768 101.955 123.748 462.917
3074 0 79.3546 17.3399 1376 108.491 125.403 465.443
3075 0 82.4581 18.3972 1517 106.483 124.382 469.914
3076 0 85.2547 21.1484 1803 104.478 123.378 466.689
3077 0 89.6784 22.4246 2011 102.916 123.617 470.397
3078 0 88.2732 17.6384 1557 111.455 124.194 465.403
3079 0 95.9114 21.6137 2073 105.409 123.485 465.17
3080 0 94.3119 18.1525 1712 111.208 123.093 463.254
3081 0 95.3196 15.1595 1445 115.031 123.411 463.489
3082 0 102.469 17.4687 1790 111.393 123.918 463.549
3083 0 105.438 15.7628 1662 114.741 123.801 452.655
3084 1 56.2015 16.2807 915 113.96 122.737 479.922
3085 0 58.1064 15.6953 912 113.476 122.223 482.003
3086 0 59.4662 19.3219 1149 109.257 120.786 478.809
3087 0 62.3171 17.8121 1110 111.2 121.537 478.637
3088 0 67.5582 18.1325 1225 109.011 120.941 478.399
3089 0 66.1701 15.1881 1005 113.669 119.987 476.978
3090 0 70.2746 16.2505 1142 114.461 119.816 474.764
3091 0 70.3837 19.2232 1353 110.293 119.461 472.912
3092 0 73.1782 16.33 1195 115.15 119.259 471.229
3093 0 76.4599 16.5185 1263 113.851 118.2 470.249
3094 0 79.3005 18.8397 1494 108.99 118.148 471.054
3095 0 80.2407 19.0552 1529 110.379 117.697 466.067
3096 0 79.1854 14.1314 1119 116.965 116.774 464.676
3097 0 86.3125 17.0543 1472 112.605 118.115 461.795
3098 0 84.1118 14.2667 1200 118.92 117.687 455.712
3099 0 90.3104 17.4399 1575 113.106 117.145 458.793
3100 0 92.1167 13.4069 1235 120.223 118.524 453.632
3101 0 95.3396 15.8276 1509 117.502 118.272 451.616
3102 0 102.538 19.6415 2014 111.892 117.663 447.306
3103 0 113.866 20.8491 2374 107.657 117.583 450.607
3104 1 59.0652 15.5422 918 110.986 119.389 469.587
3105 0 58.1947 14.7436 858 113.84 119.946 468.712
3106 0 60.3804 13.15 794 117.156 121.181 466.568
3107 0 64.2354 16.424 1055 112.417 121.046 464.141
3108 0 68.4732 18.7957 1287 108.309 121.73 463.63
3109 0 67.2894 16.0352 1079 114.099 119.484 463.683
3110 0 70.419 15.138 1066 113.465 121.982 464.886
3111 0 69.6899 11.709 816 122.065 121.822 461.81
3112 0 74.3869 17.0863 1271 113.241 123.026 461.512
3113 0 71.5325 15.6292 1118 116.362 124.041 459.363
3114 0 77.5188 17.4409 1352 112.851 123.945 457.999
3115 0 78.3685 13.7045 1074 118.32 122.409 459.152
3116 0 83.5588 16.3837 1369 113.552 124.763 459.369
3117 1 55.3511 13.7486 761 101.235 123.991 482.139
3118 0 53.43 12.3713 661 103.915 125.867 476.33
3119 0 56.3717 12.4531 702 103.605 126.011 476.721
3120 0 56.7318 11.1401 632 104.555 124.926 478.233
3121 0 60.2934 9.56988 577 103.889 125.657 482.88
3122 0 60.4145 17.2144 1040 96.0481 124.591 481.158
3123 0 64.4277 15.2884 985 98.0051 124.576 477.109
3124 0 62.4961 9.85661 616 105.273 123.693 477.425
3125 0 65.6794 9.72907 639 105.657 123.831 477.352
3126 0 66.7676 13.1651 879 99.9295 121.783 480.449
3127 0 71.3192 7.2491 517 107.609 122.431 475.381
3128 0 73.7793 12.9304 954 100.939 120.995 473.728
3129 0 72.5951 11.4195 829 102.61 119.191 470.612
3130 0 74.4653 19.0021 1415 92.5936 118.365 462.028
3131 1 0 0 0 -nan -nan -nan
3132 1 77.6632 13.0564 1014 95.9694 116.559 474.536
3133 0 76.9476 11.9562 920 98.538 117.012 466.841
3134 1 42.3396 12.2344 518 96.307 115.645 486.068
3135 0 46.1047 8.2638 381 95.0577 116.026 487.444
3136 0 43.3037 15.8878 688 88.7791 116.042 485.09
3137 0 42.0654 8.96223 377 94.1724 114.854 488.804
3138 0 42.0439 8.5149 358 97.0112 114.71 483.983
3139 0 45.0645 11.4724 517 94.5783 115.058 478.636
3140 0 48.2057 12.0525 581 93.8365 115.898 482.75
3141 0 45.2379 9.81478 444 97.9595 115.005 477.966
3142 0 43.3594 12.3848 537 95.8603 116.538 478.454
3143 0 49.2013 12.3167 606 94.9307 115.828 475.871
3144 0 51.2387 12.4125 636 94.511 116.643 471.775
3145 1 153.038 12.6439 1935 93.9308 116.848 440.299
3146 0 153.819 26.8303 4127 82.2973 116.321 415.254
3147 0 156.334 11.0661 1730 96.3416 118.912 427.675
3148 1 171.582 9.6397 1654 97.4057 118.819 437.748
3149 0 175.673 17.8456 3135 88.2545 118.336 418.141
3150 0 173.066 14.3356 2481 92.8851 119.622 418.007
3151 0 177.064 22.6642 4013 86.3419 118.029 406.659
3152 0 180.404 24.0017 4330 86.2771 117.858 407.969
3153 0 182.26 25.6612 4677 85.761 119.109 403.473
3154 0 180.366 29.5177 5324 84.531 119.507 406.007
3155 1 72.0939 12.3173 888 97.848 121.133 461.98
3156 0 74.3241 12.0553 896 97.4319 120.801 465.59
3157 0 80.3005 11.6687 937 97.0053 121.458 467.509
3158 0 80.0828 13.6484 1093 97.2909 122.722 459.833
3159 0 84.2277 14.7457 1242 97.2367 121.251 457.707
3160 1 46.1378 12.8094 591 96.1743 123.19 483.23
3161 0 46.2026 14.5663 673 96.0936 122.719 482.865
3162 0 50.18 12.6544 635 97.6961 123.798 482.924
3163 0 49.061 17.4477 856 90.5164 122.736 484.241
3164 0 52.176 10.7521 561 96.2799 122.364 486.815
3165 0 51.0422 13.0676 667 95.9385 121.079 483.13
3166 0 52.127 10.8005 563 98.6021 120.799 483.94
3167 0 56.1765 16.0387 901 92.6426 121.304 486.176
3168 0 56.1597 9.50859 534 99.5431 121.532 488.496
3169 0 56.0968 11.4088 640 98.4203 120.675 485.433
3170 0 59.2532 12.1006 717 97.4491 120.127 488.086
3171 0 61.1689 13.8633 848 95.4576 119.744 482.34
3172 0 64.272 14.5942 938 97.4851 119.307 476.599
3173 0 64.1007 12.184 781 101.27 119.076 477.818
3174 0 66.1726 18.1797 1203 94.6467 118.037 479.407
3175 0 69.1576 12.6667 876 100.686 117.312 475.75
3176 0 69.1606 14.7338 1019 99.6094 116.674 473.718
3177 1 83.4106 20.1413 1680 89.953 117.501 467.876
3178 0 87.8485 20.5809 1808 89.6803 116.181 465.736
3179 0 81.5826 13.8755 1132 98.5521 117.24 466.97
3180 0 87.3517 19.1067 1669 93.5069 116.762 465.152
3181 0 87.393 16.34 1428 97.098 116.398 462.674
3182 0 87.3 19.1867 1675 98.8436 116.213 458.845
3183 0 91.887 16.0306 1473 101.564 115.825 457.068
3184 0 94.6923 16.8546 1596 98.3039 115.814 463.89
3185 0 94.3674 17.1458 1618 99.5068 115.661 456.817
3186 1 49.1659 14.5223 714 98.1078 116.326 476.591
3187 0 52.3446 12.7616 668 96.9117 117.653 479.748
3188 0 53.1295 11.8014 627 98.0686 115.281 481.376
3189 1 111.244 18.6976 2080 98.0923 117.295 449.03
3190 1 61.3088 15.6584 960 93.099 117.132 479.123
3191 0 57.0896 15.1867 867 96.9723 116.476 473.472
3192 0 60.3032 22.105 1333 90.0623 116.958 473.647
3193 0 61.1414 11.5634 707 100.574 116.963 473.46
3194 0 63.1738 20.0716 1268 93.3013 118.688 468.64
3195 0 66.0969 20.4851 1354 94.1713 117.489 471.548
3196 0 65.1232 15.9083 1036 100.834 119.846 465.984
3197 0 67.1513 13.9238 935 101.63 119.809 471.834
3198 0 71.1278 16.5336 1176 98.426 120.258 468.509
3199 0 71.1779 13.6559 972 102.563 120.8 468.812
3200 0 77.2961 11.54 892 104.902 122.311 467.464
3201 0 80.2943 17.3113 1390 97.9 121.85 469.091
3202 0 78.1006 13.8795 1084 103.877 121.501 462.208
3203 0 82.1491 13.7798 1132 104.04 121.828 463.642
3204 0 82.2406 14.3238 1178 102.24 123.381 465.968
3205 0 87.1528 17.3259 1510 99.3868 121.126 460.501
3206 0 92.0933 13.584 1251 102.576 123.488 465.247
3207 0 94.3724 18.9992 1793 97.2409 121.434 465.741
3208 0 94.365 13.7657 1299 103.066 123.374 459.086
3209 1 155.84 14.9512 2330 102.494 121.23 436.154
3210 1 56.2354 15.0084 844 95.5628 120.361 483.609
3211 0 59.1651 12.9468 766 96.6044 121.495 482.71
3212 0 58.3663 13.0898 764 99.2395 122.101 483.864
3213 0 60.2605 11.4337 689 101.874 121.44 480.485
3214 0 60.1192 7.40196 445 106.578 122.337 480.89
3215 0 67.1252 16.432 1103 94.6464 120.538 482.039
3216 0 70.6404 12.599 890 97.2067 120.1 481.456
3217 0 72.4048 15.9244 1153 94.9341 119.513 481.234
3218 0 74.3062 15.0862 1121 96.0508 118.772 478.964
3219 0 76.2156 12.7664 973 99.5786 117.748 474.701
3220 0 74.0702 14.9993 1111 98.7363 118.007 468.149
3221 0 78.3392 12.8288 1005 99.3741 117.994 470.286
3222 0 80.1572 18.0271 1445 95.6145 118.05 466.348
3223 0 84.0701 13.1319 1104 101.526 117.27 466.146
3224 0 91.3725 24.6464 2252 88.8255 115.268 465.315
3225 0 91.3344 14.9889 1369 98.8327 117.344 462.069
3226 0 94.2842 12.2078 1151 101.345 116.965 461.894
3227 0 97.1395 14.2167 1381 98.4171 117.454 465.282
3228 1 49.0464 11.8051 579 99.8497 118.465 477.8
3229 0 50.1426 18.0286 904 93.2766 118.146 475.805
3230 0 55.3256 14.0983 780 95.9295 118.799 472.374
3231 0 59.2588 19.2883 1143 87.5293 119.254 478.26
3232 0 60.1007 15.8068 950 93.8484 118.221 472.265
3233 0 58.1171 13.077 760 97.671 119.321 472.886
3234 0 65.4014 17.2932 1131 92.2361 119.648 469.807
3235 0 64.3586 17.0451 1097 94.3555 119.202 464.459
3236 0 66.0783 15.2698 1009 95.9346 121.597 463.597
3237 0 67.1098 13.2171 887 98.2142 121.735 458.749
3238 0 71.0872 18.7094 1330 92.4797 120.719 460.312
3239 0 75.1278 14.5618 1094 95.8958 122.457 462.244
3240 0 76.4648 14.9873 1146 93.7976 122.649 466.168
3241 0 80.0664 14.7128 1178 96.5297 123.885 459.007
3242 0 82.2076 13.1861 1084 97.9696 123.618 458.691
3243 0 84.1282 14.882 1252 96.3003 123.764 458.454
3244 0 88.3142 15.4902 1368 96.2442 124.317 458.039
3245 0 93.5692 15.3683 1438 94.3338 124.53 460.265
3246 0 92.3085 14.2782 1318 97.6366 124.203 452.841
3247 1 49.1046 23.8267 1170 84.6239 121.649 474.829
3248 0 53.2612 14.0252 747 90.9786 122.767 480.61
3249 0 55.1399 13.5836 749 90.0894 121.174 481.004
3250 0 54.0839 19.3033 1044 84.9674 120.809 482.901
3251 0 57.1038 12.3985 708 92.4364 121.167 479.76
3252 0 59.1012 9.33992 552 95.0815 119.495 479.748
3253 0 57.2253 16.4787 943 89.9671 120.716 477.302
3254 0 59.1105 9.50761 562 95.5979 121.183 477.438
3255 0 63.1945 13.1974 834 92.56 119.91 473.584
3256 0 66.4574 16.1908 1076 88.8745 120.019 478.355
3257 0 70.2726 26.4541 1859 83.1533 120.138 473.672
3258 0 71.5995 19.9862 1431 87.2614 120.403 473.413
3259 0 75.5814 19.1979 1451 87.5141 120.733 475.374
3260 0 77.4667 20.0602 1554 87.0129 118.567 472.707
3261 0 78.482 13.2897 1043 93.3461 117.719 472.128
3262 0 83.2892 18.5018 1541 89.3842 118.091 467.019
3263 0 83.6687 13.8762 1161 94.4401 117.167 464.47
3264 0 89.3909 19.879 1777 89.3877 116.837 461.645
3265 0 90.703 18.3566 1665 90.9153 116.634 460.592
3266 0 96.5024 13.4815 1301 96.4158 117.083 457.283
3267 0 95.4867 10.9963 1050 98.6781 118.863 455.885
3268 0 99.8916 13.5146 1350 98.3904 117.387 453.693
3269 1 53.1928 17.2392 917 93.3817 118.025 473.482
3270 0 51.1419 13.4332 687 98.9782 118.956 470.821
3271 0 56.1345 16.3714 919 95.2427 118.967 470.801
3272 0 56.1089 13.5629 761 98.1511 120.104 470.828
3273 0 56.1969 14.5915 820 98.0488 119.048 466.713
3274 0 61.1331 21.2978 1302 90.7043 117.869 470.515
3275 0 60.1321 11.7242 705 102.485 119.77 460.912
3276 0 61.1717 13.0126 796 100.771 119.997 460.268
3277 0 66.2132 22.3369 1479 89.236 119.4 466.398
3278 0 68.1221 12.14 827 98.769 121.993 464.874
3279 0 74.2812 14.5528 1081 96.5994 121.264 461.404
3280 0 69.1611 14.2132 983 99.8535 123.505 455.594
3281 0 77.1752 19.1771 1480 93.8534 123.255 454.691
3282 0 76.0807 22.1607 1686 91.3126 122.501 459.41
3283 0 79.1819 20.0425 1587 92.7272 123.346 460.067
3284 0 80.2898 21.4224 1720 91.4913 124.817 461.081
3285 0 85.3299 14.274 1218 101.333 125.537 452.938
3286 0 82.504 11.3328 935 106.018 125.388 451.095
3287 0 87.2489 15.5417 1356 98.5162 124.197 455.549
3288 0 92.3052 20.8114 1921 91.938 124.248 449.854
3289 0 97.4157 14.3817 1401 97.4368 124.849 451.141
3290 0 98.2067 17.4224 1711 95.4635 126.04 450.835
3291 0 102.422 15.5142 1589 97.248 124.513 448.995
3292 0 108.444 18.8301 2042 93.2679 125.115 446.155
3293 0 104.579 15.7966 1652 97.2603 126.257 446.246
3294 0 115.535 29.4457 3402 85.5115 124.21 444.233
3295 0 115.431 26.3534 3042 88.3455 124.185 443.423
3296 0 114.635 13.7916 1581 99.9595 124.944 446.721
3297 0 118.065 11.3836 1344 102.913 124.217 441.6
3298 0 130.85 17.7608 2324 95.9819 123.57 442.021
3299 0 132.77 18.0462 2396 97.5806 122.879 431.482
3300 1 69.408 16.1076 1118 97.39 122.338 467.386
3301 0 72.3384 16.6578 1205 94.4091 121.275 468.906
3302 0 71.302 11.9351 851 101.517 121.253 464.16
3303 0 74.4018 16.7469 1246 96.5449 120.702 464.527
3304 0 74.4034 13.4537 1001 98.5674 119.434 468.088
3305 0 80.3304 18.1749 1460 93.0678 119.84 466.177
3306 0 84.3554 18.754 1582 92.9981 120.05 463.192
3307 0 87.5574 16.1494 1414 94.5778 119.523 465.463
3308 0 87.4961 14.6978 1286 97.6446 119.041 460.648
3309 0 94.4159 14.9339 1410 96.573 119.566 457.912
3310 0 92.1304 15.2827 1408 96.0312 119.411 456.027
3311 0 98.2415 21.9052 2152 89.0158 119.756 459.391
3312 0 99.4007 17.9878 1788 93.1728 119.775 449.936
3313 0 102.419 24.0091 2459 87.6995 119.319 452.462
3314 0 105.404 12.6845 1337 99.3912 118.824 446.301
3315 0 114.732 25.2413 2896 86.9658 119.233 440.526
3316 0 115.111 23.8552 2746 87.488 118.682 444.954
3317 0 125.155 23.2511 2910 88.0282 119.43 430.419
3318 0 119.37 13.7891 1646 96.3426 121.068 439.456
3319 0 127.333 15.6362 1991 95.0055 120.626 428.599
3320 0 129.475 14.9604 1937 96.4941 121.709 428.871
3321 0 128.506 11.4236 1468 98.9203 122.49 434.558
3322 0 140.633 22.8538 3214 89.827 122.307 423.689
3323 0 146.73 17.9036 2627 94.9768 123.174 420.191
3324 0 150.82 15.5616 2347 99.1692 123.731 416.892
3325 0 157.032 17.4868 2746 95.2407 124.315 425.542
3326 0 156.771 15.832 2482 98.0854 125.4 421.133
3327 0 168.177 16.2151 2727 98.0854 125.925 415.291
3328 0 172.987 16.7759 2902 98.2267 125.9 412.294
3329 0 177.822 14.0927 2506 101.275 124.948 409.437
3330 0 181.675 19.1276 3475 95.7252 125.614 410.665
3331 1 282.156 13.4748 3802 102.827 125.504 373.673
3332 1 217.202 10.732 2331 102.704 126.278 415.054
3333 1 196.621 21.3152 4191 95.0391 124.664 408.201
3334 0 208.496 19.372 4039 95.2154 126.354 415.426
3335 1 219.076 14.5064 3178 101.869 125.76 398.39
3336 0 223.981 28.2345 6324 88.7521 125.229 408.336
3337 1 286.542 13.6315 3906 103.951 126.869 366.594
3338 1 268.187 13.897 3727 102.434 125.869 391.507
3339 0 266.164 14.0928 3751 101.293 124.468 392.501
3340 1 72.3198 14.9613 1082 94.6081 124.978 470.209
3341 0 75.4792 17.422 1315 92.7186 123.184 469.932
3342 0 78.2297 14.9176 1167 98.9666 124.554 467.664
3343 0 82.273 13.4066 1103 101.964 124.063 463.762
3344 0 83.202 13.7377 1143 102.163 123.786 462.154
3345 0 83.1752 15.5575 1294 99.541 123.976 463.703
3346 0 89.2614 12.1441 1084 104.563 122.516 456.386
3347 0 94.267 14.3104 1349 100.884 122.77 457.768
3348 0 100.226 13.729 1376 101.435 122.823 458.892
3349 0 100.192 15.7797 1581 99.5977 122.225 454.326
3350 0 107.703 16.2855 1754 97.3027 122.158 457.986
3351 0 107.182 12.2595 1314 103.908 121.152 448.554
3352 1 56.0696 13.3049 746 98.6448 121.471 469.863
3353 0 61.3495 13.1541 807 95.4362 120.869 471.312
3354 0 60.165 14.7262 886 96.6061 117.988 465.78
3355 0 65.1317 13.3422 869 99.5443 120.242 469.183
3356 0 64.1826 10.6727 685 104.384 120.012 461.764
3357 0 67.1174 15.5399 1043 97.164 119.903 464.683
3358 0 70.5093 11.3177 798 102.234 120.12 461.435
3359 0 75.7023 14.2796 1081 97.445 119.838 459.879
3360 0 75.3261 13.5544 1021 101.416 120.198 456.453
3361 0 77.4228 20.4591 1584 92.9609 120.461 459.652
3362 0 80.4103 13.9659 1123 101.905 121.103 452.276
3363 0 83.356 15.8957 1325 99.5449 121.869 452.673
3364 0 85.3337 16.8281 1436 99.126 122.904 449.907
3365 0 88.3728 15.9664 1411 100.597 123.363 447.59
3366 1 48.0702 8.30037 399 102.684 122.135 471.998
3367 0 50.2107 18.8008 944 93.3549 123.066 469.291
3368 0 53.7495 13.1536 707 94.7058 125.349 464.471
3369 0 55.2313 14.3216 791 95.2174 126.029 465.546
3370 0 57.4206 12.3301 708 98.1342 126.617 464.901
3371 0 56.2072 15.4251 867 94.7935 127.901 465.66
3372 0 60.3419 13.0424 787 97.0076 128.22 466.17
3373 0 61.6603 15.9422 983 93.8433 127.384 470.18
3374 0 61.2214 15.3868 942 95.7006 126.682 466.709
3375 0 63.4282 17.0271 1080 94.3083 127.581 466.865
3376 0 65.317 19.7498 1290 92.4705 126.597 466.596
3377 0 64.1948 13.8329 888 97.8345 126.708 471.783
3378 0 67.231 14.0411 944 98.3316 126.536 468.086
3379 0 72.4107 17.6631 1279 94.2252 126.769 466.316
3380 0 73.3218 13.4066 983 98.1373 127.534 469.344
3381 0 75.2786 18.9961 1430 92.1175 126.37 468.24
3382 0 76.3311 18.6032 1420 93.6092 125.331 466.811
3383 0 78.5907 13.8312 1087 98.9301 126.334 466.528
3384 0 78.5479 17.5434 1378 94.9891 124.066 465.713
3385 0 82.3318 16.555 1363 96.1922 123.857 461.931
3386 0 83.2094 20.827 1733 91.3156 124.235 466.848
3387 0 88.5938 18.2518 1617 93.7582 123.21 461.588
3388 0 90.3753 16.0885 1454 96.5619 123.258 457.314
3389 0 95.1782 14.3836 1369 97.8188 122.969 458.967
3390 0 98.1076 22.4855 2206 89.9896 122.442 455.274
3391 0 101.254 21.046 2131 92.0587 122.379 454.186
3392 1 53.1971 16.2979 867 94.0877 121.663 473.872
3393 0 54.5252 9.77529 533 100.623 122.533 473.135
3394 0 55.2105 20.123 1111 90.9703 121.975 473.035
3395 0 59.2968 18.9555 1124 90.726 120.861 471.543
3396 0 63.3828 18.7275 1187 91.2317 120.881 468.15
3397 0 62.2728 16.0102 997 94.3671 121 468.751
3398 0 62.1973 14.2932 889 96.3251 120.847 467.476
3399 0 70.4241 18.2182 1283 89.7062 120.754 469.818
3400 0 68.4822 18.8954 1294 93.0155 120.061 468.571
3401 0 70.2326 19.3785 1361 94.7443 120.602 459.132
3402 0 74.4651 16.3432 1217 95.9408 119.88 461.97
3403 0 76.3535 16.5939 1267 97.8824 120.808 454.287
3404 0 75.5358 19.5669 1478 92.661 120.838 461.672
3405 0 78.7154 13.9744 1100 100.75 121.579 452.459
3406 0 81.3593 20.6246 1678 94.9642 120.605 451.175
3407 0 85.1916 17.5369 1494 97.3795 122.766 453.843
3408 0 83.6365 14.9098 1247 102.062 123.591 447.887
3409 0 84.2436 15.835 1334 101.831 123.601 442.672
3410 0 88.5639 14.8932 1319 101.599 124.575 448.412
3411 0 89.6264 17.1713 1539 100.775 124.982 442.761
3412 0 91.6851 13.4809 1236 103.773 124.966 449.171
3413 0 93.6452 15.2918 1432 101.333 125.121 448.979
3414 0 99.6896 13.4518 1341 103.298 126.368 446.462
3415 0 103.72 18.8295 1953 98.2212 127.083 445.156
3416 0 105.652 14.6329 1546 104.809 127.343 436.631
3417 0 112.813 16.5584 1868 102.506 127.085 435.722
3418 0 113.731 14.7101 1673 105.019 128.314 438.903
3419 0 119.563 15.289 1828 104.57 129.493 436.153
3420 1 62.2577 11.3078 704 107.045 129.484 463.736
3421 0 64.2727 14.0184 901 103.574 127.993 465.386
3422 0 66.2918 14.587 967 103.563 127.39 462.767
3423 0 70.234 16.4593 1156 100.037 127.212 464.283
3424 0 73.5618 13.0095 957 104.326 127.452 464.038
3425 0 73.2057 14.9442 1094 103.84 126.741 456.75
3426 0 78.191 22.0869 1727 94.0892 126.706 459.745
3427 0 76.1617 12.329 939 107.569 126.389 456.349
3428 0 80.214 11.1826 897 108.474 126.05 460.706
3429 0 85.6364 19.6645 1684 97.7934 124.743 457.044
3430 0 89.5789 21.2997 1908 96.5928 123.448 453.297
3431 0 87.2641 15.7797 1377 105.312 123.286 451.224
3432 0 89.5955 15.1124 1354 104.742 123.051 447.99
3433 0 91.5692 16.9817 1555 102.961 122.089 446.444
3434 0 99.5694 15.316 1525 103.732 122.156 450.58
3435 0 99.6524 14.4201 1437 103.827 122.977 451.145
3436 1 54.3651 15.819 860 100.235 121.827 462.965
3437 0 54.3464 12.3467 671 108.06 120.598 459.683
3438 0 56.203 12.9708 729 106.37 119.602 461.14
3439 0 60.0771 15.6798 942 100.357 119.416 461.276
3440 0 62.188 15.8873 988 97.915 120.539 464.609
3441 0 66.2078 12.8686 852 100.942 120.329 462.109
3442 0 69.5186 16.5423 1150 96.627 119.773 461.72
3443 0 70.3178 17.9898 1265 94.6379 120.845 464.582
3444 0 72.2665 13.7962 997 101.075 120.568 457.769
3445 0 75.3502 13.5102 1018 100.862 119.176 459.302
3446 0 77.5985 17.0364 1322 97.3162 120.208 458.104
3447 0 80.2646 15.8725 1274 100.195 121.983 452.274
3448 0 81.4817 13.9172 1134 102.299 121.353 450.009
3449 0 85.2909 13.4481 1147 102.956 122.028 450.25
3450 0 88.3196 16.6667 1472 101.499 121.969 448.717
3451 0 90.2728 16.2729 1469 101.237 123.086 446.904
3452 0 92.3864 12.5343 1158 105.852 122.166 445.466
3453 0 94.2983 16.013 1510 101.782 124.139 442.052
3454 0 98.2201 16.1372 1585 101.965 123.741 446.233
3455 0 101.601 14.685 1492 105.528 125.808 438.216
3456 0 107.594 18.3932 1979 99.619 125.419 439.322
3457 0 111.026 15.0145 1667 103.916 125.705 438.421
3458 0 117.502 16.9699 1994 101.947 125.711 438.488
3459 1 66.7585 17.2412 1151 97.7237 126.674 457.458
3460 0 69.4036 14.7111 1021 99.3947 125.899 460.955
3461 0 68.2217 12.474 851 102.807 127.202 459.29
3462 0 74.3137 14.4119 1071 100.08 126.542 459.385
3463 0 78.1845 15.3227 1198 97.9516 125.994 461.98
3464 0 83.2149 13.4591 1120 99.9545 126.321 461.91
3465 0 82.252 14.9176 1227 98.3798 125.981 457.436
3466 0 86.159 15.7267 1355 97.9845 125.513 459.485
3467 0 88.3789 12.3446 1091 102.711 125.096 458.967
3468 0 89.2731 13.1171 1171 102.954 126.137 457.816
3469 0 94.2556 16.1051 1518 100.206 124.741 455.262
3470 1 47.1391 9.6735 456 106.169 127.053 476.893
3471 0 51.2732 12.8137 657 102.852 126.455 475.69
3472 0 56.1102 14.4002 808 101.498 125.718 477.231
3473 1 110.338 15.3347 1692 103.238 125.465 449.816
3474 1 56.1028 10.2312 574 107.892 125.498 476.341
3475 0 60.1513 11.0721 666 105.359 124.023 474.971
3476 0 60.2577 14.0065 844 101.455 122.784 475.031
3477 0 62.2767 14.0341 874 101.396 122.286 472.66
3478 0 62.3906 12.5981 786 103.393 120.858 473.151
3479 0 65.277 13.2359 864 103.497 121.016 469.156
3480 0 67.1988 11.4139 767 109.542 121.587 470.7
3481 0 70.6248 15.462 1092 104.137 120.5 465.021
3482 0 71.3212 14.666 1046 105.286 120.525 463.802
3483 0 70.3098 10.7951 759 112.055 120.86 464.427
3484 0 77.253 16.6207 1284 101.94 120.516 463.822
3485 0 79.348 15.2997 1214 103.356 120.42 463.73
3486 0 79.6926 12.8243 1022 108.733 120.755 460.369
3487 0 81.3885 12.213 994 110.849 120.317 455.942
3488 0 85.5733 17.8443 1527 103.144 120.511 452.597
3489 0 88.9437 14.3349 1275 106.429 120.938 450.988
3490 0 89.2183 14.8064 1321 102.057 119.487 449.948
3491 0 94.505 14.4225 1363 103.129 119.12 452.662
3492 1 50.4194 12.9712 654 103.372 119.034 461.85
3493 0 51.4241 10.287 529 105.788 117.747 466.042
3494 0 51.4481 10.4377 537 107.456 119.142 464.937
3495 0 56.4587 14.453 816 101.852 118.312 460.072
3496 0 56.4577 12.3809 699 104.346 118.787 460.856
3497 0 58.0724 14.6369 850 98.6047 119.079 468.894
3498 0 61.0981 21.9974 1344 92.244 119.981 463.01
3499 0 66.2714 16.7644 1111 95.3474 123.205 470.44
3500 0 65.2749 17.9855 1174 95.2794 124.735 470.022
3501 0 63.7086 13.499 860 104.069 125.28 459.938
3502 1 129.562 14.6262 1895 109.819 125.969 432.487
3503 0 128.898 13.3982 1727 112.676 125.836 431.876
3504 1 69.2427 18.2546 1264 98.6028 125.832 464.817
3505 0 73.37 11.9531 877 105.412 125.86 465.383
3506 0 73.2495 9.33795 684 110.351 125.852 465.107
3507 0 78.372 16.562 1298 98.6849 125.263 469.125
3508 0 82.3698 13.3665 1101 104.18 125.315 464.767
3509 0 84.4454 14.6959 1241 104.1 123.969 459.038
3510 0 86.6646 11.9772 1038 106.012 124.403 465.836
3511 0 90.7348 12.2775 1114 107.007 123.198 459.497
3512 0 93.7437 13.3129 1248 106.32 123.236 457.105
3513 1 54.4599 11.2193 611 106.813 122.81 476.961
3514 0 52.2632 11.5569 604 108.366 122.492 475.856
3515 0 54.3789 8.49595 462 106.173 119.448 478.19
3516 0 59.1603 17.3934 1029 98.9592 118.75 477.202
3517 0 61.0464 15.9387 973 101.679 118.579 475.25
3518 0 62.07 15.692 974 101.429 117.101 474.501
3519 0 66.1654 11.5166 762 104.794 116.916 476.421
3520 0 68.2448 17.8182 1216 97.1661 116.41 473.63
3521 0 67.2044 11.3237 761 106.522 116.17 470.394
3522 0 67.1 11.2072 752 106.069 116.781 471.57
3523 0 76.1166 18.1169 1379 95.4656 115.611 470.946
3524 0 73.1823 13.2682 971 102.773 116.667 469.344
3525 0 78.2197 12.8484 1005 103.706 117.098 466.886
3526 0 77.3603 11.6727 903 105.327 115.37 464.981
3527 0 78.2068 15.6636 1225 100.578 116.398 463.128
3528 1 37.1297 10.7461 399 102.233 116.604 481.188
3529 0 42.2563 11.9035 503 101.384 117 477.34
3530 0 43.0408 12.9412 557 98.9874 116.804 478.149
3531 0 45.0378 10.9242 492 101.067 117.319 475.951
3532 0 44.0432 14.5766 642 95.3474 117.955 478.822
3533 0 45.2273 14.593 660 96.5667 116.83 476.792
3534 0 49.1926 17.0351 838 92.5394 118.161 471.913
3535 0 49.0797 11.5934 569 100.232 117.663 473.598
3536 0 53.3648 10.9248 583 99.5334 117.986 473.64
3537 0 54.0826 21.837 1181 88.9407 117.637 471.347
3538 0 57.2283 14.7654 845 98.3811 121.271 471.872
3539 0 55.0989 10.6899 589 104.389 123.579 469.217
3540 0 57.2545 10.7415 615 105.011 123.657 464.737
3541 0 62.1237 13.3765 831 98.4669 122.245 469.241
3542 0 62.1659 15.5551 967 99.7632 122.925 463.845
3543 0 65.2197 16.3754 1068 97.3745 123.757 466.063
3544 0 67.3397 17.9686 1210 95.824 123.302 464.902
3545 0 68.2578 17.7708 1213 95.0058 123.024 469.359
3546 0 69.3096 16.8952 1171 99.1973 123.018 460.662
3547 0 71.3879 12.9574 925 103.638 123.514 461.96
3548 0 74.6903 13.6832 1022 102.489 124.519 467.586
3549 0 79.6009 17.6254 1403 98.288 123.959 460.21
3550 0 77.3429 12.4252 961 106.44 124.224 460.616
3551 0 79.644 19.7755 1575 95.4622 123.109 467.215
3552 0 83.8434 17.5088 1468 99.8719 122.862 459.871
3553 0 86.3299 14.155 1222 99.6162 123.088 460.913
3554 1 46.1594 15.6848 724 95.1726 124.242 481.902
3555 0 50.385 9.50679 479 99.5115 125.626 484.576
3556 0 50.0704 11.7834 590 98.4712 123.529 478.544
3557 0 52.05 14.121 735 95.8694 121.909 480.665
3558 0 56.1917 14.6285 822 94.6594 120.437 477.248
3559 0 54.219 17.4293 945 93.2857 120.201 476.833
3560 0 57.2578 13.6575 782 96.5051 118.799 476.864
3561 0 56.1966 10.4455 587 100.208 117.71 475.794
3562 0 60.0958 11.1489 670 99.7881 116.496 475.203
3563 0 63.1911 16.9644 1072 95.2929 116.398 473.372
3564 0 64.232 13.1399 844 99.7216 115.449 470.596
3565 0 69.2507 18.8879 1308 93.4358 116.225 467.664
3566 0 70.3176 12.9413 910 100.077 116.008 471.781
3567 0 68.4694 12.8379 879 100.926 116.695 470.588
3568 0 75.2732 16.9383 1275 95.0565 116.895 468.407
3569 0 78.3464 18.1757 1424 94.691 116.907 462.78
3570 0 79.2524 15.3055 1213 97.1748 116.464 459.277
3571 0 82.2938 16.0401 1320 94.3447 115.805 464.058
3572 0 82.4804 14.6095 1205 96.6025 115.22 456.968
3573 1 44.0921 12.9729 572 95.9563 114.528 476.267
3574 0 48.3622 13.4609 651 89.2058 119.057 480.038
3575 0 48.9494 13.6059 666 89.7898 119.191 477.845
3576 0 47.4148 11.3256 537 93.0056 119.041 474.415
3577 0 48.6681 13.9106 677 91.4594 118.158 471.733
3578 0 53.5286 26.5092 1419 81.1579 118.545 471.328
3579 0 55.6222 24.6844 1373 81.6497 117.987 472.765
3580 0 57.4752 14.1104 811 89.0123 119.903 473.549
3581 0 53.4937 13.8334 740 91.8203 120.064 468.655
3582 0 58.6331 29.2497 1715 80.8262 118.653 465.819
3583 0 56.2407 14.2068 799 91.7322 120.154 468.193
3584 0 59.2323 13.8945 823 91.9806 121.495 468.316
3585 0 63.3916 14.6392 928 90.1541 120.71 467.357
3586 0 59.3078 14.0116 831 92.4043 122.102 464.131
3587 0 63.5177 14.8935 946 91.426 121.42 459.924
3588 0 66.2821 15.7961 1047 90.1652 122.43 463.515
3589 0 70.2121 11.6219 816 93.4792 123.025 464.362
3590 0 72.3203 17.3534 1255 88.663 122.367 460.11
3591 0 75.265 16.98 1278 88.766 122.918 464.536
3592 0 74.2845 16.3426 1214 90.0338 123.017 458.68
3593 0 74.0757 11.0698 820 96.1037 123.548 458.793
3594 0 80.2854 16.4662 1322 90.3926 123.349 456.014
3595 1 44.0598 13.5952 599 90.4057 124.098 482.917
3596 0 46.1024 12.3421 569 94.0879 124.591 476.453
3597 0 41.0307 9.96816 409 97.6724 125.186 482.54
3598 0 47.2568 14.3048 676 92.8388 123.251 482.075
3599 0 46.1236 12.5315 578 97.6799 121.379 477.86
3600 0 50.1547 16.469 826 91.5472 120.23 479.949
3601 1 101.525 14.8436 1507 94.065 120.746 459.983
3602 0 102.56 16.1759 1659 94.3394 120.418 451.7
3603 0 107.84 15.7826 1702 94.785 120.594 449.413
3604 0 110.954 12.1042 1343 99.2182 119.31 450.719
3605 1 58.2476 15.0908 879 95.5415 120.496 475.72
3606 0 57.3164 14.2193 815 97.0491 118.874 472.847
3607 0 59.3269 12.1867 723 98.3707 118.137 473.043
3608 0 63.2676 14.0198 887 94.3946 118.232 474.499
3609 0 63.3387 20.3509 1289 87.3514 117.829 476.765
3610 0 64.4278 11.6875 753 98.9628 118.129 467.77
3611 0 70.3529 15.9624 1123 93.3749 118.426 471.083
3612 0 67.5532 11.5169 778 99.946 117.145 467.312
3613 0 75.5379 17.3423 1310 92.9198 118.344 464.564
3614 0 78.3396 15.1137 1184 94.4459 117.527 463.421
3615 0 81.3223 13.7355 1117 99.0295 118.127 459.135
3616 0 82.6262 15.4552 1277 95.5317 117.863 458.579
3617 0 82.4534 13.8502 1142 98.6497 117.222 454.109
3618 0 93.3397 14.9883 1399 94.2866 118.039 460.457
3619 0 95.3946 16.2168 1547 91.6005 118.417 455.8
3620 1 49.1131 10.8321 532 97.5771 118.983 468.778
3621 0 56.1145 14.5239 815 90.8258 118.901 470.834
3622 0 56.5793 24.1078 1364 80.8805 116.999 468.628
3623 0 53.2448 15.4193 821 91.5116 116.507 461.724
3624 0 55.1404 14.9074 822 94.1448 116.894 462.644
3625 0 58.1168 15.7958 918 93.2778 118.206 463.073
3626 0 60.1341 15.8479 953 92.0262 117.614 467.267
3627 0 61.0992 14.1737 866 96.1917 119.132 462.878
3628 0 64.3591 19.4689 1253 90.9354 120.537 463.722
3629 0 67.2535 18.289 1230 90.9106 120.287 466.013
3630 0 69.3566 17.7344 1230 92.8317 121.051 461.612
3631 0 72.5077 17.736 1286 91.7566 120.398 464.636
3632 0 74.4681 17.86 1330 92.003 121.599 462.591
3633 0 73.1012 13.8575 1013 96.9546 119.926 464.208
3634 0 78.1816 15.2849 1195 96.6628 121.188 460.693
3635 0 77.1117 11.1138 857 103.154 122.644 459.113
3636 0 81.1806 11.8501 962 103.067 122.421 459.865
3637 0 88.1973 14.3655 1267 99.9077 122.47 456.93
3638 0 87.1936 14.0377 1224 101.457 123.576 458.065
3639 1 45.0409 13.2768 598 99.2625 121.691 481.574
3640 0 52.1318 14.5209 757 97.3157 122.441 479.037
3641 0 50.182 10.442 524 104.929 120.842 474.399
3642 0 54.2408 18.3073 993 92.9688 121.331 479.912
3643 0 56.2878 16.0781 905 96.2332 120.896 476.177
3644 0 57.4329 13.5811 780 99.6731 119.929 478.414
3645 0 58.1729 14.56 847 98.8831 120.05 478.412
3646 0 58.0477 10.4569 607 107.603 119.489 478.891
3647 0 63.1503 17.688 1117 96.1128 118.601 479.474
3648 0 62.1344 14.2272 884 103.877 119.188 470.874
3649 0 65.2337 13.5819 886 103.626 117.909 471.371
3650 0 69.088 15.8638 1096 100.15 117.497 470.412
3651 0 71.0823 14.1245 1004 101.038 117.614 470.488
3652 0 72.056 13.9336 1004 101.179 117.035 469.372
3653 0 73.0894 11.8622 867 106.024 116.068 464.52
3654 0 81.1282 12.3632 1003 102.729 114.372 468.393
3655 0 79.1852 12.7675 1011 104.588 115.18 462.099
3656 0 81.1647 14.218 1154 102.136 115.791 461.615
3657 0 82.4218 14.996 1236 101.002 115.82 460.579
3658 0 85.1237 15.2132 1295 101.398 116.038 458.45
3659 0 85.141 11.8979 1013 106.033 116.41 455.161
3660 0 92.2781 17.3281 1599 94.6942 117.713 450.702
3661 0 92.3314 12.8342 1185 101.205 117.848 449.451
3662 0 96.2025 14.615 1406 99.9139 117.758 446.28
3663 0 98.3946 15.946 1569 96.8783 118.059 449.947
3664 0 101.352 12.8661 1304 101.32 119.163 444.918
3665 1 58.3027 18.6098 1085 91.5936 117.604 468.083
3666 0 65.2989 17.4735 1141 92.4531 118.354 461.874
3667 0 60.1997 20.4984 1234 90.7942 118.708 465.141
3668 0 62.148 13.5483 842 98.576 118.28 462.167
3669 0 61.3552 12.941 794 99.4584 119.18 466.772
3670 0 67.2023 13.2585 891 100.238 119.324 456.843
3671 0 68.2805 13.9132 950 98.6905 119.692 460.833
3672 0 70.2703 12.95 910 100.227 121.099 460.631
3673 0 75.2772 12.9787 977 99.5558 121.639 460.203
3674 0 76.2371 14.5205 1107 100.664 123.322 455.854
3675 0 80.21 14.4994 1163 100.253 122.815 457.905
3676 0 81.3726 13.5672 1104 101.86 122.963 457.54
3677 0 84.2569 15.5002 1306 100.528 124.263 453.374
3678 0 84.1942 12.2574 1032 105.576 124.227 453.687
3679 0 90.5933 18.3347 1661 98.0018 123.567 447.288
3680 0 94.5255 13.4778 1274 104.411 123.891 451.732
3681 0 95.1641 11.9373 1136 107.647 123.536 453.678
3682 0 101.527 14.8236 1505 103.458 123.808 453.279
3683 1 55.1304 15.4724 853 102.505 123.411 474.327
3684 0 58.1221 10.7704 626 107.511 122.064 477.8
3685 0 59.1039 13.9754 826 102.645 122.493 473.22
3686 0 61.2455 15.8542 971 100.597 122.602 473.986
3687 0 64.4371 15.9846 1030 99.8058 122.321 475.931
3688 0 63.3494 12.7862 810 106.227 121.415 473.342
3689 0 67.3179 15.2263 1025 102.148 121.409 472.062
3690 0 69.2399 12.7094 880 106.452 120.614 470.897
3691 0 68.2058 12.7262 868 107.021 120.965 466.7
3692 0 74.3057 15.4766 1150 102.163 120.53 466.857
3693 0 76.7035 17.157 1316 98.3412 118.948 470.88
3694 0 76.6783 10.7592 825 106.954 119.025 466.658
3695 0 82.6468 21.5253 1779 93.3019 118.768 467.567
3696 0 87.4651 16.578 1450 99.0352 118.74 462.628
3697 0 89.9489 16.2648 1463 97.6986 118.683 459.552
3698 0 89.62 12.2071 1094 103.885 117.701 451.859
3699 0 93.458 14.1133 1319 101.014 116.75 453.319
3700 0 93.464 13.77 1287 102.616 117.733 452.873
3701 1 52.2609 11.8636 620 102.256 117.352 471.853
3702 0 54.3013 15.6718 851 98.4783 118.313 469.528
3703 0 57.5977 14.1499 815 99.7166 117.914 470.766
3704 0 58.3186 14.5751 850 98.8082 119.129 467.479
3705 0 59.2951 18.9729 1125 94.6169 119.309 465.173
3706 0 61.2856 12.2051 748 102.287 119.834 467.025
3707 0 60.0998 11.8636 713 106.442 119.599 466.501
3708 0 66.1331 15.4688 1023 101.128 120.059 462.162
3709 0 68.2175 16.594 1132 99.6157 120.948 457.746
3710 0 69.1686 12.9105 893 104.7 121.422 460.523
3711 0 74.2225 16.5987 1232 98.4164 122.1 459.842
3712 0 77.2247 13.5449 1046 106.16 121.035 456.767
3713 0 80.2586 20.0352 1608 96.0908 121.226 455.757
3714 0 84.104 13.8043 1161 103.01 124.025 454.312
3715 0 81.098 12.1335 984 104.831 123.734 458.085
3716 0 85.2153 18.1071 1543 98.3377 124.257 453.925
3717 0 87.3121 13.1253 1146 104.387 123.782 453.477
3718 0 93.5619 17.9453 1679 96.9035 123.671 453.019
3719 0 96.467 16.897 1630 98.6577 124.444 449.575
3720 0 95.3474 12.1136 1155 104.662 124.177 450.449
3721 1 55.1572 14.8122 817 96.5398 124.813 470.621
3722 0 55.2998 11.1031 614 100.085 122.427 469.95
3723 0 55.2685 11.616 642 95.9735 125.33 470.506
3724 0 57.6787 16.0544 926 87.811 123.402 469.303
3725 0 57.125 11.8687 678 92.8746 121.805 467.37
3726 0 60.43 21.6945 1311 82.9817 121.469 470.085
3727 0 59.1805 15.0387 890 89.7506 121.685 466.712
3728 0 63.2206 10.3922 657 94.3851 120.566 465.983
3729 0 61.1925 12.044 737 93.5427 122.475 465.87
3730 0 69.3049 14.9051 1033 89.5353 121.512 463.353
3731 0 72.2167 15.9243 1150 89.8322 122.315 459.298
3732 0 69.4418 10.3252 717 96.2664 122.123 458.919
3733 0 71.1347 7.54906 537 99.406 121.151 460.02
3734 0 79.406 15.15 1203 90.1172 120.374 462.087
3735 0 80.5197 8.89223 716 96.4148 120.401 461.677
3736 0 81.1425 16.9085 1372 90.1334 119.797 453.989
3737 0 82.4034 15.3634 1266 92.436 119.569 450.94
3738 0 84.324 13.3058 1122 94.3431 117.087 452.857
3739 0 86.5093 10.4844 907 96.065 117.964 455.861
3740 0 93.2696 14.5599 1358 93.2968 117.509 448.091
3741 0 96.6464 10.7816 1042 97.2438 118.024 444.964
3742 0 98.7556 16.0295 1583 91.9292 117.453 444.443
3743 0 100.521 16.5238 1661 91.9494 117.104 433.088
3744 0 104.504 11.7699 1230 97.2748 117.434 439.02
3745 1 52.0678 11.3314 590 96.6136 115.849 461.43
3746 0 55.6603 10.9234 608 95.5428 117.084 462.747
3747 0 59.1682 12.4222 735 90.8531 115.958 456.493
3748 0 60.1029 11.3638 683 92.8565 117.619 458.307
3749 0 61.3578 18.824 1155 85.0987 116.838 459.748
3750 0 63.2252 18.2997 1157 85.9369 118.688 457.61
3751 0 65.5023 12.2286 801 92.5019 118.904 456.558
3752 0 67.4694 16.2741 1098 89.2295 118.597 451.253
3753 0 67.5217 11.3445 766 93.3694 118.966 454.321
3754 0 69.4004 10.4466 725 94.9021 118.446 451.45
3755 0 72.6775 15.3968 1119 91.2717 119.329 450.702
3756 0 73.5476 10.551 776 96.4162 120.718 450.11
3757 0 78.6217 13.3932 1053 94.7198 120.957 447.102
3758 0 76.7918 12.3581 949 99.8598 121.098 443.074
3759 0 83.2846 13.748 1145 98.7694 121.981 445.976
3760 0 86.8457 11.0771 962 101.055 122.078 444.554
3761 0 89.522 16.7668 1501 94.1786 121.776 445.496
3762 0 88.8134 17.3285 1539 94.7492 123.333 445.574
3763 0 93.7102 14.0113 1313 97.7928 123.014 446.81
3764 1 57.7469 14.096 814 88.3931 123.747 470.595
3765 0 53.3419 11.8293 631 95.2837 124.42 467.017
3766 0 53.1794 19.1992 1021 88.6425 123.927 467.514
3767 0 56.1343 15.3916 864 91.5023 125.755 470.682
3768 0 53.3735 9.61152 513 101.53 125.24 465.444
3769 0 59.1793 13.7717 815 96.4969 125.89 465.698
3770 0 58.068 13.3636 776 98.1443 124.746 469.312
3771 0 57.2837 17.5792 1007 93.4151 125.39 466.877
3772 0 64.1429 15.4967 994 94.0392 123.665 466.752
3773 0 64.4735 11.9274 769 98.909 124.523 467.475
3774 0 66.0565 17.5456 1159 92.8205 122.909 468.756
3775 0 71.2741 15.4334 1100 95.7345 123.167 464.553
3776 0 73.0831 17.268 1262 93.8645 121.581 464.647
3777 0 74.1773 11.3916 845 101.431 120.722 464.36
3778 0 78.1858 16.7294 1308 94.9327 120.88 463.609
3779 0 83.1719 19.2733 1603 91.9994 119.256 450.606
3780 0 88.1739 18.7244 1651 92.4046 118.844 452.208
3781 0 92.327 17.9796 1660 92.95 118.047 452.786
3782 0 86.2357 14.356 1238 98.9895 117.656 449.95
3783 0 90.2276 17.7218 1599 94.1069 118.403 450.435
3784 0 90.3194 13.3083 1202 96.9617 117.426 450.755
3785 0 90.362 14.5304 1313 93.9177 117.807 457.051
3786 0 93.34 17.4095 1625 93.7175 118.771 445.897
3787 0 99.545 12.959 1290 98.8519 116.657 444.054
3788 0 103.541 15.1728 1571 95.6244 117.132 443.848
3789 0 105.359 16.7523 1765 93.6589 118.644 441.388
3790 0 108.219 15.1545 1640 94.311 118.013 445.298
3791 0 113.662 15.0358 1709 94.306 117.767 442.578
3792 0 115.43 19.4404 2244 91.3271 119.516 439.832
3793 0 116.587 20.1138 2345 91.704 118.26 435.525
3794 0 125.524 15.6145 1960 94.5092 118.423 432.932
3795 0 128.965 16.9271 2183 95.1241 119.522 429.142
3796 0 129.505 13.2505 1716 100.941 119.943 423.536
3797 1 72.3557 13.6686 989 96.4388 120.499 452.203
3798 0 78.7058 13.7982 1086 96.1068 120.745 448.382
3799 0 82.2709 25.8779 2129 83.4612 120.023 438.483
3800 0 83.0854 16.4048 1363 92.9971 121.502 443.463
3801 0 90.4839 24.6895 2234 82.9996 121.079 441.158
3802 0 87.2726 18.2073 1589 89.9264 123.872 439.932
3803 0 88.1225 14.6047 1287 94.3667 123.975 439.392
3804 0 93.2256 13.2367 1234 93.4643 124.617 444.989
3805 1 49.06 9.90624 486 92.6523 124.864 467.148
3806 0 50.1983 13.8052 693 88.5916 124.498 467.97
3807 0 50.3304 15.1797 764 86.9005 124.106 469.114
3808 0 55.3623 18.984 1051 84.8068 124.621 467.076
3809 0 54.1729 22.742 1232 82.1291 123.864 462.347
3810 0 59.4918 19.0447 1133 83.8623 123.929 465.055
3811 0 61.2918 8.72873 535 93.2224 124.533 470.099
3812 0 60.0836 15.1622 911 89.4413 124.034 466.243
3813 0 69.7422 13.894 969 88.5325 125.131 470.49
3814 0 67.2298 18.7119 1258 86.9054 122.812 461.444
3815 0 67.29 15.931 1072 90.0532 122.91 467.404
3816 0 71.1789 12.2789 874 93.4165 122.026 468.795
3817 0 74.2599 20.2397 1503 86.7844 122.827 466.795
3818 0 74.1939 17.1712 1274 90.9082 122.315 460.949
3819 0 77.2302 12.1585 939 95.5942 120.005 463.294
3820 0 86.603 22.6205 1959 84.8724 118.116 456.309
3821 0 83.2095 25.7903 2146 82.5294 118.424 460.429
3822 0 91.2393 33.6916 3074 76.8445 117.425 459.202
3823 0 92.599 22.3652 2071 85.2482 118.479 458.684
3824 0 96.8003 24.0702 2330 83.8824 118.152 452.323
3825 0 98.3258 26.6665 2622 82.008 117.152 455.326
3826 0 98.863 21.99 2174 86.276 116.667 455.116
3827 0 102.476 21.1269 2165 88.1349 117.518 445.338
3828 0 106.488 19.7487 2103 90.2977 116.375 442.991
3829 0 107.494 20.3547 2188 88.5407 116.211 449.732
3830 1 62.2124 10.9624 682 95.956 116.386 468.651
3831 0 63.1407 14.238 899 92.8476 116.089 467.414
3832 0 68.5137 17.0769 1170 88.4342 117.861 467.789
3833 0 67.3786 21.2976 1435 85.8718 118.174 468.932
3834 0 65.2451 13.4263 876 96.9452 118.679 460.565
3835 0 68.3142 16.834 1150 92.1739 118.403 460.977
3836 0 72.3196 13.6477 987 95.8713 119.742 459.623
3837 0 75.2077 15.2378 1146 95.2705 120.292 457.671
3838 0 78.2215 19.138 1497 91.6787 120.253 453.687
3839 0 80.1974 18.0804 1450 92.4828 118.85 454.294
3840 0 82.2149 14.2432 1171 97.205 119.181 456.962
3841 0 76.2561 12.5498 957 103.446 120.947 447.08
