time division length width area intensity CMx CMy
0 0 25.0434 12.1389 304 124.418 666.523 479.115
1 0 25.0067 9.19755 230 127.765 665.922 480.996
2 0 26.0322 8.91205 232 123.237 664.724 481.237
3 0 25.0184 12.6307 316 122.509 664.636 479.639
4 0 26.0199 12.183 317 118.552 663.959 479.53
5 0 26.0126 9.45697 246 121.171 663.732 481.561
6 0 28.1063 13.8403 389 116.416 662.118 478.069
7 0 29.042 12.7746 371 120.563 661.973 479.925
8 0 30.1734 10.5391 318 118.346 662.535 481.566
9 0 31.0368 13.9512 433 117.453 659.471 478.333
10 0 32.019 13.086 419 120.251 659.928 478.924
11 0 33.049 13.0715 432 116.491 658.076 477.692
12 0 33.0944 9.82039 325 124.283 658.797 478.683
13 0 34.1033 13.5471 462 120.431 658.957 473.279
14 0 35.0169 14.5073 508 118.126 658.805 474.587
15 0 34.0518 12.2167 416 122.853 658.894 472.832
16 0 39.1669 14.068 551 117.403 659.145 470.347
17 0 39.0447 15.6231 610 113.736 659.233 467.675
18 0 41.1437 14.34 590 113.792 660.197 467.749
19 0 41.1437 14.3886 592 131.242 660.221 467.709
20 0 42.0871 12.094 509 123.56 659.523 464.617
21 0 43.0853 16.1308 695 116.99 660.361 460.673
22 0 45.1237 14.3827 649 120.188 659.992 460.864
23 0 48.0557 13.9213 669 120.764 662.984 459.501
24 0 46.0992 13.0588 602 123.279 661.045 460.299
25 0 49.0889 14.3617 705 122.075 663.783 455.706
26 0 52.1214 13.929 726 121.244 663.577 456.722
27 0 53.0751 15.1483 804 116.761 664.749 459.277
28 0 53.0697 15.018 797 118.956 665.563 454.268
29 0 57.1362 13.4941 771 118.368 667.143 454.481
30 0 56.0871 11.1434 625 123.272 668.123 453.731
31 0 60.0931 14.5108 872 117.692 668.443 453.062
32 0 62.1308 16.594 1031 113.468 669.16 454.003
33 0 67.2293 17.0461 1146 111.627 670.468 452.298
34 0 64.3176 12.3761 796 120.786 670.356 449.701
35 0 68.099 14.6258 996 119.95 671.585 448.902
36 0 69.1159 11.8641 820 120.562 670.591 453.974
37 0 72.2955 14.6759 1061 118.388 672.615 449.48
38 0 76.131 15.5127 1181 116.096 671.4 448.023
39 0 79.1347 16.693 1321 113.279 672.699 449.931
40 0 82.2459 16.1832 1331 112.098 672.184 449.276
41 0 83.1641 14.3812 1196 117.649 671.697 450.041
42 1 45.0773 12.5784 567 117.536 670.732 469.365
43 0 45.0604 13.7149 618 114.369 670.139 467.72
44 0 45.277 13.7156 621 111.327 669.072 468.796
45 0 48.0972 14.8242 713 115.065 668.496 469.086
46 0 48.0972 14.9073 717 136.66 668.494 469.098
47 0 48.0656 14.3346 689 126.219 667.415 469.585
48 0 53.1164 14.6094 776 120.023 666.994 471.481
49 0 54.09 16.1028 871 121.315 666.099 469.852
50 0 56.0347 12.5815 705 126.587 666.684 471.197
51 0 56.0377 12.5273 702 129.329 665.09 470.973
52 0 59.0842 14.3693 849 127.034 663.305 468.127
53 0 62.1781 14.4102 896 126.849 662.951 465.57
54 0 62.1585 15.2674 949 127.189 663.062 463.62
55 0 65.1044 13.6243 887 129.715 662.389 462.266
56 0 67.1537 14.8912 1000 127.128 661.962 460.348
57 0 69.094 13.431 928 131.545 661.247 456.77
58 0 72.2596 13.7559 994 131.117 661.318 456.293
59 0 76.1525 13.7881 1050 131.208 660.625 454.1
60 0 77.1099 14.4469 1114 129.387 661.252 452.701
61 0 80.2216 14.9336 1198 129.725 661.497 446.336
62 0 82.1832 14.8205 1218 129.922 661.033 446.799
63 1 43.021 9.87888 425 129.555 661.631 467.052
64 0 43.086 11.419 492 127.815 661.72 464.331
65 0 44.1828 14.44 638 112.597 661.028 459.897
66 0 43.1091 10.9722 473 117.554 660.622 458.844
67 0 47.0562 15.5559 732 115.257 662.566 464.402
68 0 47.1173 13.3072 627 120.914 663.051 459.966
69 0 49.0861 15.6052 766 117.232 661.685 458.982
70 0 50.121 14.4051 722 119.568 663.83 458.219
71 0 50.0568 11.7866 590 124.88 662.922 458.659
72 0 52.2172 12.2182 638 123.18 664.462 458.577
73 0 55.0795 15.051 829 118.876 664.416 454.747
74 0 56.1227 14.2901 802 121.399 664.906 455.494
75 0 58.1818 12.2719 714 124.888 666.081 455.784
76 0 59.1337 13.2919 786 123.064 666.514 456.436
77 0 60.1407 13.0361 784 124.386 666.343 455.49
78 0 62.1503 17.4255 1083 115.888 666.802 458.986
79 0 63.1767 11.4757 725 127.163 667.794 459.526
80 0 66.3327 13.2212 877 124.701 668.935 458.148
81 0 68.2142 15.6859 1070 122.531 668.919 455.949
82 0 70.3531 13.8729 976 126.859 668.322 455.017
83 0 75.2915 15.9381 1200 122.497 667.792 454.231
84 0 75.1279 15.9994 1202 121.286 667.625 459.492
85 1 43.094 13.0181 561 119.178 667.813 474.481
86 0 41.098 12.969 533 122.133 668.227 474.261
87 0 44.0394 14.0329 618 119.917 667.366 473.898
88 0 46.042 12.6841 584 123.469 667.014 472.111
89 0 47.0822 13.5932 640 121.042 666.961 473.13
90 0 49.1971 14.8383 730 117.93 666.368 472.858
91 0 49.1055 13.6645 671 121.331 666.38 472.408
92 0 51.1796 16.3346 836 114.366 666.604 474.922
93 0 52.0738 16.9183 881 114.392 666.036 473.85
94 0 55.102 13.3026 733 121.398 664.188 472.99
95 0 55.0813 14.3969 793 120.301 664.337 469.195
96 0 56.1965 12.3139 692 124.217 660.743 470.816
97 0 60.1031 13.6599 821 120.111 663.294 470.493
98 0 61.2431 14.32 877 119.52 660.611 466.176
99 0 64.4125 12.1405 782 122.38 659.744 466.368
100 0 65.1917 15.2013 991 118.326 659.425 464.064
101 0 66.1556 14.1182 934 121.26 658.757 460.564
102 0 66.1556 14.0729 931 138.691 657.736 460.594
103 0 71.2408 11.8752 846 126.915 658.699 457.466
104 0 74.1889 11.6729 866 127.222 658.245 452.016
105 0 77.1901 14.8594 1147 121.868 658.332 456.385
106 0 78.2655 12.9176 1011 126.637 658.85 451.139
107 1 45.0294 12.1032 545 125.04 658.016 468.971
108 0 44.105 12.1301 535 124.112 658.514 469.91
109 0 46.4781 15.0824 701 119.337 655.956 462.563
110 0 47.1171 15.0901 711 117.626 659.229 464.809
111 0 49.0719 14.6927 721 118.989 660.001 463.012
112 0 50.022 15.3133 766 117.413 659.783 462.584
113 0 52.0414 13.8543 721 121.05 660.738 459.331
114 0 53.0552 14.2681 757 121.02 661.931 459.548
115 0 54.0869 14.1624 766 121.542 661.832 458.116
116 0 57.0802 15.5395 887 116.338 662.436 460.882
117 0 56.1158 15.4502 867 120.884 663.791 456.318
118 0 60.1252 15.6341 940 118.691 664.798 456.519
119 0 60.1504 15.5942 938 137.481 664.765 456.548
120 0 61.0993 13.9936 855 121.675 665.733 457.364
121 0 65.162 17.0191 1109 115.201 665.456 459.517
122 0 67.259 14.1394 951 120.642 666.834 457.487
123 0 66.1303 12.7929 846 123.803 666.363 459.074
124 0 66.3055 12.9099 856 125.592 666.484 455.466
125 0 71.1468 14.4209 1026 120.832 666.781 457.576
126 0 75.1231 18.0637 1357 115.083 667.326 451.966
127 0 77.3393 17.2875 1337 115.518 667.11 456.82
128 0 78.1548 14.4073 1126 121.501 666.431 455.596
129 0 80.2382 14.6065 1172 121.933 666.692 455.627
130 0 82.2936 16.7449 1378 119.029 664.98 453.66
131 0 88.0972 16.8337 1483 120.774 665.773 456.556
132 0 87.1302 14.2431 1241 127.845 663.637 450.283
133 0 91.3003 15.6845 1432 119.068 663.686 449.679
134 0 96.299 15.6699 1509 118.746 663.531 452.673
135 0 97.2453 12.8952 1254 124.091 663.54 449.163
136 0 102.303 17.1646 1756 116.656 664.341 450.478
137 1 55.0855 16.4472 906 113.807 662.359 472.167
138 0 54.1862 13.8965 753 119.664 663.135 469.976
139 0 58.1802 13.5269 787 114.351 658.319 470.823
140 0 58.0754 16.6163 965 110.985 660.545 468.894
141 0 52.1138 9.36412 488 125.711 660.617 469.074
142 0 60.3113 16.6304 1003 112.248 659.704 467.916
143 0 60.3113 16.6635 1005 126.393 658.706 467.94
144 0 64.2272 12.7672 820 119.359 659.387 465.735
145 0 64.1605 11.7362 753 121.591 658.023 460.134
146 0 68.1996 14.3696 980 116.567 658.048 459.19
147 0 70.1808 14.9329 1048 113.417 657.084 462.432
148 0 70.1608 11.8727 833 117.984 657.293 462.965
149 0 77.1586 16.006 1235 113.349 657.177 452.749
150 0 79.2645 12.78 1013 118.437 655.259 453.62
151 0 86.1372 11.4352 985 118.186 656.374 454.554
152 0 86.5827 19.1031 1654 108.435 656.603 441.948
153 0 87.3289 14.6229 1277 115.245 656.692 442.691
154 0 88.2624 11.9417 1054 118.258 657.987 442.884
155 0 95.2102 15.7126 1496 110.803 657.217 443.623
156 1 48.0919 11.083 533 116.083 659.242 461.522
157 0 50.2297 13.9161 699 111.197 657.182 452.608
158 0 55.1381 13.9468 769 111.575 660.492 457.958
159 0 56.1119 12.1721 683 116.439 661.144 459.025
160 0 57.0442 12.6744 723 116.286 662.313 456.534
161 0 59.216 16.1949 959 109.053 661.341 452.964
162 0 61.1732 13.3392 816 112.475 662.727 454.744
163 0 64.037 12.1805 780 113.377 663.233 455.514
164 0 66.1394 13.0633 864 112.606 664.69 451.388
165 0 67.0557 11.5277 773 115.613 664.653 451.806
166 0 68.105 10.2048 695 117.114 666.096 452.348
167 0 68.105 10.0727 686 129.302 668.104 452.343
168 0 78.1731 14.1865 1109 109.747 665.426 452.545
169 0 78.0921 14.2652 1114 111.115 667.096 450.104
170 0 80.1286 13.4034 1074 113.266 666.964 447.954
171 0 84.2574 12.4025 1045 115.154 666.388 450.073
172 0 89.2339 16.5408 1476 108.061 666.622 448.591
173 1 46.0897 11.6512 537 111.119 665.266 474.043
174 0 47.377 11.6512 552 112.654 664.668 473.976
175 0 50.0774 13.1197 657 110.037 663.724 474.486
176 0 50.2982 11.7698 592 113.365 661.828 471.995
177 0 53.1017 12.8056 680 110.138 663.698 472.428
178 0 50.0374 10.9718 549 114.158 663.914 473.825
179 0 53.0575 13.4948 716 110.795 661.513 473.955
180 0 56.1412 13.1454 738 107.734 661.522 471.915
181 0 60.1055 16.9036 1016 102.999 660.629 471.591
182 0 60.1055 17.0201 1023 114.632 659.656 471.602
183 0 58.02 7.73871 449 116.428 660.245 470.08
184 0 62.2938 9.13414 569 113.981 659.531 469.677
185 0 66.2637 14.5479 964 107.67 657.915 464.11
186 0 68.1459 14.3956 981 108.742 656.215 461.966
187 0 70.1537 11.9309 837 112.603 657.178 463.676
188 0 73.1049 17.9878 1315 105.931 655.983 459.658
189 0 75.0937 13.8227 1038 112.212 656.591 453.578
190 0 81.3817 15.4826 1260 108.058 655.856 458.888
191 0 83.2277 13.6853 1139 109.329 654.791 459.086
192 0 83.2505 13.4173 1117 132.299 654.776 458.844
193 1 47.103 15.222 717 106.305 653.898 471.813
194 0 49.037 12.6231 619 109.3 656.018 469.88
195 0 49.3475 12.0979 597 112.154 656.194 467.496
196 0 49.1158 13.2137 649 113.31 655.846 463.549
197 0 52.1876 12.4742 651 112.848 656.57 462.716
198 0 53.1684 13.2597 705 112.064 657.495 460.887
199 0 57.2299 15.394 881 108.279 658.003 458.694
200 0 56.1735 12.141 682 114.356 658.708 459.856
201 0 58.2187 11.9206 694 114.882 658.558 458.781
202 0 62.11 15.3276 952 109.533 658.383 457.516
203 0 64.2008 18.8938 1213 104.252 658.394 458.434
204 0 64.263 12.7445 819 114.458 660.581 454.751
205 0 69.3398 14.09 977 110.704 660.865 457.485
206 0 69.3398 14.09 977 124.772 659.868 457.305
207 0 68.3068 12.7366 870 115.372 662.097 453.506
208 0 73.3253 15.5608 1141 109.941 663.067 454.55
209 0 74.2355 12.9184 959 115.382 664.274 450.831
210 0 78.2968 12.6953 994 116.385 664.562 451.582
211 0 78.4133 13.4288 1053 118.829 663.621 451.023
212 0 82.1675 14.1662 1164 117.875 663.578 449.763
213 0 88.2396 16.6252 1467 112.615 663.16 451.728
214 0 91.3014 23.5484 2150 103.685 662.873 450.339
215 0 93.2067 17.8099 1660 111.736 664.476 446.361
216 0 95.6714 11.3723 1088 120.592 664.686 454.879
217 1 49.211 9.65232 475 119.147 665.093 470.693
218 0 50.2116 13.7618 691 113.206 663.941 462.871
219 0 55.2047 14.8538 820 109.956 663.744 473.77
220 0 54.1096 10.4972 568 117.264 665.586 474.229
221 0 58.15 14.8409 863 111.203 663.115 473.292
222 0 58.2966 13.2426 772 114.499 663.491 471.58
223 0 63.0485 13.2596 836 114.105 661.712 468.766
224 0 63.1007 10.7764 680 118.531 660.365 468.672
225 0 67.2172 17.3021 1163 107.739 658.553 464.653
226 0 70.2688 19.9804 1404 101.266 657.574 473.91
227 0 72.2141 16.5342 1194 108.755 657.364 462.228
228 0 73.1902 12.324 902 115.071 656.153 463.172
229 0 75.1672 12.7316 957 114.027 655.478 463.399
230 0 79.1279 14.7356 1166 111.287 654.855 459.419
231 0 84.2586 15.0726 1270 110.899 654.873 456.199
232 0 84.2382 13.6399 1149 112.597 654.124 459.09
233 0 86.1446 14.139 1218 111.328 652.353 459.12
234 0 89.1996 15.9642 1424 108.288 652.206 457.228
235 0 91.285 15.9829 1459 109.212 651.809 451.631
236 0 96.341 16.7219 1611 107.778 652.531 448.544
237 0 99.2478 20.8468 2069 101.007 652.259 451.868
238 0 99.2349 13.2212 1312 111.207 651.438 447.489
239 0 102.291 16.2283 1660 109.109 652.949 437.999
240 0 108.329 17.6406 1911 106.187 651.492 435.664
241 0 108.301 12.1421 1315 114.394 653.268 435.25
242 0 113.129 13.4271 1519 111.627 653.639 436.816
243 1 62.1406 13.0832 813 110.915 652.312 456.089
244 0 63.107 12.7561 805 109.466 653.939 454.103
245 0 67.1321 16.1324 1083 104.463 656.067 454.743
246 0 67.135 11.5141 773 112.458 658.937 453.431
247 0 69.2327 13.9963 969 109.742 658.23 449.954
248 0 77.3799 14.5904 1129 106.347 659.198 453.442
249 0 77.3799 14.655 1134 125.552 660.204 453.447
250 0 79.3455 12.7039 1008 112.311 658.67 447.757
251 0 85.4064 16.5093 1410 104.847 660.407 449.87
252 0 86.2234 14.3464 1237 109.099 661.522 449.158
253 0 88.1707 13.7347 1211 110.581 662.249 446.775
254 0 92.2283 13.8569 1278 110.423 662.765 444.291
255 0 94.1984 15.4886 1459 108.401 661.398 442.121
256 0 99.2413 12.9079 1281 111.059 662.934 443.997
257 0 102.373 13.6071 1393 111.192 662.901 441.3
258 1 55.1911 12.0128 663 113.67 663.501 464.452
259 0 56.2384 11.4157 642 113.321 663.768 468.218
260 0 58.0796 12.3796 719 110.771 663 466.691
261 0 59.1806 12.9772 768 110.991 662.361 466.919
262 0 62.0453 12.4748 774 110.382 662.521 469.041
263 0 64.1072 12.7599 818 111.855 661.725 465.28
264 0 62.1772 9.95542 619 117.8 659.99 469.796
265 0 66.0833 12.8777 851 112.172 661.664 465.972
266 0 68.1965 11.9654 816 111.097 660.533 467.953
267 0 71.1274 15.662 1114 106.191 661.087 465.145
268 0 74.2449 13.6036 1010 108.916 659.387 460.597
269 0 76.1584 13.275 1011 109.802 658.986 464.075
270 0 78.0823 10.6426 831 113.716 657.946 463.605
271 0 83.1642 13.0826 1088 109.656 657.227 458.872
272 0 84.3538 10.5864 893 112.168 655.89 460.247
273 0 88.166 13.2251 1166 109.128 656.539 455.106
274 0 90.1523 12.7895 1153 109.199 655.872 456.153
275 1 47.0742 11.8749 559 111.546 655.606 472.522
276 0 47.0385 11.0548 520 112.929 655.246 471.738
277 0 53.0377 12.7457 676 107.522 655.435 472.194
278 0 54.3224 13.7881 749 107.399 654.939 462.75
279 0 56.1304 15.3215 860 103.302 654.602 466.843
280 0 54.1169 12.6023 682 107.903 654.928 464.26
281 0 58.1075 15.7122 913 104.522 653.315 460.573
282 0 61.1046 16.2508 993 103.75 654.685 458.695
283 0 61.0985 15.3523 938 105.884 655.402 455.358
284 0 61.1014 12.291 751 111.004 655.478 458.487
285 0 67.3031 17.3989 1171 101.238 654.824 459.937
286 0 64.2121 13.6423 876 108.918 655.478 454.514
287 0 67.1761 14.9011 1001 104.723 656.569 450.587
288 0 70.2069 15.8816 1115 104.02 657.703 448.487
289 0 72.1468 13.8329 998 105.943 657.891 454.013
290 0 72.339 15.3029 1107 106.865 658.944 444.331
291 0 75.4532 17.2557 1302 103.343 658.892 450.064
292 0 79.2742 14.4183 1143 107.288 660.692 448.728
293 0 79.2608 12.604 999 110.425 661.746 446.737
294 0 82.1531 12.1967 1002 111.48 663.013 445.967
295 0 88.2139 14.1474 1248 109.309 662.748 437.342
296 0 90.3392 15.4639 1397 107.904 663.179 440.83
297 0 90.3392 15.3975 1391 121.58 663.209 440.89
298 0 97.2354 13.9764 1359 109.848 663.231 442.13
299 1 56.156 14.1748 796 107.778 664.926 462.077
300 0 53.1721 11.002 585 114.253 665.388 461.585
301 0 55.1148 12.3016 678 111.33 664.202 466.677
302 0 58.0949 16.0083 930 107.047 662.795 461.91
303 0 60.1925 12.6095 759 111.652 662.551 461.518
304 0 64.1985 19.8914 1277 100.679 662.504 462.168
305 0 64.1985 19.5955 1258 115.463 661.454 462.125
306 0 66.1571 13.1203 868 109.297 661.597 461.662
307 0 68.1564 14.8335 1011 109.009 660.517 459.581
308 0 68.2464 11.2533 768 113.53 660.227 461.115
309 0 70.2383 10.9484 769 114.494 659.798 461.059
310 0 75.1891 15.2017 1143 109.316 659.564 458.157
311 0 75.2825 12.7918 963 113.528 659.018 456.077
312 0 79.1871 15.1161 1197 110.216 658.394 454.663
313 0 81.1471 13.531 1098 112.745 657.882 452.513
314 0 87.4628 13.3314 1166 113.094 658.07 453.433
315 0 90.3659 13.6888 1237 112.223 656.551 451.278
316 0 92.4759 15.9825 1478 110.235 657.01 444.857
317 1 48.1114 7.27478 350 119 653.697 470.917
318 0 56.115 14.702 825 107.147 653.564 468.142
319 0 53.1321 11.255 598 111.294 653.456 467.716
320 0 56.1327 14.6082 820 107.794 652.979 464.16
321 0 56.1327 14.6439 822 118.154 652.983 464.141
322 0 60.1015 11.7468 706 113.082 652.796 461.959
323 0 59.1112 14.3797 850 107.995 653.049 461.374
324 0 58.3191 12.2601 715 110.424 652.383 460.978
325 0 64.0584 11.4115 731 112.84 653.144 457.428
326 0 68.0723 16.4972 1123 106.314 654.85 450.827
327 0 69.157 14.4743 1001 110.343 655.431 450.311
328 0 72.42 15.272 1106 106.653 655.819 454.486
329 0 72.1511 13.1252 947 113.605 655.56 447.205
330 0 74.1446 14.202 1053 110.947 655.709 449.488
331 0 77.3839 13.013 1007 114.028 657.85 442.749
332 0 81.3554 11.5174 937 115.176 658.521 445.523
333 0 85.438 15.087 1289 109.666 658.903 442.853
334 0 86.2129 11.9588 1031 114.285 659.015 440.713
335 0 89.1721 11.9432 1065 114.678 659.207 440.235
336 1 49.1525 11.9831 589 114.754 659.633 457.464
337 0 51.0275 12.4443 635 114.635 663.387 454.783
338 0 52.104 12.6094 657 115.024 662.449 458.151
339 0 57.0498 14.6013 833 110.792 665.29 454.032
340 0 55.0802 12.9084 711 116.323 666.1 454.902
341 0 57.0831 13.9621 797 113.824 666.108 457.036
342 0 59.111 13.4493 795 114.883 665.499 455.385
343 0 61.0594 14.3794 878 112.923 665.893 454.254
344 0 62.0371 11.9445 741 116.026 666.617 460.375
345 0 65.1288 12.6365 823 116.089 667.49 454.033
346 0 64.1016 11.6222 745 119.247 665.562 455.017
347 0 69.1306 13.3081 920 115.141 666.696 455.807
348 0 71.1175 13.7097 975 114.757 666.758 454.515
349 0 72.1654 13.6215 983 114.044 666.401 457.598
350 0 75.07 15.3856 1155 112.507 664.759 456.067
351 0 79.1941 16.2638 1288 110.579 664.132 456.096
352 0 80.2633 11.7613 944 117.058 664.814 456.102
353 0 82.2339 12.6104 1037 116.117 662.924 450.668
354 0 85.2858 12.5929 1074 114.929 662.268 451.119
355 0 87.2762 9.26943 809 119.447 660.274 452.996
356 0 93.4032 13.1901 1232 114.68 659.391 446.311
357 1 49.3018 9.97935 492 113.429 658.197 469.03
358 0 49.1272 11.5008 565 110.556 659.159 469.664
359 0 51.0743 11.4343 584 105.658 656.608 466.228
360 0 55.0681 10.5143 579 106.622 657.231 467.775
361 0 53.0446 10.0293 532 110.335 660.968 465.415
362 0 51.0448 10.5789 540 110.011 660.761 467.441
363 0 57.2938 13.8933 796 104.783 658.009 462.136
364 0 60.1718 15.1067 909 103.11 656.644 461.875
365 0 56.2075 7.81034 439 115.287 656.415 459.273
366 0 61.0444 12.1223 740 108.873 656.193 458.185
367 0 64.1185 10.2155 655 111.482 655.766 458.988
368 0 67.1396 12.9581 870 109.045 656.878 455.661
369 0 68.5428 13.3639 916 109.234 657.069 451.102
370 0 69.0771 12.8552 888 111.126 657.045 449.018
371 0 73.1344 12.0873 884 110.722 657.788 450.353
372 1 155.715 14.2375 2217 115.967 659.941 406.103
373 1 79.4394 14.8918 1183 106.58 660.491 444.172
374 0 82.1524 14.181 1165 108.649 658.719 441.699
375 0 83.2305 12.0268 1001 112.671 658.179 441.343
376 0 86.6041 15.9346 1380 109.51 660.575 436.498
377 0 93.2075 19.7194 1838 102.379 659.603 438.541
378 0 93.2075 19.7838 1844 122.906 658.612 438.276
379 1 50.0747 10.1049 506 115.735 662.518 459.045
380 0 50.1465 11.8253 593 114.393 664.319 456.995
381 0 50.2708 10.5429 530 107.985 663.908 452.981
382 0 54.2793 13.6885 743 104.622 666.11 449.857
383 0 56.2566 14.0072 788 110.85 665.261 455.949
384 0 59.3111 12.2743 728 112.817 665.578 457.459
385 0 58.5032 12.7344 745 112.919 663.98 454.087
386 0 55.2699 10.7473 594 117.663 665.64 455.106
387 0 63.5534 14.775 939 108.165 665.274 459.688
388 0 62.3918 12.0208 750 113.596 665.619 459.655
389 0 62.3918 12.0849 754 136.607 665.614 459.768
390 0 68.4198 15.5949 1067 109.093 665.601 453.218
391 0 69.2811 11.7492 814 114.752 665.301 457.945
392 0 71.3547 13.496 963 112.641 665.863 455.371
393 0 74.3565 11.9828 891 113.8 664.135 457.608
394 0 77.2746 13.8467 1070 111.145 662.817 457.118
395 0 79.4646 13.2889 1056 112.283 662.698 452.989
396 0 82.3258 14.4183 1187 110.269 663.743 452.45
397 0 83.8336 13.1451 1102 111.984 663.034 454.913
398 0 87.3055 12.8514 1122 109.367 661.753 457.356
399 0 92.3522 14.7695 1364 108.99 660.993 450.615
400 0 91.2271 8.07874 737 110.97 660.725 452.581
401 0 97.2553 10.0457 977 108.545 662.29 439.778
402 0 98.483 16.8455 1659 101.2 661.738 456.311
403 1 55.0839 14.6504 807 104.196 661.224 466.835
404 0 54.0318 11.4377 618 108.875 661.382 467.628
405 0 57.169 17.0547 975 101.468 660.566 466.178
406 0 59.0921 14.1305 835 105.598 659.517 463.608
407 0 60.0597 14.3524 862 105.754 659.224 464.562
408 0 58.0616 13.5373 786 138.859 659.193 463.26
409 0 65.3158 15.1112 987 105.373 656.65 458.67
410 0 65.1388 12.8955 840 109.349 658.673 456.232
411 0 70.3656 12.7903 900 108.551 656.919 457.193
412 0 72.3711 16.139 1168 104.681 656.691 454.576
413 0 72.1604 13.6224 983 109.308 657.564 450.765
414 0 74.2871 9.93444 738 113.618 657.974 452.615
415 0 78.1968 13.53 1058 110.044 658.396 446.696
416 0 82.2942 14.5818 1200 109.468 658.197 444.457
417 1 41.1829 11.2183 462 111.455 659.346 462.615
418 0 44.1549 13.2262 584 108.339 659.69 461.342
419 0 46.1356 14.5007 669 107.408 661.031 460.272
420 0 46.1079 13.6202 628 106.162 662.083 455.884
421 0 47.1573 12.3417 582 107.107 662.156 459.304
422 0 50.2671 14.1444 711 104.592 663.872 457.893
423 0 48.3821 11.5745 560 109.968 664.239 457.877
424 0 51.2137 16.3823 839 102.176 664.476 459.031
425 0 54.1783 14.4892 785 105.473 665.483 455.885
426 0 56.376 20.8954 1178 97.9075 666.056 457.324
427 0 60.3211 16.4619 993 101.934 666.623 460.298
428 0 56.0962 11.4803 644 112.241 665.8 458.099
429 0 58.2727 12.3042 717 111.831 667.272 457.789
430 0 63.1432 16.2805 1028 105.87 667.271 457.387
431 0 63.2154 13.5727 858 110.671 668.226 460.357
432 0 64.0878 12.1708 780 112.514 667.797 460.104
433 0 69.1359 16.2578 1124 107.068 667.035 458.806
434 0 73.628 13.6361 1004 109.896 667.304 462.612
435 0 72.2673 12.7167 919 113.693 666.186 460.145
436 0 75.4463 13.5328 1021 113.429 665.964 458.855
437 0 76.172 15.4125 1174 111.805 665.151 459.816
438 0 83.3613 14.3472 1196 112.283 665.74 459.671
439 0 84.1276 14.6088 1229 113.053 664.943 456.015
440 0 85.1647 12.7753 1088 116.382 664.348 458.309
441 0 88.1897 13.2669 1170 118.084 663.973 453.066
442 0 90.3146 11.7589 1062 119.63 662.515 453.861
443 0 94.275 15.6988 1480 113.339 662.999 451.484
444 0 94.1055 10.7539 1012 123.387 662.736 451.387
445 0 103.459 15.3297 1586 114.627 661.642 447.793
446 1 55.1899 13.8069 762 117.731 660.417 469.678
447 0 57.294 17 974 112.582 659.662 467.335
448 0 59.1051 14.4319 853 110.66 659.562 461.891
449 0 61.1094 13.1895 806 113.325 659.016 460.056
450 0 62.2578 10.5047 654 118.824 658.352 456.255
451 0 65.1497 13.6302 888 114.454 657.521 453.224
452 0 67.2622 13.4845 907 113.024 657.204 455.487
453 0 73.6293 14.6681 1080 110.168 657.691 453.756
454 0 73.2287 11.0339 808 117.603 658.55 450.676
455 0 76.2246 12.004 915 116.866 657.522 449.915
456 0 78.1662 14.6227 1143 114.044 657.074 446.111
457 0 78.2863 11.8922 931 119.125 658.232 444.286
458 0 82.1981 12.0076 987 120.064 657.089 443.62
459 0 86.1408 14.1048 1215 116.067 658.058 439.954
460 0 89.1766 13.3667 1192 117.108 658.766 440.317
461 0 90.2699 16.3953 1480 113.301 659.795 439.622
462 0 95.1352 16.5028 1570 112.922 660.513 437.845
463 0 100.091 17.2542 1727 112.692 660.043 433.386
464 0 104.215 14.0766 1467 117.531 660.614 433.86
465 0 106.534 12.3623 1317 121.761 660.451 434.934
466 0 110.271 16.8675 1860 115.589 659.193 430.728
467 0 111.394 11.778 1312 120.626 659.734 437.966
468 1 56.1705 14.367 807 130.045 659.835 460.284
469 0 58.203 12.989 756 116.307 659.343 463.931
470 0 58.0741 10.0906 586 121.114 660.594 464.336
471 0 60.1528 11.3378 682 119.718 661.403 463.893
472 0 64.0989 12.6835 813 116.101 660.758 464.705
473 0 66.3246 11.0065 730 119.615 660.959 460.678
474 0 70.207 13.8305 971 114.567 661.128 463.783
475 0 73.5925 16.1701 1190 111.154 662.291 462.18
476 0 73.4222 11.6314 854 118.246 661.507 463.27
477 0 78.4308 14.3566 1126 113.554 660.98 462.336
478 0 78.2875 15.4814 1212 113.215 661.01 459.01
479 0 82.4967 13.9278 1149 116.12 659.633 457.701
480 0 84.691 14.488 1227 114.073 659.861 462.366
481 0 87.4925 14.1155 1235 112.97 659.622 463.463
482 0 85.2626 11.6698 995 119.067 658.688 457.456
483 0 91.9248 13.9027 1278 112.496 658.412 460.484
484 0 96.8497 10.8002 1046 117.126 656.678 459.184
485 1 51.614 13.6978 707 111.364 657.146 475.13
486 0 52.4238 11.5024 603 108.252 656.814 475.683
487 0 52.2673 11.9386 624 108.785 657.567 475.526
488 0 57.1741 11.3688 650 107.402 657.212 478.755
489 0 58.1466 14.945 869 103.738 655.589 473.14
490 0 58.1466 14.8934 866 119.827 654.566 473.18
491 0 58.1387 10.6469 619 111.754 655.43 471.606
492 0 68.314 11.7545 803 110.017 654.609 465.172
493 0 65.1675 13.0433 850 108.612 654.047 467.674
494 0 68.7357 17.5018 1203 101.918 653.431 467.196
495 0 69.1838 17.0994 1183 103.161 652.824 460.62
496 0 70.3333 13.1659 926 109.365 653.46 458.242
497 0 75.198 12.354 929 111.806 653.44 459.237
498 0 70.257 10.4189 732 116.198 652.016 458.71
499 0 77.4774 15.9143 1233 110.354 651.416 453.855
500 0 76.2225 12.4504 949 116.312 652.683 448.814
501 0 83.2641 18.4473 1536 106.759 652.571 448.654
502 0 83.4921 14.2409 1189 115.134 653.646 449.042
503 0 85.1439 8.42103 717 123.481 653.947 447.893
504 0 87.2797 16.9226 1477 112.67 655.193 444.154
505 1 50.1029 13.8715 695 112.537 654.453 463.856
506 0 49.1217 13.151 646 109.497 652.989 462.923
507 0 52.1828 13.9701 729 106.078 654.328 465.587
508 0 53.244 12.6211 672 109.473 654.958 460.945
509 0 54.1215 15.3728 832 105.851 655.556 462.746
510 0 56.0596 15.2695 856 105.239 657.298 464.654
511 0 57.2518 12.1917 698 110.685 657.324 458.93
512 0 58.1755 13.4249 781 108.535 658.023 462.599
513 0 60.1576 13.182 793 109.416 659.419 459.526
514 0 64.1835 16.2814 1045 104.32 659.346 461.772
515 0 65.3225 15.0331 982 106.986 660.337 458.989
516 0 68.1891 15.0464 1026 106.574 661.293 461.089
517 0 71.382 14.7516 1053 107.515 660.934 462.265
518 0 71.1825 13.3038 947 111.45 661.901 460.529
519 0 72.3622 13.7503 995 110.64 660.977 461.287
520 0 75.3504 12.0769 910 113.391 659.948 459.137
521 0 77.319 14.6924 1136 109.617 659.941 458.377
522 0 79.2837 11.2129 889 114.675 659.268 457.964
523 0 83.4547 15.4814 1292 108.029 658.673 461.6
524 0 83.3826 13.9597 1164 110.033 657.7 462.739
525 0 87.5308 14.7491 1291 109.409 657.901 460.026
526 0 88.2948 13.2284 1168 112.559 657.614 458.16
527 0 92.574 14.4749 1340 111.697 656.49 457.701
528 0 93.2544 11.6134 1083 115.717 657.517 459.781
529 0 95.568 12.6298 1207 115.917 657.766 449.192
530 0 100.587 11.2639 1133 116.846 656.234 451.801
531 0 105.916 14.1244 1496 111.71 655.381 450.025
532 0 106.705 12.9329 1380 112.291 655.213 452.364
533 0 109.471 15.0724 1650 111.905 654.122 443.774
534 1 57.3506 12.2405 702 110.286 654.567 468.509
535 0 60.0999 12.0133 722 109.395 654.42 467.302
536 0 61.2189 11.124 681 109.947 654.27 466.849
537 0 64.1904 12.868 826 107.046 653.602 462.789
538 0 68.1144 15.0335 1024 102.905 653.259 462.425
539 0 70.2009 12.8916 905 104.508 654.021 461.127
540 0 70.2217 12.2469 860 106.3 652.787 458.164
541 0 73.2939 17.0683 1251 99.7874 652.171 457.503
542 0 77.2348 15.1357 1169 102.666 652.252 455.447
543 0 78.3827 17.8483 1399 99.8292 652.58 456.61
544 0 85.2303 13.1291 1119 104.163 653.559 453.191
545 0 82.1734 10.9281 898 111.173 654.989 450.215
546 0 86.2279 13.847 1194 106.291 654.621 447.924
547 0 88.2155 11.2452 992 109.21 654.564 444.884
548 0 90.3286 12.0228 1086 107.851 655.222 446.869
549 0 96.3113 12.2727 1182 107.428 655.315 441.73
550 0 98.375 12.8386 1263 106.534 655.443 436.922
551 0 101.37 15.981 1620 102.842 656.455 437.868
552 0 105.691 12.9624 1370 109.346 655.647 433.233
553 0 107.306 14.1651 1520 108.364 655.805 434.488
554 0 114.542 15.5489 1781 105.784 656.265 439.531
555 0 113.169 13.7317 1554 108.637 656.282 433.291
556 0 120.362 16.7827 2020 105.254 657.863 434.854
557 0 122.149 16.3079 1992 106.43 658.112 432.557
558 1 64.2181 10.0128 643 108.274 658.764 459.429
559 0 70.2095 11.4657 805 105.653 658.185 460.245
560 0 68.227 12.8102 874 105.733 657.775 458.203
561 0 75.487 15.2742 1153 101.196 658.814 461.027
562 0 75.2139 11.3809 856 107.506 657.554 461.165
563 0 77.2277 13.3501 1031 103.853 658.129 465.138
564 0 79.2684 13.9274 1104 104.117 657.665 459.388
565 0 83.2146 17.533 1459 99.8382 657.574 457.926
566 0 87.1419 14.0575 1225 103.083 657.743 458.311
567 0 89.1581 14.4575 1289 103.046 657.489 458.13
568 0 89.3079 11.2868 1008 107.522 657.865 456.226
569 0 96.3138 14.8369 1429 102.229 656.725 455.483
570 0 96.3675 16.9144 1630 99.173 657.255 458.857
571 0 101.675 11.6745 1187 105.618 656.6 459.66
572 1 56.1882 12.9209 726 100.846 653.306 480.156
573 0 56.0516 13.7373 770 101.353 652.791 475.006
574 0 57.1023 15.0432 859 100.828 652.66 472.292
575 0 58.07 10.539 612 105.982 651.884 470.882
576 0 60.1237 12.624 759 102.443 650.794 473.563
577 0 61.1861 14.2026 869 101.635 651.13 468.249
578 0 65.0427 15.436 1004 99.3865 650.921 467.624
579 0 66.1584 12.6363 836 103.041 650.489 464.867
580 0 69.1777 12.7209 880 102.61 651.355 461.411
581 0 72.0702 10.4481 753 104.163 649.96 464.827
582 0 77.1926 17.7219 1368 95.4181 650.151 463.857
583 0 77.1926 17.5017 1351 105.424 650.139 463.756
584 0 78.2061 10.9071 853 102.481 651.416 466.016
585 0 84.1969 14.2998 1204 100.966 651.787 456.503
586 0 90.2029 14.8 1335 98.8172 652.214 455.288
587 1 47.1161 8.40478 396 108.556 652.598 468.763
588 0 49.1245 11.5625 568 103.817 654.588 467.22
589 0 52.2782 12.1465 635 103.638 654.118 466.636
590 0 53.13 12.0836 642 102.064 653.081 469.366
591 0 55.1887 11.7778 650 101.374 652.409 464.655
592 0 59.0891 13.4712 796 99.7362 654.526 461.894
593 0 57.0614 12.5829 718 138.765 657.518 460.641
594 0 59.1076 12.4519 736 98.6277 655.98 468.424
595 0 61.1451 13.1491 804 97.75 655.792 464.172
596 1 154.851 9.80946 1519 106.196 657.438 432.4
597 1 121.504 11.3741 1382 106.434 658.568 435.354
598 1 68.1738 14.287 974 99.3973 657.898 461.808
599 0 68.1851 11.8208 806 103.122 657.836 457.5
600 0 73.1272 18.5704 1358 94.4558 658.81 460.168
601 0 74.159 11.5158 854 103.239 659.088 457.91
602 0 75.1019 13.9943 1051 100.952 659.172 457.843
603 0 74.1697 11.7703 873 104.49 659.117 460.095
604 0 80.2193 13.7249 1101 103.987 659.36 455.195
605 0 81.1395 8.35598 678 108.861 659.208 462.466
606 0 87.3366 15.7666 1377 101.582 659.484 451.137
607 0 88.2066 13.3437 1177 105.178 658.156 454.237
608 0 94.3043 15.6833 1479 101.928 658.922 450.465
609 0 96.1484 17.5354 1686 99.8885 658.629 453.008
610 0 99.3168 18.8186 1869 98.8015 657.965 454.206
611 0 99.2374 12.989 1289 107.043 656.829 450.418
612 0 105.312 14.4238 1519 104.673 658.464 449.536
613 1 54.2175 11.6199 630 103.814 658.454 477.671
614 0 55.2485 11.403 630 104.013 656.765 476.446
615 0 57.0922 9.70361 554 105.863 655.547 475.852
616 0 59.1342 10.5184 622 105.566 654.387 474.354
617 0 61.1052 14.2868 873 101.026 653.338 474.141
618 0 61.1052 14.3687 878 130.227 651.329 474.113
619 0 65.0487 11.9449 777 104.659 652.048 469.88
620 0 66.1657 13.8894 919 103.343 652.029 469.321
621 0 69.3281 14.3665 996 103.729 652.681 462.977
622 0 73.5286 14.8242 1090 102.364 651.261 463.509
623 0 74.0888 10.15 752 108.965 650.957 464.008
624 0 76.0992 16.3077 1241 102.537 651.135 459.273
625 0 82.5551 12.0647 996 105.756 650.425 461.743
626 0 83.4328 15.1259 1262 101.569 652.208 460.296
627 0 84.266 17.338 1461 100.034 651.221 453.892
628 0 86.4348 13.5594 1172 105.698 652.11 450.487
629 0 90.4008 14.8671 1344 104.8 652.214 447.342
630 0 94.6229 17.0572 1614 100.522 652.148 447.146
631 0 94.6229 16.867 1596 135.726 651.143 447.042
632 0 99.4575 14.6997 1462 104.203 653.601 444.028
633 1 54.1841 16.3147 884 99.8631 652.071 466.227
634 0 55.4635 13.27 736 105.61 653.519 459.424
635 0 56.2072 13.6282 766 103.431 653.487 459.68
636 0 58.0792 11.0711 643 104.185 653.844 462.271
637 0 59.2721 21.2916 1262 93.2861 655.128 457.89
638 0 64.4036 15.0302 968 97.8533 656.301 461.536
639 0 64.3169 13.8377 890 101.13 656.235 460.173
640 0 67.137 13.5395 909 101.71 657.02 458.427
641 0 69.1853 10.7393 743 105.497 657.067 457.762
642 0 72.1288 12.4777 900 103.343 660.763 457.532
643 0 76.2474 13.9021 1060 99.5651 658.742 456.432
644 0 76.4036 13.6119 1040 101.144 658.779 455.455
645 0 81.2266 18.5161 1504 95.7872 659.176 452.426
646 0 82.4302 16.9962 1401 97.3526 658.436 454.724
647 0 83.2196 10.7787 897 105.076 658.993 453.998
648 0 85.2353 13.0345 1111 102.513 659.518 455.246
649 0 90.2095 17.4372 1573 98.3961 658.845 448.423
650 0 93.1134 15.4865 1442 101.264 658.471 453.485
651 0 100.064 15.6301 1564 98.14 658.193 459.887
652 0 99.3259 14.0849 1399 102.33 659.589 451.513
653 0 101.362 12.6083 1278 104.209 659.246 452.568
654 0 104.23 12.8369 1338 104.317 658.546 449.49
655 1 57.06 14.0379 801 100.75 655.533 474.712
656 0 59.431 14.0835 837 101.056 659.067 471.546
657 0 59.341 11.3749 675 105.302 658.724 472.16
658 0 63.2094 11.28 713 102.774 658.335 473.718
659 0 63.2226 12.9542 819 101.116 658.629 473.738
660 0 64.3212 10.3387 665 102.122 656.469 474.227
661 0 66.1354 14.6518 969 99.031 655.694 466.772
662 0 69.1769 21.7414 1504 92.3531 656.015 467.218
663 0 70.0849 12.6418 886 102.542 656.004 462.832
664 0 74.2678 17.3561 1289 96.3786 655.297 469.728
665 0 74.3964 10.6726 794 105.738 655.879 466.32
666 0 78.4527 12.3769 971 104.876 654.258 461.776
667 0 81.4327 13.9625 1137 102.878 654.322 457.481
668 0 82.3094 13.2184 1088 103.577 652.932 452.94
669 0 87.2195 12.5087 1091 104.364 653.884 456.012
670 1 48.1881 11.5589 557 108.165 655.388 469.858
671 0 47.0639 11.8137 556 109.146 655.318 470.38
672 0 50.2611 13.8278 695 102.984 655.455 468.596
673 0 51.1711 14.4222 738 101.068 655.699 466.61
674 0 52.2133 12.1808 636 104.895 655.904 464.785
675 0 55.2446 16.0559 887 99.9369 656.246 463.616
676 0 54.1547 11.541 625 107.134 656.682 463.224
677 0 56.043 13.3647 749 104.625 657.17 461.519
678 0 56.1381 13.1105 736 105.894 657.503 461.923
679 0 60.1379 13.785 829 104.499 658.732 462.163
680 0 64.2695 18.7958 1208 99.1349 659.699 461.842
681 0 65.5304 18.5868 1218 99.2923 660.063 461.91
682 0 65.2808 13.9551 911 106.517 660.019 462.045
683 0 65.2504 11.7087 764 111.688 659.654 458.929
684 0 66.3461 12.5102 830 111.183 660.983 460.7
685 0 73.1451 17.5131 1281 101.351 661.682 464.413
686 0 72.3338 14.8893 1077 108.437 663.148 458.714
687 0 75.2062 11.741 883 112.248 661.769 464.255
688 0 78.1504 20.8188 1627 99.1168 661.471 465.323
689 0 80.2403 17.9461 1440 105.158 661.69 452.869
690 0 86.179 17.3824 1498 104.07 662.289 460.775
691 0 85.4502 12.1006 1034 114.308 661.037 456.437
692 0 88.4322 12.9365 1144 113.083 661.628 455.368
693 0 91.1932 13.5975 1240 112.979 661.373 454.151
694 0 91.1932 13.6194 1242 141.731 662.356 454.138
695 0 100.285 15.1569 1520 110.885 660.903 453.566
696 0 103.228 15.1896 1568 110.168 660.275 452.378
697 1 59.3833 12.3604 734 113.274 659.093 477.436
698 0 58.4227 14.977 875 112.81 659.326 470.554
699 0 62.3298 17.0224 1061 108.939 657.429 467.663
700 0 65.4536 14.728 964 111.065 658.123 474.859
701 0 66.2801 11.5721 767 115.821 657.584 474.398
702 0 68.5309 14.2126 974 113.192 655.908 467.513
703 0 70.3402 12.6102 887 114.359 656.591 469.463
704 0 76.5626 15.5559 1191 108.901 655.614 467.893
705 0 76.3986 14.228 1087 111.892 653.868 460.743
706 0 78.2766 12.0087 940 115.65 653.921 463.836
707 0 81.3701 12.818 1043 114.648 653.097 458.361
708 0 85.396 15.4574 1320 110.672 652.319 456.985
709 0 88.4058 13.2344 1170 112.567 652.462 455.661
710 0 90.6626 12.6954 1151 114.661 652.755 449.683
711 0 95.5982 14.3622 1373 108.433 652.543 444.669
712 0 99.3304 12.8964 1281 107.155 651.367 447.13
713 1 52.1352 13.7144 715 101.627 649.759 469.165
714 0 51.1104 14.6741 750 101.493 651.981 464.668
715 0 53.2976 12.8524 685 104.175 649.853 465.933
716 0 54.2729 13.1189 712 103.642 651.898 469.407
717 0 57.2319 13.6812 783 103.751 652.331 465.303
718 0 60.4628 16.6549 1007 99.6415 653.228 462.913
719 0 59.2216 12.0564 714 104.944 652.031 465.835
720 0 62.2969 10.4339 650 106.974 653.626 465.918
721 0 65.3204 18.0189 1177 99.0705 653.344 461.02
722 0 67.2892 16.3622 1101 98.8683 654.635 466.08
723 0 69.3207 13.488 935 105.226 654.726 456.487
724 0 73.1594 14.2839 1045 103.083 654.912 458.433
725 0 75.2452 13.755 1035 103.823 655.966 458.913
726 0 75.2814 13.8148 1040 103.793 656.513 459.545
727 0 79.4296 14.0754 1118 104.037 657.904 454.61
728 0 79.3254 15.4427 1225 103.282 658.203 451.858
729 0 84.2776 14.2031 1197 103.769 658.59 458.736
730 0 88.2246 14.7918 1305 103.149 658.946 453.267
731 0 92.2275 15.5268 1432 101.253 659.544 452.513
732 0 92.4915 19.7964 1831 97.9268 659.369 447.152
733 0 96.2178 15.3402 1476 102.602 660.072 452.276
734 0 98.2828 14.6414 1439 104.399 659.435 451.233
735 0 103.421 14.5521 1505 103.732 658.848 450.21
736 0 107.227 15.0988 1619 104.123 659.288 446.895
737 0 108.537 12.5764 1365 106.956 659.331 444.986
738 0 114.298 19.4054 2218 97.89 659.126 447.867
739 1 63.3448 12.4241 787 103.879 657.149 467.596
740 0 67.4019 15.8304 1067 99.8191 657.781 465.753
741 0 66.2393 13.3757 886 103.098 658.939 468.207
742 0 68.2254 12.1069 826 104.37 658.952 468.624
743 0 69.6691 9.97573 695 108.649 657.563 464.524
744 0 75.2375 13.4375 1011 102.605 656.833 470.049
745 0 77.3308 18.5178 1432 98.1208 656.685 465.383
746 0 83.3571 15.3076 1276 102.11 656.25 462.149
747 0 80.3428 13.9154 1118 106.411 654.975 460.599
748 0 84.2948 19.586 1651 99.6814 655.178 459.274
749 0 87.3714 14.6043 1276 104.861 654.34 464.046
750 0 88.2586 14.8314 1309 108.73 654.215 454.571
751 0 92.2478 19.9138 1837 101.858 653.563 455.788
752 0 93.26 15.3013 1427 107.636 653.816 454.113
753 0 94.3834 13.7948 1302 112.426 653.137 449.29
754 0 97.4915 13.7448 1340 111.275 654.832 438.308
755 0 102.608 13.9268 1429 111.351 653.221 440.227
756 1 56.4618 16.0817 908 102.793 651.966 469.908
757 0 58.6355 14.9056 874 109.532 652.544 462.548
758 0 58.4186 13.3177 778 109.474 653.555 460.718
759 0 60.4585 12.0413 728 113.587 654.477 456.662
760 0 61.4676 13.0801 804 111.364 653.594 459.655
761 0 65.1413 12.0047 782 111.506 656.647 458.749
762 0 66.1003 12.8592 850 111.966 656.578 454.2
763 0 65.1801 12.734 830 113.767 657.849 453.68
764 0 70.1964 14.4452 1014 107.623 658.394 457.848
765 0 72.2358 12.6668 915 111.704 660.14 455.233
766 0 72.8753 11.4991 838 110.924 658.654 449.104
767 0 77.5439 14.2758 1107 107.145 659.04 448.367
768 0 79.6403 15.3817 1225 105.98 659.548 449.039
769 0 81.3626 13.8762 1129 107.69 660.624 448.285
770 0 83.3978 12.974 1082 108.695 661.213 450.724
771 0 83.3456 12.8381 1070 110.538 661.38 447.29
772 0 87.7422 12.0694 1059 111.738 660.603 448.358
773 0 87.9735 10.901 959 114.959 661.586 448.136
774 0 94.4352 14.4014 1360 110.865 661.881 445.568
775 0 95.6136 12.2158 1168 115.271 662.643 448.382
776 0 99.7442 12.9231 1289 115.765 662.525 446.67
777 0 101.558 14.2185 1444 114.393 661.909 443.125
778 0 107.634 16.1473 1738 109.472 661.933 449.343
779 1 62.6776 10.9449 686 108.082 662.519 475.701
780 0 63.3709 13.2237 838 107.457 662.085 472.634
781 0 64.4552 11.9308 769 109.913 661.627 472.053
782 0 65.2578 12.964 846 109.473 661.07 466.298
783 0 69.2008 11.1848 774 105.248 660.832 470.578
784 0 71.3266 10.7814 769 108.181 659.666 462.512
785 0 73.2874 13.0991 960 104.648 658.03 461.925
786 0 82.4425 15.5502 1282 100.025 657.285 463.854
787 0 79.1438 13.2544 1049 105.351 658.131 458.907
788 0 82.237 10.3968 855 108.257 657.704 460.644
789 0 85.4429 13.1082 1120 105.362 656.524 454.096
790 0 85.4429 13.1433 1123 121.51 655.519 454.004
791 0 94.468 13.9095 1314 104.291 655.954 451.38
792 0 92.4865 10.2826 951 111.545 654.856 441.742
793 0 99.5257 14.2576 1419 105.691 655.918 445.007
794 0 103.162 12.6791 1308 112.375 656.55 446.024
795 1 60.1685 16.5037 993 101.332 655.35 467
796 0 61.2258 10.3714 635 110.323 655.657 465.466
797 0 64.0507 13.4425 861 104.807 656.664 467.091
798 0 65.2034 14.7232 960 103.556 656.397 461.636
799 0 66.1141 16.532 1093 102.048 656.44 462.719
800 0 69.1173 12.7609 882 106.902 655.438 457.704
801 0 68.3282 10.7862 737 110.161 656.57 457.788
802 0 73.128 14.4131 1054 104.025 655.414 459.536
803 0 76.2949 14.6275 1116 104.1 655.918 455.671
804 0 78.1195 14.2218 1111 104.708 657.189 455.405
805 0 79.2211 13.5949 1077 104.984 658.411 450.035
806 0 82.3543 13.0534 1075 106.528 658.399 447.766
807 0 87.4302 17.6941 1547 100.299 658.314 448.499
808 0 90.2522 14.803 1336 104.879 660.963 442.662
809 0 91.2398 14.9058 1360 105.666 661.18 442.375
810 0 95.3442 14.6522 1397 105.042 661.626 444.327
811 0 97.2736 18.3709 1787 100.072 661.143 446.387
812 0 100.195 12.4257 1245 107.35 661.72 448.416
813 1 55.1392 13.6926 755 105.841 663.219 467.241
814 0 55.1245 12.2813 677 106.288 662.533 467.374
815 0 58.1919 13.2149 769 103.15 663.386 465.04
816 0 58.1514 13.4477 782 105.565 663.013 466.454
817 0 59.1768 11.2713 667 109.432 662.85 467.256
818 0 65.2032 15.5974 1017 102.14 662.138 467.686
819 0 64.2806 11.5743 744 110.278 662.125 462.769
820 0 63.2276 11.6405 736 110.292 663.035 470.8
821 0 64.1686 10.2231 656 113.284 663.657 469.139
822 0 69.2653 14.1341 979 107.223 662.976 468.423
823 0 68.1299 12.9899 885 109.546 662.77 467.303
824 0 70.0969 12.5683 881 110.179 662.415 468.018
825 0 72.1508 10.6998 772 112.983 661.223 468.68
826 0 72.1936 13.6854 988 108.804 662.095 466.643
827 0 73.1736 12.6685 927 111.227 660.852 467.802
828 0 74.1491 13.9988 1038 111.171 660.856 464.296
829 0 78.2661 10.8987 853 114.717 659.586 463.646
830 0 85.2451 13.3263 1136 110.895 659.18 459.722
831 0 89.2982 15.3307 1369 108.047 658.436 456.031
832 0 89.2996 15.1848 1356 108.347 657.919 456.683
833 0 92.3013 15.6011 1440 109.115 657.322 451.036
834 0 94.1967 16.7628 1579 108.896 656.942 449.436
835 0 99.2385 20.1333 1998 102.102 657.014 453.769
836 0 101.268 13.8543 1403 112.803 657.022 443.972
837 0 103.294 16.3224 1686 109.164 657.668 438.396
838 0 107.332 14.5437 1561 109.512 655.774 443.354
839 1 58.2082 12.5927 733 110.745 655.887 464.113
840 0 61.2205 10.6827 654 114.878 656.147 462.144
841 0 65.3245 13.2416 865 110.228 654.02 463.086
842 0 66.4401 17.6399 1172 105.577 654.674 456.759
843 0 72.605 20.4394 1484 100.637 654.211 458.857
844 0 70.401 12.8833 907 112.15 654.508 457.748
845 0 73.3007 19.4814 1428 103.408 655.083 453.222
846 0 76.2358 14.2322 1085 112.151 652.888 448.083
847 0 76.4836 13.7938 1055 112.125 654.908 449.712
848 0 80.4563 13.7466 1106 112.94 657.108 447.252
849 0 81.4225 13.6572 1112 114.438 657.07 443.525
850 0 84.5956 13.3577 1130 114.617 658.767 444.204
851 0 86.2939 16.8262 1452 110.262 658.282 442.531
852 0 91.2341 13.8764 1266 112.118 659.684 449.245
853 0 93.4343 14.5236 1357 114.133 658.186 441.87
854 0 97.4515 16.6955 1627 110.06 660.683 442.034
855 0 101.255 17.6386 1786 109.353 660.48 437.642
856 1 52.1134 9.32582 486 117.346 661.056 462.591
857 0 53.2507 11.474 611 108.178 661.938 454.363
858 0 55.3636 12.4992 692 103.934 661.477 455.356
859 0 57.433 9.69825 557 108.205 661.671 458.846
860 0 62.3483 17.2098 1073 101.651 660.146 465.555
861 0 61.2509 12.8488 787 107.634 661.584 463.643
862 0 64.1448 14.1399 907 106.585 660.882 464.979
863 0 64.1918 11.9641 768 109.047 660.76 465.494
864 0 69.2785 18.2308 1263 100.74 659.709 465.774
865 0 70.1369 11.1354 781 111.429 659.677 462.419
866 0 71.3122 9.25507 660 113.211 660.445 466.374
867 0 71.3122 9.2691 661 131.106 662.478 466.545
868 0 79.3486 12.401 984 111.1 659.675 460.537
869 0 81.1776 15.4599 1255 107.449 659.241 457.227
870 0 83.2804 13.7367 1144 109.26 658.795 463.779
871 0 84.4641 11.3421 958 115.133 658.653 456.489
872 0 87.4069 12.7221 1112 113.963 657.946 455.344
873 0 93.2402 14.8327 1383 111.469 657.46 455.889
874 0 93.2402 14.7469 1375 125.404 655.463 455.816
875 0 98.2986 12.9503 1273 115.958 656.455 451.457
876 1 52.0686 9.96762 519 113.763 655.884 474.102
877 0 57.0881 11.8764 678 108.038 654.969 475.273
878 0 56.315 11.7908 664 112.773 655.569 463.794
879 0 55.4118 11.207 621 116.164 654.575 461.987
880 0 60.1432 14.3491 863 108.745 654.598 464.706
881 0 61.1456 12.92 790 118.847 655.605 463.527
882 0 63.1805 12.583 795 119.467 655.643 464.385
883 0 66.4183 12.2707 815 121.791 655.545 459.806
884 0 67.2804 13.6593 919 119.924 655.6 458.3
885 0 68.238 11.6211 793 122.71 655.414 459.126
886 0 73.2735 15.5308 1138 117.001 655.867 452.924
887 0 75.3434 17.9711 1354 113.225 656.577 450.292
888 0 76.7082 14.2358 1092 119.698 655.785 452.789
889 0 76.7082 14.2488 1093 142.667 655.781 452.793
890 0 79.4196 10.3249 820 127.298 656.293 453.793
891 0 82.6303 15.648 1293 117.464 657.007 452.088
892 0 85.5943 17.6063 1507 114.538 658.047 449.967
893 0 88.5491 15.5959 1381 120.262 658.13 441.563
894 0 87.5829 12.6166 1105 127.5 659.693 441.85
895 0 90.5942 15.0562 1364 123.218 659.198 438.878
896 0 94.762 14.2462 1350 124.138 659.307 440.054
897 0 96.8974 14.2832 1384 124.296 659.771 441.129
898 0 100.784 14.03 1414 122.482 659.885 439.937
899 0 102.688 13.0979 1345 119.135 659.515 438.715
900 0 106.771 14.6201 1561 118.814 660.031 436.649
901 0 112.78 14.4263 1627 119.082 659.891 435.992
902 1 63.4327 11.9497 758 115.562 660.363 459.107
903 0 66.314 12.8027 849 113.742 659.907 461.76
904 0 69.488 12.0309 836 114.566 661.214 460.998
905 0 69.488 12.0452 837 131.73 662.234 460.927
906 0 72.3447 13.2698 960 114.27 659.697 459.398
907 0 73.4045 12.8739 945 114.87 659.763 459.196
908 0 78.2792 15.1892 1189 112.567 659.49 458.266
909 0 79.2135 14.4041 1141 114.565 659.392 455.185
910 0 82.1258 12.5904 1034 118.371 658.761 455.448
911 0 85.3027 13.2118 1127 117.201 658.677 456.871
912 0 88.2758 16.1879 1429 112.607 658.693 454.236
913 0 92.3854 14.9699 1383 113.795 656.753 451.094
914 0 94.2434 19.0358 1794 108.471 657.537 447.791
915 0 99.3928 11.8017 1173 118.199 657.188 456.198
916 0 101.585 13.9981 1422 116.683 655.961 449.372
917 0 104.312 14.5237 1515 116.218 654.943 446.835
918 0 103.228 11.3632 1173 123.636 653.914 448.78
919 0 114.272 8.40099 960 123.893 654.392 452.242
920 1 61.4627 11.9585 735 119.314 653.584 469.223
921 0 60.6038 11.5174 698 126.486 654.978 461.636
922 0 66.5844 14.1024 939 119.208 654.021 463.422
923 0 67.5566 15.1429 1023 121.036 654.588 457.812
924 0 69.375 14.0396 974 123.185 653.65 456.933
925 0 72.4101 14.7355 1067 121.442 653.837 453.834
926 0 73.3399 12.0944 887 125.204 653.528 455.016
927 0 76.4064 12.3157 941 123.434 653.734 455.202
928 0 76.4106 13.2181 1010 126.56 654.423 449.942
929 0 77.322 12.2733 949 129.063 655.237 446.858
930 0 85.3274 16.5715 1414 118.741 653.969 449.557
931 0 85.4593 14.4513 1235 124.871 654.919 443.777
932 1 45.1164 11.3041 510 122.057 652.643 463.527
933 0 47.2406 10.4995 496 127.141 654.365 459.968
934 0 50.5247 11.9941 606 121.432 654.812 461.69
935 0 50.4954 12.2585 619 122.415 655.564 459.88
936 0 54.1199 14.3201 775 117.182 655.636 462.662
937 0 53.1061 12.5786 668 122.991 656.85 461.392
938 0 58.1831 13.3372 776 121.329 657.577 461.398
939 0 57.1372 14.4914 828 120.441 658.099 460.469
940 0 60.0928 15.5094 932 117.35 658.322 459.869
941 0 58.0757 13.5685 788 121.386 658.777 463.23
942 0 59.1032 11.8098 698 125.682 659.338 462.473
943 0 62.0933 10.1299 629 129.202 659.024 461.587
944 0 63.1343 9.45603 597 129.72 660.069 463.938
945 0 68.2262 12.8103 874 122.085 660.064 461.109
946 0 71.27 14.5924 1040 121.271 659.186 461.161
947 0 72.4946 11.8492 859 126.625 660.047 458.871
948 0 77.5451 13.6308 1057 122.244 660.17 457.295
949 0 79.3518 13.2196 1049 124.011 660.786 458.806
950 0 81.5825 14.1697 1156 121.778 661.02 459.674
951 0 82.7061 11.9096 985 127.864 660.429 453.9
952 0 88.7364 12.5878 1117 125.694 660.936 450.371
953 1 50.511 12.5319 633 114.365 660.479 467.112
954 0 49.2563 8.16139 402 124.41 660.662 466.836
955 0 52.3505 11.5758 606 117.734 659.208 467.396
956 0 54.1566 11.5406 625 111.163 659.251 468.795
957 0 55.2224 12.513 691 110.753 658.258 469.084
958 0 55.1975 13.0441 720 110.519 657.71 465.714
959 0 59.2606 12.3691 733 110.587 657.723 468.828
960 0 58.3449 11.6891 682 113.956 656.425 464.038
961 0 62.2021 13.7777 857 110.086 655.18 464.746
962 0 59.065 6.90764 408 121.868 654.703 469.162
963 0 62.1621 13.3039 827 122.231 657.638 470.039
964 0 64.1143 11.1988 718 124.595 655.667 471.454
965 0 67.0838 14.0272 941 123.34 656.243 465.206
966 0 70.2634 13.1932 927 125.411 655.986 463.177
967 0 72.1748 12.8715 929 124.724 655.991 464.755
968 0 73.1927 15.671 1147 121.357 656.239 458.123
969 0 76.3284 15.1582 1157 122.36 656.512 459.353
970 0 77.1082 12.5668 969 129.287 655.035 456.2
971 0 84.142 16.9 1422 118.967 655.702 455.26
972 0 83.2324 12.0987 1007 129.839 655.461 452.978
973 0 86.2193 16.1333 1391 122.871 656.424 451.306
974 0 86.2681 13.2494 1143 127.306 655.997 452.293
975 1 50.0705 10.645 533 130.203 656.236 466.086
976 0 51.227 9.95569 510 131.231 657.202 466.112
977 0 54.1438 13.4272 727 125.373 657.298 463.883
978 0 52.2599 9.49103 496 128.629 657.145 453.097
979 0 55.4479 12.0293 667 118.841 657.962 452.598
980 0 59.3243 15.9462 946 112.929 658.75 452.563
981 0 58.3968 10.6855 624 124.974 659.136 452.538
982 0 61.4515 13.5229 831 121.437 658.43 449.801
983 0 63.3841 12.9843 823 117.655 658.595 455.374
984 0 66.2812 16.1132 1068 114.566 660.144 450.577
985 0 67.1248 10.9498 735 120.717 660.878 454.416
986 0 72.3097 13.7602 995 113.408 661.937 454.04
987 0 73.0791 20.2657 1481 106.647 661.012 458.933
988 0 76.1262 13.9637 1063 117.918 662.258 454.062
989 0 77.2214 14.4261 1114 115.687 663.418 452.049
990 0 82.1442 12.125 996 119.384 664.736 451.321
991 0 85.1742 25.1602 2143 102.976 663.662 447.072
992 0 88.3046 11.8454 1046 118.836 664.306 451.837
993 0 92.5211 14.8182 1371 113.876 663.859 447.072
994 0 94.1689 16.8845 1590 114.932 663.726 449.033
995 0 100.216 16.4246 1646 114.831 662.682 448.194
996 0 99.2073 15.3215 1520 117.526 661.564 443.339
997 0 101.29 13.5156 1369 124.713 661.695 449.01
998 0 105.382 14.8698 1567 126.608 662.136 448.41
999 0 110.375 14.3058 1579 124.853 660.869 443.656
1000 1 60.5497 12.4526 754 117.618 659.464 471.257
1001 0 63.3574 12.0901 766 117.975 657.932 470.757
1002 0 63.4056 14.0997 894 116.314 657.481 466.554
1003 0 67.254 16.1626 1087 112.963 658.258 467.738
1004 0 71.2286 12.2844 875 117.37 656.645 468.905
1005 0 68.1448 11.2995 770 122.594 656.284 465.927
1006 0 71.1813 11.4496 815 119.939 656.59 468.971
1007 0 72.2832 11.0261 797 124.003 656.699 464.819
1008 0 77.28 13.1082 1013 119.529 655.864 460.831
1009 0 79.1833 13.9171 1102 117.754 655.172 460.386
1010 0 80.1576 12.6875 1017 120.1 655.958 461.279
1011 0 83.1318 13.9658 1161 120.071 655.548 451.939
1012 0 86.2113 14.4529 1246 116.775 654.871 453.878
1013 0 89.163 13.0323 1162 120.012 655.412 448.631
1014 0 90.2652 13.8481 1250 121.22 655.46 448.03
1015 0 92.1447 11.2649 1038 123.546 650.312 439.414
1016 0 97.2459 11.7948 1147 121.902 651.333 443.064
1017 1 53.4086 11.4027 609 116.317 652.245 462.596
1018 0 54.045 11.3424 613 115.558 652.563 464.804
1019 0 54.3127 10.1265 550 125.396 657.115 460.196
1020 0 58.1625 15.8521 922 112.451 657.426 463.054
1021 0 59.0658 16.1515 954 113.921 657.604 457.464
1022 0 60.2085 13.0048 783 119.762 657.959 454.937
1023 0 63.3218 13.6762 866 117.682 658.147 453.777
1024 0 64.1863 11.2952 725 122.015 658.639 451.792
1025 0 66.1834 12.1934 807 119.42 659.881 454.612
1026 0 68.1825 14.0065 955 116.364 661.094 453.437
1027 0 72.1187 14.9892 1081 114.76 662.674 449.454
1028 0 72.1212 15.8622 1144 112.894 662.593 445.396
1029 0 75.1472 10.7256 806 120.222 663.428 447.107
1030 0 76.1934 11.3658 866 118.152 664.935 451.305
1031 0 80.3363 9.85856 792 119.852 665.097 449.509
1032 0 83.2598 13.0435 1086 114.9 664.588 443.446
1033 0 82.2094 13.4413 1105 113.384 665.922 448.108
1034 0 90.3857 12.8892 1165 113.622 664.466 446.641
1035 0 87.4076 12.0928 1057 115.846 663.538 439.955
1036 0 95.7499 13.6397 1306 110.63 662.97 444.476
1037 0 101.987 11.9623 1220 111.339 660.106 444.921
1038 1 58.4427 7.92229 463 115.097 662.948 469.022
1039 0 59.1874 10.509 622 109.061 662.035 473.505
1040 0 61.7435 16.3256 1008 100.89 660.227 461.657
1041 0 61.094 7.34934 449 113.459 657.637 467.648
1042 0 66.2747 11.0449 732 108.365 657.374 463.31
1043 0 65.1838 13.8224 901 105.03 656.252 466.666
1044 0 68.1788 10.6191 724 108.425 655.924 467.662
1045 0 73.2882 10.9567 803 108.077 654.507 462.019
1046 0 73.2024 9.05708 663 109.127 654.006 466.587
1047 0 77.3676 10.2498 793 109.11 654.458 463.015
1048 0 75.2289 9.94298 748 111.318 653.852 455.849
1049 0 80.2484 12.0875 970 107.819 652.984 458.533
1050 0 84.3673 12.5878 1062 107.028 652.994 459.234
1051 0 87.374 16.8586 1473 101.1 651.743 457.589
1052 0 87.4397 9.72098 850 110.519 652.121 456.281
1053 0 90.4133 13.3719 1209 106.255 651.99 453.476
1054 0 93.3786 11.2338 1049 109.233 652.34 449.37
1055 0 95.4348 14.8164 1414 104.96 652.624 446.926
1056 0 103.325 16.1529 1669 100.51 651.527 453.534
1057 0 105.362 16.0873 1695 103.74 652.367 443.099
1058 0 110.676 15.342 1698 103.794 654.611 449.079
1059 1 56.4935 10.7977 610 108.538 653.366 461.99
1060 0 57.6835 15.429 890 103.702 653.664 462.739
1061 0 59.6014 13.1373 783 107.982 654.516 457.573
1062 0 62.1924 13.008 809 105.468 652.716 460.326
1063 0 62.1924 13.0563 812 131.176 651.72 460.236
1064 0 65.1844 14.3746 937 104.492 653.864 455.673
1065 0 67.2266 13.2388 890 105.922 655.224 453.266
1066 0 70.2902 11.2249 789 108.246 655.441 454.638
1067 0 76.2649 12.7844 975 106.642 656.593 452.66
1068 0 76.1818 13.3628 1018 104.088 656.878 456.625
1069 0 75.2229 12.5494 944 107.817 657.756 452.712
1070 0 78.2247 17.3091 1354 101.721 659.06 451.876
1071 0 82.5695 16.6163 1372 102.681 659.386 446.49
1072 0 83.3118 13.9356 1161 106.615 659.239 449.692
1073 0 88.1354 11.8227 1042 108.563 659.292 453.052
1074 0 88.1282 13.208 1164 106.884 660.572 453.696
1075 0 93.2785 15.2232 1420 104.651 660.484 454.567
1076 0 91.3033 10.8977 995 112.578 660.406 447.296
1077 0 98.2282 12.471 1225 109.671 660.21 445.157
1078 1 54.1842 12.9558 702 109.662 659.963 470.165
1079 0 58.2857 17.0196 992 104.019 659.957 471.001
1080 0 57.1447 11.8646 678 111.586 659.708 472.945
1081 0 62.1571 13.9968 870 106.056 658.642 473.985
1082 0 61.1954 12.6317 773 109.662 659.614 470.386
1083 0 61.1252 10.4049 636 112.745 658.118 471.008
1084 0 65.1537 12.5089 815 109.293 658.031 468.945
1085 0 69.1957 13.5413 937 108.137 657.23 470.629
1086 0 72.1358 17.2314 1243 103.893 656.734 466.753
1087 0 73.2302 16.6598 1220 105.8 656.075 465.739
1088 1 141.43 12.4019 1754 111.942 656.227 434.814
1089 1 79.2764 13.4718 1068 110.29 654.532 459.283
1090 0 83.3452 13.1381 1095 110.997 654.764 461.462
1091 0 84.5043 13.4904 1140 112.056 653.825 454.579
1092 0 86.1969 16.6595 1436 106.65 652.747 457.652
1093 0 90.4443 15.0258 1359 109.805 653.419 451.508
1094 0 91.3453 14.7243 1345 109.855 653.249 453.936
1095 1 46.075 12.2843 566 109.898 651.86 471.325
1096 0 49.2112 12.6394 622 110.949 651.478 469.658
1097 0 51.2681 10.962 562 110.47 652.103 471.765
1098 0 55.3462 13.1536 728 106.805 655.902 470.674
1099 0 54.0704 13.131 710 108.214 655.637 471.021
1100 0 55.1451 11.9866 661 111.189 655.466 468.026
1101 0 55.1143 12.3017 678 111.294 655.395 467.544
1102 0 55.2841 9.82199 543 110.845 655.652 467.543
1103 0 58.1962 12.2345 712 106.375 655.104 468.067
1104 0 61.0995 12.3896 757 106.794 654.119 462.801
1105 0 63.2632 12.9775 821 104.51 654.493 465.523
1106 0 65.632 13.1034 860 106.529 654.693 462.113
1107 0 68.274 15.5403 1061 102.336 656.396 463.97
1108 0 70.3285 14.7593 1038 104.44 655.859 462.027
1109 0 74.3315 14.4622 1075 104.535 657.58 460.33
1110 0 72.5239 12.2994 892 109.391 658.339 456.859
1111 0 72.5239 12.327 894 136.206 659.378 456.701
1112 0 78.247 14.1603 1108 107.838 658.747 454.763
1113 0 78.3048 11.7234 918 112.462 659.082 444.54
1114 0 83.3771 14.3205 1194 109.201 659.457 443.376
1115 0 85.3592 12.301 1050 112.989 661.209 450.763
1116 0 87.3716 14.5013 1267 110.73 660.082 445.156
1117 1 49.2555 11.7347 578 108.493 662.545 469.91
1118 0 48.0573 11.4863 552 109.889 661.009 473.241
1119 0 50.4133 11.128 561 111.843 659.676 465.424
1120 0 51.6558 12.4671 644 109.899 659.63 463.898
1121 0 53.0727 15.9027 844 109.124 657.608 469.083
1122 0 53.2666 10.8323 577 117.688 661.638 469.331
1123 0 56.3505 13.8952 783 112.992 662.091 468.996
1124 0 59.0993 13.3673 790 113.372 661.552 471.915
1125 0 60.2549 12.3143 742 116.088 661.825 470.055
1126 0 62.4073 11.0083 687 117.277 660.716 472.157
1127 0 66.2129 13.3358 883 113.351 659.96 476.215
1128 0 65.1819 13.8996 906 113.861 660.455 472.412
1129 0 67.339 13.4543 906 116.191 658.121 471.231
1130 0 72.2747 12.8261 927 115.452 657.023 472.905
1131 0 74.3333 14.6368 1088 113.844 656.398 466.282
1132 0 75.3722 12.9093 973 117.246 656.231 467.186
1133 0 77.4727 12.8174 993 117.586 655.65 464.96
1134 0 80.2529 14.4668 1161 115.541 655.681 462.351
1135 0 81.5551 13.8679 1131 118.411 652.718 460.376
1136 0 86.3796 13.5564 1171 117.29 653.77 460.834
1137 1 47.1587 11.7476 554 115.117 653.83 480.96
1138 0 49.1575 12.7346 626 123.196 653.002 479.449
1139 0 45.1667 11.4908 519 112.852 654.247 477.337
1140 0 49.1116 14.1922 697 109.07 653.854 475.35
1141 0 52.1297 10.8384 565 113.136 653.58 475.188
1142 0 51.1626 12.216 625 112.45 653.986 473.846
1143 0 55.0996 15.5355 856 107.139 652.655 471.221
1144 0 50.1285 10.6726 535 116.622 652.723 471.314
1145 0 55.1258 15.3467 846 109.26 652.267 469.08
1146 0 58.1768 12.9605 754 112.82 653.999 465.844
1147 0 57.0732 12.335 704 115.857 653.669 463.264
1148 0 60.1276 11.1263 669 117.067 654.472 463.786
1149 0 63.105 13.945 880 112.369 654.362 459.103
1150 0 66.117 14.7768 977 110.58 656.264 457.869
1151 0 67.2039 12.7373 856 113.8 657.243 460.821
1152 0 70.0717 13.7288 962 112.557 656.235 458.553
1153 0 72.141 12.4478 898 115.744 658.637 453.901
1154 0 72.141 12.4478 898 135.914 660.637 453.901
1155 0 75.1036 15.2323 1144 112.248 659.65 455.028
1156 0 78.1193 14.8619 1161 113.99 659.988 451.434
1157 0 81.2192 14.3562 1166 114.016 659.58 454.482
1158 0 87.1159 13.7174 1195 114.428 660.423 451.558
1159 1 45.0861 12.4872 563 114.995 661.119 469.211
1160 0 47.0803 11.8096 556 114.802 662.993 471.045
1161 0 47.2057 12.2443 578 109.294 659.934 466.05
1162 0 49.1928 11.4448 563 110.664 661.572 465.217
1163 0 50.2026 9.82021 493 112.915 660.894 464.925
1164 0 53.4577 11.4109 610 110.111 661.307 466.323
1165 0 54.4189 11.3931 620 109.19 661.437 468.24
1166 0 56.2791 11.1942 630 110.292 661.351 468.816
1167 0 59.2826 13.5959 806 107.133 661.51 468.489
1168 0 62.2245 14.287 889 105.351 661.071 471.976
1169 0 64.2342 12.8436 825 107.795 660.567 470.39
1170 0 66.2334 15.4454 1023 105.448 659.121 465.444
1171 0 65.3514 11.201 732 113.213 658.79 464.948
1172 0 71.3007 12.4823 890 110.746 658.59 467.449
1173 0 76.665 15.496 1188 104.626 657.819 471.516
1174 0 74.1729 15.5178 1151 107.331 655.967 467.282
1175 0 75.2055 12.2199 919 111.891 657.357 465.818
1176 0 80.2818 14.7107 1181 108.782 655.338 458.75
1177 0 80.3225 11.4289 918 113.783 655.108 462.258
1178 0 83.3713 14.6573 1222 108.304 654.027 459.523
1179 0 87.3441 12.8572 1123 110.646 654.709 456.536
1180 1 45.2051 10.1537 459 105.556 654.373 481.451
1181 0 51.4971 13.4959 695 103.522 653.724 476.974
1182 0 48.1763 12.3297 594 112.089 651.508 473.899
1183 0 50.2133 11.3914 572 109.351 652.996 475.5
1184 0 52.2184 12.2562 640 107.733 653.423 470.162
1185 0 52.3274 8.69526 455 110.954 653.409 469.697
1186 0 54.3238 11.634 632 108.946 652.579 466.448
1187 0 57.324 13.3277 764 106.573 652.51 463.995
1188 0 58.4675 12.2632 717 109.208 652.594 457.577
1189 0 63.5464 14.4461 918 103.545 653.131 464.703
1190 0 62.138 11.4423 711 111.776 653.436 457.729
1191 0 66.4772 13.1022 871 106.783 654.165 466.34
1192 0 64.0837 13.1703 844 109.504 655.062 456.996
1193 1 131.497 12.5326 1648 119.562 654.938 423.112
1194 0 136.433 14.0802 1921 118.301 654.357 417.575
1195 0 140.596 14.1327 1987 118.083 655.771 417.629
1196 0 145.607 13.2549 1930 119.452 655.368 413.349
1197 0 150.315 17.4035 2616 113.262 656.362 417.921
1198 0 159.588 15.5964 2489 116.084 657.017 414.17
1199 1 85.1422 16.584 1412 110.101 657.841 452.22
1200 0 85.301 11.1253 949 118.061 658.774 456.485
1201 1 47.1542 13.7634 649 115.125 659.943 470.488
1202 0 51.1168 14.3397 733 114.592 660.282 467.435
1203 0 51.1185 11.7179 599 118.394 660.763 469.098
1204 0 53.622 13.2035 708 116.742 658.864 469.846
1205 0 54.4754 11.7301 639 118.57 659.064 469.556
1206 0 52.3459 9.83841 515 124.652 660.524 466.55
1207 0 57.4705 14.825 852 113.601 660.374 470.771
1208 0 59.286 12.4987 741 118.258 660.12 471.642
1209 0 61.344 13.9541 856 116.766 660.185 470.459
1210 0 62.5609 14.1942 888 116.507 658.511 468.278
1211 0 65.4119 12.643 827 119.001 658.946 467.48
1212 0 67.44 12.6335 852 116.238 658.588 469.543
1213 0 69.5823 10.3618 721 113.65 658.291 466.655
1214 0 72.3494 13.5177 978 110.476 657.878 464.597
1215 0 77.5466 11.9928 930 111.335 658.241 470.148
1216 0 73.5105 8.97831 660 118.024 657.106 465.442
1217 0 82.1241 12.5542 1031 111.456 655.975 465.555
1218 1 43.7724 10.943 479 111.309 655.012 483.764
1219 0 44.6541 12.1377 542 110.325 655.744 478.954
1220 0 45.7302 12.2239 559 108.818 653.769 478.208
1221 0 47.816 10.8959 521 109.424 652.791 477.637
1222 0 46.7691 12.8076 599 105.407 651.454 479.746
1223 0 48.2341 10.3454 499 110.82 652.796 477.313
1224 0 49.316 11.2539 555 109.002 651.856 479.249
1225 0 52.1937 12.4919 652 107.696 650.617 474.702
1226 0 52.1731 9.35347 488 112.596 650.777 475.268
1227 0 52.1619 10.0456 524 112.502 650.981 472.458
1228 0 53.1664 7.78687 414 116.196 651.174 472.169
1229 0 60.2859 15.2108 917 104.185 651.665 467.084
1230 0 60.3473 12.5275 756 108.448 651.274 465.193
1231 0 63.391 11.4843 728 109.187 652.426 464.022
1232 0 66.3744 12.0227 798 108.14 652.506 460.595
1233 0 68.5149 12.3769 848 106.949 652.246 459.688
1234 0 69.3888 13.9216 966 107.15 652.765 455.938
1235 0 72.2121 15.3714 1110 103.822 652.929 460.03
1236 0 74.7554 15.2364 1139 104.796 654.896 453.12
1237 0 73.3288 12.4099 910 109.463 655.64 454.737
1238 0 79.7066 15.0803 1202 105.168 656.615 451.325
1239 0 82.9042 12.7979 1061 107.955 656.847 451.742
1240 0 85.2479 11.707 998 113.094 658.046 450.935
1241 0 86.197 13.2371 1141 111.152 659.149 445.311
1242 0 86.2299 13.2205 1140 120.88 660.177 445.356
1243 0 90.2321 11.3263 1022 114.114 659.612 445.608
1244 0 95.3456 11.4636 1093 114.359 661.049 439.615
1245 0 97.4653 8.02337 782 115.043 661.187 452.664
1246 0 104.46 14.2543 1489 110.314 663.076 440.046
1247 1 54.198 11.3473 615 110.623 663.372 463.589
1248 0 54.1848 14.5244 787 106.559 661.689 463.008
1249 0 54.2908 9.55964 519 112.356 663.428 467.541
1250 0 57.1486 13.3162 761 106.844 661.884 470.557
1251 0 59.1688 11.8306 700 109.477 663.871 472.71
1252 0 61.234 15.8409 970 104.508 661.486 470.106
1253 0 64.2417 14.5077 932 105.786 661.837 471.651
1254 0 66.208 17.1731 1137 103.914 661.252 469.895
1255 0 66.27 14.3504 951 108.433 660.324 466.714
1256 0 66.5267 10.7626 716 114.032 660.793 469.702
1257 0 70.2231 11.9761 841 113.253 659.919 466.838
1258 0 74.3028 13.4584 1000 111.53 659.402 465.447
1259 0 76.3878 13.4184 1025 112.237 657.804 460.803
1260 0 76.355 11.5251 880 113.395 656.611 462.632
1261 0 81.4799 11.5611 942 113.688 655.459 461.676
1262 0 83.3977 12.1586 1014 115.521 653.964 451.715
1263 0 88.3829 14.0412 1241 112.845 653.408 453.295
1264 1 47.066 10.8783 512 110.689 654.902 474.18
1265 0 47.1241 7.70306 363 114.284 655.532 473.956
1266 0 50.2692 13.6664 687 106.221 654.05 468.901
1267 0 51.1561 10.3605 530 110.583 654.923 466.513
1268 0 52.1186 10.3994 542 109.972 654.34 469.62
1269 0 53.1993 17.6882 941 100.399 653.732 468.43
1270 0 55.1903 8.18985 452 112.624 653.509 465.199
1271 0 55.2456 16.8339 930 101.689 653.399 464.718
1272 0 59.2726 14.0874 835 103.332 654.348 465.902
1273 0 60.3719 11.2304 678 109.702 653.45 456.617
1274 0 63.1587 14.4556 913 105.391 654.425 455.894
1275 0 60.116 11.2948 679 109.411 651.866 459.619
1276 0 62.1516 13.2579 824 107.487 652.483 457.477
1277 0 63.1175 10.4567 660 113.038 652.791 450.224
1278 0 66.2169 12.9121 855 109.365 653.263 448.156
1279 0 70.3763 11.2396 791 109.335 653.809 453.97
1280 0 70.1601 12.6853 890 107.754 654.584 456.852
1281 0 74.2846 12.7079 944 109.383 655.248 447.521
1282 0 76.1941 8.85896 675 114.502 656.489 447.148
1283 1 38.1321 11.7224 447 104.608 657.485 465.931
1284 0 40.1877 11.073 445 106.879 659.115 464.649
1285 0 38.0772 11.109 423 107.102 660.102 464.492
1286 0 37.1762 9.68361 360 110.292 660.247 462.822
1287 0 42.2141 16.1794 683 102.252 659.867 463.565
1288 0 45.2503 10.8508 491 107.42 660.68 466.118
1289 0 43.1408 9.06334 391 111.55 661.084 462.997
1290 0 46.4477 11.5183 535 108.161 661.019 467.959
1291 0 47.274 10.9151 516 108.227 661.62 468.678
1292 0 49.3251 11.7384 579 108.321 661.736 467.82
1293 0 48.1754 11.3751 548 110.451 661.646 467.916
1294 0 53.1934 15.3966 819 103.803 660.676 469.708
1295 0 53.278 11.6746 622 110.386 660.664 468.772
1296 0 52.1581 12.558 655 109.237 661.493 469.569
1297 0 56.1977 14.1465 795 107.599 661.044 470.946
1298 0 55.1687 12.9059 712 114.555 663.129 480.385
1299 0 58.1497 13.3621 777 116.142 661.342 475.879
1300 0 61.155 15.3871 941 112.875 660.369 474.329
1301 0 64.087 13.825 886 115.19 659.89 474.584
1302 0 61.2291 10.2239 626 121.819 658.158 474.688
1303 0 66.2886 13.924 923 114.161 657.277 475.68
1304 0 69.252 13.6458 945 116.366 656.238 470.649
1305 0 70.0973 13.6382 956 117.577 655.743 468.243
1306 0 74.1483 15.0779 1118 115.256 655.166 464.379
1307 0 75.1268 12.4323 934 119.467 655.314 466.913
1308 0 83.1282 14.6521 1218 116.936 653.092 457.149
1309 0 86.1628 17.0143 1466 112.897 652.662 459.87
1310 0 80.1922 10.7242 860 125.58 653.527 452.837
1311 1 45.1129 12.0143 542 119.406 653.316 475.873
1312 0 48.0887 13.2879 639 118.147 653.659 471.371
1313 0 51.0935 15.1291 773 113.864 652.727 472.27
1314 0 52.1924 13.0862 683 116.136 652.918 469.94
1315 0 54.1746 17.7574 962 109.918 652.441 466.4
1316 0 58.0952 14.7861 859 113.01 652.941 468.852
1317 0 59.2028 13.9352 825 115.405 653.376 465.09
1318 0 59.0797 12.2208 722 119.144 653.79 460.568
1319 0 60.0877 16.4759 990 113.004 654.262 458.908
1320 0 64.1362 13.5805 871 116.266 655.192 458.754
1321 0 65.0743 13.4923 878 116.047 655.539 459.203
1322 0 70.0737 13.9425 977 116.014 656.826 456.594
1323 0 72.2158 16.1045 1163 112.87 657.586 455.67
1324 0 72.3584 12.7836 925 118.597 659.091 455.69
1325 0 75.0742 16.7701 1259 111.568 660.141 456.693
1326 0 79.2763 14.2287 1128 115.111 658.911 454.715
1327 0 83.1218 11.9102 990 119.098 660.115 455.612
1328 0 86.1908 15.5701 1342 114.297 661.416 449.868
1329 0 87.3215 15.3112 1337 115.174 660.498 447.434
1330 1 48.088 10.9175 525 119.341 661.615 472.899
1331 0 50.294 14.9322 751 114.093 658.173 468.462
1332 0 52.2124 14.7283 769 115.355 658.445 469.008
1333 0 53.102 12.8809 684 117.545 657.737 469.934
1334 0 55.0991 12.9948 716 118.701 658.23 468.006
1335 0 59.1548 14.3691 850 114.594 657.468 470.932
1336 0 58.1218 12.5942 732 118.581 657.421 470.732
1337 0 61.2326 15.9882 979 113.196 657.31 469.794
1338 0 64.1718 18.357 1178 107.112 656.413 474.403
1339 0 66.2041 19.9988 1324 107.199 657.317 468.899
1340 0 67.1255 14.5995 980 115.811 656.438 468.646
1341 0 68.156 12.8235 874 118.922 656.275 465.966
1342 0 71.0695 13.128 933 118.122 656.066 468.802
1343 0 72.3925 12.6947 919 120.361 654.873 466.659
1344 0 76.1463 14.3277 1091 117.349 654.615 464.745
1345 0 78.1905 11.9963 938 121.909 652.512 463.689
1346 0 80.1185 14.3038 1146 118.949 653.201 461.113
1347 0 83.2356 16.3872 1364 115.803 652.455 461.92
1348 0 83.2354 16.3993 1365 123.149 650.477 461.908
1349 1 45.1097 11.1728 504 120.442 651.054 474.238
1350 0 46.1491 12.4163 573 117.417 651.75 477.086
1351 0 44.0723 9.93821 438 121.514 651.696 468.605
1352 0 50.1998 13.3865 672 117.771 650.589 474.082
1353 0 51.1066 14.597 746 113.409 651.692 472.438
1354 0 49.2342 10.5618 520 120.975 649.84 472.179
1355 0 51.274 9.90756 508 121.986 650.388 473.171
1356 0 53.079 16.2776 864 112.819 649.728 468.79
1357 0 54.0823 13.424 726 118.559 649.84 466.873
1358 0 54.2147 10.7535 583 123.482 650.271 465.863
1359 0 59.2056 12.3468 731 120.419 650.22 462.369
1360 0 60.3623 13.7337 829 118.018 651.233 465.695
1361 0 59.1915 13.1269 777 121.183 651.726 462.077
1362 0 62.1076 12.897 801 122.355 652.191 458.401
1363 0 67.2263 13.8041 928 119.096 653.436 460.35
1364 0 69.2663 15.0145 1040 118.678 652.952 456.809
1365 0 68.3661 12.6232 863 123.818 654.961 456.254
1366 0 71.2596 11.8721 846 126.339 656.06 455.066
1367 0 78.2231 14.9061 1166 120.529 654.727 451.58
1368 0 78.3688 11.9308 935 125.781 656.027 452.368
1369 0 83.6348 16.5481 1384 117.296 657.54 452.999
1370 0 83.2887 11.5502 962 128.757 657.975 452.023
1371 1 47.495 9.95894 473 127.619 658.44 468.214
1372 0 47.1922 13.6675 645 123.141 659.332 469.149
1373 0 51.4129 14.3544 738 121.703 658.327 465.584
1374 0 53.156 17.4957 930 114.272 660.106 470.359
1375 0 51.0773 13.9005 710 115.215 658.873 472.59
1376 0 54.0807 13.5908 735 117.652 659.576 469.703
1377 0 58.1514 13.6024 791 117.866 660.004 469.195
1378 0 57.2709 12.7639 731 118.029 659.8 469.728
1379 0 61.3018 12.8544 788 117.68 658.555 466.714
1380 0 59.1777 7.53662 446 126.482 658.758 467.213
1381 0 68.4697 13.4658 922 113.328 658.563 469.377
1382 0 67.2967 12.6455 851 118.29 659.617 465.993
1383 0 67.2967 12.6901 854 133.81 660.605 466.019
1384 0 74.3761 15.1124 1124 113.157 659.031 466.303
1385 0 74.3087 12.9998 966 117.215 657.401 465.386
1386 0 78.1947 11.6888 914 118.077 655.514 464.828
1387 0 81.2419 13.6014 1105 116.209 654.281 463.678
1388 0 82.2528 12.9844 1068 117.21 654.211 459.973
1389 0 86.3954 13.1489 1136 116.524 652.714 459.597
1390 0 86.262 12.1143 1045 119.904 653.072 456.32
1391 0 86.4178 9.23421 798 124.731 653.148 453.865
1392 0 95.3323 15.0736 1437 115.704 653.398 449.259
1393 0 97.418 16.0956 1568 114.721 653.785 446.268
1394 1 52.4247 9.46119 496 117.565 653.262 470.147
1395 0 52.2235 9.82317 513 116.942 651.175 469.75
1396 0 55.2545 12.2524 677 116.575 651.42 471.747
1397 0 56.1583 13.088 735 111.162 652.556 465.105
1398 0 56.1248 12.9176 725 112.614 652.636 461.785
1399 0 56.2431 17.3888 978 106.538 651.423 464.526
1400 0 62.2992 13.9649 870 114.829 651.005 464.568
1401 0 63.2664 13.9252 881 116.443 651.56 461.513
1402 0 66.1948 15.5601 1030 113.892 651.311 462.681
1403 0 67.3343 13.6929 922 117.167 651.21 455.713
1404 0 69.2331 14.8917 1031 115.664 650.685 456.611
1405 0 73.429 15.7159 1154 114.705 652.77 455.508
1406 0 76.3246 12.8006 977 118.258 654.043 459.569
1407 0 76.3502 13.9489 1065 119.358 655.185 455.949
1408 0 80.2632 13.9416 1119 117.71 655.057 453.735
1409 0 81.2634 13.0686 1062 121.103 655.683 446.413
1410 1 46.0648 8.119 374 126.917 653.698 468.781
1411 0 49.0741 9.94414 488 122.477 655.568 466.67
1412 0 50.0658 11.0654 554 122.338 655.904 467.294
1413 0 49.0785 11.7363 576 125.95 656.335 462.981
1414 0 49.0785 11.7363 576 139.108 656.349 463.007
1415 0 53.4 12.2847 656 112.93 659.841 462.14
1416 0 53.2382 9.72985 518 117.99 659.496 458.739
1417 0 53.2382 9.57958 510 133.79 659.51 458.588
1418 0 60.2351 13.7461 828 112.809 659.908 461.244
1419 0 55.15 9.39256 518 121.303 659.849 460.454
1420 0 64.3481 13.2405 852 113.548 660.702 462.541
1421 0 66.4486 16.4789 1095 109.321 659.71 463.649
1422 0 65.4625 11.961 783 117.927 659.733 463.361
1423 0 68.4873 12.4841 855 116.388 658.98 465.85
1424 0 72.2448 16.7901 1213 109.273 658.595 463.646
1425 0 75.3403 13.4324 1012 114.653 657.96 463.2
1426 0 77.1872 11.4915 887 116.567 658.008 457.352
1427 0 78.1354 15.4604 1208 111.782 657.202 460.714
1428 0 84.264 15.3921 1297 110.288 657.217 462.022
1429 1 42.3212 11.1292 471 113.053 655.278 480.705
1430 0 44.2008 11.8776 525 111.722 655.92 481.718
1431 0 44.2136 11.9646 529 121.457 654.911 481.788
1432 0 47.3088 12.1965 577 111.749 653.913 475.581
1433 0 47.184 11.4869 542 113.369 653.212 474.485
1434 0 44.223 9.36164 414 118.263 653.297 473.628
1435 0 50.2976 8.64852 435 117.628 651.586 473.448
1436 0 53.5767 12.3001 659 112.728 653.241 470.272
1437 0 55.5588 11.5913 644 112.68 651.576 472.172
1438 0 57.2026 13.4085 767 113.982 652.09 471.57
1439 0 57.3236 14.4966 831 111.336 650.538 467.598
1440 0 60.1702 15.1404 911 113.055 649.953 464.312
1441 0 65.549 15.332 1005 117.965 651.096 465.516
1442 0 67.3476 16.4668 1109 115.382 651.482 463.718
1443 0 65.4216 13.0844 856 123.897 651.317 460.461
1444 0 66.4148 12.2262 812 126.076 652.243 458.559
1445 0 72.3702 14.3567 1039 121.456 650.417 458.698
1446 1 143.601 11.4971 1651 126.91 652.899 425.437
1447 1 75.4762 14.9716 1130 123.747 653.755 452.688
1448 0 78.4843 14.3213 1124 124.692 653.087 453.514
1449 0 81.7096 15.8366 1294 123.696 653.002 450.887
1450 0 80.6823 14.6005 1178 127.213 654.265 450.973
1451 0 86.4317 16.8457 1456 123.751 655.675 446.639
1452 1 47.2557 13.2894 628 125.952 655.744 465.489
1453 0 46.1263 12.4658 575 124.504 655.913 469.506
1454 0 46.2184 12.614 583 126.521 656.118 469.273
1455 0 49.1726 12.4663 613 129.313 655.816 468.095
1456 0 52.2231 15.3572 802 123.845 656.92 466.873
1457 0 53.2158 14.4318 768 125.906 658.05 466.733
1458 0 54.1328 13.2083 715 127.924 657.427 466.533
1459 0 55.3512 12.5743 696 131.188 658.527 464.29
1460 0 58.2771 14.105 822 127.262 660.129 467.414
1461 0 60.3979 14.719 889 127.217 661.056 468.253
1462 0 62.339 14.4853 903 127.468 661.225 467.807
1463 0 65.606 14.9529 981 125.703 661.184 468.778
1464 0 65.3109 13.7802 900 130.321 659.677 465.716
1465 0 68.3714 15.2988 1046 126.702 659.398 465.152
1466 0 68.4352 14.8754 1018 128.105 658.957 466.615
1467 0 74.569 16.2534 1212 123.52 659.683 468.317
1468 0 76.4405 14.7827 1130 126.828 658.72 464.373
1469 0 77.6378 15.3405 1191 125.866 658.611 465.542
1470 0 81.7123 15.9095 1300 125.831 658.657 459.366
1471 0 85.7548 17.4451 1496 122.797 658.408 459.729
1472 0 86.2923 16.7222 1443 116.938 658.286 461.474
1473 0 89.4344 13.6189 1218 123.379 656.639 460.72
1474 0 94.3756 15.4807 1461 119.291 656.243 460.209
1475 0 95.358 15.0171 1432 122.505 655.964 458.967
1476 0 98.8154 13.5505 1339 127.055 655.612 451.945
1477 0 101.559 14.4547 1468 125.33 653.807 448.911
1478 1 51.1596 9.87107 505 128.25 653.774 471.824
1479 0 53.3258 12.9768 692 120.051 653.406 470.829
1480 0 54.2317 13.2395 718 121.795 652.549 472.766
1481 0 58.2258 15.251 888 118.855 653.675 473.494
1482 0 62.3479 14.8842 928 117.228 652.779 471.416
1483 0 61.301 16.6881 1023 116.629 652.461 465.988
1484 0 63.1487 14.4896 915 120.319 652.846 464.531
1485 0 65.1743 15.0673 982 119.567 653.266 463.82
1486 0 68.1731 14.9473 1019 118.714 653.589 463.493
1487 0 69.2568 13.5438 938 122.071 653.515 457.828
1488 0 69.2568 13.6304 944 145.055 653.511 457.768
1489 0 76.3998 13.9922 1069 120.685 654.273 457.546
1490 0 76.3219 14.0589 1073 122.549 654.956 451.651
1491 0 80.3198 17.2685 1387 116.28 654.936 450.578
1492 0 83.3988 13.0098 1085 123.764 654.441 451.913
1493 0 85.2388 15.1926 1295 119.613 656.305 448.496
1494 0 87.3969 14.52 1269 124.464 655.32 449.374
1495 0 91.2644 18.5396 1692 117.962 656.189 448.33
1496 0 94.5488 14.8072 1400 124.179 657.664 444.419
1497 0 97.5 15.3949 1501 123.503 657.702 443.512
1498 0 98.6806 13.5792 1340 126.682 658.459 438.852
1499 0 104.024 15.3618 1598 123.145 658.869 434.884
1500 0 109.709 18.3395 2012 115 659.657 442.327
1501 1 56.4357 15.2386 860 119.074 658.969 464.704
1502 0 59.0812 14.7255 870 118.117 657.894 462.823
1503 0 61.0802 17.3542 1060 112.12 657.392 466.863
1504 0 60.068 12.2195 734 122.76 658.204 465.571
1505 0 62.0762 14.2889 887 119.53 658.728 465.384
1506 0 66.1198 12.2959 813 122.138 658.241 462.771
1507 0 65.22 12.8488 838 121.474 659.005 466.888
1508 0 68.1503 12.986 885 120.861 657.62 465.264
1509 0 72.1667 15.9353 1150 116.182 659.272 464.583
1510 0 73.2428 14.4178 1056 119.138 658.15 466.352
1511 0 76.1555 15.8885 1210 116.29 658.172 466.183
1512 0 78.1756 12.9196 1010 121.414 658.497 465.579
1513 0 87.473 15.8677 1388 115.336 657.197 463.617
1514 0 85.2997 18.3705 1567 110.815 657.907 457.084
1515 0 86.2902 14.6367 1263 117.183 657.395 453.975
1516 0 89.2764 15.4352 1378 116.545 655.659 457.357
1517 0 93.2142 14.5579 1357 119.559 654.905 457.243
1518 1 50.219 13.461 676 122.145 652.605 475.506
1519 0 51.0444 12.4402 635 123.375 652.672 478.474
1520 0 55.1019 12.976 715 121.197 652.164 474.916
1521 0 53.1818 11.3197 602 123.789 650.924 473.121
1522 0 57.1161 11.3278 647 123.672 651.127 471.583
1523 0 59.061 14.4427 853 117.504 651.073 469.982
1524 0 62.1402 18.072 1123 110.785 650.887 468.936
1525 0 62.1556 14.6728 912 116.999 651.416 467.76
1526 0 65.1122 15.2659 994 116.896 650.315 462.399
1527 0 67.138 15.3862 1033 116.463 651.38 461.859
1528 0 71.2168 15.0807 1074 116.047 651.321 458.984
1529 0 72.4131 14.7901 1071 115.369 652.21 455.655
1530 0 73.4696 15.2716 1122 114.676 651.614 453.257
1531 0 76.3244 15.1066 1153 114.169 652.725 453.481
1532 0 78.1405 12.0424 941 122.123 652.589 448.118
1533 0 81.3734 13.9972 1139 119.305 653.176 451.464
1534 0 84.126 18.0325 1517 112.94 654.109 450.129
1535 0 87.1678 15.2694 1331 117.802 654.219 445.939
1536 0 90.4225 12.4748 1128 122.981 654.729 444.248
1537 0 91.1749 17.2855 1576 116.517 655.649 442.82
1538 0 95.1262 15.6108 1485 119.137 657.555 442.832
1539 0 98.3622 14.0806 1385 120.82 657.05 443.742
1540 0 102.201 18.444 1885 114.606 657.993 438.058
1541 0 105.334 16.6138 1750 116.885 658.758 434.929
1542 1 55.0508 13.3695 736 121.087 658.281 459.954
1543 0 55.0508 13.3876 737 134.844 658.275 459.851
1544 0 60.3328 13.094 790 117.848 661.418 460.257
1545 0 64.2243 14.4182 926 115.455 661.397 460.957
1546 0 63.1691 12.7594 806 118.88 661.855 464.123
1547 0 67.2564 13.8128 929 117.062 661.082 458.259
1548 0 68.4117 11.7231 802 120.061 661.772 461.379
1549 0 74.2407 16.3792 1216 112.825 661.081 458.773
1550 0 74.2495 12.8082 951 118.95 661.305 460.505
1551 0 75.5294 13.134 992 118.926 661.39 460.478
1552 0 78.318 13.5346 1060 118.588 660.008 459.111
1553 0 81.4975 14.8839 1213 116.424 660.557 459.558
1554 0 85.3709 15.8602 1354 115.162 659.906 458.394
1555 0 86.1887 13.482 1162 119.392 659.309 459.534
1556 0 88.3559 14.2831 1262 119.642 658.891 457.192
1557 0 91.1719 15.7614 1437 117.705 657.622 453.251
1558 0 92.4185 11.4696 1060 125.296 656.496 454.222
1559 0 100.345 13.9917 1404 119.446 656.427 456.931
1560 1 50.0863 10.1425 508 124.299 657.305 473.201
1561 0 55.1428 11.1529 615 122.748 655.114 476.857
1562 0 57.0426 13.7967 787 120.117 655.38 475.25
1563 0 58.0454 13.61 790 120.773 654.216 470.714
1564 0 65.3188 14.4216 942 113.835 654.911 468.852
1565 0 61.1106 12.4856 763 119.128 654.773 469.139
1566 0 64.0638 11.5354 739 120.092 654.509 465.821
1567 0 64.1273 10.791 692 122.285 654.363 462.166
1568 0 72.1321 15.6518 1129 113.58 654.429 461.467
1569 0 73.2461 13.4615 986 118.092 654.065 459.54
1570 0 76.1108 15.9373 1213 113.517 653.763 458.758
1571 0 78.1226 13.658 1067 118.381 652.213 454.631
1572 0 79.2718 13.7502 1090 119.094 651.962 453.28
1573 0 85.2549 14.9317 1273 114.764 653.408 455.043
1574 0 85.2497 15.1789 1294 116.712 653.09 444.366
1575 0 90.3329 14.8119 1338 116.733 653.46 447.897
1576 0 87.2892 12.407 1083 122.714 654.785 444.391
1577 0 96.3816 20.1595 1943 108.961 655.702 445.89
1578 0 95.1276 15.9785 1520 117.671 657.66 441.541
1579 0 100.294 14.8662 1491 118.755 656.718 441.858
1580 0 102.326 14.7568 1510 118.838 657.824 439.852
1581 0 106.26 14.8033 1573 118.807 657.807 438.568
1582 0 110.21 13.3473 1471 122.275 658.252 441.162
1583 0 113.369 15.5509 1763 116.9 657.867 424.097
1584 1 62.1234 11.1552 693 120.433 655.938 462.193
1585 0 61.0761 11.15 681 121.545 657.828 460.38
1586 0 65.0728 13.6309 887 115.549 660.274 461.607
1587 0 70.1555 12.8572 902 115.93 662.228 460.443
1588 0 71.3316 10.6685 761 118.685 661.82 463.64
1589 0 72.0731 12.2931 886 118.808 661.453 456.501
1590 0 74.2021 13.0724 970 117.153 661.445 458.974
1591 0 78.2131 11.507 900 117.033 662.071 464.358
1592 0 80.1445 12.5898 1009 117.494 661.379 456.152
1593 0 82.152 12.696 1043 118.303 661.059 455.758
1594 0 84.4276 13.3961 1131 117.279 661.094 454.886
1595 0 87.4665 12.0046 1050 119.741 659.466 454.554
1596 0 91.2256 14.0421 1281 116.101 660.012 453.631
1597 0 93.1994 12.6718 1181 117.406 658.958 456.014
1598 0 96.1543 11.5856 1114 118.081 658.598 453.522
1599 0 101.151 15.3632 1554 112.409 657.151 450.716
1600 0 105.219 13.9424 1467 114.63 655.538 449.609
1601 1 55.1701 9.49789 524 115.96 654.428 474.861
1602 0 60.6993 12.6196 766 118.612 652.914 471.866
1603 0 60.1095 11.895 715 118.506 653.495 474.166
1604 0 63.177 12.8686 813 116.761 651.435 472.78
1605 0 63.3402 13.7669 872 117.226 652.303 468.563
1606 0 67.2542 13.2631 892 116.318 651.738 469.183
1607 0 69.142 20.0023 1383 106.948 650.988 467.834
1608 0 71.3069 15.9031 1134 112.936 651.665 466.295
1609 0 73.3008 17.8716 1310 109.361 650.281 466.921
1610 0 75.3607 10.2308 771 122.384 650.733 460.339
1611 0 78.2232 12.7711 999 117.433 650.96 460.04
1612 0 80.6439 12.8714 1038 118.087 650.773 455.163
1613 0 82.3094 15.2474 1255 115.104 651.695 451.893
1614 0 85.6887 15.3462 1315 115.34 650.751 450.815
1615 0 87.4059 14.999 1311 116.216 651.431 449.406
1616 0 91.6475 14.3266 1313 116.946 650.841 444.146
1617 0 92.5272 15.0118 1389 116.953 652.042 443.209
1618 0 96.3686 16.5614 1596 113.813 653.2 445.516
1619 0 100.43 16.5687 1664 114.097 653.377 439.162
1620 0 99.3836 13.0706 1299 121.689 652.912 439.142
1621 0 104.228 11.9833 1249 122.956 653.779 439.805
1622 0 107.601 13.4757 1450 119.43 653.986 442.883
1623 1 60.5239 12.1935 738 120.28 655.595 459.072
1624 0 59.1974 12.433 736 121.921 654.884 458.27
1625 0 63.2742 10.9998 696 124.134 657.629 462.494
1626 0 66.3254 13.9464 925 119.688 659.062 458.688
1627 0 69.314 14.7733 1024 117.387 658.714 457.682
1628 0 72.3491 13.4487 973 118.941 660.158 458.692
1629 0 72.219 13.376 966 121.778 660.946 455.791
1630 0 72.3126 10.9663 793 126.837 661.139 454.493
1631 0 77.2788 14.3377 1108 120.844 661.06 456.243
1632 0 78.3014 11.9794 938 125.072 661.181 457.079
1633 0 83.5709 14.2633 1192 120.231 661.502 457.551
1634 0 85.3519 13.6025 1161 122.388 661.748 456.472
1635 0 90.4215 14.9743 1354 120.343 661.86 454.489
1636 0 91.4383 13.8454 1266 122.4 659.686 457.256
1637 0 92.4578 13.7684 1273 124.282 660.126 454.797
1638 0 98.3068 14.4751 1423 121.885 659.921 454.661
1639 1 49.2487 14.4572 712 118.434 658.739 477.204
1640 0 54.3867 16.6401 905 114.097 658.199 475.158
1641 0 57.7141 14.156 817 117.526 656.755 473.213
1642 0 55.4164 11.2783 625 116.464 657.405 471.371
1643 0 55.1326 11.4633 632 115.753 656.131 472.527
1644 0 57.2824 12.4646 714 117.661 654.179 475.534
1645 0 56.1663 10.3799 583 122.3 653.403 477.4
1646 0 62.2003 15.0964 939 115.003 652.588 474.453
1647 0 60.2443 12.9141 778 119.519 652.856 474.161
1648 0 61.2116 13.0857 801 118.715 652.547 473.782
1649 0 66.2226 12.9563 858 118.421 650.93 472.24
1650 0 68.3462 14.7338 1007 115.981 651.855 465.832
1651 0 72.224 16.8504 1217 111.154 650.264 468.738
1652 0 74.3102 12.5151 930 118.566 651.086 466.284
1653 0 76.301 14.6656 1119 117.577 650.736 457.372
1654 0 78.277 14.9086 1167 117.82 650.224 457.783
1655 0 78.2392 13.4843 1055 121.02 650.17 455.375
1656 0 84.3044 15.4915 1306 116.989 650.725 454.989
1657 0 86.2333 17.9165 1545 113.364 650.034 453.691
1658 0 88.2701 15.8944 1403 117.557 651.197 451.458
1659 0 91.3651 14.2505 1302 120.894 650.482 447.319
1660 0 94.3281 13.0184 1228 121.924 651.998 444.84
1661 0 96.3771 14.547 1402 119.252 653.157 444.269
1662 0 99.1951 14.1741 1406 120.804 652.646 440.193
1663 0 100.328 12.9575 1300 124.688 652.198 439.087
1664 0 109.301 18.847 2060 112.867 654.268 436.251
1665 0 109.311 12.2586 1340 125.375 654.624 441.014
1666 1 63.4408 11.7905 748 127.254 656.812 462.913
1667 0 62.193 11.818 735 129.271 658 458.078
1668 0 65.1249 15.0173 978 120.651 658.637 462.689
1669 0 67.0678 14.2841 958 123.507 659.974 456.065
1670 0 67.0678 14.3437 962 135.387 660.959 456.085
1671 0 71.1187 11.3472 807 128.499 660.501 457.232
1672 0 75.1442 13.0815 983 125.364 661.517 457.418
1673 0 76.1082 15.5831 1186 122.175 661.31 456.444
1674 0 74.2762 16.8964 1255 121.556 662.232 453.526
1675 0 79.2717 12.5139 992 127.07 662.864 460.786
1676 0 82.2493 14.3588 1181 124.277 661.832 457.437
1677 0 85.175 15.7793 1344 121.752 662.213 454.44
1678 0 87.28 14.0124 1223 124.39 662.295 456.354
1679 0 92.2838 12.0281 1110 128.459 662.226 457.037
1680 0 94.3616 13.6496 1288 124.717 660.787 459.348
1681 0 94.3073 13.6363 1286 126.682 659.865 454.949
1682 1 50.3198 9.87682 497 129.547 658.223 475.549
1683 0 49.3659 9.3992 464 132.334 659.006 472.371
1684 0 54.0806 12.3334 667 121.873 659.639 473.709
1685 0 56.1879 14.932 839 120.545 659.3 475.532
1686 0 59.1014 12.6055 745 124.119 657.781 473.338
1687 0 58.0373 11.6477 676 123.763 657.334 475.692
1688 0 61.0359 12.7466 778 122.001 657.244 474.086
1689 0 60.1753 13.1782 793 120.986 656.446 474.972
1690 0 65.2123 11.7923 769 121.834 655.338 474.948
1691 0 66.1019 14.9466 988 117.782 654.854 470.693
1692 0 67.0677 12.8676 863 122.979 654.608 466.978
1693 0 70.1596 17.4032 1221 114.837 653.7 466.937
1694 0 71.286 14.3927 1026 119.169 653.587 467.52
1695 0 72.3279 12.0009 868 122.144 652.983 471.563
1696 0 68.3165 13.2179 903 123.243 652.388 466.254
1697 1 79.1832 11.606 919 123.863 653.158 466.071
1698 0 79.1832 11.7197 928 144.173 654.148 465.953
1699 0 83.4902 13.3429 1114 122.37 652.847 458.75
1700 0 86.5083 15.9754 1382 120.247 652.831 452.034
1701 0 89.7821 16.7851 1507 118.449 652.523 449.618
1702 0 92.6548 15.9949 1482 117.675 654.019 456.583
1703 0 95.5372 16.6951 1595 118.913 652.883 447.988
1704 0 98.4595 19.5817 1928 114.666 654.381 447.409
1705 0 100.653 19.2742 1940 117.64 654.201 441.533
1706 0 103.943 14.0269 1458 127.306 655.63 436.534
1707 1 61.2671 11.7518 720 128.183 654.806 456.599
1708 0 61.2698 12.551 769 120.698 654.296 458.476
1709 0 61.2698 12.5347 768 141.464 655.311 458.548
1710 0 63.1874 13.8319 874 121.993 656.685 454.492
1711 0 68.1591 13.5712 925 121.886 658.445 456.383
1712 0 67.2193 13.0915 880 138.16 659.442 455.745
1713 0 71.3104 15.8322 1129 118.958 659.602 455.473
1714 0 72.2857 12.6719 916 125.075 659.884 453.702
1715 0 77.3587 11.5953 897 123.832 660.433 458.891
1716 0 80.2982 14.2967 1148 122.344 660.283 453.234
1717 0 82.1733 18.2176 1497 113.821 660.293 460.46
1718 0 84.1985 14.3589 1209 123.415 660.189 454.499
1719 0 89.287 15.5006 1384 120.473 661.269 455.389
1720 0 88.2229 14.9961 1323 121.246 660.882 457.618
1721 0 94.3747 16.6994 1576 119.723 661.756 452.275
1722 0 96.2646 12.6007 1213 128.19 660.262 450.007
1723 0 98.2262 12.6036 1238 128.567 659.792 450.691
1724 1 59.2064 12.4818 739 119.677 660.848 474.494
1725 0 55.1985 10.9242 603 124.237 660.839 473.567
1726 0 55.1985 10.9423 604 143.829 660.858 473.707
1727 0 60.1861 12.3783 745 125.021 658.203 475.626
1728 0 60.1096 12.0613 725 128.015 657.437 471.408
1729 0 67.1933 14.9717 1006 121.008 655.135 471.411
1730 0 68.2328 13.0143 888 123.133 655.27 472.806
1731 0 72.0966 13.0519 941 121.579 652.332 468.593
1732 0 74.2592 15.0419 1117 118.024 653.714 469.89
1733 0 75.1985 11.729 882 125.562 652.705 464.543
1734 0 80.487 15.2571 1228 115.621 652.985 462.644
1735 0 82.301 13.3291 1097 118 650.757 463.23
1736 0 85.3598 16.4012 1400 115.727 652.233 454.551
1737 0 87.1912 13.0174 1135 121.351 652.014 454.015
1738 0 89.3109 14.164 1265 120.56 652.179 450.781
1739 0 94.4535 15.4256 1457 117.581 651.028 451.16
1740 0 95.321 15.2642 1455 118.438 651.838 445.211
1741 0 100.326 18.8285 1889 112.682 651.074 447.617
1742 1 54.2654 13.3971 727 117.217 651.102 466.732
1743 0 56.1892 15.519 872 113.775 651.006 465.495
1744 0 57.3641 14.6782 842 115.064 651.572 463.943
1745 0 56.134 10.0652 565 123.258 650.786 464.347
1746 0 62.2678 14.7428 918 115.123 651.995 460.718
1747 0 64.302 15.1162 972 113.909 652.596 460.024
1748 0 65.2965 14.1968 927 116.633 652.323 457.515
1749 0 68.2688 17.0649 1165 110.866 653.278 458.255
1750 0 70.2088 15.5109 1089 114.311 653.327 456.192
1751 0 70.1473 13.3861 939 118.825 654.027 451.99
1752 0 73.3527 10.5381 773 123.361 654.921 450.453
1753 0 77.3057 16.48 1274 113.136 655.372 450.333
1754 0 78.1948 11.7015 915 121.2 655.676 451.666
1755 0 82.3556 14.3888 1185 118.112 657.205 443.683
1756 0 85.3157 12.1666 1038 121.975 656.539 445.196
1757 0 87.3513 13.3026 1162 120.593 656.839 444.441
1758 0 93.2315 15.7672 1470 115.488 658.018 447.784
1759 0 94.3992 12.6378 1193 120.9 658.257 444.614
1760 0 97.4192 11.9586 1165 122.66 658.497 440.687
1761 0 101.202 17.7763 1799 113.729 658.983 439.69
1762 0 104.477 13.2182 1381 121.149 659.352 441.75
1763 0 109.237 14.1893 1550 119.233 660.108 446.022
1764 1 57.3749 13.8911 797 119.001 658.011 466.711
1765 0 59.1448 15.6227 924 115.254 657.984 468.172
1766 0 59.1448 15.6734 927 133.037 657.959 468.026
1767 0 64.3138 14.7247 947 116.421 656.929 469.504
1768 0 68.4075 12.4986 855 118.274 657.076 469.082
1769 0 67.1694 13.6669 918 118.465 657.472 467.519
1770 0 71.2726 14.4095 1027 115.924 656.991 472.529
1771 0 74.3413 16.1014 1197 113.099 655.13 469.673
1772 0 76.4156 12.8508 982 121.009 655.03 463.848
1773 0 78.1147 11.2271 877 122.468 652.763 467.937
1774 0 83.3227 14.7859 1232 117.032 653.82 464.305
1775 0 84.5746 12.8407 1086 119.659 652.856 465.168
1776 0 84.5746 12.7698 1080 144.041 651.881 465.04
1777 0 94.4416 18.2017 1719 111.898 652.072 459.148
1778 0 94.2208 13.479 1270 119.395 651.939 454.613
1779 0 94.2775 10.9358 1031 123.804 650.654 456.637
1780 1 54.1242 12.6007 682 117.695 650.086 476.43
1781 0 54.1242 12.73 689 142.094 650.067 476.607
1782 0 54.2442 13.1996 716 123.27 651.458 472.87
1783 0 56.2709 11.8178 665 121.331 652.561 464.974
1784 0 56.0326 12.4213 696 114.187 652.41 470.134
1785 0 57.1536 9.6057 549 117.131 650.667 472.226
1786 0 60.1713 14.1097 849 112.895 651.722 464.923
1787 0 61.1874 14.8397 908 112.435 652.86 460.747
1788 0 64.0855 13.0919 839 114.077 651.895 461.551
1789 0 65.2987 11.5163 752 117.936 651.527 454.165
1790 0 68.0335 15.5218 1056 111.787 653.082 456.19
1791 0 68.1388 13.1203 894 116.143 651.881 454.96
1792 0 73.2713 14.0573 1030 113.516 653.073 451.314
1793 0 75.1826 15.6818 1179 110.483 653.035 455.008
1794 0 76.1918 11.1429 849 118.633 655.058 449.239
1795 0 79.1993 14.3183 1134 113.868 656.251 446.948
1796 0 82.213 12.1878 1002 115.772 655.712 448.611
1797 0 86.2049 13.3519 1151 114.766 655.868 444.923
1798 0 89.2735 15.3237 1368 112.602 657.202 441.361
1799 1 47.4196 13.4965 640 109.672 657.045 466.909
1800 0 50.2887 11.6726 587 113.012 657.051 461.893
1801 0 49.1973 12.1348 597 117.791 658.219 465.839
1802 0 51.2103 17.2036 881 107.72 657.98 465.031
1803 0 53.1041 12.3531 656 110.774 658.344 469.825
1804 0 54.1394 10.3806 562 114.053 657.334 469.44
1805 0 58.0972 11.2398 653 113.423 657.208 470.567
1806 0 59.1082 14.6172 864 116.188 658.324 469.669
1807 0 60.0525 13.2218 794 117.312 657.539 471.157
1808 0 57.0705 11.2142 640 122.788 657.183 467.639
1809 0 61.0949 14.0601 859 114.875 657.291 473.043
1810 0 66.1223 13.8078 913 118.141 656.784 471.598
1811 0 73.1788 12.8043 937 118.872 656.753 468.735
1812 0 73.2619 15.1238 1108 115.432 655.571 468.818
1813 0 76.1398 16.5748 1262 114.957 656.041 466.973
1814 0 81.1552 16.9305 1374 113.642 655.645 467.861
1815 0 79.1425 13.3809 1059 121.309 654.262 464.805
1816 0 84.1032 22.187 1866 105.316 654.494 471.155
1817 0 85.1239 14.9664 1274 119.027 652.502 462.944
1818 1 49.1448 14.5895 717 113.707 652.19 481.704
1819 0 48.0316 12.3669 594 118.02 651.135 481.409
1820 0 46.0782 12.3052 567 118.605 651.667 478.785
1821 0 49.065 13.3089 653 117.904 650.115 478.606
1822 0 50.0758 12.3613 619 118.538 651.682 479.847
1823 0 51.0927 12.4871 638 117.823 650.334 479.296
1824 0 53.1607 15.3873 818 114.128 649.361 477.016
1825 0 53.166 14.3889 765 116.74 649.244 474.461
1826 0 53.179 13.3135 708 118.171 650.562 473.944
1827 0 55.2904 18.231 1008 111.099 650.455 470.519
1828 0 59.2989 15.1436 898 115.121 649.403 469.59
1829 0 61.4606 13.7324 844 116.992 649.708 469.358
1830 0 62.1866 14.4083 896 117.086 650.78 467.086
1831 0 64.2581 14.4573 929 117.325 651.563 464.207
1832 0 64.2777 12.2126 785 120.957 651.162 460.668
1833 0 70.3432 13.3631 940 117.464 652.486 461.582
1834 0 70.2712 15.2125 1069 116.328 652.338 456.839
1835 0 74.3469 14.1768 1054 117.107 652.013 456.747
1836 0 74.3469 14.2037 1056 138.056 653.025 456.67
1837 1 39.079 10.6451 416 122.952 652.274 470.349
1838 0 42.1921 11.4951 485 121.233 654.45 468.911
1839 0 44.0767 12.2514 540 119.891 654.696 469.117
1840 0 46.1228 16.3477 754 112.403 655.029 470.736
1841 0 45.0919 12.663 571 118.277 654.173 467.315
1842 0 48.1101 17.6262 848 105.078 656.127 472.415
1843 0 48.1807 14.8815 717 110.915 656.6 468.417
1844 0 49.28 15.483 763 110.526 657.904 468.616
1845 0 52.0366 14.9894 780 109.127 656.673 472.365
1846 0 48.1112 12.6374 608 115.242 657.857 469.669
1847 0 55.113 17.6909 975 106.276 657.744 470.791
1848 0 55.3457 13.4608 745 114.126 658.064 469.915
1849 0 55.2923 17.2899 956 109.367 657.234 470.082
1850 0 60.3166 15.4186 930 110.29 657.938 470.198
1851 0 59.1731 11.3058 669 116.795 657.549 471.9
1852 0 63.2193 16.2925 1030 109.547 657.476 467.225
1853 0 63.2193 16.2925 1030 118.752 657.476 467.225
1854 0 67.1871 12.041 809 115.845 656.167 467.823
1855 0 69.571 14.5463 1012 112.331 656.931 470.766
1856 0 73.2124 13.9594 1022 113.199 655.878 467.291
1857 0 78.2521 12.9837 1016 113.944 654.805 465.351
1858 0 77.2336 13.9447 1077 113.241 654.883 467.653
1859 1 47.586 12.1254 577 113.638 655.494 480.555
1860 0 45.2416 11.9138 539 114.206 653.792 474.325
1861 0 47.2791 15.123 715 107.901 653.704 474.736
1862 0 46.1153 13.141 606 111.884 652.061 475.063
1863 0 49.2293 13.3051 655 110.504 651.617 474.386
1864 0 51.1522 11.9447 611 113.779 650.165 471.656
1865 0 52.1145 14.1611 738 109.531 649.385 470.501
1866 0 54.2092 14.2596 773 110.571 650.352 469.884
1867 0 58.1038 16.7631 974 106.408 649.99 469.329
1868 0 57.4274 12.6072 724 114.478 649.537 465.119
1869 0 61.1302 13.0377 797 112.647 649.614 466.378
1870 0 63.1826 15.479 978 110.218 649.164 463.63
1871 0 64.1718 13.682 878 113.615 649.788 462.829
1872 0 65.1448 12.9557 844 115.621 649.154 460.201
1873 0 68.2486 15.9857 1091 111.648 649.555 458.077
1874 0 69.1095 13.1241 907 116.454 650.159 459.163
1875 0 73.0949 15.0626 1101 114.381 650.646 455.003
1876 0 76.1408 13.9478 1062 115.973 649.883 455.728
1877 0 77.0707 14.5581 1122 115.683 651.116 448.586
1878 0 79.2249 12.8116 1015 119.515 651.713 447.652
1879 0 84.2448 13.1878 1111 118.622 651.494 445.365
1881 0 85.1048 13.5598 1154 119.414 652.768 444.906
1882 1 46.2135 10.0836 466 115.464 654.592 467.157
1883 0 46.3982 9.87107 458 118.341 656.004 465.181
1884 0 47.1876 13.3298 629 115.99 654.684 464.256
1885 0 50.1455 14.3981 722 113.026 654.885 464.774
1886 0 50.0876 11.7195 587 116.45 655.646 466.75
1887 0 50.0261 12.5534 628 119.841 657.202 462.377
1888 0 60.3471 16.7531 1011 110.136 656.861 462.311
1889 0 58.0519 13.6774 794 116.636 657.996 462.491
1890 0 61.0519 14.3321 875 114.382 658.253 463.031
1891 0 60.0532 12.6721 761 119.51 658.995 459.899
1892 0 60.1927 12.7922 770 120.965 657.516 462.96
1893 0 69.1985 14.8992 1031 114.243 660.055 465.204
1894 0 69.2151 15.7624 1091 114.117 658.326 463.973
1895 0 74.1702 15.0734 1118 114.193 658.917 467.303
1896 0 78.2207 14.2162 1112 115.928 657.867 465.452
1897 0 79.1873 15.6212 1237 113.709 659.071 466.218
1898 0 80.2774 12.4444 999 120.445 657.891 462.762
1899 0 87.5642 14.0925 1234 116.544 658.186 463.983
1900 0 88.1913 13.7542 1213 117.111 657.305 466.169
1901 1 48.1526 12.2112 588 117.277 657.061 483.248
1902 0 45.0392 14.2321 641 114.128 657.009 484.034
1903 0 49.2232 12.7379 627 117.215 653.671 478.196
1904 0 49.0668 13.8587 680 114.616 654.585 482.059
1905 0 49.1033 12.5043 614 117.866 653.464 478.251
1906 0 52.171 12.0182 627 118.635 653.447 475.046
1907 0 54.1545 11.5226 624 119.46 653.245 477.346
1908 0 58.1389 12.4013 721 117.767 652.248 473.33
1909 0 59.1545 12.8477 760 118.359 651.783 471.064
1910 0 61.1814 15.3968 942 114.213 652.438 470.487
1911 0 63.2087 12.0869 764 120.788 651.493 467.315
1912 0 65.1266 13.9881 911 118.514 651.68 464.277
1913 0 68.2747 13.6507 932 118.759 651.043 465.218
1914 0 67.1246 12.9312 868 121.677 652.237 464.63
1915 0 69.203 11.9359 826 122.883 652.176 460.818
1916 0 71.152 14.7993 1053 119.487 652.963 459.921
1917 0 74.0919 14.671 1087 120.472 651.564 456.244
1918 0 78.1369 12.1965 953 124.549 652.23 456.207
1919 0 78.153 13.0513 1020 124.925 651.991 454.126
1920 0 82.1209 13.3096 1093 125.702 652.769 450.176
1921 0 84.0501 11.6954 983 127.527 653.256 454.086
1922 0 90.1586 14.0086 1263 125.221 653.997 446.781
1923 0 90.2304 11.5039 1038 129.455 653.886 446.671
1924 1 50.0422 11.9699 599 124.202 657.063 465.129
1925 0 50.0777 13.8784 695 121.035 657.417 464.226
1926 0 48.3052 11.0547 534 119.67 656.079 463.058
1927 0 53.2043 11.9539 636 120.802 657.86 465.093
1928 0 52.131 12.6988 662 121.302 658.736 463.204
1929 0 57.111 12.7646 729 120.516 659.284 461.588
1930 0 56.1611 12.3573 694 122.559 659.588 460.648
1931 0 58.046 13.317 773 120.396 658.841 458.458
1932 0 60.185 12.1126 729 120.557 660.28 463.317
1933 0 64.0855 12.733 816 120.838 660.806 460.279
1934 0 67.3233 12.9821 874 119.398 659.835 462.24
1935 0 68.2761 13.8409 945 119.19 659.411 459.45
1936 0 70.2328 12.8145 900 120.912 659.587 460.083
1937 0 72.2921 14.1509 1023 119.071 658.718 463.494
1938 0 75.3658 14.622 1102 119.477 658.327 461.173
1939 0 81.1828 13.9808 1135 118.949 658.609 461.781
1940 0 81.2736 11.9719 973 125.001 657.298 460.314
1941 0 86.311 16.0814 1388 117.342 659.074 461.264
1942 0 86.311 16.0466 1385 141.448 661.057 460.991
1943 0 92.2641 13.2879 1226 123.579 657.667 457.84
1944 0 94.2718 12.9307 1219 124.575 656.87 459.463
1945 1 49.1355 12.1501 597 117.906 652.62 480.166
1946 0 51.1865 9.37747 480 121.388 652.383 478.992
1947 0 55.4006 12.6894 703 118.378 651.738 475.932
1948 0 56.1194 15.5739 874 113.579 650.928 474.068
1949 0 57.0731 16.2774 929 113.589 650.786 474.003
1950 0 57.1443 13.3697 764 120.703 651.937 472.005
1951 0 59.1225 12.009 710 122.138 651.521 472.265
1952 0 62.1986 11.5758 720 122.732 651.382 472.349
1953 0 65.2943 14.3657 938 117.432 651.254 469.338
1954 0 68.1556 15.6994 1070 115.056 652.052 469.402
1955 0 70.1636 14.4092 1011 118.302 650.228 465.588
1956 0 73.224 14.3805 1053 118.292 649.719 464.755
1957 0 72.2003 13.0055 939 121.897 650.447 460.28
1958 0 74.2514 11.2052 832 125.078 651.311 459.536
1959 0 79.1335 15.1011 1195 117.644 651.657 457.341
1960 0 80.2034 12.8673 1032 123.799 651.723 454.549
1961 0 84.3298 13.9334 1175 121.416 651.486 453.349
1962 0 91.3106 14.8285 1354 119.115 652.424 451.809
1963 1 44.112 10.8361 478 126.979 653.153 470.412
1964 0 48.0843 12.2909 591 120.88 653.284 471.535
1965 0 51.1249 13.1443 672 120.007 655.807 467.164
1966 0 51.0647 14.5697 744 117.234 655.668 465.237
1967 0 51.0591 13.1612 672 120.134 655.833 467.615
1968 0 54.086 13.6634 739 115.957 656.654 468.742
1969 0 53.2191 13.6605 727 120.039 657.294 464.646
1970 0 56.1599 14.6368 822 115.898 658.046 469.249
1971 0 56.2148 12.2921 691 121.408 655.865 466.592
1972 0 58.1512 12.0376 700 123.167 656.164 462.414
1973 0 60.1282 13.6209 819 119.778 655.775 465.286
1974 0 63.4016 13.8167 876 119.334 655.775 461.767
1975 0 65.2133 8.64854 564 126.117 655.931 467.02
1976 0 67.1351 12.3482 829 120.334 656.998 464.507
1977 0 72.308 12.4882 903 117.876 656.672 466.265
1978 0 72.0824 8.96197 646 125.455 657.563 464.644
1979 0 79.4866 13.8891 1104 116.23 657.121 464.572
1980 0 78.1128 11.7522 918 121.597 657.736 460.085
1981 0 82.215 12.6498 1040 118.874 656.335 461.447
1982 0 86.1466 11.492 990 119.724 657.021 460.189
1983 0 91.2976 14.3158 1307 118.301 655.543 458.172
1984 1 46.0372 15.053 693 115.312 655.273 479.804
1985 0 50.0678 11.7041 586 118.703 654.024 479.829
1986 0 50.0408 12.9494 648 118.574 654.653 477.918
1987 0 53.0665 14.6986 780 114.822 652.064 477.717
1988 0 53.2397 12.4343 662 119.505 653.361 478.956
1989 0 55.1686 13.8485 764 116.949 651.446 476.437
1990 0 58.1294 15.1902 883 113.528 652.472 477.984
1991 0 58.169 14.1141 821 115.27 651.912 477.449
1992 0 60.1268 15.0349 904 115.881 651.521 473.937
1993 0 62.1429 16.0919 1000 114.617 651.096 470.774
1994 0 63.1913 16.3788 1035 114.9 651.508 468.606
1995 0 65.0768 15.0899 982 116.993 649.091 469.273
1996 0 68.2287 16.4007 1119 115.224 649.928 465.311
1997 0 69.155 13.8819 960 119.105 648.627 469.917
1998 0 71.1 15.9494 1134 118.377 650.501 462.854
1999 0 73.1803 17.1768 1257 116.107 649.774 463.302
2000 0 73.1803 17.2861 1265 130.47 648.793 463.341
2001 0 81.4664 18.9649 1545 111.056 647.649 459.423
2002 0 77.123 15.1706 1170 120.16 649.26 456.865
2003 0 81.3534 14.9594 1217 121.099 648.735 454.892
2004 0 84.0916 14.6507 1232 125.498 651.635 453.498
2005 0 87.1244 15.1967 1324 124.739 651.251 449.792
2006 0 88.1278 13.1968 1163 128.918 650.462 439.792
2007 0 94.2028 15.9125 1499 123.213 652.244 436.3
2008 0 97.132 12.8485 1248 128.038 651.94 441.275
2009 0 96.2115 11.8073 1136 131.021 652.906 442.414
2010 0 101.152 15.8771 1606 124.169 654.324 436.413
2011 0 104.238 13.6706 1425 128.607 654.708 438.62
2012 0 108.305 14.2652 1545 127.937 654.512 435.785
2013 0 113.393 19.9395 2261 116.904 654.892 438.715
2014 0 116.342 14.3542 1670 127.071 655.871 432.402
2015 0 120.318 13.5308 1628 125.931 656.501 434.232
2016 1 62.2827 14.948 931 119.126 657.608 463.273
2017 0 67.1381 13.1371 882 121.596 657.844 460.816
2018 0 66.2548 14.6405 970 117.957 657.758 462.607
2019 0 70.2162 15.0962 1060 117.134 658.317 461.814
2020 0 73.1719 12.8738 942 120.154 658.332 462.849
2021 0 76.2355 13.537 1032 119.557 657.525 461.834
2022 0 79.4358 16.1262 1281 115.295 658.014 462.688
2023 0 82.2669 15.4619 1272 116.537 658.016 456.157
2024 0 84.306 13.1545 1109 119.884 657.394 463.372
2025 0 86.4015 16.2844 1407 115.851 656.373 459.977
2026 0 88.2933 14.0101 1237 120.103 657.082 459.149
2027 0 90.3701 13.9648 1262 120.428 655.23 458.882
2028 0 93.3104 15.0037 1400 119.004 656.877 454.91
2029 0 97.3952 17.3314 1688 114.696 655.521 454.77
2030 0 99.1898 15.2637 1514 117.602 654.66 458.88
2031 0 106.339 15.6763 1667 116.028 654.14 456.687
2032 0 110.151 16.0962 1773 115.975 653.18 452.631
2033 0 115.256 13.6045 1568 119.91 653.278 450.888
2034 1 62.0718 12.3083 764 118.859 652.373 475.631
2035 0 63.1662 13.8207 873 118.691 651.044 470.179
2036 0 68.3291 15.0741 1030 116.858 650.658 468.131
2037 0 64.1454 13.1732 845 123.898 650.337 464.387
2038 0 71.2044 16.3333 1163 117.403 649.677 465.576
2039 0 71.0709 15.576 1107 120.655 649.341 467.189
2040 0 73.1389 17.5283 1282 118.321 648.543 464.233
2041 0 76.4033 16.6878 1275 120.046 649.113 458.306
2042 0 75.1839 13.886 1044 126.142 649.392 456.986
2043 0 80.34 15.1232 1215 123.487 649.183 456.208
2044 0 82.163 15.9683 1312 122.286 649.344 454.411
2045 0 84.1192 15.4543 1300 124.12 648.995 450.535
2046 0 86.1313 15.7666 1358 123.482 649.164 449.744
2047 0 88.1789 16.3304 1440 122.581 649.84 449.883
2048 0 92.089 16.5601 1525 122.013 649.441 446.571
2049 0 95.0494 15.6234 1485 124.36 652.455 441.824
2050 0 100.239 15.6127 1565 123.322 651.63 443.819
2051 1 53.0341 13.7836 731 125.926 652.848 463.438
2052 0 57.1915 12.9565 741 125.714 654.989 463.395
2053 0 55.1242 14.168 781 121.134 653.607 458.969
2054 0 60.2129 13.5851 818 121.494 654.615 457.627
2055 0 61.0474 13.1046 800 121.139 658.508 457.758
2056 0 61.0474 13.2028 806 142.816 660.495 457.702
2057 0 61.0547 10.9246 667 122.372 658.438 457.01
2058 0 69.1248 13.2948 919 116.239 658.396 455.387
2059 0 70.1046 11.2974 792 118.511 658.855 458.424
2060 0 74.1975 12.3993 920 118.961 658.17 463.352
2061 0 75.1187 13.9912 1051 119.278 658.246 459.46
2062 0 77.2465 13.7352 1061 120.584 656.879 456.491
2063 0 81.3255 13.0832 1064 120.947 656.796 458.203
2064 0 83.3682 17.0808 1424 114.331 657.584 459.776
2065 0 88.1535 14.35 1265 118.425 657.892 455.507
2066 0 91.2966 13.0892 1195 121.912 658.388 455.552
2067 0 93.3082 11.9068 1111 124.771 657.22 454.885
2068 0 97.2815 13.5894 1322 122.793 658.116 451.237
2069 0 101.396 16.0361 1626 118.38 657.239 450.897
2070 1 53.0898 10.6612 566 124.684 655.779 476.458
2071 0 53.1625 10.1763 541 127.322 655.527 474.939
2072 0 53.1589 10.2523 545 137.587 654.552 474.818
2073 0 59.114 15.8 934 117.165 654.86 475.606
2074 0 61.0774 12.4596 761 123.933 653.523 473.11
2075 0 64.1428 13.3608 857 122.91 652.364 471.295
2076 0 65.1555 14.0126 913 122.608 650.84 467.915
2077 0 68.127 14.106 961 122.172 650.337 466.045
2078 0 69.1368 14.9703 1035 120.287 649.594 466.822
2079 0 73.1618 14.0237 1026 121.439 649.832 465.306
2080 0 76.0778 15.9836 1216 118.843 651.187 459.782
2081 0 79.0515 14.3198 1132 121.25 651.754 459.858
2082 0 82.0769 14.9372 1226 120.338 652.11 456.16
2083 0 85.0821 15.7965 1344 118.891 650.737 455.906
2084 0 87.1695 17.0817 1489 117.132 652.182 454.861
2085 0 89.2936 15.3986 1375 120.449 651.266 451.709
2086 1 47.1497 12.5133 590 125.037 652.2 473.192
2087 0 48.0251 13.5762 652 123.676 652.386 470.294
2088 0 48.1083 10.9337 526 129.479 652.167 468.798
2089 0 50.0395 13.929 697 122.656 651.789 467.02
2090 0 51.116 13.8117 706 124.678 653.071 463.94
2091 0 52.2203 13.5579 708 126.274 651.802 467.14
2092 0 52.1324 11.7969 615 131.915 651.958 462.823
2093 0 56.0639 13.0565 732 127.582 651.915 463.317
2094 0 56.1832 13.5984 764 124.666 651.819 459.495
2095 0 59.273 14.526 861 123.197 653.302 455.287
2096 0 64.1634 13.1227 842 124.461 654.405 458.475
2097 0 63.2824 14.0165 887 124.299 653.733 457.44
2098 0 65.2757 16.8516 1100 119.637 656.913 459.473
2099 0 67.2328 13.9069 935 124.812 657.51 457.345
2100 0 69.2824 18.0998 1254 116.971 658.561 460.293
2101 0 71.188 13.5135 962 125.682 659.328 456.805
2102 0 72.2973 16.1002 1164 122.296 659.101 457.921
2103 0 76.0613 18.8532 1434 117.793 659.832 457.112
2104 0 78.1726 16.9752 1327 121.152 659.809 453.9
2105 0 79.1437 15.2886 1210 124.266 659.802 458.855
2106 0 82.1535 14.1443 1162 126.667 660.849 456.398
2107 0 85.1693 13.3734 1139 128.309 658.929 457.478
2108 0 91.296 16.3753 1495 121.598 658.672 458.734
2109 0 89.3007 13.3258 1190 129.366 658.603 457.2
2110 0 97.475 15.327 1494 124.056 657.331 455.374
2111 1 52.2295 9.74544 509 131.876 658.363 475.285
2112 0 55.2304 13.4165 741 123.838 657.04 475.152
2113 0 58.1819 14.85 864 123.184 657.491 479.277
2114 0 58.1244 14.3485 834 127.158 655.905 475.331
2115 0 59.1938 14.7144 871 127.843 655.08 471.459
2116 0 65.4502 17.4178 1140 120.97 653.391 472.748
2117 0 66.3591 14.7229 977 126.954 652.442 471.235
2118 0 69.2511 15.3933 1066 124.925 653.171 469.844
2119 0 72.3352 18.4557 1335 119.715 652.947 466.151
2120 0 74.38 15.5956 1160 124.53 652.89 464.8
2121 0 77.4907 18.7377 1452 117.417 651.143 467.602
2122 0 78.4957 12.867 1010 130.749 650.689 462.86
2123 0 82.4755 16.7444 1381 122.783 650.865 459.502
2124 0 83.3165 12.7106 1059 130.304 650.764 457.071
2125 0 86.567 13.065 1131 130.08 651.437 456.183
2126 0 89.3307 14.8101 1323 125.983 651.334 455.678
2127 0 91.5186 13.7677 1260 128.581 650.204 449.814
2128 0 93.3338 13.8106 1289 128.598 651.902 446.358
2129 0 97.2298 17.217 1674 121.934 649.616 449.447
2130 0 99.4261 12.9342 1286 129.18 650.995 446.778
2131 1 55.3023 11.6089 642 128.316 650.687 467.157
2132 0 56.3794 13.0544 736 127.037 649.662 463.228
2133 0 59.1445 12.9006 763 127.22 651.963 463.384
2134 0 61.1295 15.4263 943 121.017 652.063 463.531
2135 0 64.2068 14.1106 906 123.905 652.513 459.944
2136 0 64.1618 15.0245 964 121.719 652.51 461.68
2137 0 66.2755 14.7113 975 122.983 653.676 457.622
2138 0 69.1088 13.6017 940 124.01 653.99 456.219
2139 0 70.277 13.8025 970 122.99 654.679 455.639
2140 0 72.3489 12.4674 902 120.888 656.215 454.369
2141 0 72.3489 12.4259 899 129.651 657.211 454.248
2142 0 78.3872 14.5432 1140 117.282 656.182 454.088
2143 0 81.1951 13.4491 1092 119.62 656.03 452.855
2144 0 83.2156 14.5766 1213 119.702 656.773 447.528
2145 0 85.1851 12.7839 1089 122.052 658.21 450.721
2146 0 87.3011 10.5955 925 125.926 657.169 452.689
2147 0 93.3342 15.1284 1412 119.409 659.685 450.389
2148 0 96.2472 15.294 1472 119.198 659.454 446.607
2149 0 100.307 13.9572 1400 121.73 659.47 445.58
2150 0 103.279 13.2941 1373 121.714 659.026 450.161
2151 0 107.272 14.9247 1601 120.187 657.533 445.156
2152 0 113.347 12.8102 1452 123.077 658.202 448.8
2153 0 114.139 14.6225 1669 121.783 659.382 449.587
2154 0 121.376 12.7455 1547 129.493 657.871 446.341
2155 1 66.1623 15.2655 1010 121.209 657.026 474.304
2156 0 68.2381 12.3978 846 127.009 655.95 470.928
2157 0 73.3661 15.9202 1168 119.86 654.473 470.156
2158 0 71.3509 12.1512 867 127.74 651.776 468.355
2159 0 71.3509 12.0671 861 150.786 649.758 468.317
2160 0 80.3575 15.319 1231 123.589 650.813 465.091
2161 0 83.2128 15.4544 1286 122.456 651.42 467.152
2162 0 85.2543 14.0169 1195 126.805 650.79 462.299
2163 0 87.2471 15.4733 1350 124.789 650.733 457.759
2164 0 92.283 16.6878 1540 120.794 650.357 456.945
2165 0 96.3297 16.3605 1576 121.339 649.386 455.798
2166 0 97.2218 17.4447 1696 120.186 650.03 454.012
2167 1 56.2455 16.8014 945 115.216 650.054 477.07
2168 0 55.0282 15.4103 848 120.046 649.004 473.592
2169 0 54.1977 12.6574 686 126.475 649.88 466.641
2170 0 56.0828 12.4816 700 119.903 649.803 465.23
2171 0 58.0598 12.6077 732 115.672 650.224 463.82
2172 0 60.1166 14.9709 900 111.053 650.504 464.862
2173 0 60.1166 14.9543 899 120.621 650.496 464.868
2174 0 64.1344 15.4831 993 110.27 651.216 462.725
2175 0 66.1579 12.6969 840 118.237 651.279 459.612
2176 0 68.1275 15.9407 1086 113.882 650.398 455.563
2177 0 67.2802 13.5107 909 118.08 651.007 454.452
2178 0 67.15 10.4989 705 122.935 651.281 453.377
2179 0 72.0867 13.4005 966 116.999 652.827 455.836
2180 0 75.1113 16.1627 1214 113.238 653.863 450.218
2181 0 76.0722 12.8825 980 117.72 654.345 454.046
2182 0 79.2181 13.6837 1084 117.403 654.739 451.264
2183 0 88.2347 14.1101 1245 115.096 655.805 452.285
2184 0 89.1719 13.8833 1238 116.805 655.158 448.46
2185 0 87.103 12.8354 1118 120.767 655.308 447.07
2186 0 93.1271 13.9809 1302 117.899 656.293 447.05
2187 0 95.0839 16.8272 1600 113.519 656.555 445.718
2188 0 96.2411 16.3651 1575 115.013 657.975 441.747
2189 1 53.0493 12.5544 666 113.892 659.089 470.206
2190 0 56.3026 16.4113 924 113.239 657.409 469.371
2191 0 57.182 15.984 914 115.553 657.012 470.818
2192 0 58.1528 16.2331 944 116.07 656.2 469.811
2193 0 63.1107 14.9579 944 116.998 656.95 472.05
2194 0 64.0796 11.829 758 122.224 657.302 473.869
2195 0 65.0984 14.1017 918 120.666 655.807 471.503
2196 0 70.0937 16.5065 1157 115.495 655.94 468.917
2197 0 72.1802 15.9323 1150 116.951 656.114 469.803
2198 0 76.1588 17.6473 1344 114.157 655.644 469.837
2199 0 73.2149 12.238 896 125.61 655.011 470.89
2200 0 82.2546 16.145 1328 118.623 653.661 464.945
2201 0 85.1663 14.9355 1272 120.297 653.858 465.136
2202 0 87.1801 19.821 1728 113.264 651.55 462.152
2203 0 90.1596 16.6704 1503 119.101 651.082 460.758
2204 0 93.1027 16.7342 1558 119.641 651.79 460.505
2205 0 95.1469 18.1719 1729 117.233 651.79 457.158
2206 0 96.1163 14.3784 1382 124.582 650.438 455.187
2207 0 102.15 17.6016 1798 119.061 650.107 451.697
2208 1 56.1121 13.5265 759 128.704 649.119 475.783
2209 0 56.17 13.744 772 130.925 649.174 472.119
2210 0 58.1457 11.6432 677 129.083 648.883 469.975
2211 0 59.0946 14.6206 864 122.719 648.576 465.75
2212 0 61.1211 14.0868 861 125.9 649.996 465.79
2213 0 64.0819 15.4802 992 122.492 648.814 464.261
2214 0 63.0996 12.3931 782 129.104 649.175 463.964
2215 0 68.1503 14.1746 966 125.808 648.671 460.774
2216 0 68.1503 14.1892 967 159.632 647.673 460.689
2217 0 72.1024 16.2269 1170 122.482 648.742 457.149
2218 0 75.0791 16.6225 1248 122.558 650.349 453.06
2219 0 79.1823 16.2789 1289 122.707 650.201 453.969
2220 0 80.1119 14.8917 1193 126.457 651.853 451.091
2221 0 85.0737 21.7693 1852 111.711 653.066 455.326
2222 0 87.0909 17.0052 1481 122.226 651.924 446.841
2223 1 45.0612 10.4081 469 128.313 653.026 467.64
2224 0 47.1167 14.0927 664 123.625 654.128 466.383
2225 0 46.0731 12.9577 597 127.742 655.508 464.384
2226 0 48.1365 13.2332 637 126.314 655.108 466.84
2227 0 52.1907 14.8302 774 122.895 656.43 463.149
2228 0 49.2118 14.4681 712 125.164 655.53 464.951
2229 0 53.2684 14.6991 783 124.128 657.55 464.132
2230 0 56.1622 14.2266 799 125.247 657.914 463.905
2231 0 57.1857 15.2136 870 122.906 658.736 466.08
2232 0 58.264 14.1768 826 126.213 658.649 464.223
2233 0 63.1368 15.2051 960 122.399 658.292 464.881
2234 0 64.1826 15.7831 1013 121.991 659.505 464.386
2235 0 67.1906 15.4932 1041 122.7 659.203 465.327
2236 0 66.1372 15.6795 1037 123.771 658.887 466.017
2237 0 71.1416 16.0525 1142 121.943 658.328 466.122
2238 0 72.1379 14.7772 1066 124.667 655.515 466.052
2239 0 75.1996 17.8857 1345 119.514 657.233 465.474
2240 0 79.2237 19.1736 1519 117.473 656.124 464.259
2241 0 83.2682 16.561 1379 121.508 655.764 463.448
2242 0 85.2234 13.494 1150 126.887 653.994 466.14
2243 0 89.2509 16.7841 1498 121.994 654.822 460.226
2244 1 47.1996 10.7628 508 130.325 652.079 477.722
2245 0 48.2637 10.0282 484 131.374 652.63 477.996
2246 0 51.1669 12.1172 620 129.992 651.608 474.594
2247 0 52.1847 14.7553 770 128.484 652.384 472.352
2248 0 54.0458 14.8208 801 127.588 652.534 470.709
2249 0 55.0815 14.3061 788 126.98 650.344 471.786
2250 0 60.1461 13.5005 812 127.562 651.342 467.381
2251 0 59.1931 12.4677 738 130.381 651.304 465.992
2252 0 62.3514 16.2947 1016 129.319 649.634 466.124
2253 0 64.1401 18.3193 1175 124.169 649.569 467.404
2254 0 65.0832 17.2548 1123 127.507 648.313 464.576
2255 0 67.1637 15.3059 1028 131.921 648.838 460.13
2256 0 69.2276 16.3518 1132 128.466 650.174 462.079
2257 0 73.2722 16.5547 1213 127.234 650.75 458.499
2258 0 72.2492 15.751 1138 130.221 651.83 454.547
2259 0 75.4095 14.9451 1127 130.945 651.907 455.391
2260 0 76.11 15.0834 1148 132.728 651.891 450.678
2261 0 78.2823 14.2816 1118 134.324 653.117 449.562
2262 0 81.2282 14.1946 1153 135.233 652.172 447.992
2263 0 83.5374 13.6945 1144 136.241 653.689 446.296
2264 0 83.5374 13.6226 1138 153.735 655.682 446.337
2265 0 89.5821 15.9295 1427 130.247 654.558 446.812
2266 0 91.3741 14.9714 1368 133.103 655.387 443.298
2267 0 92.2706 15.9206 1469 131.921 654.442 442.227
2268 0 94.303 15.7895 1489 132.173 654.495 443.397
2269 0 99.4113 16.0948 1600 131.289 656.521 443.042
2270 0 99.4113 15.9841 1589 155.054 658.512 443.041
2271 0 104.269 14.8367 1547 135.202 656.582 440.609
2272 0 108.335 16.449 1782 129.515 659.018 432.802
2273 0 108.342 16.4479 1782 146.561 660.018 432.802
2274 0 108.312 16.4432 1781 146.076 661.02 432.83
2275 1 65.0785 11.7858 767 121.581 660.014 455.529
2276 0 71.1415 13.5786 966 122.845 659.539 457.816
2277 0 72.2106 13.1144 947 123.214 658.571 460.542
2278 0 79.2724 14.1159 1119 121.576 660.078 457.128
2279 0 83.3708 15.665 1306 117.318 659.651 458.534
2280 0 85.3026 13.9269 1188 120.374 660.094 457.885
2281 0 88.2522 13.0762 1154 122.036 657.73 458.438
2282 0 91.3845 14.0286 1282 121.251 657.991 453.77
2283 0 94.3452 12.4119 1171 123.573 657.889 456.023
2284 0 97.4355 14.6558 1428 120.253 657.118 447.008
2285 0 103.369 16.3879 1694 116.424 656.486 450.561
2286 0 104.417 12.1436 1268 123.926 655.621 449.688
2287 0 108.486 12.6929 1377 121.432 654.841 445.622
2288 0 113.244 12.1242 1373 123.214 654.641 443.675
2289 1 69.1384 11.6144 803 116.245 654.498 468.504
2290 0 67.1611 12.2094 820 118.278 654.306 463.254
2291 0 69.2453 12.0875 837 119.441 651.3 461.017
2292 0 71.2906 11.3619 810 113.568 653.177 464.212
2293 0 72.1728 10.0315 724 115.177 651.145 462.459
2294 0 75.2557 9.50094 715 116.041 651.326 464.299
2295 0 78.4933 12.052 946 114.022 649.653 460.828
2296 0 78.3506 10.185 798 117.071 650.999 458.093
2297 0 82.5118 10.7863 890 116.29 651.075 455.67
2298 0 85.1283 10.9129 929 116.004 651.053 452.062
2299 0 86.3131 9.55822 825 118 650.891 451.233
2300 0 90.2413 12.245 1105 115.138 651.035 446.393
2301 0 91.2495 14.4001 1314 111.336 651.7 447.066
2302 0 96.3017 12.3778 1192 113.654 651.118 446.655
2303 0 96.3017 12.3466 1189 117.955 650.132 446.888
2304 0 100.392 8.74575 878 117.722 652.612 446.005
2305 0 100.388 8.92537 896 122.131 655.571 445.741
2306 0 107.192 12.2864 1317 112.77 653.34 440.625
2307 1 59.2154 10.4196 617 113.073 653.391 459.77
2308 0 60.0912 7.58846 456 116.3 655.397 463.285
2309 0 60.0912 7.55518 454 114.198 658.434 463.119
2310 0 64.2299 8.1582 524 115.63 654.884 460.544
2311 0 60.26 7.2685 438 117.393 654.916 457.21
2312 0 69.3666 11.4176 792 110.763 655.467 450.631
2313 0 72.1798 8.58966 620 113.31 656.129 457.324
2314 0 69.1725 9.19441 636 114.695 657.094 449.283
2315 0 73.3879 9.85176 723 114.539 657.429 450.943
2316 0 77.3308 12.8021 990 110.665 657.818 451.978
2317 0 85.276 12.1605 1037 110.48 657.131 451.999
2318 0 86.4304 12.3336 1066 111.573 658.408 447.97
2319 0 90.2492 13.1525 1187 109.47 657.419 454.895
2320 0 92.2517 13.6258 1257 110.274 657.2 448.281
2321 0 96.2961 11.7762 1134 114.554 656.969 448.972
2322 1 54.2921 10.1672 552 112.774 655.33 472.174
2323 0 52.1625 11.0808 578 113.839 654.673 468.021
2324 0 56.1131 10.9065 612 112.245 654.812 476.279
2325 0 59.2506 13.215 783 112.174 654.439 471.825
2326 0 60.1586 11.6193 699 120.236 654.126 469.671
2327 0 61.0775 14.2769 872 116.281 653.849 471.644
2328 0 64.1625 12.3437 792 120.005 653.41 471.211
2329 0 67.1061 13.7692 924 118.005 653.088 469.3
2330 0 69.0904 15.4001 1064 116.013 651.357 466.777
2331 0 72.2632 14.032 1014 119.272 650.497 465.014
2332 0 73.1621 12.7662 934 121.08 650.039 466.036
2333 0 77.214 14.6865 1134 117.489 650.408 465.865
2334 0 76.1825 15.8042 1204 118.373 649.581 459.702
2335 0 83.1385 15.4441 1284 116.981 649.403 459.556
2336 0 82.2977 16.4039 1350 117.831 648.552 458.299
2337 0 85.1623 14.854 1265 120.632 648.835 455.632
2338 0 86.1526 14.1493 1219 123.291 649.304 450.625
2339 0 91.2279 13.976 1275 122.553 648.523 450.346
2340 0 93.2898 15.007 1400 121.731 648.699 447.665
2341 1 49.2329 11.5979 571 122.03 648.918 469.837
2342 0 50.2404 11.6241 584 123.346 648.226 466.973
2343 0 54.2271 14.5499 789 116.539 648.665 465.546
2344 0 55.2083 12.8423 709 119.914 649.853 461.216
2345 0 53.149 11.8723 631 122.536 649.868 459.65
2346 0 59.1446 13.3064 787 116.295 650.225 462.437
2347 0 60.2 16.1129 970 111.789 650.158 460.505
2348 0 62.1573 15.4608 961 113.801 651.743 459.61
2349 0 62.0801 16.3821 1017 112.956 651.819 459.734
2350 0 61.1999 12.6634 775 120.425 653.058 457.166
2351 0 64.253 15.0499 967 116.634 653.682 453.464
2352 0 67.198 14.6433 984 117.585 653.788 454.122
2353 0 70.3076 15.2046 1069 114.838 654.95 457.676
2354 0 71.1349 13.7204 976 118.457 655.927 452.8
2355 0 73.1814 13.0907 958 120.439 655.64 452.541
2356 0 76.1244 16.0264 1220 115.968 656.275 453.325
2357 0 77.1828 13.5522 1046 121.639 655.616 451.954
2358 0 83.1398 17.3563 1443 113.305 657.714 453.274
2359 0 85.2103 16.5473 1410 115.844 658.379 447.549
2360 0 87.1284 14.4844 1262 119.578 657.817 452.001
2361 0 90.2959 15.0948 1363 119.366 656.737 452.572
2362 1 51.0506 13.0067 664 118.527 656.529 474.736
2363 0 52.0809 14.4007 750 115.896 655.748 476.721
2364 0 55.2994 13.9061 769 117.484 656.775 473.818
2365 0 55.3769 14.0672 779 117.19 656.561 472.525
2366 0 58.092 17.9887 1045 109.636 655.518 477.068
2367 0 61.1111 14.6618 896 115.426 655.703 473.655
2368 0 63.0968 15.3415 968 114.741 654.768 473.456
2369 0 66.0771 13.2421 875 116.774 652.406 476.423
2370 0 66.1882 13.8847 919 119.187 652.183 472.818
2371 0 69.1666 13.8795 960 118.522 651.695 472.017
2372 0 73.2134 16.1309 1181 115.052 649.683 469.642
2373 0 76.0826 12.4601 948 121.621 650.544 466.191
2374 0 77.2152 12.7436 984 121.478 649.618 463.483
2375 0 81.0636 14.5688 1181 118.878 648.158 460.391
2376 0 84.1662 16.7763 1412 115.172 648.035 458.564
2377 0 86.0951 13.1715 1134 122.076 647.529 457.658
2378 0 90.251 16.9306 1528 115.619 647.48 456.34
2379 0 92.3817 13.7581 1271 125.585 646.648 455.741
2380 1 50.0569 9.4892 475 127.225 647.124 475.051
2381 0 51.0882 13.1341 671 121.779 648.206 472.595
2382 0 54.0685 13.9638 755 113.612 647.379 472.172
2383 0 53.0932 12.2049 648 118.377 646.326 467.093
2384 0 55.2496 13.9368 770 115.235 646.852 465.639
2385 0 59.2922 17.1186 1015 108.445 647.807 466.909
2386 0 60.0607 12.9536 778 116.054 648.103 465.658
2387 0 62.2291 12.9682 807 115.727 649.289 464.551
2388 0 62.2291 12.9361 805 137.829 650.28 464.647
2389 0 65.461 13.9014 910 115.589 649.497 459.954
2390 0 66.153 15.6153 1033 113.471 650.437 457.864
2391 0 67.2293 13.1341 883 117.776 650.694 459.576
2392 0 69.0976 14.5446 1005 116.268 650.856 455.902
2393 0 71.2416 13.0542 930 117.974 652.569 457.458
2394 0 76.0942 17.728 1349 109.205 652.754 457.786
2395 0 77.2019 13.5877 1049 117.808 654.14 455.951
2396 0 80.289 13.2397 1063 117.89 654.092 452.658
2397 0 83.1433 14.9381 1242 114.539 655.397 451.432
2398 0 86.2208 14.3585 1238 115.565 655.745 451.255
2399 0 87.4517 11.6865 1022 121.442 655.936 446.994
2400 1 49.1812 11.0001 541 119.401 655.384 472.092
2401 0 51.2914 10.0212 514 121.714 655.121 469.786
2402 0 52.2683 12.1106 633 119.673 653.945 469.822
2403 0 54.1145 9.96036 539 124.315 656.798 472.403
2404 0 56.0959 10.6247 596 125.198 656.832 474.935
2405 0 59.1708 13.5709 803 120.526 656.704 473.396
2406 0 62.0644 15.5322 964 116.398 655.225 473.493
2407 0 64.0849 14.4808 928 118.363 654.908 473.151
2408 0 66.1402 12.7457 843 121.86 656.612 469.16
2409 0 71.0452 14.6104 1038 116.752 657.503 469.465
2410 0 73.1362 11.0616 809 121.864 655.283 469.859
2411 0 73.1345 12.1967 892 121.39 654.751 467.927
2412 0 80.1297 14.202 1138 115.67 653.202 469.587
2413 0 82.3297 13.8346 1139 117.435 653.305 467.782
2414 0 86.1662 16.3521 1409 113.05 652.611 460.466
2415 0 89.4683 15.1115 1352 114.319 652.626 461.422
2416 0 89.2461 10.3198 921 124.072 651.929 454.911
2417 0 96.1093 12.5066 1202 119.444 651.775 453.987
2418 1 52.1074 10.0178 522 118.793 651.115 473.921
2419 0 58.1549 11.0051 640 114.955 650.173 472.7
2420 0 59.0656 13.9167 822 111.426 650.67 472.012
2421 0 64.3321 10.1038 650 118.002 650.714 470.897
2422 0 61.0624 10.7759 658 115.983 651.641 472.193
2423 0 62.0478 12.6354 784 114.846 651.227 469.111
2424 0 66.1132 12.9929 859 114.673 651.218 466.236
2425 0 66.2208 14.2251 942 114.193 651.176 462.481
2426 0 72.1769 15.0186 1084 111.926 651.225 460.259
2427 0 70.163 12.1146 850 115.292 650.938 463.633
2428 1 140.817 11.3907 1604 118.164 650.572 434.673
2429 0 139.733 12.1732 1701 118.226 651.051 429.907
2430 1 80.2325 12.0525 967 116.564 653.468 452.291
2431 0 84.3538 14.8304 1251 112.559 654.122 451.408
2432 0 84.3538 14.9252 1259 135.477 655.166 451.452
2433 0 86.4154 13.5971 1175 116.181 655.037 442.849
2434 0 90.409 11.2046 1013 119.749 655.208 445.042
2435 1 48.3494 11.3342 548 115.37 654.25 463.825
2436 0 50.5701 16.8677 853 106.927 654.936 465.795
2437 0 52.4422 11.403 598 117.316 655.201 462.452
2438 0 54.2058 12.3419 669 112.306 653.688 464.776
2439 0 56.0707 11.0575 620 114.987 653.792 465.745
2440 0 56.1472 11.5233 647 114.521 655.048 466.049
2441 0 62.0688 16.4978 1024 105.428 654.468 467.968
2442 0 64.1219 16.2659 1043 106.666 654.974 465.222
2443 0 63.1468 14.7909 934 110.082 653.817 466.78
2444 0 66.0486 15.3675 1015 109.66 655.294 469.675
2445 0 69.1136 13.0365 901 113.759 654.13 471.228
2446 0 72.1189 14.7395 1063 111.102 654.975 465.897
2447 0 73.0352 10.0089 731 119.155 654.356 469.364
2448 0 79.1086 13.197 1044 113.982 654.241 464.821
2449 0 83.1218 15.6638 1302 110.128 653.392 467.37
2450 0 86.12 13.876 1195 113.713 653.73 465.422
2451 0 88.1367 13.706 1208 113.594 652.139 464.699
2452 0 88.1367 13.706 1208 131.07 650.125 464.76
2453 1 50.1294 12.3081 617 116.258 650.848 480.969
2454 0 51.0552 14.7683 754 108.228 651.577 481.904
2455 0 54.3225 12.9228 702 111.603 649.808 476.426
2456 0 55.0967 15.8812 875 107.589 647.302 477.141
2457 0 55.099 10.708 590 117.471 646.647 474.441
2458 0 61.0624 18.1781 1110 102.563 646.641 479.062
2459 0 60.129 12.4565 749 114.045 647.461 472.705
2460 0 60.0791 13.682 822 113.384 647.545 470.397
2461 0 60.0588 12.288 738 116.554 647.501 470.656
2462 0 64.0846 19.2714 1235 106.445 648.538 467.307
2463 0 67.1517 21.4887 1443 101.508 648.804 465.814
2464 0 66.1632 10.1718 673 117.59 647.64 468.122
2465 0 69.144 14.7518 1020 110.601 647.776 462.148
2466 0 74.2574 16.9815 1261 106.323 647.877 464.548
2467 0 74.3087 22.568 1677 100.53 648.509 458.351
2468 0 77.2117 14.4538 1116 111.497 648.996 460.633
2469 0 78.1649 16.6443 1301 109.749 649.49 454.458
2470 0 81.2498 18.0677 1468 106.745 649.881 458.845
2471 0 82.2205 18.122 1490 107.866 650.716 455.442
2472 0 86.3548 12.6918 1096 116.828 650.999 451.571
2473 0 90.1758 18.5194 1670 105.596 650.783 459.852
2474 1 49.171 12.2633 603 117.783 651.338 469.794
2475 0 49.0577 12.3936 608 117.123 652.477 469.775
2476 0 50.0511 15.8039 791 110.915 653.478 471.961
2477 0 51.0476 13.4776 688 116.922 654.532 468.635
2478 0 54.2793 19.3628 1051 104.494 654.023 469.828
2479 0 53.4396 12.9866 694 117.921 655.484 463.903
2480 0 57.3404 12.9054 740 111.572 655.395 459.954
2481 0 59.0699 13.3232 787 116.549 655.431 468.653
2482 0 60.2935 13.5836 819 116.386 654.741 467.205
2483 0 64.2882 13.9839 899 114.337 655.127 469.317
2484 0 66.1827 15.8501 1049 113.531 653.2 463.582
2485 0 65.1803 14.6056 952 138.005 651.288 462.438
2486 0 70.2215 12.4321 873 119.995 654.163 466.729
2487 0 73.1946 16.5859 1214 113.32 654.086 467.225
2488 0 75.1229 12.8989 969 120.691 653.111 466.201
2489 0 78.1054 15.7608 1231 116.725 654.364 468.116
2490 0 82.2248 14.205 1168 116.693 653.518 472.559
2491 0 84.2794 14.9028 1256 119.367 652.466 465.709
2492 0 85.2203 12.1215 1033 125.217 653.079 466.614
2493 0 93.2066 14.2157 1325 121.71 652.359 463.536
2494 1 48.1034 9.99929 481 125.775 650.393 485.328
2495 0 48.1034 10.124 487 155.55 648.363 485.46
2496 0 52.3304 13.7587 720 120.404 649.558 477.75
2497 0 53.2136 14.0378 747 119.088 648.95 479.406
2498 0 56.1035 13.8851 779 119.847 648.529 473.936
2499 0 58.0561 14.5204 843 118.858 648.46 473.847
2500 0 59.0963 13.0296 770 122.436 650.404 476.955
2501 0 60.0958 12.0973 727 123.528 648.636 474.501
2502 0 65.1834 14.5896 951 116.935 648.086 469.627
2503 0 67.1929 12.8883 866 120.245 647.803 468.163
2504 0 71.0774 15.4057 1095 115.035 647.767 467.479
2505 0 70.227 12.6874 891 122.046 647.622 462.593
2506 0 74.2331 14.3063 1062 117.88 647.201 464.329
2507 0 75.1585 15.0482 1131 117.684 647.878 461.975
2508 0 78.1945 14.3744 1124 119.786 647.953 455.754
2509 0 81.2771 16.253 1321 116.797 648.631 455.132
2510 0 82.1003 13.0572 1072 122.707 648.533 454.829
2511 0 86.1336 14.2801 1230 119.124 647.665 455.628
2512 0 86.1151 11.3917 981 125.221 648.661 453.852
2513 0 88.2469 13.2016 1165 117.488 652.366 451.147
2514 0 93.2125 17.3582 1618 111.474 653.083 446.86
2515 1 49.1483 9.23734 454 121.267 652.978 464.802
2516 0 52.0258 9.91816 516 125.43 654.465 463.149
2517 0 51.064 11.6325 594 124.423 654.512 460.412
2518 0 55.058 12.9863 715 120.594 655.001 463.929
2519 0 56.1278 11.8836 667 124.663 655.213 461.433
2520 0 60.0631 15.3172 920 124.29 656.326 460.977
2521 0 61.1366 14.6721 897 126.227 656.399 463.963
2522 0 65.1485 14.6281 953 125.205 656.542 463.254
2523 0 68.2228 15.9184 1086 123.531 658.277 463.182
2524 0 69.1053 16.3953 1133 123.35 657.026 464.396
2525 0 72.1039 12.2601 884 132.835 657.736 458.12
2526 0 75.1276 15.1342 1137 125.994 657.886 464.376
2527 0 77.1369 15.103 1165 128.355 655.9 465.228
2528 1 40.1273 10.8654 436 128.651 653.979 485.901
2529 0 45.0441 11.7662 530 129.913 654.062 485.492
2530 0 46.1053 13.9464 643 127.107 654.082 484.687
2531 0 45.2658 13.3213 603 132.355 654.07 481.771
2532 0 47.3638 14.5259 688 123.628 655.356 480.009
2533 0 49.0329 13.9498 684 124.718 654.956 481.156
2534 0 51.2436 13.6017 697 123.879 654.224 481.402
2535 0 52.0482 15.2935 796 121.67 653.039 480.308
2536 0 52.021 13.3215 693 127.867 651.993 475.619
2537 0 54.2157 12.4318 674 129.791 651.777 475.266
2538 0 57.2922 14.1555 811 125.24 650.639 474.917
2539 0 60.2941 13.4839 813 126.059 650.416 474.087
2540 0 61.1956 13.416 821 125.983 650.107 472.705
2541 0 62.2072 15.3037 952 123.775 649.481 468.412
2542 0 63.2855 14.6479 927 126.657 649.415 467.636
2543 0 67.4274 14.1486 954 126.125 648.808 467.277
2544 0 69.2219 14.6341 1013 125.68 648.844 460.992
2545 0 70.3014 13.6413 959 127.522 649.534 462.675
2546 0 74.4173 16.1253 1200 123.999 649.415 458.452
2547 0 76.2311 13.4984 1029 128.741 648.694 458.036
2548 0 78.185 15.3354 1199 123.603 649.372 458.239
2549 0 82.1521 13.0125 1069 128.404 649.592 456.031
2550 0 86.1518 15.4379 1330 124.287 649.129 452.529
2551 1 49.2392 13.5664 668 124.108 649.829 470.284
2552 0 50.2262 11.4084 573 127.482 648.518 470.049
2553 0 52.1922 12.454 650 123.989 650.9 464.317
2554 0 56.2683 20.029 1127 110.264 650.595 467.004
2555 0 57.2753 13.601 779 122.773 652.022 463.051
2556 0 58.1426 14.2408 828 123.087 652.635 464.537
2557 0 60.1944 12.8583 774 125.964 653.528 465.822
2558 0 63.2454 15.5743 985 118.959 653.826 467.371
2559 0 63.1837 14.624 924 122.895 655.364 460.333
2560 0 69.1458 17.022 1177 115.919 655.386 459.684
2561 0 68.1357 16.0562 1094 129.098 655.454 460.887
2562 0 72.1616 15.8256 1142 118.816 654.908 457.615
2563 0 75.1805 17.3848 1307 115.717 654.876 455.917
2564 0 77.2632 12.5286 968 124.347 655.167 461.717
2565 0 80.1657 13.5594 1087 123.428 654.305 457.863
2566 0 82.2085 13.8185 1136 123.321 655.123 456.273
2567 0 88.4902 15.1655 1342 118.116 653.908 461.484
2568 0 89.2672 13.8461 1236 122.162 656.07 456.674
2569 0 93.4219 14.8252 1385 120.092 655.59 455.518
2570 0 98.446 16.0799 1583 117.367 654.128 457.826
2571 0 104.577 18.0059 1883 116.101 654.683 456.687
2572 0 107.569 16.2964 1753 120.355 654.364 449.969
2573 1 58.1496 13.001 756 122.56 652.53 475.94
2574 0 59.2719 13.5815 805 121.404 652.493 476.297
2575 0 62.177 13.3168 828 124.051 651.825 476.281
2576 0 66.1428 14.2117 940 119.844 651.938 475.263
2577 0 68.3573 11.1181 760 123.205 650.75 474.401
2578 0 70.2363 12.1874 856 124.626 650.933 468.054
2579 0 77.458 14.3562 1112 116.947 649.6 468.728
2580 0 77.3378 13.6027 1052 120.583 649.83 463.973
2581 0 81.3934 18.5027 1506 110.697 650.387 462.169
2582 0 84.4181 15.3522 1296 114.593 649.344 462.157
2583 0 87.3754 14.0428 1227 117.756 648.31 458.469
2584 0 89.3182 15.1817 1356 117.417 648.364 457.637
2585 0 92.3219 16.2258 1498 115.101 650.035 458.237
2586 0 93.3678 12.6703 1183 119.907 648.718 451.063
2587 1 49.1057 11.3429 557 116.05 650.262 476.206
2588 0 48.1196 10.8688 523 119.153 648.317 475.396
2589 0 50.0697 13.7608 689 113.57 648.711 475.167
2590 0 52.2492 14.8519 776 112.686 648.232 471.421
2591 0 53.031 11.6913 620 112.034 648.977 469.015
2592 0 56.1129 15.0767 846 108.045 649.274 465.271
2593 0 59.0888 17.516 1035 107.396 649.492 471.427
2594 0 62.1287 17.6086 1094 107.186 649.782 468.989
2595 0 59.1332 14.814 876 135.499 649.786 466.088
2596 0 63.1242 14.7962 934 115.152 650.318 463.597
2597 0 64.2356 13.5283 869 117.954 651.877 462.663
2598 0 66.2216 14.0891 933 117.627 653.142 461.676
2599 0 69.146 16.9496 1172 110.91 653.384 461.37
2600 0 72.1767 14.991 1082 114.899 654.514 460.238
2601 0 74.1041 16.9761 1258 111.137 654.438 461.688
2602 0 83.1889 20.5316 1708 102.953 653.5 456.497
2603 0 81.1206 15.4585 1254 112.852 654.356 455.132
2604 0 81.222 12.2504 995 118.652 654.352 460.042
2605 0 85.1837 14.9559 1274 114.44 654.731 460.056
2606 0 86.128 13.6309 1174 115.588 654.607 457.444
2607 0 91.2524 15.6927 1432 110.368 654.194 457.037
2608 0 91.2524 15.7475 1437 144.542 654.158 457.157
2609 0 97.1997 16.2964 1584 113.169 655.438 456.446
2610 0 100.194 15.0008 1503 113.746 654.518 451.936
2611 0 105.237 13.9589 1469 116.125 655.462 455.703
2612 0 111.152 17.5076 1946 109.325 655.062 446.946
2613 0 113.291 15.3764 1742 114.033 654.289 444.502
2614 0 119.445 16.5348 1975 112.545 653.617 443.885
2615 0 124.405 13.3596 1662 118.019 652.932 442.654
2616 0 128.281 16.729 2146 112.878 651.514 441.227
2617 0 135.383 17.9122 2425 109.648 651.212 439.13
2618 0 135.383 18.0525 2444 138.425 650.234 438.962
2619 1 144.501 12.5466 1813 118.749 649.664 435.492
2620 1 83.3162 13.0227 1085 116.358 649.253 462.713
2621 0 85.2104 13.8833 1183 116.797 650.172 457.346
2622 0 88.1801 14.8673 1311 117.198 649.538 460.609
2623 0 92.3175 14.006 1293 116.29 649.301 460.783
2624 0 97.2383 16.1973 1575 113.584 648.279 454.427
2625 0 98.3484 15.4146 1516 115.812 648.211 452.21
2626 0 103.5 15.1304 1566 115.71 648.932 446.628
2627 0 105.338 13.8411 1458 118.567 647.793 445.695
2628 0 108.231 12.2423 1325 120.039 648.171 444.412
2629 0 113.322 17.0047 1927 112.86 647.329 440.915
2630 0 117.228 12.787 1499 118.942 649.023 439.432
2631 0 121.383 16.5592 2010 113.555 649.166 429.145
2632 0 126.284 16.9855 2145 112.29 649.762 428.725
2633 1 61.0734 13.5411 827 109.977 649.874 460.931
2634 0 64.1318 11.0242 707 110.595 650.337 463.148
2635 0 64.3317 10.7878 694 112.536 649.353 455.086
2636 0 67.3393 14.2562 960 107.384 651.293 456.75
2637 0 70.3982 12.4577 877 109.784 651.343 457.71
2638 0 72.2625 11.306 817 112.318 653.078 459.412
2639 0 75.1591 14.6489 1101 106.742 652.31 456.628
2640 0 77.144 12.7035 980 111.274 654.44 457.181
2641 0 81.2977 12.362 1005 109.81 653.378 457.723
2642 1 105.769 16.6495 1761 103.577 654.92 450.726
2643 0 105.538 14.1465 1493 105.568 655.714 456.896
2644 1 60.2345 20.9846 1264 99.4818 655.669 478.336
2645 0 61.4991 14.0978 867 107.97 655.104 475.167
2646 0 62.4765 16.5662 1035 105.654 655.596 472.313
2647 0 61.2404 10.6466 652 113.581 654.768 476.695
2648 0 64.1817 15.5029 995 107.387 654.26 472.665
2649 0 65.3828 14.0557 919 109.546 654.244 471.065
2650 0 68.6076 10.0718 691 112.941 652.006 474.669
2651 0 71.2594 16.461 1173 105.015 652.135 473.702
2652 0 76.3776 17.4135 1330 101.934 652.475 475.595
2653 0 78.4546 15.7034 1232 106.919 649.186 468.198
2654 0 78.4847 13.7989 1083 110.206 649.071 467.504
2655 0 83.4952 16.995 1419 104.91 648.665 470.629
2656 0 84.2711 15.1179 1274 107.87 648.264 466.043
2657 0 84.3645 13.8447 1168 111.119 647.405 461.458
2658 0 91.5375 15.6876 1436 106.476 647.871 459.047
2659 0 95.4804 14.359 1371 106.263 647.109 465.645
2660 0 95.4804 14.4951 1384 141.033 646.072 465.782
2661 0 100.887 16.226 1637 104.141 646.868 453.731
2662 1 54.3768 15.8707 863 101.935 646.272 474.26
2663 0 56.0356 16.4181 920 103.943 647.69 471.82
2664 0 59.1836 20.1069 1190 100.093 646.628 468.862
2665 0 59.2671 16.0966 954 106.711 645.678 466.475
2666 0 59.0559 21.6067 1276 98.8942 646.029 472.079
2667 0 61.3822 14.6785 901 108.178 646.36 466.351
2668 0 66.1343 16.1792 1070 104.141 646.688 467.993
2669 0 65.1116 18.7985 1224 103.993 646.032 463.097
2670 0 69.1303 16.4472 1137 105.746 648.37 461.256
2671 0 72.6928 18.42 1339 102.766 647.304 455.033
2672 0 73.2813 17.5079 1283 102.299 647.646 450.39
2673 0 72.1258 18.6341 1344 101.172 648.162 451.571
2674 0 77.4095 17.4656 1352 102.854 649.395 449.218
2675 0 78.4515 19.3113 1515 101.387 650.062 445.411
2676 0 81.2967 17.4915 1422 102.648 650.623 448.155
2677 0 82.1788 15.1134 1242 105.295 651.747 446.388
2678 0 85.1303 16.1165 1372 103.864 651.604 449.197
2679 0 88.5318 20.9981 1859 100.514 653.302 440.292
2680 0 92.2437 19.1124 1763 100.848 653.669 449.291
2681 0 91.2512 16.8436 1537 105.917 653.914 445.096
2682 0 94.4705 20.7049 1956 100.898 654.674 445.056
2683 0 98.4801 13.7997 1359 109.083 654.219 446.778
2684 0 106.446 19.4653 2072 101.931 654.913 445.269
2685 0 106.347 19.5211 2076 102.248 653.684 446.565
2686 0 109.682 17.487 1918 104.49 653.559 447.407
2687 0 119.889 17.1992 2062 104.571 654.062 435.618
2688 1 62.4465 18.0795 1129 102.608 654.447 468.723
2689 0 65.2161 15.901 1037 105.54 654.619 468.167
2690 0 65.374 15.9696 1044 103.073 653.869 469.098
2691 0 69.1385 12.4967 864 107.334 654.884 466.319
2692 0 68.3414 15.8615 1084 104.443 654.216 464.744
2693 0 73.1716 15.7711 1154 104.535 652.4 464.432
2694 0 76.1748 14.1648 1079 107.666 653.036 460.52
2695 0 79.2476 12.0635 956 110.976 652.405 462.211
2696 0 78.1098 18.7812 1467 103.84 651.32 458.92
2697 0 78.1098 18.9349 1479 141.976 650.341 458.76
2698 0 85.301 20.2342 1726 101.043 650.203 459.895
2699 0 90.5099 18.7714 1699 101.147 649.386 455.285
2700 0 92.3895 17.253 1594 102.697 650.16 461.028
2701 0 93.3504 19.7321 1842 102.498 648.552 458.111
2702 0 332.08 24.7801 8229 84.0698 648.018 350.701
2703 1 202.735 14.9012 3021 97.0122 647.108 403.411
2704 0 205.653 13.6687 2811 99.3383 645.988 400.509
2705 1 163.135 18.6287 3039 94.0836 647.277 423.69
2706 0 167.956 23.8276 4002 90.6494 646.712 418.597
2707 1 112.369 18.8664 2120 96.3858 646.342 435.789
2708 0 120.426 16.8236 2026 97.7759 646.62 436.21
2709 0 123.726 23.4632 2903 92.1068 647.049 436.225
2710 0 126.088 18.503 2333 96.0506 647.252 440.956
2711 0 132.157 18.5689 2454 97.1581 648.376 431.564
2712 0 137.863 22.0581 3041 94.148 647.5 430.349
2713 0 142.622 23.2853 3321 93.5709 647.389 425.987
2714 0 143.65 19.5337 2806 98.4048 648.42 422.369
2715 0 151.717 22.4892 3412 95.6597 648.62 416.282
2716 0 155.593 17.8029 2770 99.7805 648.606 420.776
2717 0 161.555 17.6967 2859 101.073 649.871 412.281
2718 1 252.1 20.234 5101 98.3574 650.633 378.845
2719 0 261.009 17.0913 4461 102.077 651.643 374.941
2720 0 270.481 20.1086 5439 99.5964 652.149 363.509
2721 1 83.4369 17.4503 1456 102.66 652.239 446.495
2722 0 88.3237 17.4245 1539 102.706 653.199 443.126
2723 0 94.2877 14.9648 1411 103.765 652.502 449.001
2724 0 96.7833 19.0115 1840 99.8332 653.243 443.504
2725 0 99.5163 20.7303 2063 97.5899 653.649 444.559
2726 0 104.477 25.173 2630 93.8567 652.532 439.118
2727 0 107.666 15.353 1653 104.367 653.452 439.338
2728 0 111.338 21.6638 2412 97.3586 653.579 443.818
2729 0 114.558 14.8833 1705 106.323 654.384 440.188
2730 0 117.606 15.2458 1793 106.595 654.83 437.21
2731 0 124.53 16.7509 2086 104.856 653.466 436.195
2732 0 127.091 14.5407 1848 108.146 653.818 435.28
2733 0 134.548 21.1002 2839 100.267 653.623 435.236
2734 0 139.529 17.0144 2374 105.177 654.487 432.965
2735 0 142.478 17.6589 2516 104.699 652.774 433.278
2736 0 147.797 15.6972 2320 106.785 653.233 431.739
2737 0 150.483 17.4239 2622 104.652 652.827 426.045
2738 0 156.845 17.9286 2812 104.671 652.748 428.856
2739 0 159.793 17.2348 2754 106.208 652.274 422.675
2740 0 167.432 17.1114 2865 105.657 650.941 421.234
2741 0 173.428 18.0074 3123 105.037 651.251 420.071
2742 1 82.5005 17.709 1461 102.91 650.115 458.474
2743 0 83.5157 18.4037 1537 102.213 649.737 458.956
2744 0 89.4553 21.7762 1948 97.4189 649.038 459.465
2745 0 87.2969 16.4496 1436 106.281 649.22 450.469
2746 0 93.2226 19.1906 1789 101.372 648.446 450.86
2747 0 96.6773 19.5082 1886 101.456 648.574 447.182
2748 0 98.4455 15.2267 1499 107.692 647.452 445.127
2749 0 103.234 13.9198 1437 109.179 648.54 447.998
2750 0 103.588 17.7917 1843 105.096 646.299 442.036
2751 0 107.356 17.1206 1838 106.772 647.834 439.27
2752 0 111.317 16.0352 1785 107.954 648.356 437.064
2753 0 119.735 16.6367 1992 104.714 648.378 441.57
2754 0 118.352 15.5722 1843 120.402 648.982 432.75
2755 0 123.228 17.6015 2169 117.359 649.031 431.032
2756 0 127.483 14.4097 1837 122.541 650.237 429.418
2757 0 132.485 19.6022 2597 114.604 649.675 419.172
2758 0 135.235 16.5194 2234 120.026 650.469 422.462
2759 0 141.218 18.4608 2607 115.244 651.594 420.096
2760 1 81.1949 9.76662 793 123.776 651.821 446.499
2761 0 84.2172 15.6975 1322 115.738 651.942 445.346
2762 0 88.3255 15.8505 1400 114.781 652.272 443.791
2763 0 88.1108 13.5625 1195 119.913 654.049 438.393
2764 0 94.1359 13.8311 1302 117.896 653.378 439.544
2765 0 94.3268 14.5452 1372 118.02 654.281 434.042
2766 0 99.476 15.0287 1495 116.015 653.599 436.938
2767 0 103.2 18.0329 1861 112.601 654.774 437.133
2768 0 103.184 12.3468 1274 122.847 654.323 430.688
2769 0 111.168 17.649 1962 111.557 655.975 438.296
2770 0 111.487 14.4501 1611 118.354 656.391 429.567
2771 0 114.377 17.18 1965 114.496 657.045 425.537
2772 0 121.347 14.2154 1725 116.458 656.738 430.974
2773 0 126.414 16.3273 2064 113.442 656.14 428.635
2774 0 126.651 13.1938 1671 119.938 655.95 421.386
2775 1 70.2483 8.01443 563 113.561 654.552 450.895
2776 0 73.3039 9.18096 673 109.316 653.281 459.303
2777 0 78.2118 9.92178 776 104.303 653.335 458.111
2778 0 79.1861 11.9087 943 101.168 653.611 465.81
2779 0 80.1068 8.65096 693 104.499 652.494 465.012
2780 0 84.2672 10.0751 849 104.984 653.422 454.671
2781 0 92.429 15.3848 1422 96.9698 653.712 462.222
2782 0 95.266 12.019 1145 100.759 652.945 457.316
2783 0 96.3606 8.52008 821 104.228 652.554 455.097
2784 0 99.2653 11.9377 1185 100.554 651.695 453.197
2785 0 103.217 8.57415 885 104.571 651.825 444.237
2786 0 106.22 10.1111 1074 102.661 651.157 446.308
2787 0 110.678 15.6129 1728 96.3993 650.73 444.497
2788 0 112.376 8.36476 940 103.776 650.067 442.277
2789 0 117.542 7.92056 931 106.539 648.615 428.912
2790 0 122.816 7.23032 888 109.295 649.063 423.559
2791 0 123.634 11.9789 1481 100.964 647.521 435.508
2792 0 127.013 11.424 1451 102.484 648.915 423.753
2793 0 132.088 8.53979 1128 104.94 648.62 420.308
2794 0 142.838 5.41874 774 106.328 649.025 429.891
2795 0 137.635 5.96504 821 107.716 649.72 417.251
2796 0 143.769 7.81812 1124 106.8 648.655 408.505
2797 1 74.5551 7.75265 578 97.1955 648.931 448.189
2798 0 78.6294 6.66417 524 95.3645 649.252 462.202
2799 0 87.4795 7.41888 649 96.9168 649.904 451.766
2800 0 89.4312 12.8479 1149 92.087 649.803 447.876
2801 0 90.5417 9.76346 884 94.3348 649.279 449.825
2802 0 92.547 9.36821 867 95.6148 651.068 442.208
2803 0 91.3607 5.40714 494 99.5385 650.354 443.091
2804 0 98.3572 12.9528 1274 92.0267 651.809 441.042
2805 0 101.433 11.1896 1135 94.6449 651.366 434.179
2806 0 104.317 13.6794 1427 92.527 652.928 437.084
2807 0 102.782 13.2903 1366 96.3104 654.861 431.489
2808 1 163.413 9.04455 1478 104.606 653.813 413.08
2809 1 109.623 15.3252 1680 93.7857 653.726 437.412
2810 0 113.718 12.7949 1455 95.8213 655.08 442.176
2811 0 117.993 13.7212 1619 96.315 654.956 433.301
2812 0 117.572 8.32683 979 101.845 656.322 439.4
2813 0 124.767 9.64198 1203 101.157 656.39 434.166
2814 0 126.829 14.7758 1874 96.1713 654.956 433.532
2815 0 128.717 17.8609 2299 93.9843 654.702 432.759
2816 0 133.572 14.1122 1885 97.7114 655.589 431.935
2817 0 134.438 9.13434 1228 103.077 656.241 441.295
2818 0 138.478 12.4713 1727 100.552 655.97 433.776
2819 0 147.749 10.0711 1488 101.993 656.877 441.78
2820 0 147.463 11.6097 1712 102.608 656.018 431.938
2821 0 155.772 14.4763 2255 98.4102 655.949 426.611
2822 0 162.801 13.3537 2174 98.9623 654.56 432.065
2823 0 164.561 16.0913 2648 97.2255 655.017 428.165
2824 1 84.4104 11.7403 991 99.5096 653.36 463.834
2825 0 86.3659 14.8091 1279 97.7154 653.398 456.954
2826 0 87.7148 8.65305 759 105.527 653.93 454.503
2827 0 90.7413 11.1746 1014 103.536 653.213 450.227
2828 0 93.7106 10.1909 955 103.342 651.956 455.518
2829 0 97.8932 16.4669 1612 95.5378 652.169 456.221
2830 0 102.768 11.4141 1173 102.315 650.806 451.295
2831 0 103.251 14.2759 1474 99.8521 650.666 447.417
2832 1 55.1405 15.6509 863 92.0579 651.758 471.911
2833 0 53.1673 13.3353 709 95.5614 648.783 471.822
2834 0 57.3197 11.6539 668 97.5734 648.593 472.738
2835 0 57.3197 11.7237 672 130.418 648.561 472.771
2836 0 57.3062 11.3251 649 98.7103 648.131 469.002
2837 0 60.3112 12.6345 762 97.1312 648.001 468.592
2838 0 65.3804 14.2703 933 90.3516 647.643 474.285
2839 0 61.2036 7.7283 473 102.789 648.256 466.425
2840 0 69.5187 25.1155 1746 85.8877 649.396 461.88
2841 0 69.3116 13.2445 918 96.256 649.54 465.019
2842 0 72.4157 17.4548 1264 92.307 648.911 461.364
2843 0 77.5501 16.7376 1298 90.3844 648.588 464.031
2844 1 150.816 13.281 2003 100.553 650.599 431.902
2845 0 156.924 14.5039 2276 101.495 651.054 422.718
2846 0 158.721 11.769 1868 105.547 651.902 414.376
2847 0 160.843 13.2738 2135 144.085 652.957 410.664
2848 1 84.235 11.9072 1003 99.4596 653.76 450.54
2849 0 87.3299 17.4625 1525 93.9836 653.982 447.187
2850 1 48.3441 9.12211 441 97.6893 654.104 466.608
2851 0 46.049 8.94699 412 100.311 654.558 462.881
2852 0 54.2768 13.8365 751 95.3063 655.105 467.065
2853 0 56.9382 16.2281 924 90.3333 657.744 467.938
2854 0 51.1644 15.2841 782 95.2826 658.201 465.049
2855 0 56.3158 14.7028 828 94.9686 658.268 464.401
2856 0 56.3487 17.2497 972 92.7119 659.168 466.656
2857 0 58.2435 12.0013 699 98.2303 657.536 468.219
2858 0 63.4111 18.3879 1166 91.4382 658.717 466.943
2859 0 64.1814 13.68 878 96.0501 659.048 470.645
2860 0 64.1816 13.6488 876 132.136 660.035 470.463
2861 0 67.4071 13.144 886 97.9695 658.284 468.616
2862 0 69.3552 11.5204 799 99.2441 658.906 471.206
2863 0 70.1383 16.8382 1181 94.503 658.119 463.792
2864 0 74.0865 23.2296 1721 87.7693 657.88 470.227
2865 0 75.1706 11.5338 867 100.829 658.482 464.585
2866 0 78.4999 18.7898 1475 92.2617 658.313 459.601
2867 0 80.1481 15.6211 1252 96.0351 657.662 462.279
2868 0 89.5946 19.5548 1752 90.8368 656.697 466.314
2869 0 88.1951 20.398 1799 90.8666 655.174 460.199
2870 1 46.227 15.0994 698 92.9785 654.867 478.208
2871 0 48.2459 14.4468 697 95.8709 655.496 479.303
2872 0 47.2112 14.128 667 96.5847 654.244 482.349
2873 0 51.3104 13.6425 700 97.1329 654.706 476.543
2874 0 54.2612 12.6057 684 94.7105 651.937 477.175
2875 0 54.4328 16.0381 873 91.7892 651.857 473.918
2876 0 56.4135 16.5386 933 92.5177 652.339 471.594
2877 0 57.0822 17.1157 977 92.4811 651.762 473.649
2878 0 58.0619 12.4005 720 98.4069 651.946 473.429
2879 0 57.4019 13.0832 751 98.5792 651.376 467.912
2880 0 59.1482 13.3056 787 99.2618 650.959 469.85
2881 0 62.132 13.3586 830 99.0398 651.657 468.507
2882 0 63.1587 10.1332 640 102.367 651.706 466.491
2883 0 67.2934 16.168 1088 95.8879 651.586 462.613
2884 0 68.2789 11.3066 772 100.141 650.635 464.733
2885 0 77.2541 11.4816 887 98.4577 652.643 463.054
2886 0 73.2254 11.8401 867 100.136 652.186 460.233
2887 0 83.7053 14.4794 1212 98.0652 652.082 452.565
2888 0 82.2733 16.664 1371 95.9752 651.825 450.033
2889 0 83.2183 14.7323 1226 98.6582 651.721 448.536
2890 0 90.2048 22.6706 2045 90.9946 653.061 443.242
2891 1 48.3861 15.6243 756 96.0714 654.4 467.886
2892 0 48.2054 17.1973 829 95.1725 654.353 466.638
2893 0 50.2748 12.6902 638 98.3323 655.812 466.978
2894 0 53.1109 17.454 927 93.151 656.941 464.508
2895 0 54.2676 14.9076 809 97.1768 657.098 463.556
2896 0 57.4988 17.6178 1013 93.5696 656.344 464.348
2897 0 56.2072 17.1152 962 95.501 657.265 463.744
2898 0 57.1362 12.969 741 99.0796 656.337 468.094
2899 0 60.202 14.4347 869 99.0334 657.198 463.488
2900 0 60.202 14.3683 865 127.267 657.198 463.489
2901 0 61.6809 13.8292 853 102.001 657.421 458.168
2902 0 66.2248 15.2964 1013 99.922 659.595 467.195
2903 0 68.4452 13.4999 924 101.643 658.418 469.511
2904 0 70.5942 15.1146 1067 101.003 659.202 462.27
2905 0 74.6383 16.5733 1237 99.2611 658.868 462.919
2906 0 72.4799 11.1065 805 107.118 657.123 462.568
2907 0 79.5202 13.179 1048 101.6 657.264 464.188
2908 0 80.8055 14.9495 1208 101.062 656.893 459.288
2909 0 82.2695 12.4712 1026 104.552 655.784 459.402
2910 0 85.3673 15.6383 1335 101.692 656.509 456.828
2911 0 87.7275 17.7595 1558 99.165 655.613 458.967
2912 0 91.5965 14.7822 1354 101.851 655.558 457.21
2913 0 92.2901 13.1975 1218 105.346 654.982 452.662
2914 0 98.5573 22.8902 2256 91.7074 653.777 457.766
2915 0 99.3862 14.4386 1435 103.819 652.73 449.708
2916 1 49.3395 13.3362 658 103.123 651.533 477.733
2917 0 51.1971 12.9109 661 104.882 651.387 476.135
2918 0 52.4124 14.1951 744 103.567 652.047 476.281
2919 0 52.4124 14.2905 749 140.029 652.005 476.354
2920 0 54.5844 18.705 1021 98.4809 651.021 472.515
2921 0 58.7664 19.4329 1142 98.7487 651.154 464.929
2922 0 59.7111 15.8764 948 102.739 649.692 466.235
2923 0 58.7292 13.2302 777 106.892 649.115 462.793
2924 0 61.5491 14.7362 907 102.771 649.694 465.831
2925 0 65.7636 16.6354 1094 101.527 650.792 461.22
2926 0 68.7369 18.1707 1249 100.486 650.702 453.608
2927 0 68.4192 16.5597 1133 102.433 649.663 453.739
2928 0 73.8088 16.3666 1208 101.438 649.734 454.15
2929 0 73.8084 14.7409 1088 104.534 651.151 455.538
2930 0 74.3043 17.2399 1281 103.439 651.203 451.466
2931 0 77.8821 13.9185 1084 107.649 651.667 451.856
2932 0 82.9987 15.7472 1307 104.303 651.121 451.055
2933 0 82.7659 17.5797 1455 103.7 652.717 445.109
2934 0 84.0294 19.1124 1606 101.149 653.359 443.075
2935 0 90.7577 16.6597 1512 104.22 655.373 445.587
2936 0 91.9976 18.1635 1671 103.574 654.883 444.06
2937 0 93.3969 15.75 1471 107.088 655.577 439.015
2938 0 96.7335 14.6278 1415 107.577 656.828 440.255
2939 1 49.2081 13.9814 688 107.449 656.076 460.499
2940 0 52.4259 15.3741 806 105.784 656.664 460.406
2941 0 55.6254 13.8066 768 109.043 657.168 457.352
2942 0 56.3081 13.2841 748 109.341 657.001 459.365
2943 0 60.4553 18.8073 1137 99.7722 657.304 461.283
2944 0 61.2955 14.8951 913 106.277 658.101 451.804
2945 0 63.4128 14.0823 893 107.512 657.858 461.514
2946 0 66.3719 13.8312 918 102.584 658.173 462.551
2947 0 66.5978 12.2677 817 104.819 657.229 461.639
2948 0 71.2758 13.9458 994 102.935 658.106 458.287
2949 0 72.4153 16.6816 1208 99.9727 659.031 458.328
2950 0 74.2891 17.4992 1300 98.5569 657.642 462.198
2951 0 74.6329 11.2953 843 108.457 656.607 456.246
2952 0 78.3528 14.8814 1166 103.81 656.957 456.189
2953 0 78.4023 12.219 958 107.572 656.889 455.976
2954 0 81.7602 15.4476 1263 103.021 656.812 458.177
2955 0 83.9147 13.5376 1136 103.49 657.164 461.901
2956 0 89.7173 15.4262 1384 102.324 654.311 457.405
2957 0 93.708 15.687 1470 101.667 655.237 454.701
2958 0 95.6568 19.6536 1880 96.5548 653.727 451.531
2959 1 51.5643 12.3923 639 99.1862 652.887 469.969
2960 0 51.5643 12.3341 636 136.885 651.884 469.915
2961 0 56.4287 9.94175 561 99.5864 653.219 470.28
2962 0 58.4456 12.4218 726 96.365 653.264 466.185
2963 0 59.8858 11.9394 715 96.7161 651.866 463.323
2964 0 60.1255 13.688 823 95.6173 650.636 457.39
2965 0 59.8743 10.4719 627 100.319 651.11 455.619
2966 0 63.4856 7.92305 503 103.058 651.547 458.565
2967 0 68.8013 14.491 997 96.0241 652.128 460.017
2968 0 70.2037 11.7088 822 100.708 652.285 462.353
2969 0 70.2388 14.7639 1037 97.2073 650.953 459.052
2970 0 74.4952 9.28918 692 102.301 651.363 460.121
2971 0 77.5761 15.0175 1165 98.0524 650.501 451.067
2972 0 79.5859 18.345 1460 96.3473 652.532 453.348
2973 0 78.6857 16.2164 1276 100.067 652.01 451.277
2974 0 83.7697 18.9448 1587 96.0107 652.463 450.454
2975 0 88.8222 16.0883 1429 98.07 653.305 451.509
2976 0 92.2182 14.3247 1321 101.699 654.629 446.098
2977 0 94.8421 14.5716 1382 102.643 655.628 439.787
2978 0 94.6556 10.8076 1023 107.116 653.809 442.017
2979 0 97.6651 14.1504 1382 104.133 654.958 436.736
2980 0 102.069 15.1074 1542 103.115 654.724 431.358
2981 0 107.53 20.7013 2226 96.7017 655.745 437.11
2982 0 106.864 10.0314 1072 109.781 656.799 432.191
2983 0 113.655 14.2361 1618 104.167 657.274 435.895
2984 1 59.4923 9.86683 587 101.346 657.772 458.019
2985 0 65.1496 13.5074 880 97.9886 658.37 458.256
2986 0 63.0522 13.7505 867 98.8581 658.925 462.114
2987 0 65.3203 10.5939 692 100.395 658.357 467.701
2988 0 70.461 10.9706 773 101.36 658.353 461.318
2989 0 69.2385 12.1031 838 102.574 658.772 460.704
2990 0 70.2361 10.1942 716 102.694 659.559 462.018
2991 0 75.2512 8.49156 639 104.955 659.468 456.87
2992 0 79.4093 12.7567 1013 98.6061 658.643 465.998
2993 0 81.2729 12.698 1032 98.9341 659.14 462.392
2994 0 82.5656 11.1427 920 101.021 658.733 465.961
2995 0 83.4579 14.1988 1185 100.902 657.531 457.9
2996 0 89.6215 13.4343 1204 101.154 657.385 455.375
2997 0 88.6921 11.5343 1023 104.999 656.328 455.595
2998 0 91.6361 12.2877 1126 103.252 657.202 452.469
2999 0 95.0411 12.2894 1168 104.324 655.753 449.387
3000 0 95.5184 8.5638 818 109.452 655.418 450.747
3001 0 103.809 14.2088 1475 101.776 654.995 450.323
3002 0 105.549 11.5966 1224 106.08 654.302 446.949
3003 0 110.752 12.9569 1435 103.222 654.62 447.738
3004 0 112.903 13.5692 1532 104.068 653.593 444.176
3005 1 58.2813 5.81661 339 107.127 651.018 469.407
3006 0 65.5424 10.7106 702 100.405 651.145 467.868
3007 0 68.4747 11.5225 789 100.368 651.946 468.251
3008 0 70.5762 16.2378 1146 97.0899 649.776 467.647
3009 0 73.6034 10.4615 770 104.616 650.18 467.343
3010 0 76.3445 12.8889 984 101.948 649.146 462.792
3011 0 77.3948 14.1741 1097 98.7739 649.086 459.133
3012 0 77.4745 9.75805 756 105.804 650.546 461.3
3013 0 79.652 14.8144 1180 99.3068 650.056 458.971
3014 0 85.4653 14.1227 1207 98.57 650.194 461.849
3015 0 86.4226 12.462 1077 102.228 650.859 455.393
3016 0 88.4174 12.6446 1118 102.166 650.903 457.096
3017 0 90.6455 10.4473 947 105.693 651.847 453.048
3018 0 95.6865 11.7258 1122 105.898 650.464 448.196
3019 0 96.5866 7.24738 700 111.29 652.247 442.496
3020 1 53.2532 7.3235 390 102.049 653.746 471.451
3021 0 55.3224 11.207 620 98.75 652.086 465.371
3022 0 58.2848 12.8507 749 98.0214 655.051 462.384
3023 0 60.253 6.87103 414 102.041 656.082 471.261
3024 0 58.1662 14.1491 823 97.3973 655.272 463.411
3025 0 61.0813 10.527 643 102.753 656.457 464.275
3026 0 60.1502 11.2552 677 101.425 656.377 465.346
3027 0 67.4513 17.4051 1174 92.7692 657.168 467.798
3028 0 64.2546 7.40804 476 105.485 657.534 466.353
3029 0 69.2022 11.5748 801 101.723 657.909 464.012
3030 0 73.4076 14.6715 1077 96.8598 657.199 464.302
3031 0 74.3409 15.3482 1141 97.2121 657.014 464.383
3032 0 72.6104 10.5357 765 102.046 657.702 472.607
3033 0 75.3235 11.9352 899 103.053 657.279 464.137
3034 0 80.3712 13.3754 1075 99.4251 657.086 471.492
3035 0 82.261 13.2505 1090 100.228 656.837 469.721
3036 0 84.2828 15.97 1346 94.4198 656.97 473.911
3037 0 85.4806 12.7865 1093 101.684 656.644 464.812
3038 0 87.347 11.4028 996 103.18 657.396 462.421
3039 0 96.5622 19.5315 1886 92.1956 655.602 468.033
3040 0 97.291 10.0318 976 101.493 654.374 471.33
3041 1 54.1086 13.1402 711 96.0084 655.757 485.297
3042 0 52.6234 11.4208 601 99.7454 653.74 483.499
3043 0 50.3151 8.58589 432 103.507 654.611 482.178
3044 0 55.4267 12.8999 715 97.6601 652.12 480.474
3045 0 57.512 13.6667 786 95.9084 653.275 481.204
3046 0 54.4428 8.68801 473 104.588 652.114 479.4
3047 0 58.2409 13.8734 808 98.3577 651.132 480.426
3048 0 62.369 12.5543 783 99.3819 650.414 478.705
3049 0 61.4182 12.0648 741 99.5587 649.185 478.185
3050 0 66.3008 12.9259 857 99.5648 649.618 470.688
3051 0 64.2835 7.96471 512 104.934 649.332 474.656
3052 0 70.4874 14.0876 993 97.2457 649.263 471.193
3053 0 71.5178 12.039 861 100.274 649.21 467.447
3054 0 73.3701 9.24082 678 103.447 648.786 467.827
3055 0 76.2889 9.9097 756 98.8241 650.112 473.911
3056 0 80.4077 13.1953 1061 98.2479 649.828 464.057
3057 0 83.4713 11.0098 919 101.301 649.779 458.99
3058 0 87.3523 12.3866 1082 99.537 649.235 457.579
3059 1 43.1026 13.1779 568 96.7764 650.905 475.947
3060 0 45.1822 12.8812 582 96.2663 651.684 469.526
3061 0 46.3546 9.88036 458 98.3537 651.646 473.157
3062 0 47.1225 10.4621 493 97.9026 653.067 472.028
3063 0 48.1613 11.3369 546 96.696 652.996 472.024
3064 0 52.1944 14.8292 774 93.9367 653.756 471.882
3065 0 52.1984 15.4219 805 93.359 653.262 469.41
3066 0 57.0996 15.7094 897 91.5418 653.03 470
3067 0 57.1399 11.8481 677 96.2526 654.941 470.359
3068 0 59.2132 13.0039 770 95.2299 656.227 470.691
3069 0 58.2101 13.2967 774 95.7881 656.521 468.018
3070 0 60.2802 14.6649 884 95.5419 657.436 468.939
3071 0 61.3918 14.4319 886 95.8296 656.059 465.798
3072 0 64.1367 10.2282 656 99.7088 657.515 474.71
3073 0 66.5104 16.0276 1066 94.121 656.089 463.755
3074 0 66.5499 10.6386 708 100.47 658.168 469.117
3075 0 70.2747 16.0655 1129 94.0186 656.412 470.484
3076 0 68.4426 13.0766 895 97.6257 655.667 465.263
3077 0 73.4288 11.8891 873 99.9633 656.734 470.594
3078 0 74.255 14.6657 1089 97.1763 656.256 469.75
3079 0 72.198 11.9255 861 101.445 656.116 469.285
3080 0 70.2122 8.55976 601 106.582 655.895 467.955
3081 0 80.407 12.8471 1033 100.119 655.443 470.961
3082 0 83.6317 14.3965 1204 98.9925 656.088 468.412
3083 0 83.485 8.78002 733 106.918 656.503 466.22
3084 0 88.5656 11.0088 975 104.055 654.705 465.73
3085 0 89.3358 13.2758 1186 100.701 654.133 467.187
3086 0 89.3358 13.3093 1189 119.955 653.155 467.282
3087 1 53.3121 13.2803 708 101.944 653.983 477.794
3088 0 53.305 12.269 654 103.064 652.713 477.587
3089 0 56.404 10.8858 614 103.941 651.617 477.925
3090 0 55.6541 8.48096 472 110.161 651.413 476.57
3091 0 57.3672 12.2195 701 104.496 650.996 474.833
3092 0 61.509 17.5909 1082 97.6534 650.423 469.686
3093 0 62.5754 12.5928 788 103.869 649.808 473.835
3094 0 64.3729 10.6101 683 106.19 649.94 472.878
3095 0 65.476 13.2873 870 104.366 649.139 467.722
3096 0 71.6511 16.064 1151 99.3345 648.164 466.655
3097 0 71.5428 14.369 1028 102.218 649.55 466.462
3098 0 73.4005 12.6975 932 105.314 649.161 463.58
3099 0 76.5247 14.5443 1113 103.704 648.398 460.784
3100 0 79.3046 15.6738 1243 102.186 649.685 457.508
3101 0 80.2659 16.8938 1356 101.636 649.476 458.092
3102 0 83.497 13.7849 1151 105.808 649.19 457.624
3103 0 83.3955 10.3003 859 110.965 649.308 456.899
3104 0 86.3001 12.4913 1078 105.343 650.326 455.93
3105 1 49.0882 16.2565 798 97.1165 651.594 474.649
3106 0 51.1046 11.0753 566 106.583 653.562 468.152
3107 0 51.0572 11.4773 586 107.234 653.36 467.302
3108 0 56.0753 15.9072 892 99.5886 653.874 468.782
3109 0 55.1665 14.8097 817 104.116 651.022 469.895
3110 0 56.2259 13.3568 751 105.373 653.905 468.463
3111 0 56.0269 14.4752 811 105.821 653.927 470.328
3112 0 61.1188 15.0036 917 104.11 654.61 469.592
3113 0 59.1656 14.958 885 101.724 655.971 469.924
3114 0 58.1622 12.5339 729 106.162 655.963 468.15
3115 0 61.1099 11.9293 729 105.416 654.594 467.915
3116 0 64.1119 15.5821 999 100.641 656.534 468.085
3117 0 65.1562 14.0432 915 102.495 654.874 472.116
3118 0 70.342 10.648 749 107.523 657.302 466.159
3119 0 73.5153 14.1059 1037 100.448 657.57 472.925
3120 0 75.2838 11.0648 833 106.75 656.605 469.192
3121 0 75.1732 13.3292 1002 106.515 657.125 464.837
3122 0 80.1391 13.9008 1114 104.615 656.375 466.373
3123 0 80.219 16.0062 1284 102.009 656.221 465.065
3124 0 84.5364 15.5199 1312 104.704 655.122 459.594
3125 0 88.323 10.8918 962 110.334 655.4 464.359
3126 0 89.2334 13.3246 1189 107.411 651.183 464.914
3127 0 92.4493 13.6724 1264 107.727 651.005 457.314
3128 0 99.1661 13.0589 1295 106.998 649.652 462.483
3129 1 54.1776 10.9824 595 107.714 647.516 481.281
3130 0 52.1344 9.62896 502 106.249 647.275 482.962
3131 0 56.0898 11.5707 649 100.921 647.26 481.567
3132 0 59.1222 14.8675 879 97.4471 645.934 481.769
3133 0 56.0868 11.1969 628 103.4 646.011 478.145
3134 0 64.3746 12.3341 794 99.2267 644.958 479.902
3135 0 63.3213 10.5652 669 101.918 645.813 475.706
3136 0 66.458 17.1387 1139 94.892 646.557 468.184
3137 0 70.2638 17.3774 1221 94.3841 645.115 469.538
3138 0 66.1771 12.3608 818 102.227 644.612 468.224
3139 0 72.447 13.9412 1010 97.498 645.095 472.135
3140 0 77.2675 16.1776 1250 96.0296 645.629 471.088
3141 0 79.155 15.7539 1247 99.0473 645 463.18
3142 0 81.1728 17.7523 1441 95.6412 646.39 465.439
3143 0 82.1424 11.2366 923 104.852 645.65 457.374
3144 0 87.1283 13.5892 1184 100.976 646.599 461.893
3145 0 89.4173 14.2478 1274 100.995 646.639 458.243
3146 0 89.5418 15.3895 1378 101.922 650.262 454.029
3147 0 93.676 12.7354 1193 106.681 651.307 454.07
3148 1 51.728 14.3636 743 100.307 649.791 472.794
3149 0 56.9028 14.1469 805 98.3304 649.568 469.266
3150 0 53.1427 12.3629 657 96.726 648.945 474.402
3151 0 57.1904 14.1807 811 95.5351 647.784 471.576
3152 1 113.931 14.4912 1651 103.067 650.884 445.077
3153 0 116.64 14.5919 1702 102.032 652.083 444.938
3154 1 63.3013 13.0171 824 97.568 649.751 469.718
3155 0 67.3507 13.3332 898 97.0445 650.226 470.151
3156 0 64.1479 12.1438 779 99.7009 649.472 467.544
3157 0 66.1025 14.538 961 97.5005 650.556 464.319
3158 0 71.254 15.8588 1130 95.7044 652.267 465.496
3159 0 71.3565 11.0291 787 101.959 650.305 467.731
3160 1 147.479 19.9824 2947 97.2043 652.833 436.928
3161 0 152.59 17.3865 2653 101.79 652.762 424.601
3162 1 162.712 15.0635 2451 102.42 653.625 432.776
3163 0 164.708 14.7898 2436 105.988 654.396 423.531
3164 0 171.709 13.8781 2383 106.972 653.716 423.014
3165 0 174.095 13.7224 2389 105.689 652.62 432.956
3166 1 88.2234 14.7353 1300 99.84 651.143 461.588
3167 0 92.3579 11.044 1020 103.282 651.376 462.87
3168 1 50.2493 13.9305 700 97.35 650.326 483.18
3169 0 52.0634 11.0442 575 101.607 649.722 478.856
3170 0 55.2964 11.1219 615 99.4406 649.267 480.621
3171 0 56.1508 22.8136 1281 88.2763 649.929 475.096
3172 0 54.157 11.3559 615 103.541 651.166 482.426
3173 0 53.1921 8.91109 474 106.118 652.941 485.572
3174 0 56.0726 12.1271 680 103.487 651.359 475.485
3175 0 60.0638 6.57634 395 108.927 650.987 480.461
3176 0 63.3003 9.11528 577 104.997 650.043 479.248
3177 0 66.2302 13.8306 916 99.25 650.318 474.647
3178 0 67.1289 9.5339 640 103.312 649.034 477.408
3179 0 67.1289 9.5339 640 141.98 648.048 477.295
3180 0 70.3352 13.9617 982 100.224 649.221 469.082
3181 0 70.3766 10.9838 773 102.969 648.863 472.349
3182 0 73.4285 13.714 1007 100.031 648.61 470.716
3183 0 78.3171 18.208 1426 95.0266 648.019 461.766
3184 1 129.776 5.5326 718 109.5 647.919 457.979
3185 0 129.281 9.01914 1166 108.88 647.337 435.714
3186 0 123.889 9.90401 1227 108.204 647.092 431.06
3187 1 46.4234 11.8475 550 104.195 647.98 470.025
3188 0 47.3412 12.336 584 102.68 647.794 472.44
3189 0 54.3496 12.2356 665 101.182 649.383 473.973
3190 0 52.4178 13.2207 693 101.804 649.506 464.55
3191 0 56.4827 12.0568 681 102.471 648.85 465.527
3192 0 56.7024 16.1369 915 97.1825 649.38 466.614
3193 0 56.7854 15.0215 853 100.199 649.65 466.151
3194 0 57.5331 12.5841 724 103.805 651.436 464.53
3195 0 61.7901 11.1992 692 104.999 650.632 466.056
3196 0 61.2277 15.0585 922 100.598 653.167 469.326
3197 0 62.2615 13.9894 871 102.183 653.118 469.36
3198 0 65.6018 14.0697 923 101.226 653.443 468.101
3199 0 65.3691 14.3646 939 100.07 654.238 472.367
3200 0 67.4522 11.2821 761 105.936 655.619 468.185
3201 0 70.459 18.0247 1270 96.522 654.767 470.564
3202 0 71.3774 15.7893 1127 99.6211 654.375 469.445
3203 0 71.3224 13.446 959 103.796 654.412 465.168
3204 0 77.397 15.582 1206 99.8325 655.948 466.729
3205 0 77.4225 14.634 1133 102.668 653.72 464.625
3206 0 84.732 18.8358 1596 95.8408 655.102 464.071
3207 0 82.3788 15.101 1244 100.804 652.685 463.993
3208 0 85.4676 19.1886 1640 94.2884 654.066 469.31
3209 0 88.5758 14.1122 1250 101.439 651.85 462.394
3210 0 90.4999 11.5138 1042 104.76 651.874 462.182
3211 1 50.4016 11.329 571 101.637 651.151 478.692
3212 0 49.3267 14.1505 698 96.8095 651.628 471.552
3213 0 53.1985 11.0529 588 100.668 651.138 473.619
3214 0 52.3754 11.4748 601 94.2612 652.092 476.827
3215 0 53.361 15.7606 841 90.6599 649.847 476.988
3216 0 56.2063 11.867 667 92.5187 649.724 476.621
3217 0 57.1063 12.3979 708 94.7401 649.757 474.028
3218 0 57.1063 12.3804 707 120.407 649.741 474.119
3219 0 62.2517 13.3651 832 93.8714 647.833 468.457
3220 0 63.2607 10.1327 641 97.0936 648.125 470.7
3221 1 129.46 12.0268 1557 99.1985 648.653 436.195
3222 0 136.637 13.2322 1808 98.7002 648.931 434.53
3223 0 137.578 13.8103 1900 99.3258 647.804 435.494
3224 0 142.346 14.7177 2095 99.9298 645.535 443.017
3225 1 77.2401 14.4743 1118 98.263 646.541 468.355
3226 0 81.6617 16.6296 1358 97.7224 646.672 459.833
3227 0 80.3777 15.4147 1239 99.9927 646.839 464.082
3228 0 84.5496 16.1917 1369 99.5829 647.854 453.926
3229 0 84.4606 12.9173 1091 103.957 649.07 457.18
3230 0 90.3745 17.7041 1600 97.3675 648.606 456.307
3231 0 92.4582 20.42 1888 93.0249 649.534 457.708
3232 0 93.4874 12.9857 1214 105.425 648.385 446.727
3233 0 98.4581 12.8481 1265 107.055 649.35 444.513
3234 1 52.1881 13.5088 705 104.716 649.374 462.173
3235 0 54.0914 10.6856 578 108.941 648.431 463.002
3236 0 57.4192 10.9719 630 105.495 650.59 461.94
3237 0 61.5471 16.6377 1024 95.0312 651.133 463.929
3238 0 62.2998 11.0113 686 97.7522 650.14 467.484
3239 0 63.281 12.4208 786 98.8372 651.945 463.098
3240 0 67.1605 14.9641 1005 95.0498 652.035 462.004
3241 0 66.3717 11.9931 796 99.9234 653.508 459.405
3242 0 67.3492 15.6795 1056 96.3551 653.066 457.813
3243 0 69.1034 11.9097 823 101.411 653.435 456.458
3244 0 72.4418 12.1339 879 100.823 654.249 458.736
3245 0 74.48 13.6949 1020 98.4333 654.269 454.229
3246 1 145.943 10.5452 1539 106.458 654.202 424.778
3247 1 78.3292 12.256 960 100.231 652.37 457.669
3248 0 84.6462 15.5353 1315 95.2312 653.286 460.489
3249 0 83.8359 15.2321 1277 97.8794 653.767 452.106
3250 0 85.606 13.235 1133 100.68 653.551 451.995
3251 0 89.2483 14.8126 1322 101.529 653.476 453.772
3252 0 92.2345 14.3439 1323 98.5404 652.435 455.494
3253 0 95.3518 13.9798 1333 97.042 654.125 451.599
3254 0 102.433 16.4107 1681 94.7388 655.034 448.907
3255 0 103.674 15.5873 1616 95.242 654.034 449.082
3256 0 107.291 14.9313 1602 97.0899 653.637 448.465
3257 0 105.385 9.40362 991 104.864 653.292 442.858
3258 1 56.0572 13.4327 753 95.8101 651.997 470.278
3259 0 60.0709 15.3152 920 93.725 651.989 471.597
3260 0 62.2358 10.8298 674 98.0386 650.021 465.693
3261 0 62.1798 14.0078 871 94.9231 649.534 466.179
3262 0 61.1199 12.9254 790 96.8772 649.595 460.515
3263 0 68.0452 13.153 895 94.4045 649.01 467.294
3264 0 68.1324 12.6225 860 96.0407 648.101 461.715
3265 0 72.165 9.93557 717 98.2943 647.541 462.166
3266 0 70.2517 10.804 759 98.4941 646.698 457.868
3267 0 75.1677 12.4788 938 96.468 648.195 451.714
3268 0 78.1181 14.5037 1133 93.8261 646.729 453.62
3269 0 77.3867 19.8354 1535 90 647.556 451.029
3270 0 82.1861 11.3036 929 96.634 647.954 453.223
3271 0 81.0738 10.0402 814 100.848 648.157 443.806
3272 0 91.1847 17.6894 1613 97.1947 649.74 446.019
3273 0 93.2371 15.5518 1450 99.0586 649.541 448.039
3274 0 98.2792 16.3717 1609 100.082 648.217 441.372
3275 0 100.429 18.1521 1823 97.6714 649.736 438.503
3276 1 53.1811 9.68389 515 101.691 651.373 462.654
3277 0 54.1954 7.9527 431 102.487 651.446 460.747
3278 0 62.4341 17.074 1066 93.1698 652.531 458.704
3279 0 57.1934 14.8618 850 97.6553 651.991 455.508
3280 0 58.2976 9.91464 578 104.176 653.791 457.735
3281 0 63.2452 12.5859 796 100.119 654.369 459.867
3282 0 63.2212 11.4044 721 102.111 653.741 457.419
3283 0 66.2721 11.8149 783 101.404 655.368 459.152
3284 0 68.2985 13.646 932 99.6824 656.588 457.685
3285 0 71.386 12.4954 892 100.906 656.534 457.316
3286 0 75.178 15.6296 1175 97.4443 656.072 456.706
3287 0 76.4215 16.1473 1234 97.2018 655.302 450.255
3288 0 80.502 19.925 1604 92.669 655.85 455.845
3289 0 81.2328 16.2619 1321 97.2195 655.699 451.333
3290 0 84.3913 13.6744 1154 99.9766 657.395 454.907
3291 0 86.9134 13.7493 1195 99.7247 655.613 457.36
3292 0 88.4379 13.4445 1189 100.761 656.465 453.862
3293 0 92.7041 16.5041 1530 96.9987 656.793 453.583
3294 0 94.4728 21.223 2005 92.0249 656.165 446.843
3295 0 97.0303 13.0166 1263 102.066 655.825 446.664
3296 0 99.7534 14.4356 1440 101.29 655.811 443.122
3297 0 107.027 23.209 2484 91.4199 655.399 443.4
3298 0 104.467 11.5252 1204 100.694 655.748 451.97
3299 0 109.318 15.9168 1740 97.7575 655.122 445.696
3300 1 62.1354 22.3705 1390 89.4453 654.985 471.706
3301 0 63.5861 13.1633 837 99.454 653.784 468.472
3302 0 64.1906 11.2633 723 100.39 654.606 469.091
3303 0 71.1691 16.2009 1153 93.9063 654.187 468.076
3304 0 69.1536 13.0868 905 97.3646 653.235 469.481
3305 1 131.756 11.5516 1522 103.208 653.036 436.258
3306 1 74.2014 14.3798 1067 97.6532 652.837 460.143
3307 0 75.1979 14.3754 1081 95.2747 652.04 468.88
3308 0 80.1614 18.6998 1499 91.2929 651.556 465.197
3309 0 80.3034 14.7441 1184 93.3615 651.417 461.799
3310 0 84.4065 15.1173 1276 91.3346 651.381 448.59
3311 0 85.1691 11.5417 983 95.3449 652.529 446.239
3312 0 92.4449 20.9855 1940 86.784 652.488 449.321
3313 0 91.1337 7.8127 712 97.8525 652.914 456.447
3314 0 94.3118 11.7377 1107 95.869 651.649 447.934
3315 0 101.972 14.6806 1497 93.2278 652.213 444.411
3316 0 101.71 11.0609 1125 97.232 651.097 440.141
3317 0 105.576 12.626 1333 95.8672 651.818 433.219
3318 0 110.358 10.6291 1173 97.7579 653.205 437.762
3319 1 61.2878 15.5333 952 89.9685 652.599 461.749
3320 0 62.2732 15.5444 968 91.1694 653.774 459.521
3321 0 64.2893 16.1147 1036 90.7432 654.032 457.536
3322 0 66.3409 13.7773 914 92.9639 655.057 456.917
3323 0 67.237 13.9506 938 92.6034 655.107 456.494
3324 0 71.5471 18.7988 1345 87.4803 655.198 456.619
3325 0 71.3693 18.3832 1312 89.2104 655.844 450.796
3326 0 74.4266 14.82 1103 92.6564 657.118 453.701
3327 0 76.3164 12.422 948 94.4283 657.657 456.76
3328 0 77.1976 11.2439 868 96.5864 657.669 452.887
3329 0 80.2903 11.7324 942 95.379 656.389 454.469
3330 0 83.3795 14.0082 1168 94.2063 657.146 451.872
3331 0 86.3285 14.6302 1263 93.6667 656.972 449.682
3332 0 90.4611 13.5859 1229 94.6265 657.719 452.789
3333 1 49.1035 11.2416 552 97.2717 656.706 471.982
3334 0 51.0415 12.7935 653 96.1991 659.645 469.095
3335 0 52.3322 15.4398 808 92.7871 658.057 472.776
3336 0 54.1872 19.0082 1030 90.3019 659.373 469.367
3337 0 53.2322 9.22373 491 101.096 660.051 470.462
3338 0 60.4196 17.544 1060 91.8972 659.096 470.944
3339 0 59.1909 14.0393 831 95.7509 657.894 465.045
3340 0 65.2558 10.727 700 98.1886 658.934 474.429
3341 0 65.2705 12.1035 790 99.2481 656.239 465.456
3342 0 66.3204 14.43 957 97.2842 656.454 466.793
3343 0 67.4656 14.8076 999 97.6707 655.64 466.291
3344 0 70.307 16.0582 1129 96.4066 655.003 461.991
3345 0 74.2759 19.3737 1439 94.2071 655.262 462.903
3346 0 76.3001 15.5177 1184 97.6934 653.504 464.557
3347 0 79.3341 20.5712 1632 92.3885 653.488 464.9
3348 0 81.462 15.0868 1229 99.8519 653.435 460.919
3349 0 82.5613 12.5119 1033 102.71 653.042 462.21
3350 0 83.836 10.6279 891 106.205 652.627 458.981
3351 0 86.8321 14.1192 1226 103.436 651.608 455.086
3352 0 92.7823 19.9392 1850 94.8076 650.903 459.716
3353 0 88.4731 13.2922 1176 105.373 652.661 448.807
3354 0 97.4569 23.8772 2327 91.8655 650.893 443.611
3355 0 98.5025 14.9641 1474 99.382 651.343 451.301
3356 0 99.8113 16.1204 1609 99.422 651.59 446.327
3357 0 104.47 15.0761 1575 99.614 651.812 444.796
3358 0 109.71 15.9056 1745 96.3049 652.462 443.904
3359 1 57.3076 11.6913 670 99.2328 651.846 461.236
3360 0 57.3076 11.7611 674 140.742 651.864 461.18
3361 0 65.2339 11.9723 781 96.4469 651.031 457.889
3362 0 66.4864 13.4313 893 94.4916 652.062 461.835
3363 0 68.0889 12.9537 882 95.9365 653.546 454.077
3364 0 71.1878 15.2976 1089 93.1837 654.438 454.929
3365 0 74.4072 14.9313 1111 93.342 654.834 456.529
3366 0 76.1549 13.8927 1058 94.2098 654.963 456.927
3367 0 76.6424 16.8053 1288 92.3323 656.038 453.159
3368 0 81.2047 25.4665 2068 85.4367 655.266 449.722
3369 0 82.3682 15.2607 1257 91.2275 656.492 458.283
3370 0 85.4301 14.7138 1257 94.7741 656.986 451.186
3371 0 89.6285 11.0233 988 99.0071 658.203 446.175
3372 0 92.5033 14.6914 1359 95.1612 658.919 438.584
3373 0 93.2999 12.1115 1130 97.4566 658.296 451.063
3374 1 50.1383 11.6877 586 96.5085 658.998 468.191
3375 0 53.1702 13.6167 724 92.9972 659.898 467.89
3376 0 55.2607 12.3053 680 91.8897 658.996 468.732
3377 0 56.574 14.6357 828 92.5761 658.622 470.257
3378 0 57.2666 12.4855 715 94.2671 659.129 472.744
3379 0 61.2091 15.831 969 91.4324 658.986 469.318
3380 0 60.1131 16.6686 1002 91.0908 659.505 471.803
3381 0 63.2056 13.5589 857 93.7106 658.864 472.735
3382 0 66.2163 13.9845 926 94.0076 657.649 468.4
3383 0 68.2497 12.1759 831 94.3718 658.372 464.922
3384 0 67.2974 9.39116 632 97.7247 656.19 462.731
3385 0 71.4914 18.0861 1293 89.5236 655.643 464.317
3386 0 71.2677 13.5545 966 94.146 656.435 460.951
3387 0 76.2685 16.2846 1242 90.7061 655.113 466.432
3388 0 76.1262 14.8175 1128 93.75 654.853 458.696
3389 0 79.1477 12.8115 1014 96.2199 654.45 461.292
3390 0 82.1435 16.5442 1359 92.1545 653.932 461.673
3391 0 82.1435 16.5929 1363 124.632 653.912 461.568
3392 0 87.2236 17.3577 1514 91.7503 653.698 464.898
3393 0 87.2202 13.8959 1212 99.6807 654.149 456.196
3394 0 92.2648 17.1897 1586 96.2383 652.374 457.111
3395 1 50.2557 12.7349 640 98.0344 650.07 476.508
3396 0 50.08 15.655 784 96.4209 650.532 473.513
3397 0 52.1487 14.9572 780 96.159 650.741 473.744
3398 0 53.1767 14.6493 779 97.4288 650.286 472.633
3399 0 55.255 21.3736 1181 90.3658 650.387 470.157
3400 0 57.4394 14.7112 845 97.8509 650.262 470.301
3401 0 56.1894 13.2053 742 100.267 650.497 467.302
3402 0 60.2143 12.2064 735 101.331 649.631 463.117
3403 0 63.1402 18.6252 1176 92.7151 650.945 467.186
3404 0 62.1527 17.8592 1110 95.9982 651.146 462.107
3405 0 64.1783 18.8693 1211 95.1362 651.657 460.975
3406 0 67.1013 15.3797 1032 100.176 650.76 456.887
3407 0 72.2295 14.6201 1056 100.781 652.734 456.15
3408 0 67.2454 13.6664 919 103.974 654.271 454.561
3409 0 71.1135 15.9323 1133 100.791 654.604 455.289
3410 0 76.306 13.708 1046 102.533 655.231 455.731
3411 0 77.2534 18.2646 1411 97.2842 655.403 454.749
3412 0 81.3331 15.3197 1246 101.151 655.471 452.964
3413 0 79.2086 13.0541 1034 104.087 655.159 453.48
3414 0 85.29 14.4331 1231 101.647 656.624 453.719
3415 0 87.1736 18.033 1572 98.645 657.333 451.043
3416 0 92.6015 15.5829 1443 101.053 657.504 451.813
3417 0 91.2179 12.4647 1137 106.294 657.164 452.056
3418 0 95.4238 13.3929 1278 105.179 658.263 450.569
3419 1 54.0609 19.5335 1056 94.6847 659.963 470.749
3420 0 53.0862 13.8831 737 101.315 659.707 467.434
3421 0 56.2848 13.4317 756 108.332 659.561 467.122
3422 0 58.0578 16.1908 940 102.911 658.829 471.731
3423 0 61.1333 17.2083 1052 101.817 658.273 472.026
3424 0 61.3034 15.9534 978 103.827 658.864 471.056
3425 0 64.3393 16.3508 1052 104.836 656.617 467.992
3426 0 62.144 14.048 873 107.617 656.544 467.37
3427 0 66.3696 16.1218 1070 104.827 656.03 465.898
3428 0 71.5114 11.201 801 110.371 655.338 471.507
3429 0 70.356 12.0672 849 111.132 654.697 466.98
3430 0 74.3511 13.5438 1007 108.777 654.321 463.52
3431 0 78.3482 13.7463 1077 108.673 654.183 463.973
3432 0 78.2032 11.6491 911 112.508 653.592 463.963
3433 0 85.3828 14.3237 1223 108.608 652.526 463.313
3434 0 83.2737 15.0828 1256 109.744 652.669 459.126
3435 0 87.426 14.9727 1309 108.591 653.901 457.568
3436 1 48.064 16.27 782 107.031 652.803 473.349
3437 0 50.0696 15.1789 760 109.691 652.018 471.791
3438 0 52.2456 18.413 962 100.484 652.341 472.392
3439 0 52.2456 18.4896 966 116.22 652.338 472.426
3440 0 51.0431 10.0111 511 111.172 652.237 472.787
3441 0 54.2254 18.2203 988 101.241 652.213 469.351
3442 0 56.6178 11.5158 652 109.992 651.436 468.917
3443 0 56.1585 14.9933 842 105.913 652.595 469.219
3444 0 60.1785 13.2439 797 108.496 652.053 465.709
3445 0 61.374 12.1061 743 109.514 651.098 465.433
3446 0 63.2563 10.2757 650 110.929 651.952 466.754
3447 0 65.1572 13.1375 856 109.889 653.717 460.916
3448 0 65.1572 13.1528 857 139.238 654.729 460.944
3449 0 70.118 14.4613 1014 108.532 653.815 457.611
3450 0 73.1934 15.3702 1125 106.327 653.491 460.18
3451 0 74.3546 12.6152 938 114.913 654.931 454.703
3452 0 80.1368 14.2506 1142 112.385 655.063 449.956
3453 0 83.1747 18.3469 1526 105.272 656.571 449.663
3454 0 83.1137 12.2603 1019 115.403 655.613 447.166
3455 0 85.1513 13.1531 1120 113.609 657.546 450.748
3456 0 96.2962 16.1169 1552 108.877 656.861 445.291
3457 0 95.5405 14.4232 1378 111.66 656.67 447.616
3458 1 53.3839 14.199 758 106.241 657.6 467.172
3459 0 54.4054 12.2782 668 109.482 657.822 462.871
3460 0 54.3099 11.9684 650 113.028 656.714 463.914
3461 0 53.2191 12.0633 642 112.95 659.078 463.106
3462 0 58.1682 16.8305 979 106.306 658.19 463.218
3463 0 61.2593 15.8017 968 107.456 657.804 461.988
3464 0 64.2222 13.7336 882 110.488 657.954 460.754
3465 0 64.0654 15.1564 971 108.731 657.975 467.146
3466 0 67.3682 15.868 1069 108.29 656.566 464.783
3467 0 71.3051 17.8108 1270 105.32 656.039 465.549
3468 0 72.2498 15.2665 1103 110.519 656.762 465.632
3469 0 75.2884 15.341 1155 109.781 655.542 466.868
3470 0 77.3656 15.9244 1232 108.975 656.584 463.955
3471 0 79.6393 15.9218 1268 110.012 656.205 459.421
3472 0 84.5158 15.1569 1281 110.967 655.166 460.074
3473 0 88.5141 15.4213 1365 110.665 655.426 455.284
3474 1 48.3437 12.5559 607 110.128 655.002 477.448
3475 0 50.6011 13.3396 675 109.607 653.964 475.13
3476 0 52.5208 14.3943 756 106.429 652.976 476.053
3477 0 53.4113 15.2402 814 105.819 652.252 472.052
3478 0 52.683 11.1042 585 109.513 651.291 471.949
3479 0 56.2896 12.6311 711 107.471 650.402 474.727
3480 0 55.3444 12.8288 710 109.393 651.413 472.438
3481 0 57.1605 12.1588 695 108.863 651.235 474.178
3482 0 59.2522 14.9699 887 105.425 652.07 469.258
3483 0 63.4704 13.6126 864 106.78 652.065 468.267
3484 0 65.3415 14.6461 957 106.99 652.326 470.375
3485 0 64.378 12.7994 824 111.456 652.335 463.365
3486 0 68.2694 17.1673 1172 104.758 652.588 463.43
3487 0 71.4004 15.9383 1138 105.065 652.098 463.605
3488 0 73.5158 15.126 1112 108.589 652.791 455.072
3489 0 78.5747 15.7175 1235 104.678 653.11 459.433
3490 0 80.4765 14.8242 1193 106.748 651.534 454.308
3491 0 83.8147 14.5201 1217 109.483 652.603 452.103
3492 0 84.6318 14.0491 1189 110.643 653.416 450.611
3493 0 87.979 19.9366 1754 100.633 652.348 455.388
3494 1 49.2868 12.4374 613 107.992 653.736 468.708
3495 0 51.3138 13.7585 706 105.456 652.48 468.422
3496 0 55.7613 14.5979 814 104.204 653.131 467.475
3497 0 55.2111 11.7005 646 108.859 653.242 465.399
3498 0 58.4983 15.8466 927 101.89 654.336 465.577
3499 0 59.4221 16.6605 990 102.209 655.202 463.764
3500 0 61.4606 15.1805 933 104.415 656.185 463.643
3501 0 61.3514 14.3273 879 107.565 656.48 461.978
3502 0 65.4469 12.4223 813 112.276 657.324 461.584
3503 0 66.3737 13.1076 870 110.726 657.234 464.055
3504 0 70.5574 14.8957 1051 109.547 657.212 461.8
3505 0 68.4169 12.6723 867 113.414 657.098 459.548
3506 0 70.7662 10.8526 768 117.751 656.68 456.857
3507 0 77.5882 13.9712 1084 111.646 656.979 463.37
3508 0 77.8037 14.5751 1134 112.632 656.944 459.404
3509 0 82.9572 14.405 1195 113.209 656.066 457.885
3510 0 84.8078 15.7415 1335 111.821 656.597 460.046
3511 0 88.7871 12.2991 1092 117.86 655.421 458.404
3512 0 92.8658 13.4603 1250 115.706 655.801 458.134
3513 0 97.881 16.1216 1578 109.881 655.744 459.89
3514 0 100.937 16.7135 1687 111.211 654.065 450.084
3515 0 103.797 17.4861 1815 109.858 652.986 451.884
3516 0 108.717 16.4556 1789 110.567 652.952 447.916
3517 0 112.767 14.6586 1653 113.269 652.639 446.6
3518 1 58.394 12.8095 748 110.902 651.692 469.491
3519 0 59.1923 12.7043 752 112.189 650.999 475.07
3520 0 59.1465 13.3229 788 112.263 649.607 474.801
3521 0 63.1371 13.9538 881 110.486 649.833 471.879
3522 0 65.1593 14.2113 926 111.397 650.459 469.116
3523 0 67.3895 14.4533 974 111.797 649.846 465.07
3524 0 70.7912 15.468 1095 109.097 651.142 465.368
3525 0 68.4686 11.9471 818 117.45 651.09 457.955
3526 0 73.5478 14.6027 1074 109.667 649.543 462.576
3527 0 77.5937 15.7229 1220 108.802 650.616 460.677
3528 0 72.4924 13.4497 975 110.879 651.248 463.322
3529 0 77.2821 14.6994 1136 112.601 651.318 452.556
3530 0 82.7014 14.0868 1165 112.775 651.53 451.117
3531 0 84.8244 13.0741 1109 112.878 651.897 451.943
3532 0 87.474 16.9422 1482 108.684 651.69 448.402
3533 0 90.6911 10.0341 910 117.288 650.838 449.564
3534 0 92.4783 14.8684 1375 112.163 651.877 443.798
3535 0 93.5509 13.5007 1263 114.065 651.547 445.688
3536 0 97.4522 13.1141 1278 116.07 651.654 440.39
3537 0 104.485 20.3761 2129 102.205 651.167 445.87
3538 0 109.969 14.2768 1570 110.868 652.313 440.839
3539 0 111.464 21.2446 2368 102.386 653.545 438.081
3540 0 111.464 21.0831 2350 131.479 654.561 437.998
3541 0 116.791 12.304 1437 114.699 652.477 429.312
3542 1 67.2509 12.6541 851 104.033 654.541 462.096
3543 0 72.2153 14.1521 1022 101.709 655.264 461.167
3544 0 72.526 14.45 1048 101.065 655.512 462.458
3545 0 74.3456 16.5578 1231 99.7522 655.221 461.793
3546 0 77.4168 10.9924 851 106.716 655.538 460.289
3547 0 82.3469 18.6892 1539 97.2339 655.419 461.014
3548 0 81.3654 11.0858 902 107.439 656.439 462.448
3549 0 84.3132 11.0422 931 109.592 656.39 457.421
3550 0 89.3904 12.9209 1155 107.172 656.388 456.593
3551 0 90.4788 9.93602 899 109.125 654.566 461.278
3552 0 95.5821 11.5189 1101 108.15 654.195 457.224
3553 0 103.142 15.6386 1613 102.932 654.111 441.733
3554 0 102.486 11.709 1200 108.352 653.338 452.658
3555 0 104.649 9.48888 993 110.955 656.247 455.097
3556 0 106.692 12.4564 1329 107.853 653.944 452.347
3557 0 112.419 14.3392 1612 104.091 654.596 455.241
3558 0 113.532 13.5029 1533 106.718 653.487 448.865
3559 0 118.602 11.8632 1407 106.352 652.802 454.743
3560 0 121.336 15.9063 1930 102.204 652.015 448.914
3561 1 69.1662 13.9519 965 98.4622 651.403 475.763
3562 0 67.4789 12.315 831 102.937 650.388 468.625
3563 0 69.0711 8.91834 616 103.891 650.156 474.352
3564 0 73.3718 11.6802 857 102.057 649.007 470.293
3565 1 150.061 12.8814 1933 105.353 649.418 434.431
3566 0 148.596 10.0272 1490 109.191 648.825 431.084
3567 1 83.4194 12.611 1052 99.5561 649.928 466.576
3568 0 86.4744 11.1709 966 101.412 649.503 462.081
3569 1 50.2985 9.6822 487 103.326 649.758 476.924
3570 0 52.3998 11.4504 600 99.8817 648.922 474.767
3571 0 52.3 11.6826 611 98.8789 647.619 475.851
3572 0 57.1836 18.3095 1047 90.0993 647.81 477.426
3573 0 55.24 11.1694 617 98.59 648.608 475.018
3574 0 59.0778 13.2537 783 100.117 650.369 470.585
3575 0 61.2972 14.9436 916 97.9072 650.416 467.927
3576 0 60.2901 15.1103 911 98.5324 650.712 461.491
3577 0 62.3273 13.1403 819 101.319 650.057 464.289
3578 0 66.3405 14.6517 972 99.1626 651.392 466.173
3579 0 67.6158 16.7416 1132 97.9072 650.56 459.732
3580 0 66.627 11.6469 776 104.384 651.343 462.956
3581 0 67.3264 12.6993 855 103.474 651.848 462.496
3582 0 72.4761 13.3285 966 102.349 651.576 461.189
3583 0 74.388 13.1338 977 104.493 651.485 457.396
3584 0 78.5817 11.1349 875 107.003 652.454 454.49
3585 0 79.4467 15.5324 1234 102.201 651.596 451.438
3586 0 82.8037 15.6032 1292 103.944 652.896 450.479
3587 0 85.765 16.5685 1421 101.435 652.404 452.906
3588 0 90.516 12.3514 1118 108.182 653.31 449.781
3589 0 88.7248 8.96029 795 108.112 652.765 439.624
3590 0 95.9219 12.4476 1194 103.847 652.358 446.309
3591 0 97.6559 9.74852 952 108.536 653.076 441.397
3592 0 102.576 13.6875 1404 101.032 653.07 450.066
3593 1 59.3788 13.3549 793 97.1967 652.836 474.918
3594 0 59.0879 13.0484 771 99.4786 653.109 472.113
3595 0 60.2793 15.4116 929 103.136 653.944 470.143
3596 0 66.636 14.3016 953 103.359 653.727 470.191
3597 0 68.5434 17.2591 1183 100.549 654.262 472.921
3598 0 67.3518 13.4072 903 106.038 652.284 472.947
3599 0 71.5578 17.8597 1278 99.2394 650.973 472.52
3600 0 73.3005 13.6425 1000 104.651 652.083 470.931
3601 0 79.4448 21.9146 1741 93.7243 652.909 473.119
3602 0 78.3896 15.7291 1233 103.883 651.946 464.56
3603 0 80.3209 16.2224 1303 103.621 652.035 464.635
3604 0 82.7587 12.6029 1043 107.776 650.565 465.911
3605 0 82.4532 13.0619 1077 108.625 651.88 464.213
3606 0 88.5525 14.8048 1311 105.838 650.791 461.143
3607 0 89.3355 15.9959 1429 104.308 650.153 457.609
3608 0 92.4204 15.3538 1419 104.462 649.883 457.458
3609 0 99.4903 13.7702 1370 104.874 649.562 455.638
3610 0 99.5148 16.0881 1601 104.003 649.725 452.814
3611 0 106.618 18.7586 2000 99.621 650.37 455.576
3612 1 55.2127 10.8852 601 107.802 647.301 471.827
3613 0 58.3121 13.4963 787 105.723 647.821 472.004
3614 0 60.2888 14.1652 854 104.156 648.342 468.225
3615 0 63.2916 14.3621 909 99.593 649.098 466.782
3616 0 65.2375 12.4315 811 105.639 647.631 465.863
3617 0 63.1763 12.3781 782 105.63 646.032 462.61
3618 0 68.3463 15.319 1047 100.746 647.147 466.474
3619 0 77.7153 20.1633 1567 91.8322 648.057 463.741
3620 0 72.1154 12.7712 921 102.924 647.138 458.366
3621 0 75.2779 12.2612 923 102.898 647.623 462.021
3622 0 74.0902 10.1633 753 106.548 647.462 457.126
3623 0 82.1409 14.8038 1216 100.956 648.415 453.794
3624 0 82.1352 13.8309 1136 103.807 648.548 453.072
3625 0 86.1358 17.4376 1502 98.8582 650.143 452.137
3626 0 87.3215 19.2163 1678 97.8182 649.451 452.195
3627 0 89.0894 13.0431 1162 107.145 650.48 449.206
3628 0 95.1733 15.8658 1510 103.817 652.169 446.966
3629 0 99.19 17.532 1739 101.064 652.035 445.217
3630 0 101.2 15.3261 1551 103.69 652.49 446.645
3631 0 104.278 13.7325 1432 106.112 651.776 441.62
3632 0 108.174 16.7046 1807 100.893 652.8 446.223
3633 1 63.0828 14.1084 890 102.861 651.071 466.182
3634 0 62.0561 10.7322 666 110.218 652.239 464.146
3635 0 63.2212 12.9387 818 106.053 654.109 463.836
3636 0 66.2364 12.9385 857 106.562 654.356 462.221
3637 0 68.1836 12.0997 825 105.655 653.642 459.56
3638 0 68.1715 13.4807 919 104.146 654.512 459.349
3639 0 73.1678 12.8745 942 105.185 653.338 458.192
3640 0 73.1119 13.3084 973 105.216 654.01 458.399
3641 0 78.2139 12.632 988 106.148 652.091 458.021
3642 0 80.1915 14.8769 1193 101.759 653.126 460.227
3643 0 82.1775 11.9376 981 106.298 652.629 457.353
3644 0 85.2778 12.6762 1081 105.978 652.022 453.734
3645 0 88.2143 13.7506 1213 103.656 651.932 456.649
3646 0 92.2634 10.4592 965 108.086 650.971 453.647
3647 0 96.3187 15.5318 1496 100.963 650.687 450.583
3648 0 96.2887 10.4166 1003 108.961 651.488 447.848
3649 0 100.317 11.2444 1128 107.617 650.172 444.468
3650 0 99.2072 16.1783 1605 101.127 649.913 447.987
3651 0 110.272 15.226 1679 102.208 650.136 441.045
3652 1 61.2007 12.5979 771 102.73 649.235 471.099
3653 0 64.3815 14.4762 932 100.762 649.041 466.226
3654 0 64.1697 11.9527 767 104.133 646.09 470.02
3655 0 66.1876 14.2625 944 101.001 646.875 468.432
3656 0 68.2097 12.5055 853 103.416 649.068 466.995
3657 0 67.3823 13.5792 915 101.494 649.868 466.487
3658 0 76.4397 14.953 1143 99.1356 650.006 460.701
3659 0 77.2907 16.0821 1243 97.5961 649.969 456.961
3660 0 75.4123 12.4515 939 103.59 650.48 454.99
3661 0 80.4802 11.916 959 103.628 651.028 455.366
3662 0 83.4687 13.1307 1096 101.736 651.131 455.628
3663 0 85.3768 13.6454 1165 100.711 651.151 452.107
3664 0 90.4549 12.5698 1137 101.531 652.142 452.862
3665 0 92.511 16.4089 1518 97.6153 650.912 445.905
3666 0 99.5285 16.9298 1685 96.1893 652.08 447.79
3667 0 97.0396 11.181 1085 104.308 651.625 443.817
3668 0 102.679 17.316 1778 96.734 651.632 443.607
3669 1 58.2063 14.0019 815 98.5141 653.395 465.109
3670 0 60.4164 15.4594 934 95.6756 652.852 468.058
3671 0 62.604 18.4653 1156 93.8919 652.318 460.522
3672 0 62.0949 16.4426 1021 95.478 655.519 464.798
3673 0 65.2 12.4847 814 100.51 655.56 468.398
3674 0 67.1712 13.9643 938 101.516 657.079 463.456
3675 0 68.2396 11.9432 815 105.177 657.009 459.647
3676 0 71.1871 12.4882 889 103.647 657.24 460.852
3677 0 71.163 12.914 919 104.728 658.114 458.802
3678 0 73.1515 10.4851 767 108.501 658.269 457.918
3679 0 79.3005 14.6405 1161 101.352 657.58 462.571
3680 0 82.2123 14.1098 1160 102.477 657.828 461.151
3681 0 84.2771 14.9151 1257 102.864 657.365 457.494
3682 0 88.2292 14.9724 1321 102.816 657.38 458.656
3683 0 91.1096 19.9101 1814 95.3048 657.232 463.126
3684 0 94.2036 15.562 1466 102.408 656.733 453.997
3685 0 99.2722 15.12 1501 101.632 656.99 459.091
3686 0 101.335 12.7399 1291 106.531 656.906 455.145
3687 0 107.226 17.9247 1922 99.0447 656.649 454.006
3688 0 110.19 15.5458 1713 102.658 655.688 451.686
3689 0 109.277 17.387 1900 100.102 655.778 454.747
3690 1 62.05 10.4593 649 102.083 654.556 476.163
3691 0 61.1422 12.3155 753 100.507 654.641 472.029
3692 0 65.1836 12.9174 842 99.7066 654.591 469.663
3693 0 66.1385 17.04 1127 94.8252 652.702 472.925
3694 0 71.2134 17.609 1254 94.8644 652.388 477.699
3695 0 72.3076 20.6479 1493 94.7435 652.033 470.275
3696 0 74.241 16.6485 1236 100.012 652.34 461.306
3697 0 76.2554 15.0809 1150 102.106 651.479 467.38
3698 0 77.2295 13.7642 1063 103.669 650.515 468.199
3699 0 79.2188 16.1956 1283 101.076 649.311 466.881
3700 0 82.4896 14.6928 1212 102.962 649.983 463.891
3701 0 78.2723 9.76079 764 112.236 649.339 457.791
3702 0 87.423 16.2657 1422 102.154 650.531 459.553
3703 0 87.3931 12.7699 1116 107.243 649.684 459.258
3704 0 91.3753 15.6388 1429 103.251 650.633 458.47
3705 0 91.231 14.5345 1326 106.823 651.235 453.696
3706 0 94.4109 17.8157 1682 102.119 651.254 453.976
3707 0 99.1619 18.0412 1789 102.118 650.937 448.112
3708 0 99.2444 14.5701 1446 108.879 651.535 444.51
3709 0 104.227 14.2861 1489 108.703 652.329 444.97
3710 0 107.293 13.8872 1490 109.612 652.786 443.897
3711 1 56.1498 11.8967 668 108.222 654.156 467.389
3712 0 57.3245 10.5365 604 108.227 651.382 458.207
3713 0 59.2164 13.628 807 102.099 650.877 457.512
3714 0 62.0706 15.724 976 103.487 652.305 466.411
3715 0 65.321 14.4976 947 106.887 652.083 460.453
3716 0 68.2503 13.9047 949 107.325 653.173 462.815
3717 0 68.1997 16.7596 1143 103.845 652.775 460.508
3718 0 71.3044 13.7158 978 106.31 652.602 463.268
3719 0 73.1214 17.6693 1292 102.082 653.87 458.683
3720 0 73.1871 15.1666 1110 105.737 653.168 457.904
3721 0 77.1336 16.6724 1286 103.463 654.544 458.556
3722 0 78.2998 14.4573 1132 106.834 652.306 456.576
3723 0 82.4373 14.7506 1216 105.496 654.188 458.544
3724 0 83.2725 14.6987 1224 104.799 653.446 463.429
3725 0 86.3373 11.5361 996 109.948 652.889 460.353
3726 1 54.351 12.6033 685 101.839 652.758 479.942
3727 0 51.5392 11.467 591 107.763 653.345 474.316
3728 0 53.8137 14.6059 786 103.559 652.635 470.284
3729 0 53.4941 14.525 777 104.394 654.47 467.282
3730 0 54.432 11.519 627 108.928 652.63 469.9
3731 0 58.317 14.7641 861 104.357 653.872 471.708
3732 0 61.5641 14.7164 906 104.056 652.977 467.501
3733 0 61.4985 13.8703 853 105.267 652.354 473.118
3734 0 64.3498 17.4204 1121 99.5629 651.441 472.238
3735 0 65.1667 14.1176 920 104.492 650.462 472.13
3736 0 68.1903 16.2046 1105 101.057 650.236 470.628
3737 0 69.258 12.5328 868 106.953 649.855 469.18
3738 0 74.2677 17.0734 1268 99.53 648.316 468.722
3739 0 71.2997 14.4461 1030 104.865 648.829 465.907
3740 0 75.4536 14.0086 1057 105.557 648.581 464
3741 0 78.4254 15.6582 1228 103.27 649.129 460.152
3742 0 81.3166 16.0484 1305 102.242 648.316 458.619
3743 0 83.477 17.0945 1427 100.5 648.191 458.478
3744 0 88.3291 15.012 1326 102.492 648.634 457.501
3745 1 47.0764 10.1112 476 106.536 646.891 474.338
3746 0 49.1116 12.1356 596 105.388 648.237 470.852
3747 0 50.2004 14.9202 749 100.622 647.722 468.418
3748 0 52.5768 12.1917 641 104.321 651.017 466.557
3749 0 51.0756 12.3738 632 98.9082 648.139 461.837
3750 0 56.185 11.8893 668 99.8892 650.591 462.024
3751 0 55.2533 14.5331 803 96.4209 650.798 463.951
3752 0 55.2139 12.7504 704 101.784 650.364 456.774
3753 0 59.2417 13.7741 816 100.176 650.729 456.795
3754 0 63.7172 13.1205 836 98.75 650.681 458.083
3755 0 59.3642 11.4042 677 105.368 651.006 453.594
3756 0 65.3506 13.9708 913 100.598 652.436 452.168
3757 0 69.4714 14.8982 1035 98.0841 652.951 455.775
3758 0 68.4036 17.002 1163 97.6621 653.637 455.78
3759 0 68.2411 13.5402 924 104.304 654.201 450.521
3760 0 74.2954 11.4408 850 104.762 654.571 453.755
3761 0 75.2135 13.7741 1036 101.681 653.692 453.119
3762 0 78.2155 14.3706 1124 101.989 655.644 450.281
3763 0 81.1396 11.4617 930 104.713 655.37 454.454
3764 0 83.4003 14.8441 1238 101.155 655.283 453.443
3765 0 88.6744 10.8938 966 103.851 656.311 457.296
3766 0 91.3516 10.7825 985 106.422 655.268 453.054
3767 0 95.3439 15.1032 1440 102.158 657.134 447.943
3768 0 94.3905 14.832 1400 101.284 656.454 451.878
3769 1 55.4267 15.516 860 95.4488 657.648 470.984
3770 0 55.1572 11.6213 641 100.86 656.621 469.739
3771 0 57.0697 11.5998 662 98.8097 656.388 466.391
3772 0 55.2994 11.4649 634 100.369 653.819 466.535
3773 0 57.1618 13.3306 762 98.294 654.736 466.357
3774 0 61.2655 7.24715 444 105.581 652.705 466.836
3775 0 64.0684 11.7999 756 100.611 653.168 462.971
3776 0 67.0925 15.8438 1063 96.1157 651.8 464.091
3777 0 71.0957 14.4734 1029 98.4111 651.013 462.06
3778 0 69.2334 9.89407 685 105.346 650.955 457.527
3779 0 76.2378 15.1762 1157 98.2895 650.299 455.838
3780 0 78.2385 14.7114 1151 98.6325 651.068 458.687
3781 0 79.4484 13.9965 1112 100.99 650.115 454.591
3782 0 81.1134 13.9311 1130 101.838 649.607 449.45
3783 0 83.1871 12.0331 1001 104.212 650.104 447.358
3784 0 87.3351 13.9348 1217 101.52 648.739 449.378
3785 0 89.2759 12.9374 1155 103.944 649.037 446.248
3786 0 91.173 15.147 1381 100.657 650.184 444.196
3787 0 96.3403 16.8154 1620 98.5204 648.138 444.809
3788 1 56.5269 12.1004 684 98.9474 648.99 463.045
3789 0 54.4555 11.514 627 100.968 650.614 460.85
3790 0 59.4894 12.1534 723 103.043 650.894 464.831
3791 0 63.2497 16.1582 1022 98.0342 650.294 462.421
3792 0 64.2227 18.7006 1201 95.1041 652.669 460.689
3793 0 64.1959 13.0071 835 103.016 651.268 459.207
3794 0 66.1135 15.7003 1038 100.474 651.582 455.876
3795 0 68.2024 13.7678 939 102.835 653.075 457.194
3796 0 69.1378 13.1332 908 105.199 653.414 455.152
3797 0 72.1953 14.35 1036 104.128 654.294 448.612
3798 0 78.205 19.321 1511 96.6373 654.58 449.766
3799 0 77.3073 16.7513 1295 101.115 654.038 451.521
3800 0 79.1438 12.2183 967 106.39 655.605 452.924
3801 0 83.2151 12.6059 1049 107.099 654.602 446.571
3802 0 88.2526 14.9911 1323 103.295 656.205 447.414
3803 0 88.18 14.1302 1246 104.769 656.25 445.257
3804 0 94.172 14.4204 1358 104.175 656.836 443.822
3805 0 96.211 15.4036 1482 104.426 657.563 441.651
3806 0 98.1142 13.3926 1314 107.402 656.734 439.281
3807 0 102.27 14.8627 1520 105.138 656.905 440.829
3808 0 106.273 15.3378 1630 105.026 658.003 435.909
3809 0 107.455 15.8857 1707 103.857 657.193 442.146
3810 0 109.195 13.682 1494 106.485 657.226 443.752
3811 0 117.169 15.1234 1772 104.466 656.795 441.245
3812 0 122.266 15.1392 1851 105.294 656.688 439.66
3813 0 128.552 17.8061 2289 102.145 657.357 436.933
3814 0 128.291 14.7009 1886 108.651 655.77 438.195
3815 0 131.218 14.7464 1935 109.318 655.495 437.064
3816 0 138.454 14.0335 1943 110.939 654.638 433.776
3817 0 138.454 14.1274 1956 142.419 653.635 433.703
3818 1 92.3617 11.5199 1064 107.467 655.321 463.392
3819 0 90.1797 10.3127 930 107.6 653.648 467.569
3820 0 88.2853 13.1166 1158 108.302 651.746 460.27
3821 1 166.547 16.3017 2715 112.359 652.293 411.202
3822 0 169.646 13.5517 2299 114.504 651.137 414.081
3823 0 177.746 16.9005 3004 108.737 651.624 416.197
3824 1 100.368 13.4505 1350 109.244 651.102 450.87
3825 0 104.258 14.3394 1495 108.185 650.308 450.627
3826 0 110.36 14.3077 1579 107.803 650.419 448.926
3827 0 112.37 12.5211 1407 108.952 651.447 453.038
3828 0 114.285 13.7113 1567 110.811 649.778 438.828
3829 0 121.409 14.6859 1783 108.568 649.528 438.623
3830 0 123.245 14.4915 1786 108.882 650.4 440.788
3831 0 125.445 13.1691 1652 112.695 649.022 435.822
3832 0 129.274 14.6665 1896 109.664 649.774 432.251
3833 0 129.274 14.7825 1911 129.862 649.801 432.284
3834 0 136.325 16.2993 2222 108.322 650.429 423.362
3835 0 142.423 16.9284 2411 107.889 649.901 415.878
3836 0 145.347 21.0668 3062 101.234 649.62 426.522
3837 0 147.596 14.8853 2197 111.335 650.995 421.543
3838 0 151.392 13.574 2055 114.311 651.783 417.108
3839 1 85.274 11.1992 955 116.786 650.622 447.68
3840 0 89.2405 13.9735 1247 114.216 651.878 443.725
3841 0 93.3858 14.6061 1364 112.749 653.216 442.848
