time division length width area intensity CMx CMy
0 0 34.065 13.3275 454 145.238 440.87 475.67
1 0 34.0149 13.0825 445 145.78 439.971 475.836
2 0 36.14 13.6414 493 135.976 438.643 478.128
3 0 37.0923 14.2348 528 141.797 438.706 475.409
4 0 37.0809 14.9673 555 135.933 437.685 474.173
5 0 39.1822 13.8839 544 135.235 437.208 475.809
6 0 39.0582 16.9746 663 130.544 435.929 474.955
7 0 44.077 14.3386 632 137.622 435.445 475.207
8 0 41.0383 15.717 645 133.885 435.572 473.465
9 0 42.0276 14.4429 607 139.667 432.99 473.184
10 0 44.1402 17.2179 760 132.786 433.249 472.339
11 0 45.1287 17.9265 809 127.745 431.278 472.761
12 0 46.0773 12.6961 585 140.619 431.631 474.373
13 0 45.081 15.1505 683 139.183 431.824 469.293
14 0 48.2146 16.1984 781 133.398 431.595 469.606
15 0 50.0914 16.7494 839 130.329 431.819 467.211
16 0 51.0316 16.6563 850 130.441 432.039 466.061
17 0 54.0585 15.9272 861 127.553 432.085 462.984
18 0 53.2215 14.0545 748 128.007 432.493 461.413
19 0 53.2215 14.0169 746 156.999 433.509 461.362
20 0 55.0509 15.6038 859 130.787 431.57 455.935
21 0 57.2557 16.1207 923 126.034 432.79 456.855
22 0 60.1949 15.9316 959 128.129 432.319 454.964
23 0 63.2389 14.6903 929 129.298 435.333 455.325
24 0 64.04 16.1461 1034 128.691 433.482 451.773
25 0 65.1092 17.7855 1158 125.424 436.141 448.572
26 0 69.1782 15.1348 1047 126.994 435.95 453.181
27 0 70.2111 14.4706 1016 129.843 437.042 449.215
28 0 74.0694 12.3533 915 131.884 438.025 449.729
29 0 77.2042 14.4552 1116 124.412 439.379 448.461
30 0 79.3242 15.7581 1250 123.782 440.224 445.514
31 0 83.1791 17.6126 1465 119.719 440.597 447.614
32 0 83.2214 15.9695 1329 120.889 441.379 447.664
33 1 45.1673 17.2027 777 118.539 442.867 463.806
34 0 47.0567 18.1271 853 113.707 442.429 463.889
35 0 46.0297 14.1648 652 125.968 443.985 461.842
36 0 49.041 13.6009 667 124.282 442.735 462.585
37 0 52.0429 18.6769 972 114.86 444.688 461.673
38 0 52.2312 20.1221 1051 110.137 443.604 464.924
39 0 54.0383 14.7858 799 117.299 445.203 465.63
40 0 55.1444 13.8727 765 117.244 444.81 463.931
41 0 57.1674 16.0231 916 115.68 444.263 466.366
42 0 60.1537 14.7788 889 116.265 443.25 466.748
43 0 63.1841 15.3836 972 114.471 442.912 464.871
44 0 60.0558 13.4542 808 118.92 442.153 463.197
45 0 67.4003 17.9821 1212 117.315 441.65 462.946
46 0 68.2161 15.7587 1075 129.464 439.964 463.167
47 0 69.0922 13.8945 960 131.507 439.999 464.305
48 0 71.4872 14.0725 1006 130.462 439.483 460.364
49 0 77.146 23.1768 1788 116.862 438.239 458.765
50 0 80.4485 15.6125 1256 128.298 439.037 460.529
51 0 84.3134 16.5098 1392 129.038 437.514 457.774
52 0 86.2236 15.4946 1336 131.76 435.803 454.843
53 0 89.2956 16.9325 1512 128.468 434.831 452.519
54 0 94.3321 17.4278 1644 127.046 435.465 451.379
55 0 96.1574 15.225 1464 130.341 434.62 448.905
56 1 51.1369 13.5519 693 131.136 434.38 470.186
57 0 53.2053 14.5098 772 128.495 433.54 467.486
58 0 54.2643 14.0239 761 130.457 433.113 466.442
59 0 56.4641 15.1955 858 128.079 432.554 465.077
60 0 57.0968 14.204 811 130.101 433.057 462.82
61 0 60.2011 16.5778 998 124.046 432.912 462.488
62 0 61.174 15.6275 956 123.969 432.382 457.792
63 0 62.3374 15.8171 986 125.635 432.021 455.042
64 0 66.2824 14.0309 930 128.499 432.672 452.088
65 0 68.5631 15.2706 1047 127.813 433.111 454.63
66 0 71.2077 16.4168 1169 127.29 432.304 452.02
67 0 72.2783 18.8853 1365 121.911 433.659 453.911
68 0 74.6618 15.0546 1124 131.964 434.154 446.279
69 0 78.4876 20.0286 1572 121.066 433.691 449.443
70 0 80.423 18.2162 1465 124.284 434.834 446.505
71 0 83.2656 18.0026 1499 124.408 433.805 446.326
72 0 85.4888 13.5924 1162 132.937 435.592 444.193
73 0 88.4936 18.8714 1670 122.818 435.535 442.445
74 0 90.3322 16.9818 1534 127.416 436.032 437.642
75 0 94.5024 14.6875 1388 128.964 436.905 440.11
76 0 95.5344 16.1722 1545 127.173 437.504 435.369
77 0 100.529 14.5232 1460 128.064 437.152 435.589
78 1 52.3517 13.1419 688 118.544 437.376 459.984
79 0 54.4672 14.9081 812 115.552 438.049 461.02
80 0 56.3891 13.1408 741 117.343 439.286 462.758
81 0 59.1626 13.9446 825 120.475 440.602 463.783
82 0 60.3487 19.3873 1170 112.547 439.764 462.293
83 0 63.3951 19.1498 1214 114.951 439.627 464.228
84 0 65.2782 14.3846 939 125.611 439.737 459.547
85 0 66.2629 13.039 864 128.552 438.692 458.543
86 0 70.3331 14.8721 1046 124.181 439.057 462.498
87 0 73.356 14.6955 1078 123.955 438.431 463.517
88 0 74.3384 13.721 1020 127.293 437.922 460.718
89 0 75.555 13.9501 1054 126.763 437.735 458.521
90 0 77.4616 10.5342 816 130.663 437.119 455.002
91 0 83.2854 13.2796 1106 123.801 437.056 459.174
92 0 85.3574 13.0744 1116 122.135 437.482 460.291
93 0 88.3256 12.0803 1067 125.208 436.614 456.825
94 0 91.2201 14.1855 1294 122.704 434.833 452.953
95 0 95.3391 13.1426 1253 123.311 435.159 453.565
96 0 100.405 16.1745 1624 118.198 431.363 453.401
97 0 103.261 14.6329 1511 117.856 433.715 453.04
98 0 104.465 14.7705 1543 121.963 431.238 444.714
99 0 108.573 16.0813 1746 118.225 430.441 446.968
100 0 113.368 14.1398 1603 120.735 430.371 443.002
101 0 115.338 12.7364 1469 123.415 429.61 439.714
102 1 63.1454 13.1443 830 117.052 429.578 465.392
103 0 67.5242 14.38 971 114.904 429.904 463.919
104 0 68.5784 13.9402 956 115.434 429.553 460.394
105 0 65.2622 9.02513 589 123.649 430.243 460.978
106 0 72.2351 13.8714 1002 117.742 430.388 453.665
107 0 76.2365 10.415 794 122.321 428.819 454.994
108 0 76.3702 10.711 818 121.322 428.884 452.224
109 0 80.4003 13.4079 1078 118.628 428.931 451.102
110 0 82.732 11.8817 983 121.542 429.81 445.012
111 0 87.5818 14.2495 1248 117.228 430.718 445.248
112 0 86.733 12.9708 1125 119.561 430.418 445.026
113 0 89.4432 14.4561 1293 118.462 431.565 436.442
114 1 50.659 11.4294 579 114.979 433.057 461.416
115 0 49.6167 11.1454 553 117.505 433.772 459.667
116 0 53.2027 11.5408 614 114.616 434.039 459.852
117 0 55.2854 12.2636 678 116.947 435.211 457.994
118 0 54.1984 13.303 721 113.99 436.061 457.839
119 0 56.2338 9.37159 527 119.949 436.184 458.528
120 0 56.3389 9.05236 510 121.408 437.273 455.169
121 0 61.4048 13.6797 840 113.917 436.663 458.795
122 0 64.5318 13.1408 848 114.821 437.915 457.254
123 0 63.2648 12.0446 762 118.324 437.388 458.318
124 0 66.1513 13.3482 883 116.316 437.571 457.632
125 0 69.2151 14.8089 1025 115.026 437.8 456.326
126 0 71.4086 13.8779 991 117.561 438.437 455.204
127 0 73.1619 15.3905 1126 116.86 437.87 454.471
128 0 75.3108 14.0617 1059 119.043 437.093 455.966
129 0 77.3467 13.989 1082 118.967 437.569 458.247
130 0 79.7219 12.4182 990 122.719 436.372 456.458
131 0 84.2572 13.5893 1145 120.355 437.128 455.959
132 0 85.6135 14.8925 1275 119.567 434.813 455.182
133 0 87.4602 14.9668 1309 120.629 434.788 452.011
134 0 93.5812 15.4518 1446 118.889 434.631 453.232
135 0 96.8849 16.597 1608 115.78 434.44 455.808
136 0 98.6031 14.604 1440 120.228 434.985 451.139
137 0 103.7 13.3655 1386 121.431 432.414 451.418
138 0 103.512 12.6459 1309 124.797 433.487 447.589
139 1 55.376 12.2436 678 120.736 431.807 471.118
140 0 58.5243 15.4295 903 116.682 432.093 467.668
141 0 59.5063 14.3346 853 119.85 431.801 468.783
142 0 57.3363 13.0284 747 123.783 431.274 467.324
143 0 57.3363 13.011 746 151.387 432.263 467.315
144 0 61.2264 15.4509 946 121.636 430.961 463.644
145 0 64.4637 14.0389 905 123.07 429.571 463.562
146 0 66.1886 15.5314 1028 121.962 429.317 460.162
147 0 68.5901 13.3984 919 125.079 428.489 458.844
148 0 70.2838 13.8866 976 125.9 428.282 455.509
149 0 71.3571 14.028 1001 125.944 428.619 455.29
150 0 75.4188 14.6648 1106 126.097 426.656 452.148
151 0 77.3582 17.2186 1332 119.772 427.568 453.548
152 0 76.3492 13.5692 1036 129.267 428.328 448.169
153 0 79.2808 12.853 1019 131.098 428.434 443.863
154 0 84.2373 13.7231 1156 127.231 429.755 446.575
155 0 81.3203 11.1534 907 134.365 429.053 444.63
156 0 90.4805 17.385 1573 123.358 430.277 438.92
157 0 94.7207 17.5147 1659 122.638 430.719 436.265
158 0 93.1983 14.3028 1333 131.111 431.085 432.719
159 1 52.0454 12.0472 627 127.08 431.147 456.989
160 0 55.1025 13.1573 725 121.841 431.794 459.586
161 0 54.2816 14.4063 782 119.171 431.73 458.253
162 0 54.1188 11.5856 627 125.376 433.008 456.914
163 0 57.1593 13.856 792 120.794 433.269 457.09
164 0 60.2682 12.3448 744 121.956 434.358 459.215
165 0 60.3079 11.7729 710 123.751 433.835 460.09
166 0 60.2984 12.803 772 123.699 435.478 456.333
167 0 60.2984 12.7532 769 150.264 436.475 456.304
168 0 67.3068 12.8516 865 122.378 434.861 456.898
169 0 67.3515 12.6352 851 123.858 436.58 457.353
170 0 71.4341 12.879 920 121.218 436.426 461.473
171 0 73.5475 12.8352 944 125.27 435.964 456.566
172 0 71.422 11.9711 855 127.862 436.469 455.395
173 0 78.5212 13.283 1043 124.471 434.98 459.016
174 0 79.4692 11.0357 877 128.561 434.145 462.628
175 0 81.2948 13.1128 1066 127.427 434.053 458.595
176 0 86.6385 11.8885 1030 126.473 432.67 463.184
177 0 90.4014 14.6126 1321 124.257 434.064 455.453
178 0 88.3736 12.6169 1115 129.297 433.952 454.53
179 0 92.4399 10.8395 1002 131.179 431.624 457.657
180 1 53.1959 13.1777 701 122.448 431.242 472.822
181 0 53.1352 10.9908 584 126.235 430.51 476.586
182 0 53.3687 10.3244 551 120.136 429.924 476.784
183 0 54.1483 12.7797 692 117.59 430.197 473.789
184 0 56.3285 11.3087 637 119.688 429.485 473.257
185 0 57.0751 17.8537 1019 109.254 428.352 473.724
186 0 58.1875 12.1504 707 118.598 426.361 471.751
187 0 60.2731 12.742 768 119.275 427.003 468.103
188 0 62.1183 17.4667 1085 112.453 426.181 467.582
189 0 68.4209 14.0454 961 115.327 426.778 468.148
190 0 66.2664 15.7999 1047 115.128 426.32 462.147
191 0 69.4403 14.4297 1002 117.432 425.613 459.438
192 0 69.4403 14.3721 998 135.407 423.62 459.327
193 0 73.3325 12.082 886 120.346 425.19 457.302
194 0 76.2202 13.6316 1039 114.585 426.448 458.437
195 0 77.1457 14.7902 1141 115.743 426.425 451.326
196 1 42.1981 11.6593 492 117.575 425.809 470.874
197 0 44.1126 12.6268 557 115.925 426.81 468.53
198 0 44.189 12.7181 562 116.651 428.838 466.614
199 0 46.096 13.0597 602 112.601 429.274 467.065
200 0 44.2219 15.1056 668 110.979 429.841 467.525
201 0 47.111 12.9269 609 115.087 429.616 465.169
202 0 48.1767 11.2087 540 117.733 429.774 464.837
203 0 49.3547 9.4216 465 120.837 429.766 465.282
204 0 50.0379 13.4098 671 115.358 431.706 464.787
205 0 50.1492 12.6223 633 117.349 431.91 465.022
206 0 50.1492 12.6423 634 143.377 432.894 465.047
207 0 51.0916 11.8023 603 121.109 432.983 462.29
208 0 55.375 12.5147 693 118.587 433.905 463.833
209 0 57.1223 13.4799 770 117.447 435.271 463.636
210 0 58.151 10.7307 624 123.992 435.393 461.213
211 0 58.1026 13.1492 764 120.25 434.314 463.844
212 0 61.0871 12.6704 774 121.466 434.021 462.614
213 0 62.1914 18.9737 1180 111.332 433.861 464.292
214 0 66.2698 13.6714 906 119.8 433.94 463.236
215 0 68.3456 13.461 920 120.317 435.232 463.004
216 0 70.2753 12.9633 911 120.746 435.521 463.801
217 0 73.2369 17.9281 1313 110.832 435.587 467.223
218 0 76.2616 13.6242 1039 118.389 434.215 465.136
219 0 77.351 12.8505 994 121.394 434.486 462.462
220 0 78.1701 12.4216 971 123.06 435.846 460.004
221 0 81.1982 14.5939 1185 120.689 434.324 459.86
222 0 85.3 13.9625 1191 120.256 434.104 461.513
223 0 87.6114 12.076 1058 121.345 432.474 463.402
224 0 90.5545 11.2198 1016 125.179 431.116 455.834
225 1 48.1656 12.2702 591 118.887 429.594 475.809
226 0 51.1157 14.1248 722 116.661 428.427 475.896
227 0 51.0948 13.2107 675 122.164 428.449 473.185
228 0 50.1627 12.599 632 115.555 427.38 473.144
229 0 51.0766 10.5528 539 118.186 426.529 474.416
230 0 57.0354 18.9181 1079 105.638 425.927 471.352
231 0 57.087 15.31 874 110.609 426.169 472.617
232 0 55.2383 13.7948 762 114.294 425.291 468.655
233 0 58.1845 11.8073 687 116.515 424.84 469.697
234 0 60.2325 13.4645 811 113.758 425.423 467.912
235 0 62.1105 13.0091 808 115.108 424.913 462.934
236 0 63.1466 11.6079 733 115.461 425.467 464.974
237 0 65.2966 13.0328 851 113.522 425.028 460.595
238 0 68.1091 14.0363 956 111.935 424.594 456.477
239 0 71.412 13.6392 974 108.851 425.373 461.37
240 0 73.3084 14.8278 1087 109.814 424.176 454.852
241 0 75.382 12.7219 959 111.784 426.308 453.507
242 0 79.6126 11.6188 925 112.492 426.8 455.797
243 0 75.295 8.88506 669 117.635 426.308 454.085
244 0 75.5421 7.75726 586 117.928 427.841 456.119
245 0 85.4498 11.0006 940 115.387 427.855 447.293
246 0 87.3763 11.0327 964 116.296 430.449 446.533
247 1 47.1446 13.0874 617 109.36 430.055 466.807
248 0 48.1883 11.0815 534 112.157 431.388 464.974
249 0 48.1883 11.0608 533 120.25 432.39 464.841
250 0 48.0424 13.613 654 109.997 430.552 462.928
251 0 50.0647 11.7049 586 111.222 432.5 464.507
252 0 51.1113 10.0174 512 113.336 433.443 466.07
253 0 50.2929 9.14641 460 115.589 434.302 463.148
254 0 54.1101 9.72092 526 114.27 434.848 460.924
255 0 55.2301 12.2035 674 111.344 433.445 463.139
256 0 59.4438 14.0132 833 106.531 434.96 464.804
257 0 58.1139 7.02069 408 115.65 435.336 467.926
258 0 63.2842 11.0928 702 110.301 434.845 465.5
259 0 65.2882 15.5465 1015 102.246 434.587 469.187
260 0 68.2489 8.74739 597 110.886 434.96 468.687
261 0 65.3083 7.08945 463 115.734 433.436 469.857
262 0 70.236 12.4295 873 108.806 433.488 466.63
263 0 72.2744 12.8538 929 109.484 432.718 465.73
264 0 76.6801 16.7188 1282 105.16 430.642 464.295
265 0 79.5513 15.0846 1200 106.591 432.481 463.998
266 0 76.1646 5.38308 410 114.651 431.485 474.698
267 0 83.2893 10.5055 875 110.256 432.021 463.286
268 0 85.1918 13.5694 1156 107.362 430.294 460.304
269 0 89.3334 14.0709 1257 107.766 429.7 458.726
270 1 49.2212 13.1447 647 105.784 429.139 477.076
271 0 50.077 10.8034 541 108.453 428.959 477.181
272 0 54.314 14.8765 808 104.507 427.5 470.72
273 0 58.1331 14.57 847 108.972 428.737 470.578
274 0 54.2273 14.1626 768 105.432 427.471 472.026
275 0 55.3497 11.2196 621 109.008 427.147 469.615
276 0 57.1717 12.926 739 105.928 426.41 469.974
277 0 54.1659 7.27395 394 113.85 427.023 470.886
278 0 61.4102 9.05387 556 111.574 426.624 465.451
279 0 61.3469 15.0293 922 104.444 425.732 464.687
280 0 62.2386 12.0665 751 108.332 426.278 462.025
281 0 67.336 10.262 691 110.928 424.92 457.75
282 0 68.2296 15.7556 1075 105.667 425.929 456.739
283 0 71.2835 13.7339 979 109.218 426.747 453.919
284 0 72.4571 12.7386 923 111.262 426.806 452.636
285 0 76.3426 18.4694 1410 103.857 426.578 449.718
286 0 75.3924 14.8158 1117 109.647 427.192 447.052
287 0 81.2578 15.5308 1262 107.024 428.362 447.573
288 0 84.2485 13.7807 1161 109.632 429.494 448.7
289 0 84.3336 13.9328 1175 112.757 429.609 445.324
290 0 89.3561 15.7684 1409 108.924 430.613 446.299
291 1 46.2931 11.7512 544 111.263 431.811 461.415
292 0 48.2736 10.5855 511 111.247 433.209 464.44
293 0 50.093 12.6365 633 107.968 434.013 463.512
294 0 47.0408 13.7753 648 108.708 434.58 464.211
295 0 50.0856 14.0759 705 109.759 434.392 459.652
296 0 51.1077 14.0292 717 109.244 435.206 461.895
297 0 51.1077 14.0683 719 139.509 436.22 462.05
298 0 56.1418 10.3132 579 114.648 435.592 463.71
299 0 57.189 13.3067 761 109.98 437.032 463.109
300 0 58.1249 11.1312 647 113.219 437.717 464.804
301 0 60.2041 9.56745 576 115.644 437.264 466.602
302 0 60.1384 10.1433 610 114.63 437.379 466.759
303 0 61.297 12.2845 753 113.368 436.977 462.503
304 0 65.2979 9.70935 634 115.289 436.644 466.621
305 0 69.4955 10.8928 757 111.831 435.789 466.642
306 0 72.2612 12.3995 896 110.559 435.759 462.46
307 0 73.232 9.65425 707 114.417 434.192 465.218
308 0 77.3415 14.0028 1083 107.942 434.272 466.507
309 0 80.5609 14.0018 1128 110.103 433.783 461.517
310 0 82.3747 11.302 931 114.269 433.247 459.743
311 1 46.2456 11.5038 532 109.59 432.889 480.165
312 0 49.3711 14.0163 692 106.608 432.218 477.74
313 0 45.0721 11.2043 505 112.103 431.018 479.976
314 0 48.0647 11.5469 555 112.769 431.373 476.665
315 0 48.3026 13.5811 656 107.863 429.906 478.146
316 0 49.1251 11.3995 560 112.65 430.009 475.957
317 0 52.3208 12.7483 667 111.304 428.46 472.168
318 0 53.1194 13.2532 704 111.463 427.384 468.881
319 0 55.1331 10.647 587 112.685 428.172 472.624
320 0 57.0841 12.3152 703 113.536 427.193 465.23
321 0 57.0841 12.3852 707 135.73 426.197 465.151
322 0 57.2598 13.6221 780 110.882 427.453 466.722
323 0 61.2181 12.333 755 112.805 427.407 461.669
324 0 67.458 10.3917 701 114.007 427.341 460.877
325 0 67.2017 13.7645 925 111.511 427.644 456.461
326 0 69.3116 13.7928 956 111.792 428.783 454.613
327 0 71.3256 14.3146 1021 111.593 429.406 451.546
328 0 77.2004 14.0155 1082 109.872 429.433 453.055
329 0 77.3516 14.4923 1121 111.826 429.226 448.221
330 0 81.5465 13.4892 1100 113.658 429.187 445.655
331 1 39.115 11.6068 454 117.172 431.8 463.61
332 0 42.0802 12.0722 508 113.811 432.413 464.254
333 0 44.0448 14.735 649 111.18 432.247 460.821
334 0 42.0394 8.89641 374 120.289 432.07 462.973
335 0 44.047 12.7137 560 115.191 432.8 463.5
336 0 45.2239 11.5205 521 118.392 433.228 460.797
337 0 47.0461 13.0085 612 114.92 433.864 462.301
338 0 47.0818 12.6376 595 117.25 433.397 463.17
339 0 48.048 9.38644 451 122.29 435.827 463.286
340 0 51.1488 13.3141 681 115.899 436.408 462.25
341 0 53.0687 11.2307 596 120.304 436.658 462.101
342 0 52.1475 14.574 760 116.137 436.179 460.246
343 0 58.1201 11.7687 684 118.463 436.582 460.383
344 0 58.2356 11.0242 642 118.927 438.397 462.47
345 0 61.2968 16.5261 1013 109.221 438.196 464.727
346 0 66.418 15.6132 1037 111.601 437.182 458.884
347 0 67.1596 13.2967 893 114.746 437.935 459.377
348 0 68.1984 12.4636 850 115.593 438.296 462.394
349 0 72.2023 12.0772 872 115.206 437.845 463.461
350 0 75.2487 13.1697 991 114.531 436.263 461.355
351 0 77.6608 14.5376 1129 112.304 435.988 458.574
352 0 79.1902 14.8124 1173 112.012 436.681 458.547
353 0 83.6361 11.275 943 114.916 436.498 461.588
354 0 84.4888 11.4571 968 116.208 436.367 458.91
355 0 89.2744 17.1046 1527 107.584 434.527 458.612
356 0 93.4278 14.6316 1367 112.047 433.01 455.565
357 0 91.323 14.3994 1315 118.357 433.027 452.014
358 0 97.1938 12.8197 1246 119.299 433.348 448.688
359 0 95.2979 9.05582 863 121.55 431.036 454.282
360 1 56.2441 12.748 717 110.676 430.881 471.082
361 0 56.093 15.8309 888 109.047 431.437 468.142
362 0 56.0657 13.8052 774 112.404 431.568 464.309
363 0 63.2474 14.973 947 109.143 431.521 462.55
364 0 62.2762 12.5891 784 113.237 430.209 461.332
365 0 67.2149 17.3325 1165 104.758 429.759 462.23
366 0 67.4349 14.8884 1004 108.007 430.637 461.849
367 0 69.2408 12.7381 882 113.116 430.096 455.946
368 0 73.3081 13.3137 976 111.326 429.955 456.11
369 0 76.2297 15.1385 1154 109.699 430.099 452.212
370 0 74.1343 13.57 1006 111.887 429.984 453.914
371 0 80.2282 14.0848 1130 112.153 429.696 446.558
372 0 83.154 13.7576 1144 112.95 431.173 446.833
373 0 86.1506 13.3719 1152 110.445 432.114 447.33
374 0 88.1711 16.1051 1420 109.73 433.268 442.118
375 0 89.3401 13.1072 1171 113.912 431.348 440.985
376 1 48.1529 12.7303 613 114.432 434.054 457.868
377 0 46.2292 11.3348 524 117.427 433.282 458.179
378 0 46.2238 11.4443 529 141.268 431.293 458.127
379 0 52.1103 13.1644 686 113.719 436.525 456.245
380 0 54.1206 12.62 683 108.89 436.05 458.294
381 0 51.132 12.2428 626 111.979 436.233 454.97
382 0 57.0789 16.3633 934 105.128 437.697 455.612
383 0 60.1396 14.3499 863 105.787 437.531 460.877
384 0 61.1255 16.5397 1011 102.36 438.019 460.862
385 0 59.1489 13.8971 822 107.017 437.616 457.909
386 0 62.1824 13.6534 849 108.107 439.031 456.774
387 0 65.3173 18.4637 1206 100.997 438.867 461.299
388 0 67.1881 15.2408 1024 106.393 439.693 457.445
389 0 67.1881 15.2706 1026 117.521 439.651 457.542
390 0 69.2279 13.8961 962 108.605 439.231 460.551
391 0 76.1776 13.6261 1038 108.139 439.117 460.122
392 0 72.1961 10.8593 784 113.856 439.691 458.142
393 0 79.318 13.7422 1090 109.245 438.016 456.199
394 0 81.1603 19.098 1550 103.263 436.481 453.301
395 0 82.368 12.9298 1065 110.161 436.211 459.916
396 0 84.149 16.3163 1373 106.531 437.041 453.189
397 0 88.2658 13.4707 1189 108.551 436.315 456.447
398 0 91.1766 13.9838 1275 107.735 434.78 453.709
399 1 48.1929 12.1387 585 110.157 433.631 473.768
400 0 50.3935 10.4379 526 111.5 432.884 476.633
401 0 50.2277 11.5673 581 113.232 433.707 471.25
402 0 50.1475 10.7882 541 110.266 432.784 471.771
403 0 54.1441 17.1579 929 100.829 431.787 470.554
404 0 54.0942 11.6094 628 109.081 431.678 470.129
405 0 58.2128 16.9894 989 101.051 431.461 470.394
406 0 56.1968 13.3104 748 107.35 430.382 467.836
407 0 58.1112 13.6979 796 108.736 430.098 462.971
408 0 58.1112 13.7323 798 131.224 430.115 462.904
409 0 63.1162 12.168 768 111.559 427.621 460.812
410 0 63.306 11.8946 753 113.216 429.746 459.385
411 0 69.3978 13.0552 906 112.563 427.936 455.696
412 0 68.4206 12.9639 887 111.831 427.914 458.92
413 0 71.2486 13.6143 970 112.361 428.777 455.837
414 0 73.1213 18.9822 1388 104.998 429.14 454.55
415 0 77.3319 17.7029 1369 106.329 429.519 454.331
416 0 78.1684 14.5071 1134 110.779 429.835 453.668
417 0 80.0825 16.483 1320 108.783 430.975 450.098
418 0 82.1712 13.8248 1136 113.521 432.358 447.344
419 0 87.1362 17.685 1541 106.768 432.904 448.324
420 0 89.1532 13.0562 1164 115.605 432.827 439.308
421 0 93.1339 15.2254 1418 111.657 432.824 439.585
422 1 50.0545 13.9448 698 111.62 434.315 460.897
423 0 53.1807 16.7166 889 107.488 434.316 459.669
424 0 54.3162 14.1026 766 105.524 435.658 463.009
425 0 52.046 12.1431 632 110.761 436.212 462.492
426 0 52.0462 10.5099 547 113.64 437.027 461.899
427 0 54.0704 15.2949 827 107.68 437.112 459.206
428 0 58.1646 15.3702 894 105.877 436.513 462.422
429 0 58.2673 12.5456 731 109.037 437.925 463.603
430 0 60.1532 17.8544 1074 102.864 438.303 460.799
431 0 65.1321 13.6952 892 108.638 438.948 460.732
432 0 68.3502 16.4301 1123 104.877 438.874 459.248
433 0 68.0932 16.8592 1148 103.514 437.964 462.615
434 0 70.1398 16.353 1147 104.823 438.12 462.729
435 0 72.4919 10.7184 777 110.978 437.288 464.402
436 0 75.2986 12.3508 930 109.491 437.266 463.52
437 0 74.1744 10.1248 751 115.226 436.574 461.618
438 0 78.2831 15.1885 1189 109.093 436.955 458.123
439 0 78.169 9.62018 752 113.489 436.198 466.698
440 0 83.3611 13.9753 1165 110.936 435.483 459.732
441 0 86.3732 10.1652 878 114.788 435.356 463.698
442 1 48.0458 12.0718 580 114.188 433.833 473.745
443 0 51.1642 15.6946 803 107.58 433.966 474.537
444 0 49.3603 11.6896 577 110.066 433.553 472.979
445 0 50.1902 15.1225 759 105.513 432.999 472.236
446 0 50.0935 11.0793 555 110.341 431.719 472.859
447 0 53.1467 11.8352 629 108.754 431.704 472.253
448 0 53.1883 8.23489 438 114.621 430.763 472.251
449 0 59.1153 10.1158 598 111.794 430.661 468.681
450 0 58.1186 12.0099 698 110.673 429.954 466.434
451 0 60.1941 13.9549 840 108.102 429.081 461.407
452 0 64.4298 14.605 941 107.001 428.962 459.459
453 0 66.096 21.499 1421 97.7474 428.592 464.158
454 0 68.3227 14.6803 1003 104.277 429.687 466.132
455 0 71.1829 14.0483 1000 107.96 429.016 457.641
456 0 73.2566 13.8281 1013 108.388 428.624 455.386
457 0 74.3326 15.0943 1122 106.684 429.826 455.03
458 0 78.1838 6.81727 533 117.321 429.186 458.614
459 0 81.525 15.4554 1260 107.111 429.631 449.452
460 0 84.3196 12.9982 1096 111.059 430.505 449.467
461 0 85.2954 14.6667 1251 108.719 431.276 446.488
462 0 87.324 11.0737 967 113.937 432.01 446.368
463 1 46.148 11.4848 530 114.942 432.083 465.119
464 0 49.0815 12.9988 638 112.08 433.293 463.053
465 0 51.2241 12.2598 628 113.016 433.89 465.15
466 0 51.2966 13.3732 686 114.542 433.315 465.045
467 0 54.1045 13.9175 753 115.409 434.06 461.406
468 0 55.1829 13.8086 762 115.333 433.412 464.361
469 0 59.1314 13.3939 792 113.96 434.388 467.996
470 0 58.1774 15.4871 901 113.768 435.877 463.632
471 0 61.1284 14.1833 867 116.249 436.662 462.754
472 0 64.2919 13.7342 883 115.977 435.824 463.98
473 0 66.3743 14.8551 986 113.756 435.726 464.834
474 0 67.2318 13.7584 925 116.164 435.343 465.536
475 0 69.4484 12.5129 869 119.323 436.488 463.923
476 0 73.0896 13.0251 952 116.346 435.959 464.282
477 0 75.3057 13.1597 991 117.615 435.291 463.323
478 0 78.1482 12.8474 1004 117.647 435.045 464.331
479 0 81.2146 12.2761 997 118.942 433.521 462.68
480 0 83.174 13.0329 1084 116.197 432.646 464.593
481 1 44.3627 12.9388 574 108.754 432.936 482.73
482 0 44.1051 12.901 569 107.917 431.269 485.768
483 0 46.1253 14.3956 664 104.73 430.235 487.7
484 0 45.0827 9.93729 448 113.136 428.978 485.567
485 0 50.09 17.0493 854 103.27 428.769 482.811
486 0 52.1534 16.509 861 110.93 427.273 479.174
487 0 53.1306 13.0057 691 116.538 427.465 478.045
488 0 54.246 12.7014 689 115.495 427.17 481.089
489 0 57.4003 14.4076 827 111.449 426.019 480.872
490 0 56.2684 14.7685 831 113.965 425.349 475.999
491 0 62.1348 13.1166 815 115.909 425.609 476.764
492 0 63.3347 9.67874 613 122.095 425.044 476.486
493 0 61.1704 13.5033 826 117.962 424.42 470.613
494 0 62.266 11.2581 701 120.976 423.984 472.462
495 0 70.2263 13.2287 929 115.272 423.703 467.155
496 0 69.3441 11.9404 828 116.774 424.424 467.147
497 0 73.398 14.5099 1065 114.834 424.006 461.138
498 0 74.4011 13.2525 986 116.933 422.422 460.713
499 1 146.942 20.0896 2952 109.679 422.306 434.24
500 0 144.928 12.6683 1836 119.834 423.179 429.553
501 1 89.7411 13.6838 1228 112.058 423.049 456.463
502 0 88.7422 12.3504 1096 116.586 423.756 455.45
503 0 87.3419 12.3079 1075 116.896 423.94 451.244
504 0 86.4035 14.1777 1225 118.529 425.513 452.399
505 0 89.2776 14.4605 1291 119.551 425.663 445.605
506 1 47.0243 11.1644 525 114.267 426.227 472.602
507 0 47.0546 11.306 532 117.421 427.528 467.983
508 0 49.0712 10.658 523 114.384 428.182 471.107
509 0 51.0916 13.055 667 113.693 428.933 466.021
510 0 51.1372 12.3393 631 113.163 430.041 468.916
511 0 54.1663 10.9108 591 115.288 430.558 467.978
512 0 55.1019 11.2519 620 114.747 431.218 466.873
513 0 55.1115 11.8487 653 114.936 432.527 467.819
514 0 59.2046 16.5359 979 108.078 432.494 465.246
515 0 60.1365 15.4149 927 111.104 433.284 464.589
516 0 63.3477 16.8278 1066 108.758 433.963 465.688
517 0 65.2202 12.7721 833 113.193 433.953 469.441
518 0 65.164 13.8113 900 114.552 434.592 465.654
519 0 69.2213 14.0564 973 114.123 433.779 463.565
520 0 71.0753 13.0003 924 114.633 432.825 467.707
521 0 72.2972 11.7294 848 115.382 432.87 471.509
522 0 73.1042 11.34 829 118.096 432.24 465.326
523 0 78.2129 14.2432 1114 113.727 431.707 463.117
524 0 79.1866 12.5526 994 115.14 430.887 462.129
525 0 85.1231 15.5187 1321 109.651 430.892 464.806
526 0 84.3332 13.9921 1180 110.131 430.599 469.947
527 1 46.0771 10.222 471 115.346 429.599 484.834
528 0 47.1797 12.8445 606 112.064 430.285 480.564
529 0 52.0987 12.9754 676 110.24 429.518 481.269
530 0 52.1295 12.5265 653 110.201 428.211 479.305
531 0 55.1789 14.3533 792 114.246 427.609 477.587
532 0 55.1593 11.7115 646 119.638 427.266 474.923
533 0 57.2105 10.0157 573 120.464 426.183 477.328
534 0 60.1651 15.4741 931 112.886 426.11 474.128
535 0 60.3893 13.1977 797 116.882 425.527 471.258
536 0 65.3415 15.4113 1007 111.543 424.903 471.039
537 0 65.2244 14.2585 930 114.457 424.429 466.863
538 0 67.4624 13.6965 924 113.63 423.634 467.59
539 0 66.2251 15.7493 1043 111.012 424.538 465.566
540 0 70.288 12.961 911 113.798 422.661 464.976
541 0 75.3418 14.8921 1122 111.34 422.504 464.072
542 0 74.2789 14.5936 1084 114.106 423.027 458.115
543 0 79.499 17.799 1415 109.353 423.49 456.374
544 0 79.4285 13.8112 1097 116.476 424.492 454.917
545 0 82.2785 14.6697 1207 117.584 425.693 452.401
546 0 84.3445 13.5871 1146 117.287 425.42 454.375
547 0 86.4237 17.1944 1486 113.779 425.605 450.359
548 0 89.4836 12.8068 1146 120.134 426.106 445.203
549 0 93.6083 12.8407 1202 119.819 426.334 445.235
550 0 94.4036 13.0504 1232 116.934 426.287 446.117
551 0 98.3271 15.1433 1489 115.642 427.612 438.829
552 0 102.558 16.9563 1739 112.311 428.428 445.588
553 0 101.767 13.2263 1346 116.13 430.103 437.765
554 0 106.817 12.7882 1366 115.373 430.404 445.16
555 0 110.566 13.0601 1444 116.319 430.654 438.229
556 0 114.857 15.8371 1819 113.071 431.855 442.455
557 1 59.5521 12.6612 754 111.247 431.98 466.718
558 0 64.2402 13.1382 844 111.141 433.066 465.551
559 0 64.2304 12.424 798 113.085 432.182 465.871
560 0 69.3708 13.7522 954 112.104 431.725 461.482
561 0 71.1409 14.1831 1009 111.628 432.659 464.597
562 0 72.4284 13.3511 967 113.601 431.586 466.523
563 0 73.3351 11.5634 848 117.875 431.837 466.639
564 0 76.2124 15.2993 1166 111.913 431.355 464.718
565 0 78.371 13.3595 1047 115.522 431.02 465.32
566 0 83.099 15.4274 1282 112.653 431.642 462.663
567 0 85.6328 13.6279 1167 116.136 431.254 463.608
568 0 87.6832 13.1268 1151 118.182 431.633 463.04
569 1 44.0197 10.9724 483 115.959 430.47 484.337
570 0 45.3429 11.6446 528 116.322 430.822 482.08
571 0 48.26 11.293 545 117.734 430.218 483.134
572 0 50.2513 12.139 610 122.982 428.795 479.074
573 0 52.1849 15.5026 809 117.021 427.855 478.156
574 0 55.2216 12.7668 705 121.129 427.576 479.373
575 0 54.0834 13.1464 711 120.591 426.782 479.068
576 0 57.2275 13.0007 744 123.011 425.715 473.712
577 0 58.2326 13.8926 809 122.038 425.88 471.067
578 0 58.1221 13.2308 769 122.399 425.733 472.456
579 0 62.1554 12.5009 777 123.102 425.425 468.784
580 0 65.2827 15.1036 986 118.305 426.103 467.057
581 0 67.157 15.3074 1028 118.67 424.634 464.864
582 0 68.1602 12.1332 827 124.972 424.74 462.236
583 0 68.1602 12.0598 822 141.591 424.743 462.147
584 0 72.5072 11.3506 823 125.87 426.264 457.226
585 0 73.1556 10.1154 740 124.986 425.945 462.122
586 0 79.3793 13.7945 1095 117.972 426.195 459.352
587 0 82.2051 12.5175 1029 120.907 426.714 456.516
588 0 84.3403 14.2636 1203 120.591 427.988 449.289
589 0 86.4184 11.6642 1008 124.487 427.539 449.485
590 0 91.2813 13.7378 1254 122.425 427.239 444.144
591 1 51.1387 12.0848 618 116.231 427.84 465.6
592 0 53.1458 12.5316 666 113.622 429.953 467.583
593 0 53.1458 12.5128 665 123.758 432.012 467.487
594 0 55.0407 11.5187 634 115.205 430.121 466.401
595 0 55.0487 10.2455 564 117.757 430.507 465.394
596 0 58.1294 13.4871 784 112.122 430.148 465.165
597 0 58.0667 10.4879 609 115.908 432.018 466.136
598 0 60.2818 12.5577 757 115.001 432.293 460.86
599 0 63.0633 14.9057 940 110.284 432.138 461.763
600 0 67.1307 14.8218 995 110.18 432.61 460.881
601 0 68.1401 10.8746 741 114.424 432.92 464.321
602 0 71.3822 10.2967 735 115.796 432.517 462.796
603 0 74.3191 13.0653 971 111.225 432.48 463.808
604 0 75.3643 11.3051 852 111.614 432.27 465.778
605 1 41.0443 9.64812 396 110.646 432.578 481.806
606 0 42.1437 13.7387 579 106.342 432.337 479.054
607 0 43.0963 9.97766 430 110.365 431.095 480.935
608 0 43.508 11.0095 479 109.382 431.574 480.599
609 0 44.2507 10.6665 472 110.294 432.631 483.483
610 0 45.0867 12.5536 566 109.447 431.581 481.645
611 0 47.0965 12.0391 567 109.536 430.781 482.134
612 0 50.2218 10.8917 547 109.81 432.058 482.201
613 0 49.0441 13.2534 650 109.308 430.757 478.008
614 0 50.1398 12.5649 630 110.056 430.321 479.979
615 0 53.1357 10.332 549 111.475 429.459 480.379
616 0 53.0497 10.5373 559 112.653 427.92 479.279
617 0 55.2194 15.4113 851 106.511 426.773 476.485
618 0 55.2194 15.3931 850 117.886 425.782 476.511
619 0 59.2092 11.4172 676 112.496 425.263 472.848
620 0 62.2233 14.1908 883 108.482 425.106 470.999
621 0 64.5031 13.2397 854 110.07 425.343 468.926
622 0 65.4309 9.58262 627 114.97 423.833 468.9
623 0 68.41 10.0716 689 114.015 423.424 469.107
624 0 71.6319 13.9463 999 109.466 423.586 463.314
625 0 74.6531 14.0115 1046 109.549 423.599 462.265
626 1 38.1132 10.154 387 114.096 423.948 477.731
627 0 41.1796 12.1419 500 108.306 423.438 478.134
628 0 42.0979 10.4993 442 114.111 423.934 474.566
629 1 77.3904 12.3013 952 119.88 424.871 455.83
630 0 82.7047 16.7947 1389 110.379 424.933 456.297
631 0 82.5864 13.4405 1110 117.809 424.715 451.904
632 1 43.0767 12.9769 559 110.116 427.488 473.791
633 0 43.0817 10.7702 464 115.073 426.112 471.981
634 0 45.1176 13.6089 614 111.109 427.347 469.695
635 0 48.0361 13.6356 655 110.345 428.179 469.432
636 0 47.1464 9.8629 465 116.187 428.566 470.873
637 0 46.0672 8.7481 403 117.643 429.422 471.548
638 0 51.1158 11.6598 596 113.258 430.715 469.55
639 0 51.0938 9.82506 502 117.432 430.851 467.863
640 0 53.0849 10.8694 577 114.38 431.827 468.107
641 0 50.2064 7.98703 401 120.177 431.845 467.733
642 0 54.0662 9.59934 519 116.091 433.528 468.827
643 0 56.0485 12.8639 721 111.999 432.939 466.94
644 0 56.1603 10.5056 590 115.741 432.903 467.176
645 0 59.0973 11.1173 657 114.377 433.09 466.591
646 0 61.132 9.30772 569 117.169 432.576 465.879
647 0 62.105 8.228 511 115.487 433.239 472.325
648 0 66.1894 12.5549 831 110.946 433.777 468.102
649 0 66.0768 10.4273 689 114.901 432.659 468.163
650 0 69.1759 10.7407 743 112.865 432.358 469.966
651 0 75.3476 7.51185 566 116.47 431.804 470.186
652 0 75.1886 7.00904 527 115.732 432.581 471.761
653 0 76.261 9.179 700 112.157 432.119 471.474
654 0 81.2664 9.22891 750 114.451 431.58 465.257
655 1 42.0612 8.79671 370 113.814 430.359 483.454
656 0 47.1744 17.2975 816 98.9326 430.977 482.406
657 0 45.2059 9.7996 443 110.883 430.808 480.544
658 0 46.1301 10.8823 502 111.683 429.606 478.201
659 0 49.0578 11.1093 545 108.371 429.695 482.431
660 0 49.06 12.2299 600 106.847 427.578 478.78
661 0 50.1861 12.1946 612 105.092 427.203 480.792
662 0 48.1291 8.47721 408 112.743 428.074 476.858
663 0 51.1734 16.9619 868 101.055 427.657 476.714
664 0 54.1125 9.38785 508 112.789 426.819 473.931
665 0 55.264 10.7846 596 109.755 427.376 472.725
666 0 55.1045 11.0517 609 110.297 426.24 472.711
667 0 60.0985 10.9154 656 110.277 426.288 471.021
668 0 58.1174 9.73891 566 109.511 425.064 472.814
669 0 63.1841 13.3261 842 106.629 425.843 466.26
670 0 62.0906 5.99124 372 116.801 426.831 465.968
671 0 69.0934 10.7391 742 107.958 426.466 465.278
672 0 71.2479 9.19326 655 110.585 426.861 462.42
673 0 74.1916 11.5377 856 107.682 427.07 457.984
674 0 77.4923 13.924 1079 105.015 427.391 454.908
675 1 40.2915 11.1686 450 110.156 428.173 471.827
676 0 44.295 11.1299 493 113.114 428.742 471.258
677 0 38.0208 8.10082 308 111.474 427.39 476.938
678 0 42.1043 11.424 481 105.713 427.538 476.41
679 0 42.0756 10.5762 445 111.09 428.479 472.056
680 1 83.0309 14.7054 1221 111.062 430.925 451.825
681 0 86.7963 12.2816 1066 115.919 431.228 449.477
682 0 85.8469 11.0895 952 118.254 431.421 449.847
683 0 90.0377 13.0612 1176 115.334 431.195 449.914
684 0 93.9173 12.6494 1188 116.066 432.423 450.429
685 0 95.6835 13.8895 1329 115.854 433.449 445.864
686 0 100.055 13.6725 1368 114.645 434.692 449.722
687 0 99.6807 9.58059 955 121.884 433.129 450.381
688 0 103.471 10.9789 1136 119.758 433.624 449.107
689 0 105.973 11.333 1201 120.05 433.557 446.371
690 0 110.618 10.9205 1208 121.459 434.031 443.347
691 0 115.618 11.0709 1280 120.895 432.327 442.438
692 0 117.756 8.52612 1004 124.137 433.033 448.356
693 0 120.746 11.313 1366 121.234 433.28 439.125
694 0 120.746 11.3627 1372 136.673 434.263 439.248
695 0 129.614 11.7812 1527 120.738 432.874 438.158
696 0 136.814 11.607 1588 117.662 432.273 448.96
697 0 140.822 12.0791 1701 119.191 430.499 441.325
698 0 144.787 12.5356 1815 119.553 431.156 436.498
699 0 149.947 14.0116 2101 116.987 429.607 435.455
700 1 43.049 11.5682 498 117.689 429.618 485.701
701 0 44.1601 13.7001 605 114.615 429.202 483.433
702 0 45.0472 11.7654 530 119.758 428.149 485.381
703 0 43.0444 10.1755 438 117.822 428.511 483.356
704 0 45.0545 12.0077 541 115.359 427.811 483.207
705 0 46.1431 12.0712 557 115.023 426.352 481.557
706 0 49.0884 9.77827 480 115.419 426.06 485.948
707 0 51.1074 14.7532 754 109.447 425.729 480.499
708 1 188.586 12.2119 2303 122.978 424.852 418.323
709 0 196.354 14.6317 2873 119.451 425.006 410.108
710 0 201.576 13.9699 2816 120.792 425.493 401.748
711 0 208.978 10.9342 2285 122.896 425.204 408.786
712 1 113.362 13.7347 1557 115.958 424.443 443.84
713 0 114.371 9.74899 1115 120.61 423.449 448.347
714 0 115.491 11.7585 1358 120.521 425.518 434.172
715 0 122.358 10.216 1250 119.886 423.984 445.842
716 0 128.501 16.2645 2090 110.907 425.558 437.075
717 0 132.42 13.3892 1773 114.5 425.552 438.407
718 1 142.469 12.4869 1779 115.278 426.315 436.352
719 0 140.225 12.1875 1709 115.815 425.758 434.451
720 0 145.276 10.7106 1556 119.999 427.562 426.145
721 1 79.2375 11.2699 893 112.207 427.662 456.086
722 1 48.1742 14.7797 712 105.416 428.889 475.98
723 0 45.141 11.0986 501 115.944 430.08 471.513
724 0 45.1525 12.336 557 114.147 430.127 473.052
725 0 45.3051 12.1178 549 115.871 431.492 470.352
726 0 48.1596 12.417 598 112.925 431.724 473.977
727 0 52.0593 12.8123 667 113.39 432.858 471.505
728 0 52.1011 14.5486 758 110.274 433.014 471.739
729 0 54.1092 11.791 638 114.207 433.462 473.014
730 0 54.092 12.9224 699 113.785 433.936 469.282
731 0 56.2002 14.1103 793 110.846 434.101 473.09
732 0 56.1148 10.2112 573 119.592 433.525 471.92
733 0 62.1117 16.3093 1013 107.025 433.992 471.861
734 0 61.3946 11.6134 713 109.891 431.893 474.231
735 0 60.4184 14.0024 846 108.317 431.299 472.641
736 0 59.1397 10.9571 648 114.182 431.844 472.15
737 0 63.1471 11.4336 722 112.839 431.756 473.342
738 1 190.478 13.3454 2542 116.766 432.511 412.796
739 1 252.062 16.5872 4181 115.087 431.016 380.042
740 1 72.1428 11.6297 839 111.07 431.116 477.431
741 0 71.212 11.88 846 113.559 430.531 473.496
742 0 74.3056 12.166 904 114.471 430.77 470.97
743 0 73.0957 9.48072 693 118.134 429.414 474.739
744 0 82.4633 14.4913 1195 110.244 428.675 469.731
745 0 82.1781 12.4729 1025 115.529 428.743 466.363
746 0 84.1547 13.9505 1174 114.602 427.895 462.175
747 1 43.0475 10.5233 453 119.753 427.757 479.419
748 0 48.2474 13.5759 655 114.855 429.137 478.189
749 0 46.1685 11.7829 544 119.562 427.693 477.539
750 0 49.2172 13.1865 649 119.169 427.857 475.162
751 0 49.1056 11.3633 558 119.016 426.661 476.566
752 0 51.0831 12.7244 650 110.74 425.378 476.197
753 0 49.1524 10.8845 535 115.314 425.621 475.071
754 0 53.1085 12.8416 682 111.248 426.729 474.053
755 0 49.285 11.5857 571 113.846 425.685 475.173
756 0 53.1903 9.98302 531 117.772 424.812 469.548
757 0 55.1103 11.2865 622 115.826 426.185 468.275
758 0 59.2109 12.8186 759 112.765 426.277 468.926
759 0 62.2021 13.7455 855 111.132 427.152 466.526
760 0 65.1255 13.497 879 111.783 426.499 462.212
761 0 63.1683 13.1237 829 113.017 427.524 461.901
762 0 65.2409 13.795 900 112.6 427.446 460.784
763 1 136.365 13.0459 1779 118.485 428.806 431.447
764 0 137.71 13.572 1869 120.159 429.146 421.46
765 0 148.818 13.0966 1949 119.004 430.966 426.019
766 0 146.966 13.4998 1984 118.233 430.454 423.734
767 1 75.0988 16.5915 1246 109.97 430.669 454.514
768 0 78.1501 13.1542 1028 114.613 430.992 455.904
769 1 45.0739 9.87268 445 120.38 432.744 470.557
770 0 46.1548 11.2014 517 116.224 434.114 472.932
771 0 48.0466 11.5097 553 117.43 434.383 470.613
772 0 47.2014 13.3259 629 115.552 433.612 469.52
773 0 49.1748 11.4693 564 119.718 434.434 473.589
774 0 48.0917 11.5613 556 116.288 433.246 472.212
775 0 51.0823 11.0997 567 116.12 433.84 473.43
776 0 50.1663 10.7044 537 118.853 434.024 472.259
777 0 53.2972 12.7399 679 115.113 433.501 474.19
778 0 54.1156 12.8059 693 114.889 433.724 472.24
779 0 55.3107 13.6682 756 113.97 433.578 474.942
780 0 58.2101 14.4305 840 111.887 433.454 474.894
781 0 60.1945 14.3701 865 112.351 433.042 472.66
782 0 64.2714 16.3837 1053 108.476 432.228 473.444
783 0 63.2628 10.9859 695 113.345 433.047 479.744
784 0 64.1792 14.3193 919 112.95 431.56 472.231
785 0 67.1534 14.7275 989 112.304 430.19 469.48
786 0 70.2588 12.8667 904 114.21 429.545 469.669
787 0 74.4318 14.2547 1061 112.502 430.016 467.895
788 0 73.4009 13.1606 966 115.169 429.662 466.385
789 0 76.1494 14.7867 1126 113.975 429.088 464.929
790 0 76.1494 14.813 1128 135.406 428.077 464.81
791 0 78.337 11.1442 873 121.187 428.608 461.439
792 0 82.2143 14.2919 1175 116.624 427.574 458.527
793 0 86.1866 12.9254 1114 117.593 428.399 458.2
794 0 85.174 12.3042 1048 118.625 427.896 453.318
795 0 85.3219 8.96604 765 120.873 426.912 460.025
796 1 45.2127 10.1078 457 120.6 428.031 471.144
797 0 48.1953 11.6609 562 120.071 427.762 467.811
798 0 49.1375 11.0099 541 119.786 427.76 470.675
799 0 52.2726 11.5739 605 118.327 428.088 471.512
800 0 53.17 12.2437 651 118.026 426.906 466.095
801 0 57.1113 12.3793 707 116.467 428.025 465.478
802 0 59.1265 12.7354 753 113.522 427.255 467.637
803 0 58.1901 12.6826 738 116.111 427.641 460.68
804 0 61.1549 13.3595 817 114.171 428.858 463.754
805 0 64.4494 12.6301 814 115.032 430.096 456.966
806 0 67.2587 13.0838 880 113.932 430.083 458.419
807 0 69.22 12.742 882 114.769 430.172 455.516
808 0 70.2229 12.617 886 115.479 432.558 454.862
809 0 73.4127 12.9269 949 114.924 432.972 454.774
810 0 75.2485 11.2427 846 116.814 433.329 453.908
811 0 80.2147 14.723 1181 111.812 433.114 452.032
812 0 84.5135 16.2223 1371 108.017 433.052 451.441
813 0 84.1346 15.1662 1276 110.854 434.238 447.192
814 0 87.1652 12.5968 1098 112.855 434.539 450.179
815 0 91.4361 11.8334 1082 111.406 434.355 454.35
816 1 51.0622 14.6096 746 105.483 434.729 471.812
817 0 51.1305 15.4702 791 104.664 434.088 474.067
818 0 52.0653 13.5791 707 107.569 433.564 473.737
819 0 52.119 12.9511 675 110.665 433.69 469.921
820 0 56.0929 12.925 725 109.341 434.177 473.975
821 0 57.1738 11.0365 631 109.447 435.171 478.463
822 0 56.3492 11.2513 634 111.637 434.27 473.218
823 0 56.2039 7.63292 429 117.916 434.261 472.009
824 0 62.1915 9.87273 614 113.044 433.622 475.506
825 0 62.4756 12.6449 790 111.904 432.385 470.98
826 0 66.3742 13.1376 872 111.083 433.438 468.357
827 0 67.4178 11.4806 774 114.289 432.084 468.616
828 0 70.3602 10.3041 725 115.204 432.439 472.618
829 0 73.5747 11.7839 867 113.599 430.905 467.208
830 0 77.5007 14.0515 1089 111.063 430.529 461.929
831 0 79.4441 11.014 875 116.319 429.717 458.511
832 1 40.0687 7.96133 319 119.279 430.342 482.295
833 0 43.2039 10.6935 462 116.19 429.755 479.714
834 0 48.1351 14.4801 697 110.222 429.409 477.981
835 0 44.0448 13.8041 608 112.969 428.817 477.776
836 0 42.0573 7.84644 330 118.63 428.961 481.976
837 0 47.113 10.2095 481 116.838 429.486 477.532
838 0 50.377 13.399 675 112.279 427.788 473.884
839 0 51.1985 9.80498 502 118.837 427.416 473.719
840 0 52.317 14.0872 737 113.094 427.495 467.73
841 0 55.2544 11.9266 659 116.282 428.613 468.209
842 0 57.4092 13.9351 800 112.664 428.548 468.05
843 0 59.3102 13.0163 772 115.258 427.645 464.523
844 0 59.5847 10.8753 648 118.199 428.509 464.745
845 0 61.3803 10.3942 638 117.831 428.815 465.734
846 0 63.3831 12.4323 788 116.973 426.91 461.198
847 0 66.3098 13.4218 890 113.39 428.86 460.942
848 0 68.5313 10.8418 743 118.404 431.054 459.942
849 0 71.3521 10.9457 781 118.988 430.713 455.886
850 0 75.4712 14.3101 1080 113.308 432.235 452.553
851 0 77.7162 13.6008 1057 113.484 431.404 457.189
852 1 42.1156 10.8273 456 119.533 433.794 470.265
853 0 44.0788 13.9296 614 114.443 431.95 468.992
854 0 45.2535 10.5406 477 120.312 434.377 470.025
855 0 45.3658 11.1979 508 120.108 434.274 469.268
856 0 50.1485 13.7591 690 112.01 434.593 471.228
857 0 47.056 12.0495 567 117.908 434.025 470.926
858 0 47.1505 11.5163 543 118.783 434.628 470.762
859 0 50.1577 9.1312 458 120.236 434.924 475.972
860 0 51.3134 10.5041 539 119.649 434.59 475.072
861 0 51.1886 8.5566 438 123.906 436.123 471.998
862 0 54.1372 12.3944 671 118.732 435.088 472.374
863 0 53.1051 11.2418 597 119.513 435.146 475.008
864 0 55.3914 12.3485 684 118.566 433.69 472.221
865 0 56.179 10.9827 617 120.919 433.911 473.285
866 0 58.1315 10.1666 591 122.342 434.964 474.291
867 0 58.1315 9.90857 576 133.092 435.991 474.564
868 0 61.2735 11.4405 701 120.496 433.494 472.357
869 0 63.2671 12.5025 791 119.549 433.025 469.771
870 0 68.2766 12.4201 848 118.483 432.605 471.101
871 0 69.1905 13.2966 920 117.201 432.01 468.473
872 0 72.2436 13.2607 958 118.159 431.036 466.552
873 0 74.4872 14.4589 1077 117.315 430.554 464.133
874 0 74.4872 14.6065 1088 122.005 430.542 464.098
875 0 81.4496 12.9651 1056 118.76 430.089 461.729
876 1 45.0273 12.3258 555 117.566 431.591 480.977
877 0 47.5142 13.175 626 116.54 430.367 476.436
878 0 48.2316 17.3123 835 110.016 430.022 474.483
879 0 48.3874 14.0739 681 119.128 429.025 474.852
880 0 51.1936 10.8021 553 124.398 429.973 473.49
881 0 49.1247 10.5853 520 125.95 428.502 471.99
882 0 54.1635 13.9947 758 118.178 428.204 469.922
883 0 55.3095 15.4766 856 116.534 426.328 467.592
884 0 57.2961 11.5017 659 122.772 426.741 466.821
885 0 57.3916 10.6113 609 122.936 426.926 469.22
886 0 58.3473 12.9226 754 123.317 427.232 460.598
887 0 60.3158 14.3909 868 118.971 428.038 463.017
888 0 62.2982 12.7131 792 122.461 427.48 460.55
889 0 62.2982 12.7452 794 140.065 427.496 460.581
890 0 64.4808 12.8721 830 122.505 428.22 457.623
891 0 68.289 14.6729 1002 119.095 429.357 454.613
892 0 70.3924 13.2117 930 119.734 430.427 455.794
893 0 72.2772 13.0747 945 119.94 430.416 454.464
894 0 72.2516 10.7541 777 124.644 431.997 452.918
895 0 76.2627 13.0339 994 121.141 431.292 452.36
896 0 80.5047 13.1048 1055 120.476 431.645 451.977
897 0 82.4092 12.5835 1037 122.016 432.364 450.855
898 0 86.2765 15.149 1307 118.513 432.645 448.588
899 0 88.3408 13.0744 1155 122.108 432.866 447.866
900 0 89.1547 9.43305 841 126.672 433.448 450.955
901 0 91.2774 9.56425 873 126.471 432.982 444.215
902 1 46.2662 9.74793 451 117.062 434.756 468.521
903 0 53.2483 13.1084 698 109.046 434.156 473.556
904 0 49.1971 13.2122 650 113.211 435.406 472.962
905 0 49.1971 13.1918 649 130.24 437.419 472.98
906 0 52.3165 10.857 568 118.896 434.194 470.097
907 0 55.5877 12.035 669 115.877 434.048 472.68
908 0 58.2896 12.0605 703 117.073 433.761 472.888
909 0 58.3164 14.6785 856 113.11 433.501 474.553
910 0 60.1728 10.6527 641 119.534 432.983 474.658
911 0 60.2715 11.6971 705 119.675 432.987 469.07
912 0 62.1554 11.8252 735 118.174 432.4 474.565
913 0 65.2849 13.3875 874 116.443 430.795 470.006
914 0 69.5353 12.9431 900 116.568 431.273 470.492
915 0 69.326 11.9436 828 119.983 431.252 468.866
916 0 75.1783 12.9825 976 117.073 429.779 465.78
917 0 74.3399 13.2365 984 117.114 428.503 464.852
918 0 77.3521 13.7682 1065 114.737 427.444 467.309
919 0 85.4725 11.7933 1008 117.4 427.977 463.741
920 0 84.5103 14.1995 1200 113.79 427.531 459.697
921 0 85.3738 11.6429 994 117.828 427.774 458.243
922 1 46.2792 12.3598 572 112.1 427.928 477.03
923 0 48.274 12.1805 588 114.81 427.731 476.384
924 0 51.1594 12.334 631 114.634 427.193 473.17
925 0 51.2155 12.5938 645 118.322 427.479 471.446
926 0 52.1394 9.12938 476 112.704 427.021 476.017
927 0 51.2797 12.0515 618 109.739 427.197 473.794
928 0 52.3732 11.0171 577 115.735 427.823 468.028
929 0 55.0919 12.6697 698 112.655 428.397 468.163
930 0 56.3109 10.1756 573 116.527 427.394 464.075
931 0 57.589 12.0335 693 113.824 427.921 462.502
932 0 60.4927 13.2578 802 111.349 427.488 463.489
933 0 64.1998 13.1465 844 111.62 428.613 458.3
934 0 65.6336 13.5754 891 111.309 428.645 459.855
935 0 66.7061 13.6869 913 110.966 429.478 458.265
936 0 70.4498 14.8758 1048 109.847 430.315 452.657
937 0 71.4767 10.8427 775 114.636 430.654 455.554
938 0 75.3274 13.8595 1044 110.742 431.078 453.616
939 0 78.4385 13.2333 1038 113.511 431.471 447.378
940 0 80.5293 11.946 962 115.922 431.404 451.66
941 0 84.2965 15.9556 1345 109.159 431.959 454.279
942 0 87.2165 13.1053 1143 113.71 432.548 451.638
943 1 46.0513 12.2689 565 108.227 432.278 474.995
944 0 42.2021 9.66776 408 115.958 433.784 471.801
945 0 51.0944 18.9257 967 100.706 433.981 468.514
946 0 49.3393 13.1741 650 110.128 432.745 472.371
947 0 49.0641 7.72459 379 114.868 433.187 477.224
948 0 49.0885 11.9376 586 111.532 433.311 474.435
949 0 55.199 14.4568 798 108.264 434.286 472.961
950 0 55.1849 10.3108 569 114.336 433.791 473.94
951 0 55.156 7.52412 415 117.07 434.108 477.974
952 0 58.0607 11.1435 647 113.219 433.912 474.904
953 0 60.2092 10.7957 650 113.069 433.562 472.743
954 0 63.2544 12.3944 784 111.537 433.344 472.668
955 0 65.4282 11.2948 739 112.169 432.091 474.959
956 0 65.2973 10.6436 695 114.804 431.978 473.304
957 0 68.2325 12.6186 861 112.702 430.866 471.098
958 0 70.255 11.5579 812 113.554 430.45 467.749
959 0 73.2446 12.8474 941 111.693 430.182 465.376
960 0 74.1215 8.91779 661 115.203 429.02 471.858
961 0 78.196 10.0772 788 115.307 427.638 464.986
962 0 80.22 11.5308 925 113.268 426.225 463.034
963 0 84.2184 13.5362 1140 109.98 428.346 464.423
964 0 86.4016 14.2127 1228 109.717 426.066 458.217
965 0 92.4469 15.4792 1431 110.169 426.426 456.119
966 0 91.1874 13.2913 1212 114.437 426.062 449.002
967 0 93.2529 11.56 1078 114.312 426.537 457.791
968 0 98.4192 13.4933 1328 111.967 426.264 451.922
969 0 97.4744 9.60252 936 116.145 426.79 456.224
970 1 55.1126 14.7698 814 105.864 425.959 468.979
971 0 57.6179 15.0648 868 104.688 426.891 466.437
972 0 57.4312 9.94233 571 110.392 426.322 470.149
973 0 60.2656 10.321 622 111.698 427.27 465.24
974 0 62.5743 12.9126 808 108.757 426.752 462.855
975 0 63.4126 15.2809 969 108.151 426.962 457.409
976 0 67.4406 16.9038 1140 106.443 427.645 460.369
977 0 67.6117 9.28834 628 118.64 427.987 458.387
978 0 68.3904 8.71468 596 120.282 427.924 458.391
979 0 72.5464 13.2743 963 112.778 429.384 454.324
980 0 73.5643 12.7915 941 113.513 429.719 454.608
981 0 78.868 12.8569 1014 114.721 430.526 453.817
982 0 78.5666 14.09 1107 113.218 429.789 454.224
983 0 82.3131 12.5254 1031 114.443 430.735 451.029
984 0 86.3606 15.7711 1362 110.129 432.122 445.864
985 1 44.2223 11.3065 500 110.276 432.98 471.618
986 0 49.2352 14.319 705 103.017 434.153 472.119
987 0 48.0465 13.1123 630 107.41 433.071 470.244
988 0 48.2 12.2614 591 108.215 433.139 473.766
989 0 48.0651 13.5649 652 106.817 434.314 470.233
990 0 52.2073 11.5501 603 106.746 435.63 474.164
991 0 52.1149 14.3529 748 101.75 434.739 476.533
992 0 54.1382 11.8955 644 105.107 435.707 475.789
993 0 55.186 12.6481 698 103.797 434.762 471.702
994 0 58.3293 14.4867 845 105.902 434.902 471.489
995 1 122.533 11.45 1403 115.949 433.909 442.587
996 0 124.979 13.4502 1681 113.739 432.372 436.667
997 0 131.159 13.3502 1751 121.059 432.916 437.705
998 0 137.054 14.5271 1991 119.337 433.062 435.638
999 0 142.096 12.1537 1727 118.211 432.245 439.442
1000 0 144.068 15.8467 2283 114.413 431.213 430.778
1001 0 148.692 14.9301 2220 115.337 429.692 432.136
1002 0 155.719 13.8839 2162 117.474 429.509 425.206
1003 0 159.12 11.6076 1847 121.394 428.718 422.936
1004 1 80.2446 10.1814 817 114.629 427.247 458.765
1005 1 45.1085 11.0179 497 110.837 426.612 479.002
1006 0 45.065 14.8008 667 106.649 426.886 476.454
1007 0 46.0804 9.89576 456 112.73 427.989 483.015
1008 0 47.2509 13.1003 619 109.339 426.847 475.717
1009 0 48.1894 11.8076 569 119.125 427.125 473.596
1010 0 50.3078 12.7614 642 116.5 427.885 475.187
1011 0 52.2108 10.8024 564 120.725 427.821 469.298
1012 0 55.1728 11.2012 618 117.584 426.887 470.906
1013 0 57.1827 12.3814 708 114.702 427.335 468.545
1014 0 55.3362 14.1499 783 114.144 427.341 465.018
1015 0 56.2963 13.6066 766 115.017 422.392 461.961
1016 0 60.2131 13.8176 832 112.797 423.226 463.825
1017 0 62.3702 12.8106 799 114.285 424.362 461.506
1018 0 60.283 9.77059 589 115.847 424.506 466.905
1019 0 64.2599 15.0638 968 111.754 428.665 458.309
1020 0 66.1035 14.084 931 112.921 428.809 455.873
1021 0 67.2468 11.5693 778 114.717 429.487 457.505
1022 0 69.2782 10.4217 722 117.704 429.949 453.104
1023 0 72.3205 10.8959 788 116.036 429.991 455.763
1024 0 74.2054 10.5383 782 116.318 430.423 454.384
1025 0 76.1396 11.3738 866 115.634 431.216 455.559
1026 1 155.622 15.9939 2489 117.707 432.617 417.245
1027 0 154.447 8.87682 1371 127.433 433.654 422.272
1028 1 82.1415 14.0246 1152 114.286 433.885 448.674
1029 0 85.1824 13.6296 1161 115.235 434.999 447.105
1030 0 87.1687 14.3629 1252 113.371 436.411 449.177
1031 0 88.153 13.3745 1179 115.206 436.534 450.035
1032 0 90.3084 11.4054 1030 118.384 436.323 450.816
1033 0 96.1116 13.9109 1337 113.776 437.313 451.43
1034 0 100.346 11.1314 1117 121.166 436.038 446.094
1035 0 103.314 14.6544 1514 118.582 435.328 447.542
1036 0 103.534 15.4442 1599 118.029 435.15 447.28
1037 1 57.2228 15.0115 859 108.877 432.732 471.655
1038 0 59.2915 18.0802 1072 104.768 434.989 473.454
1039 0 56.243 11.9126 670 115.591 433.651 474.493
1040 0 56.226 11.2937 635 117.709 433.154 472.403
1041 0 63.3186 14.5613 922 117.691 431.744 469.895
1042 0 63.3623 13.3518 846 120.002 431.54 470.39
1043 0 68.3305 12.5566 858 119.494 430.527 474.098
1044 0 70.2182 15.5942 1095 115.661 430.172 469.088
1045 0 71.0777 15.0399 1069 115.682 428.618 471.351
1046 0 72.1966 12.8538 928 121.075 428.372 465.782
1047 0 73.4154 11.5643 849 122.351 428.842 468.305
1048 0 74.1364 10.4402 774 126.362 427.849 462.593
1049 0 82.1595 14.7761 1214 117.256 427.126 463.057
1050 0 79.2738 11.1638 885 122.799 427.492 464.659
1051 0 85.4119 16.7658 1432 114.3 425.944 461.21
1052 0 85.4488 12.0189 1027 121.766 426.883 460.348
1053 0 89.2179 13.4278 1198 120.004 426.523 452.886
1054 0 90.5211 11.1576 1010 123.063 426.843 452.199
1055 0 97.2891 13.0642 1271 118.998 426.777 448.633
1056 0 97.3422 10.4374 1016 120.858 425.76 454.138
1057 1 46.0711 12.7195 586 117.203 426.382 472.442
1058 0 49.0672 12.3708 607 116.817 426.939 471.213
1059 0 49.0738 13.225 649 114.678 426.234 470.451
1060 0 52.1081 15.8517 826 110.846 426.352 466.915
1061 0 52.051 13.1602 685 115.882 427.126 464.876
1062 1 115.756 13.2347 1532 123.445 426.74 436.035
1063 0 119.502 14.5437 1738 121.356 428.194 431.898
1064 1 57.1968 15.4904 886 112.049 427.36 463.84
1065 0 61.1892 13.9077 851 113.511 428.865 462.577
1066 0 60.1402 11.3069 680 118.756 429.221 459.979
1067 0 63.1601 10.3546 654 121.05 430.078 460.451
1068 0 66.0804 13.4836 891 114.472 430.455 459.369
1069 0 66.1022 12.3899 819 117.878 430.933 457.093
1070 0 69.1126 12.1975 843 117.191 432.488 456.623
1071 0 70.1333 14.0447 985 114.892 432.741 454.475
1072 0 71.2481 10.6248 757 120.292 432.719 456.666
1073 0 75.3197 11.657 878 118.067 433.227 458.484
1074 0 79.2989 11.9674 949 117.365 434.699 456.349
1075 0 83.3358 11.1957 933 117.778 434.269 459.22
1076 1 45.0658 14.4677 652 114.891 434.445 473.028
1077 0 48.0802 10.8777 523 118.849 434.084 475.776
1078 0 49.0965 12.4652 612 117.379 434.796 474.092
1079 0 49.0721 14.6519 719 115.969 434.679 476.293
1080 0 48.077 15.1216 727 112.762 435.22 480.651
1081 0 49.2318 12.9997 640 115.722 433.856 478.659
1082 0 51.0852 9.74842 498 121.277 434.707 478.972
1083 0 51.0803 11.8049 603 118.675 433.071 477.519
1084 0 54.1836 13.6388 739 115.127 432.728 477.368
1085 0 55.0718 19.3384 1065 107.767 432.21 478.728
1086 0 60.25 14.8382 894 111.724 431.438 479.114
1087 0 57.0617 10.7252 612 120.526 430.485 479.426
1088 0 60.0299 14.3762 863 116.622 430.273 472.855
1089 0 60.0569 11.7222 704 120.655 429.223 475.3
1090 0 64.1369 13.5959 872 119.819 429.289 471.748
1091 0 67.1154 13.6928 919 119.462 428.186 470.67
1092 0 66.0756 9.01997 596 124.799 427.284 477.174
1093 0 72.128 15.6527 1129 115.745 427.964 468.071
1094 0 73.0823 12.137 887 120.921 427.733 466.472
1095 0 75.083 14.2243 1068 118.216 427.224 463.152
1096 0 78.3299 13.507 1058 119.07 426.535 461.022
1097 0 80.3117 14.6679 1178 116.802 426.661 462.435
1098 1 42.1829 9.74328 411 120.664 426.839 481.728
1099 0 42.0632 12.6952 534 119.934 426.281 476.472
1100 0 46.0467 12.7262 586 119.333 426.184 477.232
1101 0 46.0362 14.5321 669 116.652 425.809 476.656
1102 0 48.1158 12.5946 606 121.281 426.863 472.18
1103 0 46.1538 10.8767 502 121.446 426.763 471.592
1104 0 48.1191 12.2197 588 117.903 425.954 470.918
1105 0 51.1592 9.67568 495 120.394 426.319 472.034
1106 0 47.1336 8.67746 409 123.367 426.504 471.885
1107 0 53.2213 13.0775 696 117.614 428.534 465.736
1108 0 56.2049 14.0913 792 114.408 427.674 467.624
1109 0 57.2828 12.9358 741 117.016 429.914 464.49
1110 0 60.1404 18.3404 1103 108.442 430.432 463.939
1111 0 60.3463 11.9146 719 118.928 429.822 463.773
1112 0 63.2765 13.2435 838 116.877 430.669 463.732
1113 0 65.2963 13.0482 852 116.904 431.468 463.092
1114 0 66.6063 11.9658 797 118.833 431.977 460.671
1115 0 70.0866 13.3406 935 118.355 433.133 460.374
1116 0 72.3329 12.1107 876 119.123 432.199 460.529
1117 0 76.3928 13.051 997 118.009 433.152 459.689
1118 0 77.328 12.0526 932 119.411 432.157 460.674
1119 1 44.0572 11.6213 512 120.221 432.688 475.57
1120 0 44.1102 11.7433 518 119.091 430.822 477.442
1121 0 44.0977 10.9756 484 123.064 430.492 476.922
1122 0 47.0374 13.2235 622 118.977 430.714 476.913
1123 0 49.0911 14.6259 718 115.599 431.265 478.29
1124 0 48.1351 14.3139 689 118.511 430.792 474.565
1125 0 48.0665 14.792 711 117.042 431.018 479.838
1126 0 52.2657 14.0054 732 118.306 430.186 478.582
1127 0 55.1466 16.3927 904 113.463 429.701 482.933
1128 0 56.2368 14.3856 809 119.489 429.797 476.277
1129 0 55.0542 11.8974 655 122.824 427.548 481.544
1130 0 58.1507 12.9663 754 122.943 426.466 478.015
1131 0 58.0776 15.221 884 115.199 426.361 476.714
1132 0 60.1712 12.8633 774 119.406 426.199 478.691
1133 0 63.1272 15.0173 948 116.408 425.712 476.196
1134 0 64.0508 12.9116 827 120.891 426.18 476.058
1135 0 63.0592 12.5913 794 122.802 423.338 474.302
1136 0 66.039 13.7494 908 120.64 424.38 472.204
1137 0 68.246 14.2573 973 120.503 423.643 470.006
1138 0 65.2566 11.9375 779 139.021 423.6 467.031
1139 1 38.0564 12.0085 457 122.95 423.35 485.867
1140 0 39.0284 12.1706 475 123.596 423.137 481.566
1141 0 40.0249 12.0925 484 122.552 422.692 481.345
1142 0 41.0941 11.8995 489 123.196 423.804 480.677
1143 0 41.1141 11.2857 464 125.114 423.599 477.05
1144 0 42.143 14.4271 608 119.317 422.692 477.867
1145 0 43.0173 12.7856 550 122.918 422.095 473.556
1146 0 44.2055 15.8352 700 118.717 423.319 472.64
1147 0 49.2715 13.8823 684 120.632 423.17 472.901
1148 0 46.0571 13.6787 630 123.505 423.714 470.61
1149 0 49.1139 11.3613 558 124.507 423.898 471.672
1150 0 52.0788 15.1309 788 119.438 426.027 465.892
1151 0 50.181 11.0002 552 127.821 426.837 470.362
1152 0 52.0976 12.4382 648 125.63 426.31 469.144
1153 0 55.1304 13.2776 732 124.78 428.631 465.123
1154 0 56.0648 14.4119 808 122.98 428.515 465.095
1155 0 59.0774 13.3892 791 124.549 429.814 465.133
1156 0 61.1991 15.2943 936 123.272 430.002 462.501
1157 0 64.2099 15.6362 1004 122.513 429.411 464.259
1158 0 68.1772 11.9395 814 130.279 430.226 460.355
1159 0 69.1413 14.1594 979 124.513 430.684 462.672
1160 0 72.2806 18.2068 1316 117.386 432.692 461.373
1161 0 72.1924 14.1705 1023 126.299 430.941 459.578
1162 0 74.1347 13.9341 1033 126.591 432.825 457.341
1163 0 78.0849 14.1128 1102 125.157 432.369 460.718
1164 0 80.2179 14.0617 1128 125.64 433.457 457.129
1165 0 85.317 17.7807 1517 117.901 434.076 457.341
1166 1 42.1559 10.4137 439 129.825 434.301 478.116
1167 0 41.2761 9.01247 372 132.312 434.269 478.844
1168 0 46.2084 13.8286 639 120.87 433.214 480.937
1169 0 48.3271 14.526 702 120.037 432.919 477.668
1170 0 49.2649 14.1886 699 121.129 431.7 480.552
1171 0 50.134 12.3868 621 125.308 431.196 479.618
1172 0 51.0988 13.151 672 123.01 431.277 482.568
1173 0 50.1243 11.2919 566 126.387 430.261 480.186
1174 0 55.0727 13.8181 761 120.38 428.515 482.088
1175 0 57.1641 11.8606 678 122.192 429.901 475.97
1176 0 58.1157 12.3547 718 121.79 428.524 474.779
1177 0 61.09 13.7502 840 117.975 428.056 478.149
1178 0 64.1171 15.0662 966 114.589 426.61 473.556
1179 0 67.13 18.5014 1242 107.506 426.95 474.887
1180 0 66.1402 13.4411 889 116.299 426.235 470.701
1181 0 69.311 10.5755 733 118.364 426.336 473.925
1182 0 69.1282 11.6884 808 119.15 426.03 468.984
1183 0 73.1558 11.8651 868 117.122 425.93 469.419
1184 0 75.2185 13.3212 1002 116.077 425.824 463.622
1185 0 76.1004 11.3928 867 119.228 424.964 462.527
1186 0 80.2316 15.6297 1254 113.081 425.335 455.813
1187 0 83.2655 13.8232 1151 115.843 424.388 455.653
1188 0 86.3042 12.595 1087 115.905 424.97 458.428
1189 0 83.245 11.0637 921 119.145 424.685 459.214
1190 1 47.0581 11.8152 556 119.822 424.703 470.908
1191 0 49.0765 13.5707 666 116.168 424.808 472.282
1192 0 51.0362 14.9502 763 113.401 426.896 469.883
1193 0 50.1855 12.7527 640 119.603 427.464 467.219
1194 0 53.2017 13.6274 725 117.869 426.757 466.185
1195 0 55.1084 14.1176 778 117.747 428.693 461.458
1196 0 55.1084 14.2446 785 127.057 429.724 461.479
1197 0 60.1358 13.9019 836 117.895 429.428 462.213
1198 0 59.1926 13.6672 809 118.916 429.939 462.71
1199 0 64.1315 17.9943 1154 111.536 429.772 460.907
1200 0 64.177 12.7927 821 121.343 430.942 459.261
1201 0 67.2206 16.3492 1099 113.739 431.513 463.647
1202 0 71.1269 13.0331 927 121.642 431.928 455.617
1203 0 73.2112 15.708 1150 116.53 432.222 461.161
1204 0 75.1922 15.9724 1201 116.395 432.319 461.627
1205 0 74.122 12.4255 921 124.022 432.633 457.321
1206 0 78.2175 13.2068 1033 122.074 433.836 460.097
1207 0 80.1708 13.7581 1103 121.432 433.78 459.792
1208 0 84.2349 19.5762 1649 112.637 433.785 455.249
1209 0 85.2467 15.6018 1330 120.227 433.759 456.78
1210 0 86.2874 16.1901 1397 120.009 431.799 457.65
1211 0 90.3736 15.5134 1402 121.724 432.037 454.006
1212 0 93.3112 17.1469 1600 117.171 431.358 457.776
1213 0 95.4606 14.4248 1377 122.406 430.967 454.585
1214 0 102.554 17.5908 1804 115.892 430.066 453.887
1215 0 103.689 12.4604 1292 125.701 429.964 454.888
1216 0 104.45 14.5046 1515 122.497 428.873 456.097
1217 1 58.3016 10.6172 619 123.964 428.564 478.069
1218 0 60.2234 13.8484 834 118.665 427.87 476.197
1219 0 62.1263 12.4102 771 117.739 429.329 468.757
1220 0 65.2091 12.4829 814 116.794 428.205 474.027
1221 0 68.0886 14.5692 992 114.597 427.519 469.153
1222 0 70.1493 14.8683 1043 112.73 426.455 468.179
1223 0 72.1423 13.9862 1009 115.578 427.489 468.052
1224 0 73.1769 15.4147 1128 113.356 426.458 468.741
1225 0 73.0613 14.2346 1040 117.559 424.788 461.854
1226 0 75.1921 12.7407 958 119.587 424.884 464.29
1227 0 81.0314 17.0551 1382 112.094 424.881 463.534
1228 0 82.2884 17.7911 1464 111.57 425.01 459.869
1229 0 82.1333 12.8937 1059 121.455 425.286 455.16
1230 0 84.1946 11.1646 940 123.224 425.599 455.992
1231 0 89.1576 12.9097 1151 121.373 426.35 448.218
1232 0 94.2852 12.7698 1204 116.939 426.292 449.406
1233 0 101.185 6.89824 698 129.262 426.019 444.232
1234 0 94.1592 8.74052 823 128.241 426.457 435.187
1235 0 101.218 13.2881 1345 121.588 426.29 430.064
1236 0 106.236 11.0697 1176 122.391 428.488 435.167
1237 0 106.24 10.5328 1119 124.877 428.809 428.127
1238 0 109.504 9.93571 1088 128.858 427.288 426.431
1239 0 115.878 16.9403 1963 119.321 428.004 429.824
1240 0 120.906 10.2559 1240 127.318 428.797 438.568
1241 0 118.574 12.8275 1521 124.545 429.851 425.775
1242 0 118.574 12.7684 1514 137.361 430.864 425.795
1243 0 128.413 12.7791 1641 123.768 430.547 422.069
1244 0 131.415 14.7016 1932 118.798 431.053 428.561
1245 1 70.1617 12.9273 907 119.792 430.589 450.88
1246 0 74.2038 15.1744 1126 116.173 432.091 453.397
1247 0 72.2762 11.3039 817 123.873 433.207 454.419
1248 0 81.2726 15.1097 1228 116.024 431.985 453.989
1249 0 78.1884 12.3036 962 122.655 432.339 451.906
1250 0 85.2279 14.6431 1248 119.115 431.141 445.058
1251 0 88.3757 15.683 1386 117.995 433.171 445.938
1252 0 89.2576 14.1613 1264 121.562 431.08 444.814
1253 0 92.1903 11.3244 1044 126.234 431.244 448.728
1254 1 49.0512 12.701 623 122.108 430.05 469.769
1255 0 52.1132 13.5282 705 119.104 431.773 470.549
1256 0 52.13 13.3896 698 120.292 432.4 468.961
1257 0 54.041 15.0441 813 118.108 432.672 473.279
1258 0 57.0867 14.5218 829 117.397 432.157 475.52
1259 0 59.1925 16.6575 986 112.927 431.248 478.891
1260 0 57.0572 14.5643 831 116.244 430.006 480.404
1261 0 58.1384 12.0402 700 122.753 428.911 475.664
1262 0 61.0494 13.3335 814 119.833 428.283 476.052
1263 0 65.0768 12.7542 830 120.007 427.755 471.711
1264 0 67.079 12.1498 815 123.085 427.264 465.433
1265 0 68.1053 14.8153 1009 118.562 427.898 465.361
1266 0 72.1123 16.1692 1166 114.291 426.703 466.735
1267 0 75.2518 13.6608 1028 117.985 427.163 465.543
1268 0 73.1108 13.883 1015 119.119 426.663 461.701
1269 0 76.2043 15.7603 1201 116.03 426.368 460.092
1270 0 77.0585 10.9527 844 123.536 426.184 453.718
1271 0 84.2155 15.6147 1315 114.874 425.9 453.262
1272 0 85.1805 15.473 1318 115.856 426.779 451.143
1273 0 88.2424 13.6216 1202 119.349 426.151 445.665
1274 0 92.1206 18.8991 1741 109.751 426.714 450.226
1275 0 89.1366 11.9143 1062 121.806 426.437 444.994
1276 0 100.206 14.0511 1408 117.146 426.994 443.472
1277 0 100.238 14.5154 1455 117.386 427.086 440.043
1278 0 104.147 12.5976 1312 118.989 427.544 443.101
1279 1 59.3087 12.2748 728 120.372 427.953 457.6
1280 0 60.1165 16.3682 984 113.326 427.71 463.656
1281 0 61.3637 13.7704 845 118.363 427.658 458.514
1282 0 66.3386 14.426 957 117.227 429.162 457.153
1283 0 66.2987 14.5252 963 119.597 428.205 453.524
1284 0 71.4813 18.2285 1303 112.16 430.141 455.739
1285 0 72.3397 14.0725 1018 119.544 431.036 451.795
1286 0 75.4875 14.3335 1082 119.503 432.067 443.302
1287 0 76.3187 15.4091 1176 117.868 431.355 446.083
1288 0 78.447 14.838 1164 119.391 431.948 445.514
1289 0 82.2793 17.1975 1415 114.764 432.567 444.822
1290 0 83.4909 14.4686 1208 118.441 432.456 445.954
1291 0 85.3552 14.1409 1207 119.412 432.762 443.808
1292 0 89.4572 15.907 1423 115.913 433.122 447.389
1293 0 92.7001 18.0906 1677 112.579 433.019 445.562
1294 0 96.3885 14.9707 1443 117.226 432.127 444.319
1295 0 103.688 21.9697 2278 105.883 432.036 440.837
1296 0 102.329 17.1994 1760 112.389 432.852 436.28
1297 0 103.494 12.5514 1299 119.532 432.72 439.204
1298 1 57.2073 12.4285 711 119.022 432.804 467.601
1299 0 58.051 12.5063 726 117.999 432.207 468.989
1300 0 63.128 12.9261 816 117.819 430.501 468.212
1301 0 68.2586 15.6464 1068 116.07 430.177 468.64
1302 0 66.3378 13.8684 920 120.279 428.316 469.857
1303 0 71.4542 16.0522 1147 115.547 427.769 466.643
1304 0 74.4121 15.8442 1179 115.455 426.624 466.445
1305 0 75.2182 14.2253 1070 118.81 426.12 466.008
1306 0 82.3592 12.2512 1009 117.457 425.697 462.8
1307 0 80.312 13.2234 1062 116.282 425.794 461.157
1308 0 92.4386 19.6238 1814 108.355 423.873 442.006
1309 1 49.199 15.6304 769 115.33 422.996 464.382
1310 0 50.0649 11.6449 583 121.3 424.19 459.184
1311 0 48.0971 10.3749 499 125.287 423.07 459.194
1312 0 52.0802 14.0744 733 113.662 424.398 454.266
1313 0 57.0694 12.8615 734 113.275 423.76 458.059
1314 0 57.2057 12.8309 734 114.132 424.561 460.744
1315 0 58.0738 13.3968 778 115.033 424.013 452.605
1316 0 59.1771 13.2822 786 116.224 424.692 453.331
1317 0 61.0674 15.5402 949 112.79 424.843 453.317
1318 0 64.2336 13.124 843 117.515 424.792 448.572
1319 0 68.2869 13.5311 924 116.412 425.877 450.673
1320 0 68.4768 17.7432 1215 111.148 426.245 451.22
1321 0 71.2101 19.4776 1387 108.478 426.597 448.557
1322 0 73.1818 14.7168 1077 116.13 428.033 450.578
1323 0 78.4851 15.5061 1217 114.79 428.695 451.054
1324 0 80.3433 14.2887 1148 117.986 429.912 450.053
1325 0 82.2878 18.6662 1536 110.976 431.088 451.683
1326 0 84.2332 18.6743 1573 112.434 429.587 443.566
1327 0 87.3155 14.8427 1296 118.546 430.796 448.107
1328 0 90.2457 17.3083 1562 115.725 432.266 446.261
1329 0 93.4614 15.6963 1467 118.392 431.395 449.204
1330 0 95.3952 19.1938 1831 114.618 432.372 442.94
1331 0 99.3563 18.1669 1805 117.4 431.395 441.13
1332 0 101.318 20.1642 2043 114.951 432.697 443.33
1333 0 106.489 17.8704 1903 119.84 432.738 440.554
1334 0 108.191 13.735 1486 128.508 433.304 443.472
1335 1 55.2097 14.5808 805 125.319 431.062 467.251
1336 0 56.0694 16.8184 943 120.949 430.902 467.006
1337 0 58.1553 15.7681 917 118.374 431.136 463.845
1338 0 61.4741 15.4211 948 117.639 430.213 464.823
1339 0 61.1018 16.448 1005 118.221 431.04 463.823
1340 0 66.256 15.6665 1038 119.018 430.376 462.395
1341 0 71.2462 15.6219 1113 117.421 430.084 463.375
1342 0 69.1289 18.9501 1310 115.202 430.156 461.29
1343 0 74.108 14.2765 1058 121.709 428.763 462.988
1344 0 75.1919 16.1985 1218 119.835 428.54 456.913
1345 0 77.4485 21.2787 1648 113.137 426.741 460.319
1346 0 78.3149 13.5096 1058 128.327 427.046 456.606
1347 0 81.2129 13.557 1101 129.876 426.156 451.598
1348 0 85.4382 19.1366 1635 121.002 425.525 447.433
1349 0 85.5096 13.7762 1178 131.531 425.171 446.345
1350 0 90.5749 16.5388 1498 123.79 425.83 449.797
1351 0 92.5941 16.6533 1542 124.249 425.826 448.867
1352 1 44.2626 10.5507 467 130.435 423.529 470.034
1353 0 49.3172 14.0113 691 120.69 425.182 471.751
1354 0 50.1314 13.2651 665 122.901 424.119 464.677
1355 0 54.1215 19.9366 1079 112.766 424.972 457.05
1356 0 54.2258 15.4723 839 120.825 423.907 453.573
1357 0 55.296 13.0932 724 124.39 423.989 458.905
1358 0 58.6035 14.2995 838 120.44 424.419 460.122
1359 0 59.322 12.8283 761 121.472 424.313 461.418
1360 0 63.6541 14.296 910 121.237 425.218 455.977
1361 0 64.1447 17.9594 1152 115.436 425.413 456.712
1362 0 65.5139 16.1798 1060 120.449 426.088 450.505
1363 0 68.613 17.0667 1171 119.564 426.904 448.049
1364 0 67.4678 12.7913 863 126.548 426.479 452.447
1365 0 69.2562 12.5765 871 127.978 428.504 452.245
1366 0 75.2074 17.4584 1313 119.651 429.717 450.247
1367 0 78.4358 15.6434 1227 127.467 428.382 446.319
1368 0 80.2796 14.3125 1149 129.658 429.511 447.546
1369 0 84.5205 15.7713 1333 126.03 430.762 450.242
1370 0 87.6654 13.9964 1227 131.037 431.233 447.02
1371 0 90.6614 17.0855 1549 123.839 431.974 444.631
1372 0 93.5078 15.9452 1491 125.212 432.777 446.053
1373 0 95.9976 14.4379 1386 127.888 432.069 446.312
1374 1 52.3197 15.3671 804 120.668 433.139 466.841
1375 0 55.1429 14.5259 801 122.263 432.83 465.668
1376 0 56.3224 15.8552 893 122.011 433.748 464.983
1377 0 58.7768 12.0116 706 126.324 433.888 468.56
1378 0 58.474 12.8091 749 126.024 433.964 467.633
1379 0 62.7824 12.7902 803 126.25 433.1 463.646
1380 0 64.697 14.8384 960 122.486 433.267 463.568
1381 0 67.5085 15.9387 1076 118.56 433.144 466.801
1382 0 70.7175 18.9486 1340 114.204 433.822 465.4
1383 0 70.7175 18.9345 1339 130.229 433.833 465.425
1384 0 74.4595 17.0294 1268 116.509 432.838 468.738
1385 0 76.5184 14.8853 1139 122.385 431.372 464.813
1386 0 78.5567 12.6915 997 125.521 429.925 460.932
1387 0 81.5578 16.1113 1314 120.785 428.242 460.166
1388 0 85.4446 16.619 1420 119.394 428.437 459.498
1389 0 87.6809 16.4346 1441 120.824 426.923 456.692
1390 0 91.5483 13.8943 1272 125.326 427 457.239
1391 0 92.4384 17.5793 1625 117.594 427.062 459.495
1392 0 94.6748 13.3721 1266 127.176 427.128 449.28
1393 1 51.3497 13.5152 694 120.134 427.108 473.658
1394 0 54.5152 15.8304 863 116.323 426.947 474.776
1395 0 53.3507 13.2519 707 121.919 425.392 471.328
1396 0 53.1049 12.2211 649 123.553 426.327 468.76
1397 0 55.2995 13.02 720 124.2 424.936 465.767
1398 0 58.2481 14.9876 873 121.338 425.527 465.165
1399 0 60.2664 10.1715 613 128.476 424.832 465.649
1400 0 63.2337 14.6283 925 121.373 425.121 463.811
1401 0 68.6107 14.9539 1026 119.445 426.015 461.86
1402 0 70.8105 13.402 949 123.841 425.857 458.23
1403 0 69.1209 14.7568 1020 123.09 425.344 453.46
1404 0 73.7176 15.8578 1169 120.855 424.896 452.993
1405 0 77.4238 13.4067 1038 124.525 426.526 452.9
1406 0 78.3885 13.4969 1058 124.794 428.026 452.146
1407 0 78.8966 12.7128 1003 127.688 429.394 451.666
1408 0 81.3765 15.287 1244 123.073 429.34 448.172
1409 0 84.3021 13.3686 1127 127.881 429.575 445.54
1410 0 84.5391 13.6387 1153 128.32 429.015 446.243
1411 0 90.4443 15.5012 1402 123.357 430.934 443.432
1412 0 91.2939 14.5464 1328 125.965 431.223 447.068
1413 0 95.7405 13.5784 1300 129.192 430.866 440.115
1414 0 98.6014 13.5191 1333 128.77 431.785 443.725
1415 0 102.361 14.4781 1482 126.925 432.42 444.353
1416 1 59.2007 11.2668 667 124.27 432.775 466.45
1417 0 58.1899 11.3937 663 137.787 433.777 466.211
1418 0 62.1719 11.7899 733 127.127 433.398 456.984
1419 0 64.0829 16.5411 1060 117.447 432.355 464.577
1420 0 66.1035 13.494 892 125.749 433.53 461.589
1421 0 70.1261 16.5131 1158 119.86 432.297 463.99
1422 0 70.1763 11.5709 812 129.299 432.241 464.932
1423 0 74.1707 13.4555 998 126.041 432.004 463.558
1424 0 78.3036 14.2395 1115 123.657 431.447 462.701
1425 0 78.201 11.7134 916 128.857 431.445 464.823
1426 0 82.203 16.1916 1331 121.031 431.622 460.7
1427 0 85.3948 14.4974 1238 122.879 429.811 463.888
1428 0 89.2485 16.0003 1428 120.174 430.48 459.26
1429 0 91.1855 14.6186 1333 123.617 428.83 460.601
1430 0 94.3449 17.0756 1611 120.063 428.557 457.394
1431 0 98.2959 14.3851 1414 123.193 428.108 457.664
1432 0 101.333 12.3158 1248 126.254 427.546 454.974
1433 0 107.246 15.8328 1698 120.993 426.511 449.183
1434 0 108.381 14.366 1557 123.712 426.727 445.715
1435 1 61.2003 12.3365 755 119.588 425.038 472.424
1436 0 61.1865 10.3781 635 121.243 426.315 468.734
1437 0 60.1083 11.263 677 116.84 423.51 468.654
1438 0 66.0751 13.1517 869 113.258 422.87 467.47
1439 0 69.2257 14.85 1028 109.695 421.662 468.637
1440 0 70.2929 12.3768 870 114.294 421.368 464.72
1441 0 73.2962 11.4876 842 115.02 423.329 461.527
1442 0 76.183 12.26 934 112.544 422.908 459.865
1443 0 80.2127 14.5737 1169 109.246 422.605 455.611
1444 0 79.3897 13.1125 1041 110.591 423.646 459.744
1445 0 83.1018 13.7783 1145 110.763 422.536 455.479
1446 0 87.2001 16.766 1462 106.397 424.471 448.802
1447 0 88.2046 11.0085 971 113.864 425.041 449.555
1448 1 49.2472 9.64521 475 114.059 423.92 469.032
1449 0 50.0834 13.2379 663 108.517 424.032 468.816
1450 0 51.2731 11.9361 612 113.373 424.853 466.724
1451 0 55.2711 14.9083 824 112.561 426.522 463.345
1452 0 54.3012 12.9647 704 116.381 426.794 462.932
1453 0 55.1866 12.2312 675 118.227 427.204 460.413
1454 0 57.1347 13.827 790 115.263 427.289 461.946
1455 0 59.268 13.7511 815 114.79 427.717 464.89
1456 0 61.304 14.4036 883 114.366 428.674 461.745
1457 0 63.2618 12.7249 805 116.999 429.528 460.268
1458 0 63.0728 13.8729 875 108.946 429.506 462.138
1459 0 65.1839 15.4026 1004 108.759 430.735 460.9
1460 0 66.4338 11.455 761 112.143 430.779 467.65
1461 0 66.1372 7.80196 516 118.678 432.155 465.11
1462 0 68.3446 7.40365 506 117.204 432.302 470.308
1463 0 75.8104 14.2724 1082 109.426 432.587 460.091
1464 0 76.4767 11.9775 916 113.712 430.925 465.605
1465 0 80.2648 13.8292 1110 112.614 430.572 459.813
1466 0 78.1893 10.5385 824 116.422 429.973 464.642
1467 0 84.547 13.7084 1159 110.997 430.782 464.643
1468 0 88.2609 13.5507 1196 110.921 429.916 460.597
1469 0 88.4004 13.8235 1222 112.632 429.799 460.364
1470 0 89.2794 11.94 1066 115.146 429.625 463.989
1471 0 90.3187 11.6034 1048 115.875 429.246 465.306
1472 1 190.958 13.2385 2528 118.509 429.769 407.682
1473 1 150.606 10.4046 1567 120.651 427.891 430.232
1474 0 156.999 13.9045 2183 115.303 428.005 425.079
1475 1 110.398 13.0346 1439 114.344 426.568 462.463
1476 0 116.652 14.5733 1700 116.209 426.323 453.356
1477 0 117.611 12.7794 1503 120.047 424.48 449.247
1478 0 119.797 17.8302 2136 111.556 424.304 450.559
1479 0 125.529 14.5464 1826 117.204 424.139 446.189
1480 0 128.946 15.6034 2012 115.974 423.056 441.622
1481 1 68.5256 13.9948 959 117.912 423.714 470.082
1482 0 70.5253 12.8323 905 120.704 423.218 464.313
1483 0 74.8738 14.9585 1120 116.596 423.652 458.238
1484 0 71.7908 10.9763 788 124.852 423.722 456.904
1485 0 81.1338 13.5332 1098 118.796 424.504 455.318
1486 1 157.043 13.9579 2192 120.594 425.08 418.18
1487 0 161.606 11.9179 1926 120.22 425.073 415.375
1488 0 160.596 11.8496 1903 141.574 424.064 415.278
1489 1 49.255 11.3085 557 114.325 426.583 469.962
1490 0 50.3598 13.9993 705 112.082 427.044 466.206
1491 0 54.3487 18.8045 1022 103.755 426.77 468.785
1492 0 52.144 13.3285 695 112.794 427.43 464.901
1493 0 54.1569 15.1412 820 110.046 429.022 462.077
1494 0 55.0814 13.8704 764 113.221 428.166 460.851
1495 0 56.1052 16.0413 900 110.209 429.24 459.964
1496 0 58.1307 12.7815 743 114.931 430.969 462.694
1497 0 60.2978 15.0254 906 110.971 430.485 461.203
1498 0 63.2935 12.9871 822 113.79 430.949 459.596
1499 1 120.543 14.5094 1749 116.432 431.391 434.019
1500 0 124.695 12.9837 1619 118.02 432.591 437.973
1501 0 132.146 14.0299 1854 118.468 432.45 428.45
1502 0 137.102 14.2376 1952 116.643 432.753 430.513
1503 1 69.1814 9.87259 683 118.681 432.261 462.693
1504 0 74.1957 14.5561 1080 111.823 432.578 463.127
1505 0 75.1386 13.0026 977 114.677 432.854 462.704
1506 1 153.783 12.6802 1950 119.992 432.465 422.84
1507 0 163.122 13.0577 2130 118.233 433.528 428.636
1508 0 165.872 12.4072 2058 117.602 431.984 431.92
1509 1 86.4227 13.6538 1180 115.803 433.025 454.88
1510 0 90.3023 11.6387 1051 117.863 431.067 457.221
1511 0 91.3405 12.2837 1122 117.463 431.099 458.756
1512 0 96.2804 13.9592 1344 114.036 431.588 459.571
1513 0 96.4878 15.318 1478 112.84 430.273 455.049
1514 0 98.4898 11.8794 1170 119.319 430.749 452.462
1515 1 50.4045 11.2093 565 119.959 429.696 472.028
1516 0 53.405 11.703 625 119.046 428.704 476.28
1517 0 55.8194 13.4362 750 116.972 427.961 473.123
1518 0 58.33 13.8865 810 120.249 426.788 476.19
1519 0 62.22 14.1594 881 117.443 426.531 478.318
1520 0 64.3312 13.4771 867 119.21 425.663 470.845
1521 0 64.2319 14.5722 936 118.732 424.827 468.382
1522 0 67.3389 14.4048 970 118.13 424.677 470.831
1523 0 69.5908 13.407 933 120.825 424.117 464.497
1524 0 69.8226 13.5486 946 121.15 424.011 463.428
1525 0 77.5238 19.9294 1545 110.696 424.458 457.813
1526 0 74.828 12.5354 938 124.407 423.485 457.305
1527 0 77.8491 14.4767 1127 120.381 424.383 457.941
1528 0 82.0698 14.5608 1195 121.227 424.215 452.783
1529 0 83.0698 16.3597 1359 118.911 424.501 451.608
1530 0 86.4531 15.4882 1339 119.482 424.034 451.34
1531 0 87.8321 14.7782 1298 120.793 425.133 450.555
1532 0 90.9773 14.663 1334 122.66 425.402 446.948
1533 0 94.6987 17.6138 1668 118.174 426.124 444.196
1534 0 95.9657 15.7556 1512 122.504 426.804 442.562
1535 0 100.952 18.7118 1889 116.968 426.879 441.539
1536 0 104.162 18.2599 1902 118.759 427.516 433.524
1537 0 106.945 16.0736 1719 121.189 427.956 438.784
1538 0 108.743 14.9987 1631 123.441 430.01 437.305
1539 1 62.5583 14.4985 907 123.688 429.351 458.584
1540 0 65.982 14.6707 968 122.844 429.777 458.081
1541 0 64.6635 14.4285 933 125.114 430.4 457.189
1542 0 65.5651 15.6638 1027 124.208 431.044 452.982
1543 0 65.5651 15.6333 1025 148.42 431.047 452.959
1544 0 70.7267 14.2803 1010 125.914 431.17 454.368
1545 0 74.8896 19.2149 1439 115.787 430.934 458.126
1546 0 76.5556 16.4325 1258 121.386 431.557 457.645
1547 0 79.4528 17.7841 1413 117.743 430.984 459.009
1548 0 81.8409 16.1289 1320 122.136 431.432 457.814
1549 0 82.7567 14.3553 1188 126.289 431.12 456.648
1550 0 88.8042 15.1795 1348 124.778 431.23 456.982
1551 0 91.6751 17.6602 1619 119.131 431.332 458.019
1552 0 92.5553 19.6531 1819 117.847 430.254 455.054
1553 0 94.8356 17.5672 1666 121.343 430.811 455.541
1554 0 97.6161 17.1181 1671 122.467 430.308 454.747
1555 0 101.637 15.9293 1619 125.584 429.595 449.026
1556 0 102.466 16.5616 1697 124.209 429.374 451.424
1557 0 109.453 14.7096 1610 124.92 428.078 451.781
1558 0 111.549 17.8038 1986 121.241 427.041 446.646
1559 0 114.697 15.7545 1807 123.468 426.656 450.568
1560 0 120.398 17.1515 2065 121.293 426.923 443.213
1561 0 122.612 15.4961 1900 125.065 425.803 439.416
1562 0 126.594 13.0259 1649 128.306 425.51 439.925
1563 1 72.3664 14.8964 1078 122.135 424.118 462.667
1564 0 76.503 15.2935 1170 121.815 424.71 462.677
1565 0 77.131 15.3376 1183 123.346 424.116 461.006
1566 0 80.297 15.8661 1274 121.856 423.821 458.914
1567 0 85.2513 17.3956 1483 118.578 423.926 455.21
1568 0 87.4974 18.9377 1657 117.201 424.27 451.986
1569 0 89.4038 16.2969 1457 122.105 423.639 451.514
1570 0 89.1767 13.4116 1196 128.321 423.457 447.952
1571 0 93.3167 14.4562 1349 125.679 421.953 447.675
1572 0 98.2915 15.7592 1549 124.16 421.888 443.866
1573 0 102.411 15.7014 1608 122.799 423.081 444.642
1574 0 100.284 13.0429 1308 130.227 423.447 434.515
1575 0 106.324 14.4558 1537 126.55 423.446 436.904
1576 0 105.342 14.4197 1519 128.558 424.969 431.951
1577 0 113.32 15.3106 1735 124.803 426.059 432.36
1578 0 118.28 15.1674 1794 125.661 427.562 426.234
1579 1 65.2704 13.3138 869 119.308 426.032 456.22
1580 0 63.1433 11.1176 702 123.442 429.137 447.993
1581 0 64.2595 8.76134 563 127.721 429.538 443.424
1582 0 70.158 13.6406 957 120.072 431.213 451.882
1583 0 76.3132 15.7902 1205 114.32 431.329 455.5
1584 0 74.1751 11.9312 885 123.429 429.834 452.348
1585 0 78.2369 12.8328 1004 119.879 431.023 455.661
1586 0 80.1494 12.7262 1020 121.16 431.737 454.283
1587 0 86.2389 14.7961 1276 117.598 433.052 452.509
1588 0 83.203 10.4924 873 126.586 432.325 446.532
1589 0 88.2935 12.3112 1087 124.206 431.976 445.448
1590 0 92.0816 14.0202 1291 120.277 432.17 449.747
1591 0 96.1662 10.9186 1050 124.575 432.558 449.208
1592 0 101.238 15.3896 1558 117.61 432.223 449.612
1593 0 103.312 14.4804 1496 120.275 431.496 443.977
1594 0 106.33 13.9378 1482 121.113 432.028 441.8
1595 1 57.1459 11.8994 680 113.376 430.894 474.882
1596 0 57.188 12.3103 704 115.906 431.507 469.173
1597 0 61.0889 12.4409 760 113.379 430.33 472.086
1598 0 64.1491 12.2215 784 116.175 430.986 471.352
1599 0 66.1706 13.9488 923 113.573 430.751 469.041
1600 0 63.1957 6.28207 397 119.317 427.897 474.788
1601 0 64.312 9.8271 632 115.748 427.073 471.394
1602 0 68.2611 12.042 822 113.406 426.173 469.499
1603 0 71.2365 10.0089 713 115.763 426.856 468.48
1604 0 74.295 8.9508 665 115.529 424.571 470.301
1605 0 74.2993 12.1401 902 114.786 425.664 461.009
1606 0 79.2728 11.5298 914 115.105 425.409 456.928
1607 0 80.2417 12.1882 978 113.607 424.222 463.693
1608 0 86.198 13.8402 1193 110.656 424.878 462.634
1609 0 87.2007 14.243 1242 111.9 423.249 456.794
1610 0 90.3226 11.0382 997 116.625 423.875 454.524
1611 0 90.2339 11.1156 1003 117.178 423.692 453.38
1612 0 94.3678 9.64312 910 119.131 424.149 449.619
1613 1 52.073 12.1176 631 114.989 424.296 470.271
1614 0 51.2932 9.06553 465 122.387 422.785 464.748
1615 0 55.1779 11.182 617 116.115 423.755 468.028
1616 0 55.1805 12.7038 701 115.063 423.582 464.974
1617 0 61.3625 12.9721 796 114.367 424.871 462.736
1618 0 58.4462 11.8742 694 117.484 426.349 461.369
1619 0 61.5006 11.7397 722 118.494 426.305 456.306
1620 0 65.5996 12.2714 805 117.458 426.42 452.816
1621 0 63.422 9.01895 572 122.016 427.934 458.269
1622 0 69.5717 12.6488 880 114.388 428.107 456.031
1623 0 72.5235 11.2791 818 117.007 429.326 451.324
1624 0 73.3822 10.4112 764 118.524 428.959 446.653
1625 0 75.7231 11.0798 839 115.164 428.633 454.151
1626 0 77.7011 9.79395 761 117.788 429.506 446.922
1627 0 78.5671 12.7662 1003 112.288 429.536 450.273
1628 0 77.4157 11.083 858 114.22 431.193 452.378
1629 1 47.048 9.41592 443 113.12 432.892 467.467
1630 0 48.2314 8.9361 431 112.756 433.29 469.142
1631 0 49.2104 8.29094 408 113.914 433.373 470.708
1632 0 51.3119 11.927 612 113.119 433.1 467.895
1633 0 53.5721 10.2852 551 114.955 432.323 470.172
1634 0 54.7417 12.8056 701 114.043 433.144 463.682
1635 0 53.6678 11.4407 614 114.738 432.653 472.827
1636 0 58.2949 13.8777 809 111.871 431.499 469.561
1637 0 58.1676 11.0886 645 117.594 432.422 469.426
1638 0 61.1196 10.7003 654 116.344 433.801 470.443
1639 0 60.0864 9.48634 570 121.053 433.674 466.784
1640 0 69.318 15.5804 1080 108.347 433.083 470.125
1641 0 69.25 10.8592 752 117.773 431.842 469.334
1642 0 69.2201 12.6408 875 117.659 431.827 465.224
1643 0 70.278 12.4506 875 118.365 431.707 465.414
1644 0 74.1382 15.7274 1166 112.2 430.458 464.681
1645 0 74.1898 11.201 831 121.871 429.99 461.536
1646 0 76.2194 12.6871 967 119.845 428.593 463.228
1647 0 78.1553 11.1317 870 122.002 429.179 461.882
1648 0 82.3827 15.1609 1249 116.115 428.721 456.288
1649 0 83.2645 12.3822 1031 119.47 427.085 459.273
1650 1 137.336 8.43186 1158 120.041 427.115 448.88
1651 0 134.554 10.2041 1373 115.995 425.417 440.762
1652 0 129.583 13.7518 1782 114.245 425.993 431.008
1653 0 139.782 13.936 1948 114.123 425.2 427.298
1654 1 93.2974 10.3969 970 120.425 424.859 438.647
1655 1 47.2055 11.0157 520 110.037 424.85 466.508
1656 0 50.1871 10.1221 508 112.152 422.823 460.492
1657 0 51.1558 12.5303 641 108.732 422.345 458.039
1658 0 54.2154 13.4279 728 107.853 423.695 458.343
1659 0 53.4445 10.6466 569 113.142 422.745 456.923
1660 0 51.294 9.90369 508 114.711 424.132 453.344
1661 0 53.215 13.624 725 109.567 425.451 451.909
1662 0 56.2666 10.9301 615 113.146 425.496 452.917
1663 0 57.2355 13.1387 752 111.148 424.633 450.862
1664 0 56.2408 8.89034 500 122.074 427.354 452.818
1665 0 59.391 11.6011 689 118.691 426.911 453.308
1666 0 62.3799 11.6865 729 119.123 427.499 449.457
1667 0 67.4248 11.7464 792 117.303 428.674 451.222
1668 0 65.3969 10.291 673 120.076 428.792 450.455
1669 0 68.2156 12.7244 868 116.856 430.168 448.412
1670 0 68.36 11.1469 762 120.05 430.449 447.383
1671 0 70.294 9.5883 674 121.684 431.074 450.994
1672 0 75.224 11.0736 833 119.792 431.81 449.453
1673 0 77.2879 13.5079 1044 114.42 432.084 450.515
1674 0 81.2932 16.0776 1307 110.548 433.209 447.875
1675 0 83.4005 14.5203 1211 113.467 433.633 448.751
1676 0 88.3379 15.7577 1392 109.607 432.698 453.646
1677 0 83.3262 8.1967 683 123.053 432.884 449.562
1678 0 92.4981 15.2111 1407 110.094 433.584 446.116
1679 0 94.3932 13.359 1261 113.67 433.258 446.266
1680 0 97.5989 16.8342 1643 108.248 432.293 447.224
1681 0 98.6312 14.5897 1439 110.612 431.331 449.942
1682 1 53.269 11.2448 599 108.449 430.668 472.995
1683 0 56.33 13.7227 773 106.197 431.001 469.427
1684 0 56.102 18.3238 1028 105.36 428.941 478.909
1685 0 57.088 12.7347 727 115.198 427.631 476.099
1686 0 57.3261 10.8851 624 119.276 426.093 472.489
1687 0 61.236 16.4772 1009 109.354 426.393 469.02
1688 0 63.1243 12.3724 781 114.921 425.917 472.881
1689 0 65.3355 14.0505 918 112.263 425.377 471.737
1690 0 66.187 15.154 1003 111.122 424.706 469.339
1691 0 69.1804 12.5758 870 115.474 423.963 465.229
1692 0 68.1496 13.3823 912 115.471 423.986 463.143
1693 0 73.1668 16.7016 1222 109.844 423.362 463.504
1694 0 75.0869 12.9716 974 115.036 423.024 462.777
1695 0 78.2138 14.0129 1096 114.119 422.706 458.758
1696 0 82.4123 19.5117 1608 106.213 422.114 454.684
1697 0 83.3821 14.1877 1183 114.904 423.161 454.422
1698 0 83.3821 14.1757 1182 124.161 423.155 454.485
1699 1 48.1241 12.5717 605 116.712 422.132 468.66
1700 0 48.6066 12.9612 630 114.141 422.984 467.294
1701 0 52.2278 14.5133 758 110.038 421.939 470.418
1702 0 50.1313 11.2106 562 115.335 424.318 471.009
1703 0 50.3184 11.626 585 115.014 422.742 464.697
1704 0 51.3554 8.27567 425 119.332 424.487 464.424
1705 0 54.5259 12.8013 698 113.841 424.351 462.712
1706 0 55.3689 11.7575 651 116.015 425.825 460.871
1707 0 57.3428 12.8874 739 114.525 425.438 458.769
1708 0 59.2568 11.0536 655 117.591 426.125 459.621
1709 0 59.2568 11.0873 657 131.711 426.126 459.612
1710 0 65.3333 13.8214 903 115.612 427.084 453.912
1711 0 66.3355 12.1956 809 119.005 428.603 455.985
1712 0 66.3355 12.2107 810 139.463 430.614 455.954
1713 0 68.2425 12.5142 854 120.025 429.66 456.48
1714 0 71.4844 12.1985 872 121.36 430.294 452.94
1715 0 75.3819 13.3852 1009 117.37 430.337 458.155
1716 0 77.5563 16.9038 1311 112.571 430.763 457.606
1717 0 77.2826 12.4219 960 122.522 430.652 455.607
1718 0 83.2213 14.0709 1171 120.19 430.964 453.229
1719 1 43.0337 10.9914 473 123.973 430.786 469.835
1720 0 47.0834 12.892 607 117.613 430.301 473.855
1721 0 47.2023 10.5291 497 122.757 431.292 474.654
1722 0 51.2483 15.2005 779 113 430.352 471.774
1723 0 52.1295 14.4064 751 116.66 429.639 472.739
1724 0 57.1344 15.6823 896 112.682 429.301 476.148
1725 0 57.095 15.9383 910 114.113 429.565 473.911
1726 0 57.095 15.6931 896 135.402 429.542 473.819
1727 0 58.1066 18.0702 1050 113.287 429.837 472.685
1728 0 60.2634 15.2497 919 117.726 429.047 471.952
1729 0 62.2314 14.8799 926 118.364 426.45 471.551
1730 0 67.301 18.6922 1258 110.543 426.816 472.107
1731 0 65.2371 13.8112 901 119.626 423.865 470.354
1732 0 68.1301 15.4264 1051 117.695 425.18 468.598
1733 0 69.1254 13.2223 914 122.953 424.555 463.023
1734 0 71.3872 13.6159 972 121.428 423.791 465.945
1735 0 75.1564 16.3792 1231 116.464 422.037 464.015
1736 0 76.1161 18.6294 1418 114.415 423.306 459.748
1737 0 79.2078 16.9554 1343 116.72 423.485 456.548
1738 0 81.2354 14.538 1181 121.527 423.419 456.559
1739 0 86.153 13.5457 1167 121.331 422.762 454.819
1740 0 85.4738 12.109 1035 124.694 423.603 453.078
1741 1 43.3645 11.3918 494 124.091 423.763 474.249
1742 0 45.2388 12.0251 544 110.607 425.074 468.906
1743 0 45.4352 10.7406 488 112.586 424.922 467.91
1744 0 45.4118 11.6269 528 113.676 426.508 466.303
1745 0 49.1642 12.8549 632 117.127 425.797 470.845
1746 0 49.0337 16.764 822 111.192 426.698 469.294
1747 0 50.0581 11.9861 600 120.582 427.265 466.528
1748 0 51.0715 13.6084 695 117.947 427.029 464.535
1749 0 53.132 14.3228 761 116.656 427.711 464.415
1750 0 51.0624 11.437 584 123.538 427.928 461.961
1751 0 55.1082 15.8053 871 116.634 428.295 460.971
1752 0 58.151 14.9783 871 117.494 429.179 459.249
1753 0 59.1929 14.2585 844 118.382 429.622 461.577
1754 0 61.2345 12.6236 773 121.695 429.829 457.455
1755 0 63.2439 12.7759 808 121.605 430.827 458.928
1756 0 67.2471 12.5656 845 120.82 430.476 459.288
1757 0 67.2031 13.8386 930 120.904 430.832 457.042
1758 0 70.225 13.0723 918 121.646 431.854 459.295
1759 0 75.2007 15.4387 1161 117.531 432.296 455.742
1760 0 75.1404 11.565 869 123.29 432.365 457.797
1761 0 77.3133 12.5852 973 121.34 432.428 457.76
1762 0 81.4201 14.0629 1145 119.452 432.751 455.329
1763 0 83.2315 13.3844 1114 120.079 433.727 457.794
1764 0 86.1748 13.902 1198 119.447 432.705 458.476
1765 0 90.1959 14.1692 1278 118.608 432.527 456.897
1766 0 93.2455 14.7246 1373 117.757 432.848 455.652
1767 1 50.1391 11.129 558 120.09 432.177 477.615
1768 0 52.2069 13.0059 679 116.024 432.029 476.638
1769 0 53.2054 12.0101 639 118.745 432.167 476.875
1770 0 57.2288 13.1752 754 118.397 430.963 476.694
1771 0 58.1119 14.3 831 116.994 430.136 472.491
1772 0 61.1911 14.2831 874 116.568 430.22 472.281
1773 0 62.1224 15.1636 942 115.158 428.203 472.82
1774 0 65.1489 12.1107 789 120.378 429.103 471.327
1775 0 64.277 13.2707 853 119.664 427.995 469.656
1776 0 64.277 13.1307 844 128.57 428.021 469.722
1777 0 73.3716 13.2067 969 117.245 426.752 465.496
1778 0 72.2893 14.7048 1063 117.147 425.999 460.004
1779 0 74.228 10.4139 773 123.542 425.111 460.313
1780 0 76.2071 12.7285 970 120.292 424.37 458.085
1781 0 76.2071 12.7285 970 129.254 423.336 457.977
1782 0 81.2616 11.1 902 122.809 425.497 458.838
1783 0 86.1781 13.7042 1181 119.724 424.858 454.707
1784 1 42.0737 8.69902 366 129.243 425.197 474.074
1785 0 45.0458 10.5226 474 125.791 424.335 473.255
1786 0 47.0887 9.93869 468 126.455 424.972 472.451
1787 0 49.0227 14.3199 702 117.375 425.813 469.617
1788 0 49.2732 11.6493 574 123.166 425.096 465.274
1789 0 49.2334 11.415 562 125.162 424.345 464.157
1790 0 52.086 12.7865 666 122.213 425.949 465.82
1791 0 53.2793 13.0445 695 122.299 426.639 465.958
1792 0 55.1886 14.1333 780 120.829 427.776 463.787
1793 0 55.0435 15.1153 832 120.286 427.465 460.81
1794 0 57.2631 13.2895 761 122.501 429.352 462.52
1795 0 61.0686 14.148 864 120.862 430.021 460.568
1796 0 59.2661 12.1823 722 127.255 429.173 458.751
1797 0 62.199 14.5501 905 122.853 429.326 457.328
1798 0 65.0552 13.0658 850 125.84 430.035 457.669
1799 0 65.1982 13.482 879 126.124 427.279 459.003
1800 0 69.1929 10.3623 717 127.227 427.957 460.936
1801 0 71.1797 13.2622 944 126.2 429.379 455.226
1802 0 74.1491 13.2031 979 125.153 429.717 459.6
1803 0 77.0866 13.621 1050 124.87 430.316 456.805
1804 0 80.1581 13.5732 1088 124.985 429.357 456.13
1805 0 84.0948 14.5312 1222 123.627 429.426 457.21
1806 0 86.1876 14.9441 1288 123.372 430.733 455.78
1807 0 89.275 15.5587 1389 122.855 430.506 452.716
1808 0 93.1523 15.2224 1418 122.528 430.111 454.207
1809 0 99.2482 17.1086 1698 116.005 430.677 459.539
1810 1 48.1657 11.1282 536 125.726 430.616 480.541
1811 0 53.0452 12.857 682 124.654 428.516 475.667
1812 0 56.1652 13.0508 733 122.697 426.917 473.993
1813 0 56.1167 12.0285 675 126.259 427.479 473.479
1814 0 60.1944 13.3235 802 121.641 427.035 475.436
1815 0 62.2894 13.8226 861 122.045 426.016 474.328
1816 0 62.1282 12.1523 755 126.232 425.662 471.731
1817 0 65.1691 12.7975 834 125.207 424.229 470.492
1818 0 67.0985 14.4265 968 121.943 423.981 467.037
1819 0 70.0722 16.7542 1174 117.838 423.09 467.712
1820 0 72.1185 16.6393 1200 118.078 423.419 465.3
1821 0 73.198 15.3556 1124 119.859 421.948 462.746
1822 0 77.1568 14.4381 1114 120.133 423.063 462.965
1823 0 77.1475 11.8215 912 124.567 421.547 460.07
1824 0 82.1851 14.4917 1191 120.872 421.267 454.97
1825 0 84.2354 12.1802 1026 123.701 421.263 456.13
1826 0 87.1325 14.5296 1266 120.504 421.909 452.79
1827 0 89.264 13.981 1248 122.305 422.962 450.417
1828 0 92.3187 14.0275 1295 121.283 422.659 453.791
1829 1 50.1366 13.563 680 117.306 420.735 469.672
1830 0 51.1289 10.4246 533 123.452 421.705 467.379
1831 0 54.2572 14.9289 810 113.743 423.243 465.807
1832 0 54.3138 18.7613 1019 109.66 422.714 461.864
1833 0 55.0452 11.318 623 121.899 422.631 463.729
1834 0 58.1325 13.6413 793 117.422 422.284 463.111
1835 0 58.0707 15.7566 915 114.683 422.514 460.202
1836 0 60.0625 13.1363 789 118.008 424.03 460.378
1837 0 63.2232 13.4603 851 117.165 423.076 456.563
1838 0 63.1147 12.9447 817 119.655 424.925 455.427
1839 0 65.0647 14.8621 967 116.28 425.493 453.304
1840 0 70.1489 13.4286 942 117.773 425.848 456.983
1841 0 68.1945 12.1271 827 121.652 425.296 454.676
1842 0 73.0478 13.5938 993 116.78 427.093 453.584
1843 0 74.2461 17.5902 1306 110.46 428.003 452.457
1844 0 76.2222 14.8251 1130 115.049 428.93 451.565
1845 0 80.2264 13.2126 1060 117.208 427.83 453.711
1846 0 78.1432 13.7568 1075 118.055 429.16 450.876
1847 0 85.1759 13.4428 1145 115.498 428.592 456.471
1848 0 85.1543 13.6928 1166 118.021 429.377 454.044
1849 0 88.111 13.9483 1229 118.6 428.534 452.832
1850 0 91.2091 13.9021 1268 119.108 429.217 451.416
1851 0 96.1688 12.3325 1186 120.637 429.058 453.98
1852 1 147.442 12.5541 1851 123.158 429.736 427.682
1853 0 147.441 12.6695 1868 147.881 429.74 427.619
1854 1 49.2804 10.3286 509 124.505 430.079 474.434
1855 0 56.0752 13.9099 780 112.814 431.878 479.606
1856 0 55.122 12.8442 708 118.784 430.983 474.297
1857 0 57.0593 12.3906 707 118.12 429.829 477.33
1858 0 57.1074 11.8899 679 121.676 429.736 474.482
1859 0 59.0494 13.2432 782 117.522 428.849 478.928
1860 0 63.1159 9.85488 622 125.46 428.603 475.489
1861 0 64.1098 12.6658 812 121.553 428.208 473.735
1862 0 70.1146 12.2371 858 123.712 426.903 469.945
1863 0 69.0777 15.3161 1058 118.689 426.544 469.896
1864 0 70.1063 13.3512 936 122.988 425.074 469.572
1865 0 72.1557 13.1105 946 122.989 424.084 470.344
1866 0 77.0921 17.758 1369 116.492 425.061 463.934
1867 0 76.1047 14.572 1109 123.644 424.482 463.824
1868 0 80.2456 13.2468 1063 126.013 424.465 463.679
1869 1 40.1041 13.0909 525 124.642 424.65 481.189
1870 0 44.0848 11.8181 521 127.292 424.113 478.438
1871 0 43.0879 10.8151 466 130.227 424.745 477.916
1872 0 46.0746 13.1309 605 121.821 424.114 478.253
1873 0 46.0732 17.2334 794 117.375 424.395 473.695
1874 0 46.0787 15.6906 723 122.602 424.788 471.162
1875 0 46.1384 12.7659 589 129.469 425.314 470.822
1876 0 50.1054 15.5871 781 121.954 424.771 469.09
1877 0 51.0861 15.5424 794 122.152 425.805 468.14
1878 0 52.0929 17.7567 925 117.493 426.137 469.454
1879 0 52.0506 13.6406 710 127.53 426.199 465.928
1880 0 54.1642 14.7145 797 125.434 427.353 465.913
1881 0 57.0947 14.7124 840 123.602 427.531 464.83
1882 0 58.1598 16.8673 981 121.374 428.951 461.811
1883 0 60.1304 15.7491 947 125.065 429.004 461.608
1884 0 59.0404 12.6015 744 131.872 429.77 460.567
1885 0 66.1093 20.6325 1364 114.174 430.017 462.482
1886 0 66.2796 14.7255 976 126.67 430.059 460.394
1887 0 66.0824 15.3899 1017 126.107 432.254 460.046
1888 0 70.0834 16.0238 1123 124.097 431.565 458.454
1889 0 71.1684 13.2081 940 131.13 433.062 457.536
1890 0 76.1483 13.7232 1045 127.215 433.161 460.542
1891 0 80.193 15.7121 1260 124.731 433.715 457.891
1892 0 82.2694 13.7597 1132 128.372 431.81 459.996
1893 0 84.258 15.6662 1320 125.917 433.201 454.494
1894 1 43.3002 12.1708 527 128.476 430.97 479.241
1895 0 40.3632 8.89423 359 136.593 430.46 477.774
1896 0 44.3325 13.0378 578 119.694 427.789 479.552
1897 0 46.2346 14.2318 658 118.64 428.801 478.772
1898 0 46.2437 13.9911 647 120.377 428.116 480.644
1899 0 49.2991 14.4019 710 118.154 428.345 481.652
1900 0 48.1308 10.5546 508 128.61 427.451 483.419
1901 0 53.0854 10.6432 565 125.496 426.15 485.225
1902 0 54.2073 12.157 659 123.774 426.026 481.944
1903 0 57.2828 12.4994 716 124.177 424.821 480.06
1904 0 54.1157 10.6623 577 127.553 423.761 479.664
1905 0 58.1074 12.0467 700 126.216 422.661 473.777
1906 0 59.2858 13.0385 773 124.475 422.517 473.356
1907 0 60.2193 14.0653 847 123.301 422.201 474.248
1908 0 63.2304 12.0353 761 124.799 421.217 474.532
1909 0 68.1589 12.7643 870 122.341 420.86 472.23
1910 0 73.2398 12.9848 951 121.881 421.65 469.52
1911 0 71.3129 15.2567 1088 117.891 420.778 471.141
1912 0 73.1537 13.7929 1009 122.802 421.053 466.262
1913 0 77.1798 10.78 832 129.019 420.412 462.916
1914 1 39.0273 11.2485 439 127.109 420.938 478.784
1915 0 42.0997 12.6129 531 122.258 421.601 477.991
1916 0 44.2257 13.6798 605 121.263 422.617 474.612
1917 0 45.1123 14.1203 637 119.37 421.374 473.945
1918 0 43.3443 13.1274 569 117.684 422.733 464.654
1919 0 43.3004 12.6558 548 118.765 422.498 464.312
1920 0 45.3097 10.9469 496 123.383 423.256 461.482
1921 0 45.2688 11.2219 508 123.362 423.254 460.159
1922 0 51.3909 12.0449 619 119.47 424.648 460.444
1923 0 52.3826 13.4968 707 116.651 424.17 459.354
1924 0 55.2771 14.5087 802 114.355 427.104 459.498
1925 0 53.309 11.5365 615 122.161 427.359 456.974
1926 0 53.3378 12.6177 673 120.214 428.171 457.364
1927 0 58.5684 15.7935 925 114.339 428.33 457.344
1928 0 60.2081 13.0215 784 123.804 427.867 461.334
1929 0 62.2721 10.8074 673 128.159 428.649 458.178
1930 0 65.0727 15.1984 989 119.623 429.723 460.871
1931 0 68.126 12.976 884 121.354 428.751 462.467
1932 0 68.0993 11.4832 782 126.168 430.633 461.335
1933 0 67.0842 12.5067 839 121.455 431.242 459.677
1934 0 77.1631 12.2468 945 116.292 430.504 463.437
1935 1 39.1863 13.1168 514 113.241 428.71 477.002
1936 0 39.094 11.5363 451 118.645 428.769 473.406
1937 0 46.1996 8.89618 411 123.506 429.74 481.978
1938 0 39.3858 9.92744 391 114.141 430.693 476.087
1939 0 44.1525 9.89751 437 111.622 430.716 473.307
1940 0 46.2266 12.5469 580 108.934 429.747 473.966
1941 0 45.0514 9.9664 449 118.895 432.185 482.02
1942 0 48.0416 16.007 769 109.994 430.521 479.52
1943 0 45.0615 9.23183 416 123.76 430.601 478.601
1944 0 51.0918 13.9161 711 115.007 429.655 478.432
1945 0 55.1362 13.6027 750 113.44 426.481 480.016
1946 0 56.078 13.7844 773 113.841 427.045 475.843
1947 0 59.2499 17.3671 1029 107.356 426.412 477.013
1948 0 61.1839 14.4483 884 112.137 425.19 471.112
1949 0 63.1268 15.5718 983 111.243 425.103 470.477
1950 0 67.143 13.9106 934 113.545 424.483 470.436
1951 0 67.2078 12.201 820 117.296 424.011 466.365
1952 0 70.2904 13.4584 946 115.789 423.73 468.31
1953 0 70.1408 15.0839 1058 114.06 423.942 464.257
1954 0 73.1897 17.0106 1245 109.934 424.326 464.141
1955 0 78.1952 13.7604 1076 114.221 422.881 462.432
1956 0 77.2906 15.5517 1202 112.46 422.172 459.36
1957 1 41.0232 11.0913 455 119.116 423.312 476.782
1958 0 41.1527 12.0284 495 118.735 424.25 474.509
1959 0 44.0443 9.89912 436 118.273 424.259 474.032
1960 0 45.1314 10.6134 479 116.482 424.092 475.664
1961 0 48.0745 13.2711 638 112.978 424.11 469.044
1962 0 48.1789 11.7271 565 116.039 425.281 472.216
1963 0 50.3165 14.5082 730 111.282 424.914 470.005
1964 0 50.2169 12.1075 608 115.832 425.53 468.812
1965 0 55.2262 14.0694 777 110.461 427.508 465.497
1966 0 54.2558 13.7866 748 111.255 427.692 465.1
1967 0 58.2208 15.5615 906 107.938 427.776 466.092
1968 0 59.2025 14.3237 848 110.588 428.721 461.968
1969 0 61.3065 15.0718 924 108.634 430.131 461.974
1970 0 60.2244 12.4866 752 113.874 430.061 463.048
1971 0 65.3454 14.5381 950 109.7 430.376 462.671
1972 0 63.354 9.8652 625 119.466 430.995 458.878
1973 0 70.3374 14.5726 1025 109.423 430.559 461.48
1974 0 76.3451 15.0632 1150 107.208 430.397 460.905
1975 0 75.4468 16.621 1254 106.117 430.463 460.366
1976 0 77.3244 15.2604 1180 108.225 431.444 454.703
1977 0 81.3212 16.2319 1320 105.745 431.103 457.714
1978 0 84.231 15.6593 1319 106.417 431.788 455.227
1979 0 86.1761 14.0062 1207 107.973 431.266 460.355
1980 1 44.0153 10.4509 460 112.78 432.967 478.222
1981 0 48.0677 14.7916 711 105.665 431.828 477.53
1982 0 48.0508 13.1319 631 108.645 431.201 477.219
1983 0 51.0363 15.7731 805 104.024 430.706 477.968
1984 0 52.0715 11.1577 581 110.518 431.119 478.158
1985 0 51.072 9.71178 496 113.921 429.871 477.889
1986 0 54.1044 12.5128 677 109.656 430.418 473.824
1987 0 57.1212 14.478 827 105.875 427.503 474.765
1988 0 57.0386 13.8503 790 107.092 428.566 473.948
1989 0 62.0581 13.6002 844 106.249 426.748 474.685
1990 0 63.1244 14.3843 908 105.378 427.456 473.42
1991 0 62.0815 14.6904 912 106.13 427.143 469.938
1992 0 66.1842 15.4418 1022 104.599 426.395 467.34
1993 0 68.0899 13.2766 904 107.966 426.262 463.288
1994 0 69.1343 16.6487 1151 103.916 426.629 463.884
1995 0 73.2656 12.8573 942 107.982 423.956 466.458
1996 0 77.0879 16.332 1259 103.465 424.906 464.682
1997 0 79.0783 17.2361 1363 102.959 423.833 459.312
1998 0 80.0685 15.4867 1240 105.855 425.389 460.267
1999 0 80.1338 14.4259 1156 108.176 424.539 458.585
2000 0 79.1351 12.9399 1024 131.83 423.584 457.036
2001 1 45.1055 13.1026 591 110.034 422.33 473.927
2002 0 46.0279 14.2088 654 108.945 424.59 471.677
2003 0 49.1159 11.3812 559 113.642 424.036 472.29
2004 0 50.1098 13.2509 664 110.026 426.494 471.358
2005 0 51.1421 13.8242 707 111.721 427.025 466.14
2006 0 51.1757 14.8117 758 108.364 425.694 466.59
2007 0 56.1931 14.9485 840 105.493 427.773 464.98
2008 0 57.4537 16.5873 953 103.475 427.539 464.037
2009 0 57.1177 18.9433 1082 102.332 427.716 459.525
2010 0 56.2089 13.0584 734 111.08 429.796 463.646
2011 0 61.1757 16.1339 987 105.786 429.124 465.152
2012 0 61.3463 13.546 831 111.65 429.371 458.514
2013 0 65.2288 18.5501 1210 102.891 429.66 460.079
2014 0 67.1194 14.7349 989 108.44 430.673 457.219
2015 0 68.2624 14.8691 1015 108.85 431.05 457.842
2016 0 73.1825 16.3837 1199 105.19 431.966 460.123
2017 0 75.2432 15.6559 1178 105.21 432.241 460.232
2018 0 76.2416 13.8376 1055 108.037 432.385 459.458
2019 0 76.1659 14.022 1068 108.88 433.344 456.593
2020 0 78.2606 12.6756 992 110.456 433.521 461.632
2021 0 84.2693 15.4979 1306 106.711 432.285 450.21
2022 0 85.1794 14.9215 1271 108.396 432.577 452.219
2023 0 88.4427 18.2943 1618 103.655 432.161 454.266
2024 0 91.2982 13.0452 1191 110.613 429.789 459.814
2025 0 95.4933 18.2631 1744 103.241 428.912 460.507
2026 0 98.2723 14.643 1439 108.712 429.665 456.233
2027 0 101.337 15.3152 1552 107.934 427.816 460.315
2028 0 102.397 16.4262 1682 108.177 429.457 453.492
2029 1 161.736 12.9965 2102 113.895 428.54 422.056
2030 1 61.5176 13.0207 801 111.522 428.03 472.949
2031 0 62.2829 13.3263 830 107.883 427.769 472.047
2032 0 66.1141 13.0683 864 106.344 427.749 471.688
2033 0 71.2544 17.8936 1275 99.9561 428.076 467.347
2034 0 69.1259 13.7286 949 107.275 427.808 465.479
2035 0 74.378 14.5473 1082 104.928 422.979 466.403
2036 0 74.4027 14.435 1074 105.819 422.635 461.649
2037 0 76.3662 13.1341 1003 107.637 422.052 465.133
2038 0 77.2859 13.7671 1064 109.125 421.413 461.044
2039 0 82.2028 16.362 1345 104.506 421.361 462.389
2040 0 82.2351 12.4156 1021 111.436 420.674 460.79
2041 1 46.089 12.3457 569 107.947 419.773 479.355
2042 0 51.1083 12.855 657 107.907 420.425 476.454
2043 0 51.1208 14.0843 720 107.992 420.583 472.076
2044 0 53.3854 10.9768 586 111.52 424.845 469.957
2045 0 54.0488 14.0059 757 109.347 425.116 463.086
2046 0 54.061 11.339 613 114.339 424.928 464.08
2047 0 57.0978 13.941 796 109.626 425.298 460.673
2048 0 60.1069 14.7071 884 106.389 425.009 467.483
2049 0 60.1951 15.2006 915 107.928 427.756 462.722
2050 0 62.0791 13.9983 869 108.88 426.594 460.39
2051 0 67.118 13.7966 926 108.681 427.421 460.578
2052 0 64.1404 11.2877 724 112.334 428.465 461.825
2053 0 69.228 14.835 1027 106.367 428.336 463.339
2054 0 69.2927 10.7371 744 113.372 428.708 461.823
2055 0 69.1482 12.0321 832 112.305 430.913 460.01
2056 0 69.1482 11.9598 827 134.583 433.898 460.065
2057 0 75.2184 13.1883 992 109.685 431.21 457.979
2058 0 78.0784 13.7426 1073 108.823 431.349 458.337
2059 0 80.0917 12.1486 973 112.339 432.135 455.475
2060 0 83.1034 10.7577 894 112.419 432.375 457.551
2061 0 88.091 15.064 1327 106.795 432.078 456.041
2062 0 90.138 13.4128 1209 110.561 431.723 448.129
2063 0 94.3839 13.0849 1235 109.907 431.321 451.125
2064 0 97.3606 9.5213 927 111.148 430.802 448.896
2065 0 106.606 10.8061 1152 109.797 431.503 444.091
2066 1 57.3049 9.51054 545 110.538 430.428 468.534
2067 0 56.236 14.4392 812 106.58 428.97 463.972
2068 0 58.1848 11.9963 698 106.963 432.473 476.738
2069 0 59.2565 11.2393 666 107.583 431.396 474.27
2070 0 65.2139 16.0702 1048 98.0887 430.893 476.29
2071 0 67.3954 11.1432 751 106.76 429.827 472.166
2072 0 67.3954 11.2025 755 128.38 428.823 472.117
2073 0 69.0695 14.0149 968 107.997 429.907 469.212
2074 0 72.1885 13.9357 1006 108.598 428.206 466.545
2075 0 73.2085 14.1377 1035 108.723 427.588 470.815
2076 0 76.1652 15.1381 1153 107.02 425.868 470.549
2077 0 76.2639 12.6534 965 116.567 425.657 465.212
2078 0 80.2258 15.1697 1217 111.071 424.967 467.135
2079 0 84.1139 12.709 1069 115.131 425.212 465.593
2080 0 86.3454 14.1641 1223 114.21 423.607 456.875
2081 1 46.0467 11.3363 522 116.048 424.812 480.59
2082 0 44.1078 11.5626 510 121.431 424.524 474.333
2083 0 49.0522 15.3918 755 111.199 423.528 473.301
2084 0 50.1082 11.5151 577 119.288 425.208 469.478
2085 0 50.101 13.8919 696 114.568 420.253 472.79
2086 0 52.0632 16.115 839 110.155 420.906 472.753
2087 0 52.0832 13.0176 678 115.729 421.28 470.071
2088 0 54.0262 15.0482 813 112.03 421.13 468.647
2089 0 54.2255 14.1262 766 113.893 421.364 465.757
2090 0 53.2008 11.6916 622 118.717 422.616 465.058
2091 0 56.3156 11.5598 651 118.487 423.711 465.373
2092 0 60.1705 15.2566 918 112.73 424.122 462.219
2093 0 60.2365 15.3727 926 112.66 424.199 462.45
2094 0 60.1021 13.1776 792 117.726 424.371 462.405
2095 0 64.2143 11.6641 749 119.203 425.73 459.955
2096 0 67.0745 11.8972 798 116.459 426.979 462.97
2097 0 67.2373 12.27 825 118.77 426.413 458.196
2098 0 69.1464 12.6543 875 117.24 427.537 459.049
2099 0 75.1325 14.2681 1072 114.189 427.791 458.991
2100 0 74.1602 12.4056 920 117.684 428.655 456.555
2101 0 79.2387 14.1345 1120 114.488 429.431 452.274
2102 0 77.1479 11.6529 899 118.226 429.355 456.776
2103 0 82.2692 12.605 1037 116.792 430.103 454.757
2104 0 88.3044 13.8158 1220 113.074 430.282 451.855
2105 0 90.3883 14.4266 1304 109.706 430.391 458.771
2106 1 48.2603 11.5001 555 113.834 430.813 471.014
2107 0 53.142 15.5621 827 111.694 429.347 473.052
2108 0 53.1777 14.4233 767 113.668 429.11 475.743
2109 0 53.3318 11.6816 623 119.324 429.124 472.994
2110 0 58.1705 15.0592 876 112.767 428.217 470.888
2111 0 61.3586 13.3641 820 115.489 428.472 473.379
2112 0 60.3852 14.1094 852 116.452 427.481 471.816
2113 0 65.3861 11.8527 775 118.877 428.379 472.911
2114 0 63.3821 12.2274 775 119.76 427.506 471.31
2115 0 68.3375 14.9259 1020 115.351 426.898 466.681
2116 0 71.4478 15.2699 1091 113.61 425.064 469.297
2117 0 71.3752 12.7775 912 119.433 424.276 467.002
2118 0 75.3939 13.5422 1021 118.807 424.893 460.994
2119 0 77.4606 14.5622 1128 115.395 424.599 466.527
2120 0 84.585 17.4262 1474 110.809 424.826 460.166
2121 0 84.2155 15.6028 1314 114.871 423.088 460.045
2122 0 87.5647 14.9718 1311 116.14 422.54 459.217
2123 0 88.368 15.8202 1398 115.881 422.703 454.803
2124 0 91.4705 16.3659 1497 114.787 422.824 450.598
2125 0 94.4577 15.0014 1417 115.854 423.387 452.766
2126 1 183.486 13.7394 2521 121.039 423.765 409.526
2127 0 189.771 14.9338 2834 119.434 422.477 405.87
2128 0 193.005 11.3883 2198 124.789 423.848 403.844
2129 1 55.3454 11.365 629 122.874 420.878 463.469
2130 0 55.5285 13.5426 752 120.214 422.366 456.977
2131 0 56.5168 10.7756 609 125.663 423.279 457.245
2132 0 61.2986 15.6937 962 115.508 421.707 461.471
2133 0 61.1073 13.4845 824 119.052 423.006 462.044
2134 0 64.265 13.989 899 117.683 423.587 460.573
2135 0 67.205 14.2995 961 117.606 423.881 458.362
2136 0 70.2445 18.9339 1330 109.882 424.18 454.862
2137 0 69.1711 13.604 941 119.441 424.844 455.916
2138 0 74.3011 17.308 1286 111.641 425.296 454.114
2139 0 75.1551 14.3969 1082 117.786 426.186 452.189
2140 0 78.1602 17.2978 1352 113.325 427.595 451.241
2141 0 78.1602 17.3362 1355 138.906 428.607 451.322
2142 0 83.4248 15.8586 1323 116.958 427.339 446.119
2143 0 87.2066 14.9415 1303 117.677 427.345 450.856
2144 0 88.2587 14.0043 1236 120.294 427.706 446.727
2145 0 91.1846 18.3584 1674 112.073 429.289 450.743
2146 0 96.3325 15.3738 1481 117.817 428.63 447.132
2147 1 51.0854 12.1757 622 117.553 430.111 470.69
2148 0 52.0705 11.6765 608 116.972 429.054 473.906
2149 0 53.4175 9.7908 523 120.964 432.145 473.805
2150 0 58.6981 13.3054 781 113.406 431.674 472.766
2151 0 58.4783 13.4067 784 118.907 429.759 468.256
2152 0 60.3858 13.2813 802 119.239 430.919 471.744
2153 0 60.4248 14.0836 851 118.925 430.934 472.289
2154 0 64.3064 15.8616 1020 114.566 430.715 473.397
2155 0 63.295 12.813 811 123.766 429.327 468.223
2156 0 69.3384 16.1094 1117 115.934 428.509 465.935
2157 0 70.3636 13.2171 930 121.783 427.814 465.928
2158 0 71.3691 14.2499 1017 118.994 425.416 467.185
2159 0 75.4119 12.9953 980 121.177 425.815 466.135
2160 0 78.367 16.0272 1256 116.308 423.904 465.24
2161 0 84.2944 14.4849 1221 119.16 424.904 459.741
2162 0 89.4741 14.3729 1286 117.746 424.03 460.415
2163 1 53.1175 8.60357 457 120.392 424.961 477.943
2164 0 49.1457 10.1535 499 115.683 425.295 475.713
2165 0 51.2241 13.5288 693 109.494 424.235 475.32
2166 0 49.0771 11.92 585 111.161 424.761 476.05
2167 0 51.1739 8.26594 423 114.589 425.957 478.34
2168 0 55.1146 10.5235 580 113.714 424.759 470.112
2169 0 55.1146 10.5054 579 139.397 423.729 470.112
2170 0 57.401 12.8918 740 110.766 424.319 466.904
2171 0 58.2065 13.8988 809 110.184 423.493 466.668
2172 0 60.2432 14.0597 847 108.885 423.77 465.105
2173 0 63.1398 12.8762 813 110.513 424.71 462.617
2174 0 61.4218 11.3315 696 114.756 424.375 459.211
2175 0 71.6942 16.2496 1165 102.118 425.686 465.547
2176 0 67.2427 12.1946 820 112.498 424.94 458.921
2177 0 70.3006 11.8918 836 112.579 425.644 457.9
2178 0 72.4772 14.4459 1047 109.768 425.906 455.816
2179 0 76.2629 13.5059 1030 110.438 427.11 455.053
2180 0 73.3841 13.8041 1013 112.161 428.045 450.933
2181 0 76.2199 13.1331 1001 113.138 428.644 452.119
2182 0 78.136 10.5969 828 117.591 429.316 452.535
2183 0 81.4171 14.9477 1217 112.11 429.952 447.92
2184 0 82.4073 13.3119 1097 113.756 429.67 451.967
2185 0 83.3335 11.244 937 119.047 429.65 448.331
2186 0 86.3636 15.6663 1353 112.654 430.231 444.412
2187 0 87.3081 13.4925 1178 115.866 430.391 447.591
2188 0 94.2848 12.6107 1189 117.696 429.326 448.67
2189 0 94.2936 15.8017 1490 114.811 430.199 446.276
2190 0 98.2754 18.2752 1796 111.601 429.541 442.832
2191 0 102.295 15.1817 1553 116.591 429.757 439.592
2192 1 53.1563 9.44386 502 119.635 428.572 473.11
2193 0 55.1435 6.99991 386 123.741 427.855 471.837
2194 0 58.0687 11.2797 655 117.918 429.661 469.629
2195 0 59.2504 13.9577 827 110.06 429.44 462.755
2196 0 58.1982 12.1653 708 111.506 430.42 464.037
2197 0 64.1435 12.4097 796 114.947 431.574 470.53
2198 0 68.1387 16.0995 1097 109.305 430.723 467.849
2199 0 68.1477 13.6322 929 113.793 430.171 469.782
2200 0 70.1345 11.7203 822 117.831 428.828 470.657
2201 0 72.1168 14.2824 1030 113.285 429.06 467.205
2202 0 75.0965 14.9408 1122 112.883 426.635 466.75
2203 0 78.0698 13.9619 1090 113.209 426.257 466.745
2204 0 79.1996 12.8157 1015 117.268 427.119 461.381
2205 0 81.2279 13.4929 1096 115.007 426.872 462.92
2206 0 83.1088 15.3413 1275 112.99 425.347 461.987
2207 1 133.653 10.632 1421 123.832 424.161 436.844
2208 1 89.1615 16.644 1484 112.695 424.263 454.703
2209 0 88.1645 9.76584 861 124.592 423.984 455.79
2210 0 92.2481 9.63706 889 124.906 423.846 451.569
2211 0 97.2098 10.7602 1046 122.648 423.489 451.727
2212 0 101.577 13.9992 1422 116.487 424.672 450.396
2213 0 101.359 13.2697 1345 118.133 423.372 450.297
2214 0 107.228 12.2356 1312 118.817 423.733 444.535
2215 1 60.1328 12.6886 763 117.235 423.346 464.47
2216 0 60.1328 12.6054 758 132.852 423.322 464.665
2217 0 63.1488 13.9037 878 112.134 424.247 460.429
2218 0 62.1305 11.6368 723 117.632 425.934 456.324
2219 0 69.19 14.3807 995 110.494 425.66 460.889
2220 0 70.2014 15.7832 1108 110.422 427.294 455.221
2221 0 73.153 14.3535 1050 112.373 428.511 452.385
2222 0 74.3061 12.9734 964 113.008 427.05 454.27
2223 0 78.1976 12.6474 989 112.211 427.972 455.247
2224 0 78.1772 12.881 1007 114.068 428.516 450.909
2225 0 81.1919 11.7869 957 116.163 429.869 445.398
2226 0 83.258 14.9175 1242 111.95 429.547 446.904
2227 0 86.4048 15.5547 1344 110.443 430.121 449.469
2228 0 91.3548 13.8471 1265 113.289 429.187 447.994
2229 0 92.308 14.8633 1372 110.611 430.671 452.227
2230 0 95.252 13.1651 1254 114.996 431.033 446.323
2231 1 50.3502 11.9165 600 113.312 428.407 466.463
2232 0 51.0912 13.7206 701 109.78 428.177 466.35
2233 0 53.2395 12.7161 677 111.021 428.004 465.065
2234 0 56.2573 12.4073 698 110.6 429.029 467.761
2235 0 56.2287 14.5477 818 108.771 429.006 467.978
2236 0 59.2827 13.4272 796 109.415 428.706 469.697
2237 0 61.1447 13.2473 810 110.012 428.393 467.809
2238 0 65.1291 12.2987 801 110.566 425.599 469.372
2239 0 64.194 14.9391 959 107.99 427.535 467.751
2240 0 64.194 15.0481 966 118.018 428.557 467.799
2241 0 72.3196 11.546 835 113.212 426.267 463.648
2242 0 75.1772 18.0507 1357 102.912 424.591 469.096
2243 0 75.2864 12.6052 949 112.027 425.027 462.916
2244 0 76.1315 12.0844 920 113.503 423.037 465.69
2245 0 79.1422 15.1626 1200 109.488 423.16 460.829
2246 0 83.1832 14.5462 1210 109.479 422.536 459.82
2247 0 84.1743 16.5134 1390 107.019 422.045 457.037
2248 0 84.1743 16.4064 1381 116.922 421.064 457.009
2249 0 88.2459 10.4594 923 116.91 420.969 458.95
2250 0 93.2649 12.8559 1199 113.947 422.309 452.319
2251 0 93.2625 9.53223 889 118.467 421.785 452.844
2252 0 100.297 8.73405 876 121.108 421.652 441.034
2253 0 100.261 10.9015 1093 117.946 421.071 444.794
2254 0 103.218 10.318 1065 118.839 419.647 445.128
2255 1 56.0366 12.938 725 114.349 418.326 464.332
2256 0 59.0876 14.2839 844 110.943 419.45 467.006
2257 0 60.0905 12.7974 769 114.809 419.97 463.173
2258 0 61.0681 11.7901 720 116.431 420.938 460.547
2259 0 63.0993 11.8543 748 116.941 420.955 458.983
2260 0 68.1207 11.0099 750 116.939 421.429 460.157
2261 0 65.0696 13.4472 875 114.813 422.637 457.4
2262 0 68.051 13.0197 886 115.897 421.491 455.852
2263 0 70.0382 13.4926 945 114.111 423.075 456.405
2264 0 70.0794 10.3169 723 119.024 423.703 455.495
2265 0 73.1556 11.0313 807 117.383 423.685 454.919
2266 0 76.2011 10.8791 829 118.692 424.75 450.844
2267 0 81.2423 12.075 981 116.539 423.717 448.364
2268 0 82.1576 15.3364 1260 110.494 423.84 451.682
2269 1 44.0857 10.9786 484 113.543 425.295 470.26
2270 0 45.0722 14.4213 650 108.825 425.025 465.829
2271 0 48.086 10.4188 501 113.525 425.549 471.964
2272 0 48.0732 14.0619 676 105.639 428.22 466.41
2273 0 48.0732 14.1035 678 141.648 430.276 466.32
2274 0 51.1006 16.6339 850 106.722 429.106 467.311
2275 0 52.1563 13.5171 705 108.462 428.665 471.596
2276 0 53.1009 13.126 697 110.185 427.859 470.832
2277 0 55.1959 14.2039 784 109.821 427.506 469.739
2278 0 58.1309 16.222 943 106.514 428.692 470.001
2279 0 59.2357 13.7755 816 111.297 428.485 468.6
2280 0 57.1924 12.5191 716 115.802 428.86 470.673
2281 0 62.1806 14.8117 921 111.752 426.975 468.54
2282 0 64.3272 15.2502 981 110.991 427.311 469.702
2283 0 70.2136 17.9025 1257 106.067 427.296 466.737
2284 0 72.2992 15.2975 1106 110.373 426.81 469.028
2285 0 73.2432 15.4281 1130 111.043 426.201 468.608
2286 0 77.156 14.7623 1139 112.486 425.412 467.404
2287 0 81.1191 17.9366 1455 107.241 424.687 464.911
2288 0 80.1903 13.044 1046 118.002 424.333 461.905
2289 0 87.2245 21.1867 1848 102.597 423.657 467.256
2290 1 48.314 13.7434 664 115.011 422.77 479.631
2291 0 47.0718 12.2154 575 120.511 420.198 477.529
2292 0 48.1807 14.0305 676 114.175 421.945 477.494
2293 0 51.0823 14.9954 766 111.623 420.949 477.424
2294 0 50.1154 12.9102 647 117.376 420.635 472.39
2295 0 53.0708 13.8871 737 116.813 419.128 472.985
2296 0 53.0519 12.7422 676 118.572 420.842 473.663
2297 0 57.1146 13.4992 771 118.223 420.672 472.866
2298 0 58.1366 16.53 961 114.326 420.606 468.48
2299 0 61.0719 16.2104 990 113.16 420.555 470.028
2300 0 61.0454 12.892 787 121.936 420.9 461.764
2301 0 63.148 13.603 859 119.868 421.364 462.335
2302 0 64.047 14.2708 914 119.328 421.038 461.591
2303 0 64.047 14.2864 915 146.872 421.028 461.589
2304 0 67.1219 14.7195 988 118.834 422.699 456.754
2305 0 70.1955 16.1834 1136 115.414 422.562 457.394
2306 0 71.1237 16.5627 1178 115.324 423.472 455.091
2307 0 74.0464 13.9777 1035 119.228 422.866 455.417
2308 0 77.1353 17.8518 1377 112.96 425.655 450.895
2309 0 79.0826 14.2762 1129 119.811 425.461 451.108
2310 0 83.2246 15.8367 1318 116.073 426.842 451.503
2311 0 81.1148 12.5131 1015 122.603 426.601 450.227
2312 0 86.1549 15.4373 1330 117.286 426.938 449.883
2313 1 46.0601 11.1593 514 125.173 427.696 466.311
2314 0 51.0195 15.5431 793 116.232 428.11 468.087
2315 0 52.3401 12.9155 676 118.204 428.846 463.596
2316 0 50.6649 12.3557 626 117.427 430.342 458.021
2317 0 52.6106 11.6326 612 118.034 428.157 467.376
2318 0 54.2968 13.4631 731 113.9 428.964 470.092
2319 0 57.431 12.798 735 116.318 428.482 465.654
2320 0 60.3986 15.4474 933 111.841 428.038 467.304
2321 0 61.3614 11.4241 701 119.953 427.956 467.094
2322 0 64.2224 12.6903 815 117.433 427.693 469.721
2323 0 64.5626 12.9642 837 118.461 427.079 465.989
2324 0 68.1748 13.0107 887 119.427 427.477 464.809
2325 0 71.3119 14.6259 1043 114.637 426.941 466.96
2326 0 75.3749 12.1526 916 120.223 427.075 463.495
2327 0 77.5047 12.9928 1007 118.633 426.498 464.343
2328 0 82.5937 13.7299 1134 118.723 426.391 459.587
2329 0 84.4192 12.7696 1078 121.269 424.937 460.185
2330 0 89.4648 14.3632 1285 118.97 424.527 457.461
2331 0 91.2867 14.5476 1328 118.514 423.765 456.429
2332 0 95.5065 18.7422 1790 112.379 423.649 450.271
2333 0 97.44 15.8457 1544 117.378 423.795 450.102
2334 1 52.2655 13.9098 727 118.209 424.62 473.536
2335 0 52.0574 11.2184 584 121.301 425.485 471.685
2336 0 55.1947 13.4252 741 117.48 424.3 469.456
2337 0 58.1261 12.9374 752 120.577 424.375 471.113
2338 0 59.4479 15.5262 923 116.57 424.393 463.859
2339 0 58.3254 11.5901 676 122.899 423.871 465.509
2340 0 62.2673 13.7632 857 120.611 423.952 462.614
2341 0 61.2098 12.351 756 123.017 424.202 462.31
2342 0 61.2098 12.3673 757 146.192 425.194 462.376
2343 0 67.1466 13.1801 885 118.226 425.012 458.846
2344 0 70.0957 16.2207 1137 112.669 425.516 457.115
2345 0 73.1834 14.3338 1049 115.294 426.071 454.665
2346 0 76.2416 13.7327 1047 116.839 426.337 451.68
2347 0 76.121 16.3424 1244 112.86 426.152 451.279
2348 1 157.415 15.367 2419 118.545 426.993 411.325
2349 0 157.548 14.4083 2270 119.004 426.927 415.53
2350 0 164.589 12.0664 1986 123.261 428.077 410.296
2351 0 172.573 11.9833 2068 122.621 428.362 402.173
2352 0 181.612 11.475 2084 122.219 428.414 405.629
2353 1 47.026 13.0354 613 113.303 430.889 462.953
2354 0 49.1476 10.1734 500 116.046 431.83 465.32
2355 0 54.1037 13.6035 736 110.145 431.384 462.955
2356 0 53.1203 15.0602 800 109.329 431.912 461.96
2357 0 55.0555 14.1312 778 110.617 431.366 463.503
2358 0 58.0947 12.5485 729 116.956 432.807 463.807
2359 0 58.1718 11.5004 669 119.084 433.901 463.735
2360 0 62.1631 13.0302 810 114.863 433.465 464.712
2361 0 64.0702 14.4529 926 113.381 432.181 463.999
2362 0 66.1069 13.5841 898 114.977 432.723 464.101
2363 0 69.2124 12.5122 866 116.572 431.979 463.591
2364 0 69.0903 12.3317 852 117.457 432.859 465.786
2365 0 77.078 14.2064 1095 114.24 431.688 463.723
2366 0 75.2593 12.2244 920 118.764 431.149 462.822
2367 0 75.1417 11.0458 830 122.055 430.877 460.274
2368 0 84.2885 13.8572 1168 115.004 429.841 463.356
2369 0 85.2837 12.6519 1079 118.407 427.357 459.915
2370 0 87.3026 12.2333 1068 119.793 426.741 457.078
2371 0 90.3526 11.5437 1043 118.642 423.816 460.956
2372 0 94.3102 12.2786 1158 117.661 422.03 454.227
2373 1 53.0319 15.4247 818 107.275 422.049 478.544
2374 0 54.0921 11.0367 597 114.405 420.479 473.352
2375 0 60.0651 11.9371 717 111.473 419.153 474.026
2376 0 61.1533 11.4957 703 112.055 419.028 472.66
2377 0 58.14 13.8631 806 109.507 418.743 470.797
2378 0 62.161 12.2585 762 110.55 418.458 469.636
2379 0 64.1169 12.2433 785 110.126 418.183 469.558
2380 0 67.2412 13.5631 912 107.01 419.427 466.39
2381 0 70.2027 21.3952 1502 96.5506 420.585 467.983
2382 0 70.2955 12.7462 896 109.342 419.376 462.75
2383 0 73.126 17.5587 1284 101.357 418.434 463.488
2384 0 76.1231 24.132 1837 94.8024 418.977 456.114
2385 0 76.2526 13.2061 1007 108.445 419.438 459.951
2386 0 79.3316 13.765 1092 107.369 420.154 454.263
2387 0 81.2151 14.3569 1166 107.145 421.403 450.667
2388 0 81.2151 14.32 1163 124.328 422.392 450.754
2389 0 87.2595 12.6519 1104 109.002 421.369 454.297
2390 0 87.2957 13.2653 1158 109.872 422.418 447.484
2391 0 90.1561 12.3896 1117 111.68 422.877 447.455
2392 0 95.293 15.1952 1448 106.106 422.997 448.644
2393 0 97.2567 15.9166 1548 106.096 425.019 445.049
2394 0 102.365 16.6952 1709 105.328 424.875 441.855
2395 1 51.073 6.46135 330 121.058 425.336 465.615
2396 0 55.1641 11.3298 625 115.424 425.41 465.539
2397 0 60.6635 13.8799 842 107.47 428.823 460.709
2398 0 59.2922 13.1889 782 107.004 429.586 461.63
2399 0 60.2089 11.2276 676 106.504 429.359 462.004
2400 0 66.2008 11.7974 781 105.466 430.314 465.666
2401 0 65.2804 11.7646 768 106.057 430.004 461.904
2402 0 70.1776 12.0551 846 104.894 428.773 465.35
2403 0 73.1492 11.8251 865 105.627 428.024 464.18
2404 0 77.2841 13.6639 1056 103.045 429.056 464.608
2405 0 77.3174 14.6409 1132 103.125 427.909 459.513
2406 0 81.4811 13.3773 1090 104.507 427.488 462.003
2407 0 85.3685 13.9396 1190 104.405 427.324 465.205
2408 0 89.1995 15.1682 1353 104.064 427.639 462.047
2409 0 93.3292 13.3613 1247 106.175 428.639 464.28
2410 0 96.3512 13.8971 1339 105.767 426.193 459.394
2411 0 98.3403 14.7142 1447 106.136 425.337 456.671
2412 0 105.501 16.9857 1792 102.861 423.988 451.006
2413 1 54.1986 10.6276 576 110.384 425.175 479.521
2414 0 56.0536 13.7904 773 106.799 424.435 477.446
2415 0 58.0974 15.474 899 107.278 424.333 476.546
2416 0 64.3408 13.6461 878 105.259 423.506 475.401
2417 0 62.1532 13.4024 833 106.981 423.442 473.93
2418 0 64.3095 18.7997 1209 100.507 422.192 471.605
2419 0 64.1894 13.1174 842 109.114 421.732 470.14
2420 0 70.2042 15.4549 1085 104.163 421.985 471.467
2421 0 71.8648 21.29 1530 97.968 421.75 466.771
2422 0 72.2566 15.1128 1092 106.984 423.021 463.154
2423 0 73.3134 12.317 903 113.091 422.53 460.605
2424 0 76.2007 14.9867 1142 108.979 422.504 459.996
2425 0 77.3834 13.4396 1040 112.15 422.675 459.33
2426 0 81.2726 12.981 1055 112.991 422.503 456.66
2427 1 169.293 13.9699 2365 112.181 421.933 416.175
2428 1 91.6234 18.205 1668 104.034 422.597 449.701
2429 0 89.4244 16.841 1506 107.019 423.461 451.197
2430 0 94.4788 18.0781 1708 105.702 424.7 447.425
2431 0 95.4353 17.0692 1629 106.819 425.569 449.443
2432 0 95.4353 16.9853 1621 129.917 426.572 449.461
2433 0 105.434 16.1238 1700 108.454 426.739 444.941
2434 0 105.35 14.6369 1542 113.481 426.872 436.867
2435 0 107.53 21.008 2259 103.915 426.32 431.88
2436 0 111.73 16.5667 1851 113.017 427.034 438.515
2437 0 113.695 14.9611 1701 116.045 427.32 442.848
2438 0 124.504 13.6782 1703 118.356 426.965 437.413
2439 1 56.1584 16.0795 903 108.343 426.001 471.502
2440 0 57.1422 13.4401 768 113.932 427.12 469.408
2441 0 58.2376 12.6207 735 116.68 426.512 466.702
2442 0 61.0997 12.9788 793 115.581 427.045 470.828
2443 0 65.2844 17.217 1124 108.989 425.922 471.194
2444 0 70.1562 14.5105 1018 114.7 427.631 468.157
2445 0 68.1158 9.68938 660 123.461 426.188 471.773
2446 0 69.1819 10.841 750 122.164 427.028 470.667
2447 0 72.1992 13.4212 969 119.903 426.788 468.423
2448 0 80.2742 16.344 1312 114.38 427.03 467.956
2449 0 82.444 16.5082 1361 113.716 425.641 469.01
2450 1 45.1556 15.6348 706 116.02 425.599 483.565
2451 0 47.0842 12.5307 590 120.681 423.77 484.444
2452 0 46.0874 12.7584 588 159.971 422.787 484.425
2453 0 52.2434 17.2653 902 109.931 422.372 482.727
2454 0 53.0596 14.9078 791 115.048 424.288 479.479
2455 0 53.1145 14.1581 752 118.217 423.303 481.923
2456 0 54.1703 13.5683 735 119.388 421.592 481.416
2457 0 55.2897 13.6373 754 120.373 421.288 478.756
2458 0 59.3026 15.4631 917 118.207 421.9 474.593
2459 0 62.2518 16.5457 1030 115.152 422.43 469.28
2460 0 63.196 18.4822 1168 111.837 422.424 475.484
2461 0 65.4242 18.617 1218 112.063 422.278 473.375
2462 0 66.3084 13.6634 906 124.248 422.661 467.36
2463 0 65.2298 14.8398 968 122.067 423.394 468.927
2464 0 68.2685 15.3658 1049 121.374 421.786 466.397
2465 0 68.1834 13.801 941 126.131 420.944 466.536
2466 0 71.235 11.7779 839 128.364 421.139 465.259
2467 0 72.1858 12.0245 868 129.212 421.247 464.219
2468 0 75.0742 14.8387 1114 123.687 422.516 461.566
2469 0 76.148 14.9709 1140 124.875 423.481 456.933
2470 0 79.1432 14.24 1127 126.422 423.875 456.02
2471 0 82.2049 15.0478 1237 125.893 424.904 452.005
2472 0 82.1539 13.5964 1117 128.445 425.343 452.968
2473 0 86.3369 13.7832 1190 128.763 425.458 450.717
2474 0 91.5749 14.5018 1328 126.098 426.407 450.614
2475 0 92.2392 13.053 1204 129.824 427.433 446.28
2476 0 94.1547 15.0391 1416 126.64 428.044 445.787
2477 0 97.1304 14.4136 1400 128.426 429.301 442.997
2478 0 103.278 17.574 1815 121.662 429.014 442.26
2479 0 107.227 14.0823 1510 128.264 429.838 440.167
2480 0 110.279 15.8779 1751 123.359 428.341 442.453
2481 0 115.269 20.1876 2327 115.257 429.574 439.929
2482 1 67.1533 13.2533 890 122.391 429.707 465.64
2483 0 67.2491 13.5764 913 117.184 429.932 457.329
2484 0 71.2527 14.217 1013 114.515 427.163 460.529
2485 0 71.2527 14.203 1012 146.933 425.156 460.57
2486 0 78.323 13.6997 1073 114.473 428.218 463.96
2487 0 81.1598 18.7778 1524 107.774 428.203 465.661
2488 0 83.3179 14.2466 1187 115.866 427.416 462.619
2489 0 87.1246 13.4635 1173 118.142 428.764 460.118
2490 0 91.1254 15.4073 1404 113.531 427.667 462.816
2491 0 94.2057 15.2114 1433 114.468 426.634 461.486
2492 0 97.1451 16.2643 1580 114.32 427.32 454.489
2493 0 101.167 16.2208 1641 115.291 426.496 455.595
2494 0 104.386 16.5252 1725 113.953 425.242 455.409
2495 0 104.386 16.506 1723 137.049 424.243 455.457
2496 0 110.153 14.5706 1605 118.533 423.39 449.107
2497 0 113.375 15.9471 1808 116.129 423.642 448.632
2498 0 117.323 15.436 1811 116.901 422.923 446.565
2499 0 122.319 15.4923 1895 116.956 422.824 445.835
2500 1 179.477 15.2165 2731 122.191 423.119 413.102
2501 1 129.177 13.0131 1681 122.264 422.293 436.792
2502 0 135.25 14.2403 1926 120.548 422.224 432.037
2503 1 74.4239 13.9202 1036 111.704 420.487 461.075
2504 0 75.134 13.6955 1029 115.011 419.934 460.868
2505 0 77.1842 14.2257 1098 113.685 419.752 463.388
2506 0 82.2932 13.5491 1115 114.242 419.304 459.272
2507 0 85.223 15.0663 1284 112.787 420.118 456.573
2508 0 85.3845 13.1757 1125 116.308 420.372 451.418
2509 0 90.1104 18.9989 1712 106.525 420.843 455.406
2510 0 89.7401 14.542 1305 113.702 420.881 453.606
2511 0 94.3955 14.3015 1350 113.902 419.903 453.169
2512 0 97.2711 19.0396 1852 108.57 421.083 445.187
2513 0 101.308 13.1973 1337 117.373 422.494 444.555
2514 0 102.558 16.6832 1711 112.037 424.092 441.071
2515 0 107.39 13.9491 1498 116.621 423.417 438.355
2516 0 110.287 15.4959 1709 114.736 424.539 437.026
2517 0 113.401 13.1921 1496 116.949 425.542 439.529
2518 0 118.438 12.42 1471 118.107 424.94 436.633
2519 0 123.789 13.6038 1684 115.542 425.153 436.836
2520 0 128.438 13.9134 1787 115.449 425.957 433.406
2521 0 133.659 14.133 1889 116.539 426.898 424.441
2522 0 140.621 17.2023 2419 111.727 426.54 422.132
2523 1 74.383 16.0117 1191 110.437 427.478 460.448
2524 0 77.4503 13.7378 1064 114.164 427.545 457.573
2525 0 81.3676 11.4542 932 117.443 427.107 459.309
2526 0 83.3562 13.1964 1100 113.338 427.435 462.212
2527 0 87.3256 13.2836 1160 115.047 426.753 459.436
2528 0 90.4081 14.3239 1295 114.524 426.256 452.167
2529 0 94.2031 14.3838 1355 114.604 426.232 454.629
2530 0 96.2067 13.3982 1289 115.974 426.343 456.956
2531 0 103.451 15.4276 1596 111.838 425.994 454.383
2532 0 107.35 12.9855 1394 116.171 426.006 450.164
2533 0 112.485 13.9485 1569 114.247 424.702 448.705
2534 1 62.1683 9.03998 562 111.936 423.493 476.464
2535 0 64.5467 12.2082 788 102.992 424.109 467.074
2536 0 64.5947 9.13388 590 106.534 423.339 467.776
2537 0 69.1848 11.6789 808 104.498 421.428 470.672
2538 0 70.3923 10.8819 766 105.867 420.355 469.134
2539 0 76.2852 15.9533 1217 98.9195 420.357 468.484
2540 0 79.2268 13.6949 1085 102.21 419.933 464.77
2541 0 81.2258 11.4619 931 104.683 419.497 466.52
2542 0 82.2763 11.6315 957 106.082 420.004 462.986
2543 0 84.2315 11.2666 949 106.796 419.562 461.863
2544 0 90.2823 13.4024 1210 102.798 419.32 461.198
2545 0 90.3116 13.3316 1204 105.448 420.579 451.999
2546 0 96.3885 13.954 1345 104.861 420.41 452.266
2547 0 95.4471 12.9077 1232 107.521 419.711 450.426
2548 0 97.3568 11.4424 1114 107.285 419.39 455.692
2549 0 101.33 10.1747 1031 110.909 420.274 453.58
2550 0 105.498 11.5927 1223 110.24 420.317 447.604
2551 0 108.355 12.5237 1357 109.613 421.319 441.217
2552 1 58.1594 12.4829 726 104.43 419.993 469.851
2553 0 59.0887 12.6928 750 104.579 421.373 465.325
2554 0 66.3087 19.7108 1307 95.0635 420.044 462.489
2555 0 66.1218 17.5888 1163 98.8719 421.242 461.867
2556 0 66.6325 15.2628 1017 103.149 421.74 458.586
2557 0 66.3752 13.3785 888 108.215 422.85 456.64
2558 0 66.1316 11.22 742 111.352 422.977 459.783
2559 0 69.1107 14.0355 970 107.394 424.793 456.918
2560 0 74.1586 13.0936 971 106.534 424.024 459.772
2561 0 74.1586 13.0666 969 133.385 422.013 459.975
2562 0 82.1076 18.8533 1548 99.0213 425.112 456.599
2563 0 82.2871 13.3071 1095 107.595 425.226 455.78
2564 0 83.1221 11.1523 927 111.693 425.794 453.715
2565 0 89.2252 14.738 1315 105.902 424.796 452.863
2566 1 45.0443 14.741 664 103.694 424.907 475.926
2567 0 45.1249 10.7923 487 110.581 424.918 477.655
2568 0 47.4592 14.3703 682 98.4839 428.111 474.021
2569 0 49.3517 9.36138 462 102.301 428.667 469.952
2570 0 50.3158 11.5868 583 100.827 427.412 472.84
2571 0 53.2447 9.16524 488 101.797 428.58 477.148
2572 0 51.1739 9.71199 497 103.183 427.938 476.573
2573 0 56.2246 10.4581 588 101.204 426.476 477.855
2574 0 54.2804 11.0353 599 102.416 425.922 473.95
2575 0 60.1441 13.584 817 97.3256 425.346 484.521
2576 0 61.0509 13.1202 801 105.466 424.271 480.579
2577 0 65.1358 12.5737 819 103.934 423.987 482.409
2578 0 66.2826 13.5028 895 105.15 424.02 477.649
2579 0 65.1367 13.2184 861 104.885 422.513 477.807
2580 0 69.241 10.1963 706 110.303 422.612 472.35
2581 0 73.1903 13.1848 965 101.661 422.976 476.533
2582 0 74.0768 15.5919 1155 101.862 422.107 469.068
2583 0 76.1926 15.3689 1171 100.989 421.023 471.286
2584 0 80.292 15.7301 1263 101.171 420.798 466.093
2585 0 84.3052 15.1711 1279 100.601 422.605 465.904
2586 0 88.0973 14.904 1313 99.6961 421.213 463.193
2587 0 88.1832 13.1431 1159 104.995 421.983 455.059
2588 0 89.4307 12.3336 1103 105.568 420.636 456.344
2589 0 96.2695 18.2405 1756 97.3183 421.239 449.579
2590 1 52.2062 11.4929 600 105.612 421.91 473.237
2591 0 54.2226 14.0347 761 102.461 421.863 470.815
2592 0 56.0803 12.5891 706 104.037 423.033 470.963
2593 0 53.2249 11.3105 602 105.683 421.839 469.399
2594 0 56.0324 14.2953 801 100.248 423.305 465.019
2595 0 56.0324 14.4024 807 124.986 424.284 465.055
2596 0 61.2232 12.8219 785 102.599 422.813 465.496
2597 0 62.1445 14.6111 908 100.472 424.22 466.163
2598 0 64.19 13.0861 840 103.64 425.693 466.86
2599 0 66.4671 13.8866 923 100.938 425.79 459.942
2600 0 69.285 13.0331 903 102.732 426.609 463.753
2601 0 71.2337 17.8286 1270 96.6315 426.752 459.83
2602 0 75.3953 20.6644 1558 92.3492 425.478 460.657
2603 0 76.3137 16.668 1272 97.0244 426.597 461.167
2604 0 77.5616 16.0647 1246 97.8933 426.526 462.827
2605 0 81.2724 15.3066 1244 98.5201 426.758 460.684
2606 0 84.4006 19.3127 1630 91.6301 426.406 460.877
2607 0 87.2037 13.3137 1161 97.6891 426.146 458.788
2608 0 85.2397 12.1422 1035 127.981 426.255 461.209
2609 1 51.0569 14.8854 760 96.7132 427.872 478.866
2610 0 52.4782 15.2444 800 97.8438 425.419 474.435
2611 0 53.2325 12.6051 671 98.8599 424.937 477.113
2612 0 54.2539 11.1881 607 101.013 425.072 477.358
2613 0 56.4875 12.5514 709 99.1537 424.089 479.685
2614 0 61.4162 15.8102 971 94.9372 424.282 473.299
2615 0 63.2837 12.8943 816 99.2978 423.316 476.56
2616 0 62.2167 10.5116 654 102.456 421.647 479.391
2617 0 66.1718 14.3868 952 96.7059 421.473 472.849
2618 0 66.1718 14.3868 952 127.473 419.473 472.849
2619 0 71.3382 13.415 957 98.8391 419.921 470.057
2620 0 76.362 13.842 1057 96.9924 419.349 472.156
2621 0 77.2818 13.8713 1072 96.4394 420.331 468.934
2622 0 78.5275 11.3718 893 98.486 419.172 471.738
2623 0 83.2782 18.0599 1504 91.5791 419.595 465.697
2624 0 87.4631 18.0991 1583 92.6033 419.177 460.826
2625 1 45.3667 13.9089 631 96.5087 418.052 478.7
2626 0 47.4408 15.3454 728 93.9821 419.275 479
2627 0 49.1618 17.3712 854 92.6241 417.292 478.547
2628 0 50.2158 9.95702 500 101.818 418.056 475.522
2629 0 52.4576 17.0423 894 92.9049 417.195 475.526
2630 0 53.3143 16.9373 903 94.4264 419.214 473.074
2631 0 54.1803 25.0091 1355 87.0258 419.208 470.925
2632 0 55.4069 14.7455 817 97.8397 419.854 469.752
2633 0 56.5912 12.3871 701 101.599 418.867 471.521
2634 0 52.3457 11.9781 627 104.065 419.884 470.563
2635 0 59.4272 21.5894 1283 93.0359 420.645 463.85
2636 0 60.4045 14.7506 891 100.792 421.621 466.718
2637 0 61.6053 15.2909 942 100.17 422.076 465.788
2638 0 61.3692 12.0419 739 105.379 423.62 464.355
2639 0 66.1077 15.5201 1026 99.8051 422.91 465.491
2640 0 67.2327 11.0809 745 106.721 424.933 462.949
2641 0 72.2965 13.1403 950 102.142 424.004 461.716
2642 1 48.1674 15.28 736 91.7446 428.64 479.239
2643 0 47.2494 15.5134 733 94.0573 429.604 473.973
2644 0 47.175 10.7472 507 100.866 430.081 480.122
2645 0 51.2262 15.168 777 94.094 429.27 476.658
2646 0 54.1921 12.4557 675 100.467 429.806 479.194
2647 0 53.3598 22.0203 1175 92.6094 428.181 475.974
2648 0 55.0617 16.0002 881 98.3178 428.292 476.244
2649 0 54.3862 12.9261 703 103.663 428.388 475.61
2650 0 56.1418 10.6338 597 106.255 426.725 477.084
2651 0 60.1806 12.5289 754 103.156 425.48 478.143
2652 0 64.1806 19.9749 1282 93.7621 425.458 478.714
2653 0 67.5419 15.6347 1056 99.0682 422.245 478.713
2654 0 65.1255 13.7888 898 103.655 422.994 474.378
2655 0 67.3639 12.6774 854 106.478 422.254 472.426
2656 0 72.1652 16.9057 1220 99.5139 421.095 471.757
2657 0 74.1406 16.2664 1206 101.349 420.451 469.881
2658 0 78.362 18.657 1462 97.7079 420.976 464.806
2659 0 77.3672 15.9499 1234 102.365 419.965 461.145
2660 0 82.4727 15.3505 1266 101.983 419.705 459.869
2661 0 83.1976 15.1086 1257 102.544 419.665 464.131
2662 1 47.0554 10.3495 487 102.731 420.326 482.345
2663 0 46.0758 11.1338 513 102.014 421.179 481.203
2664 0 46.1224 11.4261 527 106.505 420.3 477.429
2665 0 51.2233 13.4509 689 103.276 420.086 477.981
2666 0 51.1415 14.587 746 102.704 420.202 474.024
2667 0 51.254 16.9743 870 99.908 420.494 473.02
2668 0 53.1672 12.1127 644 106.576 421.102 471.421
2669 0 54.0479 13.0995 708 105.386 420.116 470.677
2670 0 57.0598 17.0698 974 99.2988 422.416 468.911
2671 0 57.0598 17.0873 975 125.189 424.364 469.047
2672 0 60.0757 16.6623 1001 101.28 421.7 464.003
2673 0 62.0554 12.6178 783 106.246 422.41 463.012
2674 0 64.0432 15.5364 995 103.001 423.56 461.032
2675 0 64.1286 11.3054 725 107.561 424.11 463.788
2676 0 71.1177 12.1207 862 106.551 424.084 460.671
2677 0 69.1469 18.6415 1289 99.1342 424.314 461.046
2678 0 74.1666 14.3461 1064 103.964 425.466 453.414
2679 0 77.1332 15.4668 1193 100.679 426.513 461.821
2680 0 76.1948 13.0324 993 105.527 427.232 460.019
2681 0 79.2008 13.7372 1088 105.479 427.38 456.58
2682 0 83.2799 13.7608 1146 105.026 427.591 458.526
2683 0 86.4931 15.8279 1369 102.524 426.188 457.28
2684 0 90.2373 16.5231 1491 101.478 428.441 455.264
2685 0 92.2678 19.205 1772 98.6304 426.973 456.337
2686 1 50.1391 9.4138 472 106.602 427.735 478.432
2687 0 52.0795 13.6522 711 99.1069 427.689 473.097
2688 0 53.2215 11.7622 626 99.968 428.15 479.117
2689 0 54.2842 18.09 982 95.8187 428.01 476.271
2690 0 55.0617 15.3283 844 98.6801 427.264 479.59
2691 0 60.2212 13.5002 813 99.8856 428.207 477.814
2692 0 59.1461 13.1708 779 102.112 426.407 479.841
2693 0 59.1321 15.1356 895 100.926 424.592 478.43
2694 0 61.1355 11.1228 680 103.415 425.196 481.031
2695 0 64.1437 12.0199 771 104.525 425.196 478.891
2696 0 67.2477 10.9595 737 103.978 423.606 479.87
2697 0 67.2449 12.2388 823 144.978 421.699 478.346
2698 0 72.1863 15.0028 1083 97.4931 422.391 477.716
2699 1 139.732 11.1785 1562 99.2241 420.038 453.764
2700 0 141.685 12.4854 1769 101.98 420.747 436.605
2701 1 81.2131 18.9748 1541 92.5912 419.195 467.236
2702 0 81.2345 9.62645 782 86.0269 418.506 477.101
2703 0 87.2428 7.12953 622 91.746 417.172 471.381
2704 0 89.5304 18.4742 1654 84.2255 416.879 460.42
2705 0 89.4856 18.394 1646 85.178 417.366 452.969
2706 0 93.3158 12.1308 1132 86.9735 417.761 450.61
2707 0 95.3676 7.96916 760 91.8447 416.518 456.288
2708 0 97.407 9.6913 944 88.7892 417.766 464.386
2709 0 100.789 13.1959 1330 87.9083 419.63 455.04
2710 0 106.546 15.8053 1684 85.6283 419.278 453.296
2711 1 58.0756 18.1316 1053 83.0228 420.808 467.636
2712 0 60.2029 14.7501 888 85.3052 419.952 471.091
2713 1 110.529 16.991 1878 88.5027 419.71 439.775
2714 0 116.498 12.7384 1484 92.161 420.425 439.481
2715 1 176.564 11.8257 2088 96.6308 420.389 409.265
2716 0 175.307 8.46516 1484 99.9508 420.371 409.689
2717 1 68.0969 15.6101 1063 87.0912 422.766 463.091
2718 0 74.247 15.4754 1149 86.195 423.557 459.873
2719 0 73.1662 20.597 1507 82.9867 423.812 460.291
2720 0 75.3454 15.0905 1137 84.7291 424.617 467.59
2721 0 77.2796 16.5632 1280 85.243 424.447 462.404
2722 1 160.955 14.6935 2365 89.3032 424.817 428.09
2723 0 158.198 11.5425 1826 91.8335 424.176 427.186
2724 0 165.952 9.21954 1530 93.2131 425.322 429.458
2725 0 165.831 11.8916 1972 90.7444 425.361 428.173
2726 1 176.719 9.0313 1596 94.4781 424.507 406.925
2727 1 93.3508 12.9726 1211 89.6689 426.172 454.404
2728 1 48.3016 10.8485 524 86.8282 423.742 473.321
2729 0 53.2756 13.9651 744 85.8938 425.265 468.421
2730 0 52.2738 18.2692 955 84.0094 424.708 469.876
2731 0 53.1849 12.8984 686 87.8528 423.373 471.927
2732 0 60.4669 13.3296 806 88.9566 423.573 468.136
2733 0 58.5286 8.08152 473 92.6512 423.228 470.59
2734 0 60.4406 13.7987 834 89.301 424.177 472.796
2735 0 63.3561 13.0532 827 90.7473 423.787 472.983
2736 0 65.1051 11.781 767 91.4694 424.207 469.915
2737 0 73.5966 21.5499 1586 82.401 423.209 468.532
2738 0 70.4133 12.0716 850 91.1365 423.482 465.631
2739 0 75.5474 13.925 1052 89.251 423.26 465.903
2740 0 72.2129 10.8568 784 92.7819 421.832 464.879
2741 0 78.6359 14.6116 1149 88.7833 422.084 464.613
2742 0 84.4823 20.3711 1721 83.2958 420.253 460.664
2743 0 84.5312 15.1305 1279 85.4879 420.758 457.8
2744 0 94.4414 15.6605 1479 81.9885 419.222 472.085
2745 0 89.7459 20.8255 1869 82.6758 419.95 455.971
2746 0 90.9141 11.0214 1002 87.6068 419.325 466.597
2747 0 95.9922 14.8762 1428 85.9545 419.376 449.288
2748 0 101.976 16.5235 1685 85.0291 418.244 456.586
2749 0 100.849 18.1063 1826 85.2694 418.977 456.244
2750 0 105.74 20.0587 2121 82.8652 417.683 458.213
2751 0 107.178 18.9871 2035 85.6329 418.197 442.825
2752 1 165.374 15.0568 2490 90.5213 419.893 412.584
2753 0 168.919 21.6554 3658 85.9926 419.055 422.527
2754 1 115.323 10.6137 1224 102.931 420.66 443.182
2755 0 119.504 15.4054 1841 98.4112 420.524 436.487
2756 1 65.2671 17.1296 1118 94.6386 421.427 465.506
2757 0 66.3818 15.1698 1007 97.8312 420.463 460.987
2758 0 71.3661 18.4401 1316 93.8761 421.067 462.306
2759 0 74.4541 14.6802 1093 96.8353 422.089 460.511
2760 0 73.2266 16.2509 1190 96.9538 421.625 455.445
2761 0 78.9227 17.7389 1400 95.7971 422.031 447.576
2762 0 84.6315 16.755 1418 95.9725 422.261 449.504
2763 0 84.7135 28.9446 2452 86.2965 422.648 448.615
2764 0 84.7065 16.445 1393 97.0007 423.485 450.408
2765 0 86.633 11.5545 1001 102.684 424.596 445.17
2766 1 47.8204 12.5888 602 98.8023 424.032 465.924
2767 0 49.6311 12.1094 601 95.6522 424.549 472.494
2768 0 53.1861 13.2365 704 97.1008 424.324 466.257
2769 0 53.3446 11.2851 602 97.7492 426.49 467.681
2770 0 58.4026 11.9344 697 96.9225 426.55 468.862
2771 0 57.3816 13.9069 798 95.3722 427.515 469.162
2772 0 58.3187 13.0661 762 97.9016 427.566 467.098
2773 0 59.4471 16.2329 965 94.5275 427.258 468.188
2774 0 60.4854 15.5244 939 95.0298 427.02 470.989
2775 0 67.1887 13.0825 879 98.6178 427.726 469.692
2776 0 69.2538 20.2155 1400 92.0986 426.837 473.742
2777 0 72.4825 13.7137 994 98.8088 426.68 470.068
2778 0 73.2872 15.0367 1102 98.0817 426.832 469.674
2779 0 76.234 19.2827 1470 94.1116 424.989 466.656
2780 0 80.421 20.144 1620 92.5833 425.388 468.664
2781 0 81.2097 14.6042 1186 100.211 426.166 468.206
2782 0 82.4677 14.2722 1177 101.473 425.5 462.41
2783 0 85.6181 15.721 1346 98.7912 424.471 464.445
2784 0 88.6386 17.2273 1527 97.8638 423.797 459.752
2785 0 92.8059 17.1541 1592 97.3122 423.521 457.818
2786 0 96.835 21.9858 2129 93.3372 422.788 454.306
2787 0 100.692 20.3491 2049 95.2767 421.682 453.14
2788 0 102.742 19.4759 2001 95.7826 421.212 451.249
2789 0 104.915 11.0184 1156 104.851 419.708 449.146
2790 1 56.2777 11.5676 651 97.0707 419.776 474.412
2791 0 60.1688 7.56206 455 98.8945 418.906 480.503
2792 0 63.1473 16.0577 1014 97.2752 420.325 468.798
2793 0 63.322 11.6231 736 103.501 419.99 466.14
2794 0 68.1754 16.3109 1112 93.3192 420.265 468.52
2795 0 70.4183 20.9037 1472 90.623 420.695 463.166
2796 0 76.2325 15.1772 1157 94.9058 421.354 463.251
2797 0 74.408 9.04472 673 102.473 422.241 458.357
2798 0 78.4314 9.32024 731 100.119 423.237 460.951
2799 0 79.7302 12.7806 1019 99.3219 423.176 449.522
2800 0 85.5346 14.9647 1280 95.9562 422.538 453.893
2801 0 90.4353 19.4946 1763 91.7328 422.024 450.875
2802 0 90.3617 14.9068 1347 94.8241 424.067 452.394
2803 0 97.6823 14.6495 1431 95.7764 423.626 446.869
2804 0 94.5611 17.6923 1673 94.6103 424.552 444.452
2805 0 100.328 16.3165 1637 97.6744 423.861 441.706
2806 0 105.564 12.1916 1287 101.235 426.486 441.859
2807 0 106.769 10.696 1142 101.319 427.929 445.123
2808 1 59.5867 16.3459 974 93.7741 426.61 453.672
2809 0 60.2696 15.9782 963 91.92 426.264 459.973
2810 0 65.2295 16.6029 1083 92.265 427.756 462.053
2811 0 65.2224 18.138 1183 91.8808 427.472 458.97
2812 0 69.1622 17.0613 1180 91.6932 429.055 458.028
2813 0 68.4236 11.195 766 97.5392 429.624 462.871
2814 0 70.3981 8.56557 603 101.562 427.899 460.637
2815 0 75.4212 13.0865 987 96.5735 427.258 461.793
2816 0 76.4168 12.8113 979 94.8253 427.962 468.018
2817 0 82.2463 15.8183 1301 93.9078 428.892 465.218
2818 0 79.3367 10.6508 845 101.221 428.399 460.703
2819 0 82.2742 12.2882 1011 99.9674 429.152 458.127
2820 0 84.5995 9.3854 794 104.105 428.098 453.816
2821 0 86.7137 11.0363 957 102.787 428.644 453.819
2822 0 91.4599 9.6217 880 104.432 427.28 452.965
2823 1 50.5281 11.9933 606 94.2723 429.52 481.081
2824 0 51.1998 11.3477 581 96.1256 427.732 478.46
2825 0 52.2449 11.4652 599 101.144 428.245 475.828
2826 0 53.5153 17.864 956 93.5523 428.254 475.298
2827 0 54.4317 14.5136 790 96.9734 427.482 476.116
2828 0 57.2977 15.114 866 92.2494 426.037 473.176
2829 0 63.3984 15.9626 1012 90.1611 425.925 477.826
2830 0 62.595 9.56945 599 97.8331 424.728 472.838
2831 0 62.5613 10.7734 674 101.466 424.273 471.154
2832 0 62.2508 5.92764 369 100.293 424.184 475.436
2833 0 63.365 7.14905 453 96.3532 423.868 477.177
2834 0 69.3465 12.1131 840 94.1857 422.835 464.168
2835 0 69.3465 12.2429 849 121.134 423.83 464.084
2836 0 74.4852 8.88768 662 97.9773 422.518 463.831
2837 0 80.6158 14.749 1189 90.5189 422.045 463.148
2838 0 79.4216 12.8303 1019 94.7046 421.735 452.895
2839 0 83.3034 13.1087 1092 93.3462 422.536 458.96
2840 0 83.3949 8.50172 709 99.6107 423.113 455.633
2841 0 92.7989 14.1489 1313 93.1127 422.903 457.9
2842 0 91.3486 16.0703 1468 93.7118 421.732 449.262
2843 0 89.7541 9.94941 893 100.188 422.395 448.989
2844 1 51.9257 11.7861 612 96.9232 423.376 463.592
2845 0 51.532 13.7973 711 94.9297 423.391 461.796
2846 0 53.9174 17.1559 925 92.4649 423.785 461.018
2847 0 52.9167 11.6031 614 135.707 424.598 464.463
2848 0 53.3255 9.2076 491 95.1935 428.122 455.652
2849 0 59.2589 15.7276 932 87.9109 427.922 462.29
2850 0 61.4792 14.5252 893 91.6181 428.499 463.75
2851 0 59.4451 14.0466 835 92.4144 429.374 466.212
2852 0 59.2359 12.5937 746 95.5858 429.417 463.53
2853 0 60.3781 11.7924 712 97.3483 430.103 461.449
2854 0 65.2468 12.5523 819 96.6337 430.188 462.431
2855 0 63.3126 10.6772 676 98.6612 430.777 466.623
2856 0 68.2126 11.7867 804 99.1493 431.1 462.392
2857 0 69.404 12.4488 864 98.3831 429.527 460.214
2858 0 72.5975 15.6892 1139 93.9385 430.659 463.644
2859 0 76.4249 15.3877 1176 94.233 430.957 459.358
2860 0 76.4249 15.3484 1173 130.16 430.962 459.421
2861 0 82.2859 16.151 1329 93.9977 430.002 462.935
2862 0 82.166 15.1888 1248 96.5328 430.249 456.634
2863 0 85.2151 14.305 1219 95.5234 429.942 464.819
2864 0 91.3086 10.7876 985 100.935 430.113 459.146
2865 0 90.2686 10.214 922 101.661 430.303 463.642
2866 0 93.5355 12.5514 1174 102.521 430.1 459.104
2867 1 53.127 16.9782 902 93.827 426.635 480.887
2868 0 54.1879 14.8557 805 98.1627 425.352 475.215
2869 0 53.113 10.9201 580 103.426 424.484 479.29
2870 0 56.1314 12.7201 714 101.426 424.204 473.682
2871 0 52.2172 8.25399 431 102.334 425.84 475.847
2872 0 56.1738 12.8352 721 96.6907 424.409 475.67
2873 0 56.3107 19.2148 1082 90.1368 424.616 474.825
2874 0 50.2178 10.9921 552 98.933 421.312 471.9
2875 0 60.4346 12.6252 763 95.768 421.781 468.802
2876 0 62.2353 15.9234 991 93.7013 422.301 467.95
2877 0 65.3219 16.7325 1093 92.3156 421.295 467.97
2878 0 61.2849 12.6622 776 95.2822 420.805 467.656
2879 0 67.277 9.82505 661 99.0605 420.696 466.746
2880 0 66.3456 14.0627 933 95.8639 420.506 461.502
2881 0 73.2171 11.3908 834 97.6559 421.025 461.156
2882 0 74.2254 11.748 872 97.3463 421.256 460.525
2883 0 78.4321 13.5659 1064 95.5724 421.271 457.899
2884 0 75.3454 9.3171 702 96.7906 420.942 455.923
2885 0 80.2356 11.7404 942 96.5159 423.492 447.037
2886 0 84.2699 10.941 922 98.5564 422.855 447.05
2887 0 88.3598 10.7289 948 99.3861 422.385 447.127
2888 1 48.247 11.3997 550 98.1655 421.249 463.365
2889 0 52.2095 12.1625 635 96.8787 421.099 464.929
2890 0 53.3485 13.215 705 97.0142 423.021 463.06
2891 0 60.723 17.8516 1084 90.4244 426.602 466.801
2892 0 55.1177 13.6072 750 99.4973 427.629 460.352
2893 0 56.1244 11.9021 668 101.51 429.099 461.877
2894 0 59.0714 12.4256 734 100.392 429.481 462.635
2895 0 60.1753 14.6904 884 99.3812 429.446 459.459
2896 0 63.1869 14.8132 936 98.5716 428.536 461.29
2897 0 65.282 14.2306 929 99.4069 429.678 461.381
2898 0 65.1815 12.795 834 102.147 430.165 460.134
2899 0 69.3796 14.0243 973 100.009 430.572 459.645
2900 0 69.3796 13.9378 967 129.586 430.557 459.669
2901 0 73.1654 14.1734 1037 100.465 430.994 455.966
2902 0 75.1762 13.1292 987 101.171 432.236 462.23
2903 0 77.4377 14.9152 1155 99.5463 431.275 462.588
2904 0 80.3638 16.8359 1353 96.7672 431.874 460.605
2905 0 82.6343 12.5614 1038 102.424 431.919 456.133
2906 0 87.5048 19.5646 1712 93.6706 430.541 452.98
2907 0 91.4551 15.8876 1453 96.3379 430.606 459.364
2908 0 90.5371 13.1107 1187 99.8998 429.98 457.446
2909 0 93.8727 12.1121 1137 100.816 428.56 453.265
2910 0 97.9731 11.1867 1096 105.069 429.046 454.086
2911 0 101.808 14.6453 1491 98.2113 427.374 447.767
2912 0 102.824 10.2019 1049 101.185 426.993 452.605
2913 1 53.356 13.0632 697 98.4189 428.105 476.844
2914 0 57.1365 15.9618 912 95.0164 427.719 472.049
2915 0 54.1119 10.2565 555 102.036 427.022 472.883
2916 0 58.292 14.0157 817 98.2069 427.04 470.319
2917 0 60.1546 18.735 1127 93.5422 425.552 470.334
2918 0 63.0377 11.9135 751 101.117 426.63 467.731
2919 0 63.0377 11.8818 749 144.158 426.648 467.849
2920 0 62.1231 11.8635 737 102.369 425.351 463.298
2921 0 64.2279 12.1131 778 101.294 425.721 465.79
2922 0 70.5468 13.8915 980 98.9163 424.24 463.663
2923 1 82.2884 14.0117 1153 94 423.538 467.19
2924 0 83.152 16.4278 1366 92.828 423.701 463.895
2925 0 78.3373 13.6461 1069 99.1422 424.601 454.078
2926 0 83.7217 18.5496 1553 93.038 423.971 452.24
2927 0 82.3317 16.6521 1371 95.7345 423.272 452.825
2928 0 85.3204 13.7365 1172 97.9616 423.489 452.52
2929 1 175.177 15.6927 2749 98.3114 423.907 415.981
2930 0 182.746 15.1576 2770 100.202 424.122 408.571
2931 1 93.2815 16.3484 1525 97.579 425.123 444.599
2932 0 96.546 14.5112 1401 99.8715 424.538 441.863
2933 0 99.2946 16.7784 1666 96.5546 425.748 441.519
2934 0 105.905 18.1294 1920 94.3292 426.161 433.166
2935 0 106.506 12.0557 1284 102.715 428.883 437.607
2936 0 112.301 17.5332 1969 96.8207 428.431 434.771
2937 0 109.508 14.1268 1547 96.5947 428.662 429.291
2938 1 171.792 13.1147 2253 99.6782 429.639 395.901
2939 0 176.934 18.6849 3306 94.8503 428.671 388.457
2940 1 117.852 15.1886 1790 95.533 429.536 424.907
2941 1 63.3339 13.2788 841 91.6659 430.427 457.103
2942 0 65.3187 9.72157 635 94.6913 429.619 453.043
2943 0 67.5255 12.4545 841 92.6219 430.377 451.216
2944 0 75.7368 16.795 1272 85.0126 430.717 461.574
2945 0 76.5028 16.7837 1284 84.947 430.63 461.926
2946 0 75.3424 12.7551 961 91.5983 430.201 453.579
2947 0 77.3762 20.0578 1552 85.4059 428.708 455.63
2948 0 80.2139 14.6608 1176 89.2815 429.996 457.997
2949 0 87.6062 17.4988 1533 87.6236 430.249 456.663
2950 0 89.5859 13.0936 1173 92.3649 429.739 461.562
2951 0 88.3233 11.8429 1046 94.8394 427.392 457.153
2952 0 91.2376 12.3633 1128 94.7872 427.673 456.336
2953 0 92.3197 12.7492 1177 93.1912 427.495 461.056
2954 0 97.3996 16.6838 1625 89.5268 427.621 456.108
2955 0 104.312 18.972 1979 88.1086 427.654 455.092
2956 1 57.2764 14.334 821 90.6066 423.758 475.235
2957 0 59.3421 9.18403 545 94.7596 424.639 475.971
2958 0 62.2634 21.0397 1310 83.9275 423.775 469.466
2959 0 60.4144 14.0695 850 89.2 422.755 468.692
2960 0 60.4144 13.9205 841 129.252 421.757 468.474
2961 0 67.3372 20.3157 1368 84.03 422.474 466.442
2962 0 69.2019 11.1558 772 91.6412 422.571 466.737
2963 0 71.3508 19.4672 1389 85.3427 422.776 462.833
2964 0 74.3696 12.3841 921 90.7264 420.768 465.016
2965 0 78.5899 17.5086 1376 87.5429 421.954 459.423
2966 0 78.643 12.3978 975 92.7856 422.163 458.601
2967 0 83.3644 12.9072 1076 91.027 421.777 461.174
2968 0 89.278 14.3932 1285 90.5922 422.015 452.546
2969 0 87.4519 14.9682 1309 91.2269 421.139 456.714
2970 0 86.452 18.4611 1596 88.2262 421.534 457.085
2971 0 87.3628 8.81382 770 99.0052 420.409 450.579
2972 1 50.0961 8.32401 417 98.1559 421.065 468.671
2973 0 50.4041 11.6657 588 93.5476 420.823 469.446
2974 0 54.1695 16.4668 892 86.9552 421.209 469.376
2975 0 54.1978 14.3179 776 94.1534 421.875 465.308
2976 1 106.504 12.8258 1366 98.8346 424.378 441.155
2977 0 110.341 14.582 1609 96.7203 425.087 443.063
2978 1 61.1217 18.6022 1137 90.0967 423.304 466.721
2979 0 62.052 11.7804 731 98.3557 423.821 462.75
2980 0 60.1402 13.9507 839 96.9035 423.908 460.884
2981 0 64.0953 12.6374 810 98.9086 424.963 457.094
2982 0 66.101 14.2055 939 96.0671 426.002 459.122
2983 0 66.2332 11.7464 778 99.7481 426.207 459.113
2984 0 71.1269 11.4865 817 99.612 426.906 457.246
2985 0 72.2381 14.6183 1056 95.8059 426.872 456.964
2986 0 73.127 12.9774 949 97.3783 427.244 463.53
2987 0 78.1945 15.0138 1174 95.4957 428.428 459.836
2988 0 82.2713 14.6467 1205 95.8896 428.242 459.451
2989 0 85.6244 25.9856 2225 85.0715 428.92 462.738
2990 0 86.2633 14.2239 1227 95.7612 429.05 457.306
2991 0 88.1934 19.3779 1709 90.8654 427.867 460.733
2992 0 95.1944 20.0747 1911 90.4082 428.102 458.571
2993 0 95.2814 16.4565 1568 93.6562 427.675 460.396
2994 0 94.1944 14.1303 1331 95.0661 428.241 446.5
2995 0 101.97 11.7191 1195 92.3071 429.567 453.491
2996 0 100.291 10.9183 1095 94.4922 428.82 449.097
2997 0 104.469 9.4765 990 94.895 428.926 458.086
2998 0 108.495 14.609 1585 92.2284 429.672 456.52
2999 0 111.792 18.6597 2086 90.5887 428.293 448.309
3000 0 114.447 15.9637 1827 90.3963 427.648 462.943
3001 0 117.435 12.9689 1523 95.8234 427.251 445.165
3002 0 115.462 9.20646 1063 99.8636 427.044 452.972
3003 0 124.693 13.3528 1665 92.803 426.712 459.384
3004 1 68.133 19.0803 1300 89.1377 425.715 469.713
3005 0 67.308 11.5588 778 96.3393 423.287 467.783
3006 0 73.6552 18.5866 1369 89.2842 422.981 469.421
3007 0 77.4564 14.2661 1105 93.1919 423.774 468.086
3008 0 77.3919 20.2088 1564 89.149 421.95 460.359
3009 0 79.2041 14.5068 1149 94.3368 423 466.218
3010 0 82.3665 13.5735 1118 95.1431 422.289 465.477
3011 0 87.2686 13.3611 1166 96.9443 421.657 460.94
3012 0 87.3079 13.8246 1207 97.0605 422.514 458.168
3013 0 90.529 12.8357 1162 99.2513 422.357 455.889
3014 0 94.3009 13.6796 1290 97.9473 422.687 457.247
3015 0 96.522 13.6964 1322 99.3661 423.377 452.644
3016 1 51.0949 11.097 567 100.097 424.55 472.494
3017 0 53.186 12.0709 642 98.5685 425.416 473.042
3018 0 55.1522 14.3059 789 96.417 423.479 472.359
3019 0 57.6024 13.4717 776 97.4085 425.647 469.966
3020 0 58.1483 10.542 613 101.799 425.478 468.073
3021 0 59.1982 12.4835 739 99.6509 424.25 466.898
3022 0 60.1016 14.2259 855 99.1754 426.058 464.375
3023 0 63.1376 17.6123 1112 95.366 426.528 467.132
3024 0 63.1089 15.7189 992 98.7107 426.614 463.424
3025 0 69.2685 23.4594 1625 89.7717 426.055 466.287
3026 0 70.1626 8.36628 587 104.445 428.697 470.295
3027 0 70.1745 14.6634 1029 98.6103 429.414 465.462
3028 0 72.0964 14.7164 1061 99.475 429.528 466.865
3029 0 75.1697 15.9639 1200 97.7692 429.768 468.427
3030 0 75.2649 12.9542 975 102.792 429.515 466.317
3031 0 79.0801 15.9711 1263 98.6825 429.098 466.93
3032 0 81.1073 12.3787 1004 103.009 429.685 464.963
3033 0 84.1502 16.6963 1405 98.2441 429.039 464.026
3034 0 87.4355 13.1526 1150 102.011 429.328 465.003
3035 0 87.3019 12.3823 1081 103.359 429.092 463.268
3036 0 91.1161 21.5659 1965 93.2346 428.68 460.722
3037 0 94.414 13.7374 1297 101.543 428.71 462.302
3038 0 96.2507 15.0856 1452 100.116 429.123 459.879
3039 0 99.3395 15.3715 1527 99.6012 427.788 458.306
3040 0 101.446 17.2999 1755 97.616 426.148 461.368
3041 0 109.225 15.665 1711 97.9766 427.355 462.79
3042 1 56.1679 13.5309 760 99.5382 426.255 480.245
3043 0 55.2598 14.6038 807 99.223 426.343 479.04
3044 0 63.3439 22.0858 1399 90.2831 424.571 476.769
3045 0 64.3774 17.5527 1130 93.3504 425.146 480.853
3046 0 63.1345 18.5477 1171 95.0974 424.114 475.125
3047 0 66.1341 15.2569 1009 97.1635 423.667 478.963
3048 0 68.3762 13.9522 954 98.7474 422.819 475.999
3049 0 71.2582 18.2856 1303 94.6792 421.104 473.823
3050 0 71.2636 14.1727 1010 99.4762 422.031 472.044
3051 0 75.3047 17.7811 1339 96.13 420.97 468.269
3052 0 74.1506 13.2298 981 101.094 421.996 462.787
3053 0 79.2098 19.5809 1551 93.0774 421.204 469.524
3054 0 82.4329 17.8812 1474 97.1004 421.012 459.4
3055 0 83.335 12.3838 1032 103.32 422.372 457.041
3056 0 86.3281 14.0974 1217 101.773 422.368 457.168
3057 0 90.2932 14.7409 1331 100.888 422.162 458.807
3058 0 93.4053 15.5666 1454 101.598 421.632 453.39
3059 0 96.3348 18.3942 1772 98.3301 421.847 451.746
3060 0 96.3239 14.9911 1444 103.581 422.767 446.052
3061 0 100.628 20.859 2099 96.5098 421.776 443.239
3062 0 104.57 17.1656 1795 101.069 422.71 440.219
3063 0 107.799 17.8109 1920 99.5453 422.619 441.952
3064 1 58.1962 14.7948 861 97.0314 422.553 468.918
3065 0 55.3248 11.8934 658 101.749 422.026 465.986
3066 0 59.1434 12.3598 731 98.5746 421.897 470.36
3067 0 65.2829 11.5344 753 99.7769 423.55 468.117
3068 0 66.4358 13.1706 875 98.7429 424.999 466.651
3069 0 67.1915 11.6979 786 100.17 425.444 469.475
3070 0 71.3576 14.5184 1036 97.8581 426.303 464.798
3071 0 71.1757 16.8035 1196 96.1689 425.405 463.031
3072 0 74.3102 11.7211 871 101.202 426.289 465.107
3073 0 76.4165 21.6184 1652 91.0496 425.712 466.246
3074 0 78.4472 15.4754 1214 96.8484 427.462 465.015
3075 0 83.2511 18.5703 1546 94.1332 426.102 460.876
3076 0 86.1344 16.0447 1382 95.8459 425.281 465.175
3077 0 88.1869 16.5217 1457 95.5717 426.289 467.994
3078 0 89.1904 18.1858 1622 95.9069 426.124 458.978
3079 0 90.1851 14.7585 1331 98.7551 425.53 464.709
3080 0 95.3758 25.9605 2476 89.5602 424.443 458.862
3081 0 97.34 16.7249 1628 96.7525 425.163 454.554
3082 0 98.3774 10.9375 1076 104.811 425.796 455.591
3083 1 47.4559 15.3616 729 98.0398 425.509 482.702
3084 0 51.0787 14.0763 719 99.751 425.604 483.478
3085 0 53.079 10.4561 555 101.796 426.605 483.96
3086 0 53.079 10.5503 560 135.977 425.543 483.859
3087 0 58.1037 18.3637 1067 94.4883 425.45 479.548
3088 0 58.1523 17.4026 1012 95.4792 424.797 480.173
3089 0 57.2355 11.6187 665 103.146 423.979 473.568
3090 0 63.1619 17.3206 1094 96.2559 423.742 479.906
3091 0 64.1405 16.8068 1078 98.6549 423.199 472.119
3092 0 66.1804 14.7022 973 101.272 423.175 471.025
3093 0 67.1403 13.7771 925 103.477 422.326 469.145
3094 0 70.3838 15.245 1073 101.52 422.102 463.179
3095 0 72.1234 15.4042 1111 102.445 421.629 468.474
3096 0 75.1903 18.6726 1404 99.3326 420.333 465.043
3097 0 81.4527 16.218 1321 98.9765 421.682 471.115
3098 0 80.2028 16.3087 1308 102.698 421.557 461.95
3099 0 82.2067 17.0059 1398 102.768 420.817 463.879
3100 0 85.4222 17.1501 1465 103.825 420.529 460.818
3101 0 89.4009 24.2727 2170 97.7811 420.316 453.919
3102 0 91.2186 14.1857 1294 109.382 419.909 459.505
3103 0 90.2004 16.8846 1523 147.014 418.936 461.735
3104 0 95.2051 19.0851 1817 103.844 420.871 447.257
3105 1 51.0536 17.3347 885 105.447 421.409 473.564
3106 0 52.1193 12.1836 635 112.406 422.346 473.452
3107 0 54.0848 17.3801 940 106.65 422.408 469.333
3108 0 57.1044 16.3385 933 108.841 424.079 468.591
3109 0 58.0744 21.6619 1258 100.736 421.449 473.825
3110 0 61.2478 14.5638 892 109.447 423.355 473.326
3111 0 59.2101 12.8188 759 116.267 423.203 471.028
3112 0 64.3892 13.1078 844 114.227 424.84 468.802
3113 0 67.2547 17.7534 1194 107.632 425.696 469.492
3114 0 68.251 15.9265 1087 107.767 425.829 469.863
3115 0 72.282 20.1295 1455 101.616 424.336 469.691
3116 0 75.38 17.1796 1295 105.649 426.212 468.867
3117 0 77.1976 14.5859 1126 109.587 425.154 468.542
3118 0 80.4166 17.9938 1447 104.24 426.893 470.578
3119 0 80.1716 15.2298 1221 110.622 427.323 465.856
3120 0 83.1667 15.8597 1319 109.542 426.16 464.869
3121 0 88.4086 16.8649 1491 107.461 426.842 467.418
3122 1 49.3056 12.5138 617 110.904 424.758 487.203
3123 0 51.1063 12.249 626 110.554 424.869 484.979
3124 0 53.247 15.8506 844 105.444 423.841 485.988
3125 0 53.1451 15.3166 814 109.032 424.398 482.642
3126 0 52.2061 12.9295 675 112.096 422.551 484.206
3127 0 57.211 13.5813 777 110.555 423.115 482.485
3128 0 58.1646 16.5737 964 105.662 421.99 481.838
3129 0 58.217 13.9478 812 110.197 420.323 482.895
3130 0 61.1045 11.8486 724 112.543 419.731 479.03
3131 0 64.1923 15.5315 997 107.105 420.1 477.652
3132 0 66.127 12.1887 806 111.53 418.102 476.217
3133 0 68.1315 15.9985 1090 107.232 418.66 473.871
3134 0 73.1273 20.5669 1504 100.035 417.564 474.217
3135 0 75.2672 15.3055 1152 106.568 418.523 470.881
3136 0 78.2771 14.372 1125 107.908 418.77 468.592
3137 0 81.329 16.5746 1348 104.51 417.101 464.967
3138 0 82.1182 12.8108 1052 109.375 416.945 462.917
3139 1 45.1588 14.6372 661 103.526 416.988 482.28
3140 0 46.049 15.8309 729 101.416 416.99 483.739
3141 0 45.2292 12.4256 562 106.317 416.571 478.758
3142 0 50.0944 14.4727 725 103.262 418.286 479.001
3143 0 45.1522 10.5421 476 110.931 417.838 477.92
3144 0 50.2311 13.836 695 105.344 418.604 477.843
3145 0 50.0869 10.8611 544 109.182 417.86 477.296
3146 0 53.2476 12.4701 664 107.309 419.431 474.104
3147 0 55.1037 12.2496 675 105.936 420.173 474.987
3148 0 57.0961 15.9906 913 99.6824 420.205 476.334
3149 0 61.1437 16.5675 1013 99.462 420.671 470.8
3150 0 60.0942 14.9765 900 102.712 421.847 466.853
3151 0 65.21 15.9025 1037 99.5333 420.527 470.663
3152 0 66.2007 17.6131 1166 99.0789 422.19 462.73
3153 0 70.3316 16.3938 1153 100.516 423.137 466.376
3154 0 69.1535 13.2748 918 105.987 422.645 463.841
3155 0 72.2186 15.5085 1120 103.221 423.081 464.293
3156 0 76.6234 24.9271 1910 93.2079 422.018 459.096
3157 0 78.366 12.1098 949 106.938 423.299 463.295
3158 0 79.1769 13.173 1043 105.194 424.977 460.115
3159 0 80.6287 11.832 954 107.414 424.235 454.514
3160 0 84.6237 12.8687 1089 105.569 425.081 454.789
3161 0 86.2078 12.8179 1105 105.439 424.454 457.913
3162 0 90.3373 19.8478 1793 96.9649 425.295 460.032
3163 0 87.2286 7.55486 659 113.637 426.287 454.575
3164 1 50.0925 12.3771 620 104.469 424.365 484.579
3165 0 50.0978 12.9746 650 103.537 423.425 485.3
3166 0 52.2356 14.1283 738 102.859 423.137 481.682
3167 0 52.2473 11.8092 617 105.626 424.036 482.013
3168 0 57.2149 9.4381 540 106.844 423.741 485.357
3169 0 58.1188 13.8854 807 102.488 423.343 479.451
3170 0 58.3398 15.3412 895 100.802 422.598 481.397
3171 0 60.1371 12.2553 737 103.631 422.304 479.461
3172 0 66.4544 18.3434 1219 95.8556 422.058 480.066
3173 0 65.1034 13.133 855 104.382 421.529 476.523
3174 0 65.1222 13.1599 857 104.301 420.447 475.344
3175 0 69.1712 16.5387 1144 100.43 419.711 471.186
3176 0 71.1608 15.6687 1115 100.962 418.996 473.971
3177 0 72.2312 15.3258 1107 101.047 419.571 474.068
3178 0 75.3563 11.3726 857 104.114 418.201 472.782
3179 0 75.3563 11.3461 855 134.556 415.228 472.52
3180 0 74.2433 10.9774 815 102.552 418.35 479.029
3181 0 83.4059 20.0226 1670 97.2545 418.51 463.014
3182 0 88.9354 15.0221 1336 100.181 418.725 469.667
3183 0 90.398 12.3233 1114 105.403 418.782 456.013
3184 0 93.2982 18.0604 1685 99.8855 418.61 456.486
3185 1 52.2978 16.2531 850 98.2741 417.738 476.571
3186 0 52.2265 13.767 719 106.477 417.922 475.719
3187 0 52.0387 14.2202 740 106.981 421.368 474.174
3188 0 59.1841 18.7213 1108 96.4016 420.48 478.604
3189 0 56.334 18.4081 1037 100.761 421.891 474.221
3190 0 57.153 13.1402 751 109.218 422.755 467.13
3191 0 62.4227 14.4979 905 106.894 422.524 469.58
3192 0 59.1149 14.531 859 107.325 423.092 467.945
3193 0 61.2429 13.7322 841 109.665 422.782 463.56
3194 0 62.2848 14.0965 878 108.616 424.271 467.076
3195 0 65.1488 13.9066 906 108.966 423.454 465.56
3196 0 71.4032 13.6688 976 107.681 425.57 466.796
3197 0 71.5993 11.2711 807 112.994 425.529 463.95
3198 0 74.2949 14.604 1085 107.727 425.936 461.233
3199 0 76.0927 15.6914 1194 106.539 426.341 461.158
3200 0 80.5261 17.1497 1381 105.342 427.363 463.429
3201 0 80.3962 16.1202 1296 108.522 426.969 460.022
3202 0 82.5223 17.1105 1412 107.817 426.538 459.572
3203 0 86.3483 16.6303 1436 108.69 426.737 457.694
3204 0 88.6083 14.1522 1254 111.532 428.578 459.073
3205 0 92.6219 16.9722 1572 107.869 426.133 458.98
3206 0 91.4091 15.6111 1427 111.19 427.773 457.968
3207 0 95.533 12.7914 1222 112.822 425.182 465.32
3208 0 99.4145 22.6526 2252 101.25 425.791 458.267
3209 1 52.4204 11.8847 623 112.77 424.353 478.414
3210 0 55.1874 13.2458 731 108.999 423.93 478.081
3211 0 55.1725 11.7087 646 112.305 423.715 475.245
3212 0 60.1862 15.5351 935 107.751 422.827 483.316
3213 0 63.2403 16.0815 1017 106.264 422.33 481.379
3214 0 64.1065 16.7066 1071 106.178 422.72 480.294
3215 0 65.1685 11.7234 764 112.696 420.94 476.355
3216 0 66.0575 11.9441 789 111.131 420.489 477.997
3217 0 71.1179 13.9065 989 108.835 420.329 476.021
3218 0 71.1179 13.7518 978 125.092 419.365 475.951
3219 0 75.3975 15.3056 1154 105.658 418.572 474.047
3220 0 77.5683 20.6012 1598 101.414 418.889 467.101
3221 0 80.5633 14.0511 1132 108.605 419.084 464.138
3222 0 86.9626 18.1687 1580 104.129 419.12 462.979
3223 0 85.4112 11.8251 1010 114.491 418.559 462.123
3224 0 91.6226 12.6061 1155 113.09 417.036 461.747
3225 0 92.7454 14.0384 1302 111.868 418.6 456.245
3226 1 51.3442 12.1143 622 110.897 417.027 480.215
3227 0 52.0673 13.2713 691 111.554 418.23 478.916
3228 0 55.1223 15.6742 864 104.394 421.144 477.825
3229 0 58.1895 14.3668 836 106.452 421.523 475.434
3230 0 58.0749 15.3939 894 104.408 421.421 472.157
3231 0 60.1168 17.2664 1038 99.7177 421.817 474.619
3232 0 61.1292 13.9213 851 107.244 421.154 470.235
3233 0 62.1041 13.3164 827 109.473 420.411 469.491
3234 0 66.3238 12.9667 860 109.879 420.855 462.283
3235 0 66.3204 14.4299 957 108.423 419.978 468.785
3236 0 69.2207 14.331 992 108.515 422.63 458.603
3237 0 71.3308 12.2107 871 109.72 422.028 464.916
3238 0 75.4083 12.3992 935 110.382 421.418 461.801
3239 0 77.4357 11.7775 912 110.664 423.259 461.604
3240 0 79.5196 10.4503 831 112.798 423.333 458.309
3241 0 85.3221 15.3653 1311 105.576 424.626 461.629
3242 0 87.4577 16.0992 1408 102.628 424.219 462.575
3243 0 94.4141 14.2352 1344 107.629 425.186 451.126
3244 1 53.0886 12.8841 684 106.243 427.794 475.05
3245 0 54.1513 13.3884 725 105.303 427.884 473.172
3246 0 55.2757 18.9776 1049 99.7378 427.589 469.807
3247 0 59.0435 15.0567 889 105.427 426.144 472.522
3248 0 62.2325 19.6361 1222 98.3977 426.515 475.924
3249 0 59.1227 12.8715 761 108.293 427.807 469.802
3250 0 63.058 15.7633 994 103.019 427.171 475.397
3251 0 65.1969 14.4179 940 104.86 428.222 471.696
3252 0 71.3482 23.4484 1673 93.8542 426.057 470.387
3253 0 69.218 14.6205 1012 104.846 427.566 468.587
3254 0 70.1103 21.8798 1534 96.2066 427.448 471.759
3255 0 70.1488 11.0622 776 109.082 427.028 468.945
3256 0 74.0915 10.784 799 109.168 426.936 468.855
3257 0 78.1032 13.1237 1025 105.261 427.127 468.423
3258 0 79.1826 16.6324 1317 102.297 426.901 464.31
3259 0 84.3718 18.2762 1542 99.9857 426.412 465.829
3260 0 83.451 10.9645 915 108.792 425.146 461.046
3261 0 91.1632 20.7979 1896 95.2832 423.796 467.246
3262 0 91.3084 19.0782 1742 99.3238 424.026 456.967
3263 0 95.3492 16.0358 1529 103.577 423.397 456.726
3264 1 52.108 15.583 812 100.27 422.966 475.404
3265 0 54.2264 12.5953 683 101.937 422.092 468.709
3266 0 53.1966 13.4031 713 104.125 418.37 475.494
3267 0 54.3868 12.5214 681 103.026 419.794 475.327
3268 0 55.334 11.6023 642 103.344 418.519 473.324
3269 0 56.153 12.8577 722 103.084 418.961 471.435
3270 0 62.1051 12.5916 782 101.037 419.49 472.559
3271 0 67.3085 23.266 1566 91.3199 419.915 465.554
3272 0 67.1872 14.9433 1004 100.085 420.849 465.181
3273 0 65.0668 16.5368 1076 99.3931 420.081 464.441
3274 0 70.2463 15.9439 1120 100.347 418.805 466.07
3275 0 71.1538 14.7427 1049 103.515 420.328 459.451
3276 0 73.267 20.7188 1518 96.6159 420.654 461.05
3277 0 76.2884 16.4114 1252 99.7388 421.435 456.853
3278 0 79.2408 15.5097 1229 102.611 423.077 453.373
3279 0 82.5493 13.7736 1137 104.704 422.766 446.967
3280 0 85.3436 17.6112 1503 102.136 424.698 443.195
3281 0 85.2166 17.0507 1453 104.908 425.202 437.031
3282 0 92.302 14.9076 1376 106.454 424.209 435.666
3283 0 94.4924 19.61 1853 100.582 425.511 440.144
3284 1 49.12 10.7288 527 109.499 427.197 464.188
3285 0 50.0602 17.0794 855 102.27 426.728 457.375
3286 0 53.2756 13.9463 743 107.071 426.611 456.9
3287 0 55.2584 14.5136 802 104.616 425.493 460.267
3288 0 57.3829 15.6493 898 104.771 426.308 453.608
3289 0 60.0601 15.1015 907 104.247 426.157 461.47
3290 0 61.2524 15.5259 951 103.859 427.67 463.319
3291 0 62.2108 14.8688 925 105.137 426.135 463.708
3292 0 63.3268 16.8491 1067 103.801 427.127 460.008
3293 0 65.2536 14.436 942 107.03 427.843 463.226
3294 0 65.1304 12.6822 826 108.958 426.883 464.029
3295 0 68.2246 19.5531 1334 101.242 427.012 458.382
3296 0 74.1314 17.496 1297 101.614 427.02 466.3
3297 0 73.1074 19.232 1406 100.818 426.557 464.878
3298 0 75.1276 18.7947 1412 103.805 426.49 457.324
3299 0 79.189 19.0557 1509 102.342 426.072 463.643
3300 0 79.1392 17.5766 1391 104.619 425.514 464.129
3301 0 83.3594 16.4349 1370 106.372 424.122 460.612
3302 0 82.2025 15.0969 1241 109.556 424.118 457.848
3303 0 86.3635 22.0232 1902 101.108 423.614 458.421
3304 0 92.6432 13.104 1214 110.293 423.222 462.952
3305 0 93.2496 17.984 1677 106.474 423.448 456.106
3306 0 96.705 17.7137 1713 105.853 423.352 457.524
3307 0 98.3742 16.8133 1654 108.986 422.983 448.109
3308 0 103.438 15.0332 1555 110.46 422.855 448.909
3309 0 112.893 16.3694 1848 106.333 423.141 450.442
3310 0 113.424 17.4302 1977 104.742 422.816 447.708
3311 1 61.4154 15.5498 955 101.439 423.135 472.991
3312 0 64.8926 14.8861 966 103.438 422.852 464.666
3313 0 62.2053 17.0564 1061 103.155 423.003 459.659
3314 0 67.484 19.3083 1303 98.0898 422.223 464.907
3315 0 70.3443 17.3291 1219 100.997 423.249 461.122
3316 0 73.4678 11.0116 809 109.758 422.153 459.866
3317 0 76.4205 17.0111 1300 101.799 422.735 457.818
3318 0 73.3397 16.5395 1213 103.201 423.944 455.459
3319 0 79.6552 23.087 1839 95.1909 423.469 454.519
3320 0 82.9437 15.0825 1251 105.546 424.755 448.274
3321 0 84.3029 15.1596 1278 105.155 425.477 449.732
3322 0 86.4498 20.8098 1799 97.8816 426.007 451.481
3323 0 90.4362 23.4419 2120 95.1844 426.136 450.178
3324 0 93.4008 17.7514 1658 100.335 427.264 446.938
3325 0 95.8266 15.4863 1484 103.296 427.919 442.931
3326 0 98.4848 15.0988 1487 105.102 428.93 438.641
3327 0 104.46 13.8618 1448 105.324 429.49 441.001
3328 1 56.4427 11.3212 639 102.768 429.465 466.654
3329 0 57.1966 14.2666 816 100.604 428.326 460.591
3330 0 61.5557 18.8447 1160 95.3267 429.114 461.148
3331 0 65.3562 23.196 1516 90.2863 429.255 463.397
3332 0 65.1886 14.5271 947 99.5069 430.381 465.404
3333 0 70.2314 18.2255 1280 95.5609 428.905 460.986
3334 0 71.1338 13.2848 945 103.835 431.358 463.004
3335 0 73.1419 14.1916 1038 101.718 430.254 461.88
3336 0 75.3854 10.7978 814 106.473 431.151 462.821
3337 0 78.1681 16.1959 1266 100.697 431.233 462.664
3338 0 81.1681 14.0449 1140 104.537 430.669 456.641
3339 0 84.6938 18.0178 1526 98.6599 429.301 456.356
3340 0 89.6575 16.5742 1486 100.424 430.448 455.673
3341 0 92.856 13.8817 1289 103.988 428.251 458.486
3342 0 94.2759 15.6668 1477 102.953 428.189 457.616
3343 0 100.776 21.1955 2136 96.8998 427.486 450.953
3344 0 98.3774 17.7581 1747 101.615 426.965 453.485
3345 0 104.774 15.0323 1575 104.406 427.163 454.505
3346 1 56.2693 14.6616 825 102.548 425.113 474.016
3347 0 59.238 15.75 933 100.736 425.406 472.792
3348 0 61.0769 17.7645 1085 98.2535 425.277 470.333
3349 0 62.3543 13.9846 872 102.638 425.362 471.851
3350 0 62.1567 11.278 701 104.839 425.375 470.795
3351 0 67.2375 14.8727 1000 102.681 424.161 467.415
3352 0 71.5757 16.3883 1173 100.155 424.075 465.19
3353 0 73.3134 18.0322 1322 97.9826 424.548 463.668
3354 0 73.1858 17.804 1303 99.6961 423.69 460.279
3355 0 76.4391 17.2687 1320 98.9955 423.944 461.424
3356 0 79.1979 16.3262 1293 100.599 423.893 458.244
3357 0 83.5778 13.9989 1170 103.291 424.007 455.862
3358 0 86.9195 18.5344 1611 98.4215 424.877 454.867
3359 0 90.5577 8.84519 801 107.499 424.752 457.662
3360 0 89.6074 16.271 1458 101.088 424.545 451.3
3361 0 91.3848 14.3131 1308 105.709 425.163 446.747
3362 1 60.0538 15.8858 954 98.6488 425.951 466.546
3363 0 56.525 11.517 651 106.47 426.916 465.917
3364 0 58.3557 13.1778 769 106.46 427.689 462.062
3365 0 59.2462 16.0854 953 101.982 428.045 463.259
3366 0 60.2626 13.3416 804 106.077 427.862 460.223
3367 0 64.3406 18.3399 1180 97.578 428.714 465.785
3368 0 63.2027 9.66731 611 108.442 428.342 463.393
3369 0 69.7888 17.424 1216 101.263 429.268 458.481
3370 0 68.1936 17.201 1173 103.289 429.72 458.665
3371 0 73.4418 14.2153 1044 105.755 431.148 459.736
3372 0 75.5496 24.2755 1834 95.1728 430.617 456.821
3373 0 76.2357 19.9119 1518 100.943 430.623 455.93
3374 0 77.187 12.4244 959 109.175 429.964 457.935
3375 0 82.4746 13.1677 1086 108.715 431.38 453.193
3376 0 84.3765 14.1272 1192 108.914 430.258 449.805
3377 0 89.545 15.8468 1419 105.943 430.234 457.322
3378 1 46.3394 12.2358 567 108.078 430.097 475.901
3379 0 48.4704 15.1433 734 102.822 430.613 475.906
3380 0 51.536 18.4337 950 101.334 430.628 471.347
3381 0 50.2789 12.4108 624 108.01 429.917 469.005
3382 0 50.1447 11.766 590 109.181 429.01 472.883
3383 0 54.3017 13.425 729 107.752 429.867 472.288
3384 0 57.3786 17.7766 1020 102.321 427.606 470.757
3385 0 59.54 16.3923 976 103.269 427.529 473.309
3386 0 63.184 17.3145 1094 102.136 428.005 471.543
3387 0 64.7166 14.3086 926 108.306 427.03 468.771
3388 0 63.2947 11.1542 706 112.466 426.793 469.918
3389 0 68.379 13.9517 954 108.495 426.453 470.608
3390 0 71.6075 18.0568 1293 103.323 426.062 466.851
3391 0 71.6075 18.0428 1292 138.324 426.068 466.854
3392 0 72.1398 16.5235 1192 106.445 425.474 465.074
3393 0 78.7325 16.2703 1281 105.026 426.202 464.703
3394 0 75.7126 12.9041 977 111.411 426.157 458.571
3395 0 80.2753 16.3313 1311 106.603 424.728 456.111
3396 0 83.52 14.8228 1238 107.973 425.185 457.464
3397 0 85.553 14.868 1272 108.277 425.017 453.238
3398 0 90.4719 17.4972 1583 104.813 424.641 452.465
3399 0 92.604 13.0772 1211 108.015 424.616 454.575
3400 0 95.4686 18.5401 1770 103.894 424.279 449.128
3401 1 54.2602 15.4994 841 104.451 424.44 465.122
3402 0 54.436 14.4206 785 107.409 423.825 463.898
3403 0 55.308 12.6745 701 109.832 425.009 458.083
3404 0 61.1826 17.8646 1093 103.141 425.149 455.503
3405 0 60.5776 12.4799 756 112.007 425.583 450.828
3406 0 63.6825 16.1112 1026 107.662 424.715 454.998
3407 0 66.4193 18.2477 1212 104.587 426.846 455.405
3408 0 66.6376 17.6477 1176 105.094 427.603 456.475
3409 0 67.6191 16.8591 1140 107.719 427.943 453.123
3410 0 71.2855 17.7455 1265 107.759 428.721 449.296
3411 0 74.8495 16.7804 1256 108.538 428.673 447.307
3412 0 76.8964 15.0982 1161 111.168 428.731 449.652
3413 0 80.2007 17.6183 1413 107.862 429.268 449.198
3414 0 80.9964 18.4206 1492 107.796 430.438 445.987
3415 0 84.4591 16.7182 1412 110.858 431.148 444.692
3416 0 86.4066 15.1609 1310 112.382 431.165 449.14
3417 0 89.9426 16.9441 1524 110.888 430.972 448.157
3418 0 91.5486 14.9866 1372 114.326 431.987 447.848
3419 0 97.6798 17.3321 1693 109.09 432.846 449.927
3420 0 101.843 17.3306 1765 108.357 432.181 448.51
3421 0 103.963 14.4089 1498 113.626 431.507 444.554
3422 1 54.6527 13.0094 711 111.17 430.578 470.537
3423 0 57.4964 16.1401 928 108.977 430.778 468.283
3424 0 62.6298 17.0366 1067 107.807 430.776 465.759
3425 0 62.4638 15.8011 987 111.064 430.182 463.181
3426 0 63.3621 16.3189 1034 110.243 430.205 462.481
3427 0 63.598 14.686 934 111.855 429.44 464.421
3428 0 67.7002 14.6085 989 113.396 429.167 461.347
3429 0 71.4898 14.7713 1056 112.421 428.445 460.745
3430 0 77.2152 16.7843 1296 109.199 428.065 456.708
3431 0 74.1783 16.4334 1219 108.838 427.513 461.891
3432 0 81.4355 16.7494 1364 109.1 427.329 458.803
3433 0 82.3993 14.9759 1234 111.015 426.205 460.029
3434 0 85.8069 15.3484 1317 111.957 426.278 453.764
3435 0 88.3771 15.547 1374 110.215 427.434 454.531
3436 0 90.9336 14.813 1347 111.869 426.682 451.02
3437 0 94.7978 14.7999 1403 115.736 425.673 445.149
3438 0 96.4906 23.9609 2312 103.662 425.022 438.619
3439 0 100.587 14.8827 1497 113.224 425.226 443.548
3440 0 102.755 15.2109 1563 113.239 425.321 439.068
3441 0 106.633 14.6578 1563 113.381 425.141 439.537
3442 0 113.911 15.2487 1737 111.851 425.189 439.045
3443 1 61.6038 13.9115 857 110.685 425.965 458.137
3444 0 64.5871 16.0558 1037 107.535 425.107 454.068
3445 0 65.3649 16.8745 1103 107.486 424.15 453.282
3446 0 65.2336 11.6198 758 115.11 425.037 451.524
3447 0 70.5626 14.9087 1052 110.576 426.591 444.904
3448 0 74.8019 13.6494 1021 111.41 426.102 449.964
3449 0 75.4801 14.6264 1104 110.062 426.784 448.881
3450 0 80.0866 14.5967 1169 110.287 426.71 446.478
3451 0 80.7744 14.1877 1146 111.093 427.401 446.488
3452 0 85.6648 18.1872 1558 105.115 426.633 444.703
3453 0 85.6618 15.7947 1353 109.312 428.22 438.086
3454 0 90.5618 13.8248 1252 110.572 427.721 442.955
3455 0 95.9996 14.1667 1360 110.957 429.54 438.171
3456 0 96.6912 13.5069 1306 113.326 429.004 432.576
3457 0 100.702 15.6501 1576 109.89 428.751 432.52
3458 0 101.73 11.1275 1132 116.078 428.852 437.281
3459 0 104.732 15.0002 1571 111.297 429.698 432.881
3460 0 108.56 13.0988 1422 113.576 428.846 433.133
3461 0 112.809 16.6742 1881 107.942 430.156 430.495
3462 0 121.407 17.8573 2168 105.249 429.511 430.946
3463 0 121.702 15.9652 1943 108.021 429.072 427.361
3464 0 131.19 16.0988 2112 105.488 429.48 426.882
3465 0 131.545 17.4237 2292 104.389 429.461 424.068
3466 0 136.613 11.3605 1552 113.063 428.849 420.539
3467 0 141.539 15.7553 2230 107.46 428.488 421.905
3468 0 148.588 17.7672 2640 103.91 429.495 428.72
3469 0 156.696 16.5799 2598 105.681 428.403 423.525
3470 0 155.99 11.802 1841 112.942 429.389 421.735
3471 1 166.326 20.4899 3408 102.282 429.315 419.809
3472 1 86.3619 7.70015 665 108.636 427.429 446.468
3473 0 91.374 7.51855 687 104.882 428.266 453.523
3474 0 95.5745 11.185 1069 105.018 427.326 442.594
3475 0 95.4351 10.8346 1034 105.723 426.426 443.199
3476 0 101.477 12.9192 1311 100.914 425.78 448.784
3477 0 104.689 11.472 1201 101.628 425.512 450.252
3478 0 104.368 11.4403 1194 104.134 423.619 441.494
3479 0 108.258 14.0867 1525 100.947 424.087 442.176
3480 0 112.496 15.4139 1734 98.9348 424.713 446.648
3481 0 110.293 10.0641 1110 107.268 423.492 435.667
3482 0 114.523 11.9626 1370 104.651 423.538 434.284
3483 0 120.426 9.07614 1093 107.012 423.692 435.272
3484 0 120.327 6.68177 804 107.544 424.104 441.046
3485 0 196.81 12.6264 2485 108.191 423.504 401.045
3486 0 203.581 11.9657 2436 108.443 424.155 401.8
3487 0 208.517 10.2006 2127 111.846 423.661 388.784
3488 0 218.077 11.9912 2615 110.331 424.472 382.588
3489 0 225.233 15.4684 3484 106.439 424.732 382.333
3490 0 232.117 15.8885 3688 106.823 423.183 366.724
3491 1 146.562 9.15651 1342 107.199 424.692 429.238
3492 0 150.911 9.62821 1453 110.075 425.132 416.188
3493 0 155.174 14.0874 2186 105.131 424.365 415.781
3494 0 159.366 13.6102 2169 105.537 425.616 414.991
3495 0 160.014 10.3929 1663 112.387 424.672 401.052
3496 0 166.781 10.6067 1769 110.465 425.415 412.658
3497 0 172.701 12.6577 2186 107.874 425.268 407.736
3498 0 176.925 12.3837 2191 107.877 426.239 409.335
3499 0 175.652 12.5931 2212 106.369 426.595 413.037
3500 1 186.609 13.8096 2577 107.748 427.238 400.633
3501 0 192.732 17.4387 3361 104.278 427.486 389.228
3502 0 197.546 11.8302 2337 110.75 428.148 392.774
3503 0 204.555 16.5872 3393 105.185 427.832 391.027
3504 0 209.718 13.3179 2793 105.864 427.508 406.541
3505 0 218.785 12.3271 2697 110.288 427.479 386.314
3506 0 224.72 12.6157 2835 109.443 427.169 391.285
3507 0 233.632 17.6003 4112 105.125 427.605 379.787
3508 0 243.018 16.04 3898 107.497 427.998 376.242
3509 0 244.892 10.376 2541 110.749 426.683 397.38
3510 0 253.167 13.0151 3295 112.37 427.655 375.796
3511 0 364.352 18.3696 6693 108.163 427.017 297.988
3512 1 56.1414 9.74325 547 94.6508 425.708 481.945
3513 0 56.2845 10.0738 567 96.642 426.653 473.612
3514 0 62.4222 11.5824 723 94.4191 425.141 473.192
3515 0 68.6635 12.8744 884 98.448 424.094 470.449
3516 0 69.3811 19.8469 1377 90.5556 422.471 470.997
3517 0 68.3577 9.94767 680 104.251 421.743 467.463
3518 0 71.7211 12.4928 896 99.4163 423.184 466.935
3521 0 190.057 12.0964 2299 95.2866 420.704 415.347
3522 0 189.515 15.1862 2878 91.8478 421.349 402.855
3523 0 199.959 25.1001 5019 82.9524 420.347 410.387
3524 1 116.156 23.8902 2775 81.9726 419.261 450.914
3525 0 116.486 26.8616 3129 80.1358 419.4 449.934
3526 0 107.135 15.7466 1687 91.3124 419.958 452.816
3527 1 48.2907 8.46954 409 95.7531 421.716 472.873
3528 0 53.3021 16.6598 888 86.4718 424.252 458.325
3529 0 56.2056 13.8598 779 88.887 424.774 457.451
3530 0 55.495 15.9474 885 88.8068 424.782 451.748
3531 0 65.3182 21.755 1421 80.3589 424.056 467.467
3532 0 62.1317 17.9618 1116 85.2688 425.016 464.744
3533 0 55.0938 7.78673 429 96.3939 424.394 467.496
3534 0 59.4436 13.3236 792 90.0265 424.345 466.746
3535 0 59.1257 13.6658 808 90.4431 423.766 468.246
3536 0 61.1347 13.3149 814 91.4803 423.717 463.867
3537 0 64.3161 14.0867 906 89.5541 423.288 466.517
3538 0 67.4882 18.8774 1274 84.4843 423.417 469.161
3539 0 69.2371 18.6461 1291 85.4268 425.15 465.817
3540 0 69.5847 13.4081 933 91.3376 425.871 457.624
3541 0 71.242 11.8469 844 91.481 424.646 465.885
3542 0 71.4456 13.2968 950 89.7716 425.782 467.025
3543 0 73.3476 20.0007 1467 86.1098 425.94 462.864
3544 0 73.3606 22.4644 1648 83.3058 426.133 465.411
3545 0 75.0796 12.0006 901 92.2375 426.469 463.961
3546 0 80.2004 16.3092 1308 88.8341 426.711 463.952
3547 0 80.4359 19.0587 1533 87.1174 426.55 459.688
3548 0 83.1859 15.8921 1322 88.5756 426.331 467.436
3549 0 86.1768 12.1146 1044 94.1964 426.41 463.625
3550 0 90.4342 14.9059 1348 91.3524 426.662 461.474
3551 0 91.129 14.046 1280 92.4094 425.663 463.938
3552 1 51.3506 17.0397 875 88.928 426.701 474.029
3553 0 49.7589 12.9625 645 94.4062 426.678 471.873
3554 0 54.319 14.3964 782 94.5499 426.469 480.437
3555 0 56.3941 11.4728 647 96.4869 427.366 480.767
3556 0 57.6455 18.8913 1089 90.696 426.254 477.638
3557 0 62.6085 17.6014 1102 90.3593 426.893 479.759
3558 0 62.5731 13.6161 852 95.6655 425.627 475.73
3559 0 61.4819 16.5577 1018 92.6974 424.683 477.988
3560 0 62.7441 14.1846 890 94.6135 423.947 475.658
3561 0 69.1203 21.5711 1491 87.389 423.125 473.961
3562 0 70.2158 15.1675 1065 90.3024 421.513 473.516
3563 0 70.4592 8.70007 613 97.6297 421.354 467.75
3564 0 72.1635 18.7214 1351 87.7831 420.79 472.594
3565 0 75.3998 11.7772 888 93.6836 421.694 472.301
3566 0 79.3217 16.3385 1296 89.7832 421.239 469.501
3567 0 81.7564 12.8308 1049 94.9886 421.817 461.151
3568 0 87.2769 14.7232 1285 92.2405 421.851 462.718
3569 0 85.6294 13.2314 1133 91.6911 421.786 467.403
3570 0 84.6146 14.832 1255 139.956 422.942 459.626
3571 0 89.8983 17.4308 1567 91.1289 421.209 452.828
3572 0 92.6441 11.0854 1027 96.8111 420.655 450.471
3573 0 88.865 10.8592 965 97.0912 420.982 449.884
3574 0 99.4686 19.393 1929 88.3463 421.721 451.645
3575 0 99.8421 14.9336 1491 91.6566 421.683 454.29
3576 0 104.9 14.0515 1474 95.618 422.543 438.947
3577 0 111.9 18.2573 2043 90.2756 421.952 447.898
3578 0 111.585 12.43 1387 97.8118 423.12 436.214
3579 0 116.887 19.5402 2284 90.1668 421.949 445.7
3580 0 119.26 14.5564 1736 97.2661 422.217 444.742
3581 1 61.456 13.3754 822 95.5256 422.692 466.224
3582 0 69.6144 15.6864 1092 93.1282 423.106 462.964
3583 0 68.4604 13.2193 905 96.8718 423.42 459.91
3584 0 69.4076 13.9178 966 96.3116 424.833 464.652
3585 0 73.1902 16.0814 1177 95.8054 424.393 456.974
3586 0 76.2419 18.9004 1441 93.4608 425.519 460.407
3587 0 80.049 16.5024 1321 96.4769 424.835 456.902
3588 0 82.5646 16.2297 1340 97.0351 426.471 456.382
3589 0 84.486 15.8606 1340 97.8075 426.563 455.893
3590 0 86.2608 16.9138 1459 97.0637 426.299 455.665
3591 0 90.545 15.5834 1411 99.915 426.921 451.379
3592 0 95.6316 17.2223 1647 96.5246 426.621 457.107
3593 0 93.3361 14.9031 1391 102.246 427.3 448.96
3594 0 97.3413 15.4097 1500 102.17 427.543 450.049
3595 0 100.786 14.893 1501 102.217 427.262 452.5
3596 0 105.225 13.3904 1409 103.627 427.379 452.529
3597 0 107.48 14.412 1549 104.54 427.799 447.192
3598 0 114.459 14.3545 1643 103.087 426.273 452.487
3599 0 123.481 18.3267 2263 96.5294 424.481 452.776
3600 0 120.646 12.7812 1542 104.983 425.722 447.121
3601 0 127.601 15.6582 1998 101.216 425.771 445.175
3602 1 73.4257 14.9539 1098 98.6348 423.808 470.214
3603 0 75.2214 13.6397 1026 100.936 423.341 470.676
3604 0 76.448 14.402 1101 99.7711 422.121 470.625
3605 0 80.1896 19.9402 1599 93.6892 423.483 470.39
3606 0 81.1613 18.9499 1538 96.1235 422.484 463.345
3607 0 84.2928 13.4412 1133 100.789 421.431 464.214
3608 0 88.1753 17.1136 1509 96.5507 421.419 461.201
3609 0 90.2546 12.0659 1089 102.192 421.306 458.089
3610 0 93.4254 16.6978 1560 98.159 421.138 456.244
3611 0 95.2845 20.8743 1989 94.3087 421.642 458.119
3612 0 95.2972 14.439 1376 102.741 420.359 449.915
3613 0 98.353 14.7937 1455 102.961 421.072 452.162
3614 0 101.35 15.5205 1573 101.261 420.338 452.79
3615 0 104.25 16.2111 1690 102.394 420.544 449.66
3616 0 109.84 17.9352 1970 100.587 420.956 441.965
3617 0 112.929 15.284 1726 103.117 420.163 443.157
3618 0 116.305 15.3476 1785 100.164 420.687 440.909
3619 1 66.1262 14.7899 978 94.4704 419.67 466.479
3620 0 66.3049 17.872 1185 92.1376 420.007 463.595
3621 0 71.2924 13.0308 929 96.5059 420.424 463.547
3622 0 71.2331 20.4961 1460 89.4952 420.716 460.986
3623 0 73.2286 17.6161 1290 94.3233 421.293 454.095
3624 0 76.4 16.8455 1287 96.2541 421.64 456.574
3625 0 78.3658 15.8232 1240 97.0234 422.674 458.616
3626 0 79.4557 11.8557 942 108.495 422.571 452.295
3627 0 86.4871 16.8464 1457 101.77 423.776 451.839
3628 0 84.231 16.9771 1430 103.506 424.973 452.405
3629 0 87.1637 16.578 1445 104.213 424.778 450.31
3630 0 93.4416 19.167 1791 100.193 425.297 453.001
3631 0 90.2655 12.851 1160 109.838 424.559 452.216
3632 0 97.3703 15.9905 1557 105.578 425.925 445.622
3633 0 100.379 14.7541 1481 107.327 424.883 445.649
3634 0 102.427 15.0546 1542 107.324 425.855 447.045
3635 0 106.413 19.7155 2098 100.461 427.53 447.35
3636 0 110.252 15.5372 1713 106.552 427.52 441.433
3637 0 112.316 15.2783 1716 106.652 427.442 439.04
3638 0 118.555 14.1031 1672 106.343 428.688 439.243
3639 1 66.3598 12.9295 858 104.984 427.741 466.148
3640 0 74.3512 12.2123 908 103.714 428.544 469.606
3641 0 73.404 19.1406 1405 97.7694 426.558 468.394
3642 0 79.4157 15.1104 1200 102.578 426.953 465.981
3643 0 79.3132 11.5365 915 106.805 426.593 465.826
3644 0 81.3729 22.231 1809 95.4456 425.798 462.568
3645 0 86.5967 15.6357 1354 102.363 425.803 463.122
3646 0 86.3086 13.6719 1180 106.044 424.817 460.523
3647 0 90.1442 17.2945 1559 100.718 424.434 461.423
3648 0 94.5521 12.9135 1221 106.777 424.757 452.372
3649 0 98.3903 16.1398 1588 102.679 424.055 450.391
3650 0 96.2674 12.7665 1229 107.688 423.388 455.491
3651 0 104.346 18.9849 1981 97.0338 423.516 458.439
3652 0 104.333 17.0895 1783 100.117 423.077 453.228
3653 0 109.284 16.0317 1752 100.044 422.272 447.349
3654 0 108.377 13.3146 1443 105.252 420.656 448.915
3655 0 115.553 16.01 1850 101.967 421.691 443.99
3656 1 64.1183 14.0522 901 101.711 422.397 468.07
3657 0 64.5366 12.3341 796 104.441 422.34 469.668
3658 0 71.1811 21.5928 1537 93.5088 421.879 461.771
3659 0 71.2574 15.7036 1119 100.579 422.49 460.138
3660 0 76.2003 18.2676 1392 96.7442 423.422 463.795
3661 0 77.1639 15.8364 1222 99.6489 423.972 463.194
3662 0 79.4098 12.8574 1021 104.353 423.974 457.34
3663 0 83.3285 15.5529 1296 100.367 424.052 457.481
3664 0 83.1485 12.8445 1068 103.621 424.559 458.192
3665 0 85.191 16.0815 1370 99.535 423.715 458.531
3666 0 87.1269 16.5735 1444 99.421 424.676 456.427
3667 0 96.317 13.7774 1327 102.207 424.396 453.659
3668 0 93.1832 13.4788 1256 105.264 424.577 447.912
3669 0 97.2797 15.5531 1513 103.595 425.315 442.899
3670 0 102.353 16.5506 1694 100.679 424.73 450.029
3671 0 105.34 18.4356 1942 100.221 425.533 441.092
3672 0 108.464 16.1159 1748 102.054 426.894 446.685
3673 0 109.349 13.5163 1478 107.537 427.459 439.81
3674 0 117.239 19.1319 2243 99.9505 428.288 440.587
3675 0 119.387 17.8914 2136 102.004 428.019 437.051
3676 0 124.474 15.8507 1973 106.954 427.125 435.598
3677 0 129.736 17.3429 2250 104.026 428.263 434.284
3678 0 132.368 15.3058 2026 103.974 427.882 435.321
3679 0 136.629 13.2476 1810 106.972 427.242 433.485
3680 0 143.401 14.5605 2088 103.758 427.446 433.662
3681 1 84.1511 12.4894 1051 105.412 427.197 461.196
3682 0 87.2154 16.7402 1460 100.371 427.311 458.091
3683 0 91.2672 15.5697 1421 100.552 427.277 463.175
3684 0 93.2147 13.2704 1237 105.652 426.555 453.643
3685 0 98.2095 13.9905 1374 104.694 426.476 455.583
3686 0 99.2995 14.4613 1436 104.029 426.496 458.269
3687 0 104.456 17.9406 1874 99.588 426.622 456.983
3688 0 102.37 9.6708 990 110.991 425.491 457.132
3689 0 110.511 14.8311 1639 106.644 425.721 453.472
3690 0 114.263 16.0856 1838 104.345 424.94 452.916
3691 0 117.455 15.5974 1832 106.172 425.362 445.176
3692 0 121.384 16.1635 1962 105.922 424.84 441.132
3693 0 126.391 16.9553 2143 104.449 423.219 440.706
3694 0 130.428 18.7 2439 101.356 423.097 442.774
3695 0 132.392 16.6551 2205 100.972 422.313 436
3696 0 139.279 15.451 2152 102.538 422.239 431.113
3697 0 144.752 12.6285 1828 104.346 421.453 439.806
3698 0 146.286 14.4033 2107 103.874 420.763 431.424
3699 0 152.559 18.2553 2785 99.5426 420.025 425.96
3700 0 154.487 11.9751 1850 106.397 420.391 428.919
3701 0 160.35 17.7487 2846 100.038 419.833 425.991
3702 0 167.502 21.0683 3529 95.7912 420.718 424.031
3703 0 170.604 15.662 2672 103.593 420.436 408.22
3704 1 99.3934 13.2604 1318 102.593 422.185 447.813
3705 0 103.508 15.2162 1575 99.3517 422.785 445.119
3706 0 103.628 12.5834 1304 102.208 422.929 441.811
3707 0 107.245 13.2314 1419 102.041 422.81 442.068
3708 0 113.3 15.5164 1758 99.3521 423.227 438.746
3709 0 115.575 12.6497 1462 102.984 423.992 438.302
3710 0 114.594 14.9047 1708 100.144 424.334 442.03
3711 0 120.353 16.4931 1985 98.6826 425.044 429.551
3712 0 125.577 15.2416 1914 100.446 423.587 430.771
3713 0 126.615 15.1719 1921 100.844 424.473 428.555
3714 0 132.646 17.8897 2373 97.0539 426.521 426.96
3715 0 136.3 14.5928 1989 100.09 426.7 432.113
3716 0 142.544 18.0576 2574 96.1939 427.5 431.834
3717 0 146.562 13.3254 1953 100.443 426.923 434.94
3718 0 152.527 17.1314 2613 99.2105 427.186 419.785
3719 0 157.502 17.3458 2732 98.4623 427.946 422.758
3720 0 159.479 15.7951 2519 101.468 427.428 417.16
3721 0 159.643 13.524 2159 104.267 428.334 418.146
3722 0 169.716 13.4872 2289 104.76 426.188 410.041
3723 0 177.822 21.1223 3756 93.8813 426.893 420.802
3724 0 183.667 18.833 3459 98.0908 427.326 405.683
3725 0 191.141 24.3118 4647 92.5647 426.641 409.134
3726 0 194.704 19.1522 3729 97.3642 426.432 409.125
3727 0 199.678 22.4462 4482 93.8374 426.386 408.79
3728 0 199.623 12.7741 2550 104.927 425.368 406.989
3729 0 310.227 17.7676 5512 101.285 427.072 353.586
3730 0 310.243 14.1824 4400 105.508 425.299 351.449
3731 0 308.532 12.1446 3747 108.434 426.245 352.847
3732 0 346.691 19.1641 6644 99.6436 425.53 328.65
3733 0 342.204 9.37744 3209 107.846 425.198 360.844
3734 0 342.154 13.3332 4562 104.669 423.696 329.977
3735 0 63.1153 5.86229 370 101.605 422.443 467.711
3736 0 68.5248 16.7239 1146 91.0166 422.736 465.827
3737 0 70.5846 13.0198 919 94.16 422.338 469.041
3738 0 70.6164 17.2056 1215 90.456 420.363 469.614
3739 0 72.5253 15.829 1148 93.4033 421.302 461.308
3740 0 73.3386 13.3627 980 94.9041 420.562 463.232
3741 0 77.7031 19.9735 1552 86.9832 421.04 463.65
3742 0 80.4241 18.9993 1528 87.4666 420.444 465.916
3743 0 81.4053 12.4685 1015 95.0345 420.134 459.151
3744 0 82.392 13.6907 1128 94.125 420.757 457.613
3745 0 85.6683 14.918 1278 96.0626 420.171 452.221
3746 0 87.3946 18.2162 1592 89.9667 421.009 456.303
3747 0 88.6662 9.38351 832 100.709 419.403 452.472
3748 0 91.4742 10.5276 963 100.073 421.418 446.528
3749 0 95.4295 16.3367 1559 92.5106 420.464 449.189
3750 0 98.2856 13.593 1336 97.9229 422.552 441.998
3751 1 56.225 12.9658 729 93.8258 421.565 463.945
3752 0 59.2268 11.4475 678 94.2965 421.391 465.329
3753 0 61.2299 13.0818 801 91.2035 422.688 461.375
3754 0 61.4539 9.6007 590 98.7085 423.842 461.114
3755 0 66.2545 17.4026 1153 89.7693 424.15 463.458
3756 0 67.3808 13.2085 890 96.5663 425.908 457.574
3757 0 66.1672 11.5767 766 97.5535 426.155 460.828
3758 0 68.218 13.8526 945 98.6074 426.931 455.278
3759 0 70.3006 12.5177 880 100.38 427.817 455.048
3760 0 75.0691 17.2774 1297 92.347 427.707 459.887
3761 1 135.449 13.4073 1816 99.6211 427.093 433.389
3762 0 142.371 18.0093 2564 95.1459 428.037 430.449
3763 1 83.2461 14.6794 1222 94.9206 428.377 462.496
3764 0 81.3822 20.0412 1631 91.8596 427.808 459.25
3765 0 83.2308 16.0397 1335 97.6569 429.179 454.16
3766 0 86.2654 15.1393 1306 98.6899 428.369 452.457
3767 0 91.1863 13.8508 1263 100.562 430.224 454.413
3768 0 93.2439 18.768 1750 94.504 428.934 457.409
3769 0 93.0984 15.8327 1474 98.9688 429.777 457.816
3770 0 97.3157 17.4175 1695 98.9711 428.949 454.706
3771 0 100.284 14.6882 1473 101.95 429.779 452.91
3772 0 99.2219 16.5488 1642 98.8745 427.68 458.473
3773 0 107.206 15.4002 1651 100.562 428.585 454.821
3774 0 104.252 15.6831 1635 102.366 426.867 453.792
3775 0 108.232 16.0489 1737 102.689 426.805 449.484
3776 0 111.278 14.2256 1583 105.813 425.533 448.694
3777 0 111.278 14.2166 1582 155.886 424.536 448.61
3778 0 117.179 14.4992 1699 102.128 424.664 446.376
3779 0 120.325 13.5217 1627 104.01 422.497 440.994
3780 1 68.1279 15.4562 1053 96.774 423.93 465.351
3781 0 71.2575 12.6022 898 99.4031 423.172 464.176
3782 0 74.3612 15.9761 1188 94.2567 422.707 466.852
3783 0 75.2235 12.31 926 99.716 423.368 460.462
3784 0 73.2327 10.4871 768 104.688 422.717 462.307
3785 0 78.2235 17.5778 1375 96.2422 422.795 457.796
3786 0 79.2206 13.1532 1042 100.205 423.69 460.604
3787 0 82.2232 13.0377 1072 101.183 421.618 457.709
3788 0 86.4839 16.2227 1403 96.6536 422.288 457.06
3789 0 86.2434 22.9467 1979 90.1066 422.432 455.589
3790 0 88.1789 16.9428 1494 97.176 423.12 451.837
3791 0 90.5698 15.7227 1424 99.1678 422.391 447.019
3792 0 93.5208 15.5687 1456 98.796 424.407 444.677
3793 0 93.2906 12.5307 1169 102.571 422.779 447.21
3794 0 97.4842 15.3768 1499 98.8559 422.928 445.41
3795 0 99.4171 17.3411 1724 97.8138 424.079 439.755
3796 0 102.308 16.9097 1730 98.6139 424.666 438.829
3797 0 102.643 14.8768 1527 101.674 425.629 439.446
3798 0 109.614 15.6275 1713 100.556 425.715 437.189
3799 0 110.344 20.282 2238 95.8923 424.902 437.311
3800 0 116.533 23.2294 2707 93.1352 425.276 423.756
3801 0 118.599 16.3661 1941 101.657 425.534 424.149
3802 0 121.278 12.2446 1485 103.605 426.496 422.05
3803 0 125.38 12.3385 1547 103.054 426.348 422.442
3804 0 131.484 13.9865 1839 101.176 426.995 424.496
3805 0 135.412 12.7906 1732 104.837 428.063 416.874
3806 0 141.224 14.2044 2006 103.249 427.233 419.978
3807 0 145.543 14.5936 2124 102.22 427.344 420.726
3808 1 85.2559 14.2278 1213 96.2201 429.458 450.937
3809 0 87.2389 14.8328 1294 94.0734 428.172 459.628
3810 0 88.3501 14.069 1243 97.2438 427.199 453.138
3811 0 95.2627 13.5625 1292 97.9242 426.988 455.59
3812 0 95.2619 12.8803 1227 99.8598 427.676 454.786
3813 0 96.4857 14.2094 1371 99.4099 428.36 444.356
3814 0 99.4063 12.6954 1262 102.326 426.437 449.752
3815 0 99.3475 11.9077 1183 104.366 426.425 445.342
3816 0 96.7376 6.161 596 111.347 425.154 445.998
3817 0 103.768 10.9764 1139 137.865 423.189 440.893
3818 0 112.244 14.4328 1620 104.606 425.865 443.238
3819 0 116.244 13.0157 1513 106.198 423.512 444.966
3820 0 123.272 12.8821 1588 106.072 421.737 444.253
3821 0 127.222 17.772 2261 100.612 422.97 442.976
3822 1 74.1885 13.0074 965 99.7886 421.658 468.532
3823 0 77.3211 12.9848 1004 98.251 421.845 470.207
3824 0 79.5293 10.0215 797 104.523 423.226 461.438
3825 0 82.1773 12.2905 1010 101.442 421.779 460.447
3826 0 82.3736 15.5268 1279 97.6747 422.01 461.081
3827 0 82.1675 10.6246 873 106.049 422.698 455.722
3828 0 89.1782 15.6316 1394 99.9017 420.859 451.418
3829 0 90.1692 14.4506 1303 101.756 419.807 447.846
3830 0 92.5 15.3405 1419 100.761 420.429 448.571
3831 0 95.4358 10.6983 1021 105.929 419.725 449.398
3832 0 97.602 14.8255 1447 101.472 420.424 445.145
3833 0 100.486 15.4549 1553 101.571 421.071 441.374
3834 0 98.7042 12.0967 1194 106.865 421.159 439.049
3835 0 105.775 12.867 1361 104.871 420.585 438.394
3836 0 110.446 14.5501 1607 102.273 421.658 438.91
3837 0 110.621 9.50991 1052 110.158 422.817 436.467
3838 0 115.496 15.3512 1773 102.556 423.323 433.853
3839 0 120.751 18.8901 2281 97.5892 423.013 433.935
3840 0 125.459 15.4791 1942 101.745 423.573 429.959
3841 1 74.2918 13.7835 1024 100.426 424.876 452.668
