time division length width area intensity CMx CMy
0 0 34.0254 12.4025 422 141.844 894.592 475.047
1 0 34.058 13.8881 473 137.004 893.744 476.178
2 0 35.0395 11.6725 409 136.213 892.491 474.99
3 0 35.0111 12.796 448 140.353 892.366 475.062
4 0 38.0558 13.9269 530 128.596 892.809 475.447
5 0 38.0145 15.9939 608 123.863 891.707 476.252
6 0 37.0296 13.2596 491 133.153 889.974 473.261
7 0 39.0983 15.0646 589 133.443 889.604 473.109
8 0 40.0173 14.0689 563 130.826 890 473.144
9 0 41.0686 15.3158 629 130.157 887.558 474.782
10 0 43.0917 15.5482 670 129.13 887.825 474.063
11 0 46.1642 17.4377 805 122.446 885.831 470.212
12 0 44.0756 12.7962 564 136.638 885.864 469.94
13 0 46.0565 14.1782 653 132.665 886.116 468.124
14 0 48.0187 15.369 738 129.499 886.046 466.138
15 0 49.2474 14.5388 716 129.197 886.472 465.735
16 0 52.0661 15.3075 797 128.27 886.617 461.437
17 0 51.0739 13.2161 675 128.843 886.905 460.59
18 0 55.1457 12.8025 706 124.048 887.633 462.425
19 0 55.1457 12.8025 706 146.707 888.673 462.394
20 0 58.1319 15.3788 894 127.126 886.586 453.79
21 0 62.0689 13.7428 853 127.971 887.864 450.838
22 0 62.0933 15.6217 970 127.048 887.376 450.279
23 0 66.0487 16.7452 1106 122.776 890.453 450.612
24 0 69.1323 15.521 1073 124.924 888.687 450.274
25 0 73.34 14.9441 1096 124.366 891.105 447.1
26 1 40.0925 15.8633 636 122.533 890.239 462.42
27 0 39.1012 12.148 475 131.015 891.465 459.352
28 0 43.0941 14.4799 624 124.569 892.2 459.819
29 0 45.1083 17.0035 767 115.681 894.919 460.527
30 0 47.112 15.4525 728 118.893 896.038 458.427
31 0 48.1502 15.4932 746 119.613 896.489 457.292
32 0 51.1483 18.8863 966 111.481 896.764 458.919
33 0 51.0721 16.0166 818 114.98 898.039 460.098
34 0 51.2881 19.0687 978 112.373 898.104 454.061
35 0 56.1153 20.1193 1129 110.409 899.02 458.484
36 0 55.2463 14.4263 797 120.699 898.06 457.232
37 0 59.0427 13.2616 783 119.291 900.089 459.834
38 0 62.1142 17.8542 1109 110.615 898.667 459.036
39 0 60.0762 16.246 976 113.75 899.986 460.804
40 0 65.3744 20.3749 1332 105.315 899.559 460.43
41 0 65.1467 15.5956 1016 115.325 899.018 460.228
42 0 69.1803 16.8834 1168 114.973 897.566 457.158
43 0 69.2581 16.1281 1117 116.927 897.757 452.347
44 0 71.2294 14.7271 1049 116.848 896.528 454.034
45 0 77.1134 14.563 1123 121.105 896.369 458.946
46 0 77.1134 14.537 1121 155.335 895.358 458.916
47 0 82.2236 14.716 1210 129.621 894.907 452.983
48 0 83.3197 16.3707 1364 125.056 894.357 450.943
49 0 87.1563 17.2678 1505 125.505 893.554 449.605
50 1 48.2329 12.7299 614 123.345 893.041 473.29
51 0 47.1426 13.2789 626 128.712 894.211 466.984
52 0 47.1426 13.3213 628 146.274 893.177 467.021
53 0 50.1336 15.7978 792 123.413 891.299 463.88
54 0 52.1313 14.0798 734 125.726 889.992 467.076
55 0 55.1123 13.7719 759 124.401 889.191 465.864
56 0 55.1001 12.0326 663 127.27 888.561 465.538
57 0 57.1862 14.9337 854 123.375 888.041 460.888
58 0 62.2788 16.0247 998 120.919 887.653 459.037
59 0 63.1196 15.6212 986 122.955 887.322 456.54
60 0 66.1412 15.0889 998 123.089 887.767 457.923
61 0 65.1074 15.2056 990 124.235 887.737 453.4
62 0 70.1653 14.6084 1025 125.439 887.118 450.378
63 0 73.5446 14.9841 1102 125.965 886.867 449.77
64 0 73.168 13.6262 997 129.634 887.403 445.621
65 0 79.1201 15.7229 1244 124.116 888.08 446.979
66 0 79.22 14.2893 1132 127.386 887.219 446.145
67 0 83.182 15.3759 1279 125.776 888.624 443.273
68 0 84.1385 14.1315 1189 129.135 889.028 440.536
69 0 89.1218 13.9584 1244 128.836 888.904 438.989
70 0 93.4799 18.9132 1768 120.352 890.278 436.07
71 1 50.1148 11.2342 563 127.186 889.476 459.147
72 0 53.0986 12.3167 654 124.667 890.628 456.838
73 0 55.054 11.8793 654 122.109 891.687 457.939
74 0 53.2211 7.79766 415 131.716 891.877 456.988
75 0 58.1082 15.7121 913 117.545 892.889 455.717
76 0 60.3423 14.6995 887 119.176 893.422 454.439
77 0 61.3298 14.903 914 118.836 893.411 456.333
78 0 68.5243 15.002 1028 118.558 894.088 453.487
79 0 68.1195 14.7682 1006 119.47 894.739 454.87
80 0 68.2669 13.7988 942 122.442 896.162 454.32
81 0 69.1553 14.3445 992 122.131 896.337 455.031
82 0 73.241 12.8616 942 125.476 895.421 451.268
83 0 77.2808 13.9879 1081 123.608 895.04 452.957
84 0 78.1966 14.016 1096 124.961 894.839 449.789
85 0 82.177 14.1402 1162 125.842 894.687 451.229
86 0 85.2604 13.8634 1182 126.19 895.169 452.343
87 0 87.2151 12.6813 1106 128.121 894.111 451.408
88 0 88.3288 9.53256 842 134.848 893.664 448.145
89 1 46.1 10.8026 498 123.689 893.49 475.147
90 0 50.0332 12.6916 635 118.139 893.257 475.099
91 0 49.1362 10.9695 539 122.937 893.455 474.325
92 0 51.2293 12.2 625 126.184 893.445 473.146
93 0 53.1975 12.4254 661 127.564 892.912 470.399
94 0 57.2015 13.6535 781 124.778 890.968 469.594
95 0 58.2059 13.3835 779 125.571 891.375 467.85
96 0 56.131 10.9565 615 130.946 887.551 467.48
97 0 60.1864 11.913 717 127.583 889.937 468.116
98 0 63.2529 13.9598 883 123.522 887.574 465.125
99 0 64.1868 11.9495 767 128.581 886.619 460.666
100 0 68.3096 14.1561 967 124.09 886.555 461.344
101 0 68.3494 12.8458 878 127.828 885.844 458.301
102 0 68.3494 12.8604 879 140.231 885.838 458.347
103 0 77.0942 14.1775 1093 125.691 885.182 453.735
104 0 78.1989 14.7189 1151 124.231 885.307 453.686
105 0 77.168 12.3238 951 127.891 885.037 454.213
106 0 83.599 13.9475 1166 127.301 885.726 446.593
107 0 84.3835 12.7869 1079 130.131 883.892 446.128
108 1 47.0401 11.0544 520 127.115 884.225 465.067
109 0 49.0399 13.907 682 123.081 884.663 462.808
110 0 50.1295 12.9265 648 124.424 885.73 458.625
111 0 49.1561 12.8773 633 122.983 886.33 458.393
112 0 52.1037 13.6842 713 123.049 885.564 459.475
113 0 55.0305 12.9565 713 125.056 886.809 458.029
114 0 53.1422 10.5189 559 130.377 887.868 459.898
115 0 56.0397 11.0636 620 130.903 888.164 456.54
116 0 57.0369 12.4481 710 126.739 888.248 458.239
117 0 61.0835 12.573 768 128.835 889.044 454.908
118 0 62.1127 13.1374 816 126.297 890.25 455.262
119 0 62.1127 13.1535 817 149.815 891.229 455.224
120 0 66.1526 13.3782 885 127.863 892.209 451.898
121 0 70.1407 13.4016 940 128.565 891.47 451.696
122 0 73.1167 14.7025 1075 125.217 892.675 451.09
123 0 75.2796 14.2402 1072 124.255 892.612 455.568
124 0 77.3537 14.3367 1109 126.044 894.404 448.159
125 0 78.2642 12.905 1010 128.666 894.361 451.18
126 0 79.272 11.9588 948 130.719 895.149 450.901
127 0 82.1792 11.2316 923 133.068 894.7 448.622
128 0 87.6393 14.651 1284 125.37 893.312 450.416
129 0 89.6439 17.4468 1564 121.686 893.301 446.237
130 0 93.4281 19.2233 1796 117.87 892.493 448.786
131 1 45.1739 11.1126 502 126.839 892.321 470.896
132 0 48.3626 11.9721 579 125.639 889.7 469.511
133 0 47.6091 8.73782 416 120.731 890.774 467.24
134 0 51.2753 11.0579 567 115.028 890.228 467.619
135 0 49.0804 11.4302 561 122.499 890.143 472.467
136 0 51.1829 10.9412 560 124.518 892.588 469.975
137 0 54.1207 14.3014 774 118.775 889.686 471.368
138 0 56.1102 10.1586 570 125.709 889.749 472.058
139 0 57.3381 12.0688 692 123.299 888.616 467.658
140 0 60.1419 14.9979 902 117.918 888.451 468.253
141 0 63.241 13.8992 879 118.851 888.493 470.391
142 0 65.2157 13.0337 850 122.741 887.801 465.336
143 0 65.2157 12.9723 846 134.768 886.811 465.338
144 0 68.2164 14.2341 971 122.161 887.38 462.592
145 0 70.2278 12.7442 895 127.472 886.351 457.396
146 0 74.1219 12.0882 896 127.249 885.647 454.087
147 0 77.1896 12.8515 992 124.01 884.732 458.327
148 0 77.2429 13.0497 1008 125.655 884.527 454.104
149 0 82.2582 15.0988 1242 123.977 885.108 446.4
150 1 44.0857 12.7025 560 125.245 883.548 468.454
151 0 44.1255 9.17836 405 132.032 884.168 467.267
152 0 47.2503 11.4497 541 124.274 884.425 460.969
153 0 47.4644 11.8194 561 119.766 884.226 457.285
154 0 50.0269 10.5943 530 120.187 884.462 467.37
155 0 52.2416 13.9161 727 117.285 882.63 459.501
156 0 51.175 8.91059 456 123.053 884.007 466.046
157 0 53.1098 15.3079 813 117.913 885.678 456.79
158 0 52.0511 11.7 609 124.53 886.015 456.092
159 0 58.2593 12.6503 737 121.338 886.807 458.307
160 0 58.0834 10.6571 619 126.847 887.727 457.751
161 0 63.064 15.6666 988 115.322 887.443 456.77
162 0 64.0449 14.3025 916 117.715 888.576 456.686
163 0 67.0831 13.2522 889 119.841 888.972 453.694
164 0 66.0391 12.6137 833 121.559 890.352 456.85
165 0 69.057 13.6699 944 121.174 890.059 454.288
166 0 73.0386 13.1848 963 121.949 891.792 453.445
167 0 73.0386 13.2259 966 135.43 892.789 453.404
168 0 77.1806 14.7576 1139 120.203 891.432 450.331
169 0 83.1101 18.0844 1503 113.393 892.93 451.685
170 0 83.2734 14.2783 1189 120.733 892.946 450.875
171 0 87.0721 14.287 1244 119.527 892.203 452.31
172 1 47.0497 11.4135 537 121.251 892.918 474.011
173 0 49.0724 15.2224 747 111.692 891.553 474.284
174 0 50.0686 12.423 622 116.186 890.138 475.487
175 0 50.1664 9.3489 469 122.588 891.478 472.979
176 0 51.2414 12.9583 664 116.199 890.142 474.508
177 0 50.1256 13.0073 652 117.058 891.103 473.558
178 0 52.2173 12.6586 661 117.256 891.054 475.259
179 0 55.1522 11.568 638 118.323 888.892 474.466
180 0 56.228 12.0047 675 115.567 888.917 473.575
181 0 60.0968 11.0655 665 116.717 888.032 474.026
182 0 60.0968 11.0821 666 135.826 887.05 474.179
183 0 61.1097 12.5348 766 118.244 887.273 466.886
184 0 59.0851 10.0871 596 121.53 886.906 468.841
185 0 63.0825 11.4295 721 118.914 885.544 464.606
186 0 69.3491 13.9295 966 113.558 883.708 463.568
187 0 70.2345 12.4867 877 117.714 884.989 460.992
188 0 73.1246 12.1984 892 116.695 884.37 462.618
189 0 73.0907 13.2712 970 118.449 885.256 457.396
190 0 77.1419 14.5317 1121 116.112 884.343 453.875
191 0 76.1821 11.8926 906 121.235 883.962 453.948
192 0 76.1821 11.7744 897 154.881 882.935 453.873
193 0 86.138 14.4652 1246 116.027 883.578 448.831
194 0 90.0832 12.3219 1110 118.646 884.697 448.866
195 0 93.1382 15.3321 1428 114.998 884.411 445.62
196 0 94.1963 14.4061 1357 117.716 883.551 442.284
197 0 98.3894 12.7961 1259 119.172 884.32 437.443
198 0 103.199 15.2812 1577 114.774 885.964 437.036
199 1 54.0602 12.819 693 115.967 883.602 457.788
200 0 57.1296 14.4234 824 113.75 884.3 454.494
201 0 57.0487 12.8487 733 115.367 885.607 458.999
202 0 59.1009 13.8069 816 113.208 885.683 458.821
203 0 62.0637 10.6826 663 117.466 887.302 457.247
204 0 60.1207 10.2294 615 120.159 888.332 455.867
205 0 65.0499 10.7917 702 118.762 889.489 452.923
206 0 65.0499 10.9454 712 130.636 890.501 452.881
207 0 69.1298 13.5687 938 115.066 890.802 449.947
208 0 71.0943 10.9714 780 117.894 891.815 454.596
209 0 73.1968 12.6508 926 116.624 893.013 451.672
210 0 81.2142 13.7168 1114 114.817 893.184 449.763
211 0 81.2016 13.1032 1064 113.246 891.922 455.393
212 0 83.1894 12.9103 1074 115.716 891.966 449.725
213 0 87.2003 15.1146 1318 111.659 891.703 449.678
214 0 90.2215 13.489 1217 113.309 891.873 452.054
215 0 94.1758 14.7384 1388 112.109 893.031 448.335
216 0 97.3779 12.6209 1229 116.101 893.311 446.81
217 0 97.2678 9.9005 963 120.266 893.345 450.975
218 0 104.448 19.2919 2015 106.823 891.501 443.458
219 1 54.4004 13.8051 751 113.803 891.37 470.35
220 0 54.9056 11.8931 653 118.775 892.164 466.45
221 0 59.239 13.2683 786 110.642 891.492 468.994
222 0 61.1378 14.6391 895 108.501 890.93 473.526
223 0 62.5769 14.2545 892 110.235 889.314 470.034
224 0 59.1731 8.43289 499 118.463 888.23 470.018
225 0 64.263 12.8845 828 109.87 886.577 471.062
226 0 69.3213 12.5647 871 108.617 885.152 472.445
227 0 69.1726 14.5723 1008 108.252 885.167 464.824
228 0 72.2249 14.3164 1034 107.893 883.796 465.098
229 0 74.5945 12.9634 967 111.251 883.032 461.23
230 0 78.6677 11.5422 908 116.32 882.524 458.987
231 0 80.6921 13.3966 1081 113.102 882.327 459.92
232 0 84.8526 11.3609 964 115.768 881.009 455.484
233 0 87.2243 15.9474 1391 104.886 880.921 454.274
234 0 89.5142 13.7073 1227 107.521 881.14 455.002
235 0 93.3384 13.1029 1223 109.612 879.934 445.974
236 0 94.5057 12.6447 1195 110.688 880.629 441.939
237 0 97.5505 16.0225 1563 105.766 880.157 439.572
238 0 100.621 10.9918 1106 111.422 879.694 435.072
239 0 103.519 9.17707 950 112.622 880.361 437.801
240 1 55.4219 11.5297 639 107.066 878.396 457.075
241 0 59.2886 15.8547 940 100.687 880.237 459.263
242 0 59.3419 11.2737 669 106.631 881.644 458.274
243 0 60.2343 13.5969 819 103.593 880.661 455.988
244 0 61.3381 16.3683 1004 99.4233 882.063 458.124
245 0 65.4117 17.0153 1113 98.6927 881.895 456.205
246 0 64.343 13.4591 866 104.619 884.568 454.172
247 1 117.47 3.81375 448 118.699 883.714 442.094
248 1 135.525 16.8899 2289 108.579 885.126 412.171
249 0 135.525 16.7792 2274 125.515 887.116 412.052
250 0 145.798 15.8918 2317 109.109 884.731 413.29
251 0 152.429 16.2699 2480 108.173 886.921 411.1
252 1 77.3332 14.1466 1094 105.475 887.112 451.736
253 0 78.4062 15.3814 1206 102.58 888.06 453.965
254 0 80.3237 12.9601 1041 106.573 888.757 451.704
255 0 83.219 12.8817 1072 106.66 887.52 453.319
256 0 85.2856 13.7538 1173 104.604 888.997 449.401
257 0 92.24 16.0126 1477 100.573 889.638 452.217
258 0 92.3236 15.0124 1386 103.427 889.416 446.544
259 0 94.3484 12.0405 1136 106.879 889.436 443.626
260 0 101.781 19.1195 1946 97.1228 889.457 448.858
261 0 100.237 13.3883 1342 105.706 888.135 446.583
262 0 110.24 15.6567 1726 102.851 888.477 445.535
263 0 111.201 18.462 2053 99.8013 887.688 451.377
264 1 61.2474 14.5312 890 104.938 885.075 468.644
265 0 65.3115 14.8978 973 104.643 887.326 469.731
266 0 61.1799 11.9647 732 104.652 887.852 466.224
267 0 66.2691 13.6564 905 101.392 888.526 469.397
268 0 67.2109 13.0187 875 100.667 886.984 470.271
269 0 68.1848 11.9235 813 105.178 886.469 465.758
270 0 71.2192 15.2206 1084 102.066 885.348 463.657
271 0 72.2913 12.339 892 105.397 884.749 462.385
272 0 74.4099 11.9473 889 106.722 883.26 459.766
273 0 77.3665 13.016 1007 105.785 884.104 455.747
274 0 82.1875 13.8829 1141 104.856 883.38 452.57
275 0 85.4568 16.5113 1411 101.348 882.663 452.881
276 0 89.4489 12.9012 1154 105.708 882.029 453.899
277 1 45.2416 14.1905 642 101.668 883.316 471.235
278 0 43.0854 8.19303 353 110.989 882.861 472.082
279 0 48.9391 12.2397 599 105.09 879.97 465.658
280 0 50.5994 11.3835 576 107.444 881.174 461.898
281 0 52.0733 17.6674 920 97.8033 881.524 465.622
282 0 55.0784 12.691 699 104.431 882.954 463.508
283 0 55.3156 11.7507 650 105.185 882.975 462.898
284 0 56.357 12.3321 695 105.812 883.614 462.755
285 0 56.1022 13.2615 744 107.495 883.387 457.45
286 0 63.2153 15.819 1000 101.693 883.916 458.45
287 0 63.2928 15.7206 995 101.873 884.787 457.23
288 0 62.2482 11.904 741 109.121 886.271 455.426
289 0 63.3617 13.5413 858 109.1 885.996 449.946
290 0 66.4739 16.4726 1095 104.767 887.06 450.185
291 0 66.4325 14.2551 947 110.08 887.371 446.87
292 0 72.5447 10.173 738 113.385 889.318 453.497
293 0 73.4198 15.9766 1173 106.165 890.177 450.867
294 0 75.2939 10.4258 785 114.069 891.404 452.006
295 0 80.9799 14.5962 1182 108.199 891.041 448.831
296 1 42.1916 13.178 556 110.811 892.221 462.739
297 0 42.1916 13.2254 558 140.181 893.22 462.686
298 0 46.1956 9.41648 435 116.099 892.609 465.17
299 0 47.1245 12.4351 586 112.326 893.869 463.903
300 0 48.1016 10.852 522 109.688 893.952 468.148
301 0 51.0832 15.7586 805 103.761 893.164 468.225
302 0 52.1594 12.8069 668 107.873 893.205 468.669
303 0 53.4903 13.9091 744 107.413 893.098 465.902
304 0 53.3105 13.1494 701 109.308 892.652 467.261
305 0 53.3105 13.1306 700 128.66 891.617 467.296
306 0 57.1762 14.8663 850 101.194 889.155 470.671
307 0 61.2019 16.0943 985 101.736 887.977 463.161
308 0 62.1127 13.717 852 103.613 888.235 468.896
309 0 65.2126 15.0738 983 101.983 889.626 466.898
310 0 66.2908 12.7167 843 105.953 889.49 463.783
311 0 68.4402 14.1584 969 104.04 888.707 464.005
312 0 71.2354 12.1569 866 106.57 887.896 460.433
313 0 72.5281 14.4358 1047 104.414 887.347 459.916
314 0 73.2572 14.688 1076 104.947 887.506 458.904
315 0 79.3273 13.5767 1077 105.775 886.098 456.332
316 0 81.3985 14.5089 1181 105.205 886.053 452.967
317 0 84.352 16.0399 1353 102.019 884.362 456.186
318 0 86.2239 19.113 1648 99.7724 883.364 449.083
319 0 89.1908 13.2076 1178 106.992 883.806 449.436
320 1 47.0165 9.7838 460 109.972 883.924 471.283
321 0 47.0165 9.57111 450 136.6 883.884 471.38
322 0 52.0949 12.3429 643 110.306 883.498 466.131
323 0 49.1025 12.5656 617 109.274 883.998 462.392
324 0 53.2268 12.3998 660 108.72 884.055 462.979
325 0 56.1857 18.955 1065 100.708 883.754 457.021
326 0 56.1044 13.261 744 109.261 885.434 458.522
327 0 58.1208 14.229 827 107.946 885.806 454.89
328 0 58.1228 13.9016 808 109.051 885.689 451.203
329 0 60.1606 14.6608 882 109.134 885.825 452.359
330 0 63.0839 14.5362 917 109.156 885.45 450.784
331 0 65.3024 14.8999 973 109.256 887.494 446.885
332 0 66.1612 16.5807 1097 106.907 888.192 450.052
333 0 65.1286 12.0224 783 114.456 888.23 447.571
334 0 71.2603 16.5029 1176 107.867 888.804 444.332
335 0 71.192 12.1221 863 114.413 889.599 446.6
336 0 75.2172 15.1162 1137 110.987 890.018 441.857
337 0 78.3353 15.3571 1203 110.479 890.471 439.395
338 0 81.2697 17.7803 1445 107.065 889.983 442.902
339 0 84.3128 16.3439 1378 108.606 892.331 443.766
340 0 86.5591 15.2959 1324 112.023 892.566 437.034
341 1 49.0861 12.1216 595 113.824 893.793 461.338
342 0 48.0348 10.8671 522 115.851 893.542 460.808
343 0 50.197 11.7537 590 114.271 890.27 462.553
344 0 51.056 16.2371 829 103.94 891.881 461.628
345 0 52.2773 10.7121 560 110.914 891.705 463.248
346 0 54.1502 13.8504 750 106.791 891.952 465.051
347 0 55.2952 14.1965 785 107.417 891.973 462.082
348 0 55.2082 11.2302 620 112.765 892.213 464.198
349 0 55.0959 10.6723 588 114.02 891.444 466.182
350 0 60.0573 12.8211 770 109.591 890.17 466.558
351 0 59.3497 11.5755 687 111.888 889.901 467.084
352 0 64.0749 14.9513 958 107.391 891.226 463.039
353 0 67.1744 12.7876 859 108.9 890.706 464.846
354 0 66.3365 12.1803 808 110.823 890.493 461.999
355 0 71.4315 12.1655 869 110.455 888.952 461.632
356 0 73.4206 14.9413 1097 107.173 887.543 456.231
357 0 76.3015 14.6917 1121 108.116 887.343 457.156
358 1 155.889 12.4448 1940 116.092 888.062 418.952
359 1 81.3069 16.1733 1315 106.36 886.028 451.481
360 0 87.2588 14.3137 1249 105.333 884.901 453.122
361 0 87.2588 14.4627 1262 127.299 883.905 453.067
362 1 43.1127 11.2264 484 107.831 885.07 470.048
363 0 47.1735 12.9098 609 105.397 884.956 466.947
364 0 48.2908 15.3238 740 102.405 885.051 464.815
365 0 51.1853 13.4804 690 104.258 884.533 463.325
366 0 51.1342 12.653 647 106.411 886.845 464.785
367 0 51.1342 12.653 647 126.728 886.805 464.861
368 0 54.0926 12.3862 670 107.452 885.967 460.96
369 0 56.2681 10.6988 602 109.231 886.518 460.161
370 0 57.302 11.5703 663 109.039 886.273 456.053
371 0 60.3147 12.3021 742 107.137 885.973 457.115
372 0 60.3026 11.1438 672 110.676 887.566 450.055
373 0 64.3019 10.6373 684 108.137 888.487 453.202
374 0 70.3002 13.6842 962 105.167 889.302 450.377
375 0 70.237 15.2199 1069 103.446 887.419 450.536
376 0 72.226 11.2148 810 110.777 889.695 446.223
377 0 74.1724 13.5495 1005 106.521 888.533 446.983
378 0 74.1608 13.5651 1006 130.076 887.56 446.872
379 0 79.1974 11.1746 885 108.984 892.212 446.183
380 0 79.3017 9.04142 717 113.434 892.068 443.194
381 0 85.3212 15.7054 1340 105.056 891.855 436.736
382 0 89.3672 18.3848 1643 100.68 893.006 441.413
383 0 90.3571 13.9889 1264 107.665 893.377 437.055
384 0 95.2214 14.4295 1374 106.906 894.078 436.865
385 0 97.5414 12.8253 1251 109.378 893.04 431.305
386 0 105.322 18.5242 1951 101.764 894.26 435.823
387 1 54.3252 14.7814 803 102.644 895.41 462.176
388 0 56.0955 13.9049 780 103.742 895.963 463.259
389 0 56.1088 13.8837 779 124.555 895.992 463.293
390 0 57.0695 11.5123 657 107.304 895.601 462.677
391 0 60.2046 13.969 841 106.124 895.41 463.256
392 0 61.2614 12.112 742 106.427 895.873 463.208
393 0 66.3236 17.9122 1188 99.1347 894.261 462.129
394 0 67.2448 13.6516 918 105.583 892.425 462.674
395 0 67.3049 12.5994 848 107.368 892.206 460.697
396 0 69.5144 13.508 939 106.707 893.289 462.752
397 0 70.4585 11.8226 833 109.819 892.606 462.879
398 0 74.3102 15.6237 1161 104.966 890.942 453.24
399 0 78.301 16.4621 1289 104.261 889.97 459.389
400 0 81.3792 15.5445 1265 103.754 889.247 460.742
401 0 82.4461 14.6641 1209 106.532 889.543 455.397
402 0 86.398 13.2758 1147 108.232 888.837 453.909
403 0 89.3451 15.6024 1394 105.298 887.994 450.755
404 0 89.3314 13.3883 1196 108.505 888.136 452.411
405 0 98.4066 14.2877 1406 107.362 887.441 449.787
406 0 99.2952 13.4145 1332 110.585 886.635 446.351
407 0 100.283 14.1699 1421 109.296 886.434 444.588
408 1 54.0585 10.6921 578 129.471 887.758 468.647
409 0 56.5214 11.9955 678 109.78 882.201 461.662
410 0 60.1375 11.3407 682 109.493 887.129 458.563
411 0 59.2742 15.7235 932 106.089 884.679 460.133
412 0 61.0584 10.8748 664 113.298 885.122 456.187
413 0 63.3995 13.0285 826 109.416 885.799 454.833
414 0 66.2687 14.2903 947 108.282 886.363 453.644
415 0 69.2961 13.3774 927 109.335 886.888 453.031
416 0 69.1706 13.098 906 111.669 887.055 449.556
417 0 73.2509 14.7165 1078 108.755 888.084 448.57
418 0 73.2509 14.6756 1075 127.773 889.046 448.385
419 0 77.1491 19.0022 1466 101.029 889.329 446.495
420 0 80.3454 15.7943 1269 106.551 889.324 440.969
421 0 81.2174 15.5755 1265 107.667 889.333 437.078
422 0 85.2013 17.5936 1499 106.014 891.149 438.272
423 0 90.2714 16.1734 1460 109.642 892.056 441.576
424 0 89.2257 13.5723 1211 117.074 892.083 438.462
425 1 46.0162 13.517 622 112.396 894.167 460.907
426 0 49.0581 11.2112 550 118.336 893.875 459.138
427 0 47.4495 13.0665 620 112.24 893.261 459.385
428 0 50.534 15.3164 774 108.654 891.813 458.615
429 0 54.2165 12.4132 673 116.123 895.166 463.363
430 0 53.0386 11.4257 606 119.246 895.65 463.559
431 0 57.1421 12.1802 696 118.355 896.453 463.42
432 0 54.1531 13.9789 757 118.242 896.1 461.275
433 0 59.0984 13.1983 780 118.478 896.067 462.037
434 0 61.1172 15.2494 932 115.506 895.827 461.291
435 0 63.1371 15.1258 955 116.088 894.61 460.943
436 0 63.1894 13.4833 852 120.025 895.02 461.236
437 0 65.0825 16.7172 1088 116.377 893.943 459.411
438 0 67.0656 13.2557 889 121.465 894.658 462.316
439 0 67.0919 13.1312 881 123.68 893.503 459.005
440 0 74.2123 14.1217 1048 119.46 893.045 463.335
441 0 76.1273 13.7927 1050 121.647 892.513 458.03
442 0 79.1549 15.5644 1232 118.073 891.011 458.692
443 0 81.0879 14.4165 1169 121.678 891.618 456.195
444 0 84.2366 14.0319 1182 121.321 891.208 458.096
445 0 87.2242 15.5232 1354 120.151 888.436 455.375
446 1 44.0299 13.0139 573 117.248 885.04 474.75
447 0 47.0989 11.7625 554 118.377 884.37 472.545
448 0 47.1448 15.8236 746 113.753 884.625 470.312
449 0 46.0699 13.6315 628 115.033 888.169 470.392
450 0 50.0654 13.5223 677 113.484 886.526 470.715
451 0 50.0824 15.0951 756 111.429 882.978 468.8
452 0 51.1438 14.0975 721 112.755 882.816 467.71
453 0 53.0799 14.9586 794 112.841 882.747 465.441
454 0 53.3586 15.424 823 111.015 883.603 467.419
455 0 54.0809 13.7941 746 115.437 882.997 463.034
456 0 56.1773 16.7505 941 110.865 882.587 462.914
457 0 61.2379 16.4767 1009 109.664 883.579 460.244
458 0 59.2365 15.5647 922 113.223 882.689 459.489
459 0 61.0469 16.1024 983 112.378 883.403 458.721
460 0 64.0989 12.9331 829 117.59 884.09 455.838
461 0 63.2492 13.597 860 115.365 885.033 455.924
462 0 66.1991 12.3869 820 118.212 885.745 452.823
463 0 69.1876 12.8925 892 117.285 885.447 449.883
464 0 72.1348 15.069 1087 113.131 886.707 451.818
465 0 74.2981 14.1861 1054 114.184 887.498 449.345
466 0 78.2026 17.2117 1346 108.454 886.75 452.353
467 0 78.1147 12.3152 962 116.127 887.071 454.293
468 0 78.1026 12.3171 962 129.884 888.077 454.348
469 0 84.2518 10.528 887 116.15 887.887 458.779
470 1 48.1492 14.4135 694 110.213 888.513 469.28
471 0 49.0604 14.6554 719 110.971 889.179 467.41
472 0 49.1032 11.7508 577 111.79 889.043 465.406
473 0 51.1074 14.4402 738 111.375 888.782 468.198
474 0 54.2423 15.9101 863 108.115 888.801 468.516
475 0 53.2329 13.3564 711 112.669 889.639 468.193
476 0 56.2335 13.2483 745 111.954 889.452 467.556
477 0 58.3534 15.7489 919 108.182 888.563 472.153
478 0 60.4533 13.9777 845 110.762 888.648 470.986
479 0 61.3773 12.7246 781 112.918 887.079 470.712
480 0 60.3547 12.2277 738 114.092 887.18 470.663
481 0 64.3681 14.6656 944 109.283 887.166 469.562
482 0 66.263 11.7713 780 111.701 886.015 473.176
483 0 68.2538 12.4682 851 111.635 885.468 469.255
484 0 74.3183 16.5639 1231 104.922 884.29 464.308
485 0 72.2845 12.8243 927 110.934 884.07 466.861
486 0 76.2751 14.9459 1140 108.027 883.18 463.543
487 0 76.3028 12.7649 974 111.882 883.191 464.45
488 0 82.3496 13.2727 1093 110.138 882.678 460.7
489 0 83.2216 14.155 1178 109.288 881.584 461.625
490 0 83.2216 14.155 1178 123.734 879.596 461.663
491 1 47.1375 11.7953 556 111.153 879.874 479.847
492 0 48.0479 11.6342 559 114.725 879.388 478.526
493 0 49.0631 13.4521 660 112.142 878.556 474.439
494 0 50.1367 11.5285 578 114.614 877.465 475.04
495 0 51.0737 10.6708 545 115.967 877.185 470.866
496 0 51.0737 10.71 547 139.777 877.181 470.925
497 0 54.1252 14.0969 763 111.687 877.484 467.53
498 0 58.1197 11.3559 660 115.767 875.998 466.774
499 0 57.1675 13.8365 791 113.943 876.105 462.928
500 0 62.0557 13.6813 849 112.253 876.942 461.522
501 0 65.1729 12.3518 805 113.675 877.067 461.478
502 0 65.107 12.8558 837 116.254 878.019 457.656
503 0 69.185 17.9952 1245 106.185 878.297 458.36
504 0 71.1753 15.0052 1068 111.89 880.006 451.56
505 0 70.1614 17.0892 1199 109.681 880.077 453.694
506 0 75.1233 15.2682 1147 112.009 880.871 449.966
507 0 78.2155 15.9176 1245 110.738 882.324 449.055
508 0 79.241 19.4344 1540 106.595 883.019 446.138
509 0 85.1121 15.0625 1282 111.668 883.431 446.307
510 0 86.2194 14.5211 1252 113.55 884.641 445.305
511 0 87.1823 15.6568 1365 112.74 885.634 441.894
512 1 47.0469 11.4567 539 112.037 889.308 466.538
513 0 47.0456 12.3497 581 110.589 890.217 467.511
514 0 48.0843 13.6011 654 110.157 889.948 468.235
515 0 50.1002 14.5109 727 109.172 886.915 466.33
516 0 52.1202 14.3131 746 108.598 887.623 467.446
517 0 51.264 16.8539 864 106.545 887.659 470.897
518 0 52.1764 12.0744 630 115.171 888.295 465.46
519 0 55.131 11.3185 624 116.248 887.474 469.772
520 0 58.1421 16.8208 978 107.355 886.75 469.108
521 0 60.3665 17.195 1038 107.632 886.755 467.633
522 0 60.0929 14.644 880 111.61 885.985 469.882
523 0 63.1604 15.2944 966 111.274 885.628 468.746
524 0 64.1249 12.3821 794 115.142 884.408 469.635
525 0 68.2413 21.38 1459 101.571 884.708 470.716
526 0 67.0714 11.7785 790 117.097 884.31 467.809
527 0 70.524 13.896 980 115.516 883.578 464.617
528 0 75.4154 17.0787 1288 108.685 884.068 467.519
529 0 76.3813 15.9201 1216 112.577 883.776 464.525
530 1 40.1059 11.2702 452 114.343 881.018 482.77
531 0 42.0748 11.1706 470 114.713 880.13 481.702
532 0 43.1789 12.8303 554 113.303 879.926 480.336
533 0 42.1581 12.4294 524 111.994 879.13 478.263
534 0 46.0596 14.6332 674 111.49 879.383 478.01
535 0 47.0951 13.2498 624 115.729 878.593 475.861
536 0 50.0642 13.7423 688 112.487 878.312 477.632
537 0 51.0862 13.4674 688 113.641 877.908 473.932
538 0 51.0602 13.9639 713 112.23 877.478 473.576
539 0 55.0897 15.7743 869 106.663 878.631 474.611
540 0 57.0616 13.8096 788 110.958 877.033 468.92
541 0 55.1071 11.1238 613 117.83 876.445 467.824
542 0 60.1053 15.972 960 109.633 876.944 464.05
543 0 58.1244 11.5614 672 117.237 877.295 464.975
544 0 63.051 13.4018 845 113.536 878.346 463.075
545 0 65.1236 15.77 1027 112.187 879.647 460.737
546 0 69.1776 16.0312 1109 110.082 879.812 461.18
547 0 69.1776 16.089 1113 141.04 878.838 461.274
548 1 37.0402 8.85524 328 116.93 878.854 471.207
549 0 35.0458 9.98694 350 116.163 879.44 470.526
550 0 39.013 14.4055 562 107.521 880.422 469.886
551 0 39.1297 10.6313 416 115.738 880.911 467.168
552 0 43.0328 15.5928 671 106.508 881.928 468.48
553 0 43.1176 16.2347 700 103.354 883.124 467.19
554 0 46.0985 15.7489 726 103.605 887.099 472.247
555 0 48.0438 14.3827 691 105.959 887.307 468.844
556 0 52.1496 14.1133 736 106.568 888.641 469.764
557 0 49.3163 14.2549 703 108.714 889.4 468.284
558 0 51.1155 13.3228 681 109.326 890.432 472.764
559 0 51.2632 13.4014 687 110.227 889.664 469.1
560 0 54.1012 16.9867 919 104.991 889.19 470.977
561 0 53.1215 13.1585 699 113.259 890.187 467.87
562 0 56.0628 12.5038 701 112.695 889.385 472.742
563 0 59.088 15.5023 916 107.332 889.33 473.466
564 0 59.1568 16.5154 977 107.686 888.565 469.139
565 0 63.1341 17.8826 1129 104.999 888.341 467.49
566 0 64.1958 13.2719 852 111.533 888.754 466.23
567 0 66.3287 12.8904 855 111.587 888.545 471.71
568 0 67.1448 12.5401 842 112.937 888.641 470.856
569 0 72.2489 13.9241 1006 110.201 887.328 468.538
570 0 73.463 13.3401 980 110.363 884.315 464.561
571 0 75.1911 13.2063 993 112.528 883.522 467.067
572 0 79.2139 14.3788 1139 110.168 881.611 464.769
573 0 80.2373 13.2607 1064 114.579 880.941 461.228
574 0 79.2155 13.6716 1083 115.418 880.585 462.362
575 1 47.0342 12.6078 593 115.224 880.371 480.56
576 0 50.0951 12.3365 618 116.294 878.285 476.943
577 0 49.0684 13.2672 651 116.651 878.628 473.356
578 0 50.0891 13.0767 655 116.518 878.498 472.4
579 0 50.0564 14.9232 747 109.792 879.596 475.786
580 1 102.017 13.341 1361 117.534 880.228 448.872
581 1 53.1376 12.9663 689 113.675 877.64 469.183
582 0 56.2175 15.1732 853 111.134 878.068 466.154
583 0 56.2074 15.2649 858 130.802 878.055 466.125
584 0 59.3408 12.6557 751 115.839 879.431 466.482
585 0 61.1102 11.5693 707 114.327 879.17 469.843
586 0 62.0939 14.0272 871 113.493 879.678 461.487
587 0 64.1606 12.9986 834 113.405 880.189 463.526
588 0 68.2276 14.6422 999 110.445 881.626 460.876
589 0 69.2086 12.3684 856 116.338 880.922 457.657
590 0 72.313 15.0457 1088 112.119 880.723 454.471
591 0 72.1096 13.6875 987 114.042 880.75 456.159
592 0 75.2155 12.4575 937 116.502 882.914 451.645
593 0 75.2155 12.524 942 132.945 884.902 451.593
594 0 82.2961 11.8961 979 116.065 883.425 448.1
595 0 85.2264 11.0295 940 115.052 883.99 452.364
596 0 90.1603 14.0195 1264 110.759 883.959 448.939
597 0 90.159 14.0862 1270 121.878 882.966 449.04
598 0 95.1436 9.72214 925 118.243 886.168 445.59
599 1 49.1107 11.3825 559 113.297 885.445 465.71
600 0 49.1288 12.6809 623 111.909 886.127 465.233
601 0 52.2853 14.7078 769 112.919 887.135 466.203
602 0 56.1043 12.6906 712 115.423 890.878 466.501
603 0 57.0512 14.6535 836 113.039 890.788 464.124
604 0 58.044 13.0935 760 115.637 890.686 464.511
605 1 117.561 13.8311 1626 115.978 889.636 439.047
606 1 62.1512 14.1429 879 113.071 890.718 465.94
607 0 63.0784 14.6167 922 111.86 889.456 467.909
608 0 66.2442 15.7146 1041 110.216 890.103 467.574
609 0 70.1296 13.418 941 112.673 889.637 468.102
610 0 71.0695 15.6467 1112 109.296 888.651 470.118
611 0 73.1896 16.4914 1207 108.766 887.862 464.82
612 0 74.0704 14.5267 1076 112.14 889.175 464.269
613 0 77.1541 16.1754 1248 108.877 888.13 466.716
614 0 77.1541 16.1106 1243 132.06 886.093 466.695
615 0 79.1227 13.7002 1084 112.452 886.585 459.411
616 0 83.6297 14.7196 1231 110.76 885.3 457.921
617 0 85.3256 14.5326 1240 111.148 884.256 459.412
618 0 85.3256 14.4154 1230 135.761 884.244 459.341
619 0 90.2583 13.9932 1263 113.245 882.765 452.882
620 0 92.4065 13.1051 1211 113.491 882.945 453.925
621 0 99.1354 15.8874 1575 109.324 883.01 449.1
622 0 99.1556 15.1479 1502 110.405 881.86 448.084
623 0 98.3319 11.7459 1155 116.266 881.862 447.33
624 0 104.499 15.0527 1573 111.673 881.425 441.999
625 0 105.358 13.5728 1430 114.911 881.157 440.211
626 0 110.373 16.2358 1792 110.182 882.255 440.243
627 0 114.337 15.8742 1815 111.699 881.436 435.063
628 1 60.0539 13.9874 840 112.876 882.863 461.677
629 0 61.2995 11.9414 732 113.411 882.755 461.788
630 0 65.3796 15.9377 1042 106.386 879.218 457.288
631 0 65.3796 15.9224 1041 125.873 878.219 457.246
632 0 67.3148 12.9689 873 109.686 880.849 454.955
633 0 72.1529 18.0727 1304 102.138 879.815 454.997
634 0 73.5975 18.9952 1398 101.087 881.31 454.024
635 0 76.4183 15.6769 1198 105.977 882.034 450.543
636 0 76.2576 15.3034 1167 107.277 882.7 449.241
637 0 78.595 14.2375 1119 108.962 883.852 445.415
638 0 81.3337 16.9794 1381 104.709 884.96 450.642
639 0 83.2725 14.1103 1175 109.862 885.518 443.997
640 0 84.1307 14.7152 1238 108.557 886.506 449.308
641 0 90.3122 13.852 1251 110.146 886.318 444.878
642 0 92.2706 12.1382 1120 113.338 888.271 444.231
643 0 97.3312 12.7297 1239 112.989 887.563 440.984
644 0 101.544 12.5955 1279 111.078 887.421 445.981
645 0 104.341 13.3601 1394 112.72 888.027 438.793
646 0 111.627 16.2415 1813 108.875 887.416 438.186
647 1 56.2902 13.8035 777 107.346 887.447 465.21
648 0 57.284 15.781 904 104.845 889.698 467.322
649 0 57.1368 10.9212 624 111.436 885.827 466.631
650 0 62.0982 13.994 869 106.113 886.162 467.148
651 0 65.3128 12.5397 819 107.905 885.344 465.255
652 0 67.1173 13.5583 910 106.446 886.496 462.545
653 0 68.1114 13.0815 891 107.894 887.672 465.479
654 0 72.1573 14.8426 1071 104.963 885.506 464.049
655 0 74.15 12.6905 941 109.211 883.735 456.8
656 0 76.1691 13.0368 993 108.547 884 462.041
657 0 78.1038 13.7125 1071 107.246 883.54 463.042
658 0 80.2491 13.7322 1102 108.083 882.605 459.64
659 0 81.2054 10.1964 828 112.999 882.836 459.046
660 0 84.3999 15.3081 1292 104.636 881.232 452.096
661 1 50.1248 10.7731 540 108.806 880.374 474.913
662 0 50.1373 12.0469 604 109.954 881.126 473.56
663 0 53.1624 13.2801 706 106.762 881.136 473.021
664 0 51.2585 11.0616 567 113.653 882.963 469.159
665 0 51.2585 11.1591 572 133.673 883.002 469.224
666 0 58.3936 12.9124 754 109.548 881.996 470.39
667 0 58.1899 12.0639 702 111.769 882.288 466.141
668 0 62.2786 19.8945 1239 98.657 880.545 467.965
669 0 63.1229 13.5925 858 106.874 883.082 464.453
670 0 65.0526 14.1731 922 107.492 883.747 458.043
671 0 67.2157 11.9615 804 111.45 883.358 456.588
672 0 69.1051 15.4403 1067 106.103 883.574 457.298
673 0 75.3152 18.084 1362 101.707 883.616 455.441
674 0 73.2702 14.1804 1039 109.397 884.156 450.114
675 0 73.2163 11.268 825 115.768 884.703 449.855
676 0 79.3166 17.2347 1367 106.263 884.639 448.429
677 0 81.1404 15.6765 1272 107.289 885.256 452.907
678 0 83.2255 13.89 1156 112.739 885.653 446.099
679 0 82.2673 10.551 868 118.85 887.366 443.077
680 0 88.2352 12.6253 1114 115.949 888.514 446.642
681 0 88.2352 12.6253 1114 140.247 889.506 446.603
682 0 92.3436 13.5689 1253 115.885 888.772 443.536
683 0 96.2563 12.6641 1219 116.645 888.671 444.169
684 0 102.208 12.9736 1326 115.462 889.788 443.283
685 0 103.237 15.4692 1597 113.514 890.622 439.554
686 0 104.211 14.6337 1525 114.964 891.908 436.438
687 0 110.447 17.5288 1936 109.334 890.472 441.156
688 0 113.154 12.5846 1424 116.461 890.978 440.855
689 0 118.131 11.5973 1370 118.308 890.882 435.456
690 0 120.335 12.8474 1546 116.504 891.071 432.819
691 1 65.1 12.4117 808 109.854 889.501 463.939
692 0 68.2925 12.3732 845 108.007 889.897 466.272
693 0 73.1933 13.5532 992 106.118 890.013 463.8
694 0 73.1933 13.6625 1000 117.226 891.011 463.859
695 0 78.2864 14.2042 1112 105.466 889.514 464.074
696 0 80.2103 13.2402 1062 106.854 888.867 461.054
697 0 81.1866 12.2804 997 109.028 887.16 460.989
698 0 84.252 14.1124 1189 106.331 887.698 461.182
699 0 85.2701 13.4631 1148 106.809 886.313 462.258
700 0 92.3419 12.2804 1134 107.459 886.194 460.517
701 0 93.4201 12.1173 1132 107.833 885.684 457.597
702 0 99.3688 19.2314 1911 98.5411 884.313 454.995
703 0 101.31 13.9472 1413 104.83 884.72 454.042
704 0 103.459 15.9774 1653 103.261 883.679 450.198
705 0 105.31 11.7937 1242 109.406 881.957 443.017
706 0 110.568 11.9022 1316 109.78 881.994 447.812
707 0 115.368 16.027 1849 104.424 881.126 442.373
708 0 116.746 13.0369 1522 109.8 879.319 436.518
709 0 122.472 13.6276 1669 107.54 879.52 443.814
710 0 124.272 10.3402 1285 113.39 879.172 435.562
711 0 124.666 14.3584 1790 106.712 879.901 443.506
712 0 132.116 14.0256 1853 108.37 879.888 431.929
713 0 132.534 10.352 1372 110.254 878.471 444.797
714 1 70.1365 10.5081 737 110.407 879.411 462.457
715 0 71.1056 11.1102 790 111.228 877.813 460.733
716 0 77.2339 11.2515 869 107.688 879.671 461.573
717 0 76.1552 9.80892 747 112.181 879.475 458.802
718 0 88.4619 19.6582 1739 98.6941 880.594 452.562
719 0 83.2593 12.6833 1056 108.13 879.66 447.875
720 0 86.1674 11.5589 996 110.295 881.225 450.758
721 0 90.1811 11.111 1002 112.26 880.45 445.85
722 0 92.1713 13.4966 1244 110.125 882.121 442.266
723 0 95.3745 13.5571 1293 109.708 882.315 446.91
724 0 96.371 11.1652 1076 114.059 882.647 444.303
725 1 51.4064 14.7647 759 106.316 884.963 467.117
726 0 51.307 11.6553 598 109.35 886.303 465.528
727 0 54.3319 11.8899 646 111.678 887.447 463.921
728 0 56.0876 14.5843 818 107.385 884.923 462.351
729 0 55.199 13.8227 763 109.564 885.414 466.478
730 0 57.0532 15.0211 857 107.947 885.944 462.94
731 0 57.2753 13.9152 797 109.073 886.537 471.69
732 0 62.2972 11.3167 705 113.918 885.64 470.418
733 0 64.1663 12.6234 810 113.688 886.884 465.86
734 0 66.4067 12.3482 820 113.213 886.307 470.478
735 0 67.3177 11.676 786 116.477 885.494 468.999
736 0 68.155 14.9366 1018 111.911 886.304 466.175
737 0 73.0935 13.8726 1014 112.543 886.207 467.15
738 0 72.1703 13.3573 964 113.256 885.739 467.317
739 0 76.2466 13.1547 1003 115.94 884.625 462.793
740 0 79.1404 16.894 1337 110.437 885.092 461.45
741 0 82.2017 17.4084 1431 109.738 885.015 462.399
742 0 84.2019 11.2586 948 120.712 885.031 462.113
743 0 85.0638 12.426 1057 119.762 883.427 458.839
744 0 90.4663 14.0494 1271 115.954 883.002 460.86
745 0 93.145 17.3171 1613 111.686 883.213 454.927
746 0 93.3246 13.887 1296 117.606 883.196 453.563
747 0 98.2838 11.3447 1115 121.198 881.791 450.935
748 1 52.0676 10.0254 522 119.034 880.967 470.174
749 0 53.1 11.7514 624 114.439 880.888 466.838
750 0 56.2084 12.0267 676 115.45 881.354 463.947
751 0 57.0712 12.7735 729 114.347 878.84 464.749
752 0 60.4625 13.9094 841 112.618 879.086 461.482
753 0 57.0887 13.2776 758 115.997 879.526 454.931
754 0 61.1337 12.4808 763 115.532 880.219 458.896
755 0 64.0933 13.6676 876 114.283 879.048 456.717
756 0 65.0397 13.1612 856 117.528 878.401 450.854
757 0 68.1207 12.7421 868 117.962 879.605 450.84
758 0 70.0994 13.2526 929 117.921 879.88 450.772
759 0 69.1063 11.1278 769 124.399 880.616 445.346
760 0 75.1462 15.6628 1177 113.641 880.331 450.663
761 0 76.0809 12.1844 927 120.93 881.027 448.607
762 0 80.1089 13.7313 1100 119.558 881.505 444.197
763 0 81.0816 15.0219 1218 120.505 882.685 449.572
764 0 83.2529 14.3298 1193 121.444 883.656 451.516
765 0 84.233 14.2937 1204 121.784 885.674 448.425
766 0 89.3182 15.8534 1416 118.294 885.275 447.311
767 0 93.3576 15.3817 1436 120.065 885.57 446.63
768 0 96.2886 14.1034 1358 122.035 885.848 447.085
769 0 99.1997 15.4335 1531 120.406 887.114 448.848
770 1 53.0717 12.7375 676 124.031 886.784 468.185
771 0 51.2102 10.8377 555 130.56 886.652 467.422
772 0 54.2148 11.5836 628 127.29 885.828 467.839
773 0 58.366 12.5929 735 122.358 887.279 464.762
774 0 59.0864 12.8287 758 121.963 887.203 467.024
775 0 61.3625 12.6787 778 118.644 888.13 463.909
776 0 64.4376 12.353 796 118.021 888.185 468.426
777 0 65.2133 14.1382 922 115.116 887.942 466.852
778 0 66.24 13.0737 866 115.309 888.464 463.704
779 0 69.1594 13.2737 918 114.962 888.317 466.802
780 0 72.2027 14.9994 1083 112.305 888.318 465.917
781 0 73.3896 14.9885 1100 113.79 888.104 460.938
782 0 75.2568 15.6132 1175 112.849 887.186 460.728
783 0 77.3622 13.6501 1056 115.724 887.548 461.451
784 0 81.109 14.0798 1142 114.878 886.549 460.867
785 0 84.1056 13.602 1144 119.452 887.045 460.912
786 0 87.2038 14.5062 1265 112.987 885.677 456.295
787 0 88.4757 12.738 1127 116.918 886.095 452.964
788 0 90.4359 13.07 1182 116.4 885.513 453.003
789 0 93.3205 13.9841 1305 115.693 884.879 450.686
790 0 93.3205 13.9091 1298 124.888 884.871 450.744
791 1 48.3519 12.2643 593 121.769 884.536 470.438
792 0 53.4755 14.6609 784 116.022 883.656 469.307
793 0 55.452 14.7335 817 115.918 884.26 468.523
794 0 57.092 12.5237 715 118.12 884.508 469.062
795 0 57.1212 11.5194 658 121.117 883.553 465.33
796 0 60.075 17.5281 1053 111.295 881.382 462.589
797 0 63.2298 14.5501 920 116.283 881.771 463.128
798 0 66.1902 14.2921 946 115.788 881.602 463.428
799 0 67.0751 14.7894 992 115.23 881.978 461.815
800 0 70.1372 16.5675 1162 112.282 881.211 457.998
801 0 73.2688 12.5838 922 117.671 881.739 459.579
802 0 75.195 13.2855 999 117.999 881.446 454.42
803 0 78.2819 14.0518 1100 115.943 881.901 453.986
804 0 80.436 13.6009 1094 117.826 883.394 449.109
805 1 41.02 13.7006 562 115.724 883.254 470.733
806 0 41.093 12.6055 518 119.253 883.079 467.147
807 0 45.296 13.754 623 115.809 883.356 465.196
808 0 44.0396 12.1709 536 118.06 885.711 468.254
809 0 43.1244 14.0292 605 117.825 886.26 467.755
810 0 45.0559 13.8273 623 116.485 886.878 467.873
811 0 49.1073 13.5214 664 116.313 886.651 464.773
812 0 49.1715 15.1104 743 112.296 887.152 465.705
813 0 48.1678 11.5015 554 118.652 887.901 467.312
814 0 49.048 9.11352 447 121.107 888.087 468.716
815 0 50.1546 9.69003 486 119.706 888.243 470.516
816 0 51.2173 11.9881 614 116.624 888.881 467.267
817 0 58.1937 15.225 886 107.843 887.886 469.79
818 0 58.2097 13.8637 807 111.269 887.33 469.185
819 0 59.2276 11.0759 656 116.768 887.549 467.508
820 0 62.221 11.9252 742 115.814 888.053 467.488
821 0 62.221 11.9252 742 120.827 889.031 467.372
822 0 68.4934 10.7018 733 116.292 888.053 465.73
823 0 69.3555 10.4966 728 115.624 888.014 465.038
824 1 39.0775 11.3108 442 111.493 886.457 480.706
825 0 41.0469 17.1755 705 104.306 885.923 480.689
826 0 40.0863 9.65417 387 114.243 886.246 481.979
827 0 44.0837 18.7824 828 100.181 885.103 482.114
828 0 44.0996 14.2632 629 107.89 885.668 480.417
829 0 44.1903 11.1337 492 113.445 884.211 478.142
830 0 44.1014 11.859 523 114.231 883.964 477.075
831 0 48.0584 16.043 771 107.764 883.662 474.693
832 0 48.0584 13.6292 655 111.081 882.853 476.969
833 0 48.1071 14.1559 681 111.702 882.673 472.33
834 0 49.1493 12.3501 607 115.779 882.201 470.364
835 0 51.2156 12.8281 657 114.104 882.638 470.221
836 0 55.1185 15.1492 835 110.238 882.52 467.465
837 0 56.1079 14.8464 833 110.737 883.256 467.607
838 0 59.1704 14.1118 835 111.562 881.553 464.891
839 0 59.143 13.814 817 112.767 881.017 463.619
840 0 63.167 13.3456 843 112.72 881.034 461.924
841 0 64.2566 13.5083 868 113.603 882.044 457.92
842 0 67.1429 19.0191 1277 105.522 882.354 456.081
843 0 68.2198 12.5037 853 116.157 881.408 456.615
844 0 72.2301 16.572 1197 110.097 882.228 455.738
845 0 75.1958 14.7349 1108 112.165 882.448 450.951
846 0 80.3568 16.2401 1305 109.249 880.789 451.492
847 0 80.1989 13.666 1096 114.131 882.851 444.811
848 1 44.0274 13.1509 579 112.047 884.159 468.33
849 0 46.2826 15.4053 713 109.798 883.94 464.746
850 0 46.0416 14.2914 658 112.286 885.424 464.976
851 0 47.1618 14.1852 669 113.598 884.94 464.245
852 0 48.0811 12.3333 593 117.231 886.656 464.877
853 0 49.0304 11.7682 577 119.237 885.343 464.468
854 0 53.2893 13.1359 700 116.196 887.059 464.229
855 0 54.0438 15.2284 823 112.765 887.474 463.356
856 0 55.1476 13.8175 762 115.874 887.842 460.669
857 0 58.1155 16.1747 940 111.006 888.153 461.71
858 0 60.1154 13.341 802 115.584 888.327 462.302
859 0 62.032 14.0411 871 114.821 888.612 461.445
860 0 63.0774 15.473 976 112.888 887.863 465.032
861 0 63.1809 13.6592 863 116.267 889.338 463.468
862 0 68.0447 14.8138 1008 115.44 888.552 463.571
863 0 70.1542 14.7675 1036 115.931 888.348 461.409
864 0 72.1452 13.8471 999 118.997 887.181 459.253
865 0 76.1375 13.318 1014 119.414 887.24 458.046
866 0 80.1823 14.018 1124 117.012 888.174 461.041
867 0 80.1823 14.0679 1128 130.45 889.159 461.143
868 1 45.0964 11.4865 518 119.236 886.645 478.264
869 0 45.0562 9.76559 440 123.175 886.359 477.975
870 0 46.1395 11.2702 520 121.681 886.356 475.35
871 0 47.0705 10.8773 512 121.344 885.492 475.475
872 0 51.1355 13.0633 668 117.271 888.235 477.683
873 0 52.0663 12.2344 637 120.447 888.014 475.559
874 0 52.0663 12.2536 638 140.176 887.005 475.654
875 0 56.1197 12.9901 729 118.963 887.412 471.978
876 0 57.1203 16.8591 963 112.479 887.33 471.43
877 0 59.1387 14.4914 857 117.425 886.526 465.603
878 0 60.1425 13.2519 797 118.004 886.213 468.094
879 0 62.1602 13.4652 837 119.871 884.89 463.471
880 0 66.0577 14.2451 941 117.393 885.641 464.184
881 0 68.1981 15.5136 1058 116.38 884.058 458.698
882 0 71.1098 15.4409 1098 116.561 883.806 458.467
883 0 73.199 14.7543 1080 117.54 883.735 459.342
884 0 77.0979 14.3454 1106 119.049 883.93 455.18
885 0 79.3952 13.9303 1106 118.442 883.662 457.625
886 0 79.2017 15.7825 1250 119.325 884.072 450.531
887 0 83.1067 13.6812 1137 121.224 884.468 450.58
888 1 42.0274 14.5857 613 116.398 881.457 470.504
889 0 42.0274 14.6095 614 142.883 880.471 470.521
890 0 45.1427 13.5792 613 114.93 882.997 467.874
891 0 46.1118 11.9492 551 118.14 885.822 466.808
892 0 50.1756 14.7482 740 111.609 887.055 466.164
893 0 52.1438 14.2874 745 112.685 887.25 465.091
894 0 53.1927 13.2537 705 113.054 889.011 467.894
895 0 53.1494 15.447 821 111.727 888.111 466.346
896 0 54.2351 14.6215 793 114.774 888.434 463.255
897 0 58.3312 16.1663 943 112.433 888.91 462.291
898 0 57.2484 13.3104 762 117.912 889.49 462.848
899 0 57.1515 11.7932 674 121.88 889.509 461.408
900 0 61.3235 13.1923 809 118.943 889.803 460.467
901 0 65.2149 15.3646 1002 115.195 889.857 460.098
902 0 65.3536 13.1745 861 118.54 890.446 459.236
903 0 71.5184 14.7514 1055 114.326 890.153 462.095
904 0 71.3512 12.3614 882 119.211 891.384 461.579
905 0 71.3512 12.4875 891 143.728 892.402 461.397
906 0 77.2288 15.5383 1200 115.031 889.666 458.857
907 0 79.2317 16.3192 1293 114.564 889.665 457.895
908 0 81.2203 14.2083 1154 119.542 889.178 455.876
909 0 84.2737 13.6342 1149 120.614 889.341 456.937
910 1 42.1508 7.71041 325 127.262 888.474 480.274
911 0 47.0839 11.4476 539 121.043 888.542 479.801
912 0 47.1549 13.3814 631 119.227 888.254 476.726
913 0 49.0738 11.6763 573 121.047 886.754 476.668
914 0 49.1781 11.6109 571 122.473 888.727 474.89
915 0 53.1649 13.5052 718 121.826 887.164 476.206
916 0 54.2759 14.021 761 120.088 886.576 476.485
917 0 55.1677 13.6312 752 121.335 885.879 471.935
918 0 59.0803 14.0148 828 119.882 884.801 470.447
919 0 58.1468 13.7411 799 121.196 885.297 469.379
920 0 62.1014 15.6035 969 115.622 884.982 469.085
921 0 63.0401 13.2773 837 121.205 884.975 463.642
922 0 66.1207 13.6266 901 121.606 884.929 462.545
923 0 68.0998 12.79 871 125.294 884.896 459.529
924 0 70.0576 11.619 814 126.038 884.038 458.92
925 0 74.1511 13.4995 1001 122.947 883.854 458.33
926 0 76.1329 11.9265 908 124.454 883.998 456.893
927 1 42.0283 11.1592 469 120.9 884.514 471.983
928 0 41.0159 11.1664 458 125.207 885.153 470.074
929 0 43.1656 13.9926 604 120.124 884.909 467.589
930 0 43.1158 13.916 600 115.737 881.968 469.627
931 0 44.1116 14.2819 630 116.254 882.538 467.292
932 0 48.0767 12.9793 624 116.55 882.143 466.721
933 0 47.1128 12.0137 566 118.648 886.053 467.461
934 0 53.1578 20.4109 1085 103.817 885.442 466.452
935 0 49.0529 13.1287 644 119.894 886.694 465.244
936 0 52.124 16.0578 837 113.841 887.367 463.681
937 0 53.1472 16.031 852 112.745 887.692 464.715
938 0 54.2377 11.5787 628 121.521 888.396 463.725
939 0 52.0982 12.7452 664 122.768 889.209 460.506
940 0 56.1929 12.0122 675 122.273 889.043 463.578
941 0 59.1176 14.2766 844 118.751 889.489 462.29
942 0 60.0263 10.2788 617 125.269 890.303 463.956
943 0 61.1662 11.9183 729 124.188 889.878 460.462
944 0 68.142 12.8702 877 120.561 891.083 461.022
945 0 67.2194 12.6154 848 121.967 890.754 455.266
946 0 69.2031 15.0427 1041 118.684 889.481 459.719
947 0 72.3044 14.1485 1023 120.519 890.155 456.654
948 0 78.4969 17.4402 1369 112.47 889.926 460.519
949 0 79.2342 14.8547 1177 118.005 890.508 460.583
950 0 82.3774 13.6567 1125 119.652 890.057 459.503
951 1 47.3553 12.2267 579 121.991 889.725 473.853
952 0 46.3039 8.59539 398 125.495 889.231 478.349
953 0 47.3302 11.2613 533 122.096 888.829 476.735
954 0 53.1511 13.6968 728 118.584 889.911 476.705
955 0 53.2479 12.9019 687 120.179 888.354 475.687
956 0 57.2135 12.13 694 122.47 887.736 474.055
957 0 57.1247 14.022 801 119.93 886.845 471.893
958 0 60.2523 11.0535 666 123.572 886.302 472.791
959 0 64.1159 11.9315 765 122.173 886.897 470.459
960 0 63.2315 10.0108 633 126.449 885.052 468.856
961 0 63.2907 12.1819 771 123.157 883.374 470.176
962 0 67.0836 12.6558 849 121.101 883.704 467.451
963 0 69.0994 12.8655 889 120.754 885.877 468.463
964 0 71.1896 15.6905 1117 116.757 882.552 467.18
965 0 72.1557 14.3024 1032 118.972 882.389 465.453
966 0 78.1951 16.7913 1313 114.097 881.962 463.372
967 0 79.0961 12.9968 1028 120.844 883.957 459.164
968 0 83.0568 15.375 1277 115.688 883.765 457.55
969 0 83.0825 10.965 911 121.063 884.486 458.919
970 1 43.058 9.9633 429 123.287 879.97 473.809
971 0 45.1336 11.8315 534 118.431 882.06 473.228
972 0 48.2498 13.3472 644 115.919 882.767 465.634
973 0 48.0986 12.911 621 112.963 883.755 465.312
974 0 51.0456 10.6767 545 116.106 883.253 462.833
975 0 51.1964 16.1535 827 113.486 883.73 465.289
976 0 53.2208 11.9502 636 120.447 884.948 465.127
977 0 54.1846 13.1772 714 118.581 884.948 463.458
978 0 56.0611 13.7885 773 119.261 885.392 461.323
979 0 59.0993 13.2827 785 117.687 886.694 462.406
980 0 61.0458 16.7907 1025 111.767 886.857 462.285
981 0 62.1158 13.8451 860 119.559 888.142 456.662
982 0 65.2369 16.1718 1055 115.468 887.205 459.646
983 0 69.141 15.3165 1059 112.529 887.968 460.529
984 0 74.2381 19.5048 1448 107.14 888.572 456.671
985 0 73.094 16.5951 1213 109.279 889.121 459.838
986 0 73.0996 15.0206 1098 112.88 890.507 454.286
987 0 78.3088 14.2257 1114 115.82 889.019 457.957
988 0 82.1426 18.2731 1501 110.149 889.481 453.156
989 0 85.1853 12.69 1081 117.803 890.958 453.5
990 0 89.1135 13.769 1227 114.961 892.194 454.706
991 1 50.102 14.6102 732 112.104 891.116 474.878
992 0 50.2348 15.4674 777 112.667 891.004 474.394
993 0 50.1896 13.3494 670 111.684 890.084 473.021
994 0 52.1219 12.2789 640 116.691 890.531 475.105
995 0 55.2251 16.7496 925 108.902 890.317 469.893
996 0 58.136 14.0361 816 112.795 889.121 473.21
997 0 57.2256 13.1934 755 121.355 889.499 471.286
998 0 60.1503 14.7464 887 119.016 889.543 469.841
999 0 62.1615 12.2906 764 119.082 889.033 474.953
1000 0 63.2118 12.9406 818 118.485 887.769 469.685
1001 0 67.2133 15.4136 1036 114.433 886.014 469.009
1002 0 69.2513 14.0214 971 117.251 885.908 466.452
1003 0 68.5324 11.6441 798 120.495 885.264 467.882
1004 0 77.1987 14.4562 1116 120.797 884.108 463.437
1005 0 73.3877 11.01 808 128.869 883.577 465.277
1006 0 79.4512 15.5064 1232 122.467 883.362 457.604
1007 0 83.258 14.1248 1176 123.968 883.711 460.166
1008 0 87.3192 12.0936 1056 126.595 883.165 457.053
1009 1 45.1712 13.8805 627 119.55 883.321 474.407
1010 0 47.1526 11.9824 565 122.335 884.028 476.129
1011 0 47.187 12.8425 606 122.432 883.375 469.762
1012 0 50.0579 13.0649 654 114.657 882.644 469.709
1013 0 50.063 9.46806 474 120.58 883.342 469.81
1014 0 51.0449 11.7348 599 117.583 883.08 468.761
1015 0 55.2154 15.032 830 111.453 878.17 463.799
1016 0 58.1511 14.4795 842 110.501 879.024 464.483
1017 0 58.2792 10.2095 595 111.953 879.538 463.985
1018 0 60.3285 12.2828 741 111.046 879.576 460.854
1019 0 60.1405 11.6727 702 113.427 883.561 456.245
1020 0 62.2665 12.2377 762 112.306 883.908 453.122
1021 0 64.3623 12.7404 820 111 884.579 454.905
1022 0 66.2527 13.4636 892 111.057 884.496 452.651
1023 0 70.154 16.0219 1124 106.351 884.835 453.679
1024 0 71.3592 12.332 880 112.076 885.242 452.88
1025 0 74.157 12.7028 942 111.811 885.31 454.849
1026 0 76.1241 14.7522 1123 110.435 886.937 446.8
1027 0 78.2275 12.2208 956 114.56 887.864 451.048
1028 0 81.2777 12.1559 988 115.238 888.126 449.312
1029 0 85.2841 12.6049 1075 115.809 889.117 446.278
1030 0 85.1657 10.0862 859 123.662 890.473 450.914
1031 0 88.1683 11.2625 993 120.982 890.458 446.32
1032 0 89.302 11.8362 1057 118.775 891.246 452.765
1033 0 87.2626 6.34865 554 120.435 891.978 461.888
1034 0 91.3663 7.85847 718 122.604 890.887 457.974
1035 0 94.2508 11.7771 1110 120.851 890.221 449.612
1036 1 57.0405 14.7614 842 112.653 891.222 470.571
1037 0 58.2916 14.4618 843 113.638 888.203 472.982
1038 0 60.2535 14.439 870 114.922 890.898 468.57
1039 0 60.1735 17.8152 1072 109.567 889.237 469.554
1040 0 63.1416 14.9822 946 113.263 888.59 469.712
1041 0 66.3859 14.7622 980 116.147 886.767 465.853
1042 0 68.2587 13.3023 908 119.082 886.329 468.03
1043 0 70.2562 15.7566 1107 114.397 885.386 468.562
1044 0 72.2769 13.3929 968 119.526 885.32 466.108
1045 0 76.4552 16.598 1269 113.09 884.03 464.084
1046 0 77.2657 14.2495 1101 116.825 884.101 465.032
1047 0 79.2435 17.339 1374 112.943 884.976 463.192
1048 0 82.4455 13.9607 1151 122.483 884.075 462.235
1049 0 84.2393 14.6962 1238 122.092 882.817 459.284
1050 0 88.289 14.3506 1267 121.508 883.555 459.559
1051 1 43.2943 9.35458 405 123.36 880.751 481.146
1052 0 44.4891 11.8007 525 121.404 881.762 477.101
1053 0 46.6122 12.6791 591 120.037 881.276 474.264
1054 0 48.5142 13.2951 645 120.236 881.901 473.853
1055 0 48.2811 15.7619 761 115.886 880.884 473.511
1056 0 50.2709 16.3514 822 115.754 880.635 470.167
1057 0 52.185 11.8616 619 123.179 881.267 471.754
1058 0 53.2691 13.8917 740 121.684 881.695 469.036
1059 0 54.4042 16.1936 881 117.578 881.55 466.311
1060 0 57.4992 13.8089 794 122.516 881.786 465.499
1061 0 57.2042 13.0235 745 125.003 882.654 464.16
1062 0 62.263 14.8884 927 121.239 881.844 464.025
1063 0 62.263 14.9045 928 139.442 881.842 464.081
1064 0 64.9626 13.1768 856 124.201 882.423 461.527
1065 0 65.3632 12.3005 804 128.08 883.776 457.29
1066 0 68.3338 14.4292 986 124.525 884.006 455.079
1067 0 70.605 14.2058 1003 125.945 884.951 454.727
1068 0 75.0455 14.378 1079 123.704 885.354 455.347
1069 0 74.3278 13.6826 1017 126.762 885.788 453.353
1070 0 79.609 16.7569 1334 121.609 887.409 449.201
1071 0 83.7996 14.3915 1206 123.779 887.449 451.544
1072 0 85.8689 17.9227 1539 118.276 887.24 452.151
1073 0 86.1749 12.8344 1106 129.287 887.768 446.714
1074 0 91.8314 15.1147 1388 123.993 889.011 448.957
1075 0 91.1919 14.3544 1309 126.67 888.982 447.757
1076 0 95.6783 15.0713 1442 125.475 888.638 447.078
1077 0 100.568 13.1951 1327 127.887 888.427 445.169
1078 0 105.381 15.6385 1648 123.621 889.26 445.263
1079 0 110.4 13.6867 1511 126.313 889.417 447.105
1080 0 111.349 13.4173 1494 128.106 890.143 445.558
1081 0 115.446 15.1932 1754 125.211 888.788 446.039
1082 0 117.62 16.0942 1893 126.513 889.765 439.812
1083 0 124.488 15.2545 1899 126.826 888.098 445.434
1084 0 122.593 13.7528 1686 130.927 888.063 442.265
1085 0 130.627 15.3567 2006 128.107 887.494 440.216
1086 1 71.2001 17.2472 1228 122.179 886.041 471.54
1087 0 73.2419 16.1793 1185 127.164 884.871 467.906
1088 0 74.2094 18.879 1401 122.758 884.67 466.54
1089 0 75.2912 14.6099 1100 132.43 883.431 463.614
1090 0 79.614 15.5123 1235 131.143 883.296 462.827
1091 0 78.2732 14.3472 1123 135.823 882.118 459.374
1092 0 83.7213 13.8913 1163 134.187 881.039 464.667
1093 0 85.5635 15.6726 1341 131.658 881.765 457.378
1094 0 85.5113 16.8633 1442 128.738 881.47 458.611
1095 0 90.3911 16.6388 1504 129.636 881.168 453.058
1096 0 90.6053 14.4804 1312 133.675 880.41 451.69
1097 0 94.444 15.3954 1454 131.691 880.633 451.093
1098 0 99.7324 13.2154 1318 135.563 880.961 447.121
1099 0 101.324 15.8107 1602 130.734 880.443 445.901
1100 1 55.2652 11.7434 649 127.311 880.2 469.22
1101 0 56.2146 12.648 711 129.844 880.167 465.57
1102 0 58.2226 13.2938 774 129.676 881.081 461.898
1103 0 58.084 9.34853 543 127.807 880.766 463.541
1104 0 62.2807 15.2856 952 117.312 880.355 463.299
1105 0 61.2653 10.2342 627 125.974 880.643 458.767
1106 0 67.3372 14.0784 948 116.788 880.772 461.489
1107 0 68.2606 13.2141 902 119.31 882.922 457.645
1108 0 72.5711 11.7402 852 119.751 882.207 457.35
1109 0 74.1733 14.2235 1055 117.484 884.462 452.205
1110 0 73.2737 10.5768 775 122.803 885.272 450.106
1111 0 80.1961 11.5716 928 120.52 884.404 452.304
1112 0 82.1779 13.9332 1145 116.098 885.535 454.246
1113 0 86.2804 16.4116 1416 111.884 886.732 454.674
1114 0 89.1576 11.8218 1054 122.652 886.93 446.678
1115 0 92.3008 16.9446 1564 116.34 888.529 446.552
1116 0 95.3439 13.1419 1253 119.948 887.539 447.54
1117 0 97.5904 14.2739 1393 118.441 888.745 445.9
1118 1 49.1389 8.64895 425 119.322 886.666 470.134
1119 0 54.229 13.4246 728 109.883 888.239 472.198
1120 0 52.2803 9.92726 519 116.089 887.455 472.137
1121 0 57.2458 11.4943 658 120.424 886.444 471.685
1122 0 57.1819 10.8776 622 121.487 886.484 471.305
1123 0 60.4326 11.6659 705 119.738 887.101 471.143
1124 0 64.3505 14.8406 955 114.063 886.808 470.911
1125 0 63.192 11.7578 743 120.549 886.891 469.956
1126 0 63.1364 11.2455 710 122.148 885.763 469.175
1127 0 69.5074 13.8546 963 117.127 885.561 472.908
1128 0 71.2269 13.1551 937 119.601 885.786 467.933
1129 0 73.2277 12.4543 912 121.407 883.469 468.684
1130 0 77.2808 10.546 815 124.291 882.25 469.163
1131 0 75.1871 7.36828 554 130.662 881.928 467.054
1132 0 80.1571 10.5293 844 123.704 881.982 469.808
1133 0 83.1903 12.0928 1006 120.863 881.744 467.346
1134 1 41.113 8.97527 369 118.959 883.241 484.404
1135 0 44.1067 9.61305 424 119.179 880.177 481.91
1136 0 43.2657 9.89236 428 118.236 881.645 483.923
1137 0 43.1144 6.86546 296 123.135 881.03 483.693
1138 0 43.1144 6.74949 291 114.165 880.024 483.674
1139 0 47.1008 9.93614 468 121.034 880.605 478.35
1140 0 45.1169 10.4395 471 120.754 880.217 479.251
1141 0 49.1176 12.0527 592 118.051 879.583 474.99
1142 0 47.0565 7.65038 360 126.014 880.014 473.294
1143 0 51.1703 11.0416 565 119.681 878.899 473.032
1144 0 54.2032 14.1689 768 114.992 878.397 472.286
1145 0 55.13 11.1192 613 122.382 878.091 467.253
1146 0 57.1676 11.8949 680 120.068 879.456 468.096
1147 0 59.3346 12.6065 748 119.902 879.285 465.941
1148 0 59.2225 12.0224 712 122.103 879.815 461.656
1149 0 63.3088 12.052 763 119.664 879.678 463.028
1150 0 66.3195 13.1032 869 119.613 881.884 458.448
1151 0 67.4174 8.17296 551 127.37 882.686 464.588
1152 0 69.3363 11.4226 792 124.405 881.948 457.705
1153 0 71.4183 12.5318 895 122.596 884.331 458.488
1154 0 71.3386 10.6394 759 126.117 887.142 461.252
1155 0 75.3555 11.1073 837 124.724 885.576 456.619
1156 0 77.7457 13.6985 1065 127.173 886.143 455.898
1157 0 76.8125 12.3938 952 131.857 885.591 455.951
1158 1 41.0688 13.1487 540 121.167 886.935 474.769
1159 0 39.0177 12.9172 504 122.141 887.125 476.5
1160 0 41.0315 10.2604 421 128.316 888.896 474.485
1161 0 45.066 11.4943 518 125.16 887.357 477.502
1162 0 46.0852 11.7825 543 126.024 889.368 475.265
1163 0 45.1078 12.0157 542 127.301 888.83 477.312
1164 0 45.1379 11.2323 507 127.667 888.657 479.132
1165 0 51.1929 11.3688 582 126.72 889.394 479.971
1166 0 52.0739 14.8443 773 123.069 889.03 476.616
1167 0 52.0613 12.0819 629 128.715 889.176 479.777
1168 0 52.0777 11.7901 614 131.674 888.547 477.459
1169 0 54.2472 10.9499 594 132.643 887.668 479.278
1170 0 54.1224 9.53395 516 135.331 886.415 481.955
1171 0 58.0366 12.2509 711 132.64 885.681 479.783
1172 0 59.3079 11.9714 710 135.317 885.992 479.061
1173 0 61.2915 14.0966 864 131.578 884.681 476.645
1174 0 62.1797 10.2284 636 139.997 882.759 480.263
1175 0 64.3566 11.4518 737 137.687 883.651 479.582
1176 0 67.2407 12.7155 855 137.516 882.414 474.614
1177 0 71.1959 11.5737 824 143.432 882.485 472.576
1178 0 74.3362 13.7484 1022 138.28 880.955 469.782
1179 0 75.3968 13.303 1003 139.513 881.13 470.316
1180 0 74.2655 14.8387 1102 134.992 881.13 469.237
1181 0 75.7285 14.8029 1121 134.616 881.252 469.948
1182 0 78.4423 13.8446 1086 137.977 880.934 465.37
1183 0 79.5405 14.7849 1176 136.467 881.046 461.695
1184 1 44.1368 11.8948 525 135.269 881.434 480.916
1185 0 44.0451 9.83084 433 139.182 880.857 481.09
1186 0 44.11 11.562 510 135.794 880.376 479.439
1187 0 48.0941 11.9557 575 135.344 880.231 476.689
1188 0 48.0607 10.4867 504 134.631 880.659 478.333
1189 1 95.4155 10.1137 965 145.052 880.397 455.497
1190 0 98.4694 13.9942 1378 138.978 881.092 447.892
1191 0 103.721 15.5802 1616 134.441 881.251 447.168
1192 0 103.355 12.7038 1313 141.492 882.292 443.177
1193 0 110.428 14.9599 1652 135.469 882.797 442.94
1194 0 112.403 15.391 1730 133.798 881.909 444.243
1195 0 117.464 14.5406 1708 136.833 883.455 437.333
1196 0 118.318 14.7062 1740 136.848 883.262 433.407
1197 0 122.57 13.4128 1644 138.85 884.313 432.52
1198 0 126.523 14.6218 1850 135.779 884.909 432.022
1199 1 34.2013 10.7013 366 139.497 885.227 475.172
1200 0 37.032 12.0706 447 134.387 886.103 475.819
1201 0 38.0809 12.1846 464 134.922 886.976 475.556
1202 0 37.0749 12.0027 445 136.117 887.036 474.692
1203 0 41.0457 11.8404 486 134.064 887.576 475.977
1204 0 40.0656 11.8556 475 136.855 887.968 475.699
1205 0 41.0986 10.268 422 139.938 888.201 477.436
1206 0 44.2618 14.7757 654 132.768 890.092 476.485
1207 0 41.0497 12.7163 522 133.031 888.28 478.084
1208 0 45.1482 11.8277 534 131.541 888.152 482.047
1209 0 43.058 11.7516 506 134.486 888.024 480.808
1210 0 47.0649 11.8772 559 133.787 886.256 479.202
1211 0 48.0542 12.1946 586 132.002 886.766 481.253
1212 1 97.5038 9.77397 953 141.623 887.6 462.107
1213 0 100.757 12.5054 1260 136.414 887.613 459.085
1214 0 103.392 12.7186 1315 136.268 886.418 460.328
1215 0 104.802 14.0264 1470 135.783 886.526 455.935
1216 0 105.645 11.7753 1244 139.477 885.439 458.909
1217 1 56.086 12.4452 698 132.308 883.623 478.811
1218 0 59.1701 11.2895 668 132.049 883.046 482.537
1219 0 58.0814 15.4094 895 126.32 883.494 477.98
1220 0 61.1764 13.2568 811 132.409 882.036 473.35
1221 0 63.1508 13.2223 835 132.83 881.642 472.554
1222 0 66.3962 10.9795 729 133.395 880.56 473.181
1223 0 67.2167 14.7434 991 129.59 881.63 471.49
1224 0 67.2767 12.8276 863 132.733 880.6 471.194
1225 0 74.2571 13.965 1037 130.323 879.246 467.906
1226 1 39.0632 12.5694 491 133.301 880.106 482.173
1227 0 39.0364 10.8873 425 137.725 880.32 481.944
1228 0 40.1458 13.8246 555 133.44 881.063 479.02
1229 0 43.1114 14.0102 604 130.758 881.573 477.836
1230 0 42.1195 12.3458 520 134.792 881.317 476.644
1231 1 83.8687 14.4154 1209 131.197 881.029 455.002
1232 0 86.4181 14.1984 1227 129.985 881.082 459.029
1233 0 87.786 13.7152 1204 133.162 880.767 451.37
1234 0 93.6855 10.5459 988 137.646 881.314 453.371
1235 0 95.9678 13.9422 1338 131.105 881.277 451.833
1236 0 96.5942 13.3238 1287 134.039 883.427 447.607
1237 0 100.514 16.5847 1667 129.223 884.058 443.19
1238 1 49.2695 11.0616 545 134.16 884.719 470.266
1239 0 53.298 12.0455 642 132.413 885.089 468.101
1240 0 53.2053 15.6563 833 126.345 885.803 468.842
1241 1 109.602 10.5199 1153 140.285 886.863 443.09
1242 0 109.602 10.6841 1171 154.856 887.854 442.886
1243 0 112.774 15.0123 1693 131.48 887.549 441.599
1244 0 111.594 11.5418 1288 135.626 887.977 445.573
1245 0 102.861 7.79693 802 140.774 888.734 453.779
1246 0 106.517 10.0829 1074 137.001 890.058 452.702
1247 0 105.824 11.3585 1202 138.674 891.067 446.286
1248 1 70.123 12.6777 889 130.296 889.646 463.585
1249 0 75.2865 13.1099 987 128.199 890.178 463.992
1250 0 75.247 11.9872 902 131.567 888.931 463.514
1251 1 41.1433 16.4061 675 118.993 890.779 481.71
1252 0 37.04 11.0961 411 133.652 888.078 483.849
1253 0 40.3519 11.7714 475 131.634 888.75 484.945
1254 0 41.0532 13.2755 545 128.974 888.325 484.872
1255 0 40.2601 11.4257 460 134.004 887.883 484.143
1256 0 41.1205 11.8919 489 134.053 888.27 484.969
1257 0 45.2404 11.7152 530 132.081 887.576 484.206
1258 0 45.3341 10.2131 463 134.346 887.136 485.426
1259 0 46.1252 11.4254 527 133.81 886.594 483.089
1260 0 50.2052 13.9428 700 127.611 884.86 483.379
1261 0 50.2578 13.7292 690 130.177 883.749 480.057
1262 0 50.2692 9.2502 465 136.996 883.138 481.991
1263 0 53.1777 13.107 697 130.845 882.327 476.871
1264 0 57.3735 13.3337 765 130.03 881.976 475.544
1265 0 59.376 11.8566 704 132.494 882.608 475.254
1266 0 60.4963 12.1164 733 132.708 881.082 470.632
1267 0 63.4599 11.7397 745 133.095 881.769 467.974
1268 0 64.4674 12.9523 835 131.078 882.759 469.423
1269 0 65.2658 8.73352 570 137.146 881.04 466.068
1270 0 70.4012 12.8549 905 128.129 880.475 463.078
1271 0 73.3314 13.5685 995 126.041 880.321 463.351
1272 0 75.633 12.1772 921 129.963 881.134 460.461
1273 0 79.2807 9.95198 789 134.862 880.351 459.471
1274 1 39.0168 10.4827 409 129.714 882.553 476.496
1275 0 40.0781 10.7291 430 130.851 881.454 471.707
1276 0 38.0435 12.1703 463 129.421 881.689 474.08
1277 0 41.0785 10.5895 435 130.099 882.131 474.26
1278 0 41.133 9.99197 411 133.139 882.594 473.032
1279 0 41.2078 10.5077 433 132.711 883.307 470.249
1280 0 45.1603 10.2524 463 128.443 883.972 476.864
1281 0 44.1646 13.9025 614 127.319 884.676 469.842
1282 1 100.913 12.7337 1285 137.556 885.928 442.518
1283 0 101.361 12.4012 1257 140.55 885.272 437.829
1284 0 108.728 13.7223 1492 135.985 887.125 440.134
1285 0 115.02 13.0499 1501 135.257 887.895 440.254
1286 0 115.703 14.3297 1658 134.283 888.52 436.424
1287 1 60.2427 12.9808 782 127.244 887.843 464.382
1288 0 57.2777 12.518 717 130.202 888.71 464.837
1289 0 61.3032 13.996 858 123.508 889.242 468.226
1290 0 64.2908 13.7034 881 125.888 889.154 467.689
1291 0 68.5566 14.2948 980 124.307 889.635 465.201
1292 0 68.5473 12.8378 880 127.068 889.972 468.782
1293 0 72.3958 13.8682 1004 127.332 889.719 463.861
1294 0 75.3134 14.048 1058 127.491 888.808 463.422
1295 0 76.4264 13.3462 1020 133.208 888.426 457.994
1296 0 83.2769 14.3617 1196 128.125 889.36 462.655
1297 0 82.302 13.2561 1091 131.031 889.084 462.996
1298 0 83.3346 12.1078 1009 135.157 889.96 459.83
1299 0 89.4359 14.0212 1254 130.882 889.278 460.306
1300 0 92.3506 13.1239 1212 134.116 887.473 456.85
1301 0 96.3972 16.0274 1545 126.789 887.197 459.116
1302 1 50.2404 11.7037 588 131.546 886.213 477.889
1303 0 52.0999 10.9405 570 130.847 885.265 481.021
1304 0 53.1102 11.8998 632 128.68 884.362 480.715
1305 0 56.1412 12.4686 700 126.687 883.524 479.607
1306 0 55.2598 12.8484 710 127.132 882.78 478.406
1307 0 57.1324 10.3969 594 130.396 882.953 477.774
1308 0 54.2213 11.0842 601 129.26 880.737 472.787
1309 0 65.1221 13.3288 868 125.329 879.946 466.945
1310 0 70.2169 14.7543 1036 120.912 880.919 466.76
1311 0 70.2971 11.7217 824 124.761 880.482 464.955
1312 0 72.2059 12.1874 880 125.014 880.269 459.334
1313 1 45.1428 11.6741 527 120.556 879.837 475.932
1314 0 42.2196 11.1796 472 122.847 880.411 472.911
1315 0 41.2035 12.1834 502 121.408 880.645 472.215
1316 0 41.0975 11.6552 479 121.797 881.054 471.785
1317 0 44.1927 11.9477 528 119.814 881.055 469.742
1318 0 44.1564 12.7275 562 117.838 881.169 469.012
1319 0 45.2256 13.51 611 114.65 882.002 471.481
1320 0 45.137 11.9857 541 120.03 882.604 467.092
1321 0 49.1618 12.0622 593 118.675 882.968 466.496
1322 0 47.2549 10.1788 481 122.574 884.243 466.247
1323 0 49.3188 11.2736 556 120.315 884.987 466.122
1324 0 54.1679 12.9597 702 116.705 886.313 465.678
1325 0 54.2831 16.2481 882 110.034 887.234 467.167
1326 0 54.1084 12.1423 657 117.263 886.135 465.486
1327 0 54.1084 12.0868 654 118.278 885.124 465.528
1328 0 57.2756 10.1439 581 121.176 888.709 465.207
1329 0 57.2756 10.1439 581 122.317 892.744 465.296
1330 0 59.5418 8.69978 518 122.483 888.84 466.82
1331 1 118.591 13.3653 1585 123.304 887.915 438.798
1332 1 142.73 8.65273 1235 124.453 889.412 446.773
1333 1 64.5549 12.2376 790 116.889 888.189 464.323
1334 0 70.3838 13.3553 940 114.571 888.749 466.105
1335 0 71.6788 9.16589 657 122.093 887.846 465.338
1336 0 73.3489 12.5019 917 117.059 887.647 462.015
1337 0 76.3472 14.6305 1117 113.969 887.298 462.758
1338 0 78.2895 10.9466 857 118.65 886.404 464.553
1339 0 80.4937 7.73974 623 122.831 887.493 467.719
1340 0 85.4459 15.0388 1285 114.68 886.39 459.401
1341 0 85.2092 11.2664 960 119.003 886.266 463.594
1342 0 86.235 6.30834 544 127.392 886.136 461.983
1343 0 89.3217 10.5238 940 123.187 884.678 455.596
1344 0 96.3091 11.8057 1137 120.268 884.347 456.862
1345 0 96.2012 10.977 1056 124.893 882.365 453.049
1346 0 100.352 12.9146 1296 123.881 882.862 449.921
1347 0 101.31 9.27845 940 128.31 882.336 452.343
1348 0 101.31 9.42651 955 133.913 882.32 452.263
1349 0 112.312 15.27 1715 119.775 881.131 444.866
1350 0 111.286 9.04875 1007 128.839 881.819 443.057
1351 0 119.411 13.6168 1626 122.367 881.975 440.068
1352 0 122.478 13.0391 1597 124.319 880.899 435.096
1353 1 71.3277 9.70169 692 124.449 881.824 459.329
1354 0 75.1174 10.3571 778 123.951 880.315 457.19
1355 0 79.2672 12.0605 956 119.581 880.871 459.06
1356 0 79.1752 10.6473 843 122.282 879.935 456.135
1357 0 84.4114 12.2258 1032 119.223 879.788 455.954
1358 0 86.3214 12.801 1105 120.257 880.121 448.371
1359 0 94.519 13.5528 1281 116.26 880.23 452.086
1360 0 90.2044 9.00178 812 126.808 881.326 447.846
1361 0 94.2054 12.3878 1167 121.853 881.625 445.034
1362 0 97.0997 14.0989 1369 119.912 881.981 441.752
1363 0 102.133 14.1579 1446 120.224 882.759 438.929
1364 0 104.132 12.3786 1289 122.82 882.361 438.234
1365 0 106.213 10.9214 1160 125.703 884.588 435.385
1366 0 111.154 10.8678 1208 127.092 885.788 430.836
1367 1 61.1039 13.6489 834 119.348 884.264 458.468
1368 0 62.1526 11.0213 685 124.683 885.806 457.87
1369 0 63.1796 11.4911 726 124.836 887.846 453.208
1370 0 63.2205 11.5627 731 124.725 888.164 458.573
1371 0 69.1161 13.3977 926 119.708 888.565 457.165
1372 0 72.187 11.0131 795 123.123 889.581 458.504
1373 0 72.1182 11.6337 839 122.697 888.502 457.921
1374 0 75.2613 13.101 986 120.5 890.205 455.707
1375 0 77.1534 12.6242 974 121.161 889.177 453.925
1376 0 78.13 12.0568 942 121.045 889.838 458.143
1377 0 82.1785 12.9839 1067 120.545 890.162 454.136
1378 0 84.1224 13.4566 1132 118.954 890.286 457.147
1379 0 86.2003 12.1345 1046 122.588 889.302 449.919
1380 0 87.1762 10.7139 934 124.779 889.577 450.46
1381 0 92.1596 12.2071 1125 120.711 889.364 454.168
1382 0 95.1096 12.4278 1182 120.204 889.956 452.26
1383 0 95.1096 12.5119 1190 131.518 890.938 452.252
1384 0 102.233 16.7167 1709 111.884 889.005 450.426
1385 0 102.48 11.329 1161 117.893 887.142 454.244
1386 0 107.159 13.7086 1469 114.922 885.577 443.634
1387 0 109.508 12.4648 1365 118.2 883.482 444.632
1388 0 114.363 12.5828 1439 116.499 883.62 446.442
1389 0 118.191 11.6168 1373 117.52 882.028 446.079
1390 0 124.504 17.0115 2118 111.142 882.544 439.665
1391 1 56.1904 9.82374 552 112.371 881.781 473.804
1392 0 58.2285 9.47989 552 112.694 881.442 472.774
1393 0 61.1717 11.623 711 110.037 881.616 468.502
1394 0 62.1654 10.1343 630 113.365 881.129 466.23
1395 0 64.1865 13.2427 850 110.354 879.927 466.231
1396 0 66.1595 10.5654 699 113.78 880.342 465.767
1397 0 69.1883 15.0603 1042 108.179 879.091 460.802
1398 0 69.2453 11.7698 815 112.671 879.445 462.612
1399 0 72.2425 12.375 894 112.339 879.367 459.879
1400 0 72.2614 12.6208 912 113.539 879.723 457.146
1401 0 73.2309 12.2762 899 113.715 880.325 457.988
1402 0 76.2752 9.53128 727 119.831 879.814 456.732
1403 0 80.2858 11.8078 948 116.138 879.508 451.095
1404 0 80.3987 9.44045 759 120.163 879.115 451.49
1405 0 83.2368 10.8846 906 118.986 880.755 450.819
1406 0 88.445 15.9082 1407 112.752 882.415 445.539
1407 0 90.5036 12.773 1156 118.163 883.806 444.984
1408 1 47.1618 15.1394 714 108.724 883.409 467.601
1409 0 46.0933 10.0015 461 116.256 883.748 466.046
1410 0 51.1002 9.92169 507 116.757 882.992 466.475
1411 0 52.0842 17.3757 905 102.645 885.296 464.883
1412 0 52.032 14.049 731 107.635 885.904 468.903
1413 0 54.1211 12.5459 679 109.873 885.7 466.381
1414 0 54.1211 12.3981 671 119.55 885.672 466.413
1415 0 56.0791 11.0023 617 114.128 886.846 465.36
1416 0 58.1766 14.1294 822 110.522 887.175 464.513
1417 0 58.1766 14.2325 828 124.738 888.181 464.542
1418 0 60.1238 13.4223 807 113.177 887.525 464.598
1419 0 62.1226 12.8456 798 113.673 887.469 466.326
1420 0 64.1241 12.8345 823 112.64 888.536 469.742
1421 0 66.0509 12.2178 807 116.581 887.424 465.279
1422 0 66.1799 10.8945 721 118.785 887.315 467.566
1423 0 69.2178 13.4648 932 112.943 887.041 470.263
1424 0 69.0687 10.685 738 118.843 886.196 464.835
1425 0 71.1195 15.0451 1070 113.531 886.414 465.685
1426 0 74.269 14.232 1057 113.488 886.463 465.955
1427 0 77.1502 12.0803 932 117.892 884.789 463.028
1428 0 83.2449 17.923 1492 108.139 885.483 463.861
1429 0 80.0701 13.4757 1079 117.227 883.547 461.59
1430 0 86.148 12.6991 1094 116.824 883.07 462.569
1431 0 85.2157 10.5849 902 121.001 882.406 458.63
1432 0 90.0876 16.6727 1502 111.326 882.002 457.097
1433 1 50.0699 11.1644 559 115.454 881.193 478.538
1434 0 53.0247 12.315 653 114.697 881.182 474.73
1435 0 53.0325 11.5401 612 115.565 879.853 472.619
1436 0 55.266 14.6745 811 108.067 882.43 471.529
1437 0 57.0534 12.8476 733 110.02 881.015 473.001
1438 0 57.099 12.347 705 111.579 879.665 472.885
1439 0 57.1643 12.088 691 112.454 879.711 469.208
1440 0 59.1566 11.8161 699 112.828 877.94 468.737
1441 0 63.2863 13.9525 883 110.961 881.382 453.08
1442 0 60.0786 7.42361 446 115.103 880.657 446.603
1443 0 62.0912 8.56805 532 110.788 880.553 448.989
1444 0 63.0661 10.4335 658 111.632 881.438 442.725
1445 0 68.1921 12.4648 850 109.16 880.236 442.678
1446 0 68.042 11.3018 769 112.101 881.579 435.663
1447 0 72.1252 9.58056 691 113.336 882.679 443.787
1448 0 75.0928 14.4088 1082 108.152 882.486 442.014
1449 0 74.1122 9.8904 733 117.158 882.025 432.162
1450 0 83.304 11.1039 925 114.411 882.968 435.701
1451 0 80.1087 11.1848 896 116.911 884.463 429.8
1452 0 84.5038 11.2894 954 115.91 885.058 427.611
1453 0 81.5028 8.98129 732 120.833 885.142 430.414
1454 0 86.2274 11.9684 1032 116.806 883.429 442.671
1455 1 47.1443 11.836 558 114.246 883.837 468.385
1456 0 50.0471 16.2247 812 107.703 884.468 465.8
1457 0 52.1019 16.0647 837 108.927 885.294 461.266
1458 0 52.2794 13.3131 696 110.399 884.866 462.591
1459 0 53.1281 12.0652 641 113.245 886.103 462.635
1460 0 55.2167 11.0655 611 114.809 886 463.694
1461 0 56.103 13.1366 737 111.99 887.802 464.248
1462 0 59.2714 22.1692 1314 99.4878 888.031 464.763
1463 0 59.2714 22.3379 1324 96.1261 888.02 464.784
1464 0 58.3336 9.65138 563 118.517 887.519 464.737
1465 0 64.2472 14.4286 927 109.517 885.963 463.146
1466 0 65.5075 11.0216 722 114.253 885.529 465.172
1467 0 64.3094 12.331 793 113.966 886.129 464.695
1468 0 69.334 12.8941 894 112.181 885.122 463.509
1469 0 72.2602 12.7318 920 113.908 884.958 459.665
1470 0 74.3011 13.7414 1021 111.296 884.49 464.087
1471 0 79.4056 10.2764 816 117.685 884.585 462.768
1472 0 79.3305 11.3954 904 114.629 884.354 465.867
1473 0 82.4276 13.6241 1123 112.918 882.586 454.737
1474 0 85.3009 10.4454 891 117.016 882.41 454.48
1475 0 89.305 16.2141 1448 109.769 881.78 453.107
1476 0 92.374 14.4954 1339 112.768 881.969 450.076
1477 1 49.3338 12.4053 612 114.041 879.574 470.002
1478 0 49.4051 13.5613 670 110.49 880.764 475.76
1479 0 52.3435 11.5583 605 111.517 879.483 470.048
1480 0 55.4539 13.8854 770 108.979 878.901 465.36
1481 0 56.0874 11.6069 651 116.657 877.773 461.665
1482 0 57.1501 11.6885 668 116.494 877.091 459.187
1483 0 58.1991 12.715 740 114.914 876.899 460.772
1484 0 60.0681 13.0685 785 114.07 877.183 456.936
1485 0 63.0773 11.4938 725 117.505 877.626 453.372
1486 0 65.1373 16.1658 1053 109.824 878.236 455.743
1487 0 63.1936 12.5962 796 116.539 878.152 451.795
1488 0 63.1936 12.2481 774 127.114 878.152 451.911
1489 0 71.0559 13.4683 957 113.787 879.154 448.489
1490 0 74.2198 18.4048 1366 107.643 879.84 443.164
1491 0 75.0699 14.0269 1053 113.93 879.853 445.01
1492 0 77.1615 12.1563 938 118.291 879.986 433.483
1493 1 42.2206 15.2532 644 108.935 881.814 451.612
1494 0 41.3046 11.4273 472 115.943 880.83 449.555
1495 0 42.2421 10.9606 463 117.032 881.793 456.512
1496 0 43.1411 13.537 584 111.015 882.685 454.529
1497 0 46.0875 16.0564 740 108.7 882.977 454.078
1498 0 46.1077 11.2779 520 116.869 883.619 450.038
1499 0 49.0602 11.3534 557 116.528 883.801 451.285
1500 0 49.1335 13.6567 671 113.343 885.231 454.72
1501 0 49.1885 11.7914 580 118.386 885.093 454.155
1502 0 51.0323 13.3249 680 116.153 885.318 453.431
1503 0 52.0531 14.1778 738 114.004 884.817 457.595
1504 0 55.172 10.9113 602 120.14 885.515 457.751
1505 0 54.1246 12.8038 693 117.254 885.71 461.81
1506 0 57.0517 21.3315 1217 105.523 885.933 459.887
1507 0 57.1589 13.4012 766 117.093 886.283 463.53
1508 0 61.167 15.564 952 112.284 884.836 462.883
1509 0 62.1506 14.8832 925 113.874 886.484 465.669
1510 0 61.112 14.5962 892 113.889 885.585 470.168
1511 0 60.2392 13.2472 798 114.51 885.955 462.754
1512 0 64.2244 11.0083 707 117.27 886.098 462.726
1513 0 65.2167 16.0388 1046 110.087 884.941 460.167
1514 0 70.3026 15.163 1066 111.346 885.6 458.257
1515 0 67.1855 13.3809 899 115.863 885.006 458.15
1516 0 74.2824 12.9237 960 114.786 883.207 463.111
1517 0 74.1894 14.5439 1079 113.276 882.868 464.168
1518 0 77.168 14.3324 1106 113.871 881.29 465.393
1519 0 80.1364 14.4379 1157 113.597 881.134 466.53
1520 0 82.2383 15.6861 1290 112.768 881.065 460.454
1521 0 85.4074 13.6756 1168 120.236 880.508 456.673
1522 0 87.426 12.0216 1051 123.179 880.352 457.243
1523 0 92.3758 13.943 1288 119.208 879.946 450.716
1524 0 95.303 13.7351 1309 118.49 880.356 442.974
1525 0 95.7313 11.48 1099 122.268 881.442 440.546
1526 0 100.629 14.8466 1494 117.61 880.174 443.365
1527 0 103.268 13.4989 1394 119.148 880.27 445.92
1528 1 54.1353 13.5956 736 115.56 878.561 462.11
1529 0 55.082 11.8914 655 119.101 878.928 461.142
1530 0 58.2222 15.7844 919 110.755 878.532 461.82
1531 0 56.1362 14.6073 820 114.849 880.004 455.083
1532 0 61.1001 18.6088 1137 107.947 880.215 457.204
1533 0 60.2975 16.4849 994 111.802 880.952 457.59
1534 0 61.4235 13.3499 820 118.939 881.911 450.572
1535 0 65.3333 13.6837 894 118.189 882.179 444.652
1536 0 67.246 15.3318 1031 116.142 882.666 445.243
1537 0 69.329 15.9674 1107 116.539 883.884 439.246
1538 0 71.3062 14.3887 1026 119.818 885.604 443.302
1539 0 73.3419 13.5257 992 121.16 885.193 442.357
1540 0 77.2817 12.5774 972 122.948 886.021 439.395
1541 0 79.3064 18.397 1459 115.148 886.694 441.304
1542 0 77.2472 11.5085 889 123.469 887.641 439.947
1543 0 77.2472 11.4826 887 131.144 888.645 439.957
1544 1 38.0475 6.85984 261 124.609 887.372 467.341
1545 0 41.2239 9.60607 396 119.907 887.149 466.417
1546 0 46.0952 13.6457 629 113.785 887.367 470.132
1547 0 48.1499 11.6511 561 119.194 885.726 454.995
1548 0 49.2601 13.8652 683 115.732 886.233 457.242
1549 0 49.2336 12.2884 605 119.36 885.907 461.14
1550 0 52.2714 14.6925 768 115.514 886.229 463.447
1551 0 51.1942 11.2122 574 121.929 886.307 469.483
1552 0 55.29 16.4768 911 113.223 885.372 466.863
1553 0 56.2689 13.2045 743 116.863 885.441 470.699
1554 0 58.168 12.7218 740 119.853 885.278 463.301
1555 0 59.1885 14.513 859 117.885 884.567 461.218
1556 0 63.2682 12.692 803 120.472 884.386 463.076
1557 0 66.1753 16.1541 1069 113.093 883.2 464.718
1558 0 66.1194 12.9463 856 119.673 882.339 462.825
1559 0 68.1518 14.1302 963 118.715 881.855 461.896
1560 0 69.3578 16.8546 1169 114.043 882.094 464.763
1561 0 73.2287 15.1307 1108 116.45 881.037 462.51
1562 0 73.2148 14.6009 1069 117.943 880.812 462.652
1563 0 76.1703 15.124 1152 115.998 879.707 461.568
1564 0 77.2951 14.7746 1142 116.947 881.582 462.914
1565 0 82.2119 16.0196 1317 114.281 881.379 458.909
1566 0 83.0839 14.708 1222 116.429 881.219 457.498
1567 0 83.2568 12.1431 1011 121.118 881.345 454.619
1568 0 86.2533 12.4285 1072 120.086 881.643 456.222
1569 0 91.143 12.047 1098 120.455 881.285 454.071
1570 0 94.5006 15.2168 1438 115.027 880.708 449.088
1571 0 98.6136 17.3404 1710 112.726 878.706 437.694
1572 0 99.5722 14.5422 1448 117.506 878.647 429.243
1573 0 102.649 12.8593 1320 118.468 879.533 439.283
1574 1 56.4674 12.8747 727 114.199 878.93 463.913
1575 0 59.3856 13.4713 800 111.584 879.14 458.954
1576 0 60.0954 15.2424 916 108.036 882.14 460.69
1577 0 62.0583 13.6968 850 110.085 883.319 456.428
1578 0 61.0596 11.5297 704 125.881 884.477 458.429
1579 0 67.2145 12.8097 861 111.661 884.085 456.915
1580 0 68.116 12.1704 829 113.019 885.141 455.811
1581 0 71.1308 13.7212 976 110.831 884.987 454.149
1582 0 73.2268 10.3514 758 116.19 885.203 459.839
1583 0 76.2643 14.7776 1127 110.204 885.598 454.337
1584 0 78.1529 17.6449 1379 106.108 885.38 455.225
1585 0 80.2837 10.6871 858 115.963 886.402 453.626
1586 0 82.2397 11.8799 977 115.075 886.729 451.547
1587 0 86.2289 13.3946 1155 112.239 887.535 450.739
1588 1 169.507 11.9051 2018 123.672 887.687 405.28
1589 1 90.4177 13.4708 1218 113.004 886.7 449.405
1590 0 95.3846 13.975 1333 110.096 886.887 452.556
1591 0 97.1621 12.3814 1203 114.092 887.364 449.13
1592 0 100.383 12.8209 1287 114.176 887.083 445.341
1593 0 105.401 13.7001 1444 114.105 887.018 439.993
1594 1 52.1927 12.0898 631 114.384 886.019 469.626
1595 0 55.5136 10.4299 579 117.487 884.933 466.465
1596 0 57.4551 13.3148 765 113.193 885.846 466.745
1597 0 61.34 13.629 836 111.755 884.606 467.073
1598 0 62.5908 12.5418 785 114.506 884.746 468.903
1599 0 63.3804 13.5057 856 114.239 884.799 463.32
1600 0 68.3283 12.5863 860 113.959 882.974 466.444
1601 0 68.4805 12.8212 878 114.323 881.977 468.451
1602 0 70.3506 12.6083 887 116.324 881.435 461.224
1603 0 73.3245 14.3745 1054 113.483 881.928 462.937
1604 0 75.4045 15.8744 1197 112.027 879.844 459.811
1605 0 78.4684 11.8901 933 118.662 880.772 453.136
1606 0 78.4684 11.9794 940 133.54 881.766 453.296
1607 0 83.4228 14.7801 1233 115.87 879.177 455.185
1608 0 85.4235 13.4975 1153 118.642 880.297 452.443
1609 1 48.2309 15.0111 724 112.815 878.906 471.568
1610 0 46.1498 12.4594 575 119.019 879.751 464.597
1611 0 51.2688 11.9956 615 114.976 881.083 462.081
1612 0 53.4718 12.0437 644 115.457 880.769 460.123
1613 0 57.1885 13.5342 774 110.784 882.279 467.061
1614 0 57.1156 14.9871 856 109.674 881.039 458.982
1615 0 59.0312 12.5019 738 112.694 881.936 459.419
1616 0 62.0736 11.1964 695 112.632 881.587 464.839
1617 0 61.1161 12.1245 741 113.821 882.707 459.296
1618 0 64.0952 15.0089 962 110.293 883.891 456.046
1619 0 65.1255 13.5584 883 112.505 883.88 452.333
1620 0 70.1193 13.1348 921 111.737 883.976 456.414
1621 0 73.1757 15.8113 1157 107.044 884.468 452.154
1622 0 75.2538 17.6868 1331 105.39 884.828 447.44
1623 0 77.2165 14.2068 1097 111.321 885.666 446.547
1624 0 76.3664 11.1305 850 116.624 885.579 447.368
1625 0 80.3998 13.2339 1064 113.42 884.968 448.763
1626 0 81.2598 13.9183 1131 113.457 886.146 444.118
1627 0 84.3343 15.237 1285 111.764 886.093 439.226
1628 1 43.0351 10.0616 433 118.561 889.116 464.289
1629 0 46.0452 11.9665 551 116.261 889.575 464.624
1630 0 46.0664 11.3532 523 118.046 889.797 464.277
1631 0 48.1316 12.0295 579 119.656 885.895 466.656
1632 0 50.0494 15.0251 752 114.088 885.516 469.582
1633 0 51.052 13.594 694 116.614 886.455 470.02
1634 0 55.0626 11.8411 652 116.857 886.037 469.173
1635 0 54.0473 12.193 659 118.586 886.434 469.049
1636 0 57.106 13.9915 799 116.747 884.283 466.63
1637 0 58.1669 11.3639 661 120.953 884.784 468.729
1638 0 60.1089 14.4571 869 115.961 885.037 465.456
1639 0 62.1269 14.7279 915 116.342 884.962 465.26
1640 0 64.0818 10.4866 672 122.162 884.762 468.455
1641 0 67.1782 13.4865 906 117.61 883.246 466.041
1642 0 71.117 14.2019 1010 117.33 883.379 463.303
1643 0 74.0997 16.1134 1194 114.222 883.397 464.187
1644 0 75.1664 16.2307 1220 113.758 882.344 460.796
1645 0 77.0816 13.3106 1026 120.414 881.906 452.816
1646 0 83.1299 16.6847 1387 114.709 880.783 453.896
1647 0 85.1819 15.8602 1351 115.175 881.169 448.79
1648 0 88.2781 18.6683 1648 111.956 880.968 442.244
1649 0 89.2199 13.9095 1241 119.288 879.258 442.055
1650 0 94.1365 17.0816 1608 111.331 879.917 446.124
1651 0 96.2111 14.8943 1433 117.488 878.665 437.007
1652 0 100.192 14.9413 1497 116.307 879.564 432.838
1653 1 51.1184 11.7179 599 112.486 879.581 458.586
1654 0 51.2862 9.30075 477 116.987 879.899 462.237
1655 0 53.1535 12.812 681 111.327 879.84 457.059
1656 0 57.1945 16.5575 947 104.741 880.814 459.763
1657 0 57.197 12.9377 740 111.357 880.157 458.4
1658 0 61.1841 19.9398 1220 100.764 880.701 460.677
1659 0 59.0805 15.8597 937 109.107 880.609 452.837
1660 0 62.1205 13.7314 853 110.034 882.061 454.035
1661 0 62.1142 10.9154 678 114.907 883.212 454.062
1662 0 65.2811 14.338 936 110.342 882.734 447.75
1663 0 68.1191 13.9168 948 111.905 882.023 446.29
1664 0 69.2206 13.2475 917 112.77 884.385 448.04
1665 0 72.1963 12.5907 909 113.554 883.639 445.794
1666 0 74.254 12.7535 947 113.281 884.616 444.773
1667 0 77.2648 18.2619 1411 105.419 884.906 446.337
1668 0 77.1417 15.141 1168 110.854 885.219 441.098
1669 0 81.3276 13.4887 1097 111.694 886.809 442.997
1670 0 85.2803 15.3963 1313 109.711 886.806 437.729
1671 0 86.3312 11.7686 1016 114.606 887.239 442.843
1672 0 88.3512 14.4763 1279 112.181 888.198 435.662
1673 0 92.3819 16.8431 1556 108.713 888.188 432.222
1674 0 97.181 13.7475 1336 112.437 889.126 440.162
1675 0 98.4606 16.2806 1603 108.551 889.373 446.591
1676 1 51.2823 12.1484 623 111.957 888.987 463.329
1677 0 51.173 11.4123 584 113.714 889.579 465.582
1678 0 54.2104 13.7981 748 110.199 889.104 462.881
1679 0 58.5133 14.2019 831 108.629 889.502 465.158
1680 0 58.2641 14.2283 829 110.428 888.276 460.866
1681 0 61.3438 17.7035 1086 104.506 887.412 464.568
1682 0 66.4277 16.2583 1080 105.552 886.459 464.696
1683 0 65.3235 13.2724 867 111.234 887.089 463.548
1684 0 68.2923 11.8169 807 113.028 886.699 464.185
1685 0 71.2633 15.1691 1081 110.343 885.871 461.59
1686 0 74.3643 13.2994 989 113.745 884.49 460.215
1687 0 77.4969 13.0457 1011 114.854 884.707 456.69
1688 0 79.3096 13.668 1084 114.998 884.274 454.39
1689 0 82.4885 11.6137 958 116.503 884.561 460.163
1690 0 82.5042 12.3388 1018 118.429 883.464 453.247
1691 0 82.6553 12.2194 1010 121.061 882.474 449.461
1692 0 89.6947 14.2818 1281 116.966 882.37 451.199
1693 0 90.502 16.8394 1524 114.199 881.584 449.47
1694 0 95.8521 13.6356 1307 118.063 881.469 450.313
1695 0 98.4508 12.7678 1257 121.208 880.843 447.445
1696 0 100.405 14.2025 1426 119.025 880.195 444.776
1697 0 108.763 18.0116 1959 112.993 881.271 439.836
1698 0 108.763 17.984 1956 127.058 882.264 439.799
1699 1 59.2035 13.0736 774 117.901 881.789 459.058
1700 0 61.185 13.0751 800 116.579 882.136 456.495
1701 0 64.126 12.7561 818 116.308 881.237 459.966
1702 0 63.0512 12.9577 817 116.936 882.579 461.8
1703 0 68.1313 17.5396 1195 108.964 880.329 458.156
1704 0 69.2715 12.1695 843 117.243 882.039 454.566
1705 0 72.2662 13.1182 948 116.447 881.488 455.095
1706 0 75.4883 17.6319 1331 108.416 882.323 456.16
1707 0 77.1209 12.7332 982 116.223 881.654 452.995
1708 0 79.2918 15.6763 1243 113.06 882.49 449.022
1709 0 79.2918 15.7393 1248 129.72 883.46 448.772
1710 0 86.2854 12.3312 1064 118.786 883.637 440.078
1711 0 87.3537 12.9703 1133 117.941 884.811 447.015
1712 0 86.3334 10.2278 883 144.45 884.57 451.815
1713 0 95.2942 12.5611 1197 117.881 885.727 445.343
1714 1 53.3339 11.7561 627 114.411 885.555 465.911
1715 0 55.9135 15.2199 851 110.468 887.893 461.486
1716 0 55.2047 14.4734 799 112.574 886.648 463.986
1717 0 55.389 15.8335 877 110.517 886.704 465.022
1718 0 59.3602 13.9319 827 111.92 886.366 466.45
1719 0 58.4825 14.8592 869 111.423 887.331 467.122
1720 0 62.3544 13.744 857 112.134 886.769 467.565
1721 0 62.3148 14.844 925 111.068 887.93 466.966
1722 0 64.136 11.5068 738 116.145 886.27 467.87
1723 0 69.2269 19.7611 1368 103.803 885.88 468.404
1724 0 71.3969 17.6898 1263 106.865 885.834 464.416
1725 0 74.3102 11.5866 861 115.148 886.08 466.844
1726 0 74.3102 11.5731 860 137.386 886.084 466.777
1727 0 77.3078 12.198 943 117.122 885.911 465.815
1728 0 77.3078 12.1592 940 147.472 885.886 465.779
1729 0 84.3721 16.7235 1411 112.218 883.317 454.846
1730 0 85.5354 14.4618 1237 117.804 883.301 449.518
1731 0 85.2601 15.353 1309 115.892 880.375 453.235
1732 0 90.4214 14.4656 1308 119.878 881.389 446.22
1733 0 94.4519 16.781 1585 115.862 880.789 447.616
1734 0 91.1881 12.8964 1176 121.96 880.111 448.168
1735 0 95.3194 11.7395 1119 124.361 878.143 452.45
1736 0 98.4515 13.0927 1289 121.53 879.476 454.801
1737 0 103.451 12.4793 1291 122.528 879.558 453.37
1738 0 103.486 12.0885 1251 124.685 879.652 448.847
1739 0 107.403 12.2901 1320 125.801 878.672 441.213
1740 0 114.659 16.1522 1852 117.315 879.91 445.869
1741 0 116.712 14.1373 1650 123.033 879.41 437.158
1742 0 115.622 12.7397 1473 127.363 880.048 432.892
1743 0 120.746 14.3607 1734 123.454 879.965 432.99
1744 0 124.584 11.6227 1448 128.202 880.191 425.794
1745 0 124.584 11.4702 1429 145.241 881.206 425.759
1746 0 132.414 14.1299 1871 123.608 880.629 410.008
1747 0 133.511 11.1526 1489 128.427 881.321 416.36
1748 0 142.661 13.2972 1897 123.909 881.395 412.02
1749 1 79.5676 7.10088 565 123.846 881.65 447.06
1750 0 83.4034 14.0282 1170 116.208 881.661 441.204
1751 0 86.4423 12.5864 1088 115.747 883 432.373
1752 0 89.6436 13.7545 1233 112.943 884.215 435.435
1753 0 94.4612 17.1605 1621 108.711 884.461 432.801
1754 0 97.4221 15.2737 1488 111.322 884.671 436.384
1755 0 96.4455 10.1923 983 119.648 885.517 436.985
1756 0 100.393 13.3575 1341 115.219 885.1 432.168
1757 0 101.599 15.6006 1585 112.483 885.458 431.314
1758 0 105.846 11.5451 1222 119.017 886.822 427.596
1759 0 112.838 13.5948 1534 114.742 887.216 429.116
1760 1 59.6633 7.44176 444 116.083 887.004 463.374
1761 0 59.3541 11.5746 687 113.456 887.972 460.403
1762 0 61.6916 15.1398 934 107.076 887.955 459.862
1763 0 63.7341 11.5166 734 111.372 888.249 461.388
1764 0 64.5593 10.9822 709 113.487 887.23 463.935
1765 0 65.5385 10.2383 671 114.656 887.156 461.574
1766 0 65.5385 10.223 670 131.142 887.163 461.615
1767 0 70.59 14.5488 1027 109.604 885.576 467.6
1768 0 70.3443 10.4628 736 115.883 885.382 465.58
1769 0 71.2646 10.7908 769 116.493 885.832 468.918
1770 0 78.4354 13.935 1093 110.644 885.401 467.748
1771 0 78.2662 11.2437 880 116.474 883.284 464.769
1772 0 80.3466 11.6993 940 116.396 883.118 463.578
1773 0 86.4313 12.9004 1115 113.834 881.399 463.337
1774 0 88.1893 14.072 1241 113.365 882.313 459.181
1775 0 90.2937 12.7584 1152 115.016 881.383 461.125
1776 0 90.2937 12.6808 1145 129.2 881.395 461.024
1777 0 97.3952 12.8856 1255 116.299 880.602 450.665
1778 0 99.4122 13.4993 1342 114.959 879.919 452.523
1779 1 53.1377 10.9903 584 114.06 878.036 474.259
1780 0 56.0695 13.0731 733 110.565 877.531 474.498
1781 0 54.0686 9.43246 510 134.967 877.363 471.045
1782 0 61.2276 12.8374 786 117.34 878.176 469.705
1783 0 58.2022 12.0614 702 115.509 878.523 470.786
1784 0 62.1117 15.3272 952 108.731 877.928 474.432
1785 0 68.2096 10.7756 735 117.865 877.17 469.858
1786 0 62.2876 10.3231 643 121.988 878.476 462.023
1787 0 66.4184 13.5204 898 116.997 879.403 460.406
1788 0 64.1923 10.0324 644 123.941 878.652 457.512
1789 0 70.4133 13.0231 917 113.637 878.026 464.083
1790 0 70.3741 12.8172 902 117.018 879.357 455.545
1791 0 73.5497 12.4406 915 117.009 879.374 457.368
1792 0 77.251 12.1163 936 117.548 880.576 452.249
1793 0 77.2792 12.319 952 118.42 880.523 449.801
1794 0 81.4056 12.2719 999 119.155 882.478 442.937
1795 0 83.4611 13.707 1144 118.316 883.51 435.701
1796 0 86.2146 13.7216 1183 116.985 882.36 442.095
1797 0 89.3405 13.0624 1167 117.294 882.815 444.855
1798 0 95.326 14.3612 1369 115.869 884.036 438.843
1799 1 48.2261 12.3792 597 113.667 882.3 459.961
1800 0 47.0832 8.85666 417 116.671 882.707 463.93
1801 0 51.449 12.0896 622 115.114 884.667 463.794
1802 0 52.4007 11.9082 624 117.652 885.349 463.596
1803 0 54.1735 13.0691 708 115.469 885.425 467.451
1804 0 54.0397 14.0822 761 114.025 886.163 469.816
1805 0 54.0639 13.6875 740 116.562 884.253 465.811
1806 0 58.2001 16.5464 963 111.206 885.711 466.531
1807 0 58.0908 10.9484 636 120.281 885.429 465.5
1808 0 60.195 12.9413 779 116.711 885.095 462.09
1809 0 63.1512 12.3672 781 116.907 885.137 465.853
1810 0 64.1683 13.6983 879 115.941 884.623 464.859
1811 0 65.214 12.5127 816 118.766 884.358 465.289
1812 0 70.2751 16.1508 1135 111.078 883.249 468.382
1813 0 70.0779 16.5387 1159 112.148 883.503 466.842
1814 0 73.1401 14.0279 1026 116.276 883.449 460.657
1815 0 77.1049 15.1352 1167 114.169 882.394 462.856
1816 0 79.0969 13.4139 1061 117.885 882.105 460.418
1817 0 81.3589 14.9215 1214 114.985 880.565 462.346
1818 0 84.0793 13.4635 1132 117.892 880.17 453.743
1819 1 42.0991 6.15215 259 124.046 878.278 477.606
1820 0 45.095 10.2229 461 117.469 878.92 472.989
1821 0 45.1455 10.3886 469 116.333 877.403 471.772
1822 0 52.0605 13.4075 698 109.917 879.18 471.933
1823 0 49.047 10.6836 524 118.716 877.489 463.013
1824 0 51.1318 15.5481 795 110.482 876.981 465.684
1825 0 53.0456 13.6298 723 114.589 877.035 462.676
1826 0 54.1199 12.7125 688 116.664 877.538 461.897
1827 0 58.2257 13.9801 814 115.158 879.571 469.032
1828 0 58.3487 12.4424 726 119.748 877.552 464.187
1829 0 58.2857 12.6961 740 119.55 877.868 462.672
1830 0 63.259 20.8508 1319 106.744 878.497 460.716
1831 0 65.2565 14.3894 939 116.171 879.011 457.352
1832 0 67.1623 15.5147 1042 114.591 878.63 450.243
1833 0 68.1009 16.4315 1119 113.681 879.697 447.203
1834 0 73.0879 13.5453 990 116.704 879.215 454.075
1835 0 73.1688 8.74689 640 122.322 878.858 453.408
1836 0 77.3471 10.2008 789 120.895 880.695 447.114
1837 1 41.0322 10.3821 426 114.399 879.042 465.521
1838 0 41.0644 10.7879 443 115.923 881.059 465.56
1839 0 42.0837 10.3603 436 116.007 881.413 466.195
1840 0 44.3885 13.3142 591 112.459 884.927 464.631
1841 0 45.1428 15.6836 708 107.747 881.597 465.328
1842 0 47.1692 12.0206 567 109.802 883.312 467.021
1843 0 45.0855 11.6224 524 109.769 883.678 468.628
1844 0 47.0627 12.8764 606 108.982 884.931 465.46
1845 0 48.1435 11.4657 552 109.971 883.768 470.654
1846 0 48.1671 8.3667 403 115.66 885.516 468.263
1847 0 53.063 10.5347 559 111.231 884.424 471.818
1848 0 53.2475 13.4279 715 108.934 886.418 465.923
1849 1 113.675 16.3448 1858 112.822 885.516 440.083
1850 0 117.308 14.1678 1662 116.027 885.893 441.38
1851 1 58.1133 13.7834 801 110.298 885.055 469.114
1852 0 61.2356 13.2603 812 111.693 884.757 468.819
1853 0 61.2356 13.2603 812 130.042 884.735 468.894
1854 0 67.4782 14.5973 985 109.443 883.664 466.198
1855 0 67.2558 6.27455 422 122.427 883.844 473.78
1856 0 71.2086 14.4224 1027 110.454 883.43 469.357
1857 0 73.5479 11.4211 840 115.089 882.401 468.576
1858 0 76.3589 11.0138 841 115.908 882.649 465.939
1859 0 74.6609 11.2375 839 116.498 882.21 466.192
1860 1 43.4428 12.4532 541 114.503 882.752 474.752
1861 0 45.5541 11.1516 508 115.402 882.768 476.569
1862 0 45.3099 11.94 541 112.377 880.652 474.562
1863 0 45.096 13.7041 618 112.913 878.529 476.684
1864 0 48.0953 14.9703 720 109.697 877.138 476.331
1865 0 49.1227 14.7997 727 110.631 876.38 472.629
1866 0 49.056 12.9036 633 114.518 877.31 470.638
1867 0 51.1084 13.2659 678 113.565 876.524 471.503
1868 0 52.0247 13.9933 728 113.238 876.676 471.29
1869 0 53.1342 13.6071 723 112.238 877.017 471.952
1870 0 53.2827 15.6336 833 110.921 876.655 469.814
1871 0 57.2456 15.1278 866 111.822 877.416 466.523
1872 0 61.1905 10.7533 658 118.018 876.462 465.685
1873 0 59.3017 14.0131 831 114.229 876.751 463.756
1874 0 60.1152 12.0435 724 118.309 877.195 461.378
1875 0 62.0878 9.96974 619 123.347 877.582 456.423
1876 0 68.1636 14.7586 1006 114.542 877.223 455.536
1877 0 70.128 14.0315 984 115.392 878.311 458.085
1878 0 71.2023 13.7917 982 118.918 879.177 451.732
1879 0 72.116 13.3396 962 121.048 879.156 446.151
1880 0 75.169 11.4542 861 124.691 880.023 448.974
1881 0 75.11 11.7827 885 126.419 880.392 444.357
1882 0 82.3782 16.5092 1360 117.865 881.765 444.342
1883 0 85.2112 17.885 1524 115.78 882.012 445.49
1884 1 39.1664 7.14899 280 129.654 882.193 464.532
1885 0 41.1028 9.19644 378 120.161 882.558 466.19
1886 0 43.1022 12.6908 547 118.952 883.675 463.068
1887 0 49.1086 12.8694 632 118.573 884.06 468.5
1888 0 49.123 13.2728 652 119.043 883.702 469.396
1889 0 50.0546 13.3854 670 120.26 884.982 468.831
1890 0 49.1507 11.0883 545 127.138 885.18 467.039
1891 0 52.1431 13.0602 681 123.448 886.019 468.812
1892 0 53.1322 13.8146 734 123.153 884.102 468.639
1893 0 55.2036 15.4338 852 119.556 885.998 470.481
1894 0 59.1552 13.5576 802 119.94 884.426 474.106
1895 0 60.1186 12.808 770 124.631 884.449 470.806
1896 0 62.1606 13.0468 811 125.326 883.494 468.698
1897 0 63.1899 13.2141 835 125.813 884.778 467.111
1898 0 68.121 14.3715 979 123.102 883.865 468.81
1899 0 69.3141 13.3162 923 125.309 884.273 470.649
1900 0 69.5363 12.8134 891 128.173 883.449 466.034
1901 0 75.1149 13.9653 1049 124.985 882.316 469.248
1902 0 75.1399 13.202 992 126.909 882.241 465.304
1903 0 74.2574 12.4971 928 130.457 880.488 464.172
1904 0 79.2198 13.1659 1043 126.91 879.639 465.036
1905 0 81.1656 12.0371 977 128.93 878.467 462.679
1906 0 84.2513 13.1511 1108 127.181 878.707 460.337
1907 0 88.3258 13.2804 1173 128.188 878.474 458.668
1908 0 91.2086 14.9767 1366 124.348 877.259 456.217
1909 0 94.2409 13.8157 1302 126.468 876.945 452.992
1910 0 96.1858 15.2621 1468 125 877.76 451.482
1911 1 51.0787 13.4694 688 126.455 875.84 470.641
1912 0 52.1899 11.5348 602 128.424 876.218 472.595
1913 0 54.1705 14.9528 810 123.435 875.857 467.896
1914 0 54.0615 13.3182 720 126.765 876.711 467.292
1915 0 56.1249 13.3809 751 123.763 877.069 466.715
1916 0 56.224 13.8375 778 122.794 877.819 465.072
1917 0 58.1051 12.6151 733 124.714 876.224 465.224
1918 0 60.2543 11.7502 708 126.945 876.896 460.597
1919 0 63.1132 17.4132 1099 115.661 876.884 460.572
1920 0 65.3044 12.9394 845 123.529 877.359 458.37
1921 0 69.0951 15.0372 1039 119.536 877.623 456.423
1922 0 69.1011 13.1836 911 123.65 878.615 455.384
1923 0 72.1636 16.8922 1219 117.532 878.19 449.983
1924 0 75.1845 12.9016 970 123.225 881.181 450.381
1925 0 76.1862 12.9551 987 124.467 881.493 448.902
1926 0 79.1226 15.0273 1189 120.734 882.538 448.268
1927 1 42.1041 13.4191 565 120.913 882.074 468.181
1928 0 44.0991 13.8098 609 121.44 883.064 463.737
1929 0 45.0884 9.95821 449 127.392 883.775 466.454
1930 0 50.2084 13.0655 656 120.857 884.788 463.806
1931 0 47.3514 11.4886 544 123.436 886.386 452.441
1932 0 49.3141 14.1542 698 120.688 887.708 463.734
1933 0 52.0878 13.5732 707 120.106 886.709 466.448
1934 0 53.08 17.3512 921 114.092 885.717 466.336
1935 0 53.1284 13.2886 706 121.438 885.348 468.229
1936 0 54.078 13.8689 750 121.491 885.363 466.692
1937 0 57.0574 15.7035 896 118.527 884.573 468.446
1938 0 58.0815 12.7579 741 123.552 884.116 468.771
1939 0 59.171 13.8413 819 121.609 884.282 469.606
1940 0 62.0555 14.6804 911 121.469 883.361 468.102
1941 0 63.0863 14.2662 900 123.227 885.062 468.623
1942 0 65.0442 14.4517 940 124.188 883.49 467.913
1943 0 69.1583 16.4405 1137 120.526 883.84 469.022
1944 0 70.2381 17.4549 1226 119.759 883.122 469.587
1945 0 69.0455 12.2818 848 126.465 880.028 472.164
1946 0 73.2307 14.5158 1063 124.592 880.514 461.526
1947 0 77.2185 14.8022 1143 123.81 879.945 463.982
1948 0 78.5441 15.6855 1232 121.908 879.221 464.743
1949 0 80.3978 17.5129 1408 120.979 879.246 461.199
1950 0 81.1971 15.801 1283 125.998 878.641 458.58
1951 0 86.4668 16.9545 1466 122.558 877.965 459.707
1952 0 85.3196 14.2757 1218 131.536 877.77 455.912
1953 0 89.4166 16.0261 1433 126.826 878.001 458.069
1954 0 91.3292 16.7526 1530 127.052 878.449 452.646
1955 0 95.4214 16.2857 1554 127.559 877.055 450.678
1956 0 97.3793 16.1328 1571 128.451 876.638 448.33
1957 0 102.551 16.6259 1705 125.789 877.667 448.713
1958 0 103.46 15.4456 1598 128.921 878.233 445.229
1959 0 104.372 14.2662 1489 133.086 878.455 435.782
1960 0 109.35 16.8815 1846 125.342 878.613 441.952
1961 1 55.1979 17.1202 945 122.314 878.813 466.405
1962 0 57.418 13.8633 796 125.325 880.705 459.994
1963 0 59.3585 15.836 940 122.107 880.582 457.197
1964 0 60.2073 14.6992 885 124.654 880.8 457.236
1965 0 64.2138 12.2092 784 127.117 882.821 451.995
1966 0 66.1524 18.7143 1238 116.463 882.796 448.101
1967 0 70.2602 15.9408 1120 119.959 883.186 449.785
1968 0 69.239 16.0892 1114 121.713 883.853 445.629
1969 0 72.2284 14.1219 1020 123.819 885.192 447.135
1970 0 72.2284 14.1357 1021 151.706 886.19 447.181
1971 0 74.1853 15.3534 1139 125.901 886.094 434.267
1972 0 78.5676 15.3371 1205 125.446 886.667 438.465
1973 0 81.3034 16.1494 1313 124.724 886.378 439.586
1974 0 81.2176 11.0198 895 133.589 886.125 439.621
1975 0 87.2023 16.9491 1478 123.19 886.646 442.012
1976 0 89.243 14.6902 1311 128.245 887.584 438.063
1977 0 92.3839 15.0567 1391 128.051 887.467 434.954
1978 0 95.3411 13.7506 1311 130.874 888.087 436.073
1979 1 54.2233 10.549 572 128.591 887.885 462.96
1980 0 52.0521 9.75946 508 129.758 888.713 466.041
1981 0 57.1039 12.7837 730 125.627 887.062 463.532
1982 0 58.1638 15.697 913 122.051 886.674 467.519
1983 0 63.2226 14.7099 930 125.38 886.615 468.108
1984 0 65.1088 14.5602 948 126.899 886.782 466.705
1985 0 67.2822 13.5103 909 128.725 885.569 467.678
1986 0 68.3366 15.5407 1062 126.568 886.013 462.257
1987 0 69.3087 13.5769 941 127.962 880.878 468.938
1988 0 70.2422 14.1083 991 128.77 881.83 464.645
1989 0 75.1915 13.8713 1043 127.028 880.232 466.231
1990 0 75.3613 13.1234 989 128.175 881.057 465.922
1991 0 80.3123 11.4677 921 132 880.72 461.566
1992 0 81.2898 11.3544 923 132.876 880.503 459.274
1993 0 84.4252 12.7332 1075 132.137 879.758 457.328
1994 0 87.7294 15.9468 1399 125.317 880.7 451.954
1995 1 47.4697 12.766 606 125.815 878.625 471.574
1996 0 46.3139 9.47879 439 132.087 879.556 470.219
1997 0 51.4839 14.0238 722 123.281 878.256 466.805
1998 0 49.5472 11.9482 592 128.264 880.014 462.826
1999 0 52.3867 15.8819 832 120.826 879.078 456.297
2000 0 52.3748 15.9619 836 117.068 878.09 456.295
2001 0 57.6182 14.9085 859 120.512 877.187 460.795
2002 0 58.0392 16.8335 977 117.289 876.823 465.982
2003 0 59.0569 15.5782 920 120.638 875.99 463.579
2004 0 59.0456 16.9022 998 118.654 878.947 460.621
2005 0 62.0699 13.807 857 124.076 879.15 458.299
2006 0 64.1682 15.1477 972 122.151 878.203 457.984
2007 0 67.2001 14.494 974 120.208 879.99 460.583
2008 0 70.2598 15.8127 1111 119.029 879.928 455.104
2009 0 69.3573 12.933 897 126.194 881.173 452.656
2010 0 72.3267 14.6419 1059 121.669 882.604 455.492
2011 0 75.3094 15.8546 1194 120.846 883.371 449.953
2012 0 77.5015 13.2514 1027 125.018 882.982 445.663
2013 0 80.4551 15.723 1265 121.124 883.346 449.294
2014 0 83.2799 13.2205 1101 125.572 884.213 449.022
2015 0 86.618 14.3388 1242 122.676 884.607 451.007
2016 1 47.1672 10.749 507 123.773 884.838 468.789
2017 0 47.2205 10.9275 516 122.942 884.674 466.607
2018 0 49.0625 12.7185 624 118.324 884.208 467.359
2019 0 52.1607 13.1325 685 117.534 885.105 469.105
2020 0 54.0511 12.2662 663 118.974 885.077 468.211
2021 0 54.0609 13.6513 738 117.907 884.524 468.558
2022 0 56.0482 14.2199 797 116.774 884.902 469.827
2023 0 60.1943 15.7822 950 113.599 885.07 470.045
2024 0 60.116 12.06 725 120.058 884.36 468.486
2025 0 59.1451 10.8377 641 122.81 883.111 467.619
2026 0 62.061 11.3437 704 122.047 884.044 466.483
2027 0 68.2239 11.5649 789 119.498 882.103 469.435
2028 0 68.0793 11.0459 752 121.279 883.814 467.832
2029 0 76.2726 14.5924 1113 114.296 882.736 466.624
2030 0 74.199 12.8034 950 118.372 881.843 465.025
2031 0 77.2792 10.792 834 121.321 881.502 462.203
2032 0 83.4364 18.5051 1544 109.861 880.989 458.023
2033 0 85.3163 11.9438 1019 118.574 881.291 462.363
2034 1 47.4428 13.0051 617 115.191 881.922 473.972
2035 0 45.3656 11.0216 500 117.656 880.396 473.634
2036 0 45.2106 10.1525 459 119.264 878.813 476.041
2037 0 48.4849 14.1281 685 110.962 879.531 470.911
2038 0 49.5017 13.5753 672 113.321 878.996 470.347
2039 0 49.1772 11.7127 576 119.179 876.267 467.049
2040 0 50.0708 14.0801 705 114.748 875.504 472.108
2041 0 52.1081 13.0306 679 117.293 875.92 467.37
2042 0 55.0905 12.0347 663 117.741 876.368 469.968
2043 0 55.053 12.6242 695 119.144 876.199 463.947
2044 0 55.0623 13.3667 736 118.444 876.352 463.325
2045 0 59.0491 18.1883 1074 108.162 876.098 465.044
2046 0 58.0651 12.7099 738 119.092 876.251 462.972
2047 0 60.1061 13.1767 792 119.218 876.991 457.229
2048 0 64.1034 12.4486 798 119.321 876.746 457.353
2049 0 64.0746 14.0617 901 116.971 879.599 458.077
2050 0 65.0837 14.1356 920 118.039 878.642 454.343
2051 0 69.1098 14.4987 1002 116.424 879.914 447.87
2052 0 69.0974 11.491 794 121.479 880.79 448.869
2053 0 77.1923 14.1076 1089 116.718 880.864 445.343
2054 0 74.115 13.3441 989 119.977 881.186 439.358
2055 0 78.3022 12.605 987 119.748 883.535 443.55
2056 0 78.2643 12.6878 993 136.779 885.568 443.573
2057 0 80.1165 11.8827 952 122.116 883.897 440.774
2058 0 83.104 12.5866 1046 120.772 884.285 440.403
2059 0 89.1797 13.1756 1175 119.214 884.894 440.486
2060 0 93.2041 17.7138 1651 111.848 885.628 440.144
2061 0 93.1628 12.2259 1139 121.911 885.22 436.822
2062 1 44.1784 6.38321 282 122.872 885.394 455.752
2063 0 51.2115 11.8723 608 110.99 887.005 460.436
2064 0 51.2061 9.6473 494 115.047 886.923 465.848
2065 0 52.098 12.822 668 112.177 887.859 464.498
2066 0 56.1023 14.1884 796 109.9 887.798 465.137
2067 0 58.0821 11.7592 683 113.764 886.507 465.34
2068 0 61.278 13.5611 831 110.622 886.975 465.874
2069 0 61.1438 10.598 648 115.949 886.219 467.204
2070 0 62.1069 11.931 741 115.008 886.123 468.139
2071 0 68.278 15.5833 1064 108.717 885.335 466.157
2072 0 68.278 15.5394 1061 122.674 885.314 466.205
2073 0 72.1749 14.4094 1040 112.642 884.544 459.731
2074 0 75.2235 14.0913 1060 112.248 883.138 463.939
2075 0 77.1661 13.3608 1031 115.92 882.398 460.662
2076 0 79.0998 13.818 1093 115.527 880.751 459.447
2077 0 79.2684 10.8744 862 121.655 880.028 455.802
2078 0 87.2802 14.4706 1263 115.625 878.387 456.488
2079 0 86.1234 14.3515 1236 122.146 877.851 455.674
2080 1 46.0193 10.8433 499 125.888 875.864 475.9
2081 0 48.244 14.0121 676 120.877 876.244 472.833
2082 0 48.5962 11.5441 561 125.398 877.67 470.929
2083 0 50.0225 11.5748 579 120.756 875.76 464.876
2084 0 49.0591 12.0263 590 122.583 877.044 463.119
2085 0 54.0832 14.9954 811 115.809 876.335 463.264
2086 0 56.0369 14.544 815 117.417 876.961 461.347
2087 0 55.0217 10.0324 552 127.049 877.216 459.087
2088 0 59.1267 12.3464 730 120.868 876.984 459.915
2089 0 59.0723 14.0844 832 119.615 876.751 456.338
2090 0 61.0422 12.4176 758 123.344 877.782 452.963
2091 0 65.1479 13.3235 868 121.336 879.327 447.387
2092 0 65.072 10.6805 695 125.26 879.399 450.237
2093 0 68.1252 14.3559 978 119.897 879.658 446.942
2094 0 72.0916 12.0264 867 123.713 879.942 443.946
2095 0 72.0613 12.8779 928 122.751 881.35 443.656
2096 0 77.0719 13.0657 1007 122.702 882.89 433.862
2097 0 80.132 13.5152 1083 120.705 881.956 438.02
2098 0 82.1241 11.7383 964 124.269 883.105 437.602
2099 1 46.0962 11.5194 531 115.324 883.085 460.994
2100 0 46.0549 11.3777 524 116.103 884.132 463.368
2101 0 45.0877 8.18405 369 122.672 884.618 462.396
2102 0 48.1984 12.8635 620 111.115 885.124 466.24
2103 0 48.3014 10.3724 501 117.261 885.736 463.739
2104 0 53.2845 9.40237 501 117.796 885.615 466.792
2105 0 51.1654 9.92859 508 119.093 885.957 464.72
2106 0 51.1654 9.92859 508 130.783 885.931 464.494
2107 0 56.1165 12.6344 709 114.437 884.986 465.374
2108 0 62.1303 11.4276 710 122.448 884.493 471.346
2109 0 59.0944 10.9824 649 126.26 883.562 468.411
2110 0 63.1687 16.1947 1023 116.382 882.653 466.266
2111 0 64.1344 12.1776 781 125.133 882.936 465.469
2112 0 70.2261 12.2604 861 121.238 881.883 470.904
2113 0 70.2305 14.2531 1001 119.176 882.387 467.249
2114 0 75.0682 14.3869 1080 120.176 881.586 461.956
2115 0 76.3133 12.9859 991 123.045 880.957 462.083
2116 0 81.343 13.3755 1088 121.725 879.202 459.87
2117 0 85.3243 13.3959 1143 120.631 878.336 462.556
2118 0 86.2082 13.3514 1151 122.986 879.112 456.206
2119 1 44.0686 12.2082 538 119.673 878.063 477.816
2120 0 45.0385 9.99145 450 123.047 878.538 471.187
2121 0 46.3112 12.2433 567 119.266 879.705 472.222
2122 0 48.5549 15.2199 739 117.535 878.727 468.372
2123 0 52.5839 14.4721 761 116.15 879.21 469.279
2124 0 49.5138 12.542 621 123.678 878.863 465.419
2125 0 53.2815 11.6551 621 123.992 879.663 466.063
2126 0 54.1968 14.8348 804 119.256 879.204 461.854
2127 0 57.4391 13.301 764 121.631 878.094 460.774
2128 0 57.4243 12.9039 741 122.534 879.719 460.841
2129 0 55.309 12.5296 693 126.082 877.404 457.043
2130 0 61.2735 13.9049 852 119.982 878.945 458.237
2131 0 64.3846 12.5807 810 124.083 879.39 454.67
2132 0 64.3214 14.4275 928 120.962 878.65 453.71
2133 0 63.212 14.2378 900 122.358 880.781 453.611
2134 0 66.1799 12.2091 808 125.92 881.218 453.155
2135 0 70.2175 17.1325 1203 117.643 881.352 447.028
2136 0 69.2151 16.2681 1126 120.181 881.205 447.318
2137 0 70.1998 12.1938 856 127.178 882.499 449.176
2138 0 72.1669 15.478 1117 123.671 882.176 441.229
2139 0 75.4931 13.5907 1026 125.275 883.152 445.723
2140 0 79.4037 13.5132 1073 127.291 884.308 442.881
2141 0 79.4037 13.5636 1077 158.247 885.306 442.931
2142 0 83.4078 14.3272 1195 125.862 884.197 441.504
2143 0 86.2745 16.2852 1405 121.569 884.14 443.742
2144 0 89.2161 15.2887 1364 124.573 884.46 439.099
2145 0 90.3112 12.1358 1096 127.343 886.357 440.866
2146 1 51.3323 12.0587 619 121.575 885.895 463.473
2147 0 49.4729 11.3597 562 127.733 887.573 462.313
2148 0 50.316 11.6663 587 123.727 886.6 463.414
2149 0 54.0925 13.9206 753 118.154 887.003 462.315
2150 0 56.2147 12.7547 717 119.755 886.6 464.339
2151 0 57.1478 13.6663 781 119.611 885.388 463.752
2152 0 61.1394 13.5592 829 119.416 886.378 463.218
2153 0 58.2036 10.4117 606 126.485 886.21 462.424
2154 0 65.3187 12.7069 830 121.439 886.016 461.684
2155 0 68.3662 14.0566 961 118.637 884.837 461.492
2156 0 70.1426 14.1284 991 119.048 884.151 462.309
2157 0 74.3379 14.6359 1088 117.529 883.467 461.505
2158 0 77.3456 13.4591 1041 121.939 880.808 457.941
2159 0 78.2087 13.0932 1024 122.273 881.394 454.791
2160 0 80.2041 11.6827 937 124.197 879.83 457.263
2161 0 82.2534 10.5649 869 126.18 880.766 454.49
2162 0 87.1348 13.8062 1203 120.749 879.958 452.338
2163 0 89.1324 11.8363 1055 124.478 879.984 450.881
2164 0 93.1366 15.5471 1448 118.082 879.935 446.677
2165 1 55.1869 13.5721 749 114.737 879.048 467.194
2166 0 54.134 12.2843 665 117.49 879.571 465.92
2167 0 60.232 14.1619 853 113.32 880.376 467.424
2168 0 60.2234 12.1049 729 115.684 879.304 465.336
2169 0 61.1459 13.7376 840 115.255 878.636 460.657
2170 0 62.2785 12.0748 752 117.391 879.46 460.153
2171 0 61.2118 8.31539 509 125.405 878.407 456.967
2172 0 67.2202 14.3558 965 114.494 878.553 454.334
2173 0 67.2202 14.3558 965 113.633 877.553 454.334
2174 0 67.135 12.2142 820 119.595 879.349 451.16
2175 0 74.2324 11.6526 865 117.182 880.645 455.343
2176 0 74.1305 14.0968 1045 115.891 879.915 451.523
2177 0 76.1409 15.734 1198 112.831 880.508 448.998
2178 0 75.1793 12.397 932 119.123 880.956 447.71
2179 0 82.1696 15.0664 1238 114.027 882.132 444.679
2180 0 83.2207 16.9189 1408 110.308 881.876 438.87
2181 0 85.3941 13.9822 1194 113.909 882.704 443.06
2182 0 89.2492 14.734 1315 113.332 883.125 441.526
2183 0 91.4556 15.1112 1382 113.257 884.355 438.706
2184 0 93.5552 12.7839 1196 117.166 883.554 439.284
2185 0 96.3027 11.3392 1092 119.888 883.974 437.508
2186 0 98.4522 15.8351 1559 114.049 884.722 434.172
2187 0 100.432 15.9412 1601 115.435 885.408 428.663
2188 0 99.36 11.1111 1104 124.486 887.092 434.54
2189 0 110.559 13.7483 1520 123.942 887.95 429.71
2190 0 113.417 14.9448 1695 122.125 886.719 432.708
2191 0 116.619 14.0886 1643 125.04 886.913 422.373
2192 0 122.425 11.9666 1465 126.758 886.066 428.314
2193 1 51.3296 8.33827 428 118.409 885.699 466.386
2194 0 52.682 14.4072 759 119.017 885.312 472.78
2195 0 54.5046 10.9716 598 126.104 884.003 471.97
2196 0 58.3144 13.29 775 121.037 883.721 471.262
2197 0 62.5191 12.5562 785 121.318 884.167 471.58
2198 0 63.4827 13.421 852 119.309 883.13 474.441
2199 0 66.4286 11.4408 760 122.557 882.64 474.618
2200 0 67.3937 14.5117 978 120.253 881.527 470.336
2201 0 70.2923 14.5962 1026 118.94 881.868 467.87
2202 0 72.4699 13.2607 961 122.99 879.689 463.567
2203 0 74.5129 11.81 880 124.869 878.943 466.676
2204 0 77.55 12.4823 968 124.137 880.238 460.857
2205 0 79.3057 13.6812 1085 122.124 879.96 458.589
2206 1 45.1034 9.46714 427 121.431 876.806 480.583
2207 0 41.082 6.93735 285 126.944 876.439 480.828
2208 0 46.0877 10.7404 495 120.96 875.792 479.297
2209 0 45.1948 13.5414 612 117.459 875.51 477.111
2210 0 47.3283 12.6351 598 120.115 876.512 474.443
2211 0 48.1022 16.3402 786 114.02 875.56 475.425
2212 0 50.1385 13.5026 677 118.69 876.798 474.77
2213 0 52.19 13.9107 726 119.023 875.47 471.335
2214 0 52.2205 12.4855 652 122.245 875.932 470.443
2215 0 56.0947 13.8159 775 120.098 875.524 468.396
2216 0 56.0947 13.905 780 137.995 875.533 468.331
2217 0 56.1241 12.5614 705 123.76 875.705 465.136
2218 0 58.182 12.7531 742 122.938 877.204 463.64
2219 0 60.1611 17.021 1024 116.218 877.239 461.145
2220 0 63.2717 14.0979 892 120.652 878.882 461.146
2221 0 63.246 14.7045 930 120.473 880.261 458.335
2222 0 65.2338 16.0806 1049 116.441 879.061 460.025
2223 0 65.1783 16.033 1045 141.183 878.077 459.992
2224 0 69.2739 14.0168 971 119.815 881.776 456.938
2225 0 71.3179 18.046 1287 112.477 883.45 458.212
2226 0 72.3073 12.8756 931 121.934 883.009 455.285
2227 0 77.3861 15.6359 1210 115.799 883.988 456.138
2228 0 79.5807 15.1921 1209 115.668 883.18 455.916
2229 0 82.2947 13.4638 1108 118.408 885.266 455.987
2230 1 42.1328 10.5856 446 118.859 884.256 474.605
2231 0 47.177 12.9724 612 115.796 884.642 469.859
2232 0 50.6646 13.3821 678 113.121 886.822 470.516
2233 0 46.3398 11.092 514 119.597 886.755 470.37
2234 0 51.2538 15.5111 795 111.021 887.876 468.857
2235 0 54.212 14.4433 783 112.738 887.63 474.474
2236 0 56.5249 12.9324 731 114.834 887.079 475.081
2237 0 55.3576 17.125 948 109.502 886.628 471.127
2238 0 58.3506 15.4926 904 111.634 883.76 471.256
2239 0 59.1863 11.2695 667 117.588 885.679 474.15
2240 0 61.5197 12.4513 766 115.948 884.396 470.722
2241 0 64.2929 15.7405 1012 105.197 884.261 473.17
2242 0 65.224 14.0592 917 106.711 882.901 474.57
2243 0 68.3179 12.1052 827 109.751 883.553 469.612
2244 0 72.3504 12.633 914 109.116 881.082 462.946
2245 0 75.1543 14.3172 1076 108.161 881.18 463.165
2246 0 77.2168 11.9404 922 109.817 880.378 463.257
2247 0 79.3495 12.174 966 110.355 879.734 458.801
2248 0 85.3072 12.1443 1036 110.688 880.142 457.994
2249 0 85.3748 13.9151 1188 109.167 878.756 458.669
2250 0 87.0972 11.7685 1025 112.576 879.08 455.97
2251 1 47.1999 13.9195 657 107.288 879.718 474.962
2252 0 48.1597 10.4029 501 114.505 878.968 474.062
2253 0 50.1902 13.8274 694 109.161 878.86 472.5
2254 0 48.1676 9.4877 457 118.228 877.921 472.829
2255 0 48.2072 10.9527 528 117.428 877.634 469.025
2256 0 54.1673 14.1414 766 111.991 878.29 468.161
2257 0 55.1117 13.7176 756 111.348 878.85 470.251
2258 0 56.0759 13.3569 749 112.92 879.821 464.342
2259 0 58.1502 13.8778 807 112.522 879.812 464.103
2260 0 58.1316 15.4821 900 111.118 879.974 461.016
2261 0 59.2985 13.1538 780 114.623 881.409 460.703
2262 0 62.1291 13.9387 866 114.811 880.244 456.881
2263 0 63.2227 13.5078 854 115.208 881.959 459.555
2264 0 63.2477 13.4234 849 129.346 881.95 459.664
2265 0 69.3109 14.3556 995 112.72 882.404 451.039
2266 0 71.2644 13.064 931 115.386 883.473 453.542
2267 0 76.3222 19.2604 1470 105.669 882.364 453.249
2268 0 77.2304 14.3467 1108 114.098 882.394 450.032
2269 0 79.2018 13.333 1056 116.009 884.609 450.428
2270 0 84.2578 14.1708 1194 113.621 884.11 446.673
2271 0 87.1711 14.5117 1265 113.34 884.553 447.969
2272 0 87.2198 16.2463 1417 109.02 886.688 448.049
2273 0 87.2198 13.4946 1177 137.952 887.687 451.313
2274 0 90.235 13.1213 1184 137.438 888.665 450.951
2275 1 49.0348 14.7446 723 109.498 888.249 467.627
2276 0 50.1251 14.0648 705 111.065 887.277 469.287
2277 0 50.2282 12.6025 633 113.85 886.485 469.24
2278 0 53.3678 10.7555 574 117.153 887.303 469.328
2279 0 57.065 15.8766 906 108.741 887.65 470.507
2280 0 60.136 14.2344 856 111.474 887.576 470.659
2281 0 60.2946 13.6497 823 114.012 885.334 471.445
2282 0 65.2745 16.6834 1089 108.915 885.888 472.115
2283 0 67.1512 17.0362 1144 109.496 885.58 471.691
2284 0 67.3235 13.9921 942 116.035 884.971 468.001
2285 0 71.2739 14.4232 1028 114.425 884.479 469.773
2286 0 73.1494 15.7349 1151 114.143 883.844 466.97
2287 0 76.0735 18.5347 1410 109.633 882.996 467.628
2288 0 79.1885 16.4544 1303 114.166 882.596 464.777
2289 0 83.1323 14.6874 1221 117.63 882.175 459.834
2290 0 87.2635 15.1266 1320 117.244 882.121 458.777
2291 0 87.1449 14.8603 1295 119.649 879.479 456.286
2292 1 50.0951 13.4544 674 119.589 882.134 473.687
2293 0 51.1695 12.5465 642 120.866 880.978 473.48
2294 0 51.1611 14.7377 754 120.635 879.207 472.403
2295 0 51.2621 13.4407 689 115.431 875.919 467.432
2296 0 53.2129 13.85 737 114.729 877.567 465.577
2297 0 56.435 14.3351 809 113.905 877.888 463.042
2298 0 54.2649 13.4341 729 116.675 877.424 462.263
2299 0 57.2323 12.0037 687 118.295 877.585 458.84
2300 0 58.1411 13.9488 811 116.909 877.912 454.053
2301 0 62.1717 14.2669 887 115.3 878.024 456.056
2302 0 61.2622 11.2957 692 123.241 877.656 462.292
2303 0 60.237 11.3884 686 141.417 877.656 462.127
2304 0 68.2256 15.1996 1037 115.859 879.225 455.721
2305 0 67.2107 12.8551 864 142.302 880.375 453.043
2306 0 73.3835 14.9761 1099 115.201 880.051 455.603
2307 0 72.2489 14.7684 1067 117.443 879.232 452.706
2308 0 77.3077 15.6517 1210 115.806 881.878 450.25
2309 0 75.314 14.1408 1065 129.968 883.773 452.128
2310 0 80.4338 13.7131 1103 120.082 883.354 446.82
2311 0 82.4111 14.7553 1216 119.337 883.429 443.621
2312 0 86.2556 14.0049 1208 120.452 883.512 443.571
2313 0 88.4091 13.9692 1235 120.301 884.641 444.008
2314 0 93.6216 13.7789 1290 122.436 885.602 442.178
2315 0 95.4631 17.127 1635 116.829 885.813 446.368
2316 0 97.4775 12.7004 1238 126.817 886.203 441.366
2317 1 55.5464 11.3599 631 123.797 885.506 462.943
2318 0 53.5952 11.8108 633 118.57 885.744 464.246
2319 0 53.3857 14.7792 789 112.136 884.314 466.254
2320 0 57.1937 12.6937 726 114.894 883.769 469.562
2321 0 59.1198 13.6333 806 113.948 884.035 465.141
2322 0 61.159 14.9773 916 111.722 884.18 464.468
2323 0 65.3562 15.1019 987 111.527 883.071 465.999
2324 0 68.2907 13.5011 922 112.566 883.482 468.028
2325 0 72.3921 15.7199 1138 108.585 883.339 462.614
2326 0 74.272 17.3013 1285 107.194 883.283 463.079
2327 0 77.3696 13.4032 1037 113.142 882.707 461.707
2328 0 78.2911 17.6521 1382 108.164 882.467 462.197
2329 0 81.2441 15.4473 1255 111.014 881.013 458.401
2330 0 84.1984 16.6986 1406 109.597 880.706 457.996
2331 0 86.4482 9.89031 855 119.596 879.174 458.076
2332 0 91.2657 14.9892 1368 112.948 879.475 453.751
2333 0 91.3275 13.3476 1219 116.451 879.638 452.236
2334 0 96.4044 16.2648 1568 112.385 878.661 448.476
2335 0 98.2878 15.7497 1548 112.547 878.523 448.177
2336 1 51.1235 11.5798 592 117.267 876.441 468.948
2337 0 49.0312 10.5647 518 119.309 877.436 470.041
2338 0 53.1806 12.2413 651 115.054 880.582 469.502
2339 0 59.2278 15.128 896 111.613 879.442 464.252
2340 0 57.1386 11.6209 664 119.497 879.955 464.738
2341 0 61.3819 13.2286 812 119.369 879.506 456.591
2342 0 62.3672 9.94113 620 123.6 878.953 459.221
2343 0 64.467 13.4953 870 117.691 879.466 459.672
2344 0 65.441 11.5677 757 121.096 880.205 457.568
2345 0 65.3087 12.7854 835 121.266 880.017 451.825
2346 0 69.3919 12.6384 877 120.787 880.637 450.764
2347 0 71.5219 13.2267 946 120.039 880.411 449.236
2348 0 75.3405 13.6713 1030 118.121 881.987 451.716
2349 0 73.2164 13.7674 1008 120.012 882.005 449.485
2350 0 80.4115 13.804 1110 118.451 883.016 446.651
2351 0 81.404 13.648 1111 119.411 883.582 444.305
2352 0 82.3564 12.9316 1065 121.764 883.529 442.745
2353 0 88.2084 16.9712 1497 113.752 883.226 439.171
2354 0 90.1485 10.871 980 122.553 883.113 443.279
2355 0 96.0836 14.6643 1409 116.741 883.082 439.246
2356 1 52.036 12.549 653 116.231 883.755 462.093
2357 0 53.0243 13.1638 698 114.07 883.805 463.269
2358 0 57.2676 14.6855 841 107.53 885.101 464.024
2359 0 57.1167 12.5532 717 112.554 885.307 462.612
2360 0 58.0207 10.1688 590 116.647 886.02 466.612
2361 0 59.0667 11.9018 703 113.326 884.656 465.001
2362 0 64.2644 12.7442 819 110.612 884.756 464.267
2363 0 65.1049 11.8117 769 112.278 884.06 463.055
2364 0 70.1828 12.325 865 111.228 885.292 462.15
2365 0 72.0865 11.0562 797 112.794 884.696 465.247
2366 0 75.1554 11.5228 866 112.573 883.408 462.538
2367 0 80.2612 11.5498 927 112.073 883.587 462.036
2368 0 83.413 13.547 1130 108.653 882.981 464.806
2369 1 51.3535 15.9288 818 101.067 879.577 482.813
2370 0 51.1214 11.1108 568 111.083 879.475 482.224
2371 0 48.1871 11.7874 568 111.877 879.019 482.931
2372 0 53.2458 14.9308 795 105.631 876.512 476.209
2373 0 52.1 13.7428 716 106.511 877.837 475.929
2374 0 53.1611 12.0953 643 110.863 876.63 473.964
2375 0 56.1613 10.6657 599 111.778 875.544 473.658
2376 0 56.1309 11.1703 627 111.694 875.07 474.099
2377 0 59.0798 14.0319 829 106.85 874.855 473.461
2378 0 60.1808 15.5365 935 106.525 874.817 466.325
2379 0 63.1449 12.5267 791 110.368 874.334 467.037
2380 0 63.109 13.9917 883 109.362 874.505 466.793
2381 0 64.1124 11.3551 728 114.187 875.51 464.1
2382 0 68.3561 12.7714 873 110.113 875.389 465.172
2383 0 67.171 12.5054 840 111.985 874.208 459.586
2384 0 72.14 14.4303 1041 108.444 874.86 455.526
2385 0 75.1498 15.9681 1200 106.137 875.35 456.692
2386 0 74.0766 15.5785 1154 106.438 875.934 458.876
2387 0 77.1584 16.3041 1258 105.198 876.942 457.595
2388 0 77.1584 16.3041 1258 117.738 877.941 457.391
2389 1 43.095 12.7625 550 110.38 876.449 469.091
2390 0 47.0795 13.4454 633 108.076 877.332 468.374
2391 0 45.2728 14.7329 667 108.766 878.466 465.93
2392 0 46.2602 13.0134 602 112.211 878.532 464.902
2393 0 48.4183 16.1716 783 105.894 880.4 468.061
2394 0 50.1771 15.9236 799 107.424 880.386 464.509
2395 0 52.1638 12.0007 626 114.324 881.403 466.288
2396 0 53.0987 13.5032 717 112.303 881.322 465.636
2397 0 54.3227 12.0576 655 114.986 882.751 465.186
2398 0 54.0935 12.5893 681 114.725 883.234 466.63
2399 0 57.0707 13.2467 756 112.876 883.06 468.856
2400 0 57.1007 13.7126 783 114.745 884.148 468.628
2401 0 61.1013 14.566 890 112.746 883.891 465.371
2402 0 62.1677 12.7076 790 114.895 882.366 467.981
2403 0 64.1531 13.8263 887 113.756 882.007 467.547
2404 0 68.1166 15.9286 1085 110.771 883.22 468.29
2405 0 70.26 14.3325 1007 113.072 882.396 466.865
2406 0 76.0744 13.868 1055 113.525 881.851 463.509
2407 0 78.208 15.5483 1216 109.449 882.16 462.46
2408 0 83.2306 14.4058 1199 110.631 882.559 462.806
2409 0 87.287 19.6135 1712 102.069 883.096 465.866
2410 1 42.0592 9.12999 384 116.023 880.484 478.896
2411 0 47.1131 15.3885 725 107.459 879.938 480.807
2412 0 49.0794 13.0809 642 108.525 878.433 482.495
2413 0 51.1543 14.2119 727 108.84 879.803 477.345
2414 0 52.212 11.3767 594 112.532 878.579 475.135
2415 0 54.2866 14.0734 764 108.585 878.301 473.13
2416 0 55.0776 13.8169 761 113.235 877.121 475.585
2417 0 58.0772 15.5655 904 109.491 877.04 474.789
2418 0 60.329 13.244 799 113 876.033 471.471
2419 0 62.2932 9.98504 622 116.812 875.199 472.709
2420 0 63.0634 15.0642 950 110.497 875.659 467.795
2421 0 63.0754 14.2369 898 112.166 876.074 468.4
2422 0 67.2539 15.33 1031 110.072 877.02 465.078
2423 0 68.1392 10.7721 734 116.301 876.373 465.775
2424 0 73.2437 11.7416 860 113.849 876.293 465.815
2425 0 72.136 11.6308 839 115.316 876.471 463.889
2426 0 75.2828 13.1238 988 116.068 876.513 456.908
2427 0 80.3322 17.104 1374 107.541 876.481 457.461
2428 0 77.1786 12.0111 927 116.167 877.179 454.679
2429 0 76.295 10.538 804 115.076 877.667 457.048
2430 0 82.404 13.2518 1092 112.834 878.879 451.494
2431 0 86.3302 13.1935 1139 113.252 880.393 441.152
2432 0 86.3302 13.1935 1139 138.88 881.403 441.21
2433 0 89.1482 12.4624 1111 116.359 881.356 440.068
2434 0 93.3476 16.1975 1512 111.656 881.593 437.64
2435 0 93.2836 12.3923 1156 116.285 882.375 442.165
2436 0 97.4293 13.6817 1333 118.026 883.271 434.579
2437 0 101.306 12.862 1303 120.409 883.385 433.694
2438 0 104.39 13.8424 1445 119.51 883.318 434.327
2439 0 106.153 11.9828 1272 127.763 884.417 439.726
2440 0 113.372 14.0334 1591 124.082 885.473 434.692
2441 0 118.483 16.188 1918 119.253 884.619 437.229
2442 0 122.237 14.979 1831 123.495 884.961 431.352
2443 0 128.384 15.6873 2014 122.199 883.47 433.796
2444 1 69.3113 14.067 975 125.772 884.06 459.955
2445 0 74.3822 14.3045 1064 122.886 882.8 467.903
2446 0 76.2349 15.6097 1190 123.187 883.487 462.969
2447 0 76.0912 12.8793 980 129.535 882.824 459.201
2448 0 84.1283 14.6324 1231 124.185 882.444 461.296
2449 0 88.1079 14.1531 1247 125.861 881.391 455.731
2450 0 85.3658 18.2743 1560 122.74 882.476 458.187
2451 0 86.1779 18.8099 1621 124.731 881.15 459.185
2452 0 86.1779 18.9376 1632 142.251 879.13 459.143
2453 0 93.229 16.4648 1535 128.359 879.729 457.399
2454 0 94.3254 15.966 1506 128.631 879.24 456.757
2455 0 98.3574 17.6397 1735 124.716 879.444 447.342
2456 0 100.32 15.5103 1556 127.451 877.422 442.366
2457 0 105.312 17.1301 1804 124.537 876.823 438.659
2458 0 109.309 16.522 1806 124.807 876.613 439.48
2459 0 111.548 14.1912 1583 129.467 877.074 436.013
2460 0 117.529 13.6903 1609 129.28 876.925 433.13
2461 0 122.476 14.9172 1827 127.082 877.179 428.803
2462 0 131.459 19.1542 2518 116.774 877.612 432.615
2463 1 68.1066 11.2177 764 125.071 878.44 457.135
2464 0 71.1485 14.013 997 120.719 877.387 452.019
2465 0 72.1987 14.2662 1030 120.833 877.768 453.91
2466 0 78.133 12.0436 941 123.624 878.3 451.323
2467 0 78.1789 13.2389 1035 123.484 878.3 447.666
2468 0 80.0821 13.5361 1084 123.248 879.139 447.22
2469 0 82.1832 14.1513 1163 122.398 877.678 452.76
2470 0 84.2507 17.531 1477 117.772 878.08 449.458
2471 0 87.2958 14.2389 1243 124.057 879.107 444.573
2472 0 88.3154 12.2629 1083 129.064 879.926 437.714
2473 0 89.2655 14.5857 1302 123.598 880.108 438.821
2474 0 92.3165 15.8801 1466 120.899 880.438 436.995
2475 0 95.4446 15.9883 1526 120.187 881.74 436.758
2476 0 98.3968 14.2891 1406 123.418 882.257 433.694
2477 0 107.439 15.5902 1675 119.536 884.745 428.444
2478 0 108.473 13.7822 1495 123.767 884.799 428.643
2479 1 58.1188 11.4593 666 122.776 883.209 450.776
2480 0 65.2461 12.5372 818 121.846 884.216 460.252
2481 0 68.5047 12.1014 829 122.914 885.527 459.668
2482 0 71.314 11.9191 850 123.592 884.976 458.268
2483 0 73.5544 12.6709 932 122.314 885.336 457.582
2484 0 76.4431 14.1282 1080 119.51 882.808 458.511
2485 0 76.4431 14.1151 1079 137.757 880.787 458.507
2486 0 82.1112 13.8836 1140 120.308 881.907 449.41
2487 0 85.3094 14.2423 1215 119.63 881.511 452.663
2488 0 92.5314 14.4924 1341 117.189 880.513 455.539
2489 1 51.149 10.7138 548 118.943 880.812 475.328
2490 0 51.0652 11.1818 571 117.529 879.902 475.981
2491 0 56.0299 12.2256 685 115.031 878.753 473.898
2492 0 55.2894 12.4074 686 114.758 879.764 472.163
2493 0 59.2441 15.2758 905 110.092 878.887 472.423
2494 0 58.1638 12.7055 739 115.2 877.993 472.894
2495 0 58.1638 12.8086 745 134.774 877.001 472.887
2496 0 62.2411 12.5319 780 115.553 876.515 469.586
2497 0 65.2242 16.9416 1105 108.611 877.062 469.342
2498 0 67.1635 13.5788 912 112.979 876.249 470.826
2499 0 68.2371 13.4824 920 114.366 876.148 466.202
2500 0 71.0682 12.8327 912 115.705 877.179 466.678
2501 0 73.1486 12.3037 900 116.11 875.603 462.579
2502 0 73.3012 10.6274 779 119.54 875.91 460.268
2503 0 76.3213 15.7099 1199 112.673 875.797 459.714
2504 0 80.2446 14.2813 1146 114.722 875.852 457.958
2505 0 83.2108 13.9645 1162 115.756 875.653 455.755
2506 0 85.0796 13.5403 1152 116.685 875.543 450.406
2507 0 87.1732 13.6051 1186 117.247 876.094 452.068
2508 0 88.2522 13.3708 1180 118.669 876.125 451.144
2509 0 89.2661 14.7872 1320 117.748 876.748 450.505
2510 0 91.2785 11.5252 1052 121.82 876.737 451.357
2511 0 96.2844 11.0714 1066 122.822 875.894 445.038
2512 0 96.3255 10.4541 1007 124.073 877.292 447.329
2513 0 103.293 12.876 1330 120.029 879.344 441.16
2514 1 57.1662 9.56859 547 116.94 879.726 465.623
2515 0 55.2085 8.58564 474 119.949 880.422 463.848
2516 0 58.2236 11.4387 666 116.056 881.17 459.384
2517 0 58.2236 11.4902 669 121.063 881.158 459.375
2518 0 63.149 14.0303 886 108.935 882.953 460.395
2519 0 66.2259 13.8617 918 109.261 883.075 457.054
2520 0 67.2057 11.3532 763 112.895 883.578 456.834
2521 0 69.2649 9.60083 665 115.132 884.553 459.086
2522 0 74.2682 13.1954 980 109.802 883.913 456.851
2523 0 76.2976 14.7711 1127 107.731 885.515 458.798
2524 0 78.1807 13.7886 1078 109.378 884.175 457.783
2525 0 81.3586 14.9216 1214 107.263 884.593 454.7
2526 0 82.2248 13.2563 1090 110.696 884.855 455.333
2527 0 89.2512 15.8653 1416 106.804 884.372 456.036
2528 0 89.1106 13.5562 1208 111.435 884.131 457.416
2529 0 94.1005 13.8575 1304 110.807 884.064 458.405
2530 0 98.2411 15.6248 1535 108.143 883.926 458.742
2531 0 101.301 13.3464 1352 112.354 883.598 450.365
2532 0 106.265 12.5159 1330 112.772 883.307 450.485
2533 0 109.288 15.5735 1702 109.971 882.643 455.27
2534 0 114.278 11.577 1323 115.304 882.082 449.955
2535 1 58.1559 11.3488 660 113.495 881.352 475.929
2536 0 60.0663 11.3708 683 114.933 880.455 475.826
2537 0 63.1628 12.349 780 115.765 880.304 473.891
2538 0 65.1668 12.399 808 116.715 879.688 472.546
2539 0 68.3032 13.9378 952 113.706 879.471 471.849
2540 0 69.1425 13.624 942 116.126 879.333 466.551
2541 0 73.2512 14.894 1091 113.37 878.393 465.839
2542 0 74.2063 14.4058 1069 114.323 878.434 466.803
2543 0 76.3244 14.5694 1112 114.287 877.765 465.808
2544 0 81.5412 14.4957 1182 114.342 877.687 462.195
2545 0 79.5407 11.7424 934 119.749 878.527 462.131
2546 0 88.511 13.0944 1159 117.359 878.525 457.89
2547 0 89.4897 14.1581 1267 116.209 877.695 456.865
2548 1 44.4597 12.9555 576 116.056 876.142 472.165
2549 0 48.414 15.2435 738 111.947 875.93 470.415
2550 0 47.529 11.8875 565 114.005 875.963 467.412
2551 0 49.3799 11.0976 548 110.591 876.301 464.54
2552 0 52.1636 13.8986 725 105.44 875.79 465.277
2553 0 54.2268 11.1568 605 107.544 877.626 466.04
2554 0 55.3225 13.6653 756 105.431 877.356 463.146
2555 0 57.3236 12.5603 720 108.689 879.121 460.521
2556 0 58.2491 12.8071 746 113.377 880.879 466.575
2557 0 62.138 13.8562 861 112.171 882.641 466.952
2558 0 60.0351 13.0091 781 115.699 882.95 462.849
2559 0 67.275 11.6834 786 116.91 884.517 460.438
2560 0 69.1952 9.23474 639 118.889 883.756 463.084
2561 0 69.1952 9.16248 634 139.229 883.787 463.096
2562 0 70.0637 12.0034 841 115.74 884.699 460.208
2563 0 73.1316 11.4041 834 116.152 884.875 464.199
2564 0 77.215 11.8759 917 115.863 885.105 461.138
2565 0 77.1092 10.8807 839 115.1 884.244 467.012
2566 0 79.2715 11.7571 932 116.281 885.168 462.44
2567 1 44.0688 8.80441 388 120.747 884.284 479.281
2568 0 46.0317 11.4703 528 115.023 886.049 481.053
2569 0 48.0567 10.0506 483 116.141 885.437 479.269
2570 0 54.0662 17.9964 973 103.198 884.07 480.665
2571 0 54.0749 13.093 708 111.121 884.675 479.532
2572 0 56.086 15.2801 857 109.446 884.226 478.614
2573 0 57.1967 13.4448 769 111.915 882.705 482.395
2574 0 56.021 9.96055 558 119.498 882.48 478.83
2575 0 64.1506 15.3701 986 108.253 881.203 480.117
2576 0 67.1294 18.3228 1230 104.257 880.854 478.033
2577 0 65.0925 13.2427 862 113.276 879.277 474.678
2578 0 68.0848 14.9226 1016 111.379 879.451 473.977
2579 0 69.1567 14.2286 984 112.507 877.886 472.678
2580 0 70.0624 12.9599 908 115.49 878.339 469.714
2581 0 76.3315 19.7821 1510 103.906 878.378 464.765
2582 0 76.2268 15.3489 1170 111.609 877.662 465.596
2583 0 76.332 11.7906 900 117.018 876.518 463.577
2584 0 83.3502 13.8332 1153 112.286 876.138 464.554
2585 0 86.2344 14.7853 1275 110.863 877.846 462.369
2586 0 89.4749 20.1956 1807 102.826 876.284 456.744
2587 1 47.3754 13.3403 632 112.255 876.804 477.035
2588 0 49.4457 13.7322 679 107.259 874 475.317
2589 0 49.2574 18.9819 935 102.238 875.272 470.831
2590 0 52.0754 17.2826 900 103.309 874.59 470.981
2591 0 52.0414 17.5437 913 103.876 874.999 470.745
2592 0 53.1184 14.8724 790 108.628 875.871 467.623
2593 0 56.1654 15.8282 889 107.332 875.238 464.399
2594 0 60.1932 10.865 654 113.106 875.963 465.83
2595 0 60.1757 12.8125 771 144.323 876.869 463.817
2596 0 60.1062 13.6758 822 110.888 875.856 464.78
2597 0 60.1472 16.576 997 105.492 877.932 459.078
2598 0 61.1356 12.8567 786 111.462 879.902 457.669
2599 0 65.327 11.1439 728 111.257 880.348 456.047
2600 0 69.1832 16.4491 1138 103.992 881.453 456.603
2601 0 71.6515 12.7841 916 109.59 881.412 451.331
2602 0 74.4006 14.4623 1076 106.888 880.444 451.362
2603 0 76.3221 14.0326 1071 107.796 881.665 453.022
2604 0 79.2509 12.6939 1006 111.323 881.964 448.711
2605 0 81.3592 14.2332 1158 110.972 882.554 453.172
2606 0 86.2454 15.2472 1315 108.978 882.548 447.919
2607 0 89.4391 13.7524 1230 109.657 881.902 449.743
2608 0 89.4391 13.607 1217 142.325 881.86 449.546
2609 1 47.2002 9.322 440 113.805 882.582 471.411
2610 0 48.0773 9.69273 466 111.225 882.436 474.751
2611 0 46.2184 8.76275 405 112.928 883.558 471.941
2612 0 56.1533 11.9138 669 108.765 883.353 468.336
2613 0 57.2151 12.1646 696 108.399 882.391 471.578
2614 0 59.1227 11.8567 701 110.482 881.702 471.056
2615 0 64.1225 14.2384 913 107.119 880.254 469.651
2616 0 64.1693 16.924 1086 104.191 878.921 468.026
2617 0 67.3402 11.8354 797 110.216 878.474 465.592
2618 0 67.3402 11.8057 795 140.843 878.494 465.411
2619 0 70.359 10.0911 710 114.834 877.265 459.934
2620 0 76.2536 15.6714 1195 106.58 876.875 460.92
2621 0 80.3372 13.7172 1102 107.87 877.377 462.946
2622 0 81.2863 10.6291 864 113.847 876.803 454.83
2623 0 84.3359 13.3039 1122 109.538 876.552 456.391
2624 0 87.5088 13.3244 1166 110.393 875.574 456.901
2625 0 91.6247 12.1037 1109 113.985 875.288 452.266
2626 0 97.2566 16.1429 1570 108.845 875.618 450.664
2627 0 98.6406 13.8989 1371 112.736 874.804 450.256
2628 1 52.3045 11.9875 627 112.66 875.019 470.751
2629 0 55.2632 19.5066 1078 102.832 876.157 472.036
2630 0 57.11 14.9011 851 106.966 878.281 469.145
2631 0 60.1436 16.7266 1006 103.354 878.156 468.677
2632 0 59.1353 13.3592 790 109.034 878.71 465.472
2633 0 63.1744 19.0425 1203 100.914 877.802 466.142
2634 0 63.1585 14.5032 916 108.319 878.842 462.671
2635 0 69.224 16.0349 1110 105.95 879.061 463.181
2636 0 70.2359 14.9638 1051 108.051 880.187 461.838
2637 0 75.368 14.0245 1057 112.311 880.027 460.323
2638 0 74.5862 14.1179 1053 113.1 881.627 458.966
2639 0 78.6835 14.5266 1143 111.605 881.009 458.733
2640 0 78.2722 13.5297 1059 115.048 882.921 455.16
2641 0 82.4844 15.2999 1262 111.599 881.995 457.024
2642 1 103.747 17.909 1858 103.8 883.728 450.108
2643 0 105.641 17.3323 1831 105.883 884.618 446.235
2644 0 109.34 20.0933 2197 103.98 884.702 445.411
2645 1 55.1959 15.3635 848 103.703 884.781 476.604
2646 0 59.1956 14.0382 831 106.678 885.678 470.197
2647 0 62.1836 13.2511 824 106.079 884.834 477.624
2648 0 64.1959 17.9762 1154 100.674 883.893 475.67
2649 0 63.284 13.6053 861 109.436 884.11 470.105
2650 0 65.1692 12.9049 841 108.427 882.367 474.737
2651 0 68.4257 14.3075 979 108.139 881.834 471.061
2652 0 70.1758 15.4184 1082 105.976 882.409 469.897
2653 0 73.1251 14.441 1056 107.603 879.079 469.137
2654 0 74.1476 16.157 1198 105.598 878.99 467.053
2655 0 75.0871 14.2901 1073 109.317 878.512 465.174
2656 0 78.1927 16.3442 1278 105.722 877.583 465.073
2657 0 81.1958 15.752 1279 107.202 876.899 461.784
2658 0 83.192 13.5951 1131 108.695 877.156 462.042
2659 0 85.1107 12.2429 1042 110.519 876.31 461.463
2660 0 85.1107 12.2429 1042 142.144 874.3 461.345
2661 0 90.4657 13.5189 1223 107.777 875.26 450.777
2662 0 95.4758 12.401 1184 106.79 873.993 457.308
2663 0 99.5071 16.7626 1668 102.51 875.424 451.193
2664 1 53.4335 17.3112 925 100.183 874.671 473.821
2665 0 56.3274 14.54 819 103.958 875.017 468.769
2666 0 57.3179 14.6726 841 103.433 875.21 469.752
2667 0 57.3038 15.9152 912 102.737 875.657 466.552
2668 0 61.3185 12.7531 782 105.685 876.258 467.203
2669 0 61.377 17.808 1093 101.015 875.166 465.436
2670 0 62.4419 17.5363 1095 101.644 876.952 457.93
2671 0 65.6096 13.245 869 106.246 875.796 462.582
2672 0 67.3077 12.3017 828 107.365 876.099 461.856
2673 0 67.4014 13.5309 912 106.137 876.59 460.706
2674 0 70.2408 12.2009 857 109.17 877.882 456.883
2675 0 73.3776 11.4885 843 109.877 878.195 457.31
2676 0 74.2084 15.4834 1149 105.41 878.473 457.605
2677 0 80.3081 16.474 1323 102.563 879.462 455.676
2678 0 81.361 18.2151 1482 101.688 879.715 451.016
2679 0 82.4092 15.1075 1245 105.969 881.063 453.243
2680 0 84.5485 13.4242 1135 107.443 881.424 453.488
2681 0 89.2022 15.6947 1400 105.675 881.608 450.956
2682 0 89.4542 14.5102 1298 106.476 882.261 451.596
2683 0 94.3495 16.9052 1595 104.092 881.972 449.061
2684 0 96.3241 12.8628 1239 109.307 883.019 450.633
2685 0 101.321 19.3051 1956 102.264 881.416 450.585
2686 0 106.431 23.5739 2509 97.7134 881.169 448.507
2687 0 108.592 17.3216 1881 103.179 881.797 453.826
2688 1 55.547 12.0799 671 107.902 881.896 471.297
2689 0 56.3617 13.9811 788 109.576 880.348 473.288
2690 0 61.2232 12.0706 739 110.005 879.543 476.549
2691 0 60.121 17.3816 1045 104.884 880.794 470.468
2692 0 60.0971 13.994 841 109.555 880.243 473.25
2693 0 64.4418 15.192 979 106.956 878.648 473.983
2694 0 66.0703 14.4392 954 107.928 879.081 470.321
2695 0 67.1744 11.9837 805 112.017 878.58 471.552
2696 0 70.1702 12.6834 890 111.633 877.439 471.202
2697 0 71.2783 14.4083 1027 143.346 876.547 473.134
2698 0 75.1856 20.4693 1539 98.8077 876.94 475.357
2699 0 78.332 18.1407 1421 101.032 876.17 472.058
2700 0 78.2994 12.9247 1012 110.509 876.392 465.858
2701 0 81.3848 14.1304 1150 110.654 875.093 464.057
2702 0 84.4194 19.8769 1678 89.8754 875.155 455.908
2703 0 86.4304 14.0113 1211 99.3121 874.012 459.183
2704 0 87.2674 15.1718 1324 98.3459 872.914 456.958
2705 0 89.348 15.6579 1399 97.9743 874.068 458.119
2706 0 93.4776 14.7308 1377 98.9368 873.206 456.849
2707 0 96.4613 14.6898 1417 99.271 873.087 453.63
2708 0 99.4897 15.0066 1493 100.362 873.58 445.601
2709 0 107.795 19.9916 2155 93.3044 874.026 449.86
2710 0 107.65 22.9354 2469 91.1008 873.962 448.724
2711 1 56.2047 17.4185 979 94.5546 875.749 468.6
2712 0 58.313 13.8562 808 98.0545 874.624 466.238
2713 0 62.3169 17.8443 1112 91.214 874.092 468.383
2714 0 62.3116 12.5819 784 99.5855 875.028 461.042
2715 0 65.2873 19.1768 1252 92.7716 875.344 457.826
2716 0 68.2714 15.1601 1035 96.2145 875.351 458.514
2717 0 69.3648 13.0614 906 99.3819 877.024 460.472
2718 0 70.3106 18.3329 1289 94.7448 877.996 455.986
2719 0 73.2042 15.8461 1160 97.8155 879.008 453.347
2720 0 76.2687 14.2522 1087 99.6909 879.505 452.729
2721 0 80.4458 17.6143 1417 95.5159 879.056 453.579
2722 0 82.7299 17.0918 1414 96.3741 879.914 454.033
2723 0 84.6702 16.7473 1418 97.4732 879.552 449.647
2724 0 88.9086 19.1545 1703 95.2965 880.147 444.967
2725 0 88.5241 16.1086 1426 98.629 880.743 447.837
2726 0 88.5144 11.5348 1021 103.276 879.732 445.063
2727 0 94.3518 12.8243 1210 100.099 880.867 446.629
2728 0 96.5019 20.5177 1980 93.5056 880.643 445.73
2729 1 50.116 12.7105 637 102.016 881.405 464.942
2730 0 54.3195 13.126 713 100.25 881.621 467.882
2731 0 51.1184 9.54646 488 106.512 879.951 465.949
2732 0 56.3089 17.6526 994 95.0322 880.847 468.572
2733 0 58.5126 15.518 908 98.3844 880.911 466.372
2734 0 57.297 11.5887 664 103.288 882.101 470.17
2735 0 62.2595 13.4598 838 100.845 879.928 467.804
2736 0 65.3887 13.9015 909 98.8779 880.783 472.178
2737 0 68.1909 16.9524 1156 95.7448 880.347 470.745
2738 0 70.2638 13.1647 925 102.044 879.853 462.736
2739 0 72.1516 16.9504 1223 98.3172 879.92 464.8
2740 0 72.2492 13.5918 982 103.463 878.315 464.013
2741 0 75.4784 15.2229 1149 102.103 878.691 462.237
2742 0 81.3885 18.8479 1534 97.384 877.089 458.323
2743 0 81.3385 19.302 1570 97.2146 876.729 461.168
2744 0 82.2641 13.408 1103 105.801 875.946 455.889
2745 0 85.1917 19.8024 1687 97.9466 876.146 458.611
2746 0 86.2366 17.2085 1484 101.178 875.602 455.352
2747 0 90.2269 14.663 1323 105.088 875.512 439.003
2748 0 93.3046 15.8299 1477 103.877 874.662 437.908
2749 0 95.2466 15.9376 1518 105.104 875.421 439.591
2750 0 100.335 15.4282 1548 104.529 873.27 443.192
2751 0 102.18 19.6222 2005 100.297 874.652 446.144
2752 0 107.243 15.2551 1636 104.579 875.567 428.33
2753 0 111.414 20.6078 2296 100.224 875.342 411.203
2754 0 115.162 18.1831 2094 114.064 876.402 406.292
2755 0 115.415 14.9028 1720 118.725 876.53 402.438
2756 0 119.328 19.6768 2348 111.105 877.6 406.25
2757 0 124.555 18.6825 2327 109.987 877.123 411.854
2758 0 130.69 19.0068 2484 111.043 877.831 406.877
2759 0 137.575 16.0204 2204 114.176 879.466 405.701
2760 0 141.594 19.3935 2746 108.028 879.085 412.648
2761 0 146.658 17.5988 2581 111.115 879.392 409.261
2762 0 148.484 11.2133 1665 119.77 879.762 414.621
2763 1 82.144 15.558 1278 109.451 881.491 439.579
2764 0 83.1734 15.0529 1252 110.1 881.02 444.955
2765 0 86.146 13.5816 1170 112.203 881.965 441.216
2766 0 95.1231 13.7927 1312 109.669 881.469 446.205
2767 0 94.4935 15.9164 1504 109.828 882.495 440.619
2768 0 95.1322 9.33438 888 118.866 882.264 439.169
2769 0 101.297 16.7725 1699 108.807 883.808 439.289
2770 0 101.24 13.9866 1416 113.029 884.239 433.183
2771 0 109.408 17.7227 1939 105.711 885.108 443.561
2772 0 111.215 15.1778 1688 110.43 885.139 436.264
2773 0 113.449 14.6586 1663 110.704 884.809 441.498
2774 0 117.509 20.1857 2372 102.98 884.566 445.255
2775 0 116.37 12.8297 1493 114.861 884.36 426.895
2776 0 126.347 13.4708 1702 113.022 882.742 429.848
2777 0 126.299 14.7744 1866 111.136 882.713 433.374
2778 0 132.646 13.7735 1827 111.906 883.076 429.628
2779 1 77.2705 10.0426 776 107.58 881.932 459.363
2780 0 82.1458 12.6848 1042 103.403 883.197 460.225
2781 0 84.2133 13.4302 1131 105.888 883.649 456.446
2782 0 84.1178 11.6384 979 107.636 883.037 456.502
2783 0 92.3953 10.9638 1013 105.417 880.014 463.913
2784 0 97.1714 22.2596 2163 94.2594 879.821 454.634
2785 0 96.3627 14.6011 1407 102.985 879.585 449.347
2786 0 99.6529 15.273 1522 101.002 878.583 456.884
2787 0 101.29 11.1165 1126 107 877.689 448.151
2788 0 108.397 14.3178 1552 101.923 877.189 449.072
2789 0 110.336 15.5888 1720 99.9709 875.692 451.074
2790 0 114.579 12.9605 1485 103.933 876.345 444.04
2791 0 119.456 14.8004 1768 104.619 875.306 435.706
2792 1 59.0526 11.3627 671 101.165 875.08 467.221
2793 0 61.2303 13.931 853 95.4525 874.719 472.043
2794 0 62.453 16.9087 1056 94.8333 875.351 464.712
2795 0 65.3458 12.365 808 99.4282 875.839 464.579
2796 0 68.1932 11.6727 796 101.077 874.471 461.095
2797 0 68.243 13.7157 936 99.6891 875.46 460.852
2798 0 68.1597 17.0922 1165 96.491 876.881 455.995
2799 0 73.2978 14.7071 1078 99.2412 877.129 451.871
2800 0 75.3448 16.6435 1254 95.5949 876.624 458.44
2801 0 76.2156 7.66248 584 104.747 875.832 459.212
2802 0 80.3104 12.7381 1023 100.883 877.721 451.445
2803 0 84.336 14.1221 1191 98.5701 878.025 448.891
2804 0 86.2381 13.4975 1164 99.5163 879.886 441.358
2805 0 89.1896 14.6542 1307 102.586 880.298 440.426
2806 0 93.292 15.7463 1469 101.157 881.839 445.176
2807 0 91.1908 10.9002 994 109.383 883.122 440.655
2808 0 96.255 13.6512 1314 105.394 882.601 437.438
2809 0 100.328 12.2598 1230 106.064 882.035 434.306
2810 0 102.392 12.9697 1328 104.183 882.811 438.129
2811 1 54.186 12.6601 686 98.9359 881.567 466.561
2812 0 59.1661 16.1748 957 92.7409 885.013 464.18
2813 0 59.2101 15.7912 935 94.9882 884.481 469.447
2814 0 59.1111 11.5038 680 100.697 882.643 466.65
2815 0 58.1249 11.785 685 102.201 882.175 465.331
2816 0 60.2809 9.60503 579 105.123 883.207 462.105
2817 0 65.1277 10.2261 666 104.41 883.788 468.745
2818 0 67.1846 12.3242 828 101.37 883.187 468.209
2819 0 69.1634 12.5066 865 102.623 882.523 463.336
2820 0 69.193 12.747 882 101.726 881.582 468.167
2821 0 73.3682 16.3968 1203 98.3807 882.852 464.332
2822 0 77.1081 22.3971 1727 92.4192 882.186 462.365
2823 0 76.1419 12.5424 955 103.598 882.022 467.798
2824 0 80.1587 16.1056 1291 99.8815 881.57 465.844
2825 0 83.3948 17.1833 1433 98.0468 882.218 469.067
2826 0 83.1057 12.3337 1025 106.048 882.595 465.042
2827 0 87.1585 13.8369 1206 102.4 881.635 467.192
2828 0 90.3411 16.8473 1522 100.717 880.988 458.025
2829 0 93.6012 13.2904 1244 104.955 879.969 453.67
2830 0 97.4471 23.8283 2322 93.1016 879.248 456.826
2831 0 98.2778 16.5551 1627 100.634 878.34 453.305
2832 0 103.273 15.2218 1572 101.971 877.127 449.435
2833 0 102.463 12.6387 1295 105.149 876.346 448.876
2834 0 106.402 14.3512 1527 104.275 876.623 442.134
2835 0 106.402 14.4358 1536 143.936 876.648 442.087
2836 0 112.421 11.9551 1344 106.16 875.859 443.539
2837 1 74.0903 10.8516 804 104.765 875.381 459.56
2838 0 67.3699 7.65921 516 106.341 877.054 455.384
2839 0 70.3076 13.9956 984 99.0945 877.516 454.464
2840 0 72.1533 12.3071 888 107.061 877.274 456.535
2841 0 75.2565 13.2879 1000 106.5 877.73 456.686
2842 0 77.2211 13.8563 1070 106.087 876.865 455.805
2843 0 83.4669 13.9936 1168 104.742 877.996 451.926
2844 0 83.5594 14.2174 1188 106.141 879.353 447.906
2845 0 89.7137 14.5574 1306 105.776 879.935 444.108
2846 0 87.4356 12.249 1071 108.759 880.696 445.685
2847 0 87.4426 12.351 1080 146.85 881.708 445.691
2848 0 85.5003 8.69003 743 113.966 883.063 446.933
2849 0 87.3747 11.0673 967 110.72 882.853 445.958
2850 0 86.4197 9.00258 778 113.211 883.524 445.422
2851 1 232.143 16.0332 3722 106.778 884.242 385.134
2852 0 241.413 16.2295 3918 105.72 884.497 385.86
2853 0 236.906 13.7481 3257 108.101 885.012 390.086
2854 1 116.809 12.3193 1439 109.457 885.101 435.994
2855 1 63.2867 10.3655 656 105.091 886.983 463.172
2856 0 65.209 16.0561 1047 97.5406 887.074 456.968
2857 0 64.2122 13.1128 842 99.9941 886.024 458.825
2858 0 70.1456 14.755 1035 97.3227 887.513 462.984
2859 0 72.2019 19.487 1407 92.1791 887.639 462.072
2860 0 72.2019 19.5147 1409 114.468 888.617 462.053
2861 0 71.2204 14.0971 1004 98.1813 887.495 468.909
2862 0 77.5628 12.6994 985 100.704 887.321 464.236
2863 0 79.2798 15.9183 1262 97.1696 886.41 462.85
2864 0 81.415 14.9358 1216 99.0395 886.487 458.172
2865 0 85.6298 17.9494 1537 95.2062 886.478 463.059
2866 0 91.269 19.2837 1760 93.3199 885.92 464.345
2867 0 88.5479 16.8158 1489 98.0625 886.151 457.457
2868 0 88.3338 13.0528 1153 103.662 884.982 457.697
2869 0 86.2905 8.62204 744 108.918 884.168 460.559
2870 0 95.3307 18.483 1762 96.357 883.409 448.282
2871 0 98.2811 19.6274 1929 95.0057 883.832 449.58
2872 0 100.205 14.3106 1434 100.437 882.805 452.123
2873 1 54.1186 11.6411 630 103.611 884.149 467.254
2874 0 58.2848 12.662 738 98.8157 878.061 466.278
2875 0 57.2677 14.179 812 98.7832 878.848 460.6
2876 0 63.5409 11.6618 741 98.7598 879.238 460.87
2877 0 62.2581 11.3881 709 99.2863 878.386 459.508
2878 0 66.5025 12.4055 825 96.7733 878.202 457.623
2879 0 65.3543 14.8116 968 96.0403 878.176 457.831
2880 0 69.2979 13.3337 924 98.6678 877.43 451.371
2881 0 74.3953 16.2645 1210 94.5355 878.422 450.635
2882 0 76.1738 11.8413 902 98.9789 878.139 448.511
2883 0 75.3711 13.7321 1035 98.3227 878.758 446.994
2884 0 77.3173 14.4599 1118 97.4875 877.747 445.68
2885 0 81.3775 13.2961 1082 98.4316 879.814 442.346
2886 0 82.2094 14.6942 1208 97.3998 879.598 441.468
2887 0 84.3221 13.484 1137 96.9217 879.307 446.456
2888 0 91.4957 15.6401 1431 94.8784 879.95 442.164
2889 0 94.4006 12.3728 1168 97.7783 880.241 443.316
2890 0 98.3431 11.3887 1120 99.8188 881.758 442.435
2891 1 53.0855 10.5679 561 95.4866 883.455 465.064
2892 0 57.1117 11.1886 639 96.4507 883.338 457.451
2893 0 60.1922 14.1547 852 93.2876 883.941 464.977
2894 0 61.3292 11.9682 734 96.1444 882.332 461.552
2895 0 64.2727 14.7185 946 94.2548 882.352 458.642
2896 0 64.2943 14.6047 939 94.8871 881.952 457.424
2897 0 65.1338 15.2916 996 93.5201 883.016 462.777
2898 0 69.1155 15.872 1097 93.0647 883.595 457.343
2899 0 71.7236 14.3746 1031 94.8244 883.925 453.679
2900 0 71.7236 14.3746 1031 125.296 884.905 453.827
2901 0 77.2972 10.1427 784 98.8878 884.207 456.092
2902 0 78.3291 15.2689 1196 92.2416 885.961 461.717
2903 0 83.2013 19.0983 1589 89.8433 885.208 457.649
2904 0 83.3632 13.0033 1084 95.0212 885.724 457.381
2905 0 89.7093 17.2223 1545 90.4654 885.687 456.949
2906 0 93.5534 17.5835 1645 90.8079 884.965 449.258
2907 0 95.2493 15.6012 1486 91.7396 884.906 451.746
2908 1 51.3978 16.0707 826 85.5714 883.683 479.577
2909 0 53.4161 14.4713 773 90.3558 883.26 474.605
2910 0 50.5028 11.1083 561 96.795 884.451 471.553
2911 0 56.3898 15.0736 850 90.1106 882.982 476.707
2912 0 56.3582 15.6322 881 90.319 883.579 472.864
2913 0 59.7516 13.054 780 92.0872 882.563 476.064
2914 0 60.5596 16.4796 998 88.6112 881.027 473.807
2915 0 59.2717 10.2747 609 95.3087 880.105 470.545
2916 0 65.2506 26.2373 1712 81.8178 880.41 470.793
2917 0 66.2923 14.9791 993 91.5579 880.214 467.26
2918 0 68.3471 16.1382 1103 95.6074 880.099 471.015
2919 0 67.3325 16.8863 1137 128.764 881.12 470.55
2920 0 72.7177 18.7712 1365 94.6571 879.5 464.269
2921 0 69.3275 12.3472 856 103.791 879.109 460.754
2922 0 74.5984 19.2095 1433 94.3622 878.253 463.147
2923 0 77.9473 16.5112 1287 97.9977 877.531 454.192
2924 0 82.1358 13.5629 1114 101.04 878.028 454.567
2925 0 84.6939 17.026 1442 97.1845 879.248 453.28
2926 0 85.7774 13.6749 1173 100.612 878.863 447.065
2927 0 85.3758 13.9969 1195 100.177 877.34 444.418
2928 0 88.2998 16.3873 1447 97.5784 877.968 440.097
2929 1 49.326 11.5963 572 99.5297 878.537 461.329
2930 0 47.3911 10.0863 478 104.345 878.778 456.429
2931 0 52.5539 15.7743 829 92.5923 879.868 461.339
2932 0 56.3916 9.94829 561 99.8378 879.572 458.98
2933 0 55.3934 13.5215 749 96.4072 880.814 458.467
2934 0 59.3576 14.1852 842 93.4727 881.348 460.208
2935 0 58.5871 14.2181 833 98.0624 882.838 458.283
2936 0 59.2885 11.8741 704 101.21 882.474 459.538
2937 0 64.4552 14.32 923 97.7346 883.21 456.103
2938 0 64.4575 15.8864 1024 95.8477 884.154 457.394
2939 0 67.4272 15.1423 1021 96.9295 883.58 453.887
2940 0 69.4277 11.3499 788 101.19 883.991 457.784
2941 0 70.4546 14.0374 989 98.4944 884.795 453.6
2942 0 73.3831 12.8095 940 99.1255 884.473 456.98
2943 0 78.3745 15.2856 1198 96.7654 885.875 454.871
2944 0 80.1909 13.2309 1061 97.3431 886.074 450.216
2945 0 83.4519 12.1627 1015 98.6443 885.298 458.158
2946 0 86.4864 15.8869 1374 94.1929 885.157 454.215
2947 0 89.3465 16.117 1440 91.9514 884.324 461.183
2948 0 93.5582 14.8784 1392 95.0467 885.373 457.836
2949 1 49.1202 10.6474 523 98.9694 884.354 478.74
2950 0 53.3672 13.6039 726 96.6143 882.822 474.317
2951 0 52.3571 13.1214 687 95.3916 882.546 474.041
2952 0 55.1511 12.094 667 99.3508 883.1 474.271
2953 0 58.4524 13.9259 814 95.7494 883.294 468.8
2954 0 59.507 16.0653 956 92.0983 883.985 469.469
2955 0 58.3053 12.6404 737 99.9484 884.845 470.988
2956 0 60.383 13.729 829 98.5151 882.574 476.709
2957 0 63.1888 13.4043 847 96.974 883.456 478.993
2958 0 65.4878 14.873 974 96.2526 881.961 472.8
2959 0 66.2766 15.8427 1050 93.1067 881.148 475.564
2960 0 66.2766 15.9181 1055 126.845 880.13 475.729
2961 0 70.2404 12.8416 902 96.4656 881.167 470.099
2962 0 70.0765 15.6115 1094 95.7176 881.075 468.183
2963 0 74.2835 14.0408 1043 97.0125 881.01 463.385
2964 0 76.2972 14.5222 1108 96.8863 878.968 461.333
2965 0 81.2565 15.1126 1228 96.7207 879.576 462.995
2966 0 82.2639 14.3927 1184 98.6664 879.701 458.617
2967 0 83.1968 13.3058 1107 99.6396 879.546 459.243
2968 0 85.352 12.5715 1073 100.872 879.352 456.243
2969 0 89.351 15.1201 1351 98.3664 878.177 456.112
2970 0 93.7516 16.789 1574 96.69 878.253 451.938
2971 0 93.5618 15.7757 1476 98.731 877.27 445.119
2972 0 99.0922 12.5035 1239 102.642 879.232 441.636
2973 0 101.665 16.9183 1720 97.4919 878.772 439.305
2974 0 107.846 18.3688 1981 95.6366 879.181 432.614
2975 0 107.707 11.4477 1233 104.461 879.809 435.697
2976 0 114.207 15.0254 1716 100.735 881.557 436.621
2977 0 116.314 11.4947 1337 105.006 882.702 432.654
2978 1 63.2593 13.6581 864 95.4491 882.038 464.535
2979 0 67.1251 14.8529 997 95 882.872 456.126
2980 0 67.2008 14.0475 944 96.2616 882.975 458.26
2981 0 71.2208 12.3981 883 98.1008 884.027 459.191
2982 0 72.3235 14.3937 1041 96.1662 884.918 456.357
2983 0 74.3573 16.9183 1258 94.4507 885.267 454.497
2984 0 79.1321 16.9843 1344 93.9234 885.698 454.193
2985 0 80.5722 14.1612 1141 97.3129 885.562 455.427
2986 0 82.2592 15.2202 1252 96.3139 886.018 456.582
2987 0 86.3259 14.0167 1210 97.8669 887.552 455.164
2988 0 83.2087 12.6069 1049 100.824 886.669 453.773
2989 0 89.5054 12.3568 1106 101.098 887.024 450.366
2990 0 90.308 12.8892 1164 99.9553 887.639 456.133
2991 0 94.4251 16.8493 1591 95.8957 886.373 451.098
2992 0 98.4596 16.4534 1620 96.2475 886.461 451.815
2993 0 101.317 13.5515 1373 99.9607 886.023 448.994
2994 0 104.165 15.1394 1577 98.4673 886.032 454.685
2995 0 104.418 9.58645 1001 105.661 885.478 449.761
2996 0 113.291 16.9034 1915 96.6282 885.321 451.519
2997 1 63.3956 13.1555 834 98.9568 885.09 472.465
2998 0 66.2322 13.5131 895 98.2626 885.819 470.172
2999 0 68.2232 13.8369 944 97.4693 884.164 470.39
3000 0 70.27 18.1728 1277 92.758 884.077 463.175
3001 0 74.1437 18.5046 1372 92.0794 883.406 469.727
3002 0 75.4145 17.7685 1340 93.4418 883.145 467.907
3003 0 78.1351 15.0637 1177 96.028 883.159 464.212
3004 0 79.1174 12.2603 970 98.6567 882.224 467.379
3005 0 85.3186 21.1208 1802 90.6293 879.452 458.764
3006 0 87.1956 16.1705 1410 94.9298 879.38 463.701
3007 0 90.3574 17.3865 1571 93.8097 879.903 458.612
3008 0 93.2967 15.6061 1456 95.5625 878.935 457.672
3009 0 95.2575 14.0776 1341 98.0597 879.336 455.427
3010 0 96.147 13.0321 1253 99.8579 878.544 452.599
3011 0 97.1977 13.9715 1358 100.64 877.954 443.846
3012 0 101.348 17.07 1730 96.1364 878.499 448.402
3013 0 103.341 13.8281 1429 100.821 878.572 442.174
3014 0 108.414 16.0773 1743 98.1956 878.653 440.308
3015 0 113.653 24.0557 2734 90.2414 877.846 437.605
3016 0 115.4 14.922 1722 100.38 879.477 429.171
3017 1 62.1664 11.7909 733 102.181 879.741 458.134
3018 0 65.3173 15.4171 1007 97.8937 876.723 456.034
3019 0 70.1216 11.5086 807 103.434 878.326 451.582
3020 0 72.2894 15.2996 1106 98.5072 878.34 449.406
3021 0 75.2088 14.1473 1064 99.4436 876.849 450.711
3022 0 75.08 12.4267 933 102.627 879.315 448.182
3023 0 77.38 14.6291 1132 101.04 881.05 441.643
3024 0 77.38 14.7842 1144 131.208 882.067 441.654
3025 0 81.1728 13.4035 1088 103.491 881.438 447.579
3026 0 86.659 13.0281 1129 102.714 881.762 450.283
3027 0 86.2222 16.1675 1394 99.5653 883.155 445.429
3028 0 88.281 13.8535 1223 101.991 883.087 444.799
3029 0 94.3596 11.2866 1065 105.269 884.348 446.298
3030 0 91.365 12.554 1147 106.109 883.569 438.364
3031 0 100.328 17.8514 1791 98.2719 884.084 440.54
3032 0 102.487 13.7774 1412 102.799 884.386 443.322
3033 0 103.607 14.6804 1521 101.716 884.022 444.425
3034 1 54.19 9.15298 496 102.173 884.76 470.034
3035 0 60.1569 13.9469 839 97.6079 884.489 466.834
3036 0 59.2656 18.9486 1123 91.6866 885.231 466.325
3037 0 60.0783 10.5196 632 103.047 885.585 455.437
3038 0 63.1335 10.8817 687 101.023 886.032 462.402
3039 0 62.2541 10.7945 672 102.902 884.792 460.231
3040 0 69.1296 19.4128 1342 92.7951 882.712 461.73
3041 0 71.3538 16.8737 1204 94.3389 884.209 467.024
3042 0 73.0883 16.6648 1218 95.0205 882.29 465.478
3043 0 75.3026 15.4842 1166 97.0712 882.702 458.761
3044 0 78.3474 15.6227 1224 96.5776 880.426 461.121
3045 0 82.2668 15.3525 1263 96.886 881.074 460.691
3046 0 84.2651 13.9797 1178 99.6172 880.275 459.706
3047 0 85.2444 14.5581 1241 99.7792 879.2 456.93
3048 0 87.2986 18.0873 1579 96.5472 877.939 454.351
3049 0 91.3358 14.7149 1344 99.2746 877.01 457.796
3050 0 93.1889 13.7463 1281 101.594 877.782 448.241
3051 1 44.2422 4.65619 206 108.422 877.097 467.99
3052 0 51.44 14.8911 766 93.6658 877.247 468.106
3053 0 55.2068 16.2299 896 94.4174 877.548 472.487
3054 0 57.6268 15.1318 872 98.664 876.483 472.733
3055 0 63.3844 13.1578 834 102.783 877.513 471.103
3056 0 61.4313 14.6017 897 101.184 877.784 472.223
3057 0 63.406 14.6832 931 103.304 877.316 463.751
3058 0 66.2727 15.3306 1016 102.198 877.145 464.371
3059 0 68.2697 13.1977 901 104.231 877.587 465.527
3060 0 69.3161 13.6332 945 105.613 878.387 462.907
3061 0 70.4126 14.1452 996 104.587 878.64 462.02
3062 0 77.5251 15.6079 1210 101.999 879.366 461.693
3063 0 78.599 16.9595 1333 101.851 879.496 458.144
3064 0 79.383 16.9558 1346 101.391 880.392 463.318
3065 0 79.3478 20.24 1606 99.2428 880.072 459.803
3066 0 83.31 18.9773 1581 101.773 880.601 452.882
3067 0 84.3614 13.5963 1147 110.019 882.575 455.014
3068 0 86.3538 14.7185 1271 109.214 883.67 454.781
3069 0 89.4127 16.2952 1457 107.387 883.957 453.722
3070 0 90.2164 14.5206 1310 110.718 884.955 452.374
3071 0 95.2945 21.3234 2032 100.925 883.506 455.768
3072 0 96.7024 13.1848 1275 113.565 885.182 451.275
3073 0 101.273 17.1911 1741 106.854 884.252 449.803
3074 0 106.378 15.6706 1667 108.106 885.805 451.17
3075 0 109.586 15.6133 1711 108.859 884.141 444.873
3076 0 110.499 15.1133 1670 109.625 883.368 448.031
3077 1 60.2805 13.4538 811 105.625 884.47 478.455
3078 0 65.4111 13.6827 895 103.432 884.039 476.847
3079 0 68.104 13.8905 946 103.19 883.689 469.921
3080 0 69.3085 12.4083 860 102.798 882.509 469.376
3081 0 70.2116 12.6902 891 102.112 882.735 472.82
3082 0 73.2139 15.5708 1140 99.8272 883.203 468.44
3083 0 77.454 13.763 1066 101.144 883.496 470.036
3084 0 79.3599 16.2425 1289 98.4608 881.69 470.194
3085 0 80.3302 11.2535 904 103.931 881.171 469.975
3086 0 80.3302 11.2162 901 132.325 881.176 470.067
3087 0 86.4055 14.3162 1237 101.274 879.989 465.988
3088 0 87.6492 15.4479 1354 101.029 879.521 456.521
3089 0 91.5054 15.9991 1464 100.068 878.249 455.853
3090 0 93.2197 17.1316 1597 99.4001 878.438 462.657
3091 0 98.2761 17.0438 1675 98.7278 877.97 461.86
3092 0 99.1717 7.58281 752 108.888 878.402 464.148
3093 1 54.0333 9.58668 518 104.82 877.793 479.183
3094 0 55.0496 17.5842 968 96.2944 876.84 474.279
3095 0 57.3261 15.5601 892 100.865 875.824 475.331
3096 0 59.3401 13.6501 810 101.43 876.421 472.616
3097 0 63.2906 14.6783 929 98.7513 877.663 474.465
3098 0 64.1622 18.2039 1168 96.3262 877.19 465.812
3099 0 65.3166 16.3205 1066 97.6144 876.498 469.811
3100 0 68.2646 13.477 920 101.438 877.837 467.549
3101 0 70.661 15.1852 1073 100.609 877.586 465.036
3102 0 73.4982 16.0004 1176 99.4847 877.128 464.126
3103 0 72.1757 13.19 952 104.189 877.331 460.715
3104 0 75.1343 14.0415 1055 102.232 878.125 457.81
3105 0 77.2548 14.4069 1113 103.986 878.622 455.67
3106 0 81.6042 20.3053 1657 97.2861 879.628 454.46
3107 0 84.2497 18.7656 1581 99.1923 879.889 451.787
3108 0 87.3453 20.7338 1811 97.4368 880.709 457.122
3109 0 88.4048 14.558 1287 105.427 878.685 455.479
3110 0 89.3935 14.6543 1310 105.402 880.869 455.203
3111 0 92.5331 14.4705 1339 107.427 880.593 452.065
3112 0 98.3627 13.9585 1373 104.103 881.852 460.266
3113 0 99.5489 14.4753 1441 106.579 882.74 452.294
3114 0 98.3459 12.3442 1214 109.605 882.7 450.683
3115 0 105.317 15.2396 1605 105.709 881.446 443.842
3116 0 110.34 18.1077 1998 101.113 883.138 449.185
3117 0 114.416 16.6323 1903 103.435 882.159 447.129
3118 1 63.5809 12.0319 765 105.115 883.23 470.859
3119 0 66.5762 12.7523 849 104.991 883.534 467.316
3120 0 70.4132 12.2562 863 104.143 882.056 468.497
3121 0 70.451 13.4704 949 103.606 882.747 470.032
3122 0 73.2602 11.5888 849 106.358 882.264 467.058
3123 0 75.3376 15.7956 1190 99.8487 882.066 470.37
3124 0 80.2626 14.029 1126 104.058 880.937 465.756
3125 0 82.3269 15.0619 1240 103.927 881.853 462.397
3126 0 84.4936 15.0426 1271 103.795 880.281 466.911
3127 0 87.8819 14.1895 1247 105.63 880.399 460.129
3128 0 90.5035 15.8115 1431 103.927 878.962 461.945
3129 0 93.4721 16.989 1588 103.168 877.81 455.508
3130 0 96.4157 14.5516 1403 106.193 876.379 456.748
3131 0 99.7793 14.7325 1470 105.554 876.574 457.341
3132 0 102.762 14.519 1492 106.405 874.73 454.307
3133 0 105.762 15.0244 1589 105.286 875.126 456.807
3134 0 107.925 16.7338 1806 104.424 874.104 452.239
3135 0 113.624 12.8493 1460 107.256 874.801 450.873
3136 0 119.729 17.6565 2114 101.444 875.301 449.134
3137 0 125.004 17.2955 2162 103.154 873.628 442.865
3138 0 130.572 18.4955 2415 101.896 873.616 437.626
3139 1 74.3218 15.7289 1169 102.299 874.273 460.229
3140 0 74.3384 13.8825 1032 105.029 874.369 461.662
3141 0 79.2756 18.8457 1494 99.8742 873.983 457.926
3142 0 80.419 14.1385 1137 105.634 875.091 456.904
3143 0 82.2773 13.5517 1115 106.453 874.546 460.202
3144 0 85.3471 15.2671 1303 105.142 875.736 455.093
3145 0 89.4245 14.9959 1341 106.356 875.778 451.675
3146 0 91.3519 15.7304 1437 104.791 876.948 454.608
3147 0 98.8211 14.3289 1416 104.435 877.489 457.357
3148 0 98.3579 17.9447 1765 102.78 877.697 450.919
3149 0 103.819 20.555 2134 98.4527 878.855 450.355
3150 0 105.595 14.12 1491 107.426 880.091 446.319
3151 0 105.275 12.6715 1334 109.953 878.49 445.193
3152 0 112.409 13.7889 1550 109.227 880.21 444.479
3153 0 115.374 16.0174 1848 107.142 880.971 442.642
3154 0 116.391 15.0957 1757 108.978 880.507 442.3
3155 0 124.829 15.7895 1971 108.17 881.056 440.391
3156 0 125.582 16.6903 2096 107.807 880.146 438.125
3157 1 184.829 15.1005 2791 109.508 880.717 414.877
3158 0 190.807 16.0109 3055 108.856 882.281 406.682
3159 0 197.756 15.7821 3121 110.343 881.04 406.624
3160 1 144.682 14.5146 2100 113.149 881.696 429.19
3161 0 150.798 15.2853 2305 110.631 881.385 437.107
3162 0 153.712 16.1406 2481 111.022 882.531 427.864
3163 0 157.555 15.2582 2404 113.763 883.115 426.059
3164 0 161.472 14.7332 2379 114.396 882.495 424.153
3165 0 170.645 15.7168 2682 113.101 881.544 426.78
3166 0 177.022 14.7044 2603 114.696 881.212 423.874
3167 0 181.571 14.6169 2654 115.281 881.647 422.662
3168 1 107.346 15.1286 1624 111.105 881.556 457.735
3169 0 105.668 13.8358 1462 114.731 880.65 455.281
3170 0 110.374 13.3093 1469 115.748 880.19 457.807
3171 0 115.594 14.4126 1666 114.557 879.978 452.552
3172 0 119.488 13.4574 1608 113.807 879.758 450.056
3173 0 122.498 14.0329 1719 114.095 879.6 444.749
3174 0 128.738 12.6148 1624 112.659 878.416 448.83
3175 0 132.396 13.9808 1851 110.957 877.62 447.023
3176 0 140.646 17.0072 2392 108.207 876.66 435.636
3177 0 142.41 12.9556 1845 113.696 877.666 431.183
3178 0 151.435 16.2512 2461 108.192 875.066 431.31
3179 0 151.435 16.3502 2476 145.697 873.09 431.278
3180 0 149.5 12.2609 1833 111.902 875.243 440.017
3181 0 150.607 9.68744 1459 109.147 874.267 457.464
3182 1 173.466 14.7867 2565 110.062 874.897 419.822
3183 0 181.37 16.4747 2988 107.746 874.703 415.13
3184 0 182.505 13.1448 2399 113.165 874.68 406.821
3185 0 191.444 17.0233 3259 105.621 874.859 421.867
3186 1 109.423 15.9291 1743 107.321 874.859 446.786
3187 1 52.1662 18.0385 941 100.379 874.806 473.731
3188 0 56.1729 14.1171 793 102.172 877.222 471.426
3189 0 57.3177 15.0041 860 99.5221 878.616 474.819
3190 0 57.449 14.4824 832 106.142 878.905 466.498
3191 0 59.0469 14.751 871 105.536 878.246 468.977
3192 0 61.0644 14.1981 867 106.412 879.123 464.919
3193 0 64.128 15.5626 998 103.432 878.851 465.729
3194 0 65.0698 10.312 671 111.11 880.545 460.495
3195 0 70.1694 17.1727 1205 101.668 879.591 462.543
3196 0 70.1694 17.187 1206 135.854 878.558 462.631
3197 0 72.2148 12.1997 881 110.163 881.642 457.922
3198 0 75.3869 13.1455 991 108.227 882.115 459.622
3199 0 80.2543 18.89 1516 98.434 882.138 464.485
3200 0 83.2458 17.7066 1474 101.983 883.73 459.134
3201 0 85.2074 15.1747 1293 105.246 883.344 458.667
3202 0 86.1811 18.5075 1595 102.771 883.06 451.5
3203 0 87.1666 16.6463 1451 105.316 882.932 454.405
3204 0 94.5 15.619 1476 106.227 884.03 452.336
3205 1 48.1315 14.4396 695 105.207 883.086 475.77
3206 0 49.058 12.2712 602 108.211 884.734 476.096
3207 0 50.3015 12.5444 631 109.975 880.439 473.382
3208 0 54.5597 13.2149 721 107.086 881.445 474.752
3209 0 55.2212 15.61 862 105.021 880.426 481.019
3210 0 57.232 13.2618 759 107.319 880.161 485.2
3211 0 59.6182 14.8109 883 105.818 879.714 479.643
3212 0 63.3233 14.6076 925 105.765 880.059 482.106
3213 0 62.4438 14.6211 913 102.744 879.325 483.539
3214 0 66.1337 15.3023 1012 103.582 879.701 479.064
3215 0 68.4974 16.8473 1154 101.216 878.533 477.867
3216 0 69.3178 17.326 1201 99.4388 877.674 478.75
3217 0 72.3536 13.6275 986 105.478 877.5 477.83
3218 0 72.3536 13.5999 984 136.21 877.48 477.57
3219 0 78.3055 18.1724 1423 101.04 875.656 473.006
3220 0 80.2212 15.9559 1280 104.184 876.108 469.362
3221 0 81.2828 15.2431 1239 105.211 875.928 468.296
3222 0 85.2606 14.5319 1239 107.125 876.102 465.862
3223 0 88.2202 15.2573 1346 106.084 875.326 467.536
3224 0 88.3282 11.2988 998 113.125 874.138 462.896
3225 1 49.1985 10.3052 507 111.779 876.325 482.465
3226 0 50.2856 13.0455 656 110.012 875.648 477.822
3227 0 50.2765 18.0005 905 103.057 874.997 476.627
3228 0 52.4148 11.4853 602 107.528 875.055 474.468
3229 0 55.328 18.7428 1037 96.9306 875.72 474.395
3230 0 54.3059 14.5472 790 104.386 875.389 470.349
3231 0 60.3783 17.0591 1030 96.9573 876.474 473.212
3232 0 59.2903 12.852 762 107.332 875.441 464.934
3233 0 62.533 14.5683 911 105.153 876.437 465.892
3234 0 64.2888 16.4414 1057 102.701 877.046 465.561
3235 0 70.3409 18.5241 1303 99.3784 876.525 466.78
3236 0 67.2635 16.3982 1103 104.126 878.562 462.995
3237 0 69.3159 14.9316 1035 105.217 878.67 464.282
3238 0 70.2099 18.1741 1276 101.256 877.866 465.411
3239 0 73.2125 14.7379 1079 106.765 879.717 459.024
3240 0 77.1308 13.0039 1003 109.413 879.472 460.563
3241 0 81.2734 18.1978 1479 102.503 880.855 461.282
3242 0 82.1812 11.9614 983 111.479 880.333 453.755
3243 0 85.2208 15.9937 1363 106.883 880.71 453.693
3244 1 45.3449 14.7977 671 104.635 880.395 479.393
3245 0 45.0531 18.689 842 98.5 881.039 479.701
3246 0 46.3683 13.8025 640 105.052 880.581 478.43
3247 0 48.409 13.0141 630 108.889 879.214 475.073
3248 0 49.079 15.0166 737 105.594 879.734 475.898
3249 0 52.2216 16.1236 842 102.025 880.893 477.108
3250 0 54.2824 16.5431 898 101.729 880.653 477.186
3251 0 55.1343 17.4664 963 101.165 881.332 475.068
3252 0 56.1992 13.0073 731 106.964 879.951 477.146
3253 0 59.4168 15.9214 946 103.255 881.024 474.644
3254 0 59.1432 17.2125 1018 101.99 881.4 473.3
3255 0 64.225 17.7968 1143 100.885 880.462 473.073
3256 0 65.2597 15.5073 1012 103.534 880.118 472.573
3257 0 68.2259 12.356 843 106.665 880.023 474.381
3258 0 70.2826 20.2326 1422 97.9381 880.225 470.521
3259 0 71.152 16.261 1157 104.182 879.99 469.447
3260 0 72.1327 12.9622 935 106.924 878.046 471.326
3261 0 76.1444 16.1535 1230 106.126 877.847 464.236
3262 0 79.4456 18.8934 1501 101.966 877.92 463.879
3263 0 81.4878 12.2104 995 110.274 876.849 463.222
3264 0 82.3783 12.4305 1024 108.639 876.131 465.099
3265 0 87.4756 20.4171 1786 99.5885 876.007 456.528
3266 1 47.1416 12.3034 580 106.079 874.024 478.257
3267 0 48.1307 14.9593 720 103.194 875.556 476.01
3268 0 48.1981 12.2827 592 106.096 874.226 470.51
3269 0 51.2808 15.9709 819 102.735 875.18 469.519
3270 0 50.469 10.8383 547 109.759 875.739 468.347
3271 0 51.34 11.6868 600 108.538 876.173 468.675
3272 0 56.3693 15.3452 865 101.741 877.079 469.891
3273 0 54.2257 11.1571 605 109.134 876.193 462.712
3274 0 59.4572 15.036 894 104.958 875 461.562
3275 0 60.2724 13.6215 821 107.147 876.655 461.585
3276 0 63.4778 16.5254 1049 102.435 877.231 459.045
3277 0 66.3544 14.7692 980 103.951 877.5 460.069
3278 0 66.2536 14.9879 993 104.582 879.27 458.632
3279 0 67.2183 11.2321 755 109.51 878.491 458.468
3280 0 72.3895 11.9769 867 109.353 880.674 455.449
3281 0 76.5256 17.4452 1335 101.481 880.866 458.139
3282 0 78.7317 17.2103 1355 103.726 880.503 451.23
3283 0 80.5235 20.5033 1651 99.295 881.516 456.137
3284 0 84.5435 16.0509 1357 106.519 883.125 452.013
3285 0 85.6284 14.5512 1246 108.929 883.357 450.652
3286 0 88.2927 13.9989 1236 111.279 883.012 446.116
3287 0 91.5949 13.9746 1280 110.011 881.842 447.994
3288 1 50.3452 12.5533 632 103.854 883.394 465.984
3289 0 51.2652 14.1226 724 99.3425 883.414 467.905
3290 0 50.0696 10.4654 524 104.141 885.128 469.645
3291 0 53.2178 8.70009 463 107.352 883.49 470.497
3292 0 52.346 11.6723 611 103.658 884.318 468.777
3293 0 56.0612 14.4663 811 100.674 884.951 467.256
3294 0 59.2778 11.9438 708 100.593 884.12 472.629
3295 0 60.1683 12.6312 760 100.496 884.251 472.408
3296 0 61.2912 12.8567 788 101.713 884.175 469.816
3297 0 65.1885 12.134 791 101.96 883.74 470.03
3298 0 67.4251 13.5855 916 102.854 883.476 463.073
3299 0 68.4017 13.6546 934 101.608 882.994 469.429
3300 0 73.2845 16.8112 1232 98.7346 882.11 466.515
3301 0 73.2845 16.8658 1236 124.131 882.074 466.557
3302 0 78.346 13.1596 1031 107.962 881.657 465.188
3303 0 78.1402 13.1942 1031 108.852 881.34 459.857
3304 0 83.4421 14.7647 1232 106.888 880.305 462.039
3305 0 89.34 18.2001 1626 102.49 880.548 457.844
3306 1 47.42 12.5896 597 108.61 880.097 478.29
3307 0 46.3819 12.893 598 109.423 878.707 472.701
3308 0 47.4136 11.0517 524 112.92 878.893 472.389
3309 0 51.234 14.7949 758 106.563 879.768 473.664
3310 0 56.1427 12.6464 710 107.165 879.58 472.854
3311 0 55.2652 13.7157 758 106.805 880.553 469.644
3312 0 55.2753 12.7543 705 108.05 880.643 466.576
3313 0 57.1491 13.5085 772 107.925 881.075 462.76
3314 0 62.0734 14.1768 880 105.782 880.03 463.458
3315 0 64.1159 15.1288 970 104.346 880.973 457.47
3316 0 65.0622 12.173 792 108.25 880.098 458.056
3317 0 67.2168 14.6541 985 105.112 880.161 455.836
3318 0 69.0953 12.4466 860 107.269 881.617 453.062
3319 0 72.2291 13.6787 988 105.898 880.991 453.088
3320 0 73.2171 14.778 1082 103.71 881.896 452.7
3321 0 78.1787 14.582 1140 103.405 882.568 452.698
3322 0 81.1438 15.1336 1228 102.382 883.241 453.726
3323 0 84.2856 16.8949 1424 100.568 883.182 452.103
3324 0 87.3635 17.2498 1507 100.559 883.754 449.534
3325 1 44.1639 11.729 518 103.125 884.299 472.403
3326 0 45.3541 14.5742 661 103.027 885.992 468.306
3327 0 47.2746 12.3745 585 103.913 886.313 469.995
3328 0 46.2446 11.6554 539 107.111 886.289 469.045
3329 0 50.1268 15.5007 777 100.55 885.131 470.332
3330 0 50.176 16.1432 810 101.075 885.977 469.859
3331 0 53.3139 15.9246 849 100.464 885.975 469.71
3332 0 48.0727 9.61044 462 105.788 886.571 474.123
3333 0 53.2574 11.4163 608 104.201 884.914 470.786
3334 0 55.1253 12.2811 677 103.328 886.919 471.25
3335 0 55.1522 11.985 661 104.363 886.002 468.782
3336 0 60.3053 15.5708 939 95.3557 886.898 469.431
3337 0 61.4928 13.0747 804 99.2674 886.952 464.918
3338 0 66.3599 14.2104 943 96.8823 886.562 469.95
3339 0 67.3816 13.6981 923 97.753 885.326 464.464
3340 1 142.902 13.4847 1927 104.18 886.496 425.921
3341 0 146.949 14.0933 2071 103.989 884.267 431.548
3342 1 74.3001 12.7591 948 98.9135 883.604 468.045
3343 0 76.4864 12.1067 926 100.62 883.03 463.99
3344 0 79.3292 14.9378 1185 97.3249 882.499 462.474
3345 0 83.4156 14.8773 1241 98.3457 882.504 455.835
3346 0 84.6679 14.2911 1210 100.211 880.575 455.758
3347 1 46.2723 11.2162 519 100.476 880.181 471.802
3348 0 47.2204 8.28033 391 103.315 879.956 478.512
3349 0 50.133 15.2793 766 95.889 880.219 473.499
3350 0 48.4307 9.47746 459 104.643 880.052 470.264
3351 0 53.1913 7.63282 406 104.882 877.384 466.901
3352 0 56.1726 14.3308 805 97.4037 877.03 468.337
3353 0 57.1384 14.4386 825 97.143 878.013 468.538
3354 0 60.1006 12.8119 770 99.4143 877.152 464.801
3355 0 61.1176 15.0857 922 96.5922 877.667 465.174
3356 0 60.2021 13.1391 791 98.7042 877.437 462.322
3357 0 65.1772 13.9619 910 97.5835 877.815 458.368
3358 0 66.2019 14.2292 942 97.5626 878.894 462.021
3359 0 65.1355 12.0364 784 100.968 878.612 454.528
3360 0 65.1355 12.2667 799 130.998 877.63 454.508
3361 1 36.2844 12.6501 459 98.9368 878.739 469.022
3362 0 38.4223 9.7079 373 102.201 879.517 467.383
3363 0 42.1832 14.8163 625 95.7552 881.589 468.163
3364 0 40.1817 15.9774 642 92.1869 883.012 476.368
3365 0 42.0977 13.0173 548 97.3595 884.427 473.316
3366 0 43.1182 13.521 583 97.6278 884.331 471.854
3367 0 45.0445 11.8994 536 99.3657 885.25 472.681
3368 0 47.1136 17.1076 806 95.0062 884.364 466.757
3369 0 50.1678 16.3451 820 95.4366 885.513 469.716
3370 0 46.5248 11.7357 546 102.126 886.463 471.405
3371 0 47.3044 10.6121 502 104.249 887.564 470.61
3372 0 50.2145 14.9957 753 98.4436 887.611 471.116
3373 0 52.3613 12.3946 649 102.022 886.983 469.575
3374 0 53.1056 19.1882 1019 94.578 885.977 470.355
3375 1 111.457 16.7419 1866 99.9904 887.308 447.282
3376 0 112.485 12.2505 1378 105.448 886.166 442.637
3377 0 115.442 16.2505 1876 102.736 886.198 437.835
3378 0 120.618 15.6196 1884 102.661 886.205 442.726
3379 1 60.156 13.0328 784 101.212 886.06 471.122
3380 0 64.2167 14.1708 910 100.877 886.562 469.199
3381 0 66.2921 19.0068 1260 95.669 885.387 470.312
3382 0 68.3224 16.027 1095 100.016 884.61 467.631
3383 0 69.1691 13.1417 909 102.926 885.42 470.495
3384 0 72.3041 18.6573 1349 97.1497 883.15 467.979
3385 0 74.3857 13.6317 1014 103.713 882.743 466.296
3386 0 81.2396 15.3127 1244 101.807 883.247 464.166
3387 0 79.1497 14.6305 1158 103.584 882.25 464.423
3388 1 43.1992 12.6391 546 103.559 882.154 481.766
3389 0 46.175 10.7851 498 106.91 882.209 481.934
3390 0 46.2463 17.4717 808 99.776 880.949 477.465
3391 0 46.2463 17.5365 811 119.871 880.928 477.51
3392 0 48.0778 21.2572 1022 96.9051 880.52 475.589
3393 0 52.1931 16.8988 882 100.295 881.429 475.614
3394 0 52.3046 17.6849 925 99.9135 881.019 475.597
3395 0 52.2486 17.589 919 102.012 879.399 468.761
3396 0 53.3318 13.6129 726 108.302 879.661 467.632
3397 0 58.2458 16.9969 990 102 879.394 468.893
3398 0 58.3098 17.8186 1039 101.67 879.74 467.861
3399 0 63.392 14.15 897 105.433 878.934 465.265
3400 0 63.3463 12.2343 775 109.24 878.728 463.982
3401 0 64.3403 16.3661 1053 103.678 879.147 462.232
3402 0 65.3896 10.8427 709 110.075 878.207 461.261
3403 0 71.8466 16.2847 1170 104.027 879.738 457.999
3404 0 71.303 16.0302 1143 106.704 879.911 449.144
3405 0 76.3349 16.0739 1227 106.209 880.513 452.149
3406 0 76.1238 15.107 1150 108.576 879.434 451.451
3407 0 81.5121 19.629 1600 103.314 881.934 447.555
3408 0 84.5222 12.6476 1069 111.434 882.5 445.921
3409 0 88.2918 18.3709 1622 103.896 882.993 442.479
3410 0 87.3549 15.8663 1386 108.229 883.714 447.031
3411 0 91.3213 15.0239 1372 108.641 884.268 448.792
3412 1 52.1674 14.8177 773 105.223 884.379 467.396
3413 0 53.4801 16.8287 900 103.096 884.87 462.61
3414 0 55.2962 14.8111 819 105.987 886.05 457.725
3415 0 57.3546 15.256 875 105.59 886.298 462.158
3416 0 58.0888 13.772 800 107.744 886.21 463.811
3417 0 62.3907 16.3807 1022 106.485 887.2 464.219
3418 0 64.1818 15.9235 1022 104.901 887.896 469.098
3419 0 66.1927 14.7599 977 109.101 889.689 459.759
3420 0 70.0977 20.985 1471 101.183 888.704 456.081
3421 0 72.2915 15.479 1119 108.512 887.671 454.727
3422 0 75.3447 15.6746 1181 106.788 885.809 463.807
3423 0 69.2647 10.0628 697 112.727 886.918 464.957
3424 1 44.4651 12.8415 571 105.727 886.499 475.002
3425 0 44.2611 13.217 585 107.12 885.783 474.239
3426 0 38.2866 7.44385 285 114.656 885.916 475.923
3427 0 44.5666 12.1616 542 107.504 885.312 476.111
3428 0 44.4836 10.9254 486 110.562 884.691 476.006
3429 0 47.2966 15.4345 730 104.974 884.052 470.518
3430 0 46.2666 12.6873 587 110.901 883.276 466.567
3431 0 51.4405 17.3015 890 105.637 883.124 460.273
3432 0 51.1091 13.5005 690 109.138 883.678 463.262
3433 0 51.2728 12.7358 653 110.651 882.392 470.282
3434 0 54.4873 13.6546 744 108.841 882.716 469.739
3435 0 56.321 12.3755 697 110.212 883.93 470.248
3436 0 58.4068 13.4916 788 110.821 883.142 465.159
3437 0 59.2048 14.6441 867 112.6 882.076 464.143
3438 0 60.2863 13.5852 819 114.504 881.563 462.924
3439 0 60.2863 13.552 817 148.138 880.581 462.876
3440 0 66.2667 14.3511 951 110.091 881.818 462.512
3441 0 68.5179 14.3174 981 110.925 881.678 461.363
3442 0 69.3243 13.7326 952 113.866 881.234 454.317
3443 0 74.6916 13.0269 973 113.82 882.248 453.216
3444 0 79.6904 16.2504 1295 108.031 881.601 454.507
3445 0 81.7966 15.5263 1270 109.133 880.521 454.022
3446 0 84.4506 16.5422 1397 108.647 881.344 449.002
3447 0 87.7746 15.6879 1377 110.052 882.805 447.208
3448 0 89.6024 16.9304 1517 109.352 882.338 441.061
3449 0 96.6641 16.9453 1638 108.195 882.627 444.316
3450 0 93.6136 11.4834 1075 116.036 882.661 444.803
3451 0 96.3785 15.3665 1481 111.93 883.697 438.698
3452 1 49.4365 12.42 614 109.314 883.523 461.251
3453 0 51.3631 13.4922 693 107.206 884.593 459.538
3454 0 52.4518 13.1931 692 109.868 883.691 461.285
3455 0 56.1598 15.7764 886 102.684 886.179 463.156
3456 0 59.1811 20.0233 1185 97.7452 885.432 460.917
3457 0 60.4307 16.3162 986 102.765 885.505 459.215
3458 0 61.2677 13.2696 813 107.651 885.758 458.181
3459 0 64.2751 14.8113 952 105.726 886.529 456.263
3460 0 65.1391 15.582 1015 104.515 885.749 458.988
3461 0 67.4013 16.4834 1111 104.115 886.842 455.081
3462 0 68.2629 12.4665 851 108.329 886.072 458.214
3463 0 71.3102 14.1495 1009 107.102 885.517 455.307
3464 0 75.2366 15.5509 1170 104.493 885.702 453.72
3465 0 79.2602 13.3611 1059 107 885.72 454.94
3466 0 78.1829 14.8242 1159 106.97 885.236 455.256
3467 0 83.3366 14.0395 1170 108.966 884.527 455.334
3468 0 85.2173 11.8521 1010 112.425 885.541 454.73
3469 1 46.1501 12.1126 559 106.991 885.605 475.245
3470 0 47.0446 16.495 776 100.693 883.45 476.78
3471 0 50.2968 16.4026 825 99.3321 883.168 479.375
3472 0 53.208 10.1113 538 106.918 881.572 480.106
3473 0 55.1061 15.697 865 99.1098 882.23 474.143
3474 0 55.3078 12.2768 679 103.323 881.622 471.789
3475 0 57.3513 17.4538 1001 97.7782 882.238 458.991
3476 0 56.2839 12.0461 678 103.686 881.124 465.152
3477 0 61.2726 15.227 933 99.3741 880.555 465.387
3478 0 61.2726 15.2597 935 132.434 879.539 465.289
3479 0 62.2333 13.3048 828 105.518 880.074 469.31
3480 0 63.1599 12.2546 774 108.787 880.494 468.986
3481 0 67.4614 18.7959 1268 100.174 879.497 466.473
3482 0 70.2036 13.4324 943 105.445 879.439 467.464
3483 0 72.5809 13.8191 1003 110.976 879.278 463.824
3484 0 74.5424 13.9652 1041 109.342 879.382 462.271
3485 0 78.2587 14.0304 1098 108.71 879.231 461.72
3486 0 74.5582 11.8968 887 112.895 879.756 459.941
3487 0 82.426 15.9052 1311 106.618 879.483 452.375
3488 0 85.5126 12.8051 1095 109.643 880.175 453.735
3489 1 43.1213 12.4764 538 104.309 880.695 475.959
3490 0 45.2188 15.8784 718 98.6811 878.031 473.393
3491 0 46.146 12.8505 593 105.125 879.363 471.976
3492 0 46.0712 11.1784 515 109.437 879.53 470.109
3493 0 48.132 13.5461 652 105.706 878.558 469.595
3494 0 48.28 13.546 654 106.928 879.995 469.908
3495 0 50.0602 12.5449 628 108.027 878.932 468.153
3496 0 54.0456 11.2128 606 109.596 878.863 465.858
3497 0 53.2323 11.8913 633 108.861 878.858 466.622
3498 0 56.1743 14.6508 823 104.22 880.092 466.26
3499 0 56.1743 14.7576 829 128.276 882.08 466.182
3500 0 59.191 12.1809 721 108.564 881.778 462.483
3501 0 63.0821 13.8391 873 105.036 882.48 464.215
3502 0 65.0977 11.7362 764 108.474 883.835 465.619
3503 0 66.2327 11.7767 780 107.485 883.68 468.096
3504 0 71.1659 14.5294 1034 108.103 883.444 462.169
3505 0 73.3444 14.0842 1033 109.007 883.633 459.453
3506 0 74.1417 13.4203 995 110.24 883.712 461.696
3507 0 74.1771 9.11332 676 116.238 883.709 463.799
3508 0 80.4594 14.8522 1195 108.272 883.982 463.028
3509 0 81.2333 11.2639 915 114.514 882.999 459.133
3510 1 44.0973 12.2683 541 109.641 884.534 482.898
3511 0 45.0841 13.9295 628 107.411 884.065 483.791
3512 0 44.4368 10.7119 476 113.655 884.34 482.977
3513 0 47.0866 11.1709 526 110.656 882.856 479.24
3514 0 45.0716 10.9381 493 110.696 881.572 483.304
3515 0 49.2431 14.1949 699 106.443 880.506 482.711
3516 0 53.2386 14.0124 746 104.729 880.677 482.755
3517 0 52.0629 13.1188 683 108.06 880.45 480.836
3518 0 51.0827 11.1779 571 109.767 879.291 482.75
3519 0 57.4711 15.1728 872 105.217 879.667 477.083
3520 0 58.4019 14.5372 849 106.099 878.952 476.29
3521 0 61.4343 15.6264 960 104.732 878.709 471.378
3522 0 62.1174 12.5408 779 109.707 879.434 469.932
3523 0 66.7846 15.812 1056 104.303 877.899 472.236
3524 0 70.5139 12.8202 904 108.533 878.566 472.389
3525 0 69.5376 12.1373 844 106.688 878.472 469.608
3526 0 73.678 13.9662 1029 102.581 876.455 463.656
3527 0 78.9942 18.8495 1489 97.6964 877.018 457.321
3528 0 74.4895 9.73291 725 110.566 877.681 455.363
3529 0 80.4539 11.199 901 108.435 877.252 457.232
3530 1 39.2324 12.2603 481 104.69 877.198 473.57
3531 0 40.38 11.4908 464 104.884 877.565 476.353
3532 0 40.3928 12.3785 500 105.142 877.594 474.486
3533 0 42.3555 16.149 684 99.171 876.607 476.662
3534 0 45.4102 13.7634 625 108.539 879.299 472.632
3535 0 46.7405 13.7782 644 109.177 879.149 473.082
3536 0 46.5026 13.1821 613 112.109 879.259 471.178
3537 0 48.3943 14.0513 680 110.581 878.632 470.057
3538 0 50.3361 13.9264 701 109.601 879.88 470.673
3539 0 51.6088 14.9393 771 108.202 881.476 467.104
3540 0 53.5325 18.2693 978 135.581 882.223 469.712
3541 0 55.1519 15.4482 852 106.035 880.46 470.613
3542 0 55.3805 15.2039 842 108.437 881.432 467.843
3543 0 55.3805 15.1678 840 149.977 882.417 467.805
3544 0 60.3756 14.7079 888 107.386 882.384 468.382
3545 0 60.5336 13.4801 816 111.118 882.105 467.113
3546 0 61.8526 16.5393 1023 105.211 882.536 471.3
3547 0 65.3424 16.9262 1106 106.056 882.532 465.985
3548 1 140.429 15.8087 2220 107.105 883.632 434.964
3549 1 68.7029 18.8056 1292 104.313 883.097 466.844
3550 0 71.7123 20.2057 1449 101.525 883.22 467.794
3551 0 72.9974 14.4115 1052 110.375 882.546 464.418
3552 0 79.9951 15.826 1266 108.342 882.145 463.772
3553 0 77.8685 13.0476 1016 112.743 882.72 465.051
3554 0 80.8294 15.4894 1252 110.244 882.605 461.418
3555 0 85.161 15.2535 1299 110.751 883.34 460.132
3556 1 48.5177 16.3033 791 103.293 881.472 484.077
3557 0 46.1188 14.1157 651 108.704 882.975 484.763
3558 0 48.147 15.7019 756 105.474 882.146 481.015
3559 0 51.2643 17.7706 911 101.521 880.925 483.829
3560 0 51.2948 16.5904 851 104.125 880.24 484.07
3561 0 56.1702 13.2454 744 110.136 878.527 478.655
3562 0 55.4099 14.7627 818 108.978 877.128 478.776
3563 0 56.1569 13.9431 783 107.949 875.825 476.932
3564 0 57.1582 14.5386 831 106.356 875.177 476.232
3565 0 58.1683 12.6873 738 108.611 876.027 476.225
3566 0 66.5004 14.03 933 105.871 876.145 473.981
3567 0 66.4637 17.2275 1145 102.126 876.638 473.984
3568 0 65.5576 13.2708 870 108.683 876.634 469.738
3569 0 68.5308 16.1533 1107 103.586 876.125 472.198
3570 0 71.3009 11.2621 803 107.696 875.783 472.405
3571 0 71.31 15.9725 1139 103.562 875.165 468.047
3572 0 73.5244 12.3496 908 107.413 874.765 465.622
3573 0 80.7681 18.7079 1511 98.7664 875.31 462.135
3574 0 83.6479 16.3662 1369 100.129 875.98 464.538
3575 0 78.5247 13.5371 1063 107.032 876.265 456.68
3576 0 84.8416 12.1874 1034 104.943 876.753 464.477
3577 0 86.674 13.7411 1191 104.459 876.147 460.501
3578 0 92.9127 14.2177 1321 104.399 877.36 458.021
3579 0 95.3655 15.8967 1516 103.642 877.173 453.629
3580 1 47.2037 18.2824 863 101.315 877.263 474.677
3581 0 47.1165 12.225 576 110.976 877.948 473.601
3582 0 47.079 15.9519 751 104.123 877.623 471.277
3583 0 49.1597 11.1677 549 111.778 877.605 468.246
3584 0 51.3367 15.8561 814 104.391 879.061 469.614
3585 0 50.4787 16.403 828 103.868 879.181 461.558
3586 0 53.2572 19.8283 1056 99.7756 880.157 463.006
3587 0 54.4759 13.7309 748 106.345 879.852 463.432
3588 0 56.2748 16.3128 918 103.368 880.678 465.442
3589 0 62.2981 13.8527 863 107.118 881.088 463.07
3590 0 59.224 20.6335 1222 101.066 881.241 466.435
3591 0 64.091 16.2893 1044 111.27 882.295 466.577
3592 0 64.1367 15.0148 963 113.472 882.097 465.316
3593 0 67.1763 18.2505 1226 108.872 882.638 466.746
3594 0 67.2522 15.2114 1023 115.039 882.688 465.649
3595 0 70.3753 19.9644 1405 107.373 882.466 465.961
3596 0 74.4118 16.1534 1202 110.524 882.453 467.621
3597 0 73.261 14.305 1048 116.073 882.971 463.143
3598 0 79.3077 19.418 1540 107.646 881.403 462.272
3599 0 83.3893 16.429 1370 109.826 879.712 460.027
3600 0 87.1115 14.2461 1241 112.629 880.953 462.363
3601 0 87.2596 13.5573 1183 113.147 881.192 461.072
3602 1 43.3774 16.2527 705 104.241 880.357 483.65
3603 0 46.4093 18.0783 839 103.319 879.766 481.347
3604 0 44.2254 11.9614 529 114.17 878.809 476.159
3605 0 51.23 13.4492 689 109.602 880.405 475.37
3606 0 49.2784 13.6368 672 110.426 878.705 472.487
3607 0 51.3747 14.2288 731 108.628 877.919 467.308
3608 0 54.1842 14.4138 781 105.857 877.876 457.196
3609 0 58.2532 16.1879 943 103.756 877.452 455.492
3610 0 57.3458 11.6661 669 109.435 877.102 458.961
3611 0 60.223 20.5403 1237 99.7057 878.029 453.421
3612 0 59.219 11.9387 707 110.38 876.489 454.885
3613 0 64.0244 14.8693 952 107.761 877.036 454.006
3614 0 65.1149 17.3386 1129 104.607 876.384 453.108
3615 0 67.1751 14.5441 977 109.458 876.125 453.878
3616 0 69.1989 19.4367 1345 100.625 876.315 456.38
3617 0 71.2007 14.3819 1024 106.865 875.086 457.582
3618 0 76.4567 14.7796 1130 106.924 876.393 455.219
3619 0 70.2085 10.9531 769 109.887 876.822 456.316
3620 0 76.255 14.0188 1069 106.813 876.496 446.442
3621 0 83.5278 16.0426 1340 103.136 876.946 450.572
3622 1 45.1416 14.1333 638 100.312 876.542 466.951
3623 0 45.1948 18.3207 828 97.0942 877.225 467.312
3624 0 49.0868 14.1993 697 103.017 876.712 466.42
3625 0 49.0621 12.8816 632 108.172 877.481 467.063
3626 0 52.1526 13.2304 690 106.967 877.399 468.107
3627 0 53.1676 14.0311 746 107.155 878.68 466.488
3628 0 55.1017 13.0486 719 110.317 880.064 465.499
3629 0 57.0744 16.8026 959 104.931 879.911 465.968
3630 0 59.1097 15.2598 902 107.404 880.365 464.207
3631 0 58.1115 12.1835 708 113.144 879.794 463.699
3632 0 65.1709 13.104 854 109.715 880.699 464.904
3633 0 66.073 13.6062 899 109.055 879.602 465.523
3634 0 69.1503 12.133 839 111.378 880.328 467.899
3635 0 72.0628 16.0693 1158 106.751 882.125 462.717
3636 0 77.1352 20.4446 1577 99.6512 882.201 466.812
3637 0 78.2388 14.9159 1167 110.871 881.8 459.283
3638 0 81.115 18.6155 1510 105.202 882.967 460.758
3639 0 84.1634 16.5393 1392 107.564 881.719 461.967
3640 1 43.0633 12.052 519 109.445 882.193 483.264
3641 0 45.1113 12.6132 569 111.814 880.657 479.053
3642 0 47.1994 12.8391 606 110.272 881.823 480.781
3643 0 48.1619 11.3575 547 113.399 881.923 480.759
3644 0 52.2546 20.3619 1064 101.93 881.906 476.914
3645 0 54.5724 15.4657 844 108.399 882.69 474.371
3646 0 54.3419 14.3352 779 110.519 880.607 475.597
3647 0 56.2284 12.5026 703 112.936 879.976 476.018
3648 0 57.1728 10.7744 616 114.071 880.606 478.13
3649 0 61.1653 13.0139 796 112.572 879.817 472.992
3650 0 63.1715 12.5215 791 114.043 878.929 470.942
3651 0 65.4977 13.4051 878 110.042 878.902 472.031
3652 0 68.2079 16.7136 1140 107.186 878.913 466.15
3653 0 71.495 16.5886 1186 108.212 878.298 463.767
3654 0 74.502 15.9593 1189 110.034 876.748 457.732
3655 1 36.0401 12.2364 441 112.07 875.787 479.649
3656 0 37.1846 10.9723 408 113.02 877.748 476.36
3657 0 39.4563 12.5455 495 111.184 877.966 475.705
3658 0 40.6422 13.0653 531 108.684 878.699 476.16
3659 0 41.3406 14.5136 600 105.145 876.757 475.792
3660 0 40.1336 12.6079 506 107.334 877.109 470.229
3661 0 42.0571 13.4103 564 107.144 877.516 467.401
3662 0 46.177 12.582 581 107.489 877.831 467.737
3663 0 45.276 13.0974 593 106.916 879.13 463.074
3664 0 47.3047 12.9797 614 106.822 880.021 464.448
3665 0 48.3636 14.2049 687 105.534 878.863 464.132
3666 0 51.9649 11.3923 592 108.272 879.992 466.137
3667 0 49.7664 14.0054 697 107.453 879.782 461.373
3668 0 50.3179 13.8718 698 108.766 879.705 459.033
3669 0 52.4089 11.8873 623 111.265 880.552 460.671
3670 0 52.95 15.7885 836 106.871 880.205 458.526
3671 0 57.6641 13.0584 753 108.785 880.769 458.076
3672 0 59.738 10.5628 631 111.437 882.314 461.937
3673 0 59.7545 13.7563 822 109.938 882.877 456.921
3674 0 62.5797 13.4389 841 110.576 884.247 457.466
3675 0 65.6062 13.3676 877 111.058 884.02 456.311
3676 0 67.0108 14.2664 956 109.92 883.954 452.382
3677 0 71.1638 15.2887 1088 107.403 884.976 454.904
3678 0 70.9331 14.4079 1022 111.013 885.034 453.581
3679 0 74.4944 14.6722 1093 110.339 884.266 455.148
3680 0 75.5368 13.4769 1018 113.45 884.477 449.542
3681 0 81.9806 14.4424 1184 112.155 884.181 450.814
3682 0 86.3745 16.1506 1395 109.834 884.463 453.9
3683 0 84.7907 12.9967 1102 115.899 884.398 450.702
3684 1 39.2785 16.9558 666 112.688 883.401 473.231
3685 0 39.2785 17.1086 672 129.698 882.403 473.31
3686 0 44.5587 13.2634 591 118.866 883.611 472.887
3687 0 46.2578 14.0733 651 118.694 883.634 471.304
3688 0 48.3724 12.4244 601 122.286 882.509 471.418
3689 0 53.693 12.9253 694 119.003 882.791 472.595
3690 0 52.714 14.2087 749 117.138 881.678 471.263
3691 0 54.2676 12.899 700 119.904 881.967 468.677
3692 0 55.7426 13.0062 725 119.836 881.087 468.772
3693 0 58.5306 18.9474 1109 109.947 879.868 466.153
3694 0 59.3615 14.1169 838 115.924 879.469 469.084
3695 0 59.247 14.4142 854 117.424 879.307 466.953
3696 0 63.2794 14.1436 895 117.057 879.228 465.52
3697 0 63.265 13.1036 829 119.77 878.549 465.683
3698 0 67.9317 15.9719 1085 114.696 877.77 459.544
3699 0 68.6438 14.364 986 118.18 876.706 461.713
3700 0 71.2831 17.0728 1217 112.667 877.259 460.898
3701 0 74.245 21.2001 1574 105.724 876.641 462.179
3702 0 77.5822 17.3493 1346 112.369 877.595 457.409
3703 0 73.8168 14.0618 1038 120.655 877.152 454.566
3704 0 81.525 14.241 1161 118.076 878.176 453.887
3705 0 82.3575 16.2098 1335 115.981 878.566 453.684
3706 0 81.4918 15.3881 1254 119.07 878.755 451.649
3707 0 84.3237 13.5312 1141 123.169 878.379 447.982
3708 0 85.0773 16.244 1382 119.372 878.926 447.626
3709 0 90.1471 15.275 1377 120.916 879.707 447.436
3710 0 91.2377 16.9996 1551 119.731 880.086 441.012
3711 0 95.1425 16.7538 1594 119.363 880.893 439.097
3712 0 99.177 15.2253 1510 122.019 879.392 439.543
3713 0 102.183 16.0007 1635 119.733 880.116 436.621
3714 0 105.511 16.9177 1785 118.633 882.47 434.617
3715 0 109.344 16.6447 1820 118.668 882.421 435.632
3716 0 112.428 14.9695 1683 122.479 883.549 431.462
3717 0 118.256 19.5508 2312 114.942 882.965 432.175
3718 0 120.572 15.0117 1810 122.246 883.268 425.548
3719 0 127.468 17.0553 2174 117.142 883.824 433.337
3720 0 131.583 17.7607 2337 116.875 883.493 430.728
3721 0 138.967 18.1482 2522 116.377 884.595 426.247
3722 0 141.691 16.4018 2324 119.554 882.314 422.087
3723 0 147.025 18.1329 2666 116.93 884.164 418.887
3724 0 150.366 14.9568 2249 121.917 883.389 419.558
3725 0 156.399 15.1855 2375 120.298 882.913 422.247
3726 0 158.281 14.7649 2337 121.967 882.475 415.501
3727 1 92.1521 11.9259 1099 119.771 882.231 452.793
3728 0 95.301 13.8194 1317 116.339 881.232 453.981
3729 0 90.4709 12.6118 1141 122.291 883.103 446.863
3730 0 94.7331 12.6144 1195 122.571 881.451 445.221
3731 0 102.435 16.1762 1657 117.976 882.369 445.66
3732 0 103.401 15.5898 1612 119.718 881.734 439.378
3733 0 107.341 14.3282 1538 120.377 881.289 438.233
3734 0 114.234 13.481 1540 121.58 880.133 435.24
3735 0 118.483 17.0657 2022 115.537 880.503 435.473
3736 0 125.565 14.2795 1793 119.322 880.124 429.1
3737 0 129.402 15.5407 2011 117.546 879.806 428.159
3738 0 133.298 15.1315 2017 116.29 877.53 424.305
3739 0 136.71 10.9136 1492 124.997 878.333 415.094
3740 0 145.829 14.1947 2070 118.565 877.946 417.559
3741 1 78.5882 8.90718 700 109.184 877.884 452.343
3742 0 82.4555 11.109 916 105.61 878.204 458.179
3743 0 86.1833 12.1601 1048 107.385 878.189 447.568
3744 0 87.2828 9.28018 810 111.18 878.801 444.154
3745 0 89.2021 10.7957 963 107.849 878.025 449.136
3746 0 95.8964 8.2172 788 111.476 879.166 440.274
3747 0 94.2799 5.83369 550 114.14 877.558 435.307
3748 0 103.301 10.9679 1133 106.348 879.245 439.19
3749 0 102.339 5.5013 563 113.948 878.027 431.618
3750 1 58.4197 12.0678 705 97.2454 879.536 459.504
3751 0 58.4129 16.041 937 93.0171 878.864 454.648
3752 1 106.903 7.77338 831 111.304 878.051 421.51
3753 0 114.03 11.9179 1359 106.235 878.726 424.883
3754 0 122.741 12.726 1562 103.583 878.668 431.356
3755 0 120.059 7.15483 859 112.673 879.214 425.639
3756 0 127.077 8.9552 1138 109.702 880.458 420.062
3757 0 132.284 6.87916 910 110.048 880.763 426.796
3758 0 132.441 8.38111 1110 107.641 881.709 436.495
3759 0 135.565 4.04235 548 122.248 881.993 398.575
3760 1 15.0096 5.19667 78 101.487 883.859 478.359
3761 0 12.0146 6.82503 82 95.5 882.707 482.988
3762 1 27.0442 6.39695 173 98.2428 885.162 478.434
3763 0 29.0209 3.06676 89 103.045 884.09 482.225
3764 0 29.0233 7.82131 227 100.079 883.533 475.828
3765 0 30.0265 9.59152 288 97.6181 883.628 478.743
3766 1 93.3576 9.2226 861 103.103 882.406 435.472
3767 0 97.2543 10.1898 991 102.127 884.083 444.903
3768 0 95.7717 7.41346 710 108.386 883.931 453.08
3769 0 96.6996 9.78287 946 108.461 885.053 444.847
3770 1 14.0041 7.71205 108 99.9907 882.741 489.519
3771 0 15.0112 7.12799 107 101.28 882.804 488.607
3772 0 15.0048 9.06376 136 97.2059 881.368 488.801
3773 0 19.0011 5.63124 107 100.86 881.813 489.393
3774 1 45.0293 8.17246 368 101.158 880.921 474.677
3775 1 119.724 7.54234 903 110.989 882.502 437.08
3776 0 120.911 8.93218 1080 110.193 880.891 432.869
3777 0 127.7 11.6288 1485 106.476 879.763 437.143
3778 1 140.112 8.61456 1207 105.12 878.52 426.677
3779 0 144.575 10.9632 1585 102.862 876.988 427.719
3780 1 114.472 11.2254 1285 101.547 877.428 436.658
3781 0 115.503 7.6708 886 104.472 876.251 445.517
3782 0 123.646 13.3365 1649 98.3457 876.053 438.028
3783 0 126.627 11.8774 1504 101.36 876.914 429.402
3784 0 129.622 11.5644 1499 101.048 876.095 427.831
3785 1 42.1 11.5915 488 97.1045 874.447 471.285
3786 0 42.1086 8.62058 363 100.653 874.986 472.474
3787 0 46.186 9.91643 458 99.9345 873.378 469.779
3788 0 47.1957 13.5606 640 94.8109 873.814 465.87
3789 0 47.2 11.9492 564 102.874 875.032 464.511
3790 0 48.0936 14.3886 692 100.137 875.426 467.025
3791 0 49.8968 12.586 628 102.938 878.46 465.93
3792 0 48.5743 11.6317 565 104.193 880.991 467.012
3793 0 51.6925 12.8452 664 104.89 878.554 459.613
3794 0 53.8292 11.7037 630 105.087 879.73 463.992
3795 0 53.5313 13.1699 705 104.753 880.745 461.976
3796 0 59.6422 15.5092 925 99.3178 880.971 462.246
3797 0 56.6106 11.429 647 108.002 882.113 460.087
3798 0 59.6631 12.9728 774 104.488 882.389 459.581
3799 0 60.7694 12.7202 773 105.706 881.671 457.517
3800 0 61.5335 11.5059 708 108.547 883.04 455.439
3801 0 64.6398 15.656 1012 101.851 882.284 456.331
3802 0 62.4258 12.623 788 107.773 883.802 454.131
3803 0 64.655 13.023 842 106.833 883.873 454.688
3804 0 68.4485 15.1793 1039 103.149 884.92 455.449
3805 0 68.2999 12.1376 829 108.76 886.099 457.726
3806 1 226.097 16.891 3819 105.943 884.428 386.912
3807 1 72.5408 15.798 1146 104.096 884.82 455.711
3808 0 76.534 14.5426 1113 105.729 885.81 455.215
3809 0 80.5043 9.83799 792 112.293 885.057 455.895
3810 0 81.5785 15.5311 1267 104.223 885.297 456.46
3811 1 47.0664 10.4958 494 105.852 886.172 477.54
3812 0 46.0284 10.1894 469 109.243 886.151 475.386
3813 0 47.0174 10.528 495 109.139 886.691 477.014
3814 0 49.1928 12.5425 617 106.679 885.018 475.924
3815 0 49.1601 10.0691 495 111.331 884.828 475.646
3816 0 55.123 16.1638 891 100.291 884.066 476.652
3817 0 55.123 16.0187 883 122.524 882.043 476.673
3818 0 59.0472 14.2259 840 102.831 884.212 477.557
3819 0 59.0739 16.3863 968 102.063 882.378 474.665
3820 0 60.0787 12.7499 766 108.402 880.248 467.708
3821 0 64.1957 13.5523 870 106.121 881.571 472.602
3822 0 62.1321 10.3489 643 112.46 880.949 471.736
3823 0 65.0817 17.8698 1163 102.555 880.933 467.744
3824 0 64.141 15.0606 966 105.817 880.232 471.738
3825 0 68.2 12.346 842 109.878 879.169 467.186
3826 0 69.3764 12.2088 847 111.385 879.064 464.348
3827 0 72.1449 15.1778 1095 103.879 879.723 470.297
3828 0 76.1043 18.0936 1377 103.105 878.55 460.902
3829 0 77.1323 13.0944 1010 109.3 878.788 462.214
3830 1 39.0577 9.83162 384 110.521 879.487 477.75
3831 0 41.1357 11.7173 482 110.23 878.627 473.288
3832 0 43.0507 14.0764 606 106.375 879.173 472.409
3833 0 43.0507 14.0532 605 128.792 879.149 472.512
3834 0 46.0303 13.4259 618 108.228 879.731 470.532
3835 0 47.0321 14.3306 674 106.786 879.387 468.255
3836 0 47.0647 13.3008 626 110.038 880.623 464.062
3837 0 49.0415 11.9287 585 112.27 881.518 464.424
3838 0 52.0937 13.6677 712 107.456 882.23 467.052
3839 0 51.1007 16.8295 860 106.416 881.89 462.916
3840 0 50.1003 12.2953 616 113.679 881.985 464.047
3841 0 54.0822 12.5919 681 113.192 883.624 459.517
