time division length width area intensity CMx CMy
0 0 36.0762 13.6655 493 135.74 818.331 475.037
1 0 37.0853 12.9431 480 135.765 817.604 477.229
2 0 38.0782 12.2905 468 129.915 816.667 477.312
3 0 40.0341 15.9864 640 129.058 816.712 474.775
4 0 42.0941 15.5841 656 123.767 815.848 476.206
5 0 43.0709 16.7631 722 121.42 815.416 475.137
6 0 43.1316 12.7981 552 131.668 813.659 471.665
7 0 46.1251 16.0867 742 128.434 813.69 471.584
8 0 47.22 15.3537 725 125.643 813.977 473.214
9 0 47.0253 14.8005 696 129.404 811.463 469.272
10 0 49.0276 13.9309 683 131.354 811.69 470.07
11 0 51.2313 15.713 805 124.051 809.853 466.554
12 0 52.1441 14.038 732 128.124 810.235 469.929
13 0 52.072 13.5965 708 131.401 810.333 465.972
14 0 56.1481 16.4209 922 124.953 810.097 464.241
15 0 57.1303 15.946 911 125.127 810.255 463.215
16 0 57.4774 14.4578 831 127.922 810.501 462.06
17 0 60.192 11.5796 697 127.082 810.68 460.304
18 0 63.4492 14.9411 948 119.638 811.531 456.045
19 0 63.4492 15.0041 952 145.155 811.547 456.023
20 0 65.2753 15.1053 986 124.545 810.887 451.028
21 0 67.2854 18.6816 1257 118.425 811.932 446.94
22 0 70.2187 14.8109 1040 128.1 811.25 446.2
23 0 72.2753 15.3164 1107 126.455 814.226 449.238
24 0 76.2154 15.0495 1147 128.284 812.248 443.785
25 0 78.3023 14.891 1166 127.87 815.178 444.154
26 0 77.2553 13.5913 1050 131.06 814.809 443.811
27 0 84.2707 15.9249 1342 125.237 816.163 437.06
28 0 86.221 15.9126 1372 125.932 817.03 438.28
29 1 47.3308 12.9725 614 119.902 818.915 460.507
30 0 44.0425 13.5324 596 125.8 819.794 456.133
31 0 47.1746 15.1777 716 120.617 820.091 458.101
32 0 49.1775 13.5224 665 122.376 820.338 457.726
33 0 48.0789 14.3514 690 119.723 822.039 454.986
34 0 50.067 14.6803 735 116.799 821.997 457.086
35 0 55.1246 13.3516 736 120.091 823.185 456.883
36 0 55.0784 15.5959 859 115.009 822.128 457.994
37 0 55.3297 13.7178 759 118.675 824.105 455.432
38 0 59.16 16.1934 958 111.491 822.864 458.461
39 0 61.1227 17.4403 1066 109.732 824.286 459.344
40 0 64.1004 16.7082 1071 108.984 823.95 455.297
41 0 65.1069 15.7433 1025 111.924 823.274 459.961
42 0 65.3361 13.9586 912 115.976 822.307 457.166
43 0 70.3998 12.8836 907 115.727 822.021 455.506
44 0 75.1283 14.2822 1073 112.202 821.171 456.464
45 0 77.0545 16.5208 1273 115.164 820.807 458.152
46 0 77.0545 16.5597 1276 132.57 819.799 458.161
47 0 83.3546 17.5395 1462 121.342 819.118 453.16
48 0 84.1863 13.7196 1155 126.102 818.455 453.855
49 0 87.1793 14.7971 1290 127.709 818.009 451.486
50 0 91.22 14.9967 1368 123.503 818.649 451.678
51 0 95.2294 16.1505 1538 127.611 817.045 448.776
52 0 99.3312 17.2151 1710 127.169 814.997 444.254
53 0 103.163 14.8309 1530 129.615 814.397 443.588
54 0 108.209 16.0153 1733 127.642 815.053 440.256
55 0 110.394 14.7381 1627 128.733 814.374 440.118
56 1 58.1514 14.3763 836 122.713 814.167 465.292
57 0 60.2874 14.6299 882 123.749 813.358 461.949
58 0 62.167 15.2171 946 122.58 813.008 460.707
59 0 63.0703 14.0002 883 126.012 812.177 459.614
60 0 67.2233 13.5816 913 124.814 813.46 460.896
61 0 70.0989 16.4767 1155 120.926 813.565 454.504
62 0 73.1357 14.8491 1086 124.895 812.765 450.746
63 0 74.1401 15.4707 1147 124.649 812.55 452.663
64 0 79.1694 16.3321 1293 122.91 813.182 447.61
65 0 80.1031 14.5812 1168 123.955 813.991 452.64
66 0 84.1457 16.4001 1380 124.838 813.151 444.517
67 0 87.1329 16.1248 1405 126.141 814.325 441.235
68 0 88.0934 14.5073 1278 129.755 814.951 440.515
69 0 93.2962 14.8345 1384 127.528 814.443 439.771
70 1 46.0644 10.9629 505 129.545 813.232 464.028
71 0 52.0564 12.0638 628 131.279 812.334 457.748
72 0 52.1538 11.4661 598 133.816 813.89 457.356
73 0 56.1763 14.6503 823 126.294 814.388 455.061
74 0 56.3561 15.0827 850 125.772 814.568 455.56
75 0 57.1441 12.9322 739 129.092 815.327 456.961
76 0 61.1949 13.4979 826 124.622 815.854 459.214
77 0 64.2162 15.697 1008 121.658 815.892 458.055
78 0 63.1729 12.2679 775 131.192 816.646 454.805
79 0 67.1318 13.7044 920 125.655 817.247 458.587
80 0 70.1246 15.2728 1071 125.128 819.09 454.595
81 0 72.3773 12.4763 903 129.499 818.838 458.564
82 0 75.3377 11.9462 900 132.868 817.986 453.62
83 0 76.2271 13.4073 1022 131.439 817.873 451.819
84 0 78.1886 13.071 1022 133.169 817.998 452.935
85 0 83.3494 16.0769 1340 126.063 818.1 453.383
86 0 86.4742 15.415 1333 128.714 818.627 451.399
87 0 89.4413 13.2042 1181 132.483 817.869 451.856
88 0 93.3133 14.9282 1393 128.872 817.561 453.79
89 0 95.5763 17.3474 1658 124.812 817.373 450.426
90 1 49.2372 13.2217 651 128.429 816.562 472.485
91 0 48.3464 11.7899 570 133.812 816.123 471.46
92 0 50.2175 13.4614 676 122.286 816.322 469.435
93 0 54.1619 11.4656 621 122.702 815.438 475.749
94 0 56.2374 18.4041 1035 111.286 814.101 477.147
95 0 56.1175 13.6677 767 123.795 814.186 470.093
96 0 58.1448 16.4073 954 116.31 810.655 472.358
97 0 61.3126 15.5759 955 115.804 813.205 471.866
98 0 60.2232 12.5367 755 121.963 810.53 466.868
99 0 67.1966 14.4799 973 115.998 809.868 467.495
100 0 68.1287 13.0048 886 118.081 809.702 467.804
101 0 66.1523 12.6073 834 121.814 808.939 464.228
102 0 66.1523 12.5317 829 143.205 808.945 464.288
103 0 73.2504 13.4197 983 122.946 809.081 457.143
104 0 74.152 13.0408 967 122.679 808.67 455.82
105 0 77.3397 13.3049 1029 122.944 809.065 455.161
106 0 80.2938 14.0982 1132 123.252 809.323 449.777
107 0 82.1687 14.4702 1189 123.298 807.918 448.269
108 0 87.351 13.5545 1184 121.329 809.679 449.709
109 0 88.6105 12.3236 1092 125.287 809.614 444.183
110 0 94.2082 14.7652 1391 120.029 810.491 443.519
111 0 94.2978 13.3407 1258 124.304 811.358 438.839
112 0 98.2602 14.1258 1388 122.154 810.888 440.057
113 1 50.2048 11.7519 590 123.649 813.058 460.258
114 0 54.3295 14.8906 809 116.061 814.103 459.811
115 0 53.0776 14.5447 772 118.237 814.338 459.122
116 0 55.0266 13.5752 747 118.767 814.826 457.236
117 0 57.2041 12.9536 741 121.406 813.522 458.665
118 0 56.3758 11.2282 633 126.573 815.991 452.28
119 0 57.3752 10.3703 595 145.055 816.012 452.83
120 0 59.2328 12.9151 765 125.191 817.258 453.703
121 0 64.4664 14.5812 940 121.2 816.741 454.961
122 0 69.4633 16.7139 1161 115.264 817.886 453.977
123 0 67.3909 12.242 825 124.679 817.572 454.127
124 0 70.3882 15.9828 1125 117.441 817.648 454.314
125 0 73.3861 14.6485 1075 119.75 818.088 453.277
126 0 73.4088 13.2818 975 120.402 818.709 454.598
127 0 78.2078 13.771 1077 120.654 818.276 453.582
128 0 79.3471 15.0226 1192 119.482 817.279 451.301
129 0 84.2663 15.2967 1289 118.311 817.738 453.757
130 0 84.1766 12.747 1073 122.929 816.6 451.915
131 0 88.1827 14.2545 1257 118.975 817.13 447.808
132 0 89.1781 12.3124 1098 115.864 815.277 452.214
133 0 94.5859 12.634 1195 113.96 815.535 448.456
134 0 98.3094 13.8034 1357 113.004 814.778 448.225
135 1 50.1326 13.205 662 110.796 813.751 472.588
136 0 50.2168 9.31958 468 115.803 815.936 473.799
137 0 55.3295 15.5071 858 106.816 813.291 471.325
138 0 54.2231 12.7436 691 112.834 813.988 469.433
139 0 58.1388 12.711 739 115.28 810.829 470.836
140 0 59.3053 14.8891 883 108.246 811.84 470.542
141 0 60.2622 13.8229 833 112.2 811.357 468.038
142 0 60.1857 11.3814 685 114.978 811.018 467.492
143 0 60.1857 11.3814 685 129.597 810.023 467.743
144 0 67.3519 17.3418 1168 107.783 810.762 461.622
145 0 68.2465 14.0373 958 113.376 809.137 459.323
146 0 71.1877 14.4969 1032 112.105 809.05 460.197
147 0 74.194 13.9903 1038 113.276 808.06 458.28
148 0 75.2965 13.9582 1051 115.29 807.764 456.225
149 0 76.2201 18.4203 1404 109.11 808.023 454.896
150 0 79.7247 16.2309 1294 112.855 806.078 451.27
151 0 77.1802 13.5786 1048 117.976 807.11 450.381
152 0 83.2659 12.9104 1075 118.386 807.781 447.139
153 0 86.3068 13.1508 1135 117.633 807.726 442.967
154 0 87.4071 12.5047 1093 119.363 808.962 443.647
155 0 92.6457 15.4783 1434 115.513 807.902 438.31
156 0 95.4691 13.9312 1330 118.277 809.413 436.6
157 0 97.5707 15.4042 1503 114.868 810.15 436.406
158 0 97.7808 13.5507 1325 118.425 810.398 434.127
159 1 54.629 13.07 714 114.48 810.983 453.162
160 0 58.3964 11.6445 680 112.66 813.481 460.635
161 0 57.1929 14.32 819 110.11 812.193 454.47
162 0 61.1697 15.6614 958 105.061 813.962 461.378
163 0 61.2024 13.5942 832 111.653 814.156 452.898
164 0 62.055 13.8426 859 110.403 815.492 457.506
165 0 65.2698 14.6469 956 111.074 815.174 451.076
166 0 68.3646 13.3549 913 114.221 816.742 454.319
167 0 68.3557 13.3566 913 141.097 817.727 454.422
168 0 73.3757 14.2009 1042 112.897 816.191 452.102
169 0 75.3923 15.2005 1146 111.482 817.551 451.949
170 0 77.2115 12.7831 987 114.081 817.712 452.484
171 0 82.093 14.7272 1209 111.82 816.921 452.481
172 0 85.3299 15.3287 1308 110.949 817.032 448.389
173 0 86.3866 14.1457 1222 110.918 815.203 454.99
174 0 89.5154 10.1994 913 117.072 814.53 450.395
175 1 48.1147 12.3663 595 108.296 815.03 474.015
176 0 50.1374 11.8873 596 109.374 813.831 473.896
177 0 52.2057 12.0102 627 109.855 814.622 471.263
178 0 54.2398 14.4912 786 106.187 815.587 470.566
179 0 55.1623 13.1793 727 109.034 813.33 469.561
180 0 56.0844 11.8215 663 107.917 813.173 473.193
181 0 61.2565 12.5048 766 107.539 812.581 470.274
182 0 60.26 13.3754 806 129.448 812.546 469.891
183 0 63.1018 18.4939 1167 100.596 811.547 468.911
184 0 67.2061 17.0669 1147 102.446 810.952 464.432
185 0 68.2599 13.6537 932 106.878 809.901 464.997
186 0 69.2649 15.8378 1097 104.89 808.026 462.558
187 0 74.3185 13.2269 983 107.742 808.667 460.335
188 0 72.1934 11.6493 841 112.176 807.812 457.325
189 0 79.2172 17.4078 1379 103.604 807.932 458.414
190 0 78.2309 13.588 1063 112.628 807.472 452.823
191 0 82.2976 14.0101 1153 110.886 806.673 447.546
192 0 82.2976 14.0952 1160 141.609 806.692 447.522
193 1 47.0541 11.0298 519 108.503 807.611 470.736
194 0 49.0221 14.5241 712 105.416 808.756 465.237
195 0 49.1282 11.643 572 111.629 807.748 462.456
196 0 52.3644 11.3245 593 111.899 806.094 461.3
197 0 53.0697 16.6385 883 101.522 808.682 462.555
198 0 53.1683 10.0812 536 108.248 810.56 466.45
199 0 54.1158 14.0255 759 105.515 810.116 462.038
200 0 57.1163 12.8159 732 106.801 810.223 461.145
201 0 55.2032 12.4993 690 110.475 810.228 457.939
202 0 60.0515 14.6541 880 106.1 809.899 458.448
203 0 61.1829 16.0666 983 105.498 810 455.12
204 0 62.0894 13.851 860 108.883 813.133 454.503
205 0 65.0371 14.5609 947 108.192 812.424 455.967
206 0 65.0371 14.6224 951 137.562 812.45 456.141
207 0 67.2007 16.0117 1076 107.035 813.039 456.493
208 0 70.2182 13.458 945 110.861 812.977 455.057
209 0 71.3473 16.1043 1149 108.293 814.227 454.789
210 0 73.2304 14.9665 1096 110.486 814.639 454.011
211 0 77.1655 13.024 1005 113.944 813.465 452.672
212 0 81.3961 13.5756 1105 113.292 813.448 452.673
213 0 81.4385 14.8824 1212 112.47 813.303 452.125
214 0 83.283 12.9438 1078 115.794 813.342 451.886
215 1 48.0386 14.2177 683 109.416 814.143 472.587
216 0 48.0475 11.4262 549 115.12 814.25 471.823
217 0 49.0457 15.9443 782 108.559 814.442 471.289
218 0 50.2488 14.0899 708 106.181 813.581 474.672
219 0 50.0735 14.2191 712 110.719 815.532 471.407
220 0 49.1509 11.8818 584 113.926 817.423 475.476
221 0 52.057 13.101 682 113.242 815.007 473.629
222 0 53.1069 14.7062 781 111.068 814.843 473.32
223 0 54.3205 14.0463 763 112.047 813.429 471.339
224 0 57.0619 12.022 686 114.776 812.344 471.328
225 0 60.1013 12.8117 770 113.238 810.899 468.343
226 0 62.1562 12.1307 754 113.745 809.729 470.123
227 0 61.2237 11.5642 708 116.055 809.641 464.422
228 0 64.0633 11.6916 749 115.292 808.28 464.693
229 0 66.218 11.4772 760 115.796 807.545 463.963
230 0 71.1276 11.2193 798 112.48 806.977 466.82
231 0 72.4133 11.3101 819 115.466 807.049 461.949
232 0 74.3992 12.4464 926 114.673 806.22 458.742
233 0 78.3616 13.1697 1032 112.34 806.031 457.078
234 0 80.1994 12.9303 1037 112.858 806.473 455.208
235 1 44.0912 11.068 488 114.371 806.533 469.867
236 0 43.2056 10.0218 433 114.3 806.783 471.709
237 0 46.1141 14.3774 663 104.68 805.54 467.768
238 0 44.0824 12.6581 558 105.527 803.289 470.229
239 0 46.0763 8.91998 411 110.2 804.17 467.92
240 0 49.0701 13.0018 638 104.969 803.027 466.592
241 0 50.0629 8.98869 450 109.938 804.909 464.562
242 0 50.2421 11.365 571 107.513 805.217 462.771
243 0 51.2584 11.9005 610 107.225 804.574 461.428
244 0 51.0857 5.81376 297 115.875 805.67 461.923
245 0 54.3282 12.4797 678 108.05 805.699 455.336
246 0 57.166 11.9127 681 108.151 808.351 460.197
247 0 60.1868 12.9264 778 107.456 807.591 454.946
248 0 60.3049 10.8283 653 111.227 808.835 451.897
249 0 60.3049 10.6459 642 121.745 809.885 451.692
250 0 68.177 12.4822 851 108.356 808.378 452.855
251 0 71.3349 12.0979 863 108.711 810.256 454.416
252 0 74.2232 17.2318 1279 100.923 811.421 457.604
253 0 75.2425 10.3931 782 112.645 812.27 452.945
254 0 77.2683 12.1654 940 112.087 813.011 449.879
255 0 81.1319 10.4028 844 110.399 811.559 455.749
256 0 78.3186 7.3035 572 118.129 813.65 446.745
257 0 89.3492 15.2324 1361 104.507 813.76 454.027
258 0 89.3434 15.5467 1389 109.308 813.379 447.172
259 0 90.3376 11.3795 1028 117.023 813.465 447.317
260 0 94.5527 12.85 1215 113.386 813.355 449.85
261 1 47.0622 10.5817 498 119.012 811.347 469.717
262 0 51.1184 10.1138 517 118.368 811.985 472.689
263 0 52.1889 13.2595 692 115.743 811.52 470.266
264 0 51.4284 12.1139 623 118.994 810.143 469.628
265 0 57.3304 13.5705 778 113.892 812.661 472.932
266 0 57.257 14.007 802 112.769 811.274 470.898
267 0 60.355 12.7247 768 114.068 812.15 471.204
268 0 58.2086 13.6234 793 112.573 810.485 470.479
269 0 64.6051 14.3177 925 112.246 809.6 466.59
270 0 64.2303 13.6851 879 114.333 808.738 465.688
271 0 65.4534 14.9114 976 111.986 808.549 464.926
272 0 70.1942 14.6451 1028 111.647 806.995 464.173
273 0 70.2965 13.4004 942 114.95 807.997 461.12
274 0 74.5503 12.1529 906 117.442 807.159 457.704
275 0 74.3324 17.0854 1270 109.997 806.636 457.496
276 0 73.2836 11.6943 857 118.616 806.292 458.627
277 0 81.2986 13.8379 1125 115.738 806.054 452.517
278 0 81.4423 13.1873 1074 117.872 805.928 451.395
279 0 84.4783 12.5594 1061 117.756 805.551 453.061
280 0 90.5144 17.9861 1628 109.509 805.882 448.294
281 1 48.0266 12.9303 621 115.346 805.754 464.462
282 0 50.202 16.1348 810 110.035 806.762 461.711
283 0 50.2013 17.5294 880 107.892 807.349 463.139
284 0 51.196 13.5753 695 113.328 807.655 464.216
285 0 54.0861 14.6063 790 112.822 807.39 459.18
286 0 55.0549 14.0224 772 113.382 807.972 459.574
287 0 56.1643 13.2112 742 113.482 809.208 458
288 0 58.0502 15.2454 885 111.69 810.289 455.976
289 0 60.1126 19.2971 1160 106.245 810.447 457.009
290 0 63.0854 20.8448 1315 105.081 811.02 451.008
291 0 62.1643 13.3839 832 116.279 811.887 454.097
292 0 66.1816 14.566 964 114.774 813.63 452.768
293 0 66.4747 15.7504 1047 113.1 814.511 453.331
294 0 70.2813 13.6594 960 114.529 815.635 455.783
295 0 70.1741 14.1648 994 116.144 815.664 450.62
296 0 72.4056 14.7779 1070 114.99 816.251 451.018
297 0 72.4056 14.6674 1062 138.704 817.266 451.074
298 0 79.2786 14.468 1147 115.362 816.247 449.84
299 0 82.1039 20.3035 1667 106.065 817.203 451.758
300 1 42.0672 13.217 556 116.813 818.923 468.622
301 0 46.2146 13.8268 639 116.131 817.676 467.715
302 0 43.1769 11.8582 512 119.787 817.707 469.494
303 0 46.0581 13.331 614 117.544 817.541 470.389
304 0 48.106 13.4495 647 107.665 815.587 467.048
305 0 48.106 13.3247 641 118.92 814.605 467.348
306 0 49.2653 15.4267 760 103.999 814.757 470.036
307 0 52.0825 14.8418 773 106.79 812.935 466.146
308 0 54.0978 16.2114 877 103.666 813.335 469.754
309 0 51.2238 11.1667 572 112.955 812.601 466.764
310 0 55.1849 15.1491 836 107.555 812.504 465.908
311 0 58.1223 16.4653 957 105.226 812.13 464.48
312 0 60.1705 13.5282 814 107.775 811.532 468.629
313 0 61.1591 16.22 992 105.238 811.114 465.66
314 0 63.1261 13.0849 826 111.426 811.103 458.396
315 0 67.2327 16.3611 1100 106.997 809.996 457.657
316 0 68.1495 13.3383 909 111 809.774 457.914
317 0 71.1284 16.4913 1173 107.58 808.147 453.488
318 0 73.1953 17.7607 1300 105.207 807.357 454.725
319 0 74.5079 14.9917 1117 108.911 807.45 451.996
320 0 77.1834 16.2082 1251 108.462 806.787 449.145
321 0 77.1834 16.0915 1242 123.449 806.779 449.151
322 0 83.1473 13.9151 1157 115.247 806.405 447.778
323 0 85.1629 13.2335 1127 114.764 806.015 444.243
324 0 91.2881 15.7414 1437 111.859 806.008 437.05
325 0 91.1987 14.9454 1363 114.387 806.524 438.125
326 0 97.4272 17.1821 1674 112.084 807.196 438.45
327 0 100.418 12.6969 1275 119.586 807.802 435.369
328 1 52.1737 12.075 630 116.462 807.452 459.257
329 0 56.0583 19.0873 1070 106.424 807.779 455.006
330 0 57.1716 14.85 849 111.969 807.131 457.756
331 0 58.2479 14.7301 858 113.71 809.647 453.117
332 0 61.1943 16.0636 983 110.017 810.323 453.98
333 0 64.195 16.4187 1054 109.654 810.461 452.475
334 0 67.1618 15.9168 1069 109.26 810.911 454.184
335 0 67.2765 17.6733 1189 109.1 811.819 451.939
336 0 71.345 17.3102 1235 109.896 812.445 448.271
337 0 68.1721 13.6713 932 117.297 812.732 446.356
338 0 73.2869 14.0271 1028 116.943 812.194 446.957
339 0 72.1448 13.6947 988 118.568 814.549 444.475
340 0 78.3335 16.3915 1284 113.961 815.266 446.773
341 0 81.3918 13.8958 1131 118.645 815.248 445.77
342 0 85.3304 13.8169 1179 118.644 814.893 444.478
343 0 87.2521 15.8965 1387 115.469 815.082 443.787
344 0 90.3625 14.475 1308 117.433 816.647 448.459
345 0 91.1847 12.5679 1146 126.551 817.282 445.807
346 0 100.307 16.6588 1671 118.419 816.624 445.773
347 0 103.288 15.7617 1628 120.314 816.87 440.963
348 0 106.274 14.3686 1527 123.06 817.073 441.124
349 1 55.0898 11.0002 606 123.12 815.837 470.285
350 0 59.0405 12.5168 739 123.088 814.142 465.083
351 0 63.1636 15.5628 983 117.238 813.99 465.98
352 0 64.28 13.2545 852 123.684 814.988 460.702
353 0 67.2494 14.0076 942 114.635 814.99 464.972
354 0 68.1654 14.2594 972 115.959 814.693 459.541
355 0 69.2092 12.0504 834 118.579 812.873 464.006
356 0 74.2126 13.3266 989 116.688 811.583 460.859
357 0 78.3419 15.9812 1252 113.97 811.477 454.803
358 0 81.1505 18.0775 1467 108.883 811.508 452.202
359 0 83.1197 14.449 1201 114.4 809.744 449.543
360 0 86.1804 13.4485 1159 115.834 809.007 447.525
361 0 86.1804 13.5414 1167 137.834 808.003 447.551
362 0 92.1401 14.7276 1357 114.073 809.503 446.836
363 0 97.1672 14.1406 1374 114.4 809.424 442.415
364 0 100.165 15.4745 1550 111.878 808.209 438.135
365 1 50.1422 14.1597 710 115.987 807.504 464.044
366 0 54.2136 18.6853 1013 105.956 808.696 462.419
367 0 54.2136 18.63 1010 119.664 808.697 462.392
368 0 56.6608 15.0545 853 113.352 808.792 460.633
369 0 58.2754 12.235 713 117.01 808.944 460.23
370 0 59.4819 15.4501 919 114.133 809.017 456.406
371 0 59.4918 13.733 817 116.76 808.879 456.247
372 0 63.2776 13.8438 876 117.787 810.534 450.616
373 0 64.2298 15.0709 968 113.452 811.143 451.595
374 0 66.4551 18.0272 1198 110.64 812.496 447.809
375 0 66.3272 12.8152 850 119.353 810.461 448.138
376 0 71.3727 13.0582 932 119.968 813.011 446.12
377 0 72.4481 15.6388 1133 115.29 811.974 444.008
378 0 72.4481 15.7078 1138 134.989 811.987 443.978
379 0 78.422 13.9629 1095 117.839 815.816 440.351
380 0 81.4596 17.8616 1455 111.854 815.44 441.712
381 0 83.1943 15.013 1249 116.751 815.49 436.899
382 0 86.437 15.4795 1338 114.517 817.161 439.519
383 0 88.5688 16.8344 1491 112.579 817.153 440.712
384 0 94.3515 16.6399 1570 111.521 817.776 440.714
385 1 51.1463 11.6137 594 111.093 816.318 463.094
386 0 53.2077 12.4418 662 112.089 817.406 459.921
387 0 55.2588 14.224 786 110.957 817.696 455.772
388 0 54.3365 11.8153 642 113.598 818.036 462.911
389 0 54.3455 12.2733 667 127.262 819.088 462.09
390 0 59.3153 11.127 660 113.918 817.242 460.324
391 0 63.2584 16.7409 1059 104.66 817.7 463.543
392 0 65.2796 13.4805 880 111.61 818.264 457.718
393 0 66.6508 14.1033 940 110.069 816.867 463.888
394 0 68.1451 14.3811 980 110.376 815.327 463.797
395 0 75.5699 21.2518 1606 101.281 815.031 459.607
396 0 74.2658 14.5962 1084 110.429 815.334 458.14
397 0 78.3284 14.2477 1116 111.272 814.999 457.315
398 0 86.8837 19.2326 1671 103.871 813.78 455.278
399 0 83.4946 14.5039 1211 113.682 812.915 455.151
400 1 45.201 15.1545 685 113.368 812.001 471.476
401 0 47.4527 13.3607 634 114.421 812.491 473.284
402 0 49.1196 15.9814 785 112.527 811.454 472.023
403 0 51.1133 15.3972 787 111.987 812.557 471.939
404 0 53.1221 17.8457 948 109.467 812.542 468.857
405 0 54.0804 20.3031 1098 106.551 812.078 467.489
406 0 55.1387 14.7628 814 115.811 811.306 463.807
407 0 59.1148 15.6475 925 113.742 810.986 464.005
408 0 59.1148 15.7152 929 146.24 809.991 464.018
409 0 60.2153 16.2915 981 112.781 807.173 459.453
410 0 63.2418 15.1166 956 114.26 808.692 457.726
411 0 65.3526 18.7598 1226 109.727 807.104 455.345
412 0 67.5219 16.3502 1104 113.111 806.985 452.289
413 0 68.2615 15.133 1033 115.804 807.716 448.468
414 0 74.1961 19.1385 1420 108.477 808.056 448.506
415 0 74.0561 14.0704 1042 116.46 808.747 445.636
416 1 38.0521 14.7692 562 116.395 809.073 462.176
417 0 42.1417 15.3767 648 113.98 810.332 459.318
418 0 42.1417 15.4716 652 140.742 810.35 459.388
419 0 42.1422 14.0002 590 117.705 811.905 456.005
420 0 45.4176 14.752 670 114.296 812.26 457.276
421 0 48.1605 15.8428 763 112.431 812.127 456.284
422 0 49.0386 16.6808 818 111.286 814.076 456.269
423 0 50.1279 16.3981 822 112.575 814.28 455.589
424 0 51.0764 18.9716 969 109.524 814.891 450.941
425 0 52.218 18.5951 971 110.373 815.626 453.475
426 0 52.1057 18.6928 974 112.152 816.704 451.87
427 0 57.0872 15.8354 904 115.127 816.806 452.122
428 0 56.1044 16.3445 917 114.739 816.191 456.118
429 0 60.1346 15.7646 948 115.455 817.675 455.602
430 0 62.3574 16.2771 1015 113.739 817.953 456.466
431 0 63.19 19.1803 1212 111.04 818.783 455.276
432 0 63.0479 18.3194 1155 113.329 818.337 452.043
433 0 67.4096 22.8751 1542 106.277 817.908 455.8
434 0 68.1327 18.2732 1245 112.463 817.654 457.675
435 0 71.4689 20.3585 1455 109.692 816.734 455.962
436 0 72.2059 15.5389 1122 118.22 816.624 455.373
437 0 76.3544 17.4712 1334 115.158 815.903 457.363
438 0 78.3464 19.1075 1497 113.102 816.631 455.295
439 0 79.2794 16.5869 1315 117.247 815.551 454.829
440 0 83.6943 22.1162 1851 108.766 814.846 455.89
441 0 85.2636 20.8882 1781 111.734 814.556 454.568
442 0 89.2328 17.7401 1583 117.234 813.067 449.534
443 0 93.3906 17.8605 1668 116.553 813.845 448.568
444 0 95.3503 19.3392 1844 115.086 813.622 445.995
445 0 99.4129 17.8548 1775 117.291 812.813 448.355
446 0 102.265 16.7604 1714 121.767 811.441 445.95
447 1 51.2193 15.8729 813 124.547 811.063 466.074
448 0 51.109 16.4941 843 124.406 810.346 465.947
449 0 55.2595 15.9068 879 124.927 810.162 465.71
450 0 54.2616 14.6881 797 129.177 809.407 462.571
451 0 57.4447 16.2765 935 126.947 808.59 459.108
452 0 62.488 19.4918 1218 116.664 808.617 461.61
453 0 63.1502 16.8487 1064 125.047 808.494 456.463
454 0 63.2745 14.5872 923 130.928 808.845 453.674
455 0 65.5422 15.7303 1031 129.587 808.129 451.319
456 0 67.4568 15.3135 1033 131.106 807.616 450.512
457 0 71.4014 15.882 1134 129.653 808.527 448.975
458 0 74.297 22.087 1641 118.923 807.757 447.12
459 0 75.5395 14.8532 1122 133.141 808.258 446.092
460 0 78.6329 19.6991 1549 123.687 809.234 444.543
461 0 82.3586 16.756 1380 126.452 810.163 445.361
462 0 86.5622 18.7264 1621 123.874 811.028 440.663
463 1 47.2412 15.5585 735 123.01 810.188 460.403
464 0 48.4042 12.9328 626 125.762 811.248 461.55
465 0 53.6315 14.8793 798 120.142 812.323 461.481
466 0 54.3324 14.7242 800 120.524 811.404 460.779
467 0 53.0695 12.493 663 126.903 811.406 458.259
468 0 53.0695 12.5873 668 153.888 811.416 458.141
469 0 59.2238 17.0371 1009 118.189 812.432 459.241
470 0 60.1613 10.9373 658 128.921 813.52 460.085
471 0 64.2037 16.4788 1058 118.512 814.495 459.147
472 0 66.222 15.6745 1038 120.474 813.942 456.778
473 0 68.1414 15.0716 1027 121.687 813.866 457.94
474 0 72.4514 15.3068 1109 121.295 813.573 458.724
475 0 74.0759 15.9161 1179 119.944 814.371 461.37
476 0 77.2054 15.7372 1215 121.221 813.854 457.93
477 0 79.151 15.1988 1203 122.62 813.003 458.275
478 0 83.1522 17.5822 1462 118.477 813.085 455.092
479 0 83.1218 14.2321 1183 125.559 811.347 456.058
480 0 87.3238 15.1963 1327 123.152 811.497 457.898
481 1 43.1616 11.3063 488 128.84 811.342 477.893
482 0 45.0714 12.58 567 125.471 810.721 479.681
483 0 48.1779 13.6162 656 121.43 809.922 480.976
484 0 48.1424 14.7895 712 120.692 808.218 481.274
485 0 48.0527 13.8806 667 123.154 808.015 479.723
486 0 51.3112 15.2209 781 119.854 807.006 477.822
487 0 52.1521 14.7262 768 121.534 807.118 475.017
488 0 53.3218 12.9216 689 124.373 806.663 474.656
489 0 55.3022 14.1224 781 120.782 805.453 475.181
490 0 54.2983 15.5438 844 127.021 804.537 474.043
491 0 59.1151 14.6663 867 122.068 805.099 470.27
492 0 60.5479 13.7742 834 124.135 804.295 468.284
493 0 63.2476 12.3799 783 126.508 803.656 466.436
494 0 67.2556 11.7016 787 125.869 803.127 467.673
495 0 65.4823 12.553 822 126.1 802.573 461.64
496 0 65.4823 12.5988 825 139.604 801.593 461.508
497 0 73.7089 14.8829 1097 120.517 803.365 463.135
498 0 77.4633 13.671 1059 124.927 801.767 456.911
499 1 41.1629 14.0418 578 124.235 801.54 471.886
500 0 42.2022 11.5397 487 128.189 802.363 470.162
501 0 46.1715 15.0309 694 121.607 802.898 469.674
502 0 45.049 13.6962 617 127.096 803.16 469.512
503 0 46.1882 13.445 621 118.667 803.763 471.071
504 0 49.0406 11.6638 572 121.918 805.199 468.428
505 0 50.3602 14.9126 751 118.031 805.466 466.269
506 0 52.2518 12.2101 638 121.719 806.295 465.124
507 0 56.1805 12.3174 692 121.244 807.822 463.769
508 0 56.0792 14.1229 792 118.595 808.547 463.946
509 0 58.0339 11.6828 678 124.932 810.19 458.704
510 0 61.1845 17.1449 1049 115.08 810.678 461.529
511 0 64.3863 17.861 1150 115.556 811.593 456.465
512 0 64.5905 14.5377 939 120.846 812.297 456.988
513 0 67.0829 14.579 978 120.868 812.826 458.668
514 0 67.0774 14.9976 1006 121.092 813.19 457.687
515 0 73.1813 14.4436 1057 122.469 813.993 452.132
516 0 74.2738 14.3927 1069 123.605 814.487 452.212
517 0 76.4617 18.5452 1418 117.085 814.652 454.53
518 0 80.405 16.4542 1323 120.72 815.217 455.662
519 0 82.4905 18.1475 1497 119.177 814.407 455.605
520 0 82.5112 14.9071 1230 125.311 813.189 456.664
521 0 87.3965 13.6504 1193 127.871 813.095 453.365
522 0 93.2078 14.0546 1310 125.243 812.452 455.271
523 0 96.5426 14.3356 1384 124.475 812.022 456.707
524 0 99.4225 15.8415 1575 122.248 810.953 452.78
525 0 103.317 17.9641 1856 118.581 811.058 453.816
526 1 56.3091 14.2073 800 119.701 810.868 475.769
527 0 57.1186 14.8813 850 120.215 809.621 477.406
528 0 60.2302 15.7064 946 118.225 809.982 476.744
529 0 60.3481 14.5821 880 119.15 809.326 478.714
530 0 62.3169 14.0572 876 121.892 807.529 475.301
531 0 65.3545 16.0356 1048 119.323 806.584 472.343
532 0 67.2227 15.7982 1062 119.984 806.242 473.363
533 0 70.4588 18.0389 1271 116.896 805.423 470.139
534 0 71.1733 15.6238 1112 123.656 805.254 467.527
535 0 73.1491 17.9086 1310 118.361 804.695 469.528
536 0 77.303 16.1055 1245 122.36 804.106 464.455
537 0 78.1836 15.9624 1248 122.26 803.702 465.002
538 0 81.3152 16.3684 1331 123.243 803.529 456.034
539 0 84.2372 14.2811 1203 124.554 804.315 456.883
540 0 87.4543 14.5676 1274 123.925 803.061 454.417
541 0 89.3654 16.9641 1516 120.793 802.66 453.423
542 0 94.2973 15.3557 1448 122.565 803.051 451.819
543 0 97.328 13.7268 1336 126.453 803.525 446.845
544 1 52.537 11.9535 628 124.306 804.105 467.439
545 0 52.1121 15.2364 794 124.145 804.989 465.107
546 0 51.2492 15.0441 771 124.327 804.641 464.782
547 0 55.1835 14.5696 804 122.471 805.126 466.026
548 0 57.2172 15.747 901 118.961 805.718 462.115
549 0 59.2103 14.0685 833 121.381 805.902 462.898
550 0 60.119 14.7541 887 121.141 806.705 457.722
551 0 63.1346 15.0789 952 118.715 807.822 458.296
552 0 66.2029 16.5098 1093 117.14 808.737 458.596
553 0 71.1457 16.0235 1140 116.547 809.261 456.975
554 0 70.1496 20.1427 1413 111.397 809.646 460.342
555 0 73.2136 13.6723 1001 120.96 809.84 455.833
556 0 75.0689 15.6123 1172 119.974 811.695 456.339
557 0 77.1932 15.8693 1225 119.121 812.091 454.651
558 0 80.5586 15.1691 1222 121.442 813.202 452.857
559 0 81.3559 14.4427 1175 123.654 812.521 450.52
560 0 85.2827 13.6839 1167 124.134 812.183 451.311
561 0 89.2337 14.1538 1263 123.548 813.124 448.992
562 1 45.2335 12.6234 571 121.319 811.394 474.331
563 0 48.151 18.1305 873 112.611 811.733 474.566
564 0 51.2874 13.7461 705 118.665 810.953 474.372
565 0 52.2017 14.9037 778 119.072 810.557 469.474
566 0 54.0494 14.2277 769 117.867 811.14 473.018
567 0 56.2306 16.1478 908 113.464 811.599 474.11
568 0 59.112 15.6313 924 114.742 811.735 473.522
569 0 60.2414 15.9691 962 113.623 810.411 473.24
570 0 62.3806 16.2711 1015 114.613 810.464 470.479
571 0 67.4325 17.2172 1161 112.73 809.811 471.364
572 0 69.2123 18.0748 1251 111.157 807.74 468.608
573 0 71.3972 15.0426 1074 115.748 807.13 465.047
574 0 74.468 16.2217 1208 114.682 806.741 464.918
575 0 76.5909 15.7721 1208 114.935 805.96 463.572
576 0 79.3105 14.7774 1172 115.417 804.874 462.361
577 1 40.4116 13.3377 539 113.909 804.698 478.827
578 0 39.223 13.0026 510 116.016 804.757 475.408
579 0 43.3006 15.1268 655 111.74 804.655 473.502
580 0 46.3929 14.6574 680 113.304 806.013 472.278
581 0 48.3488 16.7739 811 109.874 804.551 471.042
582 0 49.2857 18.7073 922 110.491 804.474 470.078
583 0 49.2857 18.6464 919 127.193 804.459 470.04
584 0 51.5804 16.4791 850 114.335 806.252 465.019
585 0 52.6056 13.5917 715 117.924 805.951 465.222
586 0 55.3153 13.9744 773 115.812 805.965 461.95
587 0 59.029 12.8242 757 115.791 806.811 462.399
588 0 57.7258 12.5247 723 118.598 807.903 456.708
589 0 62.4491 14.9562 934 112.816 807.476 460.594
590 0 62.8093 15.0137 943 115.09 807.014 456.754
591 0 66.0169 14.0267 926 116.295 807.003 456.8
592 0 68.601 13.9794 959 117.379 809.239 452.485
593 0 68.601 13.7316 942 144.954 811.193 452.114
594 0 67.6849 12.3661 837 117.683 809.581 455.978
595 0 79.5803 16.3734 1303 111.155 810.566 452.05
596 0 77.6791 13.7489 1068 117.535 810.267 447.39
597 0 77.6791 13.6845 1063 145.091 810.269 447.36
598 0 84.8546 14.0829 1195 118.564 812.5 444.596
599 0 89.8315 15.9743 1435 114.696 812.413 444.012
600 0 92.3903 14.0816 1301 117.02 813.026 447.603
601 0 97.9638 15.4853 1517 116.638 813.947 441.966
602 1 47.5832 11.979 570 118.202 814.74 468.284
603 0 51.2639 12.4844 640 120.428 814.756 467.875
604 0 56.1083 19.5515 1097 108.002 814.603 468.752
605 0 55.2214 14.0887 778 115.874 815.081 470.573
606 0 60.3683 15.6373 944 112.983 815.113 470.772
607 0 60.4572 12.3889 749 119.064 813.497 469.457
608 0 66.317 14.491 961 114.215 814.392 470.496
609 0 66.4453 15.9379 1059 113.139 814.01 469.892
610 0 66.2918 13.5763 900 119.514 812.95 468.596
611 0 70.4265 16.4853 1161 114.9 811.974 465.823
612 0 77.53 20.6759 1603 104.761 812.774 472.331
613 0 73.1703 14.6508 1072 118.644 812.401 464.811
614 0 77.6162 13.8244 1073 119.781 812.042 464.526
615 0 83.6522 16.2817 1362 114.606 811.203 463.62
616 1 44.2866 14.6094 647 115.549 810.396 480.298
617 0 44.3832 12.73 565 120.496 809.129 477.657
618 0 44.3832 12.7075 564 145.282 808.094 477.574
619 0 45.0707 11.0271 497 123.095 807.817 474.686
620 0 51.5411 13.1351 677 117.975 807.79 475.007
621 0 53.2226 13.5845 723 117.29 807.914 470.934
622 0 52.2526 13.473 704 119.447 806.646 468.928
623 0 50.1946 11.6148 583 123.973 806.544 467.916
624 0 56.3719 14.1028 795 117.434 806.439 466.332
625 0 56.3909 14.0271 791 118.712 806.032 464.661
626 0 65.6025 15.8531 1040 112.087 807.006 463.059
627 0 60.2556 14.1232 851 118.343 806.448 461.991
628 0 63.3948 15.648 992 115.637 806.962 460.236
629 0 64.4553 14.0873 908 118.468 806.797 458.889
630 0 70.4119 16.2331 1143 113.898 806.782 453.404
631 0 69.417 15.7022 1090 142.884 806.709 452.702
632 0 72.4176 16.0458 1162 116.068 808.296 453.199
633 0 72.3501 17.83 1290 114.186 806.9 453.007
634 0 75.2689 16.1023 1212 117.046 808.322 451.334
635 0 77.1547 12.0537 930 124.403 808.812 449.134
636 0 82.4029 14.9145 1229 118.94 809.282 445.258
637 0 81.4059 13.7459 1119 122.583 810.256 443.979
638 0 83.6055 14.9153 1247 118.986 811.482 449.735
639 0 86.2342 15.2028 1311 119.061 811.654 444.784
640 0 90.2267 16.0374 1447 117.655 812.353 444.044
641 0 94.2383 17.6786 1666 114.435 812.465 444.296
642 0 95.4265 16.7459 1598 116.948 814.202 440.709
643 0 98.7801 18.9006 1867 112.567 813.648 443.812
644 0 99.2997 16.8581 1674 117.1 813.694 438.125
645 0 103.631 15.6035 1617 119.332 813.85 438.169
646 0 104.457 15.2312 1591 120.127 813.245 435.942
647 0 111.681 16.1173 1800 117.29 814.113 437.68
648 0 110.751 14.7087 1629 120.274 814.547 438.79
649 0 118.355 13.7805 1631 121.934 813.405 434.386
650 0 121.84 14.6668 1787 120.404 813.297 437.08
651 0 121.795 13.9086 1694 123.044 812.655 430.506
652 0 128.663 14.0523 1808 122.035 813.413 430.741
653 0 134.676 12.9867 1749 123.499 813.392 430.788
654 0 137.864 15.363 2118 119.812 812.389 428.159
655 0 142.74 14.0045 1999 120.7 810.461 429.279
656 0 147.796 17.0844 2525 114.889 810.585 426.215
657 1 80.721 10.0593 812 118.616 811.084 464.399
658 0 82.4555 16.1905 1335 112.697 809.933 459.473
659 0 87.7819 13.9437 1224 116.987 809.984 454.883
660 0 86.6975 12.1457 1053 120.95 807.926 450.085
661 0 88.7797 11.6806 1037 122.162 807.725 447.102
662 0 91.7184 13.814 1267 119.076 808.06 449.078
663 0 95.4058 16.5294 1577 115.014 807.892 443.528
664 0 99.6091 14.2959 1424 119.205 807.129 442.348
665 0 100.747 11.9309 1202 123.282 807.507 440.389
666 0 104.391 11.6006 1211 125.573 806.506 435.576
667 0 109.894 14.1501 1555 119.828 806.516 439.623
668 0 112.754 14.3676 1620 119.92 805.236 434.169
669 0 116.144 17.1339 1990 116.073 805.882 433.697
670 0 116.478 15.2218 1773 121.69 806.731 424.834
671 0 120.74 12.5062 1510 126.456 806.314 425.171
672 0 125.7 14.7415 1853 122.448 806.592 425.299
673 0 127.72 15.7454 2011 121.974 806.802 421.457
674 0 130.576 16.274 2125 123.213 807.394 416.85
675 0 133.578 13.7372 1835 128.95 807.754 417.016
676 0 138.754 16.0861 2232 125.673 808.138 408.364
677 0 140.57 15.3234 2154 127.749 808.624 407.104
678 0 145.471 16.5737 2411 125.42 808.988 407.632
679 0 147.916 17.0975 2529 126.404 810.32 402.132
680 0 153.705 15.1199 2324 131.287 811.497 405.538
681 0 159.705 15.5286 2480 131.704 811.952 401.491
682 0 164.692 15.0098 2472 133.426 812.057 398.271
683 0 167.543 14.9573 2506 134.243 811.985 395.46
684 0 173.594 15.254 2648 133.689 812.907 383.477
685 0 183.564 14.2294 2612 135.423 813.936 388.941
686 0 188.531 15.2017 2866 133.101 815.157 390.413
687 1 82.2143 10.7037 880 140.33 814.088 406.899
688 0 86.4929 13.0184 1126 132.792 814.596 409.192
689 0 89.3979 12.4723 1115 136.755 814.388 401.317
690 1 27.0189 5.51465 149 104.161 813.678 482.195
691 0 27.1005 6.45745 175 103 812.046 480.863
692 0 29.0711 3.33665 97 107.082 812.536 478.959
693 0 33.1787 5.36489 178 105.062 813.461 483.393
694 0 33.218 5.20802 173 98.7283 814.41 483.532
695 0 29.0834 3.1977 93 109.871 813.688 484.086
696 0 35.1335 5.18025 182 106.923 812.72 481.769
697 0 25.044 4.99121 125 106.344 811.672 487.592
698 0 33.0952 6.28489 208 104.649 811.731 483.466
699 0 30.0667 3.49224 105 108.838 810.267 484.371
700 1 122.032 4.87576 595 138.161 810.24 435.318
701 1 83.0411 7.46618 620 164.642 808.252 409.016
702 0 74.481 7.20989 537 181.786 806.231 402.063
703 0 73.7812 8.72851 644 176.783 806.957 406.161
704 0 77.6147 10.7067 831 174.535 806.433 412.775
705 0 80.3134 13.3975 1076 168.491 805.204 414.12
706 0 81.9789 10.6735 875 177.218 804.825 416.52
707 0 76.948 12.9828 999 178.402 805.104 414.42
708 0 80.7421 14.1066 1139 172.546 804.947 416.131
709 0 77.6035 12.8602 998 181.526 805.055 412.548
710 0 80.5711 13.2554 1068 177.385 805.605 419.028
711 0 77.109 15.5365 1198 172.239 805.509 421.497
712 0 73.1799 10.5767 774 201.141 804.858 409.327
713 0 79.3141 14.3985 1142 180.018 804.361 415.822
714 1 115.701 18.6948 2163 160.032 806.217 400.249
715 1 213.833 9.10993 1948 176.547 804.654 382.971
716 0 203 7.79309 1582 180.331 806.42 387.886
717 1 170.197 12.6971 2161 164.937 806.447 388.589
718 1 128.054 19.5856 2508 154.793 806.865 385.053
719 0 127.484 17.9709 2291 158.965 806.154 379.694
720 0 134.283 16.5695 2225 162.122 807.855 376.044
721 0 131.864 16.0771 2120 165.261 807.156 373.772
722 0 132.029 16.3979 2165 164.472 808.29 375.875
723 0 135.295 18.9586 2565 158.195 808.195 375.573
724 0 135.87 13.6381 1853 174.402 808.543 374.085
725 0 129.027 5.54924 716 212.686 809.718 379.471
726 1 175.246 10.7278 1880 174.032 810.395 367.173
727 1 140.507 13.1026 1841 174.394 811.709 361.777
728 0 142.83 17.0482 2435 161.268 811.478 362.203
729 0 143.353 15.4234 2211 167.395 812.102 358.854
730 0 147.827 16.756 2477 161.346 812.375 355.229
731 0 151.571 14.4685 2193 167.505 812.955 344.332
732 1 207.273 13.2 2736 157.668 812.007 362.461
733 0 209.871 7.97157 1673 182.714 813.372 339.521
734 0 200.903 9.31293 1871 176.413 812.797 341.295
735 1 149.868 13.692 2052 170.036 811.799 351.719
736 1 241.548 9.53021 2302 102.564 811.128 400.224
737 0 246.715 19.0666 4704 89.4356 810.832 382.017
738 0 245.386 9.97203 2447 101.198 810.806 394.144
739 0 246.587 11.6308 2868 100.114 809.579 392.401
740 1 97.454 8.6605 844 109.41 809.088 459.395
741 0 96.5356 10.276 992 112.376 811.168 456.43
742 0 96.3348 10.858 1046 110.158 810.228 457.872
743 1 57.4455 11.2803 648 111.369 807.948 474.674
744 0 57.3879 15.3342 880 103.894 808.416 477.969
745 0 58.2377 12.2429 713 111.067 808.144 472.537
746 0 56.4573 10.6452 601 115.536 807.521 470.491
747 0 58.522 9.68866 567 114.496 805.727 472.85
748 0 66.4485 23.5521 1565 94.7847 806.78 473.474
749 0 62.7102 11.6249 729 111.881 804.875 472.232
750 0 73.4551 9.28458 682 114.009 805.196 471.535
751 0 72.891 9.28784 677 117.626 804.337 464.941
752 0 72.6706 14.7377 1071 105.728 805.265 464.892
753 0 68.3299 10.142 693 111.996 804.576 461.983
754 0 72.6401 12.8304 932 108.023 805.948 461.029
755 1 130.751 12.237 1600 114.77 805.603 433.686
756 1 73.2486 12.3688 906 111.033 804.653 456.414
757 0 74.2204 11.5602 858 110.585 806.15 457.64
758 0 78.5492 11.5724 909 111.076 806 456.363
759 0 75.3378 11.9595 901 109.805 805.996 458.789
760 0 83.3472 15.3334 1278 104.26 805.535 455.494
761 0 85.5945 14.8024 1267 104.037 806.701 455.509
762 0 86.3338 10.969 947 110.433 806.561 448.194
763 0 90.2875 10.8653 981 111.528 808.045 446.313
764 1 51.0765 11.1989 572 103.231 807.295 467.215
765 0 53.3371 15.5051 827 102.82 809.432 460.791
766 0 56.3223 17.1513 966 99.9928 809.229 454.806
767 0 55.424 10.6993 593 110.788 809.381 455.238
768 0 56.3891 10.5694 596 113.027 810.05 456.96
769 0 60.3463 14.0191 846 106.281 811.215 459.59
770 0 59.566 12.5743 749 109.86 811.956 458.503
771 0 60.7006 11.5155 699 109.565 812.013 463.275
772 0 61.2533 11.0688 678 111.062 810.928 462.409
773 0 61.6211 9.00666 555 116.15 812.344 461.645
774 0 64.4362 16.4969 1063 105.18 812.93 460.799
775 0 65.5571 12.4014 813 111.378 813.309 460.966
776 0 68.3628 12.9017 882 110.954 813.08 463.234
777 0 71.3385 17.7744 1268 104.054 812.572 465.366
778 0 72.2923 13.7636 995 109.925 812.651 463.749
779 0 75.5674 14.5036 1096 109.521 812.983 463.317
780 0 77.2621 13.7066 1059 112.199 812.975 461.268
781 0 80.3377 14.9618 1202 108.954 812.712 463.417
782 1 39.1862 10.5394 413 111.567 810.719 481.383
783 0 42.1229 8.80756 371 113.792 811.739 483.326
784 0 44.3046 13.3846 593 109.221 810.228 478.853
785 0 48.0663 16.9974 817 106.332 809.994 473.334
786 0 47.2954 13.6377 645 112.138 809.127 475.177
787 0 51.1557 14.7784 756 111.25 809.885 472.32
788 0 52.0816 15.8213 824 109.414 809.243 472.297
789 0 53.1046 14.0477 746 112.11 808.365 474.039
790 0 53.1046 13.8218 734 148.075 808.387 474.022
791 0 54.0305 13.4739 728 115.988 807.662 471.103
792 0 52.2155 11.2993 590 122.5 806.853 466.946
793 0 57.1777 13.5892 777 115.286 807.035 469.188
794 0 57.2613 15.5428 890 113.943 807.043 463.134
795 0 57.1715 12.1739 696 120.944 805.934 462.894
796 0 60.5074 14.8081 896 113.786 806.493 466.781
797 0 59.2086 13.4271 795 119.683 807.272 462.909
798 0 61.1647 12.0167 735 119.152 806.517 466.739
799 0 62.3033 14.4294 899 116.152 807.077 463.077
800 0 64.1605 14.2611 915 116.541 806.208 459.801
801 0 62.1732 9.84347 612 123.855 807.113 458.389
802 0 69.2514 14.0503 973 117.345 806.589 455.152
803 0 71.1689 13.7139 976 118.94 807.451 451.551
804 0 72.1726 11.6942 844 122.695 808.449 454.88
805 0 75.2352 15.6443 1177 115.781 809.894 450.63
806 0 78.3289 15.8307 1240 115.563 809.16 448.744
807 0 80.2357 13.8467 1111 120.881 809.659 447.183
808 0 82.2577 16.4118 1350 115.649 811.956 452.341
809 1 45.0752 11.0704 499 121.92 813.03 466.146
810 0 47.0956 11.4236 538 121.086 813.309 466.825
811 0 48.08 11.4393 550 120.962 813.071 467.302
812 0 53.083 16.5213 877 109.49 813.239 467.065
813 0 51.1052 11.7992 603 117.59 813.824 463.063
814 0 49.1577 10.9037 536 120.282 814.088 467.244
815 0 53.2344 10.6886 569 117.67 813.97 468.612
816 0 55.1901 11.7775 650 118.632 814.018 465.431
817 0 57.1644 13.365 764 115.973 813.817 462.94
818 0 58.1263 13.4535 782 116.659 813.217 466.555
819 0 62.1542 14.3997 895 118.905 813.574 465.372
820 0 65.1269 14.633 953 118.695 813.971 466.494
821 0 65.1269 14.6483 954 140.347 814.977 466.759
822 0 67.1142 15.794 1060 116.753 813.867 466.831
823 0 69.1817 14.8883 1030 119.157 813.616 464.326
824 0 69.2253 14.7778 1023 119.979 812.983 464.333
825 0 74.1914 14.6243 1085 119.067 811.989 463.059
826 0 78.2697 18.1041 1417 112.535 812.797 460.07
827 0 76.1355 11.9392 909 123.553 811.667 460.251
828 0 80.2025 14.1018 1131 118.732 811.705 463.034
829 0 84.3096 13.3555 1126 118.712 810.356 460.405
830 0 88.2954 16.8185 1485 112.439 809.916 460.07
831 1 46.0482 10.0764 464 116.519 808.06 477.935
832 0 49.1011 10.8144 531 115.576 807.808 475.947
833 0 50.2893 14.4564 727 110.547 807.448 475.429
834 0 50.0669 13.5219 677 113.538 807.92 469.931
835 0 52.1459 11.2952 589 115.593 809.046 473.374
836 0 56.1395 15.3902 864 109.183 808.454 471.594
837 0 58.1677 13.3579 777 118.42 809.551 466.521
838 0 58.1641 11.5707 673 122.513 807.793 465.403
839 0 60.1688 13.512 813 118 806.875 462.389
840 0 64.3834 13.5905 875 117.137 807.097 462.029
841 0 66.2063 13.0199 862 117.259 807.943 461.317
842 0 69.1891 12.9356 895 118.049 808.078 457.325
843 0 72.0793 11.1128 801 121.28 807.4 453.528
844 0 71.0904 10.5921 753 123.013 808.077 452.154
845 0 76.2275 12.3446 941 116.601 808.224 455.548
846 0 77.3121 10.9427 846 121.525 806.66 448.137
847 1 46.0576 10.8777 501 113.976 808.12 465.244
848 0 45.0652 15.4221 695 105.925 810.134 468.042
849 0 45.0556 9.8323 443 113.65 809.273 465.6
850 0 45.0704 9.51844 429 113.979 811.14 466.368
851 0 47.1408 12.4945 589 109.278 811.024 467.431
852 0 49.1389 11.844 582 110.722 812.687 467.923
853 0 49.0955 12.5266 615 110.68 810.98 466.993
854 0 53.1075 12.7289 676 110.734 813.033 465.799
855 0 50.0703 11.1643 559 115.775 813.208 463.764
856 0 54.1011 9.14954 495 117.495 813.651 465.537
857 0 54.0696 11.0043 595 115.561 813.824 464.165
858 0 56.0554 13.8434 776 110.076 814.008 465.68
859 0 57.1214 12.027 687 114.1 814.323 464.163
860 0 59.1676 11.4421 677 115.635 813.551 464.947
861 0 61.0941 13.0291 796 113.928 815.136 460.02
862 0 63.1543 10.6089 670 116.352 813.943 468.13
863 0 62.2702 11.1931 697 118.168 814.029 461.176
864 0 66.1607 12.1522 804 113.699 812.374 467.966
865 0 69.1735 11.6663 807 116.885 812.724 464.072
866 0 72.0906 14.4263 1040 113.345 813.547 462.392
867 0 72.0906 14.3847 1037 125.899 813.54 462.322
868 0 74.1061 9.51338 705 122.287 812.64 462.803
869 0 79.1176 12.374 979 117.522 812.137 463.445
870 0 84.1401 13.6558 1149 117.216 811.783 459.249
871 0 83.185 12.346 1027 117.459 811.428 463.582
872 1 51.1102 11.2306 574 120.073 809.805 477.446
873 0 52.0895 11.8066 615 121.376 808.65 474.925
874 0 52.0895 11.9218 621 134.277 807.639 474.907
875 0 52.0867 12.94 674 118.813 809.39 471.847
876 0 52.0867 12.9208 673 125.88 810.361 471.817
877 0 51.0775 10.1806 520 123.102 808.002 473
878 0 57.182 14.1128 807 116.625 808.052 470.16
879 0 59.1669 10.5464 624 123.78 806.691 468.569
880 0 59.0955 10.7115 633 124.382 807.384 466.415
881 0 64.2995 12.3951 797 119.69 805.601 465.223
882 0 64.3542 9.54094 614 123.845 805.342 465.609
883 0 68.1787 11.8365 807 120.146 805.537 460.719
884 0 71.2523 12.7013 905 116.003 805.69 461.283
885 0 71.3039 12.4117 885 117.128 805.606 456.816
886 0 73.2789 9.60713 704 120.249 806.205 457.964
887 0 72.2855 11.0396 798 120.407 806.57 453.901
888 0 80.0993 11.7105 938 118.737 806.196 452.737
889 0 79.0948 11.8339 936 124.884 805.181 452.812
890 1 52.2273 9.82244 513 121.31 806.828 468.043
891 0 50.4496 10.9813 554 122.325 808.06 466.356
892 1 137.703 12.3963 1707 127.553 809.529 425.548
893 0 132.802 8.09478 1075 131.838 809.395 436.972
894 0 135.927 10.3511 1407 130.293 811.466 431.07
895 0 134.931 7.88553 1064 136.839 811.115 428.943
896 0 137.198 10.6124 1456 131.273 811.462 430.312
897 1 59.6094 13.5549 808 123.293 811.5 461.4
898 0 59.1862 12.0805 715 125.807 811.934 461.008
899 1 104.541 13.191 1379 125.304 812.257 439.492
900 0 104.541 13.0093 1360 138.365 811.257 439.671
901 0 110.637 9.48146 1049 132.438 812.511 437.679
902 0 116.528 9.79165 1141 128.237 813.638 445.433
903 0 119.822 10.6074 1271 127.231 813.299 445.037
904 1 73.4564 13.8858 1020 124.586 814.534 454.334
905 0 73.4564 14.0219 1030 137.929 815.533 454.331
906 0 74.2577 13.5205 1004 125.628 813.435 458.167
907 0 76.3211 13.0632 997 126.808 813.6 457.18
908 0 80.2881 12.4302 998 126.973 813.35 459.905
909 0 81.2117 12.3751 1005 129.158 813.077 454.329
910 0 83.3577 12.9682 1081 127.028 812.316 456.218
911 0 87.1187 13.6366 1188 126.518 812.181 453.026
912 0 92.4581 13.9631 1291 124.641 811.903 453.779
913 0 96.1973 17.5265 1686 118.575 810.122 450.483
914 0 95.2217 15.2276 1450 122.825 810.839 452.39
915 0 97.3903 12.5885 1226 128.894 810.668 449.024
916 0 100.527 11.6784 1174 130.775 809.193 443.623
917 0 107.358 12.7983 1374 129.06 808.229 445.76
918 0 113.264 11.6542 1320 129.583 807.394 448.774
919 0 113.427 12.9157 1465 126.919 807.948 441.41
920 0 114.441 17.1704 1965 117.971 807.489 446.091
921 0 120.305 12.0693 1452 128.104 808.181 438.3
922 0 120.565 11.0645 1334 132.952 807.05 440.76
923 0 118.408 10.903 1291 135.99 807.499 439.48
924 1 70.3395 12.5818 885 129.238 806.198 457.803
925 0 74.2914 13.972 1038 125.484 806.448 459.252
926 0 79.3553 11.4926 912 129.228 806.356 454.43
927 0 78.3265 12.8947 1010 125.543 806.643 456.804
928 0 79.3475 11.5568 917 131.166 807.143 451.879
929 0 84.311 13.723 1157 126.745 807.442 450.022
930 0 88.3864 13.2713 1173 126.624 806.416 447.369
931 1 48.162 9.07355 437 129.421 808.616 465.913
932 0 50.1406 9.83235 493 129.152 808.065 461.669
933 0 52.137 13.0042 678 119.378 809.314 464.63
934 0 50.2151 10.2957 517 121.99 809.522 465.13
935 0 53.0811 12.415 659 124.052 810.584 462.841
936 0 55.1267 11.918 657 123.773 811.549 461.77
937 0 58.1115 12.9234 751 121.867 811.92 460.435
938 0 59.1093 13.5681 802 118.828 812.324 462.414
939 0 59.0963 11.9128 704 124.827 813.095 457.893
940 0 62.1461 14.5625 905 118.401 812.653 460.315
941 0 64.3575 12.2441 788 122.835 813.076 459.307
942 0 63.0957 13.3924 845 122.064 814.052 456.099
943 0 66.1364 14.9388 988 118.056 813.302 458.453
944 0 67.317 10.5025 707 124.157 814.208 460.737
945 0 70.1376 15.9116 1116 114.289 814.072 456.23
946 0 73.1884 12.7616 934 119.24 813.047 458.669
947 0 77.2173 12.4843 964 118.851 813.617 457.295
948 0 77.2163 12.2901 949 119.458 813.818 457.592
949 0 78.3661 12.3778 970 119.487 814.676 457.098
950 0 81.1413 15.0602 1222 114.535 814.146 458.596
951 1 44.0885 12.7698 563 112.293 813.321 476.766
952 0 42.2053 11.8705 501 113.707 813.447 479.449
953 0 44.1155 9.54312 421 117.689 813.021 477.967
954 0 49.1535 13.6308 670 112.925 812.957 475.039
955 0 49.1284 12.9253 635 115.035 811.849 476.757
956 0 52.2682 13.6221 712 114.499 811.928 474.333
957 0 54.1508 11.8558 642 117.209 810.836 474.368
958 0 55.2823 12.6261 698 116.705 810.42 471.301
959 0 59.2121 12.5481 743 116.459 810.38 471.704
960 0 59.1799 11.8114 699 118.113 809.152 473.548
961 0 62.1986 11.9456 743 117.148 807.68 473.598
962 0 62.4165 12.0481 752 118.602 806.415 467.185
963 0 66.4167 11.8795 789 118.598 808.605 471.17
964 0 67.5922 16.6439 1125 111.428 806.303 467.795
965 0 70.5036 13.8716 978 120.842 806.589 463.534
966 0 73.452 13.0289 957 121.676 806.416 462.269
967 0 73.5133 13.3309 980 121.943 806.54 456.737
968 0 76.3523 14.695 1122 119.391 806.604 452.871
969 0 84.5988 13.9836 1183 119.566 807.12 456.301
970 0 81.2363 14.4147 1171 119.26 805.526 456.536
971 0 83.2267 15.0192 1250 119.466 806.402 449.578
972 0 86.5022 12.9592 1121 122.029 805.937 449.047
973 0 90.5102 13.7664 1246 119.465 806.945 449.223
974 0 91.3236 14.5526 1329 118.257 806.351 447.964
975 0 95.1081 12.7118 1209 121.897 806.58 445.631
976 1 53.217 12.6839 675 114.065 808.046 466.142
977 0 50.1004 14.0318 703 114.218 807.602 464.855
978 0 51.081 12.7249 650 118.157 808.091 462.391
979 0 54.1081 10.6823 578 118.389 809.716 463.644
980 0 55.1016 14.7909 815 112.672 810.054 461.469
981 0 57.1287 15.4738 884 111.575 811.273 464.626
982 0 55.2147 9.94301 549 122.383 810.652 462.842
983 0 60.2045 13.8528 834 113.267 811.433 462.236
984 0 59.0639 12.8843 761 115.104 812.671 460.904
985 0 63.3166 16.5044 1045 107.908 812.5 461.874
986 0 62.1957 12.1069 753 112.251 813.628 462.552
987 0 65.1229 12.9908 846 113.788 812.259 461.288
988 0 67.1588 11.1825 751 114.411 813.14 463.453
989 0 68.5137 11.5159 789 115.568 814.035 457.039
990 0 72.3449 16.7807 1214 105.327 815.165 464.922
991 0 74.3404 13.4113 997 109.924 814.335 462.769
992 0 76.2951 17.5241 1337 107.096 814.859 460.088
993 0 77.1752 10.2365 790 113.043 814.618 460.594
994 0 81.1724 12.3564 1003 114.537 814.214 459.281
995 0 85.165 15.1118 1287 111.472 813.411 456.718
996 0 85.1604 12.8229 1092 114.196 811.865 458.168
997 0 89.1723 13.5132 1205 119.337 812.339 452.634
998 0 94.4001 14.3326 1353 118.414 812.498 453.936
999 0 91.2829 11.6342 1062 121.342 811.745 447.58
1000 0 99.391 11.7516 1168 120.327 810.569 451.384
1001 0 99.3881 11.7519 1168 131.845 808.566 451.494
1002 0 108.392 14.3553 1556 117.513 808.745 448.746
1003 0 109.588 14.9013 1633 117.078 808.068 449.466
1004 0 113.387 12.1795 1381 119.455 806.67 448.957
1005 0 117.371 14.0666 1651 120.892 806.553 440.746
1006 1 54.0313 12.4928 675 115.889 807.133 466.699
1007 0 58.1413 9.9929 581 118.289 807.441 471.334
1008 0 59.0398 11.1281 657 117.376 806.245 468.19
1009 0 60.0879 8.80377 529 117.202 805.386 472.781
1010 0 61.1486 11.9218 729 115.604 806.652 468.704
1011 0 63.2583 14.3855 910 113.248 806.52 463.775
1012 0 62.1446 9.07561 564 119.867 805.798 465.098
1013 0 66.1356 14.4552 956 113.718 806.334 457.651
1014 0 71.1108 12.7407 906 115.374 806.31 459.322
1015 0 75.1567 7.31805 550 120.544 801.533 460.582
1016 0 76.1671 13.6936 1043 114.712 802.717 451.611
1017 0 79.3262 8.83693 701 120.134 803.508 453.708
1018 0 79.2959 10.1266 803 120.674 803.859 449.661
1019 0 80.0979 9.71311 778 121.094 807.492 450.528
1020 0 88.1981 13.6057 1200 115.468 807.591 446.868
1021 0 92.1119 11.866 1093 117.904 808.017 442.573
1022 0 91.3103 7.62236 696 122.411 808.135 451.994
1023 0 97.3156 11.5398 1123 120.261 808.671 440.171
1024 0 100.397 13.7753 1383 118.226 809.858 441.636
1025 0 103.666 10.1094 1048 125.595 810.817 439.456
1026 0 108.371 11.6728 1265 122.875 812.161 436.777
1027 0 108.301 12.8623 1393 122.487 813.368 435.009
1028 0 112.499 11.9201 1341 121.723 813.648 441.029
1029 0 116.41 13.3493 1554 120.383 814.317 436.384
1030 0 120.655 12.6891 1531 122.139 815.888 431.623
1031 1 69.3152 13.1861 914 120.318 816.121 456.467
1032 0 70.1853 10.401 730 122.858 815.684 460.901
1033 0 72.3439 11.9153 862 120.607 816.745 457.615
1034 0 75.3418 11.6403 877 120.546 815.173 458.241
1035 0 77.2599 11.2995 873 121.323 814.777 457.292
1036 0 84.5052 11.1117 939 121.447 815.132 455.095
1037 0 84.1986 14.1808 1194 115.181 812.024 459.634
1038 0 86.2018 9.91858 855 122.06 814.361 456.261
1039 1 47.0942 12.4007 584 111.156 811.24 475.865
1040 0 48.121 9.12284 439 114.141 811.28 481.961
1041 0 50.0508 10.5693 529 113.113 810.372 478.975
1042 0 48.0582 10.7578 517 114.636 811.505 479.284
1043 0 48.0587 9.38435 451 116.2 810.058 478.927
1044 0 52.1431 11.8328 617 111.319 809.914 480.699
1045 0 51.0502 9.63757 492 114.886 808.467 480.187
1046 0 56.1018 13.5646 761 109.298 808.117 476.95
1047 1 111.596 12.0614 1346 123.53 808.639 444.052
1048 0 112.413 10.4881 1179 125.845 807.669 444.779
1049 0 117.301 12.242 1436 123.155 806.877 443.064
1050 0 122.397 14.1997 1738 119.288 806.909 442.437
1051 0 126.103 14.7816 1864 117.494 805.203 439.087
1052 0 129.841 12.9543 1682 120.514 806.02 438.369
1053 0 125.664 10.6315 1336 123.159 805.625 437.085
1054 0 126.664 10.8318 1372 122.351 805.882 435.639
1055 0 124.601 7.10269 885 121.394 805.661 444.838
1056 0 124.328 5.15574 641 123.027 804.285 446.465
1057 0 131.593 6.54288 861 120.724 805.232 444.231
1058 1 39.0441 7.93974 310 113.326 804.871 475.432
1059 0 43.1035 11.0432 476 107.84 805.057 472.973
1060 0 44.0635 11.0522 487 108.448 805.222 468.63
1061 0 42.1509 14.4955 611 103.398 807.039 472.617
1062 0 41.0624 12.2253 502 107.313 806.169 472.466
1063 0 41.0624 12.2984 505 106.265 805.172 472.37
1064 0 47.1154 9.59346 452 111.011 807.179 467.381
1065 1 101.375 15.3096 1552 110.289 808.279 438.69
1066 0 103.395 14.4978 1499 110.995 808.626 438.171
1067 0 102.696 10.3606 1064 116.852 809.521 438.726
1068 0 104.605 14.3874 1505 110.171 809.796 438.892
1069 0 105.727 10.6785 1129 116.044 810.623 432.494
1070 0 112.428 11.8031 1327 113.373 811.799 434.156
1071 0 116.991 10.7701 1260 114.149 811.661 433.313
1072 0 120.632 12.1112 1461 110.618 811.5 442.171
1073 0 124.313 15.6219 1942 107.474 812.187 435.401
1074 0 125.287 13.5688 1700 108.991 813.495 439.192
1075 0 124.791 12.6772 1582 111.875 813.303 433.691
1076 1 139.642 17.1081 2389 106.369 813.276 426.696
1077 0 143.751 12.5982 1811 111.371 812.92 421.141
1078 1 116.928 11.4087 1334 111.957 813.521 439.379
1079 1 75.4687 10.8654 820 107.756 813.139 466.821
1080 0 79.4272 12.7916 1016 108.24 813.585 464.414
1081 0 83.5972 15.2756 1277 106.248 812.482 461.716
1082 0 87.6016 14.8285 1299 107.89 813.579 454.169
1083 0 86.2693 10.9193 942 113.435 812.072 455.53
1084 0 94.7468 13.2142 1252 109.646 811.918 456.158
1085 0 97.4845 14.0638 1371 108.713 811.501 458.507
1086 0 98.6737 11.533 1138 113.936 810.808 450.608
1087 0 107.717 18.038 1943 103.69 810.014 457.978
1088 0 108.543 13.0455 1416 112.432 809.761 447.566
1089 0 110.65 10.4202 1153 114.195 808.697 455.18
1090 1 60.1209 13.7723 828 107.271 808.217 472.33
1091 0 66.2605 12.1641 806 113.13 806.252 470.984
1092 0 67.2542 16.5045 1110 107.379 805.323 472.511
1093 0 68.2159 13.2081 901 111.76 805.842 468.107
1094 0 70.0458 15.704 1100 108.783 805.663 465.109
1095 0 71.1477 17.035 1212 104.415 805.632 472.787
1096 0 74.1327 14.5145 1076 110.371 804.82 462.536
1097 0 74.0795 12.8241 950 113.403 804.852 463.752
1098 0 79.0729 11.9257 943 109.608 806.761 464.432
1099 0 82.3202 15.6705 1290 106.299 805.367 457.113
1100 0 85.3366 12.8433 1096 111.193 805.565 454.905
1101 0 86.2889 20.0142 1727 102.169 805.551 457.126
1102 0 91.3834 21.667 1980 100.853 806.455 448.648
1103 0 93.1951 16.7498 1561 105.848 805.997 450.65
1104 0 95.3056 14.4273 1375 109.065 805.093 448.555
1105 0 99.318 12.7268 1264 111.127 805.412 447.17
1106 1 54.1362 13.0227 705 109.047 805.42 468.373
1107 0 54.2179 12.6895 688 112.66 807.273 462.619
1108 0 58.0803 12.3105 715 111.794 806.748 463.203
1109 0 59.2531 14.6153 866 108.838 808.345 460.301
1110 0 59.0667 13.6794 808 109.606 809.13 463.478
1111 0 65.101 14.393 937 109.215 808.158 457.52
1112 0 68.1246 14.8698 1013 108.589 809.839 455.955
1113 0 69.1305 15.666 1083 107.572 810.71 456.875
1114 0 71.202 14.2833 1017 108.901 811.088 454.128
1115 0 73.4467 10.0481 738 113.917 812.008 463.463
1116 0 76.3042 12.0832 922 112.252 811.164 454.57
1117 0 79.2598 12.6041 999 111.901 812.075 454.972
1118 0 78.2735 11.3448 888 113.383 810.788 455.126
1119 0 83.3004 10.06 838 114.07 811.815 452.795
1120 0 86.2927 12.8632 1110 109.975 811.976 457.289
1121 0 88.1856 11.3737 1003 111.163 811.186 461.039
1122 0 89.4287 11.9425 1068 111.356 811.43 458.193
1123 0 97.3759 15.4453 1504 107.402 811.975 452.306
1124 0 99.6904 15.5883 1554 108.397 811.129 450.134
1125 0 102.232 18.3113 1872 106.561 811.596 448.238
1126 0 103.369 18.8548 1949 106.035 810.801 451.924
1127 0 106.448 11.7522 1251 116.674 810.197 451.696
1128 0 111.226 14.0525 1563 114.494 810.756 442.77
1129 1 60.3334 11.3702 686 112.069 807.783 475.214
1130 0 63.2553 13.4534 851 108.197 806.77 473.709
1131 0 65.2144 12.4359 811 109.782 806.079 471.07
1132 0 71.3498 18.178 1297 103.078 806.552 467.141
1133 0 72.3689 14.5919 1056 106.958 805.783 468.583
1134 0 73.1976 14.8639 1088 108.733 806.348 464.39
1135 0 73.2571 9.59634 703 118.117 803.239 462.118
1136 0 79.5856 14.3242 1140 110.038 804.822 460.873
1137 0 80.535 12.4294 1001 114.648 804.122 454.42
1138 0 80.535 12.4294 1001 140.917 804.144 454.685
1139 0 87.5788 13.8961 1217 113.723 803.787 458.283
1140 0 86.4455 12.9561 1120 117.676 803.324 453.102
1141 0 91.3488 13.6948 1251 114.707 802.665 454.719
1142 0 94.512 18.294 1729 109.046 803.577 446.628
1143 0 95.3669 13.2226 1261 115.658 802.262 448.7
1144 0 98.2501 12.2341 1202 118.251 801.623 442.222
1145 0 104.205 16.1604 1684 112.264 801.55 440.012
1146 1 52.0591 11.0836 577 115.932 802.932 459.742
1147 0 54.1419 8.79171 476 118.357 803.418 455.532
1148 0 57.1062 11.68 667 115.321 802.939 455.654
1149 0 61.1319 13.4627 823 111.555 802.699 453.473
1150 0 65.0808 12.9378 842 112.21 804.822 453.226
1151 0 63.0772 13.3963 845 110.969 808.813 456.606
1152 0 64.0593 12.504 801 111.884 808.211 455.698
1153 0 65.0994 10.1076 658 115.319 810.529 453.419
1154 0 65.0994 10.0154 652 130.641 812.537 453.586
1155 0 73.3586 13.0046 954 110.232 811.623 453.992
1156 0 76.1527 12.8426 978 112.004 812.018 449.926
1157 0 79.1785 14.4231 1142 109.929 811.182 451.746
1158 0 77.1319 11.9665 923 115.431 812.338 447.625
1159 0 86.4616 15.4288 1334 107.76 812.145 452.382
1160 0 85.3014 13.4113 1144 112.065 813.862 449.45
1161 0 87.2038 11.3871 993 115.809 812.401 447.777
1162 0 89.2795 13.1385 1173 114.114 813.998 446.77
1163 0 92.4502 15.5868 1441 110.447 813.599 449.638
1164 0 94.4625 15.35 1450 112.586 813.397 444.755
1165 0 101.307 17.0471 1727 107.836 813.923 447.425
1166 0 105.296 13.5713 1429 113.917 813.742 441.775
1167 0 111.059 21.8893 2431 103.375 813.614 441.866
1168 0 101.335 11.8123 1197 120.915 813.544 443.843
1169 0 109.384 13.64 1492 117.983 812.965 439.795
1170 0 112.211 18.7682 2106 110.695 811.859 445.456
1171 0 114.302 18.4862 2113 112.408 810.992 439.149
1172 0 122.422 13.0696 1600 119.006 811.266 442.039
1173 0 125.441 20.3443 2552 109.576 810.229 434.455
1174 0 129.355 13.9539 1805 117.798 808.525 436.943
1175 0 131.579 13.6648 1798 119.549 809.526 427.69
1176 0 138.587 16.5022 2287 114.67 808.259 427.495
1177 0 139.567 14.9964 2093 115.079 808.023 432.295
1178 1 80.3449 13.7283 1103 110.607 805.954 457.403
1179 0 81.1984 12.0199 976 111.043 806.04 460.135
1180 0 85.2297 14.6428 1248 106.996 805.381 460.093
1181 0 93.709 18.2586 1711 101.265 805.463 452.825
1182 0 91.3149 20.0953 1835 100.56 805.131 448.397
1183 0 95.1931 20.5162 1953 100.698 805.284 453.894
1184 0 93.2031 14.1626 1320 109.433 805.146 452.661
1185 0 96.3021 11.547 1112 113.074 804.748 451.012
1186 0 102.534 21.3099 2185 100.949 804.443 445.145
1187 0 105.311 18.1367 1910 105.106 804.652 444.382
1188 0 106.445 21.0813 2244 102.573 804.664 434.979
1189 0 106.401 15.4603 1645 111.004 805.05 442.556
1190 0 106.279 17.2282 1831 110.774 805.625 432.666
1191 0 115.249 14.6465 1688 114.792 805.915 437.46
1192 0 114.577 11.7214 1343 120.747 807.027 430.074
1193 0 118.42 12.2193 1447 120.063 807.406 432.938
1194 0 123.475 13.8408 1709 119.121 806.707 427.226
1195 0 127.428 15.3577 1957 116.039 807.909 429.025
1196 0 135.5 12.9963 1761 117.505 807.473 426.524
1197 0 137.57 15.4321 2123 115.826 808.669 415.403
1198 0 139.521 14.7433 2057 117.36 809.194 422.063
1199 1 70.1008 10.2424 718 116.521 807.891 457.63
1200 0 70.2039 14.5718 1023 112.868 809.535 453.412
1201 0 74.2412 11.53 856 117.869 810.387 452.7
1202 0 77.1427 12.8852 994 118.898 809.978 454.312
1203 0 78.4032 9.96133 781 124.25 810.7 451.703
1204 0 81.2309 16.5824 1347 114.954 810.844 452.014
1205 0 82.4038 13.2882 1095 121.013 811.169 450.602
1206 0 88.3416 14.7383 1302 118.593 812.452 450.253
1207 0 88.2542 14.005 1236 121.384 812.773 446.837
1208 0 93.3607 16.9236 1580 116.293 812.575 451.539
1209 0 98.3486 10.0459 988 124.185 812.045 456.087
1210 0 100.27 14.3612 1440 121.643 810.384 447.134
1211 0 101.134 11.4699 1160 125.742 810.893 449.208
1212 0 104.215 15.4393 1609 117.983 810.946 448.518
1213 0 112.349 17.2143 1934 112.751 810.972 446.873
1214 0 113.267 15.927 1804 114.713 809.953 449.341
1215 1 50.1423 9.53287 478 118.435 808.814 470.749
1216 0 57.1556 12.2998 703 113.257 808.321 476.844
1217 0 58.2853 12.4045 723 114.42 805.649 475.667
1218 0 59.1748 12.9109 764 116.046 805.029 472.626
1219 0 62.1429 12.9057 802 115.429 805.807 468.673
1220 0 62.1852 14.0709 875 113.886 804.377 471.622
1221 0 61.1543 11.3647 695 120.922 803.988 466.852
1222 0 65.1623 14.4255 940 113.997 803.003 469.407
1223 0 67.242 11.4066 767 119.55 804.056 469.093
1224 0 68.261 11.9248 814 119.918 803.075 464.839
1225 0 70.2868 14.6543 1030 116.275 801.949 462.778
1226 0 71.2291 15.0641 1073 113.333 801.878 463.271
1227 0 75.3782 14.3012 1078 113.742 802.47 464.529
1228 0 75.5122 11.8391 894 116.33 802.735 461.677
1229 0 77.2401 12.4158 959 113.602 803.092 461.102
1230 0 80.2434 13.1849 1058 115.112 803.231 453.756
1231 0 80.2839 10.9487 879 116.889 803.767 457.116
1232 0 84.4255 16.251 1372 110.251 804.017 454.633
1233 0 87.4117 9.63258 842 120.334 803.542 449.854
1234 0 90.3247 13.529 1222 115.462 804.341 447.42
1235 0 94.2371 15.3018 1442 112.325 804.449 449.238
1236 1 54.0941 10.6296 575 114.362 805.574 466.158
1237 0 57.1624 12.6132 721 111.229 806.046 452.51
1238 0 60.2546 15.4013 928 105.601 806.579 457.863
1239 0 57.256 8.31354 476 116.439 808.164 454.578
1240 0 56.32 12.5 704 113.067 808.683 454.734
1241 0 62.2964 12.9381 806 114.288 809.197 460.406
1242 0 62.2964 12.906 804 135.704 810.175 460.483
1243 0 65.1965 11.381 742 117.365 809.282 456.704
1244 0 68.2809 13.298 908 112.902 809.655 460.963
1245 0 69.6048 15.2719 1063 110.874 810.548 458.369
1246 0 68.1548 8.27528 564 120.865 811.787 460.691
1247 0 71.3004 13.1977 941 115.423 813.206 460.396
1248 0 74.3406 15.9536 1186 110.152 812.219 461.909
1249 0 74.4047 10.1338 754 119.646 812.828 457.715
1250 0 77.4041 12.5446 971 117.001 811.49 458.715
1251 0 82.5109 12.6892 1047 120.358 812.962 460.288
1252 0 87.447 14.1915 1241 118.032 811.192 456.516
1253 0 89.5528 11.3899 1020 123.769 811.626 454.339
1254 0 94.5399 15.2317 1440 116.315 811.269 455.834
1255 0 96.5372 11.1874 1080 123.802 810.742 446.52
1256 0 99.4855 14.3438 1427 118.413 811.317 449.264
1257 0 100.603 11.6199 1169 122.956 810.658 450.464
1258 0 106.243 13.3938 1423 114.382 809.812 448.782
1259 0 108.249 11.7784 1275 118.525 809.507 449.007
1260 0 111.823 13.7896 1542 115.899 809.08 445.03
1261 0 114.482 10.2898 1178 119.851 807.75 451.926
1262 0 118.38 9.30903 1102 121.678 807.847 442.551
1263 1 63.0704 11.2573 710 112.697 807.545 466.538
1264 0 64.0838 15.7606 1010 106.954 807.127 471.353
1265 0 66.192 12.1616 805 113.615 807.565 469.868
1266 0 66.1249 13.2023 873 112.533 806.397 464.95
1267 0 69.2057 12.1522 841 113.975 806.788 463.736
1268 0 69.2138 12.1363 840 122.393 806.795 463.777
1269 0 71.1911 13.0353 928 113.606 805.806 461.401
1270 0 78.2821 18.2417 1428 104.449 805.079 457.862
1271 0 75.3857 10.5192 793 117.079 805.026 454.439
1272 0 82.5956 13.0637 1079 112.718 805.791 452.354
1273 0 84.2818 15.4244 1300 109.058 805.032 453.889
1274 0 86.373 13.6733 1181 113.185 806.07 450.662
1275 0 90.4323 12.6503 1144 114.693 805.105 448.528
1276 0 91.3581 15.5651 1422 111.831 805.637 441.162
1277 0 92.1716 12.0536 1111 118.219 805.762 437.375
1278 0 100.191 15.4905 1552 111.865 806.171 436.925
1279 0 97.238 12.0838 1175 118.176 806.981 431.261
1280 0 103.236 13.2802 1371 116.187 807.476 435.863
1281 0 107.357 14.0652 1510 114.943 808.213 432.136
1282 0 109.241 18.8299 2057 109.336 809.093 433.331
1283 0 112.226 13.1253 1473 117.785 808.688 435.309
1284 0 115.238 16.0885 1854 114.647 810.308 432.988
1285 0 116.275 17.5962 2046 113.372 811.161 431.203
1286 0 120.212 13.4429 1616 119.954 811.861 430.174
1287 0 125.232 15.3235 1919 118.315 811.98 429.657
1288 0 129.284 11.2156 1450 126.348 812.789 424.213
1289 1 71.3747 12.2873 877 116.34 811.748 453.896
1290 0 76.3923 16.3891 1252 110.002 812.123 452.446
1291 0 78.3356 11.055 866 117.634 812.294 451.758
1292 0 80.5343 15.7697 1270 110.754 812.61 452.484
1293 0 82.3355 11.9632 985 114.222 812.081 463.086
1294 0 84.4714 12.9511 1094 114.915 811.457 457.743
1295 0 89.2728 15.0886 1347 113.019 811.336 449.762
1296 0 94.2402 12.5955 1187 117.912 812.452 440.644
1297 0 96.4025 16.9186 1631 111.527 812.393 440.888
1298 0 102.245 14.7489 1508 113.457 812.943 450.516
1299 0 102.289 13.0219 1332 117.522 812.524 447.429
1300 0 106.341 14.8767 1582 116.005 810.752 443.619
1301 1 56.0785 11.1451 625 117.92 809.162 469.598
1302 0 58.3011 14.8368 865 111.861 807.635 468.508
1303 0 61.0808 12.0332 735 114.808 807.531 472.931
1304 0 62.2605 12.512 779 114.039 808.919 470.068
1305 0 65.1001 13.7634 896 111.612 808.261 466.105
1306 0 67.0811 11.106 745 115.984 807.965 468.974
1307 0 72.2393 13.8567 1001 111.025 808.013 467.859
1308 0 75.3227 13.1966 994 113.434 805.72 461.613
1309 0 72.3273 8.93162 646 121.481 805.149 458.74
1310 0 80.181 14.6169 1172 112.543 805.956 455.276
1311 0 81.0825 13.2828 1077 115.41 805.406 452.452
1312 0 81.2925 14.5032 1179 112.321 805.478 457.293
1313 0 85.2952 12.0523 1028 117.648 804.705 447.766
1314 0 88.3256 12.6351 1116 113.521 804.997 436.806
1315 0 90.249 10.0721 909 118.722 804.554 438.86
1316 0 92.274 12.9289 1193 113.825 805.231 440.94
1317 0 95.1705 13.3445 1270 114.487 805.022 434.578
1318 0 95.3243 8.07769 770 122.223 804.875 425.666
1319 0 94.1204 10.9859 1034 120.177 805.752 422.956
1320 0 105.201 13.6976 1441 115.135 806.727 424.118
1321 0 110.479 16.3018 1801 111.282 807.029 421.65
1322 0 111.265 14.8744 1655 113.824 808.421 424.283
1323 0 115.367 11.4937 1326 119.548 809.192 422.384
1324 0 117.694 12.7704 1503 118.341 810.385 422.136
1325 0 122.595 15.9468 1955 113.436 811.503 415.955
1326 0 127.384 17.2157 2193 111.253 810.214 421.451
1327 0 127.384 17.0665 2174 117.035 808.231 421.377
1328 1 73.2561 11.0844 812 113.628 813.622 447.92
1329 0 80.4257 14.6968 1182 106.909 812.248 453.192
1330 0 78.265 9.07175 710 115.786 813.279 455.431
1331 0 82.4154 12.2671 1011 112.308 811.604 452.52
1332 0 87.1124 12.26 1068 110.776 813.124 452.652
1333 0 87.3572 11.3099 988 116.187 812.427 449.123
1334 0 92.6536 13.3292 1235 113.547 812.88 451.82
1335 0 92.4504 12.3418 1141 115.901 811.82 446.056
1336 0 101.507 13.7428 1395 112.436 811.753 442.267
1337 0 104.56 17.6645 1847 108.007 811.252 442.321
1338 0 102.437 9.48878 972 119.238 810.374 447.305
1339 0 107.428 15.1264 1625 111.014 811.872 447.391
1340 0 111.455 14.876 1658 110.475 811.052 447.147
1341 0 115.305 12.0984 1395 117.497 811.522 437.348
1342 0 118.504 17.7041 2098 109.504 811.143 442.379
1343 0 121.333 13.4176 1628 115.723 809.572 441.635
1344 0 124.421 15.0296 1870 114.035 809.324 432.891
1345 0 128.535 13.3971 1722 117.07 807.564 433.618
1346 0 130.476 11.1132 1450 120.897 808.23 429.821
1347 1 73.2574 12.9543 949 109.325 806.464 460.215
1348 0 73.2639 12.8986 945 113.639 805.477 459.916
1349 0 77.1503 11.0434 852 112.558 804.539 461.728
1350 0 78.1649 12.4864 976 110.557 804.7 460.412
1351 0 81.3491 7.96567 648 115.677 806.798 462.946
1352 0 81.4795 10.9107 889 114.713 805.172 456.099
1353 0 86.4354 11.0603 956 115.248 805.615 451.2
1354 0 87.3532 10.5892 925 117.659 803.68 441.586
1355 0 93.8795 13.5493 1272 113.171 803.881 438.491
1356 0 96.8162 12.5599 1216 113.766 803 443.234
1357 0 97.6669 10.9454 1069 118.74 803.147 437.963
1358 0 102.822 11.447 1177 117.91 803.493 436.352
1359 0 104.96 12.1284 1273 117.751 803.533 432.982
1360 0 106.592 14.9824 1597 115.386 804.298 429.391
1361 0 109.522 12.1162 1327 119.402 804.72 427.203
1362 0 112.556 14.7837 1664 117.246 805.232 425.33
1363 0 117.541 10.9919 1292 122.706 806.367 427.991
1364 0 120.456 13.507 1627 119.513 806.391 426.596
1365 0 119.424 13.4981 1612 120.367 808.584 426.434
1366 0 127.573 14.5328 1854 118.611 810.2 422.297
1367 0 132.564 12.8165 1699 120.804 808.816 421.749
1368 1 79.1302 11.5506 914 113.505 810.479 450.572
1369 0 80.1153 10.8718 871 113.192 811.904 452.659
1370 0 83.1395 13.5555 1127 110.786 810.004 450.151
1371 0 85.1902 13.2527 1129 111.007 810.098 447.809
1372 0 86.1408 10.3203 889 113.65 810.768 451.666
1373 0 91.0864 17.1376 1561 105.269 810.229 448.11
1374 0 92.2393 12.641 1166 110.469 811.678 451.454
1375 0 99.2027 11.9553 1186 112.539 810.621 437.231
1376 0 100.169 12.6386 1266 111.958 811.414 446.907
1377 0 102.182 12.4484 1272 112.469 811.645 444.37
1378 0 104.194 11.1139 1158 115.604 811.525 447.494
1379 0 108.202 13.022 1409 114.253 810.683 439.59
1380 0 113.421 13.1369 1490 110.064 811.527 438.944
1381 0 115.268 8.57998 989 116.001 811.349 438.334
1382 0 121.488 16.2238 1971 106.684 812.403 435.769
1383 0 121.488 16.3144 1982 117.572 813.404 435.714
1384 0 125.325 12.0487 1510 113.617 811.717 435.911
1385 0 130.222 10.2901 1340 115.071 809.683 438.791
1386 1 72.3266 15.6374 1131 104.954 808.089 453.253
1387 0 77.1994 12.1892 941 107.721 806.367 452.875
1388 0 82.2165 12.5644 1033 106.873 806.411 448.464
1389 0 81.2306 12.9631 1053 106.795 804.662 450.156
1390 0 84.0788 13.7728 1158 106.389 805.231 449.482
1391 0 83.145 13.1096 1090 108.094 805.507 442.597
1392 0 90.4114 15.2967 1383 104.496 805.886 441.544
1393 0 93.2382 12.4198 1158 109.444 805.605 441.877
1394 0 95.3448 10.9497 1044 112.966 805.249 435.91
1395 0 100.363 12.7437 1279 110.747 803.392 438.726
1396 0 105.308 13.8736 1461 115.088 803.215 441.359
1397 0 104.186 13.3512 1391 116.032 801.723 438.032
1398 0 105.366 12.5562 1323 117.481 802.534 437.216
1399 1 61.1119 7.83808 479 119.754 803.447 451.766
1400 0 61.173 9.61209 588 117.99 803.218 451.993
1401 0 64.0582 14.3151 917 110.644 802.926 446.453
1402 0 66.0384 8.1922 541 122.933 802.677 440.163
1403 0 69.1157 9.80964 678 116.799 802.348 449.724
1404 0 72.1482 11.6566 841 120.127 801.276 452.937
1405 0 76.2676 14.6589 1118 114.829 803.203 452.536
1406 0 79.1924 14.7489 1168 114.942 804.656 451.113
1407 0 79.1867 13.2977 1053 117.167 806.107 451.904
1408 0 84.3015 15.0531 1269 113.544 806.079 448.02
1409 0 86.196 14.5018 1250 114.835 806.306 445.794
1410 0 87.2327 12.2775 1071 118.213 805.62 449.036
1411 0 90.1896 14.7245 1328 114.422 807.727 444.726
1412 0 92.3005 18.3964 1698 106.461 807.792 454.98
1413 0 96.2165 14.9766 1441 114.871 807.82 439.486
1414 0 96.2165 15.0182 1445 141.385 807.837 439.569
1415 0 102.365 19.8408 2031 108.192 809.586 437.001
1416 0 103.243 15.9236 1644 113.026 809.949 440.318
1417 0 103.243 16.0011 1652 131.652 809.947 440.268
1418 1 57.1271 10.5204 601 116.326 809.825 455.767
1419 0 61.3164 11.6119 712 112.437 810.861 457.844
1420 0 59.1998 12.7027 752 114.533 811.467 455.41
1421 0 64.2444 11.8765 763 114.965 810.367 461.17
1422 0 66.134 13.3819 885 111.94 809.85 462.142
1423 0 70.0605 11.6756 818 116.676 809.158 468.056
1424 0 71.3845 15.7037 1121 107.549 809.135 469.602
1425 0 70.2033 14.4295 1013 110.475 809.377 471.711
1426 0 77.4644 17.621 1365 106.464 809.789 463.706
1427 0 77.2378 13.5037 1043 112.652 807.558 465.341
1428 0 81.4691 12.2009 994 114.582 808.02 459.849
1429 0 88.6272 17.85 1582 106.109 806.563 458.322
1430 0 87.2964 13.7348 1199 112.964 806.254 455.936
1431 0 94.5648 16.4332 1554 106.966 805.508 452.154
1432 0 94.5386 17.633 1667 106.08 805.022 455.293
1433 0 93.2653 16.9516 1581 108.808 804.223 451.81
1434 0 97.2817 14.1651 1378 111.89 804.379 450.335
1435 0 102.37 12.7283 1303 113.123 803.223 446.259
1436 0 105.385 14.5561 1534 110.662 804.497 439.922
1437 1 58.2068 11.1499 649 114.512 802.747 470.149
1438 0 58.2099 11.9911 698 113.966 802.179 471.017
1439 0 61.1818 12.5364 767 114.391 800.644 468.089
1440 0 62.3087 11.9887 747 114.693 800.399 464.983
1441 0 63.2552 13.8329 875 108.984 802.243 464.649
1442 0 66.1382 12.0505 797 111.95 802.592 460.182
1443 0 71.229 15.6818 1117 106.005 802.767 456.131
1444 0 70.352 12.7928 900 111.494 803.949 453.467
1445 0 74.2872 12.519 930 111.772 802.866 454.039
1446 0 75.2316 7.43039 559 115.959 804.433 455.572
1447 0 77.2883 13.055 1009 109.106 805.401 455.356
1448 0 78.4155 12.115 950 111.867 805.104 451.644
1449 0 79.3049 11.7395 931 112.869 804.808 452.899
1450 0 84.2784 11.0823 934 115.84 806.398 444.62
1451 0 86.2813 9.64287 832 117.1 807.721 444.498
1452 0 90.2305 11.6701 1053 114.609 808.635 439.092
1453 0 90.2305 11.8142 1066 119.855 809.625 438.999
1454 0 96.2457 11.8447 1140 117.812 809.011 439.246
1455 0 101.797 11.6507 1186 118.098 809.096 439.064
1456 0 104.762 14.5569 1525 115.348 809.926 439.575
1457 0 108.773 12.0342 1309 119.189 810.963 438.209
1458 0 109.469 12.4784 1366 117.76 810.722 439.707
1459 1 61.2111 11.1254 681 114.21 810.915 462.276
1460 0 61.115 9.06488 554 117.116 810.982 466.529
1461 0 64.2839 12.4915 803 112.172 812.666 464.695
1462 0 65.364 15.0694 985 109.547 813.121 460.616
1463 0 69.3347 16.0093 1110 107.934 812.901 463.106
1464 0 69.2619 10.1499 703 116.839 811.528 462.714
1465 0 73.4003 13.1198 963 112.196 811.025 465.327
1466 0 72.1622 12.4165 896 115.022 810.893 459.208
1467 0 75.5567 12.3351 932 115.034 811.192 461.81
1468 0 78.1839 11.2044 876 116.914 810.328 459.116
1469 0 82.3126 16.4738 1356 110.336 810.072 461.311
1470 0 84.2989 13.5708 1144 117.924 810.292 455.616
1471 0 87.1901 11.9738 1044 120.577 809.608 459.607
1472 0 91.2317 16.3101 1488 112.072 808.517 462.06
1473 0 92.4856 13.6994 1267 117.642 807.275 456.379
1474 0 97.4436 17.641 1719 110.698 807.346 455.737
1475 0 100.341 15.6766 1573 114.682 807.325 455.203
1476 0 103.358 15.0738 1558 116.675 807.202 449.985
1477 1 57.2181 9.9444 569 115.847 805.529 474.121
1478 0 57.0973 10.3508 591 115.973 805.254 473.795
1479 0 58.5284 12.7972 749 114.303 804.897 467.773
1480 0 63.0882 10.6201 670 115.787 803.537 468.125
1481 0 67.4447 18.7561 1265 104.094 804.334 469.057
1482 0 68.2716 13.4756 920 112.023 803.502 464.5
1483 0 69.5236 13.3911 931 113.872 803.426 461.311
1484 0 75.6905 14.8103 1121 112.313 803.815 461.128
1485 0 77.5929 14.924 1158 113.637 804.355 455.851
1486 0 77.3575 14.9565 1157 114.831 804.744 451.237
1487 0 80.2741 18.0631 1450 109.518 804.868 452.79
1488 0 80.2741 18.1005 1453 128.864 804.829 452.921
1489 0 84.567 14.1545 1197 114.972 805.896 449.851
1490 0 88.7665 11.3106 1004 119.019 806.54 446.927
1491 0 91.501 15.2676 1397 113.885 806.669 441.992
1492 0 92.7352 13.2528 1229 118.007 806.277 439.426
1493 0 103.988 17.0789 1776 109.715 808.22 433.423
1494 0 103.731 24.8914 2582 101.806 807.284 428.533
1495 0 107.665 17.9075 1928 109.716 808.405 435.418
1496 0 107.668 14.6655 1579 114.982 810.091 432.994
1497 1 62.3912 14.1206 881 107.669 810.132 460.431
1498 0 62.3085 10.753 670 112.712 810.633 458.79
1499 0 63.2071 14.3022 904 107.658 810.137 459.662
1500 0 64.2477 10.1949 655 113.692 811.186 458.475
1501 0 64.2035 12.5071 803 111.716 811.225 457.249
1502 0 69.412 13.355 927 109.102 811.545 458.554
1503 0 71.2349 12.2412 872 110.612 811.071 459.53
1504 0 73.4862 13.8393 1017 108.342 811.981 457.719
1505 0 77.4748 11.9652 927 111.429 812.091 457.608
1506 0 77.3229 14.2131 1099 108.508 811.743 454.829
1507 0 80.4548 11.1616 898 112.83 812.464 456.663
1508 0 82.3402 12.2176 1006 110.556 810.951 458.907
1509 0 87.5613 14.744 1291 108.977 812.853 453.732
1510 0 88.6323 15.4458 1369 111.374 811.63 453.514
1511 0 93.6336 16.116 1509 110.909 811.531 446.586
1512 0 95.0075 13.4937 1282 114.855 811.92 450.793
1513 0 97.9932 17.4094 1706 108.777 810.544 446.228
1514 0 100.804 17.1819 1732 110.99 810.817 445.106
1515 0 102.623 15.7957 1621 113.75 810.168 444.847
1516 0 105.691 15.6873 1658 113.881 808.681 442.757
1517 0 109.132 14.4596 1578 115.019 808.06 444.566
1518 0 108.798 14.6602 1595 116.609 806.19 441.074
1519 1 63.2423 10.9579 693 115.102 806.105 464.905
1520 0 63.2679 9.13576 578 117.469 805.471 464.728
1521 0 67.4395 9.0748 612 117.384 804.224 465.291
1522 0 66.4984 9.29345 618 117.908 804.526 462.236
1523 0 70.2036 14.3582 1008 109.062 804.6 460.308
1524 0 76.4066 16.4776 1259 105.194 804.373 457.205
1525 0 78.5787 14.2532 1120 108.129 804.977 456.996
1526 0 79.2837 13.8742 1100 113.052 803.187 457.342
1527 0 82.3381 14.0275 1155 113.597 804.461 450.002
1528 0 80.2828 13.0663 1049 115.231 804.294 451.151
1529 0 90.2392 15.2373 1375 109.071 804.447 453.738
1530 0 89.3146 13.7268 1226 110.686 803.564 449.976
1531 0 94.3709 15.4709 1460 110.028 805.158 442.421
1532 0 94.3679 13.1507 1241 114.388 805.716 438.262
1533 0 101.338 12.7593 1293 114.194 806.473 430.234
1534 0 105.351 14.352 1512 112.169 807.202 430.454
1535 0 105.397 13.9758 1473 114.303 807.331 422.877
1536 0 108.385 13.8857 1505 114.133 807.987 429.235
1537 0 110.697 19.2146 2127 107.487 809.013 415.994
1538 0 113.594 14.4022 1636 113.671 811.017 425.109
1539 0 115.485 12.9107 1491 115.971 810.7 427.14
1540 0 121.51 16.4102 1994 111.952 811.279 420.415
1541 0 122.656 13.0691 1603 116.726 811.813 422.074
1542 1 74.4063 10.7249 798 112.237 812.456 450.652
1543 0 70.4137 7.29972 514 138.601 812.29 450.611
1544 0 78.3879 13.6373 1069 110.102 812.529 448.623
1545 0 80.4002 14.602 1174 108.496 812.31 451.687
1546 0 81.2069 12.4251 1009 111.125 812.297 456.185
1547 0 81.4163 10.3542 843 114.902 811.802 447.993
1548 0 88.2849 16.2655 1436 106.385 812.481 453.132
1549 0 88.461 14.7523 1305 112.374 811.833 449.978
1550 0 93.3668 15.6801 1464 108.884 812.158 448.769
1551 0 94.2222 13.3302 1256 115.093 812.411 448.138
1552 0 98.3017 12.3599 1215 114.698 811.357 447.461
1553 0 104.455 18.611 1944 107.534 811.788 445.199
1554 0 105.585 21.6034 2281 105.195 811.373 440.79
1555 0 108.883 12.114 1319 118.81 810.506 441.625
1556 0 110.855 11.9164 1321 118.843 810.427 445.389
1557 0 116.934 17.0182 1990 111.904 809.386 441.249
1558 0 119.763 14.5704 1745 116.198 808.012 440.458
1559 0 123.811 14.724 1823 116.498 807.861 437.038
1560 0 133.407 13.7849 1839 116.294 808.026 436.054
1561 0 133.916 16.0474 2149 114.513 806.872 430.561
1562 1 72.6023 12.961 941 109.697 806.606 461.837
1563 0 78.9821 13.8006 1090 106.353 805.803 464.503
1564 0 77.3428 12.6967 982 110.709 806.136 459.496
1565 0 80.4209 12.2978 989 113.47 805.559 455.079
1566 0 86.2575 14.8393 1280 108.84 805.362 458.065
1567 0 83.4699 9.00923 752 117.645 805.39 454.017
1568 0 89.8096 10.2996 925 115.412 805.536 453.27
1569 0 90.6637 11.2173 1017 115.678 805.371 449.168
1570 0 90.6724 12.1647 1103 115.387 805.162 444.337
1571 0 96.459 12.9485 1249 113.359 803.857 447.502
1572 0 100.56 14.2701 1435 111.597 803.75 445.246
1573 0 102.572 14.1072 1447 112.494 804.707 439.14
1574 0 106.551 14.4344 1538 112.583 805.023 437.62
1575 0 105.801 13.4875 1427 114.674 805.126 434.109
1576 0 110.501 12.6605 1399 115.445 806.486 432.275
1577 0 115.523 12.2054 1410 115.799 807.717 432.421
1578 1 67.2273 10.2786 691 113.562 808.941 453.075
1579 0 69.4954 12.1159 842 111.426 808.165 455.861
1580 0 73.6412 14.2855 1052 109.388 809.272 452.983
1581 0 75.4156 16.84 1270 107.884 809.161 455.299
1582 0 76.3875 14.2955 1092 110.995 810.019 453.801
1583 0 77.6535 13.3928 1040 113.471 810.268 448.62
1584 0 80.3264 10.9553 880 115.039 809.968 453.169
1585 0 85.4047 13.5121 1154 111.083 810.797 452.647
1586 0 84.5726 12.6637 1071 115.038 811.58 443.731
1587 0 88.3713 13.3867 1183 114.504 812.701 441.946
1588 0 91.472 15.4801 1416 111.657 812.037 445.939
1589 0 94.7078 14.4128 1365 113.522 811.84 442.39
1590 0 99.5191 17.9563 1787 108.041 811.946 446.338
1591 0 100.531 14.1449 1422 115.029 812.53 439.693
1592 0 103.449 22.9486 2374 102.513 811.997 447.483
1593 0 107.576 17.0298 1832 112.207 811.614 438.097
1594 0 107.661 13.0038 1400 119.031 812.071 438.643
1595 0 113.465 14.2423 1616 117.402 810.372 439.348
1596 0 116.618 14.1316 1648 116.971 811.126 441.206
1597 0 121.968 16.8733 2058 114.318 810.137 435.982
1598 0 122.339 16.8956 2067 113.29 810.078 445.184
1599 0 126.851 15.9242 2020 117.946 809.898 431.74
1600 1 68.8004 11.4534 788 116.294 808.147 464.093
1601 0 71.4579 14.9319 1067 111.173 807.321 464.694
1602 0 74.6115 13.4028 1000 114.321 806.648 462.17
1603 0 76.3651 13.1212 1002 116.526 807.469 465.49
1604 0 81.64 15.0784 1231 114.976 804.904 459.885
1605 0 81.4659 12.4346 1013 117.63 805.013 453.672
1606 0 81.4659 12.4592 1015 132.596 805.01 453.771
1607 0 86.4937 16.8567 1458 113.532 803.988 450.116
1608 0 89.6266 12.4293 1114 121.074 804.666 449.39
1609 0 90.5613 13.7034 1241 118.666 803.132 449.471
1610 0 98.801 16.0423 1585 114.316 803.807 441.634
1611 0 102.778 19.0313 1956 109.997 803.467 440.839
1612 0 102.55 16.2653 1668 115.623 803.452 436.016
1613 0 104.838 17.57 1842 114.756 804.244 430.314
1614 0 106.507 12.403 1321 121.977 803.12 435.942
1615 0 106.321 13.6944 1456 122.004 804.07 426.576
1616 0 109.451 13.1931 1444 121.744 803.564 429.152
1617 0 116.868 13.9217 1627 121.018 804.716 423.65
1618 0 119.423 14.9971 1791 119.411 806.251 423.142
1619 0 128.855 16.8483 2171 115.088 806.336 423.973
1620 1 72.7671 11.9285 868 115.801 806.634 447.017
1621 0 74.374 10.9581 815 117.728 807.53 450.443
1622 0 75.2345 9.2245 694 121.624 807.905 445.886
1623 0 79.2038 11.9944 950 116.024 809.618 449.095
1624 0 81.3429 12.0969 984 118.584 809.686 439.755
1625 0 85.4742 10.7752 921 117.848 808.235 446.301
1626 0 88.6715 12.3828 1098 116.077 809.186 443.495
1627 0 89.5238 12.8234 1148 116.879 809.137 437.529
1628 0 94.6121 15.3786 1455 112.995 810.438 433.689
1629 0 98.9646 19.027 1883 107.796 810.841 433.418
1630 0 102.878 15.183 1562 112.44 811.222 434.828
1631 0 104.071 15.893 1654 112.296 811.247 426.182
1632 0 105.093 13.3977 1408 116.398 811.646 435.127
1633 0 107.86 17.3373 1870 112.291 811.861 432.201
1634 0 110.551 12.682 1402 117.902 812.176 438.807
1635 0 114.805 13.3792 1536 116.251 812.456 440.375
1636 0 116.987 11.1893 1309 121.804 810.693 429.44
1637 0 124.438 12.4801 1553 118.428 811.334 434.705
1638 0 128.324 13.2633 1702 116.674 811.089 436.402
1639 0 133.579 17.2931 2310 111.618 810.941 430.695
1640 1 75.8324 14.0969 1069 111.566 810.75 453.391
1641 0 77.7324 11.2051 871 114.811 808.923 456.594
1642 0 82.6388 10.0316 829 117.712 808.674 455.561
1643 0 84.6795 15.0095 1271 111.763 808.368 455.367
1644 0 87.8692 13.0649 1148 114.228 807.293 453.82
1645 0 91.1053 12.3374 1124 116.278 806.867 450.826
1646 0 95.9488 15.8209 1518 111.148 805.525 444.696
1647 0 100.099 15.7743 1579 110.8 806.246 446.734
1648 0 102.985 13.2738 1367 114.405 806.111 438.858
1649 0 104.366 17.1129 1786 110.039 804.212 443.127
1650 0 104.626 12.5686 1315 116.994 805.21 438.134
1651 0 106.596 17.4303 1858 107.739 803.731 448.576
1652 0 111.233 16.8296 1872 111.549 804.41 437.402
1653 0 114.554 14.3252 1641 114.182 803.336 439.888
1654 0 116.421 12.4033 1444 120.394 803.094 429.868
1655 0 117.175 14.7301 1726 118.376 803.103 425.313
1656 0 124.726 14.8485 1852 117.746 803.12 430.166
1657 0 127.876 14.428 1845 120.102 802.587 422.128
1658 0 131.443 15.8929 2089 118.148 803.448 426.823
1659 0 138.246 15.7545 2178 119.622 802.874 418.566
1660 1 75.701 12.1002 916 116.717 803.498 448.429
1661 0 78.1759 10.9241 854 118.378 804.815 446.247
1662 0 82.0141 9.03504 741 117.603 804.557 451.262
1663 0 85.2741 11.6683 995 119.618 804.168 443.52
1664 0 85.9682 12.2836 1056 118.98 806.321 441.318
1665 0 88.989 11.2149 998 119.944 805.904 443.976
1666 0 90.0178 12.3864 1115 121.41 806.975 432.395
1667 0 92.7224 13.9988 1298 118.557 807.75 435.495
1668 0 103.225 27.2026 2808 99.5666 807.488 432.687
1669 0 105.155 22.3956 2355 104.849 808.213 427.02
1670 0 104.821 14.6059 1531 117.407 809.818 429.095
1671 0 104.124 13.8009 1437 118.573 809.719 436.724
1672 0 108.051 16.1776 1748 116.623 811.003 430.056
1673 0 109.614 11.8325 1297 123.658 810.922 429.332
1674 0 112.95 14.6082 1650 119.417 811.943 433.193
1675 0 116.706 15.2605 1781 119.007 812.365 435.23
1676 0 119.419 15.006 1792 120.487 811.573 428.871
1677 0 125.168 17.3287 2169 116.643 812.036 424.256
1678 0 128.132 13.3534 1711 123.466 811.884 429.685
1679 0 129.01 14.216 1834 123.24 812.08 426.788
1680 0 134.923 16.0091 2160 120.362 810.916 429.584
1681 0 138.782 15.5351 2156 121.731 809.99 425.695
1682 0 144.738 14.5504 2106 123.281 809.047 424.066
1683 1 86.6843 9.95566 863 124.428 809.355 452.268
1684 0 89.543 11.4247 1023 122.411 808.92 454.768
1685 0 91.4823 12.2209 1118 121.284 808.432 456.123
1686 0 94.2874 12.8225 1209 122.521 806.785 451.908
1687 0 96.6269 12.4293 1201 123.981 806.768 449.139
1688 0 100.91 12.2386 1235 123.177 806.474 451.894
1689 0 104.987 13.4588 1413 122.811 805.604 448.207
1690 0 106.671 16.8275 1795 118.207 805.194 439.771
1691 0 110.48 15.9758 1765 120.359 804.478 441.96
1692 0 112.724 14.3536 1618 122.922 804.21 442.962
1693 0 114.436 12.1291 1388 129.766 803.697 436.203
1694 0 115.7 14.3043 1655 126.711 803.35 433.851
1695 0 122.525 16.6007 2034 122.1 802.813 436.868
1696 0 123.535 14.0284 1733 128.834 802.362 430.119
1697 0 127.568 18.3196 2337 122.165 803.691 421.818
1698 0 127.568 18.1785 2319 133.006 804.718 421.82
1699 0 135.513 19.1937 2601 121.668 803.956 419.066
1700 0 140.479 12.4573 1750 132.451 804.037 420.565
1701 0 147.481 14.7612 2177 127.56 803.712 420.269
1702 0 151.451 22.0335 3337 116.85 805.394 420.052
1703 0 155.496 15.4988 2410 129.549 804.648 405.465
1704 0 158.602 13.2344 2099 132.977 806.115 402.568
1705 1 98.3718 12.9509 1274 125.175 804.707 439.392
1706 0 100.455 13.1501 1321 125.137 806.177 437.08
1707 0 104.502 10.8323 1132 128.281 805.521 435.027
1708 0 106.519 12.8522 1369 126.96 806.254 431.802
1709 0 106.519 12.8146 1365 144.843 807.257 431.61
1710 0 114.801 14.5469 1670 124.818 807.154 430.472
1711 0 113.785 13.4113 1526 129.372 809.197 424.178
1712 0 113.785 13.4288 1528 152.396 810.188 424.084
1713 0 119.693 14.1278 1691 128.23 810.209 427.166
1714 0 124.676 13.5952 1695 129.238 810.832 423.511
1715 0 125.774 14.693 1848 128.129 811.492 419.716
1716 0 128.693 13.0621 1681 131.88 811.851 417.517
1717 0 135.789 12.3942 1683 130.368 811.237 424.51
1718 0 138.722 13.4586 1867 131.098 811.453 419.282
1719 0 140.707 13.951 1963 130.226 812.403 420.554
1720 0 145.728 14.5546 2121 129.601 811.887 418.182
1721 0 148.724 13.7638 2047 129.878 812.884 422.019
1722 0 155.715 14.1477 2203 130.749 811.778 415.629
1723 0 157.873 16.4943 2604 127.564 811.066 413.059
1724 0 165.804 14.4146 2390 131.798 811.059 407.942
1725 0 170.754 15.3964 2629 129.017 811.121 412.738
1726 0 170.754 15.4081 2631 149.539 811.141 412.84
1727 0 178.738 13.8527 2476 136.366 811.256 402.567
1728 0 183.843 14.8442 2729 134.693 810.38 399.704
1729 0 189.856 16.6021 3152 132.041 807.925 398.422
1730 0 190.987 13.0637 2495 140.668 808.338 386.917
1731 0 198.716 14.171 2816 137.442 805.085 390.373
1732 1 35.0823 5.72939 201 107.328 803.453 480.184
1733 0 42.181 8.25016 348 102.566 802.862 484.566
1734 0 35.2025 7.21539 254 106.693 802.669 479.268
1735 0 37.2157 9.70021 361 103.388 801.596 480.396
1736 0 36.3132 9.99636 363 102.24 803.479 476.43
1737 0 36.1559 9.40371 340 104.197 804.671 480.424
1738 0 38.2408 10.8261 414 103.196 804.937 477.024
1739 0 36.1731 8.98458 325 106.24 804.338 475.252
1740 0 33.1111 6.04028 200 113.155 805.095 477.27
1741 1 265.207 15.8593 4206 137.227 803.935 342.727
1742 0 273.922 14.5407 3983 140.601 804.519 335.488
1743 1 35.0886 10.2313 359 110.741 804.747 473.877
1744 0 37.1054 8.03117 298 113.164 805.691 474.997
1745 0 37.0439 8.39544 311 113.637 805.73 473.531
1746 0 37.1043 8.40874 312 115.25 806.381 470.647
1747 0 38.078 10.7674 410 113.202 806.69 471.324
1748 0 336.938 23.2595 7837 123.139 805.618 305.593
1749 1 278.99 11.4019 3181 142.28 806.288 351.06
1750 0 280.067 16.1676 4528 135.313 806.53 347.494
1751 0 291.239 17.5388 5108 131.88 807.107 345.157
1752 0 296.224 15.0326 4453 137.646 807.999 334.292
1753 1 41.1094 10.8734 447 112.904 809.114 471.982
1754 0 41.0596 11.1058 456 115.285 809.724 468.851
1755 0 41.0389 10.088 414 118.039 810.911 470.121
1756 0 344.258 18.7505 6455 129.859 809.699 316.973
1757 0 360.517 24.6674 8893 120.042 809.55 301.64
1758 1 316.903 11.057 3504 136.267 811.045 358.97
1759 0 314.9 11.1115 3499 139.649 811.369 338.918
1760 0 316.752 16.4198 5201 130.508 811.577 335.498
1761 0 323.833 16.0422 5195 131.242 811.737 317.029
1762 0 338.501 22.0383 7460 120.442 811.981 314.52
1763 0 352.878 27.4542 9688 112.623 811.896 323.596
1764 1 45.1408 11.0322 498 115.703 813.187 475.367
1765 0 46.058 14.6772 676 108.479 813.021 478.37
1766 0 46.058 14.6772 676 116.422 813.072 478.327
1767 0 45.1112 11.2167 506 113.079 812.257 479.389
1768 0 47.1174 11.9064 561 110.086 812.228 481.021
1769 0 47.1136 11.2706 531 112.104 812.618 484.017
1770 0 48.1882 14.6924 708 105.927 811.847 482.619
1771 0 47.2484 13.5666 641 108.601 809.839 481.329
1772 0 44.1778 11.7253 518 113.056 809.882 481.755
