time division length width area intensity CMx CMy
0 0 34.0243 13.2552 451 122.967 364.135 477.004
1 0 34.2137 11.8081 404 127.416 362.822 475.839
2 0 39.3296 12.0011 472 124.871 361.742 472.282
3 0 40.4623 13.7659 557 125.259 361.781 472.903
4 0 41.5805 14.8627 618 117.835 360.78 473.197
5 0 40.0338 11.2155 449 121.388 360.619 477.492
6 0 42.1661 15.2018 641 116.056 358.825 475.423
7 0 42.0573 14.4565 608 124.604 358.247 473.329
8 0 43.1403 13.6531 589 119.034 359.051 477.234
9 0 44.067 13.8879 612 124.154 356.088 472.889
10 0 46.0949 11.8668 547 124.81 356.526 476.161
11 0 47.1319 15.1278 713 118.296 354.248 469.28
12 0 48.2085 14.0017 675 122.456 354.785 471.19
13 0 50.1266 20.7874 1042 110.472 354.749 470.182
14 0 50.098 13.4936 676 123.043 354.692 467.339
15 0 53.2879 14.0182 747 120.288 354.938 464.519
16 0 54.2578 15.0946 819 119.61 355.106 461.381
17 0 59.3507 18.1969 1080 109.17 354.861 461.467
18 0 56.3391 13.5252 762 117.566 355.493 457.968
19 0 56.3391 13.4365 757 152.625 356.51 458.092
20 0 63.4367 15.3854 976 119.403 355.041 452.534
21 0 67.0458 16.347 1096 114.997 355.936 455.346
22 0 70.1371 17.6369 1237 116.207 355.62 446.612
23 0 69.0845 15.5896 1077 119.957 358.834 448.643
24 0 72.1899 15.8332 1143 119.175 357.124 450.761
25 0 77.3237 16.8254 1301 116.646 360.041 446.872
26 0 78.2711 16.9283 1325 116.718 359.823 445.855
27 0 78.3133 12.8969 1010 124.766 360.827 443.1
28 0 82.2182 14.2304 1170 120.702 361.713 444.354
29 0 85.4339 13.25 1132 121.764 363.039 441.92
30 0 87.2061 14.6779 1280 120.88 363.786 435.481
31 0 94.232 17.8071 1678 114.868 364.276 438.341
32 0 95.4786 15.5951 1489 116.113 364.533 440.423
33 0 97.5517 14.5666 1421 118.494 365.566 433.419
34 0 99.4572 13.7748 1370 117.005 365.656 437.098
35 1 55.2151 12.6053 696 118.195 367.092 456.658
36 0 58.0906 16.3538 950 109.513 366.107 460.066
37 0 56.1248 12.7038 713 118.306 368.247 456.655
38 0 62.1523 15.3011 951 110.175 366.937 456.737
39 0 61.2987 12.7898 784 114.667 368.202 457.592
40 0 66.3414 16.9427 1124 106.191 368.049 455.633
41 0 68.132 13.9876 953 112.91 367.395 456.716
42 0 72.1856 18.2308 1316 105.236 366.477 459.882
43 0 73.0736 14.6838 1073 110.14 366.226 457.143
44 0 75.2079 14.2006 1068 109.933 366.594 455.858
45 0 80.1065 16.3532 1310 110.856 366.025 459.318
46 0 80.2078 15.7341 1262 121.159 364.336 453.582
47 0 83.239 14.1881 1181 122.545 364.211 454.102
48 0 85.1978 17.7822 1515 114.917 363.537 454.127
49 0 89.2151 13.6748 1220 124.447 361.932 451.875
50 0 91.2983 15.5534 1420 120.164 362.201 450.106
51 0 98.3054 22.9591 2257 108.016 360.952 452.006
52 0 97.3307 14.384 1400 122.372 359.141 444.851
53 0 102.225 15.9061 1626 119.411 358.123 440.82
54 0 105.409 12.8547 1355 122.782 358.653 444.48
55 0 108.22 15.8566 1716 119.545 357.855 437.874
56 0 114.355 16.5887 1897 119.994 357.556 435.099
57 1 61.2626 14.1359 866 116.805 357.554 458.806
58 0 65.292 15.4843 1011 114.415 356.444 461.011
59 0 68.0959 17.1229 1166 110.61 356.779 459.473
60 0 70.1015 14.6644 1028 114.204 357.867 454.752
61 0 73.1163 14.4701 1058 113.114 357.933 454.428
62 0 74.0976 11.7008 867 118.576 357.224 453.151
63 0 77.1058 14.5774 1124 116.258 356.747 449.874
64 0 80.2014 16.5209 1325 113.494 357.757 447.768
65 0 81.1498 15.342 1245 115.964 358.41 441.205
66 0 85.2588 16.3737 1396 115.567 357.587 437.984
67 0 88.2773 13.7635 1215 119.114 358.953 439.56
68 0 89.1138 14.2402 1269 118.308 359.519 439.517
69 0 94.129 12.9291 1217 120.823 358.011 435.286
70 0 97.4129 13.9612 1360 118.648 358.299 433.413
71 0 102.313 11.3964 1166 121.508 357.176 430.474
72 0 105.16 14.0643 1479 117.02 358.893 430.528
73 1 52.1029 13.4925 703 112.085 358.4 455.415
74 0 57.5048 13.651 785 111.014 360.577 454.676
75 0 56.1512 13.3212 748 107.008 359.539 457.861
76 0 58.1505 13.7746 801 107.655 361.986 455.501
77 0 61.1113 14.4981 886 107.061 361.572 454.612
78 0 63.4488 15.5086 984 105.862 361.443 455.889
79 0 63.2817 15.0755 954 111.609 362.234 455.297
80 0 67.4712 13.0574 881 111.575 363.235 457.207
81 0 68.4097 12.6298 864 115.427 363.469 458.424
82 0 67.2213 13.5671 912 115.791 362.761 454.158
83 0 71.1864 15.2276 1084 113.856 362.608 452.755
84 0 74.2206 12.8266 952 115.992 362.609 456.267
85 0 77.2405 13.3091 1028 116.404 362.034 453.834
86 0 81.2038 12.5733 1021 117.165 362.307 456.023
87 0 79.2012 11.4771 909 119.892 361.779 453.112
88 0 87.1422 12.7263 1109 116.444 363.086 451.951
89 0 82.1415 8.30275 682 123.609 362.67 451.243
90 0 91.1146 13.9165 1268 114.365 362.028 451.036
91 0 94.2211 12.0674 1137 115.695 362.018 445.909
92 0 98.1267 11.7297 1151 116.306 362.388 447.043
93 1 54.179 11.8865 644 106.95 360.705 475.711
94 0 57.3342 12.4184 712 106.687 357.532 473.003
95 0 57.0781 12.8596 734 107.98 359.56 468.493
96 0 57.3246 11.1296 638 110.911 355.108 470.71
97 0 61.1036 12.6343 772 108.756 359.183 469.21
98 0 61.2521 12.4567 763 109.978 354.679 466.756
99 0 65.176 13.8548 903 107.556 354.456 457.301
100 0 71.246 14.7377 1050 106.975 354.029 461.968
101 0 70.2481 14.036 986 115.093 353.885 454.304
102 0 73.3919 14.1705 1040 114.954 353.517 455.941
103 0 76.19 15.1332 1153 115.003 353.461 453.262
104 0 81.5204 14.1682 1155 113.09 353.118 458.434
105 0 83.8268 12.0844 1013 119.222 353.608 453.218
106 1 47.1401 11.137 525 116.453 352.358 468.109
107 0 46.0465 11.5101 530 116.068 350.802 467.26
108 0 46.0843 11.4356 527 114.486 351.044 469.499
109 0 48.157 11.504 554 116.421 351.204 465.199
110 0 50.1853 13.6693 686 114.337 352.568 462.366
111 0 48.0941 8.87843 427 114.838 356.126 464.033
112 0 49.0648 11.76 577 111.109 355.837 461.789
113 1 198.978 14.4539 2876 120.592 355.759 390.917
114 1 155.647 10.7423 1672 122.087 356.996 421.572
115 1 113.545 14.5757 1655 117.338 357.066 429.736
116 0 113.957 11.0392 1258 119.347 356.982 435.873
117 0 115.451 10.576 1221 125.859 359.172 424.139
118 0 121.775 12.1536 1480 121.007 360.493 423.143
119 0 124.894 12.2824 1534 121.278 360.472 424.325
120 0 131.588 14.857 1955 116.034 361.593 424.432
121 0 134.924 13.5336 1826 118.285 361.369 424.469
122 0 141.476 12.9492 1832 119.122 362.592 420.072
123 1 72.1429 10.4931 757 114.649 363.079 454.943
124 0 76.1012 14.3493 1092 109.761 362.978 451.504
125 0 79.2454 13.7421 1089 110.975 363.276 449.354
126 0 81.2328 13.7014 1113 111.091 364.116 449.575
127 1 39.044 10.0143 391 114.898 364.023 472.182
128 0 43.0916 12.7635 550 110.995 363.235 468.938
129 0 42.2608 10.4589 442 114.894 362.618 473.733
130 0 45.497 13.3415 607 111.825 359.31 468.148
131 0 46.1663 8.38273 387 113.943 363.049 477.37
132 0 48.1698 12.5597 605 109.501 360.37 473.522
133 0 48.1457 18.3402 883 101.614 359.667 475.525
134 0 50.1951 13.1885 662 109.423 360.038 475.214
135 0 49.3956 9.51501 470 114.562 360.181 477.236
136 0 53.5903 12.7449 683 110.262 360.221 472.302
137 0 55.3507 13.7126 759 107.003 357.921 476.05
138 0 54.3831 13.9566 759 108.736 358.635 470.245
139 0 58.2081 14.6715 854 106.813 356.578 469.946
140 0 60.2095 16.7415 1008 103.701 356.436 470.685
141 0 58.0968 14.2865 830 108.345 356.317 472.907
142 0 63.2705 15.2994 968 106.975 355.818 466.197
143 0 62.2996 11.8941 741 133.713 355.08 469.926
144 0 67.4754 15.7094 1060 106.244 355.374 466.221
145 0 66.1962 13.0521 864 111.976 354.162 464.118
146 0 70.1259 14.5168 1018 109.205 353.989 463.863
147 0 69.1113 11.7202 810 114.516 353.049 461.967
148 0 73.1324 14.4943 1060 111.055 352.842 459.056
149 0 75.1281 15.2939 1149 111.694 352.997 454.66
150 0 76.3006 14.4298 1101 113.345 351.307 458.048
151 0 80.1615 12.375 992 118.317 352.392 449.012
152 0 83.5502 13.1059 1095 114.96 352.793 452.882
153 1 49.345 13.7197 677 109.536 352.601 468.459
154 0 46.4394 13.2431 615 112.291 352.967 465.169
155 0 48.1716 17.3961 838 106.529 352.652 464.841
156 0 46.0817 14.7998 682 111.447 354.984 464.529
157 0 46.1189 12.6195 582 113.149 355.698 464.756
158 0 51.1422 14.2544 729 108.595 356.001 466.095
159 0 51.3471 16.4177 843 105.363 356.395 465.93
160 0 53.0388 13.4241 712 111.163 357.628 464.218
161 0 53.1423 15.355 816 107.384 356.589 459.283
162 0 54.1632 14.4378 782 108.297 357.217 460.74
163 0 64.3014 21.648 1392 97.7191 357.791 457.945
164 0 57.2307 11.6546 667 112.186 358.976 459.601
165 0 65.2223 16.0068 1044 105.034 358.977 457.499
166 0 64.3354 19.5071 1255 102.073 360.291 456.75
167 0 64.3354 15.7301 1012 123.481 361.398 459.442
168 0 70.4116 14.7845 1041 109.912 359.749 457.21
169 0 69.3882 11.097 770 116.547 361.14 456.984
170 0 76.3992 15.1834 1160 108.732 361.448 458.796
171 0 78.2732 15.0626 1179 110.559 360.841 456.457
172 0 78.3207 10.3676 812 117.385 361.082 460.126
173 0 84.5782 13.0294 1102 112.656 359.657 460.27
174 0 83.446 14.9917 1251 111.179 359.078 458.903
175 0 87.5133 13.9293 1219 111.81 358.558 457.143
176 1 46.2 11.5584 534 112.785 356.133 475.785
177 0 48.1948 13.8397 667 108.175 357.211 476.552
178 0 47.1349 13.0477 615 109.675 357.454 476.909
179 0 48.0865 11.8744 571 109.643 355.215 478.56
180 0 50.1423 11.1682 560 109.048 355.455 475.82
181 0 52.0758 15.1894 791 105.674 354.676 475.279
182 0 54.1797 13.1968 715 107.434 353.494 473.333
183 0 53.1263 12.4609 662 109.334 354.162 471.607
184 0 55.2088 11.7554 649 109.695 353.94 472.863
185 0 59.3155 16.5555 982 102.499 353.185 471.746
186 0 61.2387 14.4843 887 107.418 351.47 467.192
187 0 63.3049 15.1805 961 106.817 351.932 465.159
188 0 64.2999 12.5195 805 110.965 351.293 463.734
189 0 64.3741 12.0235 774 113.062 351.097 460.499
190 0 68.3406 14.0034 957 109.529 350.508 461.583
191 0 71.2454 14.5413 1036 109.85 349.631 459.116
192 0 71.2454 14.5834 1039 141.434 348.661 459.076
193 0 79.3689 14.4893 1150 110.713 349.537 454.031
194 0 81.4333 18.9112 1540 103.935 350.641 454.856
195 0 83.3786 18.434 1537 106.645 351.32 448.536
196 0 84.3239 13.7328 1158 113.434 352.191 447.83
197 0 87.2993 13.0471 1139 114.274 352.724 441.309
198 0 91.4789 14.0688 1287 110.984 353.516 443.029
199 0 94.253 16.1374 1521 108.131 354.158 434.327
200 1 51.1954 15.7827 808 103.579 354.496 463.46
201 0 50.3126 9.20246 463 112.963 353.43 462.246
202 0 52.0914 15.6456 815 103.566 354.734 462.552
203 0 52.1101 14.1239 736 104.933 354.961 460.272
204 0 55.1505 13.7624 759 103.827 356.738 462.906
205 0 55.1388 14.3275 790 104.695 357.275 462.272
206 0 55.1388 14.4363 796 133.345 358.264 462.269
207 0 60.077 12.7503 766 107.695 358.599 458.674
208 0 60.1935 16.7294 1007 103.637 359.738 455.856
209 0 62.0578 14.1964 881 108.142 360.869 456.941
210 0 63.0682 14.191 895 108.968 361.181 454.524
211 0 68.0464 11.0954 755 110.991 360.079 461.391
212 0 69.0678 14.5799 1007 108.261 359.966 456.183
213 0 74.1062 14.3713 1065 107.054 359.766 459.078
214 0 75.2117 18.1355 1364 101.954 360.118 460.454
215 0 77.1947 15.1694 1171 106.562 361.43 459.19
216 0 80.1411 14.4121 1155 107.463 361.345 456.64
217 0 80.1711 10.0535 806 112.991 361.289 458.806
218 0 84.2097 14.3095 1205 107.655 359.838 452.775
219 0 87.3031 14.3179 1250 106.728 359.971 457.732
220 0 92.3947 15.423 1425 106.044 361.067 451.201
221 1 49.0671 11.4129 560 106.561 360.468 476.416
222 0 48.1165 10.5993 510 107.476 359.796 478.596
223 0 51.0999 13.2486 677 103.157 357.548 476.458
224 0 53.3163 13.3355 711 104.972 353.484 475.847
225 0 55.1782 12.4687 688 104.634 351.991 475.927
226 0 56.0275 16.367 917 100.45 351.049 472.152
227 0 55.2107 11.1391 615 107.454 351.34 472.244
228 0 57.2033 10.9085 624 108.002 350.136 470.79
229 0 58.1052 14.4393 839 103.993 349.398 467.039
230 0 61.2316 15.0739 923 103.661 348.816 468.23
231 0 64.2653 13.3042 855 106.434 349.358 467.932
232 0 64.2055 13.0207 836 108.707 349.026 464.522
233 1 132.767 12.8646 1708 118.279 349.115 427.48
234 0 143.651 13.484 1937 116.693 349.395 427.011
235 1 72.1134 14.8793 1073 106.835 348.933 459.735
236 0 74.1467 10.8569 805 112.739 349.422 456.929
237 0 74.1476 10.6005 786 113.322 348.519 455.052
238 0 77.1484 9.73448 751 112.664 348.186 455.882
239 1 41.1696 10.6632 439 106.257 349.159 467.973
240 0 45.0574 13.7824 621 102.865 347.948 467.222
241 0 43.0632 11.6805 503 104.769 350.861 468.598
242 0 39.0461 8.68204 339 111.15 351.375 467.224
243 0 46.223 14.3651 664 102.086 350.527 467.52
244 0 46.0538 10.0969 465 107.578 352.877 465.101
245 0 48.0923 13.9315 670 101.682 352.33 466.155
246 0 53.3477 13.7588 734 102.178 354.981 465.955
247 0 50.1663 13.0964 657 105.712 354.113 460.059
248 0 51.0291 15.9713 815 103.174 355.342 460.509
249 0 51.0291 16.1281 823 111.928 356.334 460.646
250 0 55.2906 14.3424 793 104.672 354.448 459.921
251 0 58.0846 12.5851 731 105.828 356.517 462.127
252 0 61.0642 15.279 933 102.773 357.456 459.509
253 0 58.0689 10.5048 610 109.126 358.393 461.811
254 0 65.1361 12.8193 835 104.107 359.151 463.102
255 0 70.0911 13.1115 919 104.468 357.614 459.622
256 0 71.1221 13.5682 965 103.683 359.452 457.76
257 0 72.1822 14.3249 1034 103.243 360.071 459.022
258 0 75.1677 13.2371 995 103.791 360.031 461.354
259 0 72.2786 7.80314 564 111.103 360.188 455
260 1 41.1187 12.3301 507 102.884 360.055 477.176
261 0 42.1096 11.0426 465 104.471 358.411 477.499
262 0 41.1987 13.3742 551 101.512 356.123 476.103
263 0 43.0814 9.16869 395 106.62 358.327 481.018
264 0 43.1343 10.363 447 106.445 356.09 480.886
265 0 43.1343 10.2239 441 124.281 354.077 480.98
266 0 50.0515 13.3463 668 100.717 356.192 477.979
267 0 51.1566 12.3933 634 101.863 356.967 475.964
268 0 50.0681 18.0554 904 94.1338 355.71 479.404
269 0 51.1885 12.1316 621 103.248 355.651 474.678
270 0 56.1393 12.3087 691 102.553 354.243 474.787
271 0 53.1088 10.9398 581 106.041 354.007 471.649
272 0 56.0309 12.3503 692 104.133 351.906 470.698
273 0 60.0908 12.997 781 103.571 353.054 466.851
274 0 61.0759 13.8844 848 103.139 352.007 466.88
275 0 63.0982 12.2349 772 104.385 351.237 467.711
276 0 63.0631 11.1317 702 104.87 350.798 467.717
277 0 67.1402 12.3175 827 104.406 351.382 459.622
278 0 70.0749 14.9697 1049 100.885 350.897 459.44
279 0 72.2198 11.7835 851 104.529 350.242 460.92
280 0 77.0963 14.3976 1110 101.488 351.324 453.098
281 0 80.1896 15.8873 1274 100.332 349.946 450.981
282 0 79.1299 13.6358 1079 103.517 351.298 448.917
283 1 43.0557 11.2412 484 106.502 352.504 466.948
284 0 45.0799 11.3798 513 107.425 351.205 467.296
285 0 45.0919 12.3082 555 106.519 351.297 465.146
286 0 46.0641 14.0674 648 104.099 351.941 462.872
287 0 49.0658 12.3508 606 103.946 353.675 459.947
288 0 52.0992 13.935 726 101.311 354.315 462.03
289 0 53.136 12.1763 647 104.89 355.28 460.328
290 0 56.0503 13.9339 781 103.237 356.252 454.851
291 0 56.1474 13.0371 732 105.346 354.862 457.128
292 0 55.0644 13.5296 745 104.502 356.78 459.844
293 0 56.3413 9.51344 536 111.97 356.08 458.685
294 0 59.4822 10.2047 607 110.787 357.199 459.097
295 0 60.326 13.0955 790 107.832 357.562 457.124
296 0 64.3657 15.1789 977 105.972 358.41 451.801
297 0 64.3657 15.008 966 125.433 359.447 451.53
298 0 66.422 13.6852 909 109.307 358.506 452.048
299 0 69.356 13.6253 945 109.481 359.815 453.808
300 0 73.3014 13.1239 962 109.778 360.242 457.456
301 0 74.4347 13.3137 991 110.224 359.778 455.959
302 0 78.3976 13.827 1084 108.081 359.627 454.85
303 0 79.3724 12.3595 981 111.081 359.652 453.799
304 0 84.338 14.928 1259 107.603 359.128 452.677
305 0 87.3406 16.6589 1455 104.825 358.4 451.525
306 0 88.3539 12.5178 1106 108.185 358.164 458.882
307 0 90.2522 12.6202 1139 111.63 356.877 449.297
308 1 50.1176 12.9894 651 110.679 356 470.525
309 0 53.0949 13.1651 699 109.09 355.227 473.661
310 0 55.1219 15.9102 877 101.051 356.257 469.548
311 0 58.0995 14.0793 818 102.017 355.054 472.686
312 0 61.3468 15.5672 955 100.368 354.494 474.228
313 0 59.2918 13.4757 799 104.761 354.195 470.115
314 0 63.2733 11.0631 700 108.109 354.047 467.844
315 0 64.2723 13.8318 889 103.368 352.883 468.53
316 0 67.2412 18.0395 1213 98.6191 352.999 466.715
317 0 69.5566 13.7586 957 103.307 351.077 464.914
318 0 70.4662 16.405 1156 100.972 350.297 459.351
319 0 72.2719 12.5637 908 105.532 350.63 457.823
320 0 75.3185 13.569 1022 103.832 349.927 458.66
321 0 75.3185 13.4628 1014 136.731 349.946 458.634
322 0 82.4734 14.3804 1186 104.653 350.257 453.922
323 0 86.3741 14.7151 1271 102.008 349.897 454.843
324 0 85.319 13.1975 1126 107.413 350.009 442.466
325 1 46.2158 11.4896 531 105.601 349.38 465.661
326 0 45.1446 12.2052 551 105.704 350.815 464
327 0 50.6029 17.0939 865 97.496 352.649 463.934
328 0 51.2512 15.0436 771 100.349 351.908 462.073
329 0 49.1484 11.0278 542 102.622 350.644 456.618
330 0 46.1771 5.02413 232 103.478 352.315 459.772
331 0 47.4109 6.7495 320 101.478 354.328 457.078
332 0 51.3305 9.56546 491 100.945 355.725 451.807
333 0 55.3592 8.76096 485 101.258 355.328 452.903
334 0 53.2718 13.1777 702 98.4373 356.352 447.585
335 0 56.5848 12.6712 717 97.1646 356.543 454.296
336 0 54.1846 9.94747 539 103.852 357.531 447.798
337 0 57.4827 12.8908 741 100.955 357.945 446.507
338 0 61.5301 9.8976 609 103.823 357.499 448.266
339 0 63.3811 11.7543 745 102.059 359.777 447.783
340 1 132.098 12.627 1668 110.736 359.985 410.63
341 1 66.225 8.96942 594 106.746 360.488 447.391
342 0 65.263 11.6146 758 104.028 359.773 446.673
343 0 72.3326 12.8435 929 101.402 360.016 447.466
344 0 72.3107 11.257 814 104.485 361.747 445.916
345 0 74.247 10.061 747 103.182 361.54 454.972
346 0 79.394 12.4821 991 102.013 360.616 451.386
347 0 81.4776 12.0769 984 101.725 361.244 454.956
348 0 85.4977 10.4564 894 105.047 362.153 448.642
349 0 86.4482 11.5445 998 105.397 361.782 450.031
350 0 89.5017 12.335 1104 106.439 360.727 438.746
351 0 87.4959 8.30896 727 112.484 360.519 439.168
352 0 95.585 13.1297 1255 104.75 360.905 444.12
353 0 102.258 15.0013 1534 102.475 360.767 446.975
354 0 105.088 15.3681 1615 106.786 360.923 445.12
355 0 108.334 14.9445 1619 107.54 359.333 444.476
356 0 110.25 14.6122 1611 106.559 357.682 446.419
357 0 113.187 14.1536 1602 108.245 357.431 442.086
358 0 119.294 13.8733 1655 108.087 358.169 434.394
359 0 121.182 11.2228 1360 107.742 355.987 435.856
360 0 127.395 15.8169 2015 102.255 354.825 431.148
361 0 129.358 18.5454 2399 99.7382 355.534 429.747
362 0 135.646 13.7564 1866 105.579 355.425 424.03
363 0 142.661 23.3561 3332 95.7218 354.747 424.08
364 0 145.489 16.015 2330 103.073 353.496 421.858
365 0 151.759 14.1606 2149 107.439 353.664 415.499
366 0 155.902 13.0466 2034 109.277 354.431 411.703
367 0 165.1 18.1647 2999 102.451 353.82 414.62
368 0 166.061 13.5011 2242 109.569 353.776 404.41
369 0 173.726 19.1623 3329 102.715 353.75 402.948
370 0 176.653 14.7125 2599 108.621 353.622 393.459
371 1 231.144 13.9264 3219 111.029 353.258 370.464
372 1 190.145 16.3875 3116 107.731 354.969 387.357
373 0 197.257 11.8374 2335 112.532 355.89 379.445
374 0 197.784 16.0074 3166 109.541 357.264 372.128
375 0 205.607 13.5988 2796 112.219 355.331 373.896
376 0 211.83 14.658 3105 113.018 357.69 368.895
377 0 221.713 17.5542 3892 106.495 356.513 375.382
378 0 228.594 16.1728 3697 108.757 358.503 368.553
379 0 236.926 13.5739 3216 112.342 360.323 363.729
380 0 246.733 14.1854 3500 112.863 360.035 344.795
381 0 255.807 15.9691 4085 108.472 359.841 360.142
382 1 55.5557 9.43198 524 101.927 359.517 456.45
383 0 57.2134 12.934 740 97.7514 361.227 457.209
384 0 61.13 12.0563 737 101.997 364.392 458.554
385 0 65.1774 19.7461 1287 92.4895 362.173 459.883
386 0 65.2362 13.3821 873 101.041 364.4 458.879
387 0 67.211 13.0782 879 102.433 363.932 456.241
388 0 68.2149 11.2146 765 105.654 363.771 460.367
389 0 70.2202 15.1239 1062 133.868 363.988 456.022
390 0 73.3102 13.2587 972 105.649 363.396 457.067
391 0 75.2594 16.3169 1228 102.737 363.212 453.426
392 0 74.5528 15.5997 1163 104.097 362.966 456.846
393 0 79.4592 14.1204 1122 106.203 361.306 451.648
394 0 84.5877 14.021 1186 105.637 360.22 454.601
395 0 85.4984 14.3628 1228 106.025 359.34 453.099
396 0 88.3691 10.9654 969 111.911 360.527 450.283
397 1 48.1137 11.8262 569 103.195 357.501 476.861
398 0 47.2146 11.3524 536 100.183 356.767 473.606
399 0 50.1651 12.9772 651 100.118 356.882 474.813
400 0 49.14 10.3582 509 103.747 355.658 476.876
401 0 48.1401 11.2796 543 101.153 355.959 477.941
402 0 51.3678 13.4131 689 101.128 355.724 472.054
403 0 49.2481 9.56383 471 104.497 354.807 475.427
404 0 56.3356 10.7037 603 101.869 354.675 472.937
405 0 60.5086 11.9652 724 100.986 353.943 462.01
406 0 60.4243 11.833 715 101.413 352.909 462.2
407 0 60.3977 11.06 668 104.359 353.045 459.91
408 0 60.3977 11.0435 667 131.06 353.048 459.762
409 0 67.4312 18.1222 1222 95.6874 351.023 460.043
410 0 68.4025 13.172 901 103.082 352.818 455.171
411 0 69.3105 9.46465 656 107.913 350.611 460.8
412 0 71.3587 11.6734 833 106.112 350.767 456.7
413 0 77.3296 17.3413 1341 102.495 352.043 451.398
414 0 79.6768 16.9811 1353 103.563 352.248 448
415 0 80.5697 17.6741 1424 101.52 352.268 451.867
416 0 81.2655 11.8377 962 111.071 352.817 446.403
417 0 85.5334 13.8309 1183 108.249 354.321 443.78
418 0 84.1423 10.7794 907 113.149 355.91 441.012
419 1 45.1087 12.6805 572 105.129 356.629 462.841
420 0 47.0959 12.9735 611 103.321 358.987 461.534
421 0 49.0724 12.2065 599 102.209 358.698 457.267
422 0 52.2395 13.7444 718 102.248 361.001 462.311
423 0 55.2025 14.5646 804 99.0498 361.132 464.397
424 0 54.0864 11.0749 599 108.275 361.598 456.83
425 0 55.1124 13.1368 724 104.727 362.407 459.282
426 0 54.2148 14.7192 798 104.489 363.543 456.607
427 0 55.0849 10.5655 582 110.942 363.572 456.845
428 0 59.165 12.1525 719 108.063 362.834 455.346
429 0 59.089 10.0696 595 110.469 364.242 461.294
430 0 61.1468 14.0154 857 105.28 364.513 455.461
431 0 65.5264 13.1245 860 107.079 365.156 458.879
432 0 68.3385 14.2233 972 104.182 364.489 459.954
433 0 68.1922 12.1861 831 108.087 363.884 456.752
434 0 71.3051 13.3651 953 106.034 363.683 458.62
435 0 70.174 14.065 987 106.307 362.706 454.371
436 0 74.2967 13.6884 1017 105.427 362.558 460.984
437 0 79.5049 12.0118 955 108.656 361.956 458.074
438 0 81.4413 13.4575 1096 106.544 362.28 458.523
439 0 85.4157 17.4441 1490 100.815 361.189 459.266
440 0 84.1884 12.8996 1086 108.533 360.57 453.658
441 0 88.6098 15.8335 1403 104.521 359.38 454.419
442 1 44.1257 11.0367 487 107.156 359.018 475.343
443 0 44.1698 10.3691 458 109.098 359.79 471.548
444 0 44.3274 12.6107 559 102.275 358.92 465.952
445 0 46.3422 11.2425 521 104.349 357.559 465.841
446 0 47.304 11.6903 553 98.7034 356.293 464.727
447 0 51.1143 12.4818 638 100.828 354.574 469.205
448 0 54.3373 13.9683 759 98.4414 353.946 471.381
449 0 57.3301 22.6582 1299 88.1563 353.901 467.265
450 0 57.1898 11.4706 656 99.8628 353.37 464.883
451 0 58.2179 11.7661 685 99.4263 352.62 459.514
452 0 62.2429 18.1547 1130 92.6513 352.44 458.94
453 0 62.1152 14.3121 889 97.2767 352.379 460.511
454 0 67.3111 13.8164 930 97.9591 353.123 458.195
455 0 68.1797 13.6698 932 98.4421 352.523 455.601
456 0 73.2571 15.5753 1141 97.2191 351.702 456.699
457 0 73.333 12.491 916 100.34 352.706 458.787
458 0 76.4212 11.489 878 102.894 352.155 449.246
459 0 77.2635 12.3474 954 103.569 352.934 447.158
460 0 81.107 13.3651 1084 102.816 353.478 447.4
461 0 85.6266 15.5092 1328 102.332 354.362 444.528
462 1 49.0925 12.5274 615 99.878 354.491 467.361
463 0 45.5191 12.3465 562 107.39 355.224 461.043
464 0 48.531 12.0541 585 103.385 357.067 459.573
465 0 53.4741 12.4546 666 100.694 358.009 464.212
466 0 54.2778 13.173 715 99.7832 357.231 464.523
467 0 50.4457 8.92047 450 107.207 358.009 464.389
468 0 55.389 15.4002 853 97.0117 357.176 468.771
469 0 57.4273 11.0052 632 104.528 358.282 467.256
470 0 58.3841 11.2359 656 103.348 359.881 469.099
471 0 60.3995 13.212 798 103.188 360.502 464.956
472 0 62.1244 13.3603 830 104.058 359.711 462.761
473 0 64.0745 13.5779 870 104.791 359.794 462.429
474 0 66.0415 15.6114 1031 101.732 359.307 465.827
475 0 64.0946 12.0603 773 109.814 360.67 463.079
476 0 72.1008 12.8986 930 106.802 360.398 463.208
477 0 74.3017 12.1532 903 109.32 359.448 465.615
478 0 74.2215 12.6109 936 110.286 359.239 464.655
479 0 78.275 15.19 1189 106.442 357.803 466.22
480 0 79.1668 11.1789 885 113.007 358.238 466.471
481 0 81.1818 12.5644 1020 111.665 357.69 461.88
482 0 85.0683 14.7646 1256 106.864 356.869 465.518
483 0 89.2236 13.5054 1205 110.141 356.187 462.315
484 1 45.1122 10.6845 482 111.197 354.423 484.114
485 0 46.081 16.2323 748 102.481 353.833 485.239
486 0 48.2729 11.4143 551 110.755 351.299 480.278
487 0 51.4269 10.967 564 110.051 350.518 478.863
488 0 56.1465 14.9965 842 104.018 349.493 479.874
489 0 52.1136 11.2255 585 111.694 348.145 479.47
490 0 54.0856 12.3138 666 110.273 347.802 477.881
491 0 56.1598 13.978 785 111.625 347.935 476.094
492 0 58.1162 13.1289 763 113.494 347.283 474.094
493 0 61.1961 14.9029 912 109.808 347.749 475.737
494 0 62.2361 13.6255 848 113.854 347.5 473.047
495 0 65.4004 17.9204 1172 104.442 347.284 473.086
496 0 69.2993 16.0896 1115 107.382 347.842 468.154
497 0 68.2081 13.3269 909 114.079 347.425 465.892
498 0 70.3931 15.9675 1124 111.588 346.084 461.754
499 0 72.1349 15.1383 1092 113.954 346.014 458.688
500 0 74.3328 17.7311 1318 107.339 345.725 460.551
501 0 76.1138 13.6638 1040 114.871 346.234 454.366
502 0 77.1853 14.1089 1089 116.758 347.164 452.663
503 0 81.1694 19.4039 1575 106.717 347.307 452.72
504 0 80.2527 14.0058 1124 114.991 348.719 453.183
505 0 84.3188 13.4964 1138 115.757 348.481 448.568
506 0 88.118 12.7783 1126 116.774 349.269 450.353
507 0 89.1823 15.1375 1350 114.876 351.107 442.559
508 0 91.1598 12.4945 1139 114.9 353.68 448.461
509 0 95.3481 14.4943 1382 115.364 354.716 443.722
510 0 94.3308 12.6258 1191 117.07 355.576 445.373
511 0 99.2842 14.5743 1447 113.983 356.1 445.305
512 0 104.416 15.4766 1616 113.989 356.735 438.174
513 1 56.18 13.4212 754 111.927 358.602 464.861
514 0 57.2816 13.2852 761 110.938 355.528 465.775
515 0 56.3192 11.1152 626 109.04 357.506 460.102
516 0 59.3026 8.76859 520 106.94 357.162 467.213
517 0 61.2706 13.6281 835 103.43 357.626 465.317
518 0 61.2718 8.12772 498 109.721 358.568 462.994
519 0 66.3935 16.8239 1117 99.9105 357.223 466.385
520 0 65.1317 10.6707 695 110.45 356.124 466.512
521 0 70.282 10.6713 750 109.48 356.387 465.989
522 0 72.3386 10.8794 787 109.47 355.537 467.75
523 0 74.3117 15.0582 1119 106.129 355.503 463.948
524 0 78.6389 11.343 892 109.291 354.172 466.336
525 0 79.3524 8.43074 669 120.647 354.217 461.546
526 0 85.5074 17.6125 1506 106.865 353.979 461.494
527 0 88.5491 15.4716 1370 109.816 352.94 462.981
528 0 88.3675 12.4141 1097 113.475 353.438 459.023
529 1 43.2777 11.6919 506 111.138 352.134 482.846
530 0 45.2007 12.7211 575 109.157 350.843 481.79
531 0 47.3883 11.7751 558 110.694 349.93 477.423
532 0 54.2103 15.237 826 103.013 348.406 480.784
533 0 50.0503 12.8271 642 110.551 347.751 478.858
534 0 52.0717 13.2318 689 109.139 347.893 479.785
535 0 53.2317 14.6341 779 108.341 347.205 475.457
536 0 54.1946 13.3408 723 109.799 346.898 474.954
537 0 54.1004 12.9759 702 111.385 346.752 470.856
538 0 56.3411 10.8269 610 111.621 345.997 474.359
539 0 58.3694 14.8365 866 106.627 347.769 469.468
540 0 58.4161 14.0372 820 107.922 346.282 468.477
541 0 61.5239 13.7508 846 107.948 345.707 468.94
542 0 63.233 17.3011 1094 104.634 346.333 464.255
543 0 64.2559 12.4035 797 112.349 346.75 460.683
544 0 69.5052 17.7828 1236 103.044 347.418 464.302
545 0 69.1596 14.5894 1009 110.164 348.416 462.741
546 0 71.4386 13.0322 931 113.661 348.318 456.745
547 0 72.4979 13.3797 970 111.229 348.513 458.269
548 0 77.4816 14.9197 1156 109.956 349.14 450.764
549 0 80.5013 14.1116 1136 110.629 349.511 450.356
550 0 81.3336 17.3852 1414 106.434 350.099 448.329
551 0 81.5074 12.1584 991 110.085 350.778 453.511
552 1 45.0764 13.8875 626 105.484 350.938 470.765
553 0 44.0343 12.8082 564 106.713 351.512 469.399
554 0 48.118 13.5708 653 106.274 351.974 467.011
555 0 48.1255 13.3401 642 106.894 352.284 466.963
556 0 51.1299 10.4244 533 111.272 353.533 471.045
557 0 54.2094 14.7945 802 104.016 354.075 470.837
558 0 53.081 14.4873 769 107.199 355.159 468.147
559 0 54.0727 11.3921 616 111.557 354.489 469.153
560 0 56.1767 12.6921 713 110.574 354.189 467.045
561 0 58.0639 13.9157 808 108.543 354.876 467.556
562 0 61.2162 15.3718 941 106.682 354.223 465.967
563 0 61.0611 12.9051 788 110.798 354.168 469.542
564 0 66.146 15.0274 994 106.561 353.843 468.517
565 0 65.1555 13.1224 855 111.022 353.296 468.943
566 0 66.0999 13.5704 897 110.293 353.747 469.039
567 0 68.0787 12.794 871 112.567 353.484 468.806
568 0 71.1734 12.2939 875 111.602 353.607 474.478
569 0 75.1123 15.0441 1130 108.804 352.344 467.584
570 0 77.174 19.4496 1501 102.638 352.991 469.893
571 0 75.2194 12.4702 938 116.865 352.117 465.403
572 0 79.4296 13.8865 1103 113.176 351.058 466.083
573 0 83.4038 13.0929 1092 113.059 350.215 467.388
574 0 87.424 14.0465 1228 112.814 350.055 464.276
575 1 46.1378 11.2922 521 110.777 347.635 485.772
576 0 49.3205 12.9764 640 111.758 347.097 481.144
577 0 53.4084 12.5261 669 109.419 347.441 479.184
578 0 51.1845 13.7737 705 105.539 347.218 478.214
579 0 50.1871 11.9951 602 109.601 346.744 474.455
580 0 52.1093 10.5547 550 110.144 347.545 476.595
581 0 55.1247 15.1112 833 104.074 346.679 474.066
582 0 57.3604 13.7377 788 106.944 346.723 471.032
583 0 59.1658 14.0453 831 105.965 347.543 471.962
584 0 61.1456 14.4573 884 105.695 348.607 466.837
585 0 62.3492 12.2696 765 107.66 348.61 465.765
586 0 64.4055 14.2534 918 103.789 348.967 465.678
587 0 65.1567 13.7208 894 105.823 349.668 463.502
588 0 68.2893 13.4867 921 106.303 350.952 461.429
589 0 70.178 10.0744 707 106.711 350.687 462.274
590 0 73.193 11.3535 831 106.692 350.671 454.247
591 0 75.2564 24.091 1813 93.1947 350.551 456.426
592 0 76.1497 15.1018 1150 103.548 354.054 450.788
593 0 76.1497 15.2069 1158 124.829 357.059 450.867
594 0 82.4109 15.9081 1311 105.164 354.214 451.126
595 0 88.2992 18.5166 1635 99.8147 354.92 454.979
596 0 87.1533 14.7097 1282 105.574 355.076 447.596
597 0 92.1743 14.6353 1349 107.086 357.075 449.007
598 0 94.5629 11.8651 1122 109.892 357.52 448.595
599 0 103.868 13.2476 1376 104.12 357.019 452.199
600 0 102.36 16.2857 1667 102.307 357.119 445.295
601 0 105.328 13.5102 1423 104.117 357.745 453.412
602 1 56.0896 13.1219 736 104.505 358.273 471.898
603 0 56.0586 12.8972 723 104.667 358.119 472.903
604 0 59.4498 12.8512 764 105.442 358.268 471.488
605 0 60.0828 11.1346 669 107.925 358.565 471.526
606 0 62.1624 11.9365 742 107.332 358.472 468.716
607 0 64.1223 11.7276 752 107.261 357.229 472.868
608 0 68.2149 14.7622 1007 103.419 357.889 469.216
609 0 69.1317 14.9714 1035 104.15 357.488 469.348
610 0 70.191 14.489 1017 105.362 356.608 472.419
611 0 72.0872 12.3878 893 108.954 356.034 467.636
612 0 77.1332 15.3371 1183 104.199 357.431 466.129
613 0 79.3344 13.462 1068 105.919 356.274 467.527
614 0 83.1633 18.4456 1534 100.188 355.63 466.246
615 0 84.334 15.8299 1335 104.095 354.923 461.952
616 0 87.3103 16.2524 1419 103.434 353.713 462.755
617 0 91.3143 14.3242 1308 106.954 352.423 459.066
618 0 94.136 12.0039 1130 110.696 352.031 460.117
619 1 48.2539 9.51218 459 110.756 351.534 480.237
620 0 50.0823 12.9786 650 105.315 351.28 479.84
621 0 53.1762 10.1173 538 108.405 352.045 474.801
622 0 53.115 11.7857 626 106.652 350.249 473.553
623 0 56.2972 12.8426 723 105.03 350.12 476.1
624 0 60.0981 15.2917 919 102.607 349.698 472.538
625 0 61.2343 13.1952 808 104.457 350.047 468.613
626 0 60.1199 11.9262 717 108.127 351.184 464.748
627 0 61.0705 9.71008 593 111.081 350.304 465.627
628 0 66.2918 12.9579 859 105.721 350.654 463.852
629 0 67.2151 11.5897 779 109.254 350.508 457.574
630 0 70.3837 14.3073 1007 103.993 350.505 461.63
631 0 76.6066 20.7423 1589 96.2908 349.858 459.329
632 0 77.1621 15.4998 1196 103.866 351.953 456.758
633 0 74.1083 13.9256 1032 108.217 350.465 454.403
635 0 75.2165 10.051 756 110.95 351.917 459.574
636 0 83.2593 19.6975 1640 101.013 352.006 451.356
637 0 86.2133 14.1278 1218 106.608 352.422 454.395
638 0 90.2156 12.9689 1170 109.245 353.794 449.591
639 0 92.1551 12.2619 1130 114.565 355.842 444.745
640 0 98.2085 15.7726 1549 106.83 355.445 449.68
641 0 108.56 13.2185 1435 109.011 355.838 442.334
642 0 102.915 14.4391 1486 113.425 356.671 440.998
643 0 107.936 13.332 1439 112.994 355.931 444.46
644 0 111.538 15.4836 1727 111.947 356.217 438.922
645 0 114.442 14.0595 1609 114.053 356.413 437.978
646 0 120.744 16.5061 1993 108.257 355.968 445.934
647 0 123.858 14.4924 1795 113.025 356.874 439.614
648 1 65.4982 15.3897 1008 103.594 356.698 466.981
649 0 66.2945 8.07006 535 114.058 355.518 470.359
650 0 72.3841 14.0224 1015 105.892 355.997 467.694
651 0 69.2001 11.1127 769 110.724 355.882 468.533
652 0 79.0975 12.4909 988 106.644 358.433 467.009
653 0 78.1669 12.6268 987 104.633 358.131 471.839
654 0 85.326 17.9429 1531 99.772 357.282 466.746
655 0 82.1742 8.84706 727 113.074 355.571 463.872
656 0 89.196 18.2744 1630 99.4405 355.424 464.351
657 0 91.167 14.4131 1314 106.104 355.387 459.562
658 0 92.1683 12.0649 1112 109.939 354.445 455.862
659 0 93.3425 12.4916 1166 109.875 354.654 453.463
660 1 50.194 13.408 673 103.909 352.942 477.224
661 0 49.0602 10.2731 504 107.042 352.633 478.196
662 0 54.8294 17.4177 955 95.778 352.26 474.597
663 0 54.1904 12.9912 704 101.503 352.859 475.737
664 0 53.161 12.4904 664 104.188 352.08 473.367
665 0 57.086 14.7847 844 100.392 352.214 472.985
666 0 55.0656 11.7859 649 106.285 350.801 472.923
667 0 58.1465 10.164 591 107.208 351.328 468.854
668 0 62.065 15.4193 957 98.3469 349.501 466.603
669 0 61.0613 11.6768 713 104.418 350.698 463.578
670 0 64.1063 14.2576 914 100.268 351.296 464.368
671 0 65.178 14.4681 943 99.8621 350.981 462.582
672 0 68.0881 10.4423 711 104.238 351.504 462.754
673 0 71.0955 12.1245 862 101.484 351.636 460.795
674 0 75.1263 12.4191 933 101.899 352.24 457.553
675 0 79.094 17.1442 1356 97.6342 352.229 451.664
676 0 80.094 14.92 1195 99.2887 352.874 454.953
677 0 81.0916 12.2207 991 101.888 353.763 455.458
678 0 84.1694 12.2016 1027 103.74 354.057 448.161
679 0 90.3267 17.6028 1590 97.9447 354.708 445.507
680 0 87.2978 12.9786 1133 104.117 356.187 449.997
681 1 46.264 12.8394 594 103.249 357.303 464.625
682 0 46.0666 7.74964 357 105.062 356.779 464.339
683 0 49.3369 13.4787 665 97.5669 355.917 463.731
684 0 49.3037 12.0275 593 99.8988 357.153 463.771
685 0 51.0612 18.5856 949 96.3235 355.824 470.581
686 0 53.1109 13.2176 702 103.533 357.05 470.537
687 0 53.0601 12.6837 673 104.088 355.374 473.388
688 0 55.1452 15.3776 848 100.473 356.252 469.926
689 0 57.4622 16.5848 953 98.1364 356.307 472.402
690 0 57.1107 13.9378 796 101.922 356.637 473.479
691 0 57.2878 11.8699 680 105.834 355.284 470.651
692 0 62.2614 14.664 913 100.437 356.24 470.954
693 0 64.2416 13.3091 855 102.586 356.283 472.734
694 0 64.2416 13.278 853 126.252 356.317 472.681
695 0 65.4698 15.1368 991 101.282 356.075 470.047
696 0 68.3966 14.1381 967 103.059 355.644 471.286
697 0 70.2127 11.5221 809 106.681 354.218 467.142
698 0 74.3881 13.9135 1035 104.352 354.625 467.192
699 0 75.3932 11.9905 904 106.504 353.332 469.175
700 0 78.2336 14.5206 1136 104.389 353.331 467.149
701 0 80.3271 11.1295 894 108.058 352.399 468.111
702 0 84.1246 14.0625 1183 105.672 352.781 462.039
703 0 86.2798 16.6319 1435 101.913 352.469 467.006
704 0 87.4556 13.4926 1180 106.759 351.838 465.633
705 0 90.3985 11.9692 1082 110.643 349.833 457.869
706 0 89.5981 12.1543 1089 111.366 350.138 457.444
707 0 97.2103 15.914 1547 103.738 349.299 459.622
708 0 99.2499 14.398 1429 106.188 348.847 456.367
709 0 103.407 18.8575 1950 100.983 348.054 448.6
710 0 106.596 13.6215 1452 109.811 348.039 448.686
711 0 111.404 19.344 2155 100.336 347.981 453.434
712 0 115.003 15.9822 1838 104.557 347.87 449.353
713 0 116.463 14.1676 1650 107.717 346.659 446.25
714 1 61.0528 13.7586 840 109.364 348.648 468.333
715 0 64.1486 14.9185 957 107.398 346.994 467.864
716 0 62.2895 11.3984 710 112.961 348.542 464.065
717 0 65.3113 15.2041 993 106.808 349.313 463.34
718 0 69.4066 18.3124 1271 102.832 349.947 463.689
719 0 69.341 19.8728 1378 99.4797 349.176 464.857
720 0 73.405 15.612 1146 106.366 350.873 460.603
721 0 76.3523 14.4855 1106 107.741 350.142 459.722
722 0 76.6321 16.7423 1283 105.693 351.534 459.76
723 0 81.5333 21.9787 1792 98.4782 351.681 461.107
724 0 81.345 16.178 1316 107.575 351.935 456.619
725 0 85.1947 18.4988 1576 103.988 352.898 455.167
726 0 86.2239 15.2162 1312 109.627 353.523 450.401
727 1 45.1206 8.88729 401 113.748 354.105 473.06
728 0 48.1014 12.8271 617 104.627 354.859 476.827
729 0 53.5958 16.7177 896 100.392 355.629 475.924
730 0 48.2679 13.3629 645 103.504 357.445 470.085
731 0 54.0895 12.4054 671 100.724 357.402 469.945
732 0 55.2511 11.0224 609 105.187 356.714 465.138
733 0 57.2166 12.6711 725 102.59 357.599 467.808
734 0 60.6782 13.1843 800 100.778 357.191 471.34
735 0 60.3102 15.5695 939 101.737 356.477 467.362
736 0 62.3297 14.295 891 104.535 356.947 463.578
737 0 69.2709 16.8613 1168 99.5437 357.455 469.926
738 0 68.1471 13.7203 935 105.478 357.28 466.297
739 0 71.2251 14.2506 1015 105.913 356.138 468.588
740 0 70.13 13.6461 957 110.107 356.372 468.464
741 0 75.0858 18.2591 1371 103.573 355.708 464.608
742 0 79.131 12.9406 1024 109.008 356.425 470.658
743 0 79.2568 13.0714 1036 112.866 354.78 465.683
744 0 83.2154 15.1294 1259 109.563 354.243 465.33
745 0 85.1121 10.6683 908 117.54 354.342 460.686
746 0 88.0769 12.5458 1105 112.557 353.519 464.618
747 1 45.1532 11.4721 518 108.62 352.535 482.189
748 0 47.1249 15.2573 719 106.019 352.828 470.691
749 0 51.0793 15.1529 774 103.367 351.421 469.531
750 0 49.4855 15.5601 770 100.981 350.826 470.582
751 0 49.2866 11.3418 559 111.73 350.787 473.751
752 0 53.0914 16.0478 852 102.984 349.725 474.832
753 0 57.1269 14.5641 832 104.227 350.945 471.248
754 0 54.1379 12.3204 667 111.315 352.046 468.541
755 0 58.1446 13.0537 759 110.144 351.453 468.842
756 0 60.2629 15.1503 913 109.135 350.258 461.801
757 0 62.0391 11.6217 721 113.417 351.875 466.664
758 0 66.0622 13.3359 881 112.208 351.894 461.57
759 0 70.0897 14.9951 1051 109.58 352.552 457.071
760 0 68.3907 14.461 989 109.522 352.119 456.226
761 0 71.2306 11.2873 804 111.284 353.338 460.996
762 0 75.1298 14.1488 1063 107.98 353.004 455.712
763 0 74.2918 13.272 986 110.699 353.955 454.884
764 0 75.3488 10.4713 789 115.785 354.639 454.788
765 0 79.2959 10.6563 845 115.245 355.877 450.453
766 0 85.214 11.031 940 113.011 355.819 449.334
767 0 88.2604 13.9247 1229 110.43 356.056 445.509
768 0 94.343 14.7335 1390 108.368 356.5 448.37
769 1 49.0899 11.9984 589 111.204 358.353 468.059
770 0 53.052 13.7224 728 108.485 358.537 467.326
771 0 55.0634 12.2949 677 107.201 358.362 469.965
772 0 55.0984 13.3579 736 106.841 357.688 467.26
773 0 57.2119 13.8957 795 106.24 358.845 466.893
774 0 60.1102 13.0593 785 105.952 359.046 468.206
775 0 63.0858 14.5041 915 102.705 359.349 467.78
776 0 61.1175 11.077 677 108.532 359.572 469.194
777 0 65.2818 12.8367 838 106.226 358.909 469.643
778 0 66.1401 15.5579 1029 102.008 358.697 469.651
779 0 71.2249 11.1197 792 108.163 358.831 468.371
780 0 73.3694 14.6246 1073 103.808 358.19 465.751
781 0 75.6143 15.103 1142 103.031 357.897 464.363
782 0 79.5176 16.751 1332 100.624 356.935 465.318
783 0 83.4265 16.7453 1397 100.469 357.461 464.344
784 1 41.3708 13.9712 578 105.123 356.497 486.057
785 0 43.1596 11.7934 509 109.018 355.004 485.511
786 0 43.4428 11.6935 508 105.656 353.72 479.628
787 0 42.5327 12.3199 524 103.246 354.492 473.775
788 0 45.1801 10.1815 460 101.778 351.572 478.172
789 0 43.1967 9.93131 429 103.953 351.037 476.441
790 0 43.1967 10.0239 433 113.788 350.021 476.376
791 0 50.155 13.0196 653 100.303 350.453 470.825
792 0 47.2672 11.0859 524 104.849 349.466 469.985
793 0 52.098 14.3 745 99.5101 350.478 472.478
794 0 51.1695 11.3935 583 102.437 350.182 471.264
795 0 53.3123 12.0047 640 101.473 349.564 469.494
796 0 54.3932 12.5935 685 101.536 350.323 467.467
797 0 56.4699 9.89908 559 106.526 351.234 462.352
798 0 58.4823 13.7307 803 101.209 351.088 462.081
799 0 59.4002 12.2559 728 103.87 351.497 460.025
800 0 60.4355 9.39845 568 106.386 350.266 459.674
801 0 63.6396 10.1195 644 105.573 351.323 455.432
802 0 67.3785 16.9193 1140 96.4632 350.145 459.79
803 0 68.0882 13.2328 901 108.277 352.657 457.8
804 1 150.434 15.5417 2338 111.157 353.482 422.629
805 0 149.373 11.6219 1736 118.408 354.862 416.698
806 0 151.251 14.1222 2136 114.491 354.924 417.46
807 1 79.1439 17.664 1398 101.831 355.078 453.161
808 0 80.2161 13.8252 1109 106.942 357.396 451.375
809 0 83.3708 13.9257 1161 107.437 357.476 452.997
810 0 82.2035 9.52514 783 112.179 358.411 458.186
811 0 87.4164 14.368 1256 107.172 357.854 451.013
812 0 92.3155 14.2013 1311 107.614 358.055 445.212
813 1 49.2351 12.3489 608 110.122 358.949 469.934
814 0 48.2461 11.1926 540 108.217 358.056 463.394
815 0 47.3439 13.2013 625 100.664 358.256 463.069
816 0 50.1259 10.733 538 103.732 358.993 464.303
817 0 54.3175 14.1023 766 100.48 358.785 462.986
818 0 56.3502 12.4578 702 101.829 358.637 467.742
819 0 58.2052 13.5211 787 102.161 358.804 466.427
820 0 57.1542 10.6904 611 107.786 359.157 463.221
821 0 62.209 12.3776 770 104.783 359.814 465.251
822 0 63.1326 16.2198 1024 98.165 358.942 468.774
823 0 67.1703 14.962 1005 101.52 359.017 464.283
824 0 67.2022 14.3597 965 102.168 358.488 465.81
825 0 71.2389 14.9357 1064 102.373 357.106 459.972
826 0 71.153 13.0142 926 105.665 358.143 457.713
827 0 75.1472 14.7976 1112 103.28 356.711 456.81
828 0 81.2639 11.3211 920 106.297 357.026 461.5
829 0 81.4761 15.2069 1239 104.203 355.859 454.227
830 0 84.1129 16.2639 1368 103.42 355.401 452.995
831 0 84.1495 12.6204 1062 110.349 354.98 448.307
832 0 90.2531 14.559 1314 107.591 354.444 452.327
833 1 46.1106 13.229 610 112.485 354.461 475.098
834 0 49.1017 11.6289 571 115.301 354.243 472.081
835 0 51.0341 13.1481 671 111.034 354.994 471.931
836 0 53.0441 12.3671 656 111.878 354.471 470.088
837 0 53.0305 13.5771 720 110.032 355.165 470.522
838 0 52.1698 12.4976 652 113.152 353.5 468.164
839 0 55.0523 12.0976 666 113.42 352.973 465.497
840 0 53.1159 11.7855 626 114.824 353.038 463.66
841 0 58.1533 14.1351 822 109.399 353.766 463.019
842 0 62.0505 15.6647 972 106.15 353.7 462.524
843 0 62.2032 12.4109 772 110.674 352.675 465.326
844 0 65.4364 15.6029 1021 106.486 353.129 458.746
845 0 69.3284 14.4097 999 107.965 353.379 456.216
846 0 69.4967 15.3101 1064 107.37 351.182 455.902
847 0 73.3042 15.9745 1171 106.94 352.939 447.165
848 0 70.5569 9.77934 690 117.961 355.619 445.084
849 1 41.4633 11.9865 497 110.899 354.724 464.996
850 0 41.4257 11.5146 477 110.78 357.019 466.254
851 0 45.178 13.7678 622 105.563 356.328 470.063
852 0 46.1423 12.4831 576 109.448 358.637 469.083
853 0 47.3429 15.1659 718 104.336 356.333 469.864
854 0 47.237 12.7654 603 110.242 358.657 468.113
855 0 49.2901 13.9785 689 107.856 358.462 468.824
856 0 51.1565 12.1979 624 110.772 359.115 467.223
857 0 52.4775 13.9298 731 108.364 359.27 469.7
858 0 54.3997 13.9155 757 108.361 359.627 467.89
859 0 57.3293 13.2568 760 109.75 359.975 465.928
860 0 54.2872 13.2259 718 111.947 359.099 468.682
861 0 59.31 12.814 760 111.618 360.532 467.136
862 0 57.3512 14.2107 815 111.119 359.725 468.801
863 0 61.449 14.4835 890 109.691 358.981 469.237
864 0 63.3914 13.7243 870 111.856 357.58 464.438
865 0 66.2833 17.4403 1156 106.085 357.651 466.765
866 0 69.5164 13.7521 956 111.97 358.643 466.904
867 0 69.5164 13.7665 957 133.649 358.647 466.855
868 0 71.3106 17.1082 1220 108.185 357.414 465.591
869 0 72.6977 13.9757 1016 112.33 357.028 469.944
870 0 75.2571 15.5334 1169 111.751 356.365 462.722
871 0 79.4595 15.2531 1212 111.549 356.307 462.759
872 0 79.5449 14.055 1118 114.606 355.738 465.506
873 0 81.5002 12.503 1019 118.654 354.935 459.855
874 0 87.4597 15.0355 1315 113.056 354.607 460.208
875 0 87.897 15.1427 1331 114.552 354.588 453.012
876 0 91.6489 16.9015 1549 110.833 354.441 454.055
877 1 47.6097 11.7413 559 114.633 353.045 472.698
878 0 47.5757 12.1701 579 113.254 353.016 468.798
879 0 50.4376 11.7769 594 107.411 350.35 473.665
880 0 52.3737 11.227 588 107.915 351.361 471.087
881 0 53.1314 11.3492 603 107.013 349.557 473.517
882 0 56.2601 18.9299 1065 97.9286 350.101 468.201
883 0 57.2446 12.8222 734 104.951 349.758 469.849
884 0 58.5603 14.6174 856 103.381 350.237 464.709
885 0 58.4803 9.93498 581 109.021 350.06 463.959
886 0 64.4867 13.3671 862 104.508 350.856 460.702
887 0 64.3731 14.5868 939 103.771 351.457 455.132
888 0 68.4352 16.6873 1142 99.5184 350.783 457.365
889 0 68.4352 16.7019 1143 122.8 350.812 457.436
890 0 71.3828 12.8742 919 104.147 351.31 460.114
891 0 72.4428 13.6245 987 106.24 352.881 454.685
892 0 73.4889 15.254 1121 104.953 353.593 453.551
893 0 79.387 15.5441 1234 105.632 353.904 450.326
894 0 82.9906 14.6041 1212 104.106 354.954 455.459
895 0 85.6025 16.6467 1425 104.036 355.375 449.939
896 0 87.7036 19.03 1669 100.333 355.24 455.672
897 0 88.6551 14.4718 1283 110.14 356.104 444.563
898 0 84.7392 12.0369 1020 114.351 356.468 444.431
899 0 91.8677 13.4433 1235 112.314 356.594 440.204
900 0 94.7341 13.142 1245 113.149 357.066 439.885
901 1 47.1524 13.0216 614 105.337 356.336 467.923
902 0 51.3285 13.3649 686 103.81 357.427 465.933
903 0 51.1121 13.1084 670 103.91 357.23 469.302
904 0 52.1554 12.6928 662 104.012 357.68 468.837
905 0 52.1554 12.8654 671 128.642 358.674 468.811
906 0 57.1414 11.8828 679 104.616 356.258 472.031
907 0 60.359 13.6019 821 101.428 356.788 471.872
908 0 64.2758 14.0333 902 101.394 356.533 469.835
909 0 64.2171 13.1429 844 102.594 356.52 471.026
910 0 68.4888 15.9588 1093 98.9067 356.007 466.524
911 0 72.2388 16.2655 1175 98.0017 356.289 468.592
912 0 74.2172 13.2988 987 101.751 356.42 467.65
913 0 77.3432 14.468 1119 99.0456 355.058 468.495
914 0 79.1728 11.9233 944 101.424 355.729 470.38
915 0 83.6503 14.1661 1185 100.127 355.634 467.114
916 0 84.3158 13.1173 1106 103.824 354.457 458.769
917 0 86.5424 13.4616 1165 103.614 353.42 459.56
918 1 47.2424 12.9756 613 99.6378 351.659 480.783
919 0 47.3717 9.96376 472 103.528 351.854 474.059
920 0 50.3204 12.0826 608 103.334 352.145 472.829
921 0 53.949 12.9196 697 104.618 351.572 470.363
922 0 53.2744 15.2231 811 100.21 351.002 473.372
923 0 53.1397 12.533 666 104.902 351.872 471.665
924 0 56.1048 13.5104 758 102.662 351.156 467.744
925 0 59.3072 15.3101 908 100.242 351.205 466.721
926 0 60.1659 11.0362 664 104.261 351.265 464.532
927 0 61.1085 14.5152 887 99.9977 351.484 463.696
928 0 62.1014 11.5939 720 104.843 351.997 462.472
929 0 66.3846 14.1147 937 101.665 351.263 460.411
930 0 67.4448 13.626 919 102.177 350.414 458.887
931 0 71.2364 12.0304 857 104.363 350.939 457.604
932 0 72.28 14.4715 1046 102.8 350.807 454.627
933 0 73.3674 12.5942 924 105.814 352.393 453.402
934 0 75.5962 11.3895 861 110.077 352.016 450.161
935 0 77.2608 12.9302 999 106.042 353.147 454.706
936 0 82.2053 13.7461 1130 106.301 355.01 447.435
937 0 87.3308 12.8477 1122 106.958 356.181 444.482
938 0 88.1327 11.6756 1029 109.664 356.763 442.414
939 0 93.3128 11.8205 1103 108.16 357.327 445.454
940 1 48.1448 7.74746 373 106.745 357.853 471.086
941 0 50.2901 11.7319 590 102.939 357.558 468.724
942 0 49.324 10.4209 514 107.71 358.109 464.926
943 0 52.3013 12.1794 637 104.333 357.556 464.074
944 0 55.0495 14.1509 779 101.786 358.833 467.78
945 0 57.2094 11.9386 683 107.129 359.3 466.798
946 0 58.1126 10.841 630 110.86 357.932 469.778
947 0 57.2133 12.13 694 109.955 358.657 467.524
948 0 63.2172 11.2786 713 108.452 358.36 469.561
949 0 64.4167 10.9599 706 110.941 359.033 467.674
950 0 66.7725 14.7965 988 104.393 358.531 468.072
951 0 69.5959 13.8658 965 106.089 358.265 466.001
952 0 70.4386 13.6857 964 104.428 358.16 471.077
953 0 75.612 18.4495 1395 99.5154 357.608 465.356
954 0 78.7428 13.0679 1029 107.049 357.256 465.657
955 0 84.7165 12.2644 1039 108.038 355.864 463.277
956 0 82.834 13.0864 1084 107.949 355.709 462.024
957 0 86.1552 13.5685 1169 108.055 354.552 459.595
958 0 91.1714 12.471 1137 109.205 354.101 457.028
959 1 41.2954 8.49973 351 116.932 353.59 475.806
960 0 45.3939 10.0895 458 114.517 352.629 481.629
961 0 48.1142 15.6087 751 104.683 352.703 481.582
962 0 50.1771 14.2097 713 106.534 352.21 478.708
963 0 51.1106 12.5806 643 111.372 354.314 480.369
964 0 51.059 12.887 658 111.704 352.04 477.304
965 0 53.1064 16.6835 886 106.309 352.598 473.915
966 0 52.0926 13.1113 683 113.067 352.553 472.244
967 0 56.116 15.1116 848 108.792 352.472 473.739
968 0 55.1455 14.9967 827 110.625 352.51 468.993
969 0 56.1142 14.5418 816 112.116 352.94 468.726
970 0 57.2043 14.422 825 113.234 351.515 465.127
971 0 56.1583 11.6634 655 118.058 352.632 462.034
972 0 64.1603 14.9469 959 111.144 351.619 459.968
973 0 67.0874 13.788 925 111.813 352.97 464.563
974 0 69.1454 13.7826 953 113.546 352.301 460.2
975 0 71.1539 17.5957 1252 108.671 352.499 454.537
976 0 69.1659 12.8098 886 116.479 353.918 457.17
977 0 73.0836 12.9714 948 117.135 353.939 452.434
978 0 79.1273 15.494 1226 112.902 354.175 453.578
979 0 79.1682 13.844 1096 114.728 355.794 453.277
980 0 80.3232 16.0477 1289 111.773 355.87 451.085
981 0 82.4372 11.3784 938 120.404 357.152 454.221
982 0 86.2753 14.3494 1238 116.178 355.99 450.369
983 0 87.2165 16.373 1428 110.289 356.562 450.673
984 0 90.1081 11.8968 1072 118.131 358.264 446.219
985 0 93.1905 18.0491 1682 108.03 357.851 445.973
986 0 97.3074 13.7297 1336 109.982 358.806 446.62
987 0 100.419 13.593 1365 107.126 357.111 447.765
988 1 52.3113 13.5726 710 105.196 357.954 469.914
989 0 50.081 11.5613 579 109.003 356.731 470.05
990 0 53.0446 14.9874 795 105.625 358.17 471.389
991 0 51.1227 10.7389 549 108.058 356.776 474.375
992 0 56.5548 10.9628 620 106.835 357.455 474.3
993 0 59.264 12.824 760 104.129 356.904 471.783
994 0 59.2427 10.9887 651 106.432 357.991 471.574
995 0 61.183 19.0739 1167 97.6504 357.416 468.884
996 0 64.2785 17.9376 1153 98.5481 356.654 469.657
997 0 64.2616 12.0756 776 113.924 356.232 467.835
998 0 67.2748 10.2267 688 116.818 356.661 465.849
999 0 71.2199 13.016 927 109.743 355.765 468.477
1000 0 74.1895 11.3763 844 111.839 354.583 467.924
1001 0 76.1434 14.2232 1083 108.88 354.321 464.391
1002 0 78.0633 12.6308 986 111.337 354.7 461.438
1003 0 81.2788 12.2049 992 112.881 354.049 460.312
1004 0 84.2123 12.6229 1063 113.814 351.973 459.009
1005 0 90.4823 22.2585 2014 102.187 350.89 454.728
1006 0 92.232 17.8355 1645 108.006 350.966 453.726
1007 0 93.32 13.1912 1231 115.605 350.957 457.159
1008 1 51.3073 15.261 783 108.059 349.2 477.557
1009 0 50.2044 12.6483 635 115.461 348.501 473.666
1010 0 51.1511 13.3526 683 115.586 349.187 474.359
1011 0 52.16 14.8965 777 113.48 349.072 472.822
1012 0 55.0636 16.5808 913 110.725 348.383 465.922
1013 0 56.1304 13.8428 777 115.228 348.699 468.093
1014 0 57.4767 14.5624 837 113.713 349.048 468.405
1015 0 58.4313 16.053 938 114.57 344.324 461.143
1016 0 59.2822 13.5285 802 118.68 345.127 464.643
1017 0 62.3351 14.3258 893 116.828 346.328 461.948
1018 0 65.3671 19.0157 1243 109.935 347.096 458.575
1019 0 67.1953 13.9444 937 119.215 350.858 456.793
1020 0 67.1827 14.3043 961 118.045 351.181 458.69
1021 0 71.2779 15.1099 1077 115.841 352.015 453.611
1022 0 74.5536 14.5667 1086 116.65 352.553 452.446
1023 0 76.428 14.1571 1082 118.213 352.841 450.133
1024 0 80.3887 16.3705 1316 114.245 353.032 450.84
1025 0 85.5069 13.8702 1186 118.285 353.74 451.226
1026 1 41.3937 13.8185 572 114.857 354.164 468.935
1027 0 44.2474 11.3001 500 119.968 355.316 467.058
1028 0 43.3246 10.4098 451 121.339 355.494 468.568
1029 0 46.2771 13.0086 602 117.332 356.696 465.527
1030 0 51.5566 16.5837 855 109.705 358.267 467.06
1031 0 50.2546 14.2674 717 114.166 358.664 468.19
1032 0 52.1128 15.1978 792 111.588 357.872 468.947
1033 0 52.0513 14.8507 773 112.213 359.085 467.012
1034 0 54.2073 16.6214 901 109.511 357.545 467.654
1035 0 55.1202 14.3686 792 112.814 357.471 473.043
1036 0 59.1772 17.6757 1046 109.108 357.674 475.694
1037 0 56.2516 13.7418 773 117.529 355.211 470.753
1038 0 60.1755 15.272 919 114.662 358.313 470.161
1039 0 60.1724 13.8269 832 117.407 357.13 474.674
1040 0 64.1632 15.3515 985 115.959 356.655 472.747
1041 0 65.177 14.2535 929 117.598 355.534 474.226
1042 0 71.2441 15.7627 1123 115.257 355.408 470.411
1043 0 73.2477 13.0789 958 119.203 353.968 470.843
1044 0 74.2968 13.4864 1002 120.181 353.859 468.911
1045 0 78.4013 13.4564 1055 118.986 352.316 468.028
1046 0 81.264 18.4953 1503 113.393 352.52 462.292
1047 1 45.1034 15.8746 716 113.443 351.726 484.159
1048 0 42.0794 10.4802 441 126.088 350.93 481.127
1049 0 47.1403 12.2613 578 121.54 349.962 480.756
1050 0 47.0635 9.49781 447 125.298 349.805 481.931
1051 0 48.0841 13.1852 634 115.937 349.632 478.016
1052 0 51.1265 13.672 699 114.041 350.548 478.871
1053 0 49.03 12.5025 613 116.587 350.504 475.341
1054 0 53.0757 19.1425 1016 105.88 351.439 471.965
1055 0 52.1677 14.8176 773 112.066 351.829 468.445
1056 0 57.0949 16.4288 938 107.945 350.993 470.881
1057 0 56.2612 11.2333 632 118.047 351.555 467.769
1058 0 57.1597 11.0917 634 116.667 351.98 470.699
1059 0 60.0788 13.3991 805 114.749 352.134 463.814
1060 0 63.2856 13.7472 870 113.057 352.186 464.939
1061 0 63.0726 13.318 840 116.279 352.988 460.179
1062 0 66.3067 13.3169 883 117.306 352.193 461.127
1063 0 70.0808 14.5261 1018 114.809 353.386 459.568
1064 0 71.166 15.9065 1132 114.981 352.804 454.165
1065 0 74.0554 17.1628 1271 112.227 354.156 456.16
1066 0 76.1346 14.0147 1067 118.04 354.585 454.681
1067 0 78.0831 12.269 958 120.672 355.515 455.547
1068 0 81.1238 15.4948 1257 116.967 355.878 448.683
1069 0 83.3218 12.1337 1011 120.793 356.448 454.569
1070 1 44.0646 13.866 611 118.774 358.211 468.748
1071 0 45.1666 12.0443 544 121.846 358.491 468.097
1072 0 47.1124 12.4596 587 115.79 358.552 467.567
1073 0 49.1463 14.7926 727 110.715 358.646 462.803
1074 0 51.2895 16.8651 865 107.595 360.06 464.45
1075 0 48.0797 12.7497 613 116.728 360.113 466.99
1076 0 52.4183 16.1012 844 111.133 359.589 466.788
1077 0 52.1054 13.2232 689 116.566 359.303 468.803
1078 0 53.1156 15.0991 802 113.479 360.029 470.532
1079 0 56.3448 15.4584 871 112.603 359.235 471.608
1080 0 59.164 16.1078 953 111.128 359.294 473.936
1081 0 60.1765 16.2522 978 111.72 357.896 473.708
1082 0 62.2069 15.561 968 115.147 359.377 467.893
1083 0 65.2218 15.5623 1015 114.686 357.866 470.867
1084 0 61.7204 11.3253 699 123.684 357.551 466.67
1085 0 69.1829 19.8749 1375 108.876 356.897 468.113
1086 0 71.1508 14.8839 1059 116.277 356.238 469.408
1087 0 77.137 20.3793 1572 107.064 355.22 467.966
1088 0 77.2174 17.0039 1313 112.957 355.416 467.554
1089 0 80.304 16.3006 1309 115.095 354.107 462.964
1090 0 83.1204 15.4836 1287 117.612 354.368 459.455
1091 0 86.1199 16.686 1437 114.675 353.138 462.741
1092 0 87.1997 15.5505 1356 116.905 352.091 459.615
1093 1 48.193 12.8442 619 119.969 353.055 473.913
1094 0 52.0747 12.194 635 120.559 352.789 470.58
1095 0 51.2396 12.6074 646 117.676 352.697 472.008
1096 0 55.3331 15.6326 865 113.311 352.024 472.623
1097 0 56.0949 14.7785 829 116.862 352.03 470.777
1098 0 57.1736 18.0853 1034 109.572 352.121 472.352
1099 0 58.244 14.6109 851 116.642 351.702 465.295
1100 0 61.1392 14.5406 889 117.526 351.449 465.862
1101 0 63.1574 18.4935 1168 110.834 351.425 464.926
1102 0 65.1876 13.2694 865 120.197 352.608 461.194
1103 0 71.2321 22.897 1631 103.917 351.944 458.174
1104 0 70.2486 19.5591 1374 108.633 351.357 459.357
1105 0 71.1155 14.9616 1064 117.348 351.909 454.889
1106 0 73.1377 15.7511 1152 116.794 352.181 453.039
1107 0 76.2026 15.2619 1163 117.657 353.987 452.511
1108 0 79.1399 15.9464 1262 116.956 353.403 451.417
1109 0 87.4355 19.6373 1717 107.688 354.686 455.179
1110 0 85.263 19.2698 1643 111.73 355.878 448.377
1111 0 86.2739 15.3812 1327 120.403 354.898 443.173
1112 1 48.1832 12.2449 590 116.617 356.783 470.447
1113 0 48.177 12.3088 593 117.309 357.656 466.44
1114 0 50.038 12.7703 639 118.23 357.15 468.773
1115 0 51.1104 13.9111 711 119.027 355.361 470.958
1116 0 50.1734 11.7194 588 123.507 354.117 469.029
1117 0 56.2796 14.4457 813 117.023 355.416 468.145
1118 0 58.2153 13.5875 791 118.157 354.444 470.124
1119 0 58.1061 12.8558 747 120.403 355.493 470.321
1120 0 61.1686 13.9287 852 118.452 355.143 468.604
1121 0 62.1127 18.3054 1137 111.452 354.83 471.342
1122 0 64.1811 16.4223 1054 114.12 354.752 470.439
1123 0 66.1516 13.4086 887 119.89 354.899 469.105
1124 0 68.128 15.4562 1053 116.528 354.755 467.241
1125 0 72.2579 17.7143 1280 111.128 354.931 471.787
1126 0 74.3561 18.7476 1394 110.884 354.164 469.232
1127 0 73.1144 13.2942 972 121.508 353.306 469.513
1128 0 76.1388 13.1208 999 122.431 354.03 467.356
1129 0 79.1945 14.6096 1157 120.828 351.471 465.487
1130 0 84.1954 14.3832 1211 121.042 350.568 461.955
1131 1 45.251 11.6461 527 121.74 350.776 484.192
1132 0 48.8753 15.2429 745 115.695 351.789 478.748
1133 0 47.5511 10.3678 493 119.369 350.748 476.556
1134 0 45.2199 10.5927 479 122.718 350.833 470.263
1135 0 50.2454 10.2298 514 121.126 348.22 473.124
1136 0 51.2432 13.797 707 114.017 349.605 473.378
1137 0 52.3667 11.7632 616 120.175 348.724 467.031
1138 0 52.3667 11.7632 616 132.656 348.703 466.989
1139 0 58.2512 15.1928 885 112.616 348.582 467.029
1140 0 50.2795 6.0661 305 129.767 347.957 461.918
1141 0 57.2128 10.0152 573 121.37 347.466 463.246
1142 0 59.2555 10.9863 651 121.41 348.201 461.146
1143 0 63.31 13.268 840 117.662 347.213 456.842
1144 0 67.1541 13.3127 894 118.004 346.777 456.342
1145 0 70.286 16.7601 1178 110.843 346.899 457.348
1146 0 67.2062 10.505 706 123.312 348.207 450.915
1147 1 34.0664 10.8905 371 111.423 349.38 471.345
1148 0 34.028 8.90442 303 115.818 350.01 467.429
1149 0 37.0638 11.1699 414 111.722 350.118 463.676
1150 0 38.242 11.2703 431 108.459 351.65 462.492
1151 0 40.443 9.51956 385 112.21 352.33 467.223
1152 0 42.3277 7.60731 322 114.27 351.683 464.627
1153 0 41.3051 11.645 481 111.709 353.667 464.378
1154 0 43.6232 11.7827 514 110.638 353.523 467.28
1155 0 46.739 11.6391 544 111.21 354.851 464.145
1156 0 47.2388 10.3093 487 114.15 355.419 463.764
1157 0 49.3869 11.8655 586 112.775 354.614 464.101
1158 0 49.214 13.6546 672 110.312 355.35 464.116
1159 0 49.2412 12.9769 639 110.595 355.656 463.7
1160 0 53.3806 12.7574 681 111.601 356.885 463.742
1161 0 54.2482 14.0834 764 111.232 354.87 468.639
1162 0 53.1032 11.4306 607 114.904 356.886 470.007
1163 0 58.2386 13.6851 797 112.207 356.351 468.662
1164 0 61.2529 15.836 970 107.778 356.775 468.343
1165 0 63.3323 16.2003 1026 107.474 357.27 466.567
1166 0 64.3174 16.5119 1062 108.417 356.808 467.882
1167 0 68.245 13.7739 940 112.491 357.072 470.29
1168 0 73.1953 14.8643 1088 111.323 358.323 464.633
1169 0 75.2019 17.074 1284 110.444 357.974 464.163
1170 0 77.2351 13.1158 1013 116.806 356.843 466.559
1171 0 80.2648 13.9289 1118 116.026 356.199 469.513
1172 0 82.1025 14.421 1184 116.513 356.267 465.035
1173 0 85.1505 15.2906 1302 114.906 355.08 467.662
1174 0 87.2661 15.0918 1317 116.926 353.529 463.034
1175 0 92.2198 18.4342 1700 111.443 354.175 458.389
1176 1 49.1088 14.4781 711 116.961 353.194 479.236
1177 0 53.064 13.3801 710 117.908 353.052 481.404
1178 0 52.1041 10.1336 528 121.958 351.735 479.157
1179 0 56.0581 14.7525 827 114.226 351.962 478.528
1180 0 57.1334 12.5671 718 118.299 350.972 476.17
1181 0 58.2262 15.6459 911 113.72 350.968 475.079
1182 0 60.2409 16.9652 1022 112.75 350.542 473.165
1183 0 64.1324 14.5948 936 115.009 350.826 471.621
1184 0 67.1121 14.6024 980 114.333 350.018 470.104
1185 0 67.1407 12.66 850 118.259 349.851 469.761
1186 0 70.1039 16.4042 1150 112.235 349.307 466.631
1187 0 72.1961 15.0978 1090 115.089 349.191 461.939
1188 0 76.14 13.9874 1065 115.703 350.37 460.725
1189 0 78.287 14.5107 1136 115.022 350.195 459.85
1190 0 79.1535 14.8825 1178 116.827 350.758 453.279
1191 0 82.2559 14.771 1215 116.232 350.857 455.874
1192 0 88.4198 14.8157 1310 113.165 352.201 456.208
1193 0 91.2841 15.1176 1380 113.414 352.338 453.521
1194 1 42.0225 11.5176 484 122.696 352.312 469.496
1195 0 46.2404 14.3165 662 116.073 350.465 466.56
1196 0 47.0565 13.6219 641 120.446 353.775 468.426
1197 0 49.1209 12.4998 614 121.774 354.71 468.611
1198 0 50.0895 13.2762 665 119.776 355.379 468.49
1199 0 51.0854 12.7238 650 121.065 355.269 468.398
1200 0 51.2961 12.886 661 122.914 355.651 466.472
1201 0 55.1971 14.6928 811 118.666 356.932 465.056
1202 0 58.1887 15.7763 918 116.424 356.715 464.753
1203 0 58.1948 13.9188 810 119.516 357.285 468.904
1204 0 57.1728 13.1531 752 121.646 357.277 467.471
1205 0 62.1097 13.0092 808 119.839 357.429 467.391
1206 0 62.1442 13.9032 864 119.214 358.698 465.686
1207 0 66.089 15.7061 1038 115.028 358.812 465.631
1208 0 68.1461 14.0727 959 116.843 358.561 469.272
1209 0 70.2141 13.6867 961 118.425 358.687 467.861
1210 0 72.1948 20.6109 1488 107.587 356.963 460.441
1211 0 73.1245 17.7916 1301 112.248 357.126 465.926
1212 0 77.1423 13.5853 1048 115.579 356.944 471.994
1213 0 84.2829 17.7023 1492 109.792 356.622 467.578
1214 0 81.1251 14.04 1139 118.784 355.831 464.637
1215 0 82.4321 12.4345 1025 121.88 355.77 465.883
1216 0 82.1606 11.5992 953 125.064 354.772 463.203
1217 0 87.1981 12.3627 1078 122.703 353.527 462.765
1218 0 92.1119 13.9613 1286 119.87 352.98 462.879
1219 1 46.0511 12.8119 590 119.366 353.027 483.108
1220 0 50.1158 15.0252 753 116.518 351.663 479.732
1221 0 51.1085 11.955 611 120.704 351.029 480.406
1222 0 52.5286 14.6968 772 115.018 349.664 477.074
1223 0 55.265 11.9605 661 120.339 350.847 477.874
1224 0 56.2843 13.5029 760 117.336 349.768 476.978
1225 0 58.2314 17.3789 1012 111.801 348.128 475.678
1226 0 59.6134 14.2921 852 118.631 348.027 471.224
1227 0 61.5082 12.9901 799 119.722 348.489 472.563
1228 0 63.2659 14.8737 941 117.692 348.452 465.987
1229 0 64.2916 13.361 859 120.783 348.753 466.716
1230 0 68.3907 17.1222 1171 113.102 348.673 463.434
1231 1 141.744 13.5878 1926 120.565 349.765 427.99
1232 1 75.7235 21.0371 1593 106.669 348.942 455.575
1233 0 74.1566 13.2962 986 118.451 349.119 456.632
1234 0 74.2361 13.026 967 119.508 349.876 455.42
1235 0 80.2481 17.0471 1368 112.973 350.27 448.875
1236 0 83.2733 14.7466 1228 115.919 352.153 453.681
1237 0 83.3096 15.5804 1298 117.512 352.94 447.817
1238 1 98.4101 10.568 1040 123.44 353.475 449.577
1239 0 101.973 15.2687 1557 111.408 353.913 455.924
1240 1 46.4299 12.6643 588 115.08 354.859 465.923
1241 0 47.3931 15.6774 743 110.781 355.273 464.954
1242 0 48.3862 14.9216 722 135.015 356.263 465.18
1243 0 51.2454 14.8501 761 112.645 355.913 465.089
1244 0 51.3924 12.9202 664 120.45 356.137 464.646
1245 0 55.3812 12.9105 715 121.024 356.952 468.876
1246 0 58.3724 13.1226 766 122.396 358.257 466.145
1247 0 58.1451 13.9479 811 120.123 359.501 469.729
1248 0 61.2418 13.5528 830 120.942 358.245 467.78
1249 0 63.3526 15.5321 984 117.725 358.613 468.429
1250 0 62.1427 10.4759 651 128.038 357.496 467.939
1251 0 68.1618 14.715 1003 119.519 359.164 468.873
1252 0 68.2883 13.5309 924 121.758 357.002 469.653
1253 0 75.287 13.5481 1020 119.703 357.528 471.89
1254 0 76.2443 15.2667 1164 119.406 356.695 467.45
1255 0 78.4319 17.6969 1388 114.46 355.992 469.018
1256 0 80.4263 11.5634 930 124.773 356.285 467.867
1257 0 81.3326 12.0001 976 124.994 355.257 462.457
1258 0 87.4613 14.9323 1306 120.246 354.81 461.397
1259 0 89.3876 14.3644 1284 121.659 354.423 461.086
1260 1 46.0508 11.357 523 122.182 353.581 483.159
1261 0 49.2069 13.9818 688 116.759 352.381 482.609
1262 0 51.2903 14.3497 736 116.825 351.644 477.823
1263 0 53.0983 14.0871 748 117.563 351.512 478.876
1264 0 55.3652 13.709 759 118.664 351.282 476.906
1265 0 56.0946 16.0621 901 114.887 352.012 472.888
1266 0 61.2121 16.2059 992 113.663 350.588 471.581
1267 0 60.1673 14.2935 860 117.033 351.473 472.952
1268 0 60.0999 14.4759 870 118.9 350.413 467.054
1269 0 61.3208 12.1492 745 122.251 350.467 467.156
1270 0 66.3376 16.6421 1104 112.395 349.913 465.5
1271 0 69.3061 17.3866 1205 110.495 349.578 465.138
1272 0 67.1961 11.6227 781 122.215 350.743 462.606
1273 0 72.1848 13.507 975 117.75 350.152 462.209
1274 0 72.2658 11.7898 852 122.455 351.221 459.628
1275 0 77.4332 18.3642 1422 112.171 349.969 452.122
1276 0 78.2758 15.8414 1240 116.352 350.898 455.178
1277 0 82.1643 14.4832 1190 119.383 351.143 451.498
1278 0 82.6035 13.9098 1149 120.843 351.608 450.688
1279 0 85.1671 14.7357 1255 120.222 352.206 449.103
1280 0 85.2232 12.4145 1058 125.323 353.006 447.63
1281 0 89.2978 14.2445 1272 121.937 353.465 442.679
1282 1 51.4974 14.0396 723 112.03 355.264 471.523
1283 0 49.0895 13.6078 668 119.897 354.497 466.437
1284 0 47.0665 11.027 519 123.794 356.437 468.96
1285 0 49.4992 10.7678 533 123.341 355.929 467.998
1286 0 51.2187 10.7187 549 119.435 355.053 465.67
1287 0 52.2836 13.618 712 114.867 354.074 465.021
1288 0 55.1932 13.2444 731 113.951 354.882 466.319
1289 0 56.1844 13.4023 753 113.637 355.554 468.578
1290 0 58.1989 12.8181 746 115.993 355.902 467.07
1291 0 62.3435 14.3239 893 113.38 356.706 465.982
1292 0 65.3383 15.5805 1018 111.891 357.031 466.379
1293 0 67.269 14.6427 985 114.684 356.872 464.951
1294 0 68.2726 12.8749 879 118.287 355.943 467.592
1295 0 70.316 12.9131 908 119.436 356.089 464.992
1296 0 76.1221 17.3537 1321 109.126 358.408 470.479
1297 0 75.1318 13.1369 987 117.8 358.129 466.666
1298 0 78.2564 16.9187 1324 112.6 359.085 464.983
1299 1 42.132 11.8437 499 121.788 358.521 484.537
1300 0 44.0533 12.5984 555 119.461 356.569 486.564
1301 0 45.1906 13.0337 589 121.036 356.204 483.616
1302 0 47.051 13.581 639 120.692 354.894 482.034
1303 0 49.2282 15.7024 773 116.149 353.815 481.824
1304 0 49.067 14.9184 732 119.766 352.675 481.001
1305 0 50.1766 15.6248 784 119.371 352.102 480.17
1306 0 52.2004 16.5325 863 117.678 351.654 478.877
1307 0 52.2923 15.9297 833 119.297 351.696 475.716
1308 0 57.1657 16.7408 957 118.876 349.405 472.778
1309 0 60.4166 17.2966 1045 117.541 348.684 471.309
1310 0 61.4428 16.4869 1013 119.537 349.962 470.103
1311 0 63.2712 17.4487 1104 118.061 349.193 469.937
1312 0 63.1913 15.2078 961 124.082 349.459 466.619
1313 0 65.3016 16.8909 1103 120.975 348.726 462.897
1314 0 67.2582 17.47 1175 120.237 349.112 461.472
1315 0 68.3845 15.8954 1087 124.937 348.827 457.937
1316 0 71.199 14.1715 1009 127.422 349.39 459.152
1317 0 76.3898 17.8034 1360 119.812 348.858 456.451
1318 1 38.5249 12.2518 472 129.468 347.881 469.958
1319 0 41.6073 14.8772 619 116.675 348.953 474.036
1320 0 42.5233 15.027 639 123.264 349.7 469.635
1321 0 44.4859 15.6454 696 119.428 349.994 468.56
1322 0 44.3906 12.4801 554 127.883 351.238 467.493
1323 0 47.2991 14.1018 667 120.547 351.393 468.697
1324 0 48.581 13.6885 665 122.665 353.214 465.063
1325 0 49.616 15.9424 791 118.083 354.278 464.804
1326 0 52.3919 18.877 989 112.195 353.008 465.185
1327 0 53.0531 17.9254 951 115.193 355.256 468.258
1328 0 55.0573 13.4769 742 122.553 356.753 467.81
1329 0 56.2239 12.4146 698 125.272 355.226 467.256
1330 0 58.3844 20.7418 1211 110.181 355.801 468.761
1331 0 61.3764 15.4294 947 119.778 355.041 464.362
1332 0 62.4382 15.5033 968 120.138 356.442 463.06
1333 0 64.362 16.7956 1081 117.932 355.629 463.704
1334 0 65.3252 14.7416 963 121.7 355.999 466.843
1335 0 69.547 15.1552 1054 121.585 355.058 463.858
1336 0 70.6455 14.2967 1010 124.357 355.359 464.246
1337 0 71.6849 14.0197 1005 125.772 355.321 463.622
1338 0 75.6955 16.7117 1265 121.912 353.913 462.269
1339 0 78.506 14.4066 1131 125.477 354.709 464.471
1340 0 81.829 15.5079 1269 122.958 353.973 465.203
1341 0 84.9554 16.1496 1372 121.363 353.814 465.236
1342 1 44.2348 12.9762 574 124.091 352.937 482.784
1343 0 45.1852 12.9467 585 126.798 352.014 481.497
1344 0 47.3458 12.5249 593 129.86 351.781 477.015
1345 0 49.4299 12.8667 636 128.571 349.981 476.865
1346 0 49.457 15.0029 742 125.508 350.898 475.88
1347 0 51.3427 12.9132 663 128.997 350.198 473.997
1348 0 50.2852 14.9348 751 122.638 349.748 471.212
1349 0 55.3215 15.654 866 120.573 349.327 468.333
1350 0 55.1521 13.363 737 125.505 349.578 464.978
1351 0 57.1914 14.198 812 119.554 351 465.98
1352 0 61.2517 14.7098 901 119.001 349.589 462.125
1353 0 63.257 15.3975 974 115.483 350.663 464.752
1354 0 63.4229 14.7581 936 119.03 348.818 460.216
1355 0 65.2598 14.4346 942 121.842 349.374 456.711
1356 0 66.4067 14.6672 974 123.115 348.317 451.781
1357 0 72.3036 13.6093 984 124.122 348.215 451.403
1358 0 74.1834 16.2031 1202 120.682 348.483 450.246
1359 0 77.3951 14.6909 1137 124.843 347.748 451.996
1360 0 81.1906 14.9032 1210 125.041 349.167 445.789
1361 0 84.4104 15.7208 1327 122.619 349.304 443.697
1362 0 83.3389 13.6071 1134 126.643 349.603 439.668
1363 0 86.3583 12.5292 1082 129.767 350.665 441.836
1364 0 91.5082 15.4522 1414 123.112 350.207 433.547
1365 0 92.4265 15.2013 1405 124.846 352.27 433.618
1366 1 43.1406 8.87794 383 125.525 353.175 456.987
1367 0 46.0813 12.7601 588 120.6 351.653 454.075
1368 0 52.1975 12.3952 647 123.566 351.7 463.556
1369 0 55.1868 10.6185 586 126.845 353.608 463.973
1370 0 56.0562 13.7005 768 123.161 354.686 463.861
1371 0 59.0725 12.3238 728 122.549 353.549 459.371
1372 0 63.1232 13.2439 836 119.489 354.397 461.528
1373 0 65.1482 16.7311 1090 115.456 353.654 456.744
1374 0 65.278 11.2595 735 123.431 355.302 460.716
1375 0 65.1462 13.0169 848 122.13 354.638 458.226
1376 0 69.3203 13.315 923 120.436 358.061 461.389
1377 0 71.3519 13.9169 993 120.523 357.939 459.944
1378 0 75.1924 12.1023 910 121.966 357.78 464.135
1379 0 74.4021 9.94595 740 126.139 357.088 462.522
1380 0 78.2154 15.1121 1182 117.568 357.331 462.576
1381 0 80.269 18.0269 1447 113.064 356.977 462.848
1382 0 81.2063 11.7602 955 123.142 358.048 464.021
1383 0 84.183 13.34 1123 121.561 355.68 459.766
1384 0 87.3451 13.3951 1170 119.896 357.139 462.925
1385 0 91.3003 15.3559 1402 118.515 355.276 458.644
1386 0 91.2524 13.0298 1189 123.002 353.449 451.771
1387 0 97.2997 16.516 1607 116.719 352.126 456.687
1388 0 100.251 14.7231 1476 120.444 352.284 451.025
1389 0 103.348 14.8528 1535 121.699 350.603 448.199
1390 0 105.292 12.6316 1330 125.664 351.017 448.136
1391 0 112.21 15.2482 1711 118.8 350.919 449.645
1392 0 115.303 14.2928 1648 121.008 351.17 445.873
1393 0 118.866 14.2681 1696 122.568 350.369 433.973
1394 0 124.635 13.9929 1744 118.424 349.58 434.312
1395 0 125.736 8.15199 1025 126.54 347.614 438.289
1396 0 130.783 12.3334 1613 121.642 348.29 428.913
1397 0 136.569 13.5536 1851 119.247 346.877 428.865
1398 0 139.758 13.4876 1885 120.275 347.439 426.98
1399 1 69.5154 10.6595 741 120.094 346.518 458.912
1400 0 70.3553 12.8633 905 117.808 347.099 455.962
1401 0 71.4258 13.9165 994 115.987 347.619 455.425
1402 0 72.6173 12.0908 878 120.472 347.491 452.331
1403 0 77.3003 13.1436 1016 120.898 346.674 453.321
1404 0 80.1677 13.7711 1104 120.118 346.216 451.408
1405 0 82.3534 13.0171 1072 122.132 348.223 447.663
1406 0 83.3298 12.7565 1063 122.461 349.547 449.253
1407 0 88.3396 13.8217 1221 120.257 351.134 448.835
1408 0 87.3993 9.45088 826 127.017 351.016 446.863
1409 0 92.2147 12.7203 1173 122.236 351.486 443.29
1410 0 97.5879 14.2846 1394 118.89 351.512 443.025
1411 0 99.4609 13.7441 1367 120.311 353.256 437.914
1412 0 100.486 12.9371 1300 120.757 353.345 444.791
1413 0 105.474 16.1272 1701 117.308 353.513 437.387
1414 0 106.61 13.1976 1407 123.921 354.751 431.383
1415 1 59.4467 8.57911 510 122.006 356.655 462.667
1416 0 64.4598 13.0934 844 115.206 356.847 458.391
1417 0 64.4598 13.1244 846 128.056 355.831 458.54
1418 0 68.4121 13.1848 902 118.834 357.727 458.049
1419 0 66.2098 10.4214 690 119.352 357.986 463
1420 0 70.1166 11.3525 796 118.529 358.848 462.553
1421 0 71.3621 12.6678 904 116.509 357.702 463.61
1422 0 73.2334 13.1634 964 115.605 357.498 465.425
1423 0 75.2206 14.6635 1103 112.16 356.877 469.299
1424 0 81.2636 14.1638 1151 111.591 356.175 469.15
1425 0 80.17 12.461 999 117.234 356.535 464.31
1426 0 83.2532 14.6301 1218 113.535 356.229 462.967
1427 0 87.3072 17.238 1505 109.784 354.501 461.217
1428 0 87.3325 11.8284 1033 118.742 355.004 458.258
1429 0 92.3768 10.9335 1010 120.043 353.375 459.173
1430 0 95.6453 11.5426 1104 114.765 352.884 457.05
1431 0 101.401 10.9368 1109 114.278 352.34 456.833
1432 0 104.519 14.1888 1483 109.819 351.49 452.024
1433 1 54.0892 10.9079 590 111.819 351.529 474.553
1434 0 56.2455 15.4146 867 107.065 351.142 473.002
1435 0 60.5834 12.9078 782 110.904 347.21 467.687
1436 0 59.5201 12.0295 716 112.564 348.687 465.999
1437 0 59.5362 13.0173 775 110.911 347.735 463.054
1438 0 65.378 16.9782 1110 105.567 347.399 464.409
1439 0 64.343 11.0812 713 114.488 345.252 465.527
1440 0 65.3916 10.4601 684 115.909 344.575 462.537
1441 0 73.2337 10.4187 763 114.363 346.233 461.65
1442 0 70.2844 11.7238 824 114.05 347.075 455.175
1443 0 74.3209 16.9401 1259 105.772 347.071 458.683
1444 0 74.2525 12.3902 920 113.091 347.653 458.26
1445 0 77.3139 11.408 882 115.841 346.552 454.24
1446 0 77.2803 12.06 932 116.733 348.517 448.24
1447 0 81.297 14.2564 1159 113.477 349.497 444.506
1448 0 85.3203 18.2372 1556 108.176 349.034 442.916
1449 0 87.371 15.2797 1335 114.152 348.643 444.565
1450 0 92.3235 16.1064 1487 114.044 349.683 438.02
1451 0 92.3235 16.1064 1487 127.988 350.683 438.02
1452 1 51.4075 13.5972 699 110.524 350.728 463.941
1453 0 50.1505 11.5652 580 117.309 352.362 456.974
1454 0 54.2925 12.8563 698 113.185 352.862 457.946
1455 0 59.4612 13.2187 786 111.192 353.253 461.646
1456 0 57.349 13.2173 758 114.532 354.257 456.575
1457 0 56.3642 8.94184 504 122.946 355.587 455.05
1458 0 60.6696 14.6861 891 112.743 354.908 455.316
1459 0 65.298 14.1046 921 112.481 356.141 456.983
1460 0 66.2908 14.6778 973 113.46 356.357 455.096
1461 0 69.1791 10.9571 758 119.565 357.707 453.859
1462 0 72.2708 14.1413 1022 116.639 356.297 455.597
1463 0 72.1514 12.7926 923 120.611 356.174 454.225
1464 0 77.0741 14.4147 1111 116.633 354.89 455.888
1465 0 78.1786 14.1215 1104 118.395 354.558 452.476
1466 0 79.0513 13.8518 1095 119.688 354.079 452.73
1467 0 83.2338 11.4256 951 123.165 354.463 452.501
1468 0 85.0607 13.1671 1120 120.168 353.49 451.828
1469 1 50.1079 9.24006 463 119.758 352.907 470.011
1470 0 50.094 10.5601 529 118.645 352.578 469.229
1471 0 52.1284 12.239 638 114.743 352.481 471.23
1472 0 56.1236 10.9758 616 114.261 351.635 470.817
1473 0 55.2369 10.0114 553 111.615 350.939 477.387
1474 0 56.2343 11.4343 643 110.302 351.068 474.585
1475 0 58.3082 9.70704 566 112.431 350.472 479.56
1476 0 58.3171 8.6424 504 116.571 350.248 474.758
1477 0 59.2584 9.28139 550 115.387 348.567 473.007
1478 0 63.2929 12.687 803 111.31 349.06 467.97
1479 0 64.552 10.5496 681 113.577 348.89 468.941
1480 0 67.2446 12.9973 874 110.26 347.904 465.423
1481 0 70.2121 14.1144 991 108.496 348.595 463.821
1482 0 70.2009 13.5183 949 109.518 348.325 460.192
1483 0 75.4506 13.8899 1048 108.006 347.801 458.532
1484 0 74.2879 10.1497 754 114.477 348.653 451.302
1485 0 79.203 15.5045 1228 106.318 348.633 454.968
1486 0 79.1485 10.8151 856 112.942 349.099 453.381
1487 0 83.2232 11.5713 963 112.917 349.227 444.522
1488 0 83.2232 11.7035 974 122.885 349.205 444.69
1489 0 89.2457 11.4515 1022 112.819 349.964 444.757
1490 0 91.3275 10.7635 983 114.254 350.513 444.083
1491 1 48.0715 12.1278 583 110.314 348.983 465.389
1492 0 53.0508 12.1582 645 107.981 348.766 467.532
1493 0 55.054 16.5111 909 107.145 350.689 462.78
1494 0 51.0855 11.6276 594 117.025 349.633 462.461
1495 0 56.2249 11.3295 637 116.62 350.86 462.499
1496 0 57.2368 12.457 713 114.034 352.567 461.613
1497 0 60.2827 10.8655 655 115.366 352.583 465.544
1498 0 62.1403 14.9178 927 108.862 353.35 464.572
1499 0 64.3302 14.068 905 111.231 354.085 459.481
1500 0 67.5478 18.3278 1238 105.606 355.349 455.923
1501 0 68.3494 14.8794 1017 111.635 355.23 460.909
1502 0 69.5503 12.969 902 114.57 355.415 461.419
1503 0 72.3662 13.3488 966 114.597 354.798 460.019
1504 0 75.3521 16.4163 1237 110.872 355.566 459.07
1505 0 79.4554 15.7447 1251 110.113 355.671 463.266
1506 0 80.294 17.7971 1429 109.09 355.579 458.69
1507 0 83.289 14.4077 1200 114.122 356.43 457.497
1508 0 85.2208 14.6795 1251 113.475 354.544 460.587
1509 0 87.3834 16.2617 1421 110.873 356.337 459.859
1510 0 94.257 15.4683 1458 110.953 355.131 457.034
1511 0 97.3231 17.9711 1749 107.87 354.995 456.766
1512 0 100.159 12.7098 1273 115.672 354.976 458.821
1513 0 101.264 14.9312 1512 111.73 353.556 453.522
1514 0 108.181 11.9337 1291 116.376 353.665 458.992
1515 1 58.1582 12.0877 703 121.871 352.88 474.455
1516 0 58.1146 11.9075 692 121.897 350.694 474.926
1517 0 64.0766 15.6375 1002 113.941 350.215 474.877
1518 0 63.23 13.0476 825 115.476 349.599 473.394
1519 0 65.0718 17.4269 1134 106.823 351.337 477.72
1520 0 69.0541 17.4356 1204 107.426 350.919 470.439
1521 0 70.1654 12.4705 875 115.438 350.504 467.454
1522 0 70.142 11.7618 825 117.24 350.788 464.801
1523 0 73.109 13.8013 1009 113.937 350.35 461.421
1524 0 79.1636 15.7775 1249 109.275 350.28 460.874
1525 0 80.4584 14.4298 1161 112.915 350.817 458.685
1526 0 82.3439 11.6948 963 116.073 349.45 459.673
1527 0 86.225 12.5602 1083 115.971 350.56 454.243
1528 0 89.1664 12.9084 1151 116.342 350.146 447.532
1529 0 96.445 18.0621 1742 104.562 350.501 456.553
1530 0 96.3426 15.2996 1474 111.902 350.132 447.208
1531 0 101.18 17.8 1801 106.561 350.842 446.734
1532 0 104.308 16.9977 1773 109.463 351.029 439.967
1533 0 107.233 14.9674 1605 113.401 351.593 441.15
1534 0 113.356 15.932 1806 110.678 352.427 442.153
1535 1 61.2267 12.5109 766 112.657 353.142 461.718
1536 0 63.1683 13.5194 854 112.028 353.92 460.67
1537 0 64.0508 13.3488 855 113.223 354.875 458.857
1538 0 65.0602 14.8324 965 112.809 356.857 454.918
1539 0 67.1114 18.8939 1268 106.75 356.431 455.713
1540 0 67.1306 11.7979 792 118.249 357.078 456.324
1541 0 73.1752 14.8411 1086 109.991 357.5 460.005
1542 0 74.114 13.857 1027 113.924 357.803 452.467
1543 0 74.114 13.7896 1022 134.809 356.821 452.309
1544 0 77.2442 14.2406 1100 114.865 357.947 450.684
1545 0 79.1331 13.1803 1043 117.146 358.069 452.309
1546 0 83.2158 14.9851 1247 113.513 358.306 454.958
1547 0 85.2608 15.4702 1319 113.586 357.952 452.621
1548 0 88.3141 13.1576 1162 117.623 358.409 453.585
1549 0 89.1448 13.0798 1166 119.203 357.961 450.251
1550 0 92.2158 16.0493 1480 114.774 357.859 448.868
1551 0 96.1885 13.9622 1343 117.891 358.166 449.684
1552 0 97.1628 15.6233 1518 115.423 356.973 447.97
1553 0 103.176 15.4106 1590 115.217 357.32 451.553
1554 0 107.128 13.7779 1476 117.351 356.853 454.726
1555 0 109.189 14.2322 1554 117.838 355.949 450.073
1556 0 113.201 16.9169 1915 113.96 355.558 447.96
1557 1 64.1228 12.2733 787 118.483 354.493 470.959
1558 0 64.2208 10.8688 698 121.941 352.249 470.38
1559 0 68.1439 12.4883 851 119.589 350.724 470.361
1560 0 69.1491 11.8584 820 120.599 350.06 466.854
1561 0 76.1482 13.2505 1009 117.125 348.976 465.289
1562 0 76.1741 14.0336 1069 116.058 348.806 463.206
1563 0 78.2698 16.8903 1322 112.101 347.905 459.249
1564 0 81.1913 15.174 1232 114.647 348.528 457.55
1565 0 84.2529 18.7175 1577 109.255 348.16 458.814
1566 0 88.2601 16.1795 1428 112.485 347.756 456.915
1567 0 89.1136 16.1143 1436 112.856 347.689 456.088
1568 0 91.2806 13.3763 1221 116.767 347.618 457.154
1569 0 92.1883 13.5809 1252 118.772 347.455 449.55
1570 0 95.5222 15.2635 1458 116.152 347.793 444.245
1571 0 99.3316 14.9097 1481 116.22 346.281 444.165
1572 0 101.34 16.3213 1654 113.851 346.108 445.169
1573 0 106.317 13.3845 1423 117.497 347.188 442.505
1574 0 110.286 15.2331 1680 114.728 347.648 438.33
1575 1 64.1288 13.7692 883 111.097 347.035 463.137
1576 0 61.5036 13.674 841 113.767 350.734 456.749
1577 0 62.2103 11.7826 733 117.613 351.88 454.88
1578 0 66.3972 14.9554 993 111.5 353.49 457.012
1579 0 68.4256 14.1321 967 114.585 352.611 454.155
1580 0 71.5378 15.7959 1130 111.455 353.993 453.585
1581 0 75.5491 17.353 1311 109.159 353.87 449.576
1582 0 74.4626 13.7787 1026 116.917 354.285 452.157
1583 0 77.2251 16.3159 1260 111.914 354.655 454.072
1584 0 79.1966 14.5966 1156 115.722 354.522 451.789
1585 0 82.5371 13.8362 1142 114.096 355.843 456.325
1586 0 84.2682 14.6556 1235 114.72 356.126 452.019
1587 0 86.2646 13.505 1165 117.882 357.021 447.651
1588 0 88.2383 15.1408 1336 114.365 356.539 452.072
1589 0 90.3356 14.4683 1307 116.621 356.335 448.993
1590 0 94.431 10.9816 1037 119.687 356.854 454.392
1591 0 98.3043 15.8793 1561 110.815 357.067 453.377
1592 0 100.213 12.1541 1218 117.376 356.6 452.535
1593 0 100.348 15.6057 1566 113.413 356.049 456.075
1594 0 105.889 12.8342 1359 119.643 355.868 445.672
1595 0 110.732 13.6727 1514 116.904 354.025 445.512
1596 0 115.737 13.2456 1533 117.497 354.736 443.623
1597 1 68.3994 12.7779 874 112.913 353.565 468.502
1598 0 70.6859 12.8314 907 113.71 354.344 463.842
1599 0 74.628 14.0028 1045 116.636 354.315 463.211
1600 0 76.3769 15.6985 1199 111.742 353.575 469.736
1601 0 78.2772 12.7623 999 116.164 353.242 466.61
1602 0 82.2155 16.9068 1390 109.704 352.263 465.683
1603 0 79.2912 12.2965 975 118.928 352.902 459.366
1604 0 86.1957 15.8012 1362 111.892 350.457 460.518
1605 0 89.4092 14.1261 1263 110.136 350.644 460.94
1606 0 92.3878 14.8937 1376 110.928 350.727 452.411
1607 0 92.2332 13.6719 1261 113.416 349.743 454.043
1608 0 95.1511 10.0157 953 117.527 350.227 458.978
1609 0 99.3857 12.2553 1218 115.828 348.888 449.161
1610 0 101.396 13.6593 1385 113.652 349.175 447.119
1611 0 105.389 14.1191 1488 112.669 348.958 443.351
1612 0 109.335 13.9846 1529 111.905 348.881 444.814
1613 1 55.2095 12.0631 666 114.203 349.581 465.038
1614 0 61.1992 13.2355 810 111.549 348.168 462.296
1615 0 61.2402 11.757 720 112.488 349.133 462.393
1616 0 64.2689 16.1509 1038 106.076 348.508 462.231
1617 0 63.2733 16.405 1038 104.264 350.716 458.288
1618 0 67.1261 11.9328 801 110.06 351.727 454.215
1619 0 71.1396 13.9585 993 106.836 351.537 456.612
1620 0 74.0841 11.4734 850 110.412 351.756 454.973
1621 0 73.1243 13.142 961 109.564 352.681 451.131
1622 0 74.0877 12.8496 952 109.926 353.07 450.319
1623 0 78.074 12.2192 954 111.58 354.41 448.962
1624 0 80.1144 12.2075 978 111.229 354.272 447.875
1625 0 83.2167 14.324 1192 108.378 353.701 449.18
1626 0 88.253 12.8381 1133 109.28 354.865 449.259
1627 0 88.2107 11.9713 1056 111.163 354.943 446.616
1628 0 91.3233 13.83 1263 109.99 356.092 439.371
1629 0 93.3138 15.5926 1455 107.348 356.764 443.111
1630 0 98.1906 15.1033 1483 107.116 356.988 444.044
1631 0 102.227 15.3188 1566 107.409 356.831 446.036
1632 0 106.319 14.2213 1512 110.517 356.956 440.626
1633 1 58.1787 11.0865 645 111.581 357.357 469.473
1634 0 63.066 14.0329 885 109.123 358.045 468.556
1635 0 63.0496 13.0215 821 113.246 358.239 466.076
1636 0 62.2175 12.7295 792 114.72 352.886 461.703
1637 0 65.0508 13.6662 889 111.001 356.438 463.161
1638 0 68.1741 13.2015 900 111.66 356.402 465.571
1639 0 73.1682 12.9564 948 111.186 356.247 463.914
1640 0 74.1249 14.0169 1039 111.722 356.268 462.222
1641 0 80.1458 19.4645 1560 103.502 354.637 465.645
1642 0 79.0655 12.5213 990 115.021 354.473 459.29
1643 0 82.179 14.7726 1214 111.822 354.612 459.055
1644 0 88.1898 19.356 1707 105.164 353.089 457.134
1645 0 91.3061 14.665 1339 111.382 352.76 461.495
1646 0 92.2381 14.9613 1380 112.239 351.47 456.73
1647 0 96.331 16.4848 1588 111.595 351.867 452.689
1648 0 96.4575 14.5867 1407 114.144 351.492 446.318
1649 0 98.3066 15.6042 1534 109.288 349.586 444.579
1650 0 100.364 13.9193 1397 114.203 350.392 431.521
1651 0 106.213 15.6477 1662 110.96 349.051 433.182
1652 0 106.512 17.2469 1837 109.04 349.255 429.666
1653 1 58.2551 13.0289 759 104.705 348.07 458.885
1654 0 66.1712 9.2034 609 117.726 349.458 464.614
1655 0 67.2667 9.78196 658 115.15 349.795 461.263
1656 0 70.1901 13.9621 980 106.666 349.647 458.921
1657 0 71.204 12.8223 913 108.058 348.982 457.959
1658 0 76.2429 14.4013 1098 105.088 349.985 460.3
1659 0 78.1882 15.1557 1185 105.591 349.641 455.221
1660 0 79.1211 17.0877 1352 103.96 350.768 448.408
1661 0 80.1156 13.1685 1055 109.229 352.113 450.175
1662 0 82.1844 19.5049 1603 102.331 351.751 446.579
1663 0 88.1114 14.3114 1261 109.37 351.094 440.644
1664 0 90.6094 17.4264 1579 102.253 353.032 451.585
1665 0 91.276 11.5803 1057 114.569 353.029 438.855
1666 0 98.1821 15.9296 1564 105.914 353.6 444.564
1667 0 100.243 15.8814 1592 108.307 353.197 441.765
1668 0 101.308 12.8026 1297 116.447 352.816 439.468
1669 0 102.158 12.2653 1253 117.471 353.179 435.351
1670 0 110.2 12.3049 1356 116.538 353.188 436.691
1671 1 58.0723 14.9469 868 104.76 353.768 461.302
1672 0 59.0908 11.5246 681 106.137 357.791 462.092
1673 0 59.1553 10.7683 637 108.298 357.854 460.526
1674 0 61.0477 10.9095 666 108.111 359.071 462.788
1675 0 67.2099 15.5929 1048 101.714 359.223 463.32
1676 0 66.2263 13.8314 916 103.274 358.183 466.135
1677 0 70.1734 13.4666 945 104.967 358.586 461.808
1678 0 70.2451 12.129 852 107.458 358.594 461.634
1679 0 72.3377 14.5429 1052 104.23 358.456 463.859
1680 0 76.4922 10.3279 790 110.285 357.4 462.21
1681 0 75.1722 11.2142 843 110.205 356.565 462.167
1682 0 80.2363 12.5255 1005 107.35 355.193 464.504
1683 0 84.118 12.102 1018 109.966 356.086 460.795
1684 0 85.191 9.94236 847 112.416 355.688 463.425
1685 0 90.2523 10.3044 930 112.196 354.986 462.773
1686 1 47.0878 7.60282 358 115.411 353.408 478.992
1687 0 49.1539 11.8607 583 110.487 353.573 478.415
1688 0 49.1197 11.8282 581 109.575 353.367 478.406
1689 0 52.093 13.7254 715 106.839 352.317 478.266
1690 0 54.0852 15.6235 845 104.42 351.174 476
1691 0 52.039 13.7397 715 107.287 349.148 476.144
1692 0 56.4282 13.0786 738 107.978 347.997 470.919
1693 0 57.1555 11.425 653 111.518 346.885 470.813
1694 0 58.2361 11.8311 689 112.203 347.493 468.479
1695 0 59.2298 12.2067 723 112.112 346.808 467.968
1696 0 62.3652 14.7198 918 107.779 346.292 467.039
1697 0 62.2592 12.1588 757 110.922 347.403 467.276
1698 0 61.2592 10.7739 660 122.786 348.498 465.518
1699 0 69.2651 10.2216 708 111.754 350.674 463.487
1700 0 70.0911 13.7535 964 108.427 350.55 458.63
1701 0 73.1375 10.6785 781 113.293 350.6 459.142
1702 1 147.276 14.4966 2135 116.733 351.787 423.196
1703 0 152.377 13.1779 2008 118.887 350.527 417.894
1704 1 80.1351 12.3042 986 109.106 352.457 458.934
1705 0 81.1797 11.493 933 114.076 352.005 448.055
1706 0 80.1686 8.60687 690 117.429 353.681 450.019
1707 0 84.1982 10.214 860 115.206 352.979 447.855
1708 0 89.2071 14.5728 1300 108.849 353.305 444.413
1709 0 89.2071 14.5056 1294 127.964 353.304 444.229
1710 0 93.1293 17.2448 1606 107.743 354.072 442.558
1711 0 93.1126 10.6001 987 117.834 355.92 443.077
1712 0 93.117 10.5244 980 140.614 356.881 443.069
1713 0 99.1271 12.832 1272 113.968 356.929 444.639
1714 0 105.132 15.5803 1638 110.774 357.477 437.948
1715 0 109.409 11.0502 1209 116.445 357.931 440.239
1716 0 111.208 12.0135 1336 115.165 358.21 442.143
1717 0 113.156 11.9304 1350 116.441 357.775 437.975
1718 0 121.26 16.2625 1972 108.97 357.805 438.729
1719 0 122.356 13.1011 1603 112.978 358.996 440.049
1720 0 128.301 14.8089 1900 110.172 358.154 431.103
1721 0 133.356 14.1801 1891 112.162 358.213 434.03
1722 1 71.2068 12.6533 901 107.354 358.592 467.022
1723 0 71.1122 12.6701 901 109.209 357.7 463.958
1724 0 76.1433 13.3564 1017 107.754 357.63 463.999
1725 0 76.1774 16.1465 1230 104.497 357.752 460.911
1726 0 76.1774 16.1597 1231 116.323 358.777 460.96
1727 0 83.1652 13.7918 1147 108.799 357.497 458.713
1728 0 85.1248 10.9956 936 113.301 356.981 459.29
1729 0 88.1926 13.2551 1169 107.964 354.441 461.87
1730 0 89.2609 9.89235 883 113.343 354.259 458.723
1731 0 94.2769 16.006 1509 104.448 351.165 455.608
1732 0 99.5248 18.2768 1819 101.601 352.169 450.133
1733 0 99.3231 13.8538 1376 107.743 351.157 450.202
1734 0 104.326 14.5505 1518 106.264 350.969 451.635
1735 0 107.335 16.4625 1767 104.333 348.961 450.542
1736 0 108.247 13.1551 1424 109.343 349.798 450.245
1737 0 111.322 19.0977 2126 101.935 349.781 444.643
1738 0 115.338 13.0659 1507 110.299 349.932 436.459
1739 0 118.514 14.8422 1759 107.731 349.276 442.12
1740 0 123.449 11.2273 1386 110.525 350.301 445.716
1741 0 130.419 16.677 2175 103.552 349.252 443.804
1742 0 127.416 13.0518 1663 112.876 349.402 428.422
1743 0 128.258 8.249 1058 114.688 349.829 442.471
1744 0 138.361 11.0653 1531 114.978 350.005 426.122
1745 1 80.3894 15.2881 1229 106.795 347.653 449.758
1746 0 82.3266 14.1388 1164 113.451 348.35 446.289
1747 0 84.5436 11.4379 967 117.736 348.783 448.376
1748 0 89.5271 16.1962 1450 111.342 348.974 445.299
1749 0 89.501 14.7931 1324 114.475 349.687 440.838
1750 0 95.4401 14.3755 1372 113.473 349.639 445.787
1751 0 96.3299 11.0454 1064 120.075 350.088 442.067
1752 0 98.216 13.6841 1344 113.519 351.381 443.888
1753 0 101.394 12.0717 1224 116.172 351.042 437.712
1754 0 107.299 18.0151 1933 106.953 351.557 437.809
1755 0 108.156 12.8518 1390 116.473 352.826 432.208
1756 0 116.526 14.0656 1639 112.248 352.317 439.711
1757 0 120.256 12.6647 1523 114.948 352.726 438.657
1758 0 120.41 13.6783 1647 115.082 354.02 435.624
1759 1 67.7725 16.4816 1117 105.699 354.369 464.629
1760 0 66.4334 12.1776 809 111.41 356.827 461.488
1761 0 68.3161 15.1794 1037 108.784 356.692 460.934
1762 0 67.4186 12.3112 830 116.443 356.637 457.554
1763 0 71.3505 14.8142 1057 112.038 357.674 462.099
1764 0 71.2384 12.4371 886 115.063 357.006 464.116
1765 0 74.2074 12.1147 899 116.101 356.785 460.235
1766 0 80.3763 14.8551 1194 111.157 357.031 459.705
1767 0 87.446 11.0239 964 114.466 355.826 466.173
1768 0 87.5243 12.5108 1095 131.107 353.739 463.934
1769 0 91.3129 18.2012 1662 105.971 355.856 460.809
1770 0 91.4315 14.1745 1296 111.772 355.434 461.26
1771 0 89.2457 11.8997 1062 118.014 353.314 454.476
1772 0 93.3121 13.4602 1256 114.612 353.186 458.692
1773 0 99.2948 14.8547 1475 112.828 351.161 455.575
1774 0 103.388 15.911 1645 110.2 351.918 456.695
1775 1 55.1347 15.2898 843 107.451 352.038 474.702
1776 0 55.1347 15.2173 839 119.126 352.041 474.816
1777 0 58.0655 13.3642 776 105.122 350.936 473.308
1778 0 58.1199 17.5671 1021 102.367 350.051 469.783
1779 0 59.1622 11.5614 684 110.105 349.387 469.718
1780 0 61.0816 13.0481 797 106.897 348.729 471.641
1781 0 61.0816 12.9663 792 119.707 347.736 471.654
1782 0 63.2234 15.2475 964 106.353 349.672 466.168
1783 0 66.0568 15.2596 1008 105.691 349.515 469.147
1784 0 69.322 13.0694 906 109.153 348.979 468.744
1785 0 69.3776 12.4824 866 110.987 348.483 466.053
1786 0 72.2326 13.6227 984 111.095 349.269 457.606
1787 0 73.1129 13.2535 969 112.589 350.067 456.298
1788 0 77.2322 17.2078 1329 105.975 348.945 457.983
1789 0 77.3994 12.7779 989 114.1 348.645 452.065
1790 0 81.2147 14.1477 1149 110.808 349.704 455.261
1791 0 82.6705 14.334 1185 111.359 349.649 456.662
1792 0 87.6333 13.7961 1209 113.902 350.752 448.01
1793 0 87.4299 12.1011 1058 116.161 350.728 450.109
1794 0 90.2019 14.9221 1346 113.781 352.357 444.577
1795 1 48.5061 12.8438 623 115.072 353.305 462.051
1796 0 49.594 12.9653 643 115.323 351.515 461.404
1797 0 49.9048 10.4599 522 117.749 352.216 460.816
1798 0 47.7044 12.4517 594 115.199 354.481 457.816
1799 0 53.265 11.3208 603 110.116 351.312 469.051
1800 0 55.2616 11.1289 615 110.089 352.242 467.777
1801 0 54.2631 13.195 716 109.436 353.638 464.256
1802 0 56.2904 20.4653 1152 100.165 354.222 462.428
1803 0 55.1976 7.91701 437 117.027 354.497 468.648
1804 0 57.3328 13.1164 752 109.445 353.702 465.444
1805 0 59.5784 8.9462 533 114.685 353.912 469.704
1806 0 67.5212 12.7812 863 108.536 355.212 465.955
1807 0 68.2434 12.1184 827 110.319 355.128 466.141
1808 0 69.3147 13.143 911 109.598 354.909 463.266
1809 0 72.3248 16.8407 1218 103.303 354.993 467.65
1810 0 74.3252 15.3515 1141 107.569 354.634 465.167
1811 0 75.3453 12.1574 916 110.221 354.534 468.056
1812 0 78.3186 10.5722 828 114.19 353.245 464.93
1813 0 83.4023 14.9876 1250 109.663 354.166 458.29
1814 0 86.5545 14.6728 1270 110.278 353.824 458.092
1815 0 87.5004 17.5085 1532 106.296 352.431 464.463
1816 0 92.3716 14.3984 1330 111.508 351.984 458.801
1817 0 92.6567 12.1092 1122 115.917 350.251 460.208
1818 0 96.5194 14.6085 1410 112.449 349.704 455.208
1819 0 104.01 15.0563 1566 110.409 348.501 458.328
1820 0 103.401 13.1623 1361 115.918 348.976 449.918
1821 0 106.557 12.9508 1380 114.241 347.577 451.351
1822 0 109.453 13.0833 1432 115.605 348.762 445.716
1823 1 57.3794 13.8726 796 109.495 347.401 470.658
1824 0 54.173 9.34046 506 114.891 347.559 462.427
1825 0 58.3138 14.6963 857 108.519 347.254 460.306
1826 0 62.0874 14.238 884 107.009 348.458 464.101
1827 0 65.1426 12.8487 837 108.974 348.417 461.928
1828 0 64.26 16.4488 1057 105.752 347.514 460.04
1829 0 68.3353 13.5362 925 108.817 347.323 457.303
1830 0 73.5876 14.7851 1088 107.224 348.21 458.372
1831 0 71.2362 12.6481 901 113.235 349.327 453.393
1832 0 81.5325 17.2324 1405 103.59 348.34 452.759
1833 0 78.3648 13.9221 1091 110.369 349.849 452.93
1834 0 78.5854 15.13 1189 111.283 349.739 443.379
1835 0 84.6423 13.7284 1162 111.556 349.057 445.305
1836 0 86.9576 18.6068 1618 105.159 350.621 440.745
1837 0 89.6461 15.5054 1390 109.605 349.6 445.858
1838 0 89.6206 9.1162 817 119.329 351.782 439.95
1839 0 93.5792 13.6355 1276 114.218 351.836 439.109
1840 0 98.3812 13.9762 1375 115.639 352.031 441.421
1841 0 102.602 12.5826 1291 117.076 351.189 437.854
1842 0 106.682 13.6387 1455 112.357 352.905 442.887
1843 1 55.5124 11.0065 611 112.859 353.192 462.568
1844 0 55.222 10.5574 583 114.455 354.429 461.168
1845 0 61.2508 15.8692 972 103.856 354.653 466.389
1846 0 63.2375 14.8488 939 104.719 354.34 464.027
1847 0 65.2717 13.2063 862 106.593 353.942 465.015
1848 0 66.2926 11.6152 770 110.531 354.655 465.843
1849 0 67.3192 11.8985 801 111.176 353.733 465.243
1850 0 70.4401 11.8398 834 111.523 354.354 465.132
1851 0 68.2856 8.8452 604 118.51 354.755 457.952
1852 0 73.3626 11.3818 835 115.908 354.341 459.919
1853 0 79.2216 13.9103 1102 113.204 354.677 460.822
1854 0 78.2282 10.6611 834 120.677 353.566 458.801
1855 0 81.5599 14.7622 1204 115.806 354.416 453.254
1856 0 88.9011 13.2732 1180 117.741 353.557 452.989
1857 0 88.4438 13.3983 1185 118.418 352.414 452.051
1858 0 90.4368 14.9275 1350 115.91 352.596 453.965
1859 0 93.277 11.4069 1064 120.591 352.086 452.823
1860 0 96.3156 12.2825 1183 120.108 351.764 451.664
1861 1 53.0944 10.6414 565 111.492 351.32 479.412
1862 0 51.1436 12.4747 638 113.009 350.049 473.853
1863 0 54.1337 10.1785 551 115.013 349.379 475.243
1864 0 56.2755 12.0656 679 113.081 346.683 473.923
1865 0 57.166 10.8106 618 114.277 345.809 474.32
1866 0 58.2632 10.0235 584 117.361 347.127 469.574
1867 0 62.1453 14.45 898 109.585 346.459 469.5
1868 0 64.3408 12.869 828 111.623 346.605 468.865
1869 0 64.1846 11.8253 759 112.328 346.528 470.63
1870 0 63.2376 13.0619 826 113.742 346.201 462.77
1871 0 72.3852 11.7566 851 113.618 346.788 461.208
1872 0 76.6228 12.0721 925 111.648 346.314 461.925
1873 0 75.2508 17.5015 1317 105.08 346.998 462.047
1874 0 72.5357 8.74052 634 115.177 346.735 461.382
1875 0 82.4433 16.8965 1393 107.594 347.658 453.94
1876 0 84.8476 13.1294 1114 114.995 347.638 447.226
1877 0 85.6777 12.8622 1102 115.666 348.682 446.167
1878 0 90.9161 12.0551 1096 117.498 349.37 442.37
1879 0 93.6763 13.6 1274 114.518 348.941 443.356
1880 0 95.8175 13.15 1260 116.129 350.147 443.59
1881 1 50.4273 11.9776 604 112.447 349.137 462.623
1882 0 53.5116 11.5302 617 112.927 350.621 460.645
1883 0 53.5802 14.8376 795 109.697 350.867 460.994
1884 0 53.2887 11.1844 596 115.992 350.956 460.757
1885 0 57.1463 13.9117 795 111.987 351.696 459.691
1886 0 61.3643 12.9554 795 112.88 351.203 462.06
1887 0 62.4759 13.1571 822 113.881 353.429 459.034
1888 0 62.326 11.4559 714 117.447 353.003 459.408
1889 0 66.1037 14.7344 974 114.263 354.269 456.674
1890 0 69.4541 13.3901 930 114.502 355.303 456.876
1891 0 70.3466 11.4149 803 117.844 355.34 460.654
1892 0 70.4838 11.2792 795 120.561 353.692 456.655
1893 0 75.6584 13.0983 991 118.439 355.312 454.619
1894 0 77.6414 10.6 823 122.103 353.688 455.716
1895 0 78.8176 10.6321 838 123.721 353.877 455.496
1896 0 82.7463 12.7015 1051 121.299 352.95 454.525
1897 0 87.0008 12.9539 1127 120.01 353.827 455.075
1898 0 90.7993 13.3812 1215 120.165 353.042 454.213
1899 0 91.801 11.3724 1044 124.042 353.414 454.085
1900 0 99.5948 12.7617 1271 120.916 352.564 453.082
1901 0 99.7068 11.6742 1164 123.818 351.534 449.857
1902 0 103.818 14.2365 1478 118.149 351.285 453.227
1903 0 105.708 13.0833 1383 121.448 349.712 449.471
1904 0 109.473 11.1352 1219 123.585 348.78 448.198
1905 1 58.1377 14.328 833 117.431 350.292 472.387
1906 0 59.2056 15.1506 897 116.425 350.074 468.629
1907 0 60.1598 12.3172 741 121.982 349.401 468.599
1908 0 60.2198 13.733 827 119.886 348.341 467.54
1909 0 65.1335 13.2651 864 119.484 348.039 464.764
1910 0 64.1877 12.6971 815 121.926 348.566 463.431
1911 0 68.2277 13.7627 939 119.507 347.16 465.389
1912 0 72.2943 12.4768 902 123.416 347.531 459.38
1913 0 71.337 11.3966 813 126.236 347.137 456.6
1914 0 74.7181 15.07 1126 118.369 347.781 458.596
1915 0 76.2883 14.4452 1102 119.779 348.248 456.309
1916 0 81.454 13.8238 1126 120.602 348.989 454.299
1917 0 81.3622 13.0405 1061 123.933 347.546 449.907
1918 0 85.376 15.0511 1285 115.802 348.23 451.168
1919 0 86.4086 15.7276 1359 115.765 348.119 448.333
1920 0 87.3064 14.3976 1257 119.022 348.59 445.121
1921 0 91.4395 17.312 1583 113.402 348.78 448.306
1922 0 94.4336 17.0067 1606 114.537 349.842 442.046
1923 0 96.3661 13.1063 1263 120.966 349.569 440.08
1924 0 99.5158 14.3696 1430 118.669 352.306 441.118
1925 1 54.1862 9.13517 495 120.246 352.824 463.224
1926 0 58.4426 10.5402 616 118.097 352.435 458.279
1927 0 55.5124 9.88967 549 113.572 353.607 452.051
1928 0 59.3411 9.84141 584 107.401 353.932 453.079
1929 0 63.2887 9.89119 626 106.43 354.466 456.3
1930 0 66.2882 12.7172 843 102.67 355.295 456.765
1931 0 65.3931 13.9464 912 98.6458 354.487 458.849
1932 0 69.282 11.7924 817 104.371 357.727 454.349
1933 0 68.6063 11.1943 768 105.904 358.357 453.677
1934 0 73.1878 9.4688 693 107.188 357.58 453.869
1935 0 78.2805 11.8165 925 106.786 355.935 462.038
1936 0 77.0702 7.69429 593 109.868 355.897 466.809
1937 0 83.1895 15.3265 1275 104.056 354.465 455.704
1938 0 85.2873 11.6313 992 106.002 354.623 460.624
1939 0 87.3425 7.95718 695 110.922 354.414 459.376
1940 1 171.696 12.4697 2141 117.402 353.519 417.487
1941 1 48.0264 7.5167 361 109.648 354.645 478.712
1942 0 53.0477 11.6687 619 103.412 352.987 476.279
1943 0 55.2899 8.64534 478 107.157 353.249 476.343
1944 0 56.0842 10.8943 611 103.637 353.007 478.139
1945 0 57.1417 12.8453 734 102.102 350.738 476.856
1946 0 56.1364 12.434 698 103.07 352.086 472.569
1947 0 61.2584 9.2722 568 107.011 351.445 470.778
1948 0 65.3156 10.61 693 104.097 350.189 468.144
1949 0 64.1523 8.88511 570 105.835 350.395 469.904
1950 0 64.1885 10.734 689 106.221 348.482 469.129
1951 0 65.2445 10.3917 678 107.525 347.301 467.304
1952 0 68.2269 8.69159 593 110.948 346.97 465.4
1953 0 68.1808 11.9242 813 106.08 346.963 466.562
1954 0 74.1456 11.6797 866 106.99 347.759 462.292
1955 0 81.3555 9.64901 785 108.949 345.855 462.811
1956 0 79.1453 13.6079 1077 104.801 345.685 460.081
1957 0 78.175 9.36361 732 109.402 346.014 464.108
1958 0 80.3077 9.97413 801 111.788 347.042 456.071
1959 1 164.903 13.6869 2257 111.634 347.104 411.786
1960 1 84.1689 11.5363 971 108.285 347.352 457.495
1961 0 86.3418 10.9565 946 111.496 347.135 449.303
1962 0 84.2409 12.9747 1093 108.618 348.198 450.751
1963 0 92.1663 12.293 1133 110.285 348.379 445.38
1964 0 95.1778 12.9967 1237 109.374 348.414 446.049
1965 0 98.3454 13.4322 1321 108.969 350.835 442.434
1966 1 53.046 7.33326 389 117.92 349.519 455.841
1967 0 58.0761 10.3657 602 110.267 348.671 460.402
1968 0 62.1774 15.2789 950 102.859 349.833 460.404
1969 0 62.2037 11.7999 734 104.639 351.911 457.76
1970 0 62.1459 13.4039 833 107.69 351.682 455.613
1971 0 64.2721 11.1713 718 110.738 351.737 458.804
1972 0 67.253 14.8841 1001 106.309 352.396 456.906
1973 0 68.3352 12.3216 842 110.576 351.983 456.894
1974 0 71.1904 17.1231 1219 103.536 352.216 456.025
1975 0 74.1549 11.2602 835 112.626 352.38 452.321
1976 0 78.4871 16.1173 1265 104.383 353.387 455.247
1977 0 82.1981 14.1001 1159 107.755 353.239 454.556
1978 0 79.2291 11.8265 937 113.352 353.745 453.815
1979 0 80.3154 9.86113 792 115.081 353.381 456.891
1980 0 86.2021 14.814 1277 106.849 353.934 459.912
1981 0 86.4157 13.6781 1182 109.705 352.052 458.891
1982 0 92.3267 12.6507 1168 111.866 351.781 454.395
1983 0 91.3031 12.1025 1105 114.586 351.431 452.752
1984 0 98.4783 14.2163 1400 110.799 352.022 453.579
1985 0 98.1978 12.9942 1276 113.092 350.669 455.142
1986 1 53.5755 12.0577 646 109.933 352.738 475.686
1987 0 57.5635 11.9694 689 109.601 350.758 471.395
1988 0 58.3803 12.2644 716 109.63 351.754 472.937
1989 0 61.136 12.8239 784 106.381 351.071 472.306
1990 0 59.1014 11.7933 697 106.042 352.511 474.106
1991 0 60.1096 13.492 811 104.519 351.825 473.226
1992 0 58.1622 10.5395 613 110.197 351.272 469.336
1993 0 58.1119 9.51613 553 110.351 351.145 471.508
1994 0 63.119 11.7714 743 107.604 351.308 466.409
1995 0 68.3776 14.1567 968 104.507 348.682 462.262
1996 0 67.1384 13.8073 927 104.575 349.57 465.28
1997 0 72.1579 11.2254 810 105.331 348.793 468.436
1998 0 76.1622 11.6462 887 107.619 349.848 458.68
1999 0 74.1727 10.5564 783 110.176 349.252 458.215
2000 0 74.1334 11.0477 819 136.275 348.266 458.54
2001 0 80.1386 14.0382 1125 105.548 346.896 451.984
2002 0 84.1814 12.3899 1043 106.378 348.78 454.807
2003 0 80.3055 11.7427 943 109.882 347.835 448.748
2004 0 85.2483 11.226 957 109.225 350.616 448.476
2005 0 89.2217 10.3898 927 110.379 350.751 448.344
2006 0 93.2142 14.118 1316 105.074 349.531 444.035
2007 0 95.349 11.9771 1142 106.131 351.496 443.942
2008 1 51.1295 11.2068 573 106.288 352.154 461.75
2009 0 53.1277 12.9311 687 103.684 352.834 462.849
2010 0 58.4161 15.8689 927 97.5297 353.659 463.586
2011 0 57.075 15.7337 898 98.1403 353.745 465.708
2012 0 58.2269 13.8424 806 101.721 353.613 463.697
2013 0 56.1606 10.2385 575 106.882 353.908 463.017
2014 0 60.2549 11.0198 664 105.956 354.785 463.512
2015 0 64.1644 15.1642 973 100.231 355.021 461.474
2016 0 64.249 13.7123 881 102.193 356.17 461.404
2017 0 66.2994 14.3742 953 101.34 356.193 458.591
2018 0 67.0747 8.5129 571 108.555 356.856 463.548
2019 0 73.2127 13.5086 989 100.908 357.46 460.775
2020 0 72.1018 11.7611 848 104.522 357.571 459.061
2021 0 76.1648 13.7071 1044 101.884 356.826 458.093
2022 0 80.2741 19.2839 1548 95.604 356.816 460.194
2023 0 80.2002 12.9052 1035 104.214 356.814 459.638
2024 0 86.3465 17.5572 1516 97.8595 356.024 461.429
2025 0 83.2319 13.0719 1088 104.926 354.941 457.758
2026 0 89.4494 14.0415 1256 102.791 355.775 458.713
2027 0 92.2681 16.5713 1529 100.707 353.927 456.84
2028 0 96.1246 16.4162 1578 100.076 355.288 458.92
2029 0 95.7194 13.7903 1320 104.186 354.083 457.624
2030 0 102.599 26.5988 2729 91.2294 352.834 453.342
2031 0 105.146 15.1028 1588 103.554 352.654 449.516
2032 0 109.371 15.8269 1731 102.934 351.631 448.723
2033 0 111.221 13.0281 1449 107.689 352.038 445.987
2034 0 114.652 12.9173 1481 108.286 351.557 445.583
2035 0 118.387 14.3596 1700 106.165 349.736 445.272
2036 0 121.705 13.1794 1604 107.661 349.016 446.822
2037 0 126.552 12.6904 1606 108.595 348.635 443.414
2038 0 129.438 14.8102 1917 108.099 347.834 436.256
2039 0 130.585 11.8696 1550 112.963 347.932 433.865
2040 0 135.61 11.5995 1573 113.499 346.825 437.999
2041 0 144.677 9.3035 1346 117.848 347.422 432.861
2042 0 143.75 15.84 2277 113.205 347.585 421.401
2043 0 148.911 15.3514 2286 108.289 346.513 423.413
2044 1 87.2824 10.403 908 111.426 346.05 453.852
2045 0 88.6379 16.9679 1504 102.025 346.084 452.927
2046 0 91.4185 13.9359 1274 109.192 346.568 447.465
2047 0 93.3126 14.3175 1336 105.479 346.978 451.644
2048 0 96.2291 10.9842 1057 111.793 348.918 440.769
2049 0 99.1307 12.7609 1265 110.24 351.259 436.616
2050 0 102.274 14.4807 1481 108.176 350.335 430.096
2051 0 103.21 14.1652 1462 109.75 351.389 430.322
2052 0 109.468 16.0869 1761 106.005 352.204 433.764
2053 0 115.302 14.4144 1662 109.212 352.372 431.894
2054 0 118.336 19.5376 2312 101.368 352.403 437.756
2055 0 119.365 12.5832 1502 112.998 355.105 430.496
2056 0 119.365 12.5832 1502 138.545 357.101 430.563
2057 0 129.186 11.6421 1504 116.189 355.519 424.484
2058 0 133.338 13.5445 1806 113.786 355.484 421.716
2059 0 135.52 11.1496 1511 118.036 356.043 417.71
2060 1 73.2997 11.2688 826 112.385 356.414 452.492
2061 0 77.4063 13.8361 1071 107.991 356.824 454.728
2062 0 80.5135 13.9356 1122 107.417 356.142 455.663
2063 0 80.1755 13.8571 1111 110.206 354.796 454.225
2064 0 85.3323 14.426 1231 109.532 356.5 452.254
2065 0 88.333 13.7774 1217 109.896 356.797 450.656
2066 0 94.3521 14.944 1410 106.318 357.319 456.157
2067 0 94.2999 10.8272 1021 115.101 355.915 449.38
2068 0 100.223 14.0386 1407 110.143 356.234 448.881
2069 0 99.2706 8.80422 874 116.805 355.997 454.825
2070 1 66.1408 9.67632 640 112.017 356.578 474.173
2071 0 65.1994 13.7118 894 108.34 355.503 470.885
2072 0 64.2119 12.2407 786 122.202 354.726 474.564
2073 0 65.1121 11.964 779 109.576 355.241 474.33
2074 0 64.0772 9.94114 637 116.311 352.421 461.845
2075 0 68.1022 12.1435 827 111.18 352.074 470.441
2076 0 70.1101 12.4518 873 114.048 350.455 464.548
2077 0 73.1575 15.9519 1167 107.974 349.804 466.465
2078 0 71.1146 12.8947 917 111.595 349.214 462.522
2079 0 74.1187 10.2808 762 116.034 349.483 464.11
2080 0 70.1577 9.64969 677 117.126 348.464 464.202
2081 0 79.1195 11.7797 932 114.608 348.666 458.209
2082 0 81.3053 9.96245 810 116.585 349.016 457.219
2083 0 85.2717 14.2017 1211 110.472 347.635 455.465
2084 0 83.2581 11.9388 994 114.089 349.165 456.053
2085 0 87.1376 11.0744 965 116.323 348.242 451.013
2086 0 92.2468 9.77812 902 117.419 348.919 451.56
2087 0 92.3528 10.7306 991 118.782 348.768 445.191
2088 0 94.2635 16.6554 1570 110.422 348.517 441.695
2089 0 97.2169 10.9652 1066 118.151 348.282 441.57
2090 0 99.392 11.9929 1192 116.669 348.921 438.225
2091 0 104.231 12.9328 1348 115.347 350.09 439.864
2092 0 107.342 10.08 1082 119.841 350.51 438.921
2093 0 111.256 16.4845 1834 109.942 350.456 437.285
2094 1 62.0952 10.7255 666 115.455 351.902 460.225
2095 0 62.0627 8.52364 529 118.091 353.064 459.794
2096 0 67.2198 11.7971 793 112.984 350.614 457.425
2097 0 70.2349 14.0671 988 110.989 350.341 452.807
2098 0 68.1472 14.4393 984 113.068 350.367 452.662
2099 0 68.058 11.8722 808 119.157 350.573 448.933
2100 0 72.2839 12.4094 897 115.362 351.332 452.708
2101 0 74.2599 10.8807 808 114.938 351.975 456.783
2102 0 75.063 10.6178 797 116.213 352.033 454.647
2103 0 83.1109 11.25 935 116.178 352.82 449.82
2104 0 86.0772 16.462 1417 108.356 353.33 451.38
2105 0 90.1892 11.9305 1076 114.175 354.417 450.247
2106 0 97.1727 17.5461 1705 105.361 354.232 444.378
2107 0 97.2677 12.9437 1259 111.427 352.027 448.974
2108 0 100.172 14.6348 1466 110.212 352.058 447.559
2109 1 181.452 7.58328 1376 124.476 352.701 406.877
2110 0 186.668 8.72671 1629 120.993 351.959 413.597
2111 1 113.29 14.326 1623 110.879 351.551 443.97
2112 1 59.1094 14.5154 858 106.733 349.852 471.583
2113 0 59.0484 16.9352 1000 103.973 350.627 471.885
2114 0 62.0755 12.4526 773 109.73 349.726 473.225
2115 0 62.113 11.6884 726 113.029 349.048 470.12
2116 0 65.0457 11.8071 768 112.944 347.415 467.465
2117 0 67.1199 12.5447 842 110.564 346.418 469.91
2118 0 71.1514 14.0264 998 108.171 347.176 465.856
2119 0 71.245 12.464 888 111.432 346.902 461.896
2120 0 74.0889 15.5354 1151 106.699 347.043 460.79
2121 0 79.0861 14.6802 1161 107.749 345.499 460.597
2122 0 79.1693 15.2458 1207 107.831 345.2 460.127
2123 0 79.1324 12.4096 982 111.916 345.509 458.489
2124 0 85.4707 14.4962 1239 108.614 346.065 454.219
2125 0 87.2873 13.6446 1191 108.816 346.65 458.462
2126 0 86.345 12.9596 1119 112.828 346.881 452.832
2127 1 48.1896 9.48337 457 112.221 344.713 472.49
2128 0 51.0477 13.5951 694 106.117 346.18 471.565
2129 0 50.0694 13.6011 681 105.031 344.345 473.33
2130 0 54.1321 13.153 712 104.723 345.485 471.756
2131 0 52.061 11.0832 577 112.229 346.511 464.163
2132 0 55.3065 13.9405 771 106.288 344.406 464.713
2133 0 57.208 13.3722 765 107.369 346.865 462.448
2134 0 59.3979 13.3675 794 108.019 347.215 462.116
2135 0 62.3297 15.1613 945 103.876 347.341 463.228
2136 0 61.1991 13.0557 799 109.615 348.086 457.69
2137 0 60.4389 14.2789 863 108.094 348.715 460.013
2138 0 62.4279 12.6546 790 111.914 349.349 454.52
2139 0 66.3961 18.1336 1204 103.297 350.266 453.867
2140 0 66.4589 13.1961 877 111.325 351.494 455.271
2141 0 66.4589 13.2714 882 142.772 352.465 455.194
2142 0 70.3101 16.6121 1168 107.42 351.56 455.088
2143 0 75.2962 16.1761 1218 107.381 351.563 452.843
2144 0 77.3352 16.4608 1273 107.31 352.013 453.719
2145 0 78.5256 13.3332 1047 113.143 353.391 454.288
2146 0 80.2753 15.0981 1212 111.469 353.139 453.389
2147 0 84.3256 14.112 1190 112.715 354.725 452.541
2148 0 86.4733 15.4498 1336 111.546 354.054 451.36
2149 1 177.984 15.1587 2698 115.831 355.765 413.289
2150 0 181.825 14.4369 2625 114.56 355.044 412.432
2151 1 101.586 11.8127 1200 114.368 354.195 454.075
2152 1 51.1364 11.616 594 114.057 356.498 469.929
2153 0 53.0967 13.5413 719 109.463 356.206 466.203
2154 0 53.0626 13.4558 714 109.957 355.894 465.424
2155 0 56.0951 12.4075 696 112.704 354.618 462.836
2156 0 60.0711 14.4495 868 108.46 353.876 467.196
2157 0 62.043 13.6357 846 111.557 353.526 467.04
2158 0 62.1977 12.83 798 115.449 350.939 463.68
2159 0 66.0603 10.7629 711 117.475 351.442 465.271
2160 0 69.0867 13.2442 915 113.749 349.618 462.891
2161 0 69.0456 13.5128 933 114.696 350.549 458.23
2162 0 73.2127 12.771 935 115.19 349.716 461.457
2163 0 77.1031 13.5144 1042 114.263 349.542 461.671
2164 0 77.1542 15.4755 1194 111.867 349.164 457.539
2165 0 79.0867 13.6685 1081 116.564 348.281 454.06
2166 0 84.1101 14.0411 1181 115.419 348.966 454.685
2167 0 85.1549 13.6575 1163 117.234 349.733 454.316
2168 0 87.1716 15.3949 1342 115.693 348.724 448.82
2169 0 91.1971 13.0158 1187 118.279 348.068 448.208
2170 0 93.1894 13.0058 1212 119.57 348.444 442.456
2171 0 94.2202 14.4449 1361 118.068 347.585 441.016
2172 0 96.1533 12.0849 1162 122.8 347.886 436.563
2173 0 104.176 14.6195 1523 116.562 349.062 438.18
2174 0 106.231 13.1035 1392 119.345 348.902 436.353
2175 1 52.067 10.5633 550 118.098 350.164 455.722
2176 0 54.6745 11.4679 627 115.762 347.96 456.858
2177 0 56.238 13.0161 732 112.139 348.376 457.91
2178 0 60.4387 8.86848 536 120.254 348.291 457.713
2179 0 58.2822 11.6845 681 116.875 350.559 453.197
2180 0 61.2864 11.6013 711 116.435 351.668 450.879
2181 0 61.6661 13.6055 839 113.204 351.346 455.445
2182 0 66.7037 11.9783 799 115.836 351.98 453.255
2183 0 69.4045 15.3448 1065 110.431 353.361 450.442
2184 0 73.245 9.85733 722 118.105 352.673 450.194
2185 0 74.4937 12.8199 955 114.292 352.597 449.962
2186 0 73.4508 17.5355 1288 106.922 352.481 448.358
2187 0 79.2608 12.7806 1013 113.728 352.611 444.978
2188 0 81.4496 13.2106 1076 112.667 354.652 441.574
2189 0 82.285 12.9914 1069 114.302 355.06 441.059
2190 0 87.7022 14.5264 1274 109.801 353.429 448.394
2191 0 91.5785 15.3748 1408 108.731 354.073 445.086
2192 1 46.1238 10.9271 504 106.887 351.802 468.089
2193 0 50.0271 8.89518 445 110.045 352.56 468.892
2194 0 49.2501 10.3756 511 115.139 354.421 471.176
2195 0 52.1377 10.9326 570 110.442 351.368 467.254
2196 0 47.0265 12.8438 604 108.061 351.111 471.371
2197 0 56.1253 12.0088 674 106.77 352.868 477.932
2198 0 55.2378 10.2466 566 109.456 352.733 478.655
2199 0 60.123 13.3892 805 105.672 353.389 475.537
2200 0 61.2848 11.1447 683 108.331 353.073 475.458
2201 0 66.2077 11.9472 791 104.53 353.367 475.133
2202 0 66.1191 15.0637 996 103.438 350.773 470.785
2203 0 67.0659 10.3331 693 108.941 350.685 472.322
2204 0 68.1174 13.5501 923 106.467 351.204 467.333
2205 0 70.0934 14.9229 1046 104.491 350.797 469.401
2206 0 69.2062 10.2448 709 112.059 349.389 462.409
2207 0 74.0915 11.4993 852 110.628 349.273 459.521
2208 0 77.292 11.9029 920 110.67 348.322 456.3
2209 0 81.235 11.953 971 110.105 348.056 460.255
2210 0 84.2406 13.0934 1103 109.382 347.92 458.166
2211 0 83.1272 10.2975 856 115.521 347.745 450.516
2212 0 86.2234 12.9779 1119 111.24 348.82 453.224
2213 1 183.797 12.5301 2303 118.224 346.08 407.749
2214 0 191.084 11.8691 2268 118.467 346.908 403.994
2215 0 197.922 10.7568 2129 121.491 346.311 396.331
2216 1 51.1426 7.37154 377 144.576 346.944 469.554
2217 0 56.0665 9.89896 555 109.683 348.386 469.124
2218 0 52.0497 9.35645 487 110.316 350.07 469.183
2219 0 55.1051 10.6342 586 112.584 348.718 468.372
2220 0 59.185 14.159 838 109.768 351.033 464.308
2221 0 62.5788 11.106 695 115.557 352.141 461.164
2222 0 60.6747 12.5588 762 114.681 350.619 458.117
2223 0 62.3056 11.1387 694 116.808 351.112 455.124
2224 0 66.3844 12.3071 817 113.903 351.969 457.502
2225 0 66.4603 13.3313 886 113.721 353.499 453.92
2226 0 65.6618 11.2394 738 117.44 353.159 456.215
2227 0 71.3779 12.8891 920 112.535 353.973 456.866
2228 0 74.3464 13.881 1032 110.184 353.167 458.339
2229 0 74.4266 12.2134 909 114.47 354.855 453.628
2230 0 79.5742 17.9078 1425 105.057 355.12 454.324
2231 0 81.8136 14.6919 1202 109.888 355.446 452
2232 0 80.6417 10.7017 863 115.51 355.79 452.401
2233 0 87.5644 13.4301 1176 110.724 355.148 450.582
2234 0 89.6271 15.7988 1416 107.385 355.553 450.472
2235 0 91.6118 14.878 1363 106.82 355.496 457.316
2236 0 89.6547 10.072 903 112.91 354.65 458.215
2237 1 54.2974 12.892 700 103.066 353.017 473.71
2238 0 53.3797 11.465 612 106.642 350.712 472.477
2239 0 58.0345 12.6993 737 106.437 351.319 476.682
2240 0 60.1663 14.0777 847 105.378 350.264 473.875
2241 0 60.0567 11.8721 713 109.393 350.466 473.864
2242 0 60.0856 11.9663 719 111.095 348.737 472.54
2243 0 62.1636 14.4779 900 107.44 349.124 470.946
2244 0 65.143 14.9978 977 106.708 347.39 470.371
2245 0 68.0778 14.7038 1001 106.312 347.092 471.104
2246 0 69.065 18.9532 1309 101.965 346.774 466.222
2247 0 70.0827 13.8408 970 109.467 346.055 465.845
2248 0 73.1197 16.5756 1212 106.513 346.484 459.776
2249 0 74.1217 12.0073 890 113.133 345.08 462.945
2250 0 76.2272 12.0954 922 113.136 345.5 460.418
2251 0 77.1073 16.691 1287 107.169 345.549 460.234
2252 0 84.1112 14.2074 1195 110.673 344.946 455.603
2253 0 82.21 14.9982 1233 110.848 344.835 450.108
2254 0 86.0776 14.9516 1287 110.212 343.589 451.622
2255 0 92.1762 11.9554 1102 113.277 343.653 453.578
2256 0 92.1673 12.0108 1107 115.051 344.614 445.923
2257 1 50.369 11.4952 579 110.052 345.069 466.484
2258 0 51.2225 17.0433 873 99.2577 346.633 464.83
2259 0 50.1846 12.0953 607 108.982 347.504 457.361
2260 0 53.2869 12.8174 683 101.524 347.151 460.397
2261 0 55.2125 11.2293 620 103.634 348.177 462.89
2262 0 57.4426 10.2189 587 104.16 347.741 461.128
2263 0 56.2571 11.1986 630 104.308 349.14 459.965
2264 0 56.2043 8.73599 491 107.635 350.214 455.405
2265 0 59.2186 11.2802 668 103.922 349.961 457.735
2266 0 64.3608 12.9116 831 100.98 350.739 457.034
2267 0 62.4274 11.3412 708 104.716 350.052 454.74
2268 0 62.4057 8.92547 557 109.851 350.501 449.74
2269 0 66.1798 11.0003 728 106.578 352.227 452.764
2270 0 71.3456 13.3295 951 104.804 352.161 447.388
2271 0 70.6412 8.89 628 109.898 352.498 453.836
2272 0 77.3667 15.9112 1231 98.1259 354.612 454.03
2273 0 79.727 14.3866 1147 101.313 354.361 448.89
2274 0 81.3749 14.636 1191 101.396 355.723 445.006
2275 0 86.5703 13.7807 1193 101.369 355.192 449.65
2276 0 86.3997 13.1945 1140 104.248 354.393 442.693
2277 0 92.3367 13.6457 1260 103.175 354.094 448.75
2278 1 50.3936 11.1919 564 108.17 355.44 465.172
2279 0 49.3497 14.3871 710 102.011 354.954 468.801
2280 0 50.2911 12.0498 606 106.332 355.624 469.219
2281 0 53.2311 11.6098 618 107.4 353.434 466.935
2282 0 53.1892 10.2652 546 109.958 354.055 464.813
2283 0 60.2729 13.0905 789 103.857 353.499 467.003
2284 0 60.6719 12.4934 758 101.352 352.08 469.27
2285 0 63.2636 11.7761 745 102.209 352.314 464.503
2286 0 66.3346 13.5827 901 98.768 351.009 470.772
2287 0 71.13 18.3045 1302 99.3433 351.468 468.548
2288 0 72.5586 11.4666 832 108.2 351.46 470.188
2289 0 75.2328 11.285 849 108.411 350.595 467.433
2290 0 77.1478 11.6659 900 109.354 350.726 464.219
2291 1 91.1593 9.59859 875 110.271 348.243 465.907
2292 0 89.1956 7.56764 675 115.095 350.359 464.065
2293 0 89.1144 13.9708 1245 105.71 349.161 461.716
2294 0 90.0893 12.2767 1106 110.109 348.469 453.936
2295 1 52.0716 13.155 685 106.34 346.801 474.083
2296 0 51.3909 11.1887 575 112.576 345.617 467.423
2297 0 54.0997 12.8836 697 107.182 344.334 471.759
2298 0 57.0484 14.8646 848 106.439 344.242 465.16
2299 0 56.1423 13.1452 738 108.065 344 467.921
2300 0 59.0913 13.3184 787 108.68 344.63 460.213
2301 0 60.1326 15.2164 915 105.136 344.884 463.675
2302 0 62.1525 13.4025 833 109.055 344.753 460.66
2303 0 62.1525 13.4508 836 124.153 344.752 460.819
2304 0 62.0685 10.7301 666 112.662 345.976 460.641
2305 0 65.2552 11.9531 780 111.36 345.892 456.53
2306 0 68.0582 12.4746 849 110.963 347.093 453.442
2307 0 71.2237 13.5348 964 108.726 346.475 452.545
2308 0 73.2632 11.5884 849 110.889 349.093 453.249
2309 0 76.1154 13.6766 1041 109.062 349.399 449.287
2310 1 42.1719 11.6902 493 107.067 350.132 468.44
2311 0 43.1225 12.3138 531 106.154 350.252 467.697
2312 0 46.1619 10.0516 464 111.272 353.845 464.297
2313 0 46.0401 10.5995 488 110.537 352.195 463.99
2314 0 49.076 12.0018 589 106.829 352.547 466.705
2315 0 51.1008 13.1309 671 103.218 353.355 467.306
2316 0 52.1769 14.2592 744 102.476 353.798 466.536
2317 0 51.0747 10.4357 533 112.674 352.694 466.925
2318 0 55.1215 11.012 607 111.152 353.591 467.489
2319 0 52.1385 10.3378 539 113.857 352.794 463.625
2320 0 61.2058 12.123 742 109.675 352.356 466.129
2321 0 59.1792 9.78384 579 115.672 352.002 464.831
2322 0 64.1692 12.1709 781 111.554 352.373 466.077
2323 0 65.2474 10.7437 701 113.529 351.434 468.625
2324 0 67.16 14.056 944 109.372 351.722 464.309
2325 0 75.2611 7.53377 567 117.182 351.303 467.393
2326 0 77.1026 13.7479 1060 107.166 350.505 461.684
2327 0 77.1214 17.6475 1361 101.098 350.095 467.816
2328 0 77.1581 12.8308 990 110.833 349.875 462.998
2329 0 80.4055 13.2454 1065 110.962 348.472 461.623
2330 0 84.4414 10.2912 869 112.902 348.349 464.258
2331 0 85.4101 12.5278 1070 111.147 348.494 459.643
2332 0 89.6025 12.0309 1078 112.284 348.981 457.702
2333 0 93.7839 12.774 1198 111.785 348.181 452.809
2334 0 96.9957 18.2482 1770 103.441 347.014 448.732
2335 0 96.3454 11.6456 1122 109.037 346.513 452.121
2336 0 100.621 12.2539 1233 107.912 345.86 453.581
2337 1 54.2256 13.3332 723 104.726 345.636 472.817
2338 0 55.2298 12.6381 698 106.857 345.756 466.188
2339 0 61.441 15.462 950 101.759 345.163 465.399
2340 0 61.3487 11.9807 735 106.186 345.231 465.439
2341 0 62.3107 13.85 863 103.513 346.11 465.591
2342 0 62.3881 15.8203 987 102.175 345.51 463.25
2343 0 62.3881 15.8524 989 118.281 345.521 463.226
2344 0 66.3793 16.9179 1123 100.752 346.758 457.568
2345 0 67.2716 14.8948 1002 103.273 347.124 457.987
2346 0 70.3562 15.052 1059 103.069 347.934 452.368
2347 0 73.324 13.4335 985 104.937 347.832 451.95
2348 0 73.3222 12.0427 883 107.471 348.951 454.55
2349 0 80.3255 14.2296 1143 103.236 348.921 455.876
2350 0 79.3075 14.1096 1119 105.085 350.397 448.884
2351 0 81.4205 16.8999 1376 100.575 350.322 454.353
2352 0 84.2475 16.3803 1380 102.901 351.142 444.751
2353 0 86.2494 13.6581 1178 107.03 352.407 441.548
2354 0 89.3029 13.2694 1185 107.789 353.037 444.899
2355 0 94.2505 18.4402 1738 101.211 352.74 444.677
2356 0 94.2927 17.276 1629 102.576 353.334 445.569
2357 0 100.476 13.1872 1325 108.565 352.901 440.543
2358 0 104.349 11.8352 1235 110.521 355.141 440.442
2359 0 107.25 13.7902 1479 108.955 355.421 441.581
2360 0 112.215 7.41437 832 117.226 355.189 439.921
2361 0 115.158 11.8794 1368 111.635 355.024 442.105
2362 0 121.524 15.6265 1899 108.035 355.049 433.866
2363 0 121.396 10.4122 1264 115.174 355.634 426.248
2364 1 67.1621 10.8246 727 110.967 357 460.725
2365 0 73.1326 16.9008 1236 101.905 356.03 460.943
2366 0 74.3218 11.5444 858 109.874 355.225 459.552
2367 0 80.1559 16.7299 1341 102.289 354.884 463.523
2368 0 79.1112 12.7921 1012 109.052 354.123 463.424
2369 0 85.269 15.8088 1348 104.523 351.526 458.566
2370 0 90.1732 13.6959 1235 107.23 351.198 458.453
2371 0 93.166 15.4026 1435 105.171 350.681 452.634
2372 0 90.1907 15.5892 1406 104.648 349.01 459.801
2373 0 98.2021 15.7329 1545 105.166 349.64 446.076
2374 0 102.247 17.3013 1769 103.747 348.743 451.109
2375 0 104.196 14.3096 1491 108.81 347.432 443.789
2376 0 108.29 12.4757 1351 111.306 347.275 445.061
2377 0 116.211 12.2794 1427 112.296 346.734 438.93
2378 0 112.26 12.0702 1355 112.502 346.235 442.972
2379 1 70.1036 10.1421 711 109.354 346.172 463.65
2380 0 69.3748 5.93876 412 114.93 344.968 465.471
2381 0 66.1496 10.2041 675 107.141 345.988 461.59
2382 0 64.2782 12.8348 825 107.223 345.211 453.49
2383 0 66.3234 11.836 785 108.191 344.087 453.177
2384 0 67.3385 12.1921 821 108.171 344.245 446.963
2385 0 70.423 12.5101 881 107.671 345.242 449.605
2386 0 71.1201 14.3138 1018 105.237 345.998 450.11
2387 0 69.2401 11.9728 829 109.794 347.062 447.405
2388 0 69.2401 12.0306 833 129.259 348.082 447.622
2389 0 75.2402 12.9984 978 109.466 347.078 442.858
2390 0 82.3038 12.6483 1041 108.696 347.918 443.246
2391 0 77.2139 9.70032 749 115.752 348.236 436.796
2392 0 85.369 15.6731 1338 102.117 349.254 443.146
2393 0 88.1813 10.1722 897 108.945 351.177 442.417
2394 0 92.3903 12.2957 1136 106.474 351.308 437.183
2395 0 94.1879 14.3012 1347 104.888 352.353 437.993
2396 0 98.1848 14.157 1390 103.402 352.521 445.742
2397 0 100.107 12.5066 1252 107.11 353.442 435.407
2398 0 105.208 15.0274 1581 102.646 353.75 439.309
2399 1 166.423 13.1112 2182 110.831 353.655 416.471
2400 1 112.307 11.6734 1311 109.034 354.403 439.199
2401 0 111.155 13.0269 1448 109.719 353.779 426.885
2402 0 120.38 13.2663 1597 109.083 352.172 431.521
2403 0 125.324 13.3015 1667 111.029 351.674 429.749
2404 1 73.1744 15.9072 1164 103.279 352.664 459.003
2405 0 73.3833 10.6973 785 111.451 351.81 456.466
2406 0 76.2097 15.3917 1173 104.111 350.745 461.61
2407 0 78.287 16.7588 1312 104.612 350.81 455.873
2408 0 86.1795 13.2978 1146 108.081 351.162 458.339
2409 0 87.3452 13.1318 1147 109.314 352.057 455.238
2410 0 92.3189 13.5075 1247 108.704 349.587 456.809
2411 0 95.3312 12.7345 1214 111.592 349.036 454.591
2412 0 98.3499 13.696 1347 110.691 347.7 452.906
2413 0 103.308 12.2449 1265 113.419 347.801 452.119
2414 0 103.278 16.9348 1749 108.391 347.053 450.037
2415 0 106.414 13.7011 1458 114.267 347.13 440.344
2416 0 112.347 13.2714 1491 114.771 345.785 447.221
2417 0 116.462 12.7252 1482 115.1 345.523 447.446
2418 1 65.1102 13.7306 894 112.639 343.485 467.208
2419 0 69.2881 11.5316 799 112.668 343.265 469.044
2420 0 70.3774 14.5501 1024 111.688 345.124 461.383
2421 0 76.2147 12.2417 933 113.393 347.564 462.192
2422 0 76.0737 14.5911 1110 111.578 347.946 457.581
2423 0 79.0837 13.6564 1080 113.158 347.456 459.051
2424 0 81.0974 13.8352 1122 113.91 347.446 457.529
2425 0 81.18 14.7696 1199 114.101 347.616 452.126
2426 0 84.1494 12.5372 1055 118.201 347.428 451.058
2427 0 88.1999 12.4036 1094 117.262 347.378 451.079
2428 0 91.1161 16.8357 1534 109.208 347.963 452.351
2429 0 94.2202 17.4909 1648 108.842 348.442 450.001
2430 0 95.1211 15.2437 1450 114.503 349.88 441.404
2431 0 98.222 16.7376 1644 111.114 350.504 447.192
2432 0 96.177 13.3192 1281 145.333 351.705 442.059
2433 0 105.193 17.9575 1889 110.7 351.484 441.049
2434 1 61.1561 10.2524 627 118.574 351.885 460.922
2435 0 59.1366 12.1752 720 115.965 352.129 462.085
2436 0 60.5389 15.4776 937 107.708 351.742 457.39
2437 0 62.1094 17.6302 1095 99.8237 352.733 461.921
2438 0 64.14 14.0474 901 107.905 352.728 453.988
2439 0 66.165 15.1288 1001 106.863 353.558 460.159
2440 0 71.0718 13.423 954 108.886 354.672 459.202
2441 0 74.1216 12.9247 958 108.419 353.785 459.128
2442 0 74.2438 13.294 987 110.225 354.207 457.079
2443 0 76.2307 13.1181 1000 110.808 352.922 457.169
2444 0 79.1984 11.4775 909 114.399 354.314 450.12
2445 0 82.2573 11.0385 908 114.889 353.035 451.401
2446 0 87.2897 12.8996 1126 112.06 353.681 449.073
2447 0 90.2267 13.5104 1219 112.169 353.322 447.728
2448 0 92.2064 11.9731 1104 115.283 352.723 446.91
2449 0 97.3963 13.4399 1309 113.397 352.196 451.142
2450 0 101.404 14.6838 1489 112.148 352.078 448.139
2451 1 58.1782 12.1695 708 110.36 351.124 476.27
2452 0 59.1834 10.6618 631 114.727 350.49 467.135
2453 0 58.3061 11.028 643 113.463 348.579 468.928
2454 0 62.1412 13.3406 829 109.988 347.684 470.532
2455 0 64.1218 13.7083 879 112.678 348.249 474.077
2456 0 66.1501 11.5193 762 117.503 347.106 470.941
2457 0 72.1296 13.6144 982 113.238 346.612 466.902
2458 0 75.079 14.9975 1126 110.15 346.326 466.544
2459 0 76.1462 14.4065 1097 113.2 346.759 457.936
2460 0 77.3083 13.8019 1067 112.167 346.656 456.158
2461 0 79.1897 16.8456 1334 109.118 346.656 452.806
2462 0 80.1147 16.1394 1293 110.382 346.73 451.291
2463 0 83.2604 13.0074 1083 114.509 347.227 448.533
2464 0 87.1167 13.1203 1143 114.926 346.188 448.928
2465 0 90.323 14.1492 1278 113.11 346.297 448.232
2466 0 88.1969 11.1569 984 118.484 346.314 445.726
2467 0 93.1569 14.5668 1357 112.297 346.473 449.545
2468 0 97.1864 13.0162 1265 115.992 347.168 446.632
2469 0 99.3832 13.936 1385 115.58 347.15 441.53
2470 0 103.469 14.2168 1471 115.424 347.307 440.78
2471 0 104.346 11.4332 1193 118.474 348.019 442.046
2472 0 104.357 11.4894 1199 125.194 348.993 441.994
2473 1 58.1126 12.5446 729 111.422 348.898 466.624
2474 0 61.0811 11.7385 717 114.349 350.176 460.837
2475 0 64.2923 13.0498 839 114.639 351.386 459.346
2476 0 63.2913 10.0488 636 117.288 350.547 457.351
2477 0 68.2774 12.3613 844 112.572 351.669 458.722
2478 0 70.4249 13.4185 945 113.29 351.576 455.474
2479 0 67.2591 8.41522 566 124.532 353.207 450.175
2480 0 73.3983 11.9621 878 116.95 351.442 453.241
2481 0 75.4241 15.7377 1187 112.227 353.085 447.887
2482 0 78.3529 14.6644 1149 114.178 352.489 449.794
2483 0 80.2788 14.5368 1167 115.446 352.999 450.06
2484 0 85.2713 12.2315 1043 118.82 351.008 451.004
2485 0 91.1756 13.1066 1195 116.09 353.966 455.909
2486 0 93.1178 13.5849 1265 117.179 353.13 453.343
2487 0 95.2292 12.9162 1230 118.824 352.801 451.405
2488 0 99.173 10.7287 1064 121.888 351.897 452.229
2489 0 103.51 14.1435 1464 118.722 351.798 448.97
2490 0 106.419 12.2064 1299 120.811 351.101 447.595
2491 0 112.404 12.2594 1378 122.54 349.585 443.133
2492 1 62.2956 11.5257 718 115.513 351.233 472.997
2493 0 63.2412 12.3496 781 113.192 350.908 474.816
2494 0 67.1507 12.7177 854 112.817 350.619 471.548
2495 0 67.1507 12.6879 852 123.137 350.633 471.651
2496 0 71.1756 12.434 885 114.121 348.493 467.809
2497 0 74.1162 12.9257 958 113.505 348.866 465.875
2498 0 76.1639 11.7116 892 115.778 348.063 462.904
2499 0 76.0561 10.2819 782 119.012 347.991 462.717
2500 0 81.4406 11.2229 914 118.176 348.798 461.055
2501 0 82.1802 10.2458 842 119.501 347.165 460.822
2502 0 87.38 11.6846 1021 116.465 347.414 459.887
2503 0 86.1571 13.1736 1135 116.974 347.307 453.818
2504 0 93.2651 15.5471 1450 112.433 346.843 452.914
2505 0 94.1919 14.3431 1351 115.073 346.825 452.73
2506 0 97.2499 12.3599 1202 119.127 346.531 445.817
2507 0 100.53 13.1204 1319 117.094 347.043 449.61
2508 0 101.198 11.6306 1177 120.785 346.871 443.935
2509 0 104.243 13.6125 1419 119.203 347.321 438.649
2510 0 105.394 11.4333 1205 123.022 347.39 439.04
2511 0 111.718 13.7579 1537 122.152 345.522 438.705
2512 1 61.5257 15.3107 942 113.056 347.104 460.902
2513 0 65.1725 15.4053 1004 112.425 348.128 462.87
2514 0 65.1441 14.7826 963 115.965 349.706 461.068
2515 0 65.4577 14.0396 919 119.391 349.437 460.161
2516 0 68.9404 14.6939 1013 117.746 350.06 459.368
2517 0 70.5233 14.2648 1006 119.946 350.827 452.892
2518 0 74.813 13.4201 1004 120.692 350.288 456.145
2519 0 77.3538 11.7253 907 114.923 350.924 460.459
2520 0 78.2623 12.5859 985 115.24 352.534 455.891
2521 0 81.1636 13.9718 1134 115.268 353.418 451.916
2522 0 83.1037 15.3784 1278 114.138 352.917 450.055
2523 0 88.2466 15.8646 1400 112.965 354.594 449.384
2524 0 88.1571 13.215 1165 117.428 353.161 451.957
2525 0 94.2906 14.9114 1406 114.716 353.805 452.533
2526 0 95.1709 14.5002 1380 115.756 353.987 452.097
2527 0 100.271 12.7953 1283 117.921 353.301 454.473
2528 1 58.2628 11.6026 676 115.402 352.447 473.287
2529 0 60.1079 13.7586 827 111.845 352.046 475.273
2530 0 64.4365 11.7635 758 115.257 350.219 471.504
2531 0 63.1213 14.084 889 112.589 351.532 471.504
2532 0 68.3384 12.5552 858 113.568 351.554 474.122
2533 0 69.1554 12.1176 838 114.936 350.933 470.668
2534 0 73.1311 13.2091 966 111.892 351.242 469.018
2535 0 77.1232 13.4201 1035 110.439 349.645 467.599
2536 0 79.242 14.2601 1130 110.073 348.201 464.959
2537 0 80.2757 12.6315 1014 112.93 348.211 467.13
2538 0 83.0797 13.3607 1110 111.561 347.381 466.95
2539 0 87.2193 12.7151 1109 113.354 347.223 459.647
2540 0 88.087 12.3628 1089 113.078 347.066 461.095
2541 0 93.2468 15.7217 1466 108.692 345.965 456.561
2542 0 95.2252 11.8456 1128 111.894 345.914 461.793
2543 0 99.3521 12.8029 1272 111.975 345.311 457.469
2544 0 101.537 10.7842 1095 115.761 345.011 451.237
2545 0 104.608 12.1501 1271 114.792 345.711 447.434
2546 0 108.453 16.763 1818 108.239 345.756 445.216
2547 1 61.2806 13.4953 827 107.335 345.273 472.531
2548 0 63.2072 13.9383 881 108.267 345.795 467.203
2549 0 63.0892 11.5234 727 111.327 344.857 468.917
2550 0 64.1068 11.6836 749 111.885 345.705 462.339
2551 0 67.0899 13.1614 883 109.144 346.934 462.711
2552 0 69.065 11.2503 777 112.12 346.305 459.725
2553 0 71.182 12.166 866 108.595 348.391 459.887
2554 0 74.1909 14.7862 1097 105.956 347.878 457.975
2555 0 77.0386 14.7848 1139 107.968 349.06 453.684
2556 0 77.1684 14.3971 1111 109.993 349.829 450.055
2557 0 80.094 13.4093 1074 111.87 350.998 451.1
2558 0 81.2024 11.3913 925 116.391 351.305 450.263
2559 0 84.1199 11.2696 948 116.154 352.783 449.792
2560 0 86.2738 11.4751 990 115.674 352.092 446.942
2561 0 86.2738 11.4287 986 132.806 352.094 447.138
2562 0 92.1276 12.4827 1150 112.055 352.873 450.294
2563 0 98.0613 14.4705 1419 112.474 352.55 446.338
2564 1 57.0962 10.999 628 111.486 352.818 471.997
2565 0 61.1764 11.4587 701 110.531 352.014 471.481
2566 0 61.2535 12.5054 766 110.614 352.589 470.245
2567 0 64.3062 13.9022 894 109.067 351.556 468.973
2568 0 66.2703 11.9812 794 111.681 353.647 467.288
2569 0 67.2603 12.9646 872 109.927 353.271 470.334
2570 0 71.3775 12.0206 858 110.671 352.017 468.636
2571 0 73.1571 11.5915 848 110.083 352.746 475.001
2572 0 75.3906 13.0786 986 109.182 352.209 468.938
2573 0 75.134 15.1995 1142 106.585 350.619 470.292
2574 0 82.3769 11.2774 929 110.977 350.314 468.425
2575 0 84.2629 14.4904 1221 105.397 348.975 469.986
2576 0 86.484 13.1932 1141 108.639 348.917 465.104
2577 0 88.2994 12.7294 1124 110.688 347.383 459.14
2578 0 92.2172 14.9321 1377 107.642 347.471 458.68
2579 0 96.5125 15.9461 1539 105.68 345.819 456.819
2580 0 100.432 13.412 1347 109.614 346.222 453.453
2581 0 104.421 13.2541 1384 109.78 346.483 451.406
2582 0 105.517 14.4906 1529 107.697 345.628 454.402
2583 1 56.296 10.4093 586 106.242 343.746 478.253
2584 0 60.4652 12.04 728 106.821 342.592 469.194
2585 0 63.2936 12.5605 795 104.591 344.172 466.755
2586 0 60.3846 15.7656 952 99.8403 342.799 467.648
2587 0 62.2779 13.52 842 105.116 343.894 461.101
2588 0 66.3168 12.6212 837 107.228 342.645 465.487
2589 0 68.4394 12.2736 840 105.74 343.335 465.454
2590 0 70.2232 11.9903 842 107.418 343.697 461.78
2591 0 72.2282 15.7971 1141 102.644 343.995 460.019
2592 0 71.2956 12.918 921 107.384 345.084 457.658
2593 0 75.1779 16.2947 1225 103.03 344.511 456.859
2594 0 78.1591 11.6173 908 107.806 345.106 459.634
2595 0 78.1591 11.6301 909 137.854 346.109 459.738
2596 0 84.3909 14.9898 1265 105.272 345.389 454.641
2597 0 84.2106 13.5494 1141 107.662 346.765 455.149
2598 0 92.2625 14.2528 1315 107.548 348.078 450.262
2599 0 91.2052 15.5912 1422 105.159 348.201 448.456
2600 0 95.393 14.0681 1342 108.14 349.343 448.022
2601 0 97.3313 13.151 1280 108.116 350.353 445.512
2602 0 99.3008 12.5075 1242 110.046 349.448 442.884
2603 0 103.259 14.943 1543 107.574 350.467 437.839
2604 0 107.197 14.3847 1542 108.206 350.781 441.951
2605 0 111.329 14.776 1645 107.72 351.11 439.335
2606 0 116.168 16.3297 1897 104.522 351.037 440.482
2607 0 116.358 14.1203 1643 105.172 349.271 448.83
2608 0 116.358 14.3007 1664 141.096 349.292 448.757
2609 0 117.175 13.5865 1592 111.911 349.95 443.258
2610 1 71.2223 12.2153 870 110.657 348.739 462.668
2611 0 75.4719 10.9842 829 110.255 349.627 465.975
2612 0 80.4184 14.636 1177 105.545 350.026 460.93
2613 0 85.445 13.9973 1196 106.47 349.135 463.921
2614 0 85.3686 15.2867 1305 106.565 348.921 461.653
2615 0 92.4873 15.0399 1391 104.898 347.944 467.705
2616 0 92.2554 14.4382 1332 109.026 346.746 460.914
2617 0 93.5741 13.2302 1238 108.914 346.341 460.081
2618 0 93.5741 13.2836 1243 148.049 345.328 460.126
2619 0 102.438 16.6344 1704 106.856 344.96 454.414
2620 0 106.238 14.5993 1551 109.477 344.429 452.969
2621 0 108.431 15.8165 1715 107.161 345.325 448.598
2622 0 111.326 14.2374 1585 107.779 344.474 454.9
2623 0 117.352 15.0828 1770 105.919 344.663 450.677
2624 0 119.294 13.8985 1658 111.405 344.235 439.918
2625 0 125.586 16.7296 2101 106.554 344.232 442.477
2626 0 127.408 15.1324 1928 106.93 344.984 446.022
2627 0 131.465 15.0991 1985 110.184 343.169 428.864
2628 0 134.454 11.1339 1497 116.399 343.618 425.198
2629 0 138.492 13.8853 1923 112.148 342.828 422.651
2630 0 148.376 17.55 2604 107.328 344.694 419.092
2631 0 151.433 13.2335 2004 113.856 344.443 407.899
2632 0 158.424 16.4748 2610 105.333 346.515 409.395
2633 0 163.451 14.4202 2357 107.176 345.615 417.637
2634 1 92.2329 15.2765 1409 103.091 344.98 454.725
2635 0 97.2046 16.1515 1570 104.418 345.643 447.424
2636 0 97.2299 14.9028 1449 107.148 346.275 445.058
2637 0 102.518 14.7096 1508 106.891 346.738 444.962
2638 0 105.236 16.1636 1701 105.874 348.274 438.951
2639 0 109.299 21.9033 2394 98.8805 347.878 435.182
2640 0 118.578 10.5922 1256 113.24 349.782 433.615
2641 0 119.405 14.3294 1711 106.215 348.605 439.441
2642 1 148.791 15.1488 2254 101.628 351.342 425.871
2643 0 154.833 14.9386 2313 102.164 352.336 419.818
2644 0 160.234 14.1293 2264 104.879 352.53 411.827
2645 0 163.788 12.9558 2122 104.31 351.836 403.125
2646 0 169.819 13.744 2334 99.3273 352.582 415.605
2647 0 173.99 14.3054 2489 99.2407 352.253 412.506
2648 0 177.933 10.7063 1905 103.571 351.346 403.462
2649 0 184.654 20.0321 3699 93.8824 351.211 416.537
2650 0 187.581 15.4653 2901 99.6901 349.508 398.872
2651 0 196.66 15.0259 2955 99.868 349.026 402.907
2652 0 200.61 14.6055 2930 100.37 349.677 399.089
2653 0 202.549 25.6974 5205 91.9408 346.884 394.115
2654 1 215.021 16.4868 3545 100.042 345.913 387.63
2655 0 217.699 13.9826 3044 102.715 345.466 387.13
2656 0 226.763 13.8294 3136 102.408 344.679 386.763
2657 1 50.456 13.3383 673 91.7786 343.825 475.712
2658 0 49.5764 17.7101 878 88.1412 344.38 475.438
2659 0 51.3199 10.0546 516 93.2209 344.734 477.171
2660 0 50.1666 13.9734 701 89.204 343.525 470.521
2661 0 53.1186 13.2722 705 90.2383 344.004 472.016
2662 1 293.222 20.094 5892 95.9089 342.372 347.85
2663 1 57.1513 12.4582 712 90.6643 344.072 472.744
2664 0 62.2182 11.4757 714 91.5294 343.574 467.966
2665 0 63.0941 12.4417 785 91.5694 344.577 466.157
2666 0 64.5018 10.7439 693 91.847 344.329 467.328
2667 0 65.2152 17.1279 1117 87.7198 344.67 460.691
2668 0 71.4049 13.8646 990 89.8485 345.694 457.867
2669 0 73.1734 18.6953 1368 85.4737 343.993 459.311
2670 0 73.4041 10.2583 753 92.0345 347.058 458.76
2671 0 76.6317 17.8647 1369 87.0219 343.877 458.748
2672 0 76.2994 14.0499 1072 88.4851 345.017 460.441
2673 0 80.2336 22.9081 1838 82.6725 344.461 456.949
2674 0 86.1835 14.8868 1283 88.339 346.299 452.15
2675 0 87.1681 15.4988 1351 93.5204 345.748 445.932
2676 0 88.509 20.303 1797 89.0996 346.051 450.065
2677 0 93.7237 19.3121 1810 89.047 347.556 449.935
2678 0 97.5863 14.1516 1381 94.3164 348.333 444.039
2679 1 50.4729 12.5018 631 91.9097 348.878 468.25
2680 0 54.2523 12.2391 664 91.7786 347.765 466.73
2681 0 53.1899 15.0781 802 87.8666 351.536 464.37
2682 0 57.1757 16.7029 955 86.1487 352.092 464.457
2683 0 55.2751 9.55222 528 92.6818 351.801 467.195
2684 0 60.1068 8.76773 527 96.3074 352.452 468.218
2685 0 59.3355 6.75818 401 97.9476 351.162 468.818
2686 0 63.5366 12.2134 776 91.4974 350.807 471.621
2687 0 65.2826 19.8062 1293 85.8314 350.674 468.318
2688 0 70.3792 13.9388 981 90.4852 351.296 468.867
2689 0 75.0114 20.7435 1556 84.5251 350.21 462.994
2690 0 74.2534 23.137 1718 83.3626 350.037 466.546
2691 0 68.3107 9.93988 679 96.5994 351.545 466.978
2692 0 75.0482 20.5068 1539 86.4178 350.843 468.638
2693 0 72.4409 10.3809 752 95.633 349.496 469.066
2694 0 79.4169 14.8583 1180 90.8271 350.022 468.436
2695 0 74.3224 12.1498 903 95.5537 349.218 465.351
2696 0 83.716 17.4399 1460 88.4959 347.952 471.592
2697 0 83.3646 12.7512 1063 94.666 347.617 463.88
2698 0 81.3385 14.0401 1142 91.2329 347.338 469.674
2699 0 85.5185 16.511 1412 90.1254 345.903 459.498
2700 0 90.2761 16.2169 1464 90.7541 346.378 456.786
2701 0 92.442 15.5341 1436 91.6351 345.155 462.462
2702 0 95.4816 14.5473 1389 80.4291 344.497 467.351
2703 0 101.82 17.2953 1761 81.4929 343.597 461.487
2704 1 155.37 22.5784 3508 80.4635 342.159 436.481
2705 1 106.259 18.6149 1978 80.7796 342.412 451.69
2706 0 104.797 11.9756 1255 86.7347 342.024 445.3
2707 1 65.2452 23.4653 1531 77.8739 342.001 462.928
2708 0 69.9994 21.5573 1509 78.5825 341.819 467.932
2709 0 68.558 16.7887 1151 81.305 342.774 470.225
2710 0 74.8942 10.4681 784 87.199 342.557 463.297
2711 0 83.0334 24.8816 2066 76.9743 342.681 459.875
2712 0 77.7891 14.745 1147 85.116 342.744 455.361
2713 0 75.34 15.9809 1204 85.2932 343.295 455.212
2714 0 79.4342 21.0237 1670 82.6916 343.46 449.622
2715 0 84.5105 19.1692 1620 84.1617 343.802 450.48
2716 0 83.6296 16.9677 1419 86.6864 343.525 453.487
2717 0 86.5212 17.3368 1500 86.6587 344.703 449.329
2718 0 88.3348 18.9393 1673 85.881 345.41 448.334
2719 0 91.5305 15.8089 1447 88.6462 346.416 446.999
2720 0 93.2429 14.3174 1335 89.9094 347.186 447.408
2721 0 97.2682 17.2204 1675 87.7606 346.855 447.941
2722 0 103.835 19.6659 2042 85.5402 347.91 447.642
2723 0 106.335 15.3759 1635 89.9694 347.061 440.812
2724 0 109.291 14.4659 1581 89.704 347.48 442.978
2725 0 105.505 13.6866 1444 89.8054 349.247 435.198
2726 0 113.829 9.52302 1084 90.4732 347.885 432.25
2727 0 120.091 22.2082 2667 81.2448 348.628 438.966
2728 0 121.668 16.841 2049 85.0517 348.681 438.549
2729 1 51.0501 10.9696 560 85.4643 348.945 472.175
2730 0 51.3985 16.0316 824 83.0631 349.638 472.646
2731 0 56.3956 14.7352 831 83.1372 348.152 477.161
2732 0 55.0824 23.0382 1269 78.6304 348.22 476.05
2733 0 55.1927 18.517 1022 81.362 348.298 478.055
2734 0 54.5772 19.2938 1053 81.7787 349.329 478.54
2735 0 57.312 23.6251 1354 79.6182 347.9 469.412
2736 0 62.236 11.2796 702 85.9986 348.695 475.685
2737 0 61.1116 16.2817 995 83.1889 348.219 474.04
2738 0 62.2872 23.0063 1433 81.1144 348.34 471.373
2739 0 62.2722 12.1884 759 89.83 348.817 464.256
2740 0 65.5294 16.9695 1112 86.0854 346.916 468.363
2741 0 68.1498 17.8431 1216 85.6933 347.3 466.9
2742 0 70.2875 14.6825 1032 87.4593 345.574 468.318
2743 0 71.1728 15.7504 1121 87.3961 345.119 466.531
2744 0 70.2132 13.0175 914 91.0274 344.996 460.318
2745 0 76.1546 17.4382 1328 86.9586 344.904 463.868
2746 0 77.1755 11.2082 865 91.5942 344.482 458.094
2747 0 79.18 13.7535 1089 89.5262 344.299 460.312
2748 0 83.2976 13.8419 1153 89.9905 343.068 458.223
2749 0 84.342 16.6939 1408 88.7166 343.901 459.682
2750 0 92.6112 24.4031 2260 83.0597 342.725 461.454
2751 0 89.3202 11.0725 989 95.8938 344.553 454.038
2752 0 94.0758 10.9274 1028 95.0195 344.965 458.355
2753 0 102.863 18.7726 1931 87.8871 344.496 451.296
2754 0 98.2447 15.553 1528 99.108 345.629 450.92
2755 0 107.197 15.2896 1639 98.612 345.444 446.533
2756 0 108.461 16.8263 1825 97.0088 346.698 446.796
2757 0 113.722 20.8402 2370 93.4278 346.093 444.145
2758 0 115.467 17.8233 2058 96.2668 346.885 445.49
2759 0 119.344 12.8704 1536 101.944 348.26 436.29
2760 1 63.1065 17.003 1073 94.7968 347.705 461.054
2761 0 68.3349 16.9167 1156 92.0095 347.602 463.278
2762 0 68.2907 14.4236 985 95.3584 348.186 461.039
2763 0 72.1668 16.8914 1219 93.0345 349.888 461.632
2764 0 73.2015 14.2074 1040 97.2894 349.472 456.812
2765 0 77.3002 13.9586 1079 96.9045 350.462 459.303
2766 0 75.2562 13.5138 1017 100.001 349.377 455.202
2767 0 80.9096 21.6538 1752 92.8128 350.14 452.095
2768 0 82.3578 15.9669 1315 98.4593 349.855 449.106
2769 0 87.59 15.1045 1323 99.3008 351.565 452.345
2770 0 86.4898 12.9842 1123 99.9893 352.019 457.562
2771 0 91.5181 19.1 1748 93.7122 352.41 456.276
2772 0 90.5584 13.8585 1255 100.116 352.545 453.689
2773 0 97.6323 15.9066 1553 98.3516 352.167 453.688
2774 0 97.5198 18.1296 1768 97.0611 352.128 451.006
2775 0 104.152 15.871 1653 98.0327 351.815 452.404
2776 0 105.723 13.8664 1466 101.253 351.212 452.67
2777 0 103.548 7.11744 737 105.095 350.906 467.195
2778 1 62.1058 17.1321 1064 97.0216 351.192 466.578
2779 0 64.1633 15.3515 985 101.612 350.006 471.047
2780 0 67.145 14.7442 990 100.918 351.668 473.206
2781 0 67.1668 16.8089 1129 98.7307 351.578 472.012
2782 0 70.1504 17.9614 1260 99.2016 350.489 463.783
2783 0 76.1602 22.6102 1722 92.6022 349.681 470.59
2784 0 77.3457 14.92 1154 102.634 348.6 447.62
2785 0 82.4422 17.491 1442 98.8204 348.904 443.377
2786 0 83.257 22.1122 1841 95.0467 347.817 443.013
2787 0 83.2445 15.4365 1285 102.156 346.713 443.25
2788 0 91.3529 17.2189 1573 99.9542 346.174 441.146
2789 1 50.1978 20.1801 1013 94.7147 344.638 461.545
2790 0 53.8738 14.6825 791 95.7332 345.875 470.497
2791 0 51.4995 11.2428 579 99.1934 344.824 471.028
2792 0 59.4694 14.1417 841 95.0119 345.914 469.91
2793 0 55.2889 22.1925 1227 87.7808 345.217 473.481
2794 0 57.1529 14.47 827 96.347 345.636 468.788
2795 0 60.1992 22.3093 1343 90.4021 345.876 462.175
2796 0 62.5917 14.6984 920 97.5565 345.182 463.86
2797 0 62.3188 20.4914 1277 91.4839 345.657 467.65
2798 0 69.1884 14.9736 1036 95.6689 347.032 465.056
2799 0 65.6709 16.9482 1113 98.3818 347.165 461.2
2800 0 71.2339 14.2208 1013 98.7848 346.546 466.267
2801 0 71.1299 18.4592 1313 95.3922 346.755 461.398
2802 0 74.4969 17.7457 1322 96.7731 348.253 455.854
2803 0 76.1742 13.5085 1029 101.437 347.763 451.316
2804 0 80.5468 17.1453 1381 96.7726 349.001 454.878
2805 0 84.8892 25.5274 2167 90.4301 348.554 452.513
2806 0 86.8241 17.9904 1562 98.3707 349.807 448.515
2807 0 87.7203 18.0574 1584 98.0202 351.213 451.72
2808 0 93.6523 21.7827 2040 93.6936 350.456 450.826
2809 0 94.514 16.9605 1603 100.517 350.203 445.405
2810 0 95.8371 19.4601 1865 98.1657 351.704 441.036
2811 0 98.5078 18.7193 1844 99.0781 351.817 445.045
2812 1 55.2539 12.3249 681 102.107 353.075 468.793
2813 0 57.1426 19.7051 1126 94.476 353.272 470.747
2814 0 59.169 14.7543 873 100.817 351.995 468.282
2815 0 62.1586 23.4561 1458 93.3134 351.58 465.821
2816 0 67.4233 19.9189 1343 95.5309 352.321 464.176
2817 0 67.4033 15.1328 1020 100.73 353.287 469.395
2818 0 68.5353 16.9256 1160 99.6483 353 466.856
2819 0 71.9105 14.5041 1043 102.292 353.926 467.129
2820 0 74.7759 16.4759 1232 100.081 352.922 467.804
2821 0 76.2385 16.1336 1230 101.057 353.548 466.133
2822 0 79.598 19.9754 1590 96.8145 352.323 468.077
2823 0 82.1402 16.411 1348 101.87 352.496 460.674
2824 0 86.7537 16.8523 1462 100.992 351.616 463.741
2825 0 88.4659 18.0974 1601 99.8794 351.44 465.472
2826 0 94.4459 26.3431 2488 92.1547 351.658 463.119
2827 0 91.8282 18.1753 1669 100.472 351.393 463.211
2828 0 94.308 19.7014 1858 97.8337 350.237 463.91
2829 0 100.451 20.0596 2015 98.1628 350.364 460.25
2830 0 101.17 21.538 2179 97.7425 348.849 454.462
2831 0 106.155 15.694 1666 102.454 348.325 451.024
2832 0 111.464 20.3474 2268 97.8236 347.245 445.527
2833 0 111.421 13.292 1481 104.575 346.808 449.269
2834 0 110.252 5.43299 599 108.925 346.821 464.284
2835 0 111.336 12.9787 1445 159.433 348.538 442.997
2836 1 143.603 14.1153 2027 98.999 346.279 448.44
2837 0 143.853 22.8427 3286 94.0463 346.087 437.103
2838 0 139.666 16.9977 2374 99.7186 346.216 436.064
2839 0 140.528 17.6122 2475 99.9822 346.641 429.252
2840 1 72.0766 19.6458 1416 94.4555 346.861 463.619
2841 0 75.3373 20.9856 1581 93.1467 347.466 461.664
2842 0 77.2519 13.6178 1052 102.204 346.626 458.779
2843 0 76.2112 23.7236 1808 92.9729 346.571 454.668
2844 0 86.462 17.7072 1531 96.8001 348.443 456.312
2845 0 82.268 11.9974 987 104.125 348.983 454.169
2846 0 90.2553 20.6193 1861 95.2848 349.529 444.876
2847 0 90.3376 24.7848 2239 92.1041 349.708 442.586
2848 0 92.4923 14.6715 1357 101.689 350.609 440.224
2849 0 96.6077 14.2018 1372 101.93 350.527 438.06
2850 0 101.412 17.8184 1807 96.8268 351.273 443.484
2851 0 105.649 17.2647 1824 98.8333 351.959 437.035
2852 0 109.432 19.7657 2163 97.5677 352.524 429.819
2853 0 108.232 12.4917 1352 106.1 353.465 438.523
2854 0 116.342 13.1509 1530 106.793 353.826 432.628
2855 0 121.783 16.398 1997 97.8002 353.402 434.916
2856 0 126.309 22.4054 2830 93.1007 353.998 430.01
2857 0 126.728 16.8787 2139 97.1791 352.927 438.953
2858 1 72.1185 23.8774 1722 87.2793 353.631 465.769
2859 0 72.1185 24.0853 1737 110.212 355.626 465.738
2860 0 72.1185 24.1685 1743 109.62 357.643 465.693
2861 0 82.4507 15.3304 1264 98.6851 354.317 460.545
2862 0 83.4122 17.4675 1457 97.1126 353.95 456.133
2863 0 86.2384 18.4489 1591 95.5726 353.236 448.019
2864 0 91.5514 22.4027 2051 89.9215 353.369 456.824
2865 0 91.4655 9.91631 907 105.677 353.864 450.848
2866 1 54.4806 14.7943 806 94.3511 353.11 474.974
2867 0 51.1396 13.8836 710 97.9521 353.754 474.584
2868 0 55.1648 13.3962 739 100.497 352.445 475.77
2869 0 54.0921 15.6955 849 98.3922 351.151 476.779
2870 0 57.1415 9.17022 524 103.458 350.595 477.941
2871 0 58.3674 16.7731 979 95.7079 350.666 474.354
2872 0 62.2354 15.6021 971 97.0175 349.126 471.159
2873 0 64.3933 11.9267 768 100.211 350.396 468.616
2874 0 67.1757 14.1718 952 97.9359 347.487 466.07
2875 0 66.2506 13.4489 891 98.7677 347.997 464.391
2876 0 73.224 13.3426 977 98.5138 348.297 464.307
2877 0 76.3235 10.4031 794 102.354 347.797 458.529
2878 0 79.408 12.2658 974 98.3799 347.915 457.195
2879 0 83.5133 14.0337 1172 99.1058 347.754 451.386
2880 0 83.1605 11.9408 993 101.364 347.063 451.134
2881 0 88.2765 13.605 1201 100.54 346.824 448.727
2882 0 92.5279 14.6875 1359 97.3032 346.532 449.641
2883 1 46.4538 12.464 579 94.2902 346.439 466.589
2884 0 47.2425 11.6209 549 94.8852 344.925 464.781
2885 0 46.3458 11.5221 534 95.8277 346.875 464.335
2886 0 47.1431 15.5272 732 92.2814 347.499 465.861
2887 0 49.2404 17.6684 870 90.1954 347.092 463.316
2888 0 49.5041 13.4938 668 93.8054 346.534 464.472
2889 0 53.1097 16.6636 885 91.4158 347.05 463.15
2890 0 54.2029 11.789 639 96.1753 348.529 464.396
2891 0 56.555 14.4638 818 91.6357 349.357 465.424
2892 0 56.1532 14.8522 834 93.3058 349.064 463.483
2893 0 62.3378 8.61435 537 96.6648 350.572 467.259
2894 0 63.2313 12.8417 812 94.3571 351.692 462.57
2895 0 64.1581 21.4159 1374 87.6754 352.67 462.28
2896 0 65.2296 14.4413 942 93.983 352.567 461.594
2897 0 67.1256 11.0092 739 99.6861 353.949 456.169
2898 0 69.1545 8.24242 570 102.905 354.414 456.484
2899 0 73.113 9.42377 689 100.118 354.866 458.685
2900 0 77.2653 14.7285 1138 96.1336 355.365 453.98
2901 0 81.2615 10.1524 825 99.4594 355.004 458.861
2902 0 84.1889 15.7028 1322 95.3495 356.121 452.774
2903 0 86.2155 12.8515 1108 98.8285 354.751 451.839
2904 1 50.3042 15.784 794 91.2305 354.904 469.029
2905 0 51.4516 12.0307 619 94.672 354.716 471.409
2906 0 52.4002 11.6984 613 96.0995 354.763 472.362
2907 0 52.3388 10.9479 573 94.89 355.12 473.808
2908 0 56.282 13.3258 750 95.9507 355.321 471.84
2909 0 56.3168 17.224 970 92.8227 354.114 466.687
2910 0 59.2788 12.3653 733 98.6739 355.065 471.214
2911 0 61.5215 15.0516 926 97.7495 352.92 472.287
2912 0 61.4499 17.9333 1102 95.4873 352.697 468.821
2913 0 63.2709 12.3912 784 100.717 352.522 471.361
2914 0 68.4843 15.7262 1077 96.6555 350.649 466.602
2915 0 68.36 15.1258 1034 97.4536 349.472 466.851
2916 0 74.7144 14.5354 1086 97.7606 349.796 464.63
2917 0 72.4426 12.1199 878 101.713 349.502 461.108
2918 0 82.4918 14.5954 1204 96.6919 349.743 465.332
2919 0 82.4918 14.3893 1187 128.864 349.737 465.413
2920 0 82.5213 15.705 1296 98.4221 348.137 454.361
2921 0 87.6129 13.9591 1223 99.9419 348.37 452.105
2922 0 87.6129 13.9363 1221 130.269 349.373 452.113
2923 0 89.367 12.2305 1093 103.07 346.42 447.096
2924 0 87.8548 13.1808 1158 102.487 346.916 445.821
2925 1 47.1915 12.7353 601 92.0815 348.384 472.058
2926 0 48.1695 9.30049 448 94.3192 346.134 469.395
2927 0 51.2819 11.5635 593 92.2091 345.329 465.798
2928 0 48.1703 10.8988 525 93.1524 345.244 467.063
2929 0 51.1837 10.0813 516 95.2306 346.502 468.36
2930 0 53.2961 13.3218 710 93.3986 346.827 465.68
2931 0 52.3944 12.3868 649 95.4022 347.492 461.851
2932 0 55.2951 11.3572 628 96.6338 346.951 462.71
2933 0 57.2385 14.2037 813 92.9926 348.32 463.456
2934 0 57.2502 15.3187 877 91.8027 348.973 458.065
2935 0 61.3749 13.4583 826 95.3741 351.191 458.994
2936 0 64.3407 12.6048 811 95.8927 350.546 459.71
2937 0 66.2099 11.826 783 97.235 351.525 455.581
2938 0 66.4144 12.4973 830 96.8614 352.357 458.287
2939 0 67.3586 11.6244 783 99.6398 351.826 453
2940 0 71.1892 13.1621 937 97.2156 352.176 459.91
2941 0 69.2893 11.084 768 103.253 353.077 453.148
2942 0 74.3214 11.827 879 101.98 352.79 454.24
2943 0 77.5338 13.0395 1011 102.447 353.383 454.84
2944 0 77.4258 11.6499 902 105.024 353.763 452.064
2945 0 79.6256 14.8445 1182 100.992 353.539 454.706
2946 0 84.3651 17.9458 1514 95.8283 352.91 459.6
2947 0 87.3195 14.7504 1288 100.089 352.467 456.786
2948 0 86.3097 10.7288 926 107.154 353.59 454.72
2949 0 92.3473 15.9615 1474 99.9891 353.856 454.595
2950 0 95.4171 13.2576 1265 103.634 352.37 454.045
2951 0 99.3896 17.8288 1772 98.3476 351.736 449.023
2952 1 57.2291 13.3149 762 101.982 350.664 469.268
2953 0 55.1078 15.134 834 101.302 350.36 468.239
2954 0 61.2086 15.4063 943 100.127 350.422 466.058
2955 0 64.2395 17.03 1094 96.7779 350.973 472.944
2956 0 59.3269 11.681 693 107.847 349.017 472.583
2957 0 63.7191 15.7253 1002 101.29 350.135 471.88
2958 0 62.3658 13.485 841 104.088 348.712 468.468
2959 0 68.3008 14.4069 984 99.9532 347.691 472.538
2960 0 68.3008 14.3483 980 134.026 346.666 472.51
2961 0 64.6308 12.5172 809 104.245 347.927 465.731
2962 0 72.6742 14.0215 1019 101.135 347.588 466.858
2963 0 73.4607 17.2201 1265 97.7241 347.836 464.74
2964 0 77.466 11.7471 910 104.586 345.673 464.598
2965 0 80.411 15.371 1236 102.551 346.543 456.228
2966 0 81.3364 14.9994 1220 101.792 346.563 461.116
2967 0 86.4049 16.631 1437 100.498 346.649 456.657
2968 0 90.5586 18.9822 1719 98.078 346.766 451.34
2969 0 94.5381 15.8455 1498 101.989 345.89 452.587
2970 0 91.3346 15.3173 1399 104.034 346.107 448.925
2971 1 48.0783 11.1485 536 105.597 343.858 472.784
2972 0 48.0633 10.2781 494 108.024 345.921 470.753
2973 0 51.3325 13.0132 668 104.961 346.564 466.657
2974 0 55.3804 13.5066 748 102.364 346.853 465.664
2975 0 55.4248 19.3235 1071 96.6937 347.952 460.682
2976 0 57.5124 16.0835 925 100.256 349.43 463.549
2977 0 58.316 18.3483 1070 96.8981 350.069 466.454
2978 0 59.6156 15.3483 915 101.501 348.522 462.646
2979 0 59.2593 19.5919 1161 97.9242 350.058 458.191
2980 0 66.5207 19.4526 1294 96.4938 349.685 461.333
2981 0 66.3785 15.7431 1045 99.1828 350.251 466.036
2982 0 67.4195 14.4024 971 103.412 351.766 459.581
2983 0 71.4559 15.9259 1138 101.602 352.109 457.691
2984 0 74.347 13.9616 1038 102.939 351.88 459.516
2985 0 75.2058 15.4509 1162 101.508 351.76 457.276
2986 0 79.332 12.8826 1022 105.19 352.269 457.778
2987 0 79.3232 16.3508 1297 100.726 353.761 459.64
2988 0 84.573 11.9305 1009 105.356 353.059 461.707
2989 0 87.4165 12.5606 1098 105.648 353.936 458.568
2990 0 86.3712 12.3189 1064 104.851 353.461 453.553
2991 1 185.035 18.6235 3446 98.8593 353.64 420.091
2992 1 93.2805 17.367 1620 95.879 352.76 455.678
2993 0 93.8777 16.4895 1548 96.1867 352.817 453.38
2994 0 96.0935 12.5399 1205 102.134 352.798 453.405
2995 0 92.3631 12.7757 1180 102.887 352.347 448.775
2996 0 101.612 11.288 1147 102.01 351.8 456.635
2997 1 51.1958 10.2352 524 97.9847 351.891 475.989
2998 0 53.2717 12.4832 665 95.2436 352.192 475.35
2999 0 56.1244 9.10478 511 98.9511 351.296 473.826
3000 0 59.213 12.5142 741 96.8219 350.822 473.877
3001 1 115.89 14.1082 1635 101.59 349.81 442.944
3002 0 119.805 13.1714 1578 103.717 349.391 433.558
3003 0 124.347 13.6554 1698 101.526 349.59 443.551
3004 0 128.589 16.471 2118 99.2927 348.439 441.46
3005 0 136.679 16.4692 2251 98.6464 345.611 441.588
3006 0 139.258 15.5467 2165 101.921 345.945 431.689
3007 1 72.2089 10.0957 729 100.224 346.687 464.881
3008 0 74.319 12.2311 909 97.2343 345.334 463.567
3009 0 80.284 12.3312 990 98.4677 346.237 457.988
3010 1 44.0767 10.0733 444 97.3559 343.748 477.034
3011 0 41.0981 11.1927 460 96.7022 344.387 471.185
3012 0 45.4034 7.66463 348 97.3707 344.856 475.497
3013 0 47.1043 13.0986 617 93.41 345.371 470.254
3014 0 49.3834 9.76037 482 97.2593 345.654 467.122
3015 0 47.1921 12.3326 582 94.5722 345.991 466.256
3016 0 50.2019 8.36621 420 96.3524 345.543 471.419
3017 0 51.1996 9.47273 485 97.0165 347.26 465.01
3018 0 57.2246 7.4094 424 98.5142 345.788 465.781
3019 0 59.2022 8.80035 521 98.2764 348.259 457.282
3020 0 56.2385 14.6697 825 93.2618 347.76 460.805
3021 0 57.3883 18.4358 1058 90.0094 346.896 460.14
3022 0 66.3361 14.4416 958 92.8111 348.787 461.689
3023 0 66.3462 14.5449 965 93.656 349.931 458.692
3024 0 68.1456 12.1211 826 96.339 350.596 452.166
3025 0 69.5405 10.9289 760 97.5197 351.892 453.6
3026 0 71.1886 14.876 1059 93.339 352.321 457.695
3027 0 72.35 12.1631 880 95.8898 353.365 458.13
3028 0 76.2872 9.34626 713 99.7027 353.136 454.274
3029 0 79.3957 20.3034 1612 90.2302 353.582 457.758
3030 0 82.4538 17.5371 1446 91.6674 353.215 458.241
3031 0 82.3456 11.391 938 98.6887 353.603 451.805
3032 0 86.2582 18.0505 1557 92.7444 353.321 452.888
3033 0 94.1696 23.6064 2223 86.0027 352.836 464.089
3034 0 94.1685 11.4476 1078 97.1141 353.453 457.203
3035 0 99.6993 21.5047 2144 89.4902 352.825 453.943
3036 1 54.5969 15.7884 862 89.855 353.271 482.943
3037 0 51.1354 10.6189 543 98.0718 351.378 485.818
3038 0 50.0495 14.7654 739 95.7672 351.333 487.165
3039 0 56.2257 18.4079 1035 92.8899 349.964 483.21
3040 0 56.2448 10.0276 564 101.743 347.965 483.934
3041 0 56.1972 13.5772 763 98.4037 349.94 478.941
3042 0 60.416 15.2609 922 95.8872 348.149 477.472
3043 0 62.3963 12.9014 805 98.3727 348.289 481.476
3044 0 63.4141 16.4474 1043 95.9818 346.476 470.351
3045 0 68.4838 13.2002 904 98.6272 347.354 472.079
3046 0 67.3318 14.9706 1008 98.9246 346.39 473.834
3047 0 70.5012 14.9217 1052 99.2462 345.675 472.363
3048 0 74.194 13.8151 1025 102.683 344.238 467.752
3049 0 75.2389 14.2612 1073 100.257 343.164 474.243
3050 0 78.4286 12.5719 986 103.974 344.186 466.256
3051 0 83.6142 18.4418 1542 97.7348 343.575 459.992
3052 0 85.4422 13.0615 1116 102.434 344.333 460.724
3053 0 87.3458 14.9979 1310 101.764 344.256 455.288
3054 0 89.7049 13.3883 1201 103.356 343.302 459.653
3055 1 43.1893 9.8404 425 105.259 344.129 478.068
3056 0 46.1161 9.21586 425 104.932 344.271 479.555
3057 0 51.1464 14.1555 724 99.5083 343.819 475.414
3058 0 50.168 13.1957 662 102.071 343.873 474.637
3059 0 52.03 11.8586 617 101.715 343.754 471.864
3060 0 51.1407 11.4977 588 102.634 344.464 471.221
3061 0 54.1091 15.0067 812 99.9865 344.723 468.533
3062 0 55.0761 13.091 721 101.227 345.988 472.268
3063 0 58.4291 13.9485 815 100.703 347.454 466.47
3064 0 62.4782 15.5414 971 98.9197 348.461 468.279
3065 0 63.3667 15.6391 991 99.0989 347.966 467.153
3066 0 63.2194 15.5332 982 98.5723 348.154 467.926
3067 0 67.3176 16.3404 1100 97.9382 349.656 466.335
3068 0 67.2648 14.8518 999 99.2112 350.764 470.808
3069 0 70.2764 14.7276 1035 100.416 351.378 464.896
3070 0 70.2764 14.5568 1023 138.06 352.387 464.883
3071 0 78.3636 12.6845 994 102.081 351.139 461.821
3072 0 78.3945 13.751 1078 101.712 352.592 464.31
3073 0 80.0981 18.5522 1486 96.0384 352.307 462.304
3074 1 44.0496 12.5767 554 101.603 354.523 479.004
3075 0 48.0534 15.3163 736 97.6984 353.393 480.602
3076 0 47.1024 16.7083 787 96.9085 351.921 482.099
3077 0 49.0927 15.2568 749 99.6636 352.766 482.903
3078 0 50.0313 16.6496 833 97.389 352.648 483.772
3079 0 50.1572 12.082 606 103.21 352.219 484.936
3080 0 54.1922 11.8467 642 104.67 351.894 481.907
3081 0 55.079 12.1099 667 101.919 351.984 485.795
3082 0 58.2298 9.82315 572 105.037 352.575 485.918
3083 0 59.1139 13.9899 827 102.855 352.642 479.195
3084 0 60.238 14.5755 878 102.253 350.893 478.372
3085 0 60.0983 15.3082 920 101.791 350.475 478.205
3086 0 61.1097 14.8422 907 102.475 348.652 478.281
3087 0 66.2379 15.8067 1047 100.629 349.488 478.969
3088 0 65.3164 13.626 890 103.173 349.179 477.796
3089 0 69.2804 14.9249 1034 102.024 348.173 473.43
3090 0 70.144 15.9101 1116 101.91 347.824 476.898
3091 0 71.3081 12.5371 894 106.444 347.497 472.256
3092 0 77.2299 16.2113 1252 102.483 347.212 471.624
3093 0 78.2537 15.3859 1204 103.761 345.469 466.757
3094 0 82.2401 16.3545 1345 102.82 345.422 466.649
3095 1 42.048 16.6239 699 99.9671 345.053 484.556
3096 0 44.3127 11.3963 505 101.329 342.745 478.731
3097 0 45.2168 18.5993 841 95.3543 344.113 477.238
3098 0 47.4289 19.0812 905 97.2774 344.116 476.118
3099 0 50.4057 12.5978 635 105.866 343.417 473.293
3100 0 50.3531 12.6308 636 106.214 344.901 473.173
3101 0 53.4988 16.1312 863 101.189 344.72 473.177
3102 0 53.3648 16.9775 906 101.057 344.267 472.336
3103 0 54.1776 14.4525 783 104.507 344.25 473.138
3104 0 55.2764 14.5451 804 103.204 345.167 472.949
3105 0 54.4352 14.825 807 105.281 345.934 467.941
3106 0 57.1877 14.3912 823 104.419 347.058 471.418
3107 0 60.3187 14.1747 855 105.787 347.131 468.147
3108 0 62.3943 15.1777 947 104.111 347.879 467.038
3109 0 64.806 16.4645 1067 102.59 345.79 468.594
3110 0 65.4977 23.3291 1528 96.6499 347.831 462.92
3111 0 66.2614 13.8089 915 107.091 348.021 469.996
3112 0 74.6261 22.6596 1691 94.7617 348.779 470.652
3113 0 75.4261 18.4419 1391 101.781 350.37 464.948
3114 0 74.2833 17.6083 1308 103.287 350.525 462.729
3115 0 76.4585 18.3106 1400 101.086 348.766 467.794
3116 0 78.3731 14.2013 1113 106.147 350.826 466.912
3117 0 79.2841 10.1155 802 109.844 349.373 469.105
3118 0 81.5199 13.3096 1085 108.547 351.582 459.759
3119 1 45.093 14.4812 653 103.289 351.406 483.554
3120 0 48.4063 12.1059 586 107.015 351.138 480.947
3121 0 51.095 15.9311 814 102.204 353.29 479.45
3122 0 52.6301 13.2624 698 102.656 351.964 485.649
3123 0 48.0978 15.219 732 102.436 351.952 484.518
3124 0 56.0998 13.2264 742 104.367 350.644 482.961
3125 0 56.219 18.1611 1021 99.7365 350.623 482.471
3126 0 57.1516 16.9374 968 101.964 349.155 479.934
3127 0 60.2747 15.8109 953 102.568 349.511 479.425
3128 0 62.1813 17.1112 1064 101.049 348.446 475.661
3129 0 64.1386 13.3461 856 106.23 346.954 475.991
3130 0 65.2046 13.4346 876 104.63 346.221 478.933
3131 0 69.1418 15.2151 1052 104.421 346.629 474.916
3132 0 70.2228 16.7182 1174 103.681 344.944 468.387
3133 0 75.1572 15.9 1195 103.279 345.388 471.896
3134 0 76.5558 15.3744 1177 104.453 344.41 468.085
3135 0 79.1594 17.2563 1366 99.612 344.704 472.983
3136 0 84.3085 13.6878 1154 105.16 345.263 462.632
3137 0 87.3932 19.4409 1699 98.1165 343.557 458.966
3138 1 43.0797 12.7206 548 105.861 342.639 482.719
3139 0 48.673 13.1901 642 104.039 341.893 479.204
3140 0 49.1203 16.2255 797 101.823 344.726 479.493
3141 0 49.0815 18.0924 888 100.847 343.972 477.908
3142 0 53.108 17.6056 935 100.596 345.033 474.235
3143 0 56.0607 17.2313 966 100.126 344.35 476.216
3144 0 58.1104 15.6771 911 102.535 345.496 471.341
3145 0 59.1084 14.9217 882 103.558 345.26 472.087
3146 0 58.06 13.021 756 106.077 346.754 471.165
3147 0 62.1206 16.2587 1010 101.526 347.399 470.243
3148 0 65.0575 12.9424 842 103.936 347.223 463.808
3149 0 65.149 13.9987 912 103.041 347.498 466.685
3150 0 67.1337 14.0913 946 103.146 348.624 464.826
3151 0 72.3332 18 1302 97.2688 346.824 467.032
3152 0 75.068 18.1968 1366 98.6062 348.352 462.395
3153 0 76.242 16.6181 1267 100.477 349.208 463.15
3154 0 78.23 12.6678 991 105.369 348.731 463.844
3155 0 81.1595 15.3402 1245 103.482 349.273 458.65
3156 0 83.1925 16.5039 1373 102.63 348.43 453.952
3157 0 90.3133 18.5576 1676 99.8753 347.976 452.405
3158 0 91.38 15.8021 1444 102.854 349.45 454.713
3159 0 96.2244 17.6878 1702 100.946 348.159 457.585
3160 0 98.4667 19.5904 1929 99.5226 348.64 452.954
3161 1 50.2933 10.8166 544 107.612 348.585 480.397
3162 0 51.1473 19.2777 986 98.6014 349.5 481.128
3163 0 52.3776 16.8011 880 103.669 349.91 480.805
3164 0 52.1298 18.3772 958 102.687 349.493 477.895
3165 0 55.8532 15.1827 848 105.639 348.333 480.752
3166 0 57.6376 18.1479 1046 102.115 348.127 478.979
3167 0 58.5167 14.2694 835 107.147 348.417 479.347
3168 0 57.2674 14.1791 812 108.126 348.469 478.82
3169 0 61.3798 21.3262 1309 97.9672 347.954 482.934
3170 0 64.2749 17.2385 1108 104.039 347.129 476.101
3171 0 69.1139 15.2502 1054 103.917 346.704 478.97
3172 0 67.3302 16.1295 1086 107.031 346.22 473.182
3173 0 71.3299 17.4681 1246 105.703 345.991 472.966
3174 0 75.592 18.7851 1420 102.496 344.657 474.839
3175 0 71.0654 11.8623 843 112.299 344.21 474.544
3176 0 77.3793 14.5 1122 109.005 343.363 471.426
3177 0 76.2607 14.398 1098 110.248 344.358 466.064
3178 0 79.4526 17.18 1365 105.914 342.793 463.337
3179 0 79.4526 17.0542 1355 146.726 340.782 463.208
3180 0 85.3971 17.2722 1475 106.923 343.582 463.87
3181 0 89.5171 15.7177 1407 109.264 343.081 461.562
3182 0 94.3355 26.4058 2491 97.0847 342.798 461.094
3183 1 52.5261 15.8397 832 108.897 342.182 477.779
3184 0 55.1991 14.9097 823 112.057 342.335 472.955
3185 0 58.2448 13.4261 782 112.659 342.051 475.664
3186 0 58.1145 13.9552 811 112.212 342.067 475.492
3187 0 60.0758 15.5803 936 111.971 342.959 471.668
3188 0 67.3591 22.5953 1522 101.887 342.376 470.379
3189 0 65.6174 16.9467 1112 110.634 344.241 466.559
3190 0 69.325 16.5453 1147 110.127 344.244 467.711
3191 0 69.7915 16.32 1139 111.908 344.123 466.579
3192 0 72.3441 17.1127 1238 110.666 344.656 463.854
3193 0 73.8153 16.2432 1199 113.479 344.689 460.143
3194 0 77.3308 21.7119 1679 105.394 345.903 463.129
3195 0 79.6298 19.8669 1582 109.181 345.252 452.843
3196 0 83.617 17.1137 1431 112.529 347.434 458.882
3197 0 84.482 17.4949 1478 111.951 347.37 461.558
3198 0 87.1002 20.0918 1750 109.789 348.109 454.146
3199 0 91.6371 18.0276 1652 112.141 348.537 457.113
3200 0 94.3717 16.2019 1529 113.604 349.712 460.056
3201 0 98.3352 19.82 1949 109.803 349.174 453.889
3202 0 102.587 18.7743 1926 110.608 348.882 454.562
3203 0 107.321 20.1918 2167 109.111 349.271 451.645
3204 0 112.41 19.5979 2203 108.668 350.558 449.505
3205 1 57.1686 11.4223 653 117.59 348.216 477.704
3206 0 58.4928 17.3696 1016 109.612 350.223 478.743
3207 0 62.1561 15.1876 944 113.228 347.453 476.842
3208 0 61.1214 15.232 931 114.517 349.073 470.651
3209 0 64.2246 16.1309 1036 112.405 347.444 474.785
3210 0 69.4661 21.694 1507 103.289 347.328 478.566
3211 0 72.3116 14.8939 1077 113.545 347.291 474.321
3212 0 70.0959 20.0868 1408 109.191 347.303 472.81
3213 0 71.2514 20.6733 1473 107.077 346.669 477.022
3214 0 72.2023 13.0882 945 119.998 347.229 473.514
3215 0 81.2851 15.9808 1299 114.208 346.038 469.863
3216 0 78.5389 15.852 1245 113.814 345.256 466.704
3217 0 79.2655 17.2837 1370 113.334 345.387 457.352
3218 0 79.2655 17.3341 1374 145.772 344.402 457.367
3219 0 84.6851 16.9097 1432 111.696 343.677 459.056
3220 0 86.6786 14.0404 1217 115.444 344.175 457.597
3221 0 86.4359 13.5823 1174 117.237 343.843 444.639
3222 0 89.682 19.19 1721 110.165 344.334 448.95
3223 1 54.0768 14.8123 801 107.747 342.146 478.295
3224 0 54.1586 12.9989 704 110.305 341.223 477.429
3225 0 57.1822 13.5007 772 107.492 342.737 477.437
3226 0 56.1485 11.9148 669 111.484 342.311 474.637
3227 0 59.321 11.7496 697 111.211 342.857 472.56
3228 0 65.1823 10.2175 666 114.056 343.485 466.788
3229 0 69.0914 12.042 832 110.974 344.108 465.808
3230 0 70.3305 10.4364 734 111.357 343.917 466.92
3231 0 72.4576 11.3032 819 107.862 345.068 466.849
3232 0 73.3399 8.91738 654 115.11 344.225 461.581
3233 1 42.076 13.9034 585 102.101 345.185 478.58
3234 0 42.0162 9.04413 380 109.832 345.616 476.511
3235 0 43.1294 11.222 484 105 345.843 477.275
3236 0 42.0306 12.3006 517 104.824 346.814 472.124
3237 0 47.1444 13.8935 655 100.995 346.858 470.427
3238 0 48.1142 9.85156 474 106.198 345.964 473.445
3239 0 46.0426 7.94916 366 109.087 348.049 472.096
3240 0 50.0805 8.94559 448 106.946 348.031 473.241
3241 0 50.0577 10.3081 516 107.219 349.82 470.407
3242 0 53.1513 9.10608 484 107.138 349.514 472.002
3243 0 55.1575 12.9629 715 103.509 349.959 469.917
3244 0 58.1134 10.686 621 107.121 351.38 464.13
3245 0 55.1378 9.64856 532 108.419 351.265 467.1
3246 0 59.0952 11.3546 671 105.802 351.045 468.371
3247 0 60.0762 13.0667 785 103.468 349.172 467.042
3248 0 65.183 9.41963 614 106.521 349.567 465.054
3249 0 68.139 13.4284 915 100.468 350.522 465.357
3250 0 68.1556 11.4151 778 99.8895 350.279 472.586
3251 0 73.1672 8.9521 655 105.081 350.977 465.33
3252 0 71.1713 4.03252 287 110.129 349.509 469.84
3253 0 79.1345 11.1329 881 100.763 350.269 466.076
3254 0 80.0987 11.311 906 102.178 350.328 459.7
3255 0 83.2822 5.67948 473 102.48 349.027 476.066
3256 0 84.1159 9.04704 761 103.059 348.715 463.669
3257 0 89.2904 10.4267 931 102.346 347.979 463.098
3258 1 47.1467 11.2203 529 101.457 347.45 478.756
3259 0 43.0835 6.63827 286 107.266 347.5 480.178
3260 0 53.1746 16.38 871 94.5718 345.896 475.289
3261 0 48.0588 8.17748 393 98.9822 348.99 478.69
3262 1 100.938 14.0383 1417 100.279 346.454 447.741
3263 0 102.693 9.38716 964 105.27 345.826 448.852
3264 0 103.667 7.90029 819 108.203 344.692 435.09
3265 0 108.038 10.1168 1093 103.113 344.5 449.198
3266 0 113.229 11.5871 1312 103.166 343.383 440.005
3267 0 114.772 9.88046 1134 105.817 344.653 432.046
3268 0 120.196 11.7308 1410 102.755 343.659 430.743
3269 0 124.738 8.52188 1063 105.65 344.524 438.468
3270 0 127.042 6.28139 798 108.152 345.12 439.363
3271 0 131.828 13.7149 1808 101.837 345.395 428.296
3272 1 140.701 6.33256 891 110.022 346.148 426.927
3273 0 138.798 10.6126 1473 104.816 345.284 427.382
3274 0 144.992 11.2902 1637 107.123 344.14 426.086
3275 0 149.09 10.6111 1582 106.994 345.704 426.276
3276 0 153.827 12.514 1925 106.821 346.118 413.607
3277 0 154.498 10.2785 1588 105.56 346.65 427.987
3278 1 128.633 10.2462 1318 107.641 348.259 425.674
3279 1 88.3152 14.5615 1286 103.148 347.201 441.089
3280 0 93.3213 17.0808 1594 100.491 349.575 444.483
3281 0 92.7262 12.1972 1131 106.21 348.923 446.725
3282 0 93.503 13.2723 1241 106.32 348.513 442.663
3283 0 99.3985 11.5092 1144 108.597 350.139 441.794
3284 0 102.579 19.0584 1955 98.2537 350.994 447.775
3285 0 101.403 9.30942 944 112.507 351.37 439.711
3286 0 109.676 11.8075 1295 109.208 350.832 439.368
3287 0 119.776 18.9019 2264 98.9558 350.371 437.049
3288 0 118.61 13.38 1587 105.832 351.067 437.425
3289 0 120.287 10.5498 1269 108.326 350.476 440.436
3290 0 123.568 18.0711 2233 101.483 351.734 435.721
3291 0 129.606 15.146 1963 106.105 349.872 423.347
3292 0 130.555 14.76 1927 98.8059 351.11 430.056
3293 0 137.516 12.1731 1674 103.792 352.045 440.876
3294 0 142.6 20.3436 2901 96.6384 351.486 432.011
3295 1 71.0457 12.5131 889 103.512 349.702 467.057
3296 0 72.1589 16.5191 1192 98.8431 349.994 465.811
3297 0 72.0819 21.0455 1517 94.5887 349.771 466.684
3298 0 72.3821 13.9123 1007 104.189 349.465 463.965
3299 0 77.1299 13.6912 1056 103.745 349.12 462.832
3300 0 76.205 15.8782 1210 101.207 348.681 466.986
3301 0 80.2928 16.253 1305 100.294 347.11 462.851
3302 0 81.0858 16.1681 1311 101.662 347.096 461.104
3303 1 96.0348 19.0556 1830 95.6312 347.317 465.257
3304 0 88.1167 9.44202 832 109.73 345.703 461.607
3305 0 90.3187 12.3895 1119 106.506 346.221 455.943
3306 0 93.2181 14.8898 1388 104.492 346.183 450.61
3307 0 95.2647 13.9716 1331 105.292 345.394 451.596
3309 0 99.0946 11.8977 1179 105.055 344.729 456.79
3310 0 105.222 17.6484 1857 100.068 345.229 439.81
3311 0 107.293 15.7513 1690 100.685 345.074 447.146
3312 0 110.448 16.089 1777 100.663 345.97 444.772
3313 1 56.1619 11.271 633 103.123 346.542 466.351
3314 0 54.2179 10.0336 544 100.29 348.744 470.414
3315 1 117.39 13.7491 1614 98.4411 348.778 443.332
3316 1 129.535 9.35652 1212 102.491 348.077 442.44
3317 1 64.0716 15.2642 978 95.7403 348.852 458.682
3318 0 66.089 13.6331 901 97.3163 350.372 457.239
3319 0 64.2775 11.1081 714 99.1471 350.116 462.137
3320 0 70.2091 12.4628 875 98.928 351.001 456.581
3321 0 77.2772 15.1791 1173 94.6343 351.243 454.78
3322 0 77.227 25.4056 1962 86.16 350.792 452.549
3323 0 77.2382 10.3705 801 98.9551 352.572 458.287
3324 0 78.2695 15.0506 1178 96.0925 352.56 451.787
3325 0 79.1716 13.717 1086 96.8462 353.713 455.175
3326 0 80.131 13.1035 1050 97.7486 354.51 454.767
3327 0 86.4505 11.2319 971 97.5108 355.101 461.344
3328 0 83.3933 15.9725 1332 96.8371 354.231 445.87
3329 1 41.153 10.1572 418 99.0072 352.519 459.502
3330 0 44.0451 8.42318 371 99.3801 355.156 463.841
3331 0 46.3042 15.2902 708 91.4845 353.83 469.01
3332 0 51.1494 18.4362 943 92.0074 355.018 474.014
3333 0 54.1559 15.3815 833 96.6963 354.103 465.527
3334 0 51.0824 9.65108 493 104.846 356.511 468.416
3335 0 55.1426 14.5441 802 96.9726 355.398 472.645
3336 0 60.1384 15.4643 930 96.786 355.683 470.937
3337 0 60.132 15.3163 921 97.0043 356.743 467.246
3338 0 62.1005 14.3477 891 97.6936 355.865 473.223
3339 0 62.0878 12.0636 749 99.7583 354.717 472.65
3340 0 66.3267 13.2224 877 98.9441 355.797 470.85
3341 0 67.0796 17.1289 1149 94.1558 353.555 471.562
3342 0 63.197 9.90554 626 103.671 353.674 468.131
3343 0 72.3094 20.9378 1514 91.3071 352.81 464.487
3344 0 71.152 16.2048 1153 96.4657 352.082 465.035
3345 0 72.2294 13.8725 1002 99.9621 352.348 463.357
3346 0 76.0505 11.9657 910 101.455 350.756 462.679
3347 0 78.192 14.2726 1116 96.8898 350.631 461.855
3348 1 42.1841 15.9302 672 96.6443 350.765 480.073
3349 0 38.161 10.9536 418 97.6029 349.931 471.388
3350 0 38.056 14.6363 557 95.8923 349.828 469.345
3351 0 41.3707 14.9381 618 93.4288 348.55 474.393
3352 0 45.4664 13.3725 608 95.9243 348.368 472.836
3353 0 44.135 13.3907 591 97.4788 349.308 468.491
3354 0 47.2147 11.9242 563 98.6501 348.254 467.577
3355 0 47.2668 11.0225 521 98.8848 348.459 467.015
3356 0 52.2291 12.4835 652 97.5598 348.653 463.919
3357 0 49.13 13.9426 685 96.6876 348.301 465.164
3358 0 55.5341 15.9001 883 93.9434 349.625 466.043
3359 0 53.1981 15.0757 802 96.313 349.48 457.839
3360 0 54.257 17.2144 934 94.1574 349.153 461.338
3361 0 58.4588 14.4717 846 96.4953 349.844 460.579
3362 0 63.2863 14.9163 944 96.3199 350.226 457.815
3363 0 63.1776 15.6543 989 96.2154 351.191 457.373
3364 0 62.196 15.6763 975 97.9303 352.636 450.793
3365 0 66.328 15.0615 999 97.8478 352.42 455.22
3366 0 68.3424 16.1101 1101 95.9809 351.846 455.48
3367 0 68.2987 18.0238 1231 97.1625 352.551 450.516
3368 0 71.4649 13.769 984 101.193 351.862 448.228
3369 0 73.446 14.9906 1101 101.262 352.845 448.54
3370 0 78.3909 12.4121 973 103.774 353.291 447.741
3371 1 161.571 18.9329 3059 97.8562 354.786 421.756
3372 1 83.5652 15.4131 1288 102.642 354.879 451.162
3373 1 43.1793 17.3463 749 99.283 353.882 470.881
3374 0 44.2906 15.2628 676 102.386 353.345 469.933
3375 0 45.2414 19.0312 861 97.4274 353.861 472.596
3376 0 49.2371 17.5274 863 99.0324 353.419 472.536
3377 0 49.2366 15.2529 751 101.459 353.154 474.387
3378 0 51.1416 15.2713 781 102.228 352.809 472.903
3379 0 51.1021 15.3223 783 102.179 353.165 474.04
3380 0 56.1704 16.2719 914 99.4726 353.735 475.025
3381 0 57.3951 16.3428 938 98.3241 353.242 476.029
3382 0 60.1583 16.0244 964 99.9461 352.204 471.25
3383 0 59.1298 24.8267 1468 92.28 353.062 473.49
3384 0 64.1392 17.2749 1108 97.732 351.246 473.479
3385 0 63.114 15.0521 950 101.923 350.991 464.944
3386 0 69.2589 17.8605 1237 97.3533 351.567 469.654
3387 0 71.2828 18.7984 1340 95.7231 350.283 471.278
3388 0 71.5246 18.623 1332 97.0398 350.286 461.764
3389 0 75.3711 15.1119 1139 99.8121 349.735 463.722
3390 0 76.243 17.5623 1339 94.9253 349.728 462.766
3391 0 76.5528 17.661 1352 97.9186 349.677 454.922
3392 0 80.4095 24.0892 1937 91.1378 349.092 454.196
3393 0 83.5862 16.0912 1345 96.9086 349.829 456.909
3394 0 85.7092 16.4276 1408 98.1044 349.725 448.396
3395 0 94.9776 22.679 2154 90.6634 348.587 448.317
3396 1 44.1786 14.1924 627 98.1005 347.734 469.813
3397 0 50.0916 14.0343 703 96.8023 349.532 472.333
3398 0 52.2949 19.6769 1029 91.9018 349.209 470.274
3399 0 51.1044 15.576 796 95.4108 349.094 467.729
3400 0 53.2054 15.4496 822 95.8297 348.869 469.04
3401 0 51.1876 11.8388 606 100.144 349.409 466.305
3402 0 55.2382 16.8905 933 93.1844 348.628 466.203
3403 0 56.5062 13.3083 752 98.1529 349.794 462.286
3404 0 59.0967 12.5895 744 97.8562 349.71 463.757
3405 0 63.1478 16.8335 1063 94.1223 350.247 460.246
3406 0 61.0604 15.1981 928 97.6756 349.551 456.135
3407 0 66.0449 13.6422 901 98.6393 351.646 452.606
3408 0 68.1418 15.4678 1054 96.8596 352.326 453.812
3409 0 68.2107 15.4521 1054 97.1063 352.565 454.308
3410 0 75.263 20.4616 1540 91.7299 352.973 452.456
3411 1 154.856 19.6957 3050 93.3784 352.564 417.561
3412 0 159.116 14.6434 2330 100.202 353.04 407.643
3413 0 166.605 21.0438 3506 93.0454 353.24 414.955
3414 0 171.721 18.2855 3140 95.9955 354.404 411.774
3415 1 87.5555 17.8401 1562 94.9008 355.412 451.4
3416 1 46.1581 13.5621 626 98.1805 355.821 469.906
3417 0 47.2638 13.5833 642 98.4486 355.889 467.274
3418 0 47.1725 10.5146 496 99.0665 356.018 468.677
3419 0 50.1045 11.7754 590 96.1407 357.246 468.337
3420 0 49.2626 9.03321 445 99.5326 356.604 474.034
3421 0 55.2346 14.4113 796 94.3907 355.19 470.647
3422 0 57.3077 16.0013 917 93.3969 354.545 470.384
3423 0 60.2682 14.3027 862 95.1636 354.948 472.964
3424 0 61.323 16.7637 1028 92.1673 354.933 472.124
3425 0 62.3964 12.9495 808 97.3317 354.484 469.51
3426 0 62.1013 13.2847 825 97.9018 354.318 465.722
3427 0 66.2726 12.524 830 97.1976 353.696 473.806
3428 0 71.3105 17.9637 1281 93.4239 352.956 465.42
3429 0 71.2109 17.3288 1234 94.4246 352.406 469.15
3430 0 76.1526 11.5164 877 98.7115 351.764 470.668
3431 0 74.0783 15.3216 1135 96.8758 351.426 468.835
3432 0 77.2116 17.9895 1389 95.0878 351.502 468.72
3433 0 79.2287 16.5597 1312 97.641 350.412 466.78
3434 0 80.2542 19.2887 1548 94.9703 350.312 466.463
3435 0 83.196 17.9215 1491 96.159 351.187 464.72
3436 0 85.0789 16.185 1377 99.7495 350.832 458.909
3437 0 89.7734 14.7705 1326 103.639 348.947 451.929
3438 0 91.6507 12.7222 1166 107.263 348.382 450.106
3439 0 94.7609 13.0223 1234 104.858 348.7 454.066
3440 0 101.982 15.2772 1558 103.788 349.053 450.266
3441 1 52.2557 16.4384 859 98.0827 349.877 472.937
3442 0 52.1095 11.7829 614 104.59 349.191 471.423
3443 0 53.1184 13.3099 707 101.197 349.707 462.562
3444 0 55.22 13.238 731 103.699 349.933 467.078
3445 0 58.2187 14.102 821 102.562 348.864 467.76
3446 0 60.0885 22.2172 1335 94.6315 349.424 460.048
3447 0 61.2831 14.637 897 103.421 351.119 460.629
3448 0 64.1004 14.3837 922 102.92 350.471 459.751
3449 0 66.3787 16.3757 1087 101.965 351.224 458.373
3450 0 69.1906 12.704 879 106.908 350.934 459.187
3451 0 69.3649 9.39956 652 114.655 351.925 453.12
3452 0 76.5 22.7451 1740 96.9799 351.227 454.113
3453 0 77.3078 16.5313 1278 104.143 352.774 451.763
3454 0 80.3944 15.1627 1219 107.021 352.042 451.705
3455 0 83.3326 17.6402 1470 103.365 353.573 452.739
3456 1 46.1906 12.7082 587 107.136 352.855 463.762
3457 0 45.8581 10.0964 463 112.341 352.57 462.084
3458 0 49.447 13.5094 668 108.633 352.623 466.888
3459 0 49.3629 18.1716 897 103.085 353.01 465.449
3460 0 51.657 15.4287 797 105.541 352.483 468.021
3461 0 52.4186 14.3461 752 106.037 353.668 472.41
3462 0 54.5307 14.8173 808 107.02 352.991 469.213
3463 0 56.5857 15.0215 850 106.831 352.669 467.875
3464 0 57.4806 14.8224 852 107.008 352.88 469.122
3465 0 58.2851 14.1374 824 107.984 352.751 467.783
3466 0 59.1911 13.0932 775 109.302 352.204 466.205
3467 0 65.4634 17.1852 1125 102.037 351.656 468.323
3468 0 66.424 13.474 895 105.648 352.315 468.93
3469 0 66.8376 11.6551 779 107.764 351.09 465.841
3470 0 72.5512 13.9488 1012 104.425 352.344 464.261
3471 0 71.3998 13.5995 971 106.953 352.16 464.95
3472 0 74.1653 9.50579 705 110.834 351.113 468.295
3473 0 79.2221 15.2356 1207 104.059 352.011 468.833
3474 0 78.2519 12.8048 1002 109.059 352.29 462.344
3475 0 79.2954 11.3121 897 111.642 351.051 460.142
3476 0 85.3094 14.2188 1213 107.875 350.013 458.2
3477 0 89.6138 15.4998 1389 103.937 349.3 452.658
3478 1 45.6264 8.48194 387 107.886 349.196 477.209
3479 0 47.5467 11.168 531 102.621 347.488 469.887
3480 0 49.9474 15.6765 783 96.9004 349.498 478.54
3481 0 50.6447 10.3861 526 103.061 348.076 471.937
3482 0 53.5048 17.961 961 94.5765 348.239 472.073
3483 0 53.1403 14.4523 768 99.3971 347.98 471.603
3484 0 53.1366 7.7536 412 105.08 346.507 475.485
3485 0 55.2818 13.3136 736 99.9389 346.537 468.655
3486 0 56.5118 13.1831 745 100.277 346.98 466.538
3487 0 59.2967 8.55022 507 104.306 346.655 466.996
3488 0 64.2565 16.154 1038 94.6821 347.943 467.743
3489 0 64.3025 13.9186 895 95.1676 347.926 470.058
3490 0 68.3098 17.0839 1167 93.6375 346.942 463.14
3491 0 68.4186 13.812 945 100.341 348.164 453.862
3492 0 69.561 11.4288 795 102.716 348.502 456.848
3493 0 69.3904 13.4457 933 102.342 348.017 454.673
3494 0 74.3558 14.0675 1046 102.45 349.185 450.695
3495 0 78.4092 15.4319 1210 100.638 347.886 454.231
3496 0 79.3415 12.881 1022 105.049 348.727 452.69
3497 0 82.4552 13.0131 1073 103.221 348.641 453.197
3498 0 86.5119 14.3102 1238 102.269 349.872 451.524
3499 0 90.411 17.5089 1583 98.1914 350.538 447.468
3500 0 90.3726 16.3435 1477 100.178 351.359 448.254
3501 0 93.597 15.8445 1483 100.527 351.811 446.214
3502 1 51.067 13.0809 668 99.2844 352.099 472.675
3503 0 52.1219 13.0847 682 100.365 352.824 468.765
3504 0 59.3875 18.5729 1103 93.9891 353.497 469.673
3505 0 59.2266 13.0178 771 98.7938 353.951 474.265
3506 0 58.2127 13.193 768 102.451 353.712 464.25
3507 0 60.1999 14.7675 889 100.142 352.222 471.916
3508 0 62.164 13.6574 849 102.718 352.443 470.918
3509 0 64.4675 12.8127 826 103.818 351.304 473.373
3510 0 67.3588 13.1831 888 104.051 351.993 470.343
3511 0 69.1448 12.4955 864 104.935 351.296 466.273
3512 0 73.2598 13.418 983 104.392 351.449 467.293
3513 0 82.3323 15.0609 1240 101.21 351.245 468.146
3514 0 78.3656 11.3698 891 107.299 349.85 466.744
3515 0 78.2353 12.0023 939 107.152 349.653 465.994
3516 0 80.4156 10.6571 857 108.693 350.214 463.669
3517 0 85.6103 14.4609 1238 104.221 350.209 462.865
3518 0 87.3079 20.6969 1807 96.6143 348.85 460.924
3519 0 88.5403 13.2708 1175 105.74 348.794 457.347
3520 0 93.0461 14.3692 1337 104.049 347.746 452.165
3521 0 95.5632 14.9744 1431 101.899 347.587 454.134
3522 0 100.558 17.1443 1724 99.0957 347.986 455.923
3523 0 100.377 11.0882 1113 107.364 346.546 454.031
3524 0 106.428 14.2162 1513 104.378 347.498 449.331
3525 0 109.535 12.4891 1368 107.641 347.582 441.425
3526 1 57.3494 10.2878 590 107.568 346.608 464.692
3527 0 60.4454 11.0348 667 101.04 345.384 466.258
3528 0 61.1844 11.3101 692 100.032 346.759 462.4
3529 0 63.4227 13.008 825 98.4836 346.785 464.627
3530 0 69.1272 14.2202 983 96.5209 347.259 461.903
3531 0 68.4296 11.6909 800 99.9075 347.776 459.755
3532 0 67.2975 12.1104 815 101.733 347.617 456.715
3533 0 72.3654 12.9067 934 99.591 346.479 459.046
3534 0 69.3744 12.3389 856 103.203 347.686 452.817
3535 0 70.2443 13.4673 946 99.2992 347.091 450.019
3536 0 74.4317 12.2797 914 100.518 347.284 449.417
3537 0 77.4086 16.7165 1294 95.9498 346.748 445.233
3538 0 77.3233 11.9369 923 100.596 347.888 447.421
3539 0 82.2688 11.9608 984 100.873 349.564 443.016
3540 0 84.5044 11.313 956 101.825 349.916 445.297
3541 0 89.3768 21.0905 1885 90.922 348.628 447.79
3542 0 85.6367 14.0594 1204 101.886 349.927 438.65
3543 0 95.5029 14.5859 1393 99.7265 351.024 439.279
3544 0 90.3663 17.0086 1537 99.2004 350.99 436.973
3545 0 96.4351 12.4332 1199 104.341 351.098 429.596
3546 0 103.321 15.505 1602 100.373 351.108 431.207
3547 0 104.646 13.321 1394 101.962 351.227 439.227
3548 1 167.776 14.9426 2507 103.81 352.156 413.18
3549 1 113.488 15.5699 1767 99.3135 351.799 441.3
3550 0 115.453 11.5718 1336 105.655 351.954 434.222
3551 0 123.691 18.4087 2277 97.1116 351.092 431.712
3552 0 126.26 14.1137 1782 102.082 350.381 431.622
3553 1 61.181 9.0878 556 101.333 351.237 454.076
3554 0 68.5468 11.8605 813 98.1857 351.39 461.706
3555 0 74.3064 10.9143 811 96.7164 352.597 459.453
3556 0 74.2416 18.9382 1406 89.8336 350.873 461.568
3557 0 76.2866 12.1253 925 96.5805 351.456 457.398
3558 0 72.3291 11.9316 863 98.6118 350.378 452.455
3559 0 75.165 13.3174 1001 97.0569 349.634 454.366
3560 0 79.4364 13.4195 1066 95.4437 348.871 457.92
3561 0 83.2865 11.2743 939 98.8126 347.433 447.971
3562 0 79.3989 16.5871 1317 94.9104 346.121 447.096
3563 0 83.375 11.3703 948 98.942 345.908 449.555
3564 0 88.4649 13.4856 1193 96.5499 345.035 448.286
3565 0 90.2626 12.8846 1163 98.2408 345.716 438.754
3566 0 90.3451 12.7068 1148 96.6141 345.275 449.06
3567 0 94.2811 9.94898 938 98.9104 346.26 440.751
3568 0 95.7157 10.3954 995 98.3246 346.428 438.548
3569 0 100.666 10.3014 1037 98.3182 346.105 438.407
3570 0 102.494 10.8494 1112 96.732 345.806 440.53
3571 0 102.399 10.4005 1065 98.9746 344.995 426.683
3572 0 107.579 12.5954 1355 95.6236 344.638 431.235
3573 0 110.663 14.7565 1633 93.1868 345.114 428.753
3574 0 115.51 17.2539 1993 89.8414 345.844 433.512
3575 1 189.959 16.6668 3166 95.0831 345.873 401.247
3576 0 193.85 17.0235 3300 96.8479 346.488 387.368
3577 1 197.038 11.8353 2332 103.803 345.801 369.032
3578 0 203.594 11.3658 2314 104.14 346.795 366.264
3579 0 216.9 17.1046 3710 96.2243 346.717 385.54
3580 0 228.877 20.4346 4677 93.1208 347.247 387.195
3581 0 231.376 18.632 4311 95.6064 347.532 382.045
3582 1 76.231 11.6094 885 91.5141 348.755 449.649
3583 0 82.2386 11.7098 963 90.6937 349.115 458.346
3584 0 84.2634 20.697 1744 85.1135 349.574 447.522
3585 0 86.1565 13.1969 1137 90.1346 349.316 454.12
3586 1 262.692 12.7297 3344 104.198 349.453 346.917
3587 0 273.149 15.292 4177 100.969 349.44 352.892
3588 0 283.918 17.3677 4931 99.0882 350.226 354.78
3589 1 312.021 10.5987 3307 101.387 350.509 377.019
3590 1 191.785 11.8414 2271 97.6768 350.034 407.373
3591 0 200.775 14.6781 2947 96.0635 350.644 398.495
3592 0 209.833 15.3646 3224 95.4938 350.496 390.093
3593 0 216.168 21.4232 4631 90.0829 350.733 396.076
3594 1 174.738 13.3514 2333 96.967 351.406 409.988
3595 0 176.665 9.65104 1705 100.926 351.114 403.486
3596 0 186.951 12.7306 2380 93.3592 351.425 432.893
3597 1 314.679 16.9951 5348 97.3781 351.533 351.782
3598 1 197.791 15.213 3009 96.3912 349.769 411.351
3599 0 204.812 21.8981 4485 90.946 348.44 400.238
3600 0 210.926 14.6307 3086 97.1957 349.467 401.872
3601 0 221.184 18.844 4168 94.5283 349.97 398.211
3602 0 226.919 17.1647 3895 96.837 349.68 391.765
3603 1 83.3047 16.7338 1394 90.3042 350.171 470.702
3604 0 84.0948 17.5873 1479 91.5247 348.949 464.018
3605 0 87.1235 14.9673 1304 91.7224 350.344 470.493
3606 0 90.3968 19.6357 1775 89.5916 348.989 459.868
3607 0 92.3114 17.441 1610 91.8006 348.025 458.806
3608 0 96.3006 16.5004 1589 92.275 347.256 461.262
3609 0 97.414 11.446 1115 98.4897 346.176 455.269
3610 0 107.344 13.0702 1403 95.6208 345.912 457.063
3611 1 54.1108 14.0083 758 91.7203 348.681 476.34
3612 0 53.134 13.4754 716 91.9595 343.221 476.095
3613 0 53.108 12.2204 649 94.2912 343.484 475.68
3614 0 55.0571 16.2377 894 90.0369 343.359 471.998
3615 0 54.1328 13.4669 729 95.1235 343.396 470.366
3616 1 113.569 11.8782 1349 97.0274 343.385 450.064
3617 1 58.3863 12.4344 726 93.6336 342.806 469.366
3618 0 61.1863 14.366 879 91.9909 343.935 468.019
3619 0 62.2786 15.4628 963 89.6376 344.557 468.143
3620 0 64.3679 14.0909 907 94.6318 345.084 464.59
3621 1 130.689 9.84013 1286 101.568 345.37 436.844
3622 0 139.311 13.9616 1945 96.7311 345.392 433.25
3623 0 146.68 16.4439 2412 94.6629 345.841 431.882
3624 0 147.594 17.6566 2606 93.9708 346.133 434.663
3625 0 152.644 13.3775 2042 100.829 347.507 424.069
3626 1 77.693 19.4741 1513 92.2485 346.742 460.599
3627 0 78.4713 15.6108 1225 98.5094 348.301 456.224
3628 0 82.3824 18.754 1545 95.9832 349.773 454.839
3629 0 83.6049 15.0948 1262 101.261 349.455 453.246
3630 0 81.2817 11.4786 933 107.144 349.901 454.626
3631 1 48.1864 15.8136 762 95.1286 348.621 477.194
3632 0 52.3699 13.672 716 99.7109 349.637 472.525
3633 0 50.1182 12.5304 628 103.341 348.107 471.053
3634 0 49.1543 13.895 683 102.685 349.047 472.319
3635 0 55.1585 16.8605 930 97.2452 350.839 472.276
3636 0 54.4446 17.9448 977 97.2497 351.725 471.53
3637 0 57.5057 14.8855 856 101.186 351.397 470.659
3638 0 58.2427 15.4697 901 97.828 352.371 478.548
3639 0 59.338 13.4989 801 102.017 349.968 475.519
3640 0 62.305 18.2489 1137 95.8267 350.967 474.877
3641 0 62.264 15.37 957 101.011 349.173 471.824
3642 0 64.5215 13.2979 858 103.84 350.038 471.851
3643 0 65.2761 16.0089 1045 99.0258 349.827 478.395
3644 0 71.4838 20.3263 1453 94.5031 349.412 473.432
3645 0 73.6834 18.1316 1336 97.726 349.394 471.934
3646 0 74.4084 26.2336 1952 90.5164 348.966 467.573
3647 0 76.353 18.1656 1387 97.496 348.268 474.679
3648 0 79.5781 15.7832 1256 102.562 349.097 463.257
3649 0 83.4204 17.6096 1469 98.7508 347.796 463.469
3650 0 86.3545 15.7606 1361 99.0081 346.86 461.195
3651 0 85.2483 13.5369 1154 101.822 347.451 455.844
3652 0 91.4346 16.1427 1476 97.4167 346.883 449.402
3653 0 91.4041 14.3101 1308 101.652 345.696 449.693
3654 1 45.0273 12.3036 554 101.468 343.482 469.016
3655 0 51.1223 10.4651 535 101.486 343.806 472.206
3656 0 47.0971 8.85405 417 104.95 344.345 466.472
3657 0 52.2835 11.648 609 95.0213 344.616 474.524
3658 0 57.3737 16.0352 920 90.5544 345.128 471.353
3659 0 56.3447 10.489 591 96.8612 345.042 472.25
3660 0 57.3491 13.3393 765 93.868 345.886 471.41
3661 0 58.2204 12.7447 742 95.3908 346.414 466.326
3662 0 60.2615 14.155 853 94.2743 346.379 462.491
3663 0 62.4414 12.8601 803 94.0473 346.829 461.635
3664 0 63.3247 13.1544 833 94.3217 347.367 462.389
3665 0 63.5344 9.31778 592 98.5034 346.578 460.836
3666 0 65.4175 11.0979 726 97.6736 347.698 458.555
3667 0 68.3974 12.2812 840 96.3512 347.557 456.633
3668 0 70.3378 10.606 746 98.5201 347.37 457.146
3669 0 71.2643 11.3521 809 98.0235 348.046 458.082
3670 0 71.2643 11.3521 809 134.219 349.016 457.888
3671 0 75.1069 12.4889 938 97.4531 350.039 449.994
3672 0 79.3607 11.2272 891 99.4231 351.664 453.633
3673 0 79.2883 15.2355 1208 95.4346 351.416 446.455
3674 0 83.255 11.0144 917 99.144 353.129 452.112
3675 0 88.4079 14.3652 1270 98.6583 352.278 453.607
3676 0 95.1943 12.6163 1201 103.219 352.66 447.44
3677 0 99.3712 14.9339 1484 98.531 354.046 450.896
3678 0 96.4627 13.4664 1299 101.702 353.773 449.853
3679 1 52.1686 11.252 587 102.652 353.882 471.298
3680 0 54.1473 12.9277 700 99.7386 354.383 470.173
3681 0 57.1495 12.4935 714 100.455 354.294 474.35
3682 0 61.5995 12.6949 782 98.9604 354.491 475.299
3683 0 58.0602 11.2642 654 102.849 354.451 473.708
3684 0 61.0808 15.0456 919 99.0316 353.422 470.532
3685 0 64.1699 14.1499 908 99.4736 353.33 471.672
3686 0 64.0853 13.6225 873 101.334 353.239 469.288
3687 0 66.1892 13.3103 881 102.084 353.49 470.196
3688 0 72.1532 17.2272 1243 96.3154 351.955 466.883
3689 0 70.2986 13.1439 924 102.586 352.105 467.494
3690 0 75.138 15.6379 1175 99.0689 351.056 466.331
3691 0 78.2396 13.497 1056 101.499 350.876 464.399
3692 0 77.4207 12.6839 982 102.745 350.205 468.133
3693 1 161.757 11.1526 1804 108.875 348.084 431.993
3694 1 79.3355 10.2224 811 105.964 348.52 463.989
3695 0 87.4299 14.0455 1228 101.276 347.678 459.979
3696 0 87.3806 10.5859 925 104.09 347.732 464.285
3697 0 93.5806 12.898 1207 103.004 346.676 456.885
3698 0 96.6124 15.0498 1454 98.0014 345.307 463.619
3699 0 96.5362 12.3891 1196 103.032 344.885 454.873
3700 1 49.3449 10.9231 539 101.358 345.373 468.104
3701 0 52.3108 6.82459 357 105.521 345.062 462.532
3702 0 51.2199 9.78135 501 100.996 345.567 467.737
3703 0 55.4237 14.8312 822 94.9428 345.106 466.954
3704 0 55.3811 11.773 652 98.2699 345.92 467.687
3705 0 59.4025 11.178 664 99.6958 346.785 460.178
3706 0 61.727 15.0015 926 94.4028 346.459 464.822
3707 0 65.6689 16.0198 1052 93.7605 346.129 462.627
3708 0 64.3302 12.9954 836 98.201 345.815 468.383
3709 0 65.1858 10.1249 660 102.594 346.83 467.35
3710 0 70.357 15.8904 1118 96.4445 347.441 455.71
3711 0 71.2109 11.2342 800 97.0412 348.121 461.811
3712 0 73.3343 11.8771 871 98.2009 346.946 458.134
3713 0 76.3362 15.1042 1153 95.4727 348.104 452.661
3714 0 77.4023 14.1598 1096 97.4088 350.381 452.194
3715 0 80.354 14.1001 1133 96.1545 350.216 455.616
3716 0 83.6232 11.5399 965 100.803 351.312 451.472
3717 0 88.4416 14.6085 1292 96.9195 350.563 448.572
3718 0 89.4714 14.3621 1285 97.5852 350.784 447.365
3719 0 91.4351 14.0865 1288 98.073 351.245 444.596
3720 0 95.525 14.9385 1427 96.9383 350.645 445.765
3721 1 49.1961 12.44 612 99.1863 352.761 471.979
3722 0 56.308 15.575 877 93.3706 348.818 471.169
3723 0 51.5738 11.0715 571 95.338 351.443 474.979
3724 0 56.2429 15.273 859 99.021 351.916 473.581
3725 0 57.2564 12.2606 702 103.285 351.819 473.03
3726 0 58.0784 13.8089 802 101.701 351.217 472.085
3727 0 59.206 13.377 792 101.265 351.145 476.088
3728 0 64.1969 15.0475 966 99.8872 349.98 472.52
3729 0 64.0977 14.5715 934 101.051 351.982 471.919
3730 0 67.299 12.3925 834 102.892 350.231 474.566
3731 0 68.4948 14.3806 985 102.085 350.939 471.157
3732 0 72.452 13.4158 972 103.176 350.09 467.403
3733 0 74.2551 17.9247 1331 95.5597 349.761 472.807
3734 0 75.301 10.5443 794 106.243 348.49 462.159
3735 0 81.2569 14.8787 1209 99.5922 349.151 466.508
3736 0 81.5131 15.7275 1282 98.9509 348.523 464.569
3737 0 83.3184 13.8265 1152 102.453 347.937 461.91
3738 0 87.4556 15.6651 1370 99.1438 345.865 460.958
3739 0 89.5105 15.6741 1403 99.2038 346.567 458.066
3740 0 88.5816 14.0436 1244 99.8497 346.019 459.9
3741 1 53.6024 14.9807 803 95.2329 345.204 473.853
3742 0 51.6144 13.2327 683 94.2884 345.835 468.662
3743 0 53.3921 12.0055 641 93.4025 344.967 469.973
3744 0 53.2929 12.178 649 92.3451 345.035 468.39
3745 0 54.3718 16.0193 871 88.5293 345.117 460.719
3746 0 53.1576 11.9644 636 94.3538 345.807 462.502
3747 0 59.3349 15.3198 909 88.9538 344.642 462.73
3748 0 61.2275 17.1818 1052 88.1892 346.334 461.137
3749 0 60.5025 14.8919 901 90.1964 344.993 460.431
3750 0 64.3119 14.4608 930 89.8925 347.422 459.183
3751 0 68.4592 13.5117 925 91.5341 347.281 456.6
3752 0 66.1645 18.9528 1254 87.1667 347.224 451.654
3753 0 69.5602 20.2702 1410 85.856 347.352 452.511
3754 0 71.2033 13.9179 991 91.9465 347.219 447.42
3755 0 71.2692 11.0146 785 95.493 347.976 448.534
3756 0 74.1082 11.0919 822 94.5158 349.224 447.478
3757 0 80.3943 12.3143 990 93.1455 349.283 445.969
3758 0 84.3571 12.5301 1057 94.1864 349.92 445.104
3759 0 82.2849 10.6459 876 96.4087 350.688 446.75
3760 0 86.206 13.2589 1143 93.9781 350.657 442.322
3761 0 93.1859 14.6374 1364 91.6129 350.363 446.044
3762 0 92.1842 11.5963 1069 95.4191 352.071 439.898
3763 1 51.2575 14.8271 760 89.4632 351.925 466.251
3764 0 52.2332 10.8552 567 97.03 350.508 460.591
3765 0 50.2951 9.46414 476 100.065 350.84 460.851
3766 0 54.3839 10.904 593 96.43 350.4 464.494
3767 0 58.344 14.5173 847 93.3542 352.161 461.691
3768 0 57.2224 15.9553 913 91.4414 351.284 464.718
3769 0 61.3033 16.4428 1008 90.4742 352.465 465.114
3770 0 64.2464 14.9113 958 94.143 351.226 462.798
3771 0 68.5676 17.7197 1215 88.1514 352.514 466.72
3772 0 70.3955 11.7763 829 96.5018 350.403 460.345
3773 0 73.0655 16.7521 1224 90.2157 351.397 464.288
3774 0 74.3598 12.1302 902 94.4135 350.105 467.194
3775 0 77.3226 12.8423 993 97.6747 350.119 457.225
3776 0 80.2896 11.4959 923 99.4366 348.564 454.511
3777 0 83.308 14.4404 1203 95.3766 348.214 459.08
3778 0 85.4084 13.8511 1183 96.3018 348.309 456.467
3779 0 90.3658 15.5479 1405 94.6157 346.969 453.184
3780 0 94.3398 14.734 1390 95.8158 347.554 453.57
3781 0 95.6664 13.338 1276 97.8495 346.052 445.094
3782 0 102.503 9.58022 982 99.001 346.463 451.569
3783 0 101.413 13.4993 1369 97.5135 347.118 439.383
3784 0 106.437 16.6013 1767 94.5314 345.131 447.814
3785 1 159.971 21.1101 3377 91.0462 345.536 427.776
3786 1 55.2586 15.4908 856 96.4264 346.057 469.2
3787 0 55.233 12.4925 690 102.2 344.259 461.791
3788 0 60.4778 14.8815 900 97.3178 345.434 464.273
3789 0 62.3426 12.9767 809 100.546 346.389 461.476
3790 0 62.2862 15.1237 942 98.3811 346.26 457.012
3791 0 64.3956 15.8241 1019 97.947 345.6 452.232
3792 0 68.3794 15.6187 1068 97.8577 347.756 450.912
3793 0 72.2446 18.382 1328 93.6122 346.349 454.526
3794 0 76.3627 17.3776 1327 93.899 346.919 457.528
3795 0 73.1426 13.2891 972 101.225 348.1 454.244
3796 0 71.457 14.3163 1023 101.543 348.214 450.088
3797 0 81.3711 18.729 1524 93.9987 349.488 451.638
3798 0 80.3928 16.6308 1337 99.006 349.592 447.822
3799 0 86.8046 15.1144 1312 100.283 349.26 448.559
3800 0 87.5171 16.5225 1446 99.953 350.45 443.622
3801 0 86.2742 13.2716 1145 105.861 349.52 443.713
3802 0 92.3769 14.3759 1328 102.956 351.66 443.791
3803 0 98.2336 14.6589 1440 102.547 351.517 442.971
3804 0 95.3861 14.0796 1343 105.781 351.864 436.833
3805 1 51.2187 15.3069 784 99.7691 354.018 467.949
3806 0 51.1152 13.5381 692 104.918 351.955 466.916
3807 0 53.1243 14.419 766 103.885 349.948 469.119
3808 0 57.1841 16.3857 937 100.695 351.08 468.892
3809 0 57.058 12.3909 707 107.287 350.239 466.953
3810 0 59.1357 15.7604 932 101.333 350.503 471.776
3811 0 62.0821 17.9118 1112 100.159 350.44 470.358
3812 0 63.0716 12.9694 818 106.891 350.193 473.372
3813 0 67.1034 17.2272 1156 102.741 350.864 469.026
3814 0 69.0923 17.8891 1236 103.553 349.504 468.193
3815 0 70.0814 14.1407 991 108.811 348.871 471.45
3816 0 75.1187 19.1697 1440 102.476 348.353 468.018
3817 0 76.1456 16.1927 1233 107.41 349.583 469.14
3818 0 77.0878 16.8898 1302 107.669 348.895 462.189
3819 0 80.092 18.4912 1481 105.379 346.548 465.96
3820 0 86.3052 16.5923 1432 108.9 344.721 460.931
3821 0 86.1248 19.8085 1706 104.36 345.824 464.698
3822 0 85.0726 13.5179 1150 115.263 345.23 460.463
3823 0 91.0759 16.7113 1522 110.084 345.621 460.405
3824 0 93.1707 19.4374 1811 107.816 345 455.759
3825 0 100.268 16.4858 1653 111.246 344.252 450.577
3826 1 54.2036 13.2094 716 111.278 343.696 474.342
3827 0 51.1538 14.6812 751 112.708 344.868 468.897
3828 0 54.2072 16.1602 876 108.85 343.815 470.11
3829 0 55.2244 12.2772 678 110.836 344.266 470.941
3830 0 56.3387 15.3181 863 107.127 346.856 468.589
3831 0 56.3472 13.4168 756 109.267 345.754 468.373
3832 0 58.098 14.269 829 108.697 346.625 464.887
3833 0 61.1714 16.2494 994 107.146 347.077 460.002
3834 0 64.1953 15.9513 1024 106.922 346.846 460.322
3835 0 66.2986 13.6051 902 108.645 346.028 460.763
3836 0 68.4811 17.2164 1179 104.331 347.503 454.112
3837 0 71.216 12.1461 865 112.347 348.412 454.582
3838 0 72.4964 16.7181 1212 105.338 348.955 454.564
3839 0 77.7963 15.4249 1200 106.679 348.198 447.543
3840 0 75.345 11.8389 892 110.346 349.158 452.109
3841 0 78.3953 13.9677 1095 109.919 350.526 446.364
