time division length width area intensity CMx CMy
0 0 50.0706 11.6236 582 142.108 514.662 467.906
1 0 54.1328 15.0741 816 133.211 513.759 468.17
2 0 54.2635 12.9922 705 133.118 512.803 469.279
3 0 55.1194 12.8811 710 137.556 512.845 465.596
4 0 61.3413 16.5631 1016 124.787 512.118 463.7
5 0 61.1651 15.0086 918 127.919 511.422 463.017
6 0 63.149 15.6772 990 127.768 510.081 462.66
7 0 66.2184 15.7811 1045 131.247 509.797 462.696
8 0 66.2962 15.4911 1027 128.521 510.189 459.748
9 0 71.3324 16.36 1167 128.803 507.407 460.148
10 1 37.0492 14.2783 529 131.777 507.081 476.166
11 0 40.0826 13.6718 548 126.578 505.1 475.336
12 0 39.1946 13.4968 529 130.724 505.537 475.319
13 0 40.0206 15.7669 631 127.054 505.753 472.802
14 0 40.028 13.6904 548 133.783 505.613 470.6
15 0 43.0734 14.5101 625 124.427 505.968 471.142
16 0 42.11 14.5571 613 128.217 506.196 468.458
17 0 44.0825 14.4956 639 124.047 506.726 465.293
18 0 44.286 12.3064 545 124.877 506.917 467.363
19 0 44.286 12.4193 550 140.455 507.884 467.313
20 0 46.0841 14.2782 658 128.962 506.381 461.103
21 0 49.179 14.3761 707 126.406 507.525 458.673
22 0 50.3527 16.6029 836 124.365 507.06 457.403
23 0 53.082 14.4117 765 124.516 510.19 459.876
24 0 54.2455 15.946 865 124.644 508.279 456.528
25 0 54.241 14.6199 793 127.805 511.378 452.209
26 0 58.12 15.4164 896 124.65 510.946 453.121
27 0 61.1259 15.8198 967 122.824 512.071 453.451
28 0 64.1326 16.3411 1048 120.231 513.096 453.267
29 0 65.0703 12.8015 833 125.498 514.448 452.262
30 0 66.246 15.5632 1031 122.423 515.277 450.222
31 0 68.1101 16.1944 1103 122.412 515.783 449.418
32 0 69.1485 14.1001 975 125.408 516.511 448.815
33 0 74.263 16.9263 1257 121.533 517.611 447.614
34 0 77.1465 17.2788 1333 121.514 517.68 444.068
35 0 79.11 15.687 1241 127.605 518.699 443.529
36 0 80.2739 15.5094 1245 125.38 517.712 446.204
37 0 85.2787 16.8741 1439 122.386 519.803 442.054
38 0 87.186 15.4497 1347 123.095 518.408 440.885
39 1 45.0488 13.5409 610 121.136 519.307 464.11
40 0 45.1999 14.4027 651 115.344 519.541 468.114
41 0 49.074 13.0823 642 116.097 518.623 468.679
42 0 49.1189 13.9254 684 115.032 517.961 467.566
43 0 54.0547 14.9293 807 110.504 517.606 467.005
44 0 53.0984 14.0494 746 113.103 516.917 465.035
45 0 56.1442 16.422 922 119.15 516.108 466.222
46 0 57.1681 13.8364 791 140.576 515.078 467.597
47 0 58.0564 12.9701 753 131.78 514.567 468.384
48 0 61.2085 14.0993 863 129.192 513.904 464.467
49 0 64.0989 13.76 882 132.592 513.211 463.655
50 0 66.1758 15.0206 994 129.169 513.942 463.942
51 0 68.0485 14.0488 956 134.401 512.465 461.952
52 0 72.0635 14.3485 1034 132.456 510.511 461.601
53 0 74.1306 14.6094 1083 132.768 509.225 459.16
54 0 78.2583 17.4806 1368 126.374 509.859 458.906
55 0 81.2755 17.3238 1408 125.718 509.447 455.712
56 0 81.2477 14.0558 1142 132.927 508.786 452.175
57 0 86.2521 19.2575 1661 120.958 508.057 453.376
58 0 90.2778 15.4523 1395 127.655 507.969 449.338
59 0 91.3644 14.0536 1284 129.05 507.902 446.125
60 0 97.2453 17.0702 1660 121.25 508.705 444.192
61 0 98.2071 13.5326 1329 128.11 508.175 441.637
62 0 103.582 16.0646 1664 124.117 507.33 433.484
63 0 106.447 14.1103 1502 129.054 506.913 430.505
64 0 108.455 16.901 1833 123.968 507.379 430.372
65 0 115.776 20.4101 2363 117.538 507.978 427.771
66 1 59.1821 12.2334 724 127.046 507.225 454.496
67 0 58.0832 12.6887 737 125.828 510.293 453.521
68 0 62.2006 15.9484 992 119.815 511.226 451.835
69 0 63.2526 12.8374 812 125.406 511.08 453.462
70 0 65.1046 14.3154 932 123.072 512.18 451.41
71 0 69.2407 16.3199 1130 117.874 510.791 450.083
72 0 68.2649 11.7337 801 126.139 512.763 451.639
73 0 71.1139 11.798 839 124.927 512.822 447.706
74 0 75.1829 16.8123 1264 116.223 511.796 448.945
75 0 78.2143 13.1434 1028 121.384 512.617 446.384
76 0 80.2164 15.533 1246 116.228 513.045 448.144
77 1 43.2092 13.3999 579 114.478 511.299 462.76
78 0 46.1556 12.0895 558 114.934 512.005 464.306
79 0 46.1887 12.2541 566 111.5 512.761 462.853
80 0 50.0785 14.4573 724 113.441 514.988 465.347
81 0 50.1609 11.4033 572 118.717 514.631 466.159
82 0 49.0888 8.96334 440 122.259 513.702 464.889
83 0 52.2739 8.16852 427 122.719 513.433 465.974
84 0 56.2026 11.6543 655 116.02 513.603 468.322
85 0 57.1154 14.7071 840 112.117 513.361 466.467
86 0 57.2658 12.2936 704 117.469 513.496 466.108
87 0 58.178 11.568 673 119.013 512.79 464.53
88 0 61.2251 12.8215 785 117.169 512.222 462.868
89 0 64.0425 15.0369 963 113.093 512.274 461.712
90 0 65.1786 13.3786 872 115.287 511.472 462.842
91 0 69.0622 11.6562 805 116.158 511.28 465.681
92 0 70.063 14.7724 1035 112.107 511.803 463.305
93 0 72.0824 12.9158 931 114.612 511.189 465.368
94 0 75.1751 14.2334 1070 113.786 509.351 461.42
95 0 78.1556 13.793 1078 113.892 509.807 460.761
96 0 80.1998 10.823 868 118.218 506.217 456.568
97 1 41.3098 12.8057 529 109.456 509.087 478.586
98 0 44.0603 11.8701 523 109.182 508.382 477.172
99 0 44.1302 11.0355 487 111.836 507.417 473.764
100 0 44.4639 11.1326 495 109.947 507.489 475.721
101 0 47.021 13.7598 647 105.968 506.77 473.158
102 0 49.0528 12.1502 596 108.799 506.99 471.609
103 0 46.1692 11.4795 530 113.917 506.858 468.451
104 0 52.0816 17.2422 898 102.089 506.365 470.932
105 0 53.2284 15.1986 809 105.912 506.522 467.538
106 0 52.1716 10.2355 534 113.895 507.069 465.273
107 0 55.1381 13.9831 771 110.013 505.293 460.182
108 0 60.1272 9.18053 552 110.4 505.663 469.147
109 0 57.2719 12.9907 744 111.847 505.655 458.625
110 0 61.0902 13.39 818 110.098 506.482 456.664
111 0 62.1313 11.9746 744 111.614 507.612 457.784
112 0 65.1896 15.4012 1004 106.169 507.284 457.348
113 0 65.133 6.32552 412 117.061 509.007 461.828
114 0 68.1807 14.4762 987 108.471 509.76 452.94
115 0 68.1822 12.3346 841 112.989 509.999 451.327
116 0 70.0605 11.4472 802 113.852 510.086 451.138
117 0 76.0603 12.7267 968 112.825 511.616 448.839
118 0 77.1116 10.0504 775 114.61 512.715 451.44
119 0 81.1794 13.2792 1078 112.461 512.236 447.987
120 0 84.3055 14.9812 1263 109.817 513.488 445.293
121 0 85.2752 13.732 1171 112.945 513.159 446.608
122 0 88.1894 15.5121 1368 110.514 514.088 443.594
123 0 90.0967 12.3756 1115 116.659 513.645 443.932
124 1 52.1376 9.66673 504 117.524 514.887 466.113
125 0 54.1349 13.1154 710 114.455 514.592 462.682
126 0 56.2919 14.5492 819 110.363 513.435 461.681
127 0 57.2161 15.4677 885 108.957 513.052 460.956
128 0 56.0859 13.515 758 112.69 512.075 464.43
129 0 63.0685 13.3347 841 111.911 512.669 460.782
130 0 63.1294 10.629 671 116.376 511.179 465.057
131 0 63.1403 13.2245 835 112.257 514.489 463.302
132 0 65.1214 14.972 975 111.155 512.072 463.864
133 0 65.1778 11.4303 745 116.709 512.529 463.776
134 0 70.2355 15.505 1089 110.944 512.188 462.674
135 0 73.1182 14.4287 1055 112.054 512.073 462.376
136 0 76.2379 16.1075 1228 109.434 512.515 461.594
137 0 76.2484 14.1642 1080 113.504 509.917 454.751
138 0 78.1428 12.4388 972 114.644 511.336 462.621
139 0 81.1379 11.7331 952 115.432 509.217 461.094
140 0 84.2885 14.4266 1216 113.818 508.664 452.528
141 0 86.3098 13.915 1201 115.315 508.437 452.049
142 1 46.0673 12.091 557 113.732 508.849 474.566
143 0 46.0673 12.1995 562 143.706 508.856 474.632
144 0 49.1287 13.8819 682 112.019 507.491 470.037
145 0 49.1323 11.3774 559 112.299 506.903 471.236
146 0 52.1315 14.1757 739 110.264 506.558 465.713
147 0 53.1057 9.9801 530 115.411 505.789 467.862
148 0 56.1298 12.6492 710 111.927 505.551 465.056
149 0 58.0987 13.8902 807 109.912 505.682 464.4
150 0 57.1345 13.0044 743 113.209 503.649 461.503
151 0 61.1373 15.7187 961 108.052 504.723 459.342
152 0 60.1626 13.6131 819 112.099 505.295 455.382
153 0 63.0405 15.0697 950 109.758 504.359 456.051
154 0 65.2018 12.699 828 112.176 506.656 455.316
155 0 67.3559 13.5846 915 111.451 504.76 454.031
156 0 68.0625 13.1791 897 111.004 504.616 453.467
157 0 72.2056 11.9797 865 112.706 505.36 450.632
158 0 75.166 16.723 1257 106.86 505.761 443.59
159 0 78.1674 18.4604 1443 104.546 506.354 446.137
160 0 81.2322 17.2961 1405 106.09 507.592 447.677
161 0 84.1264 16.9031 1422 105.165 506.944 445.884
162 0 86.1421 15.2306 1312 106.918 509.4 446.344
163 0 87.2156 12.0506 1051 109.654 508.886 447.466
164 0 86.2284 8.89498 767 116.102 510.396 437.997
165 0 92.3982 13.5825 1255 108.971 510.132 445.921
166 1 50.0508 13.806 691 106.779 510.874 460.724
167 0 50.0508 13.8259 692 117.337 511.867 460.574
168 0 55.1326 11.1549 615 113.073 512.202 462.234
169 0 58.1054 13.7337 798 103.267 513.223 463.788
170 0 57.1004 12.154 694 105.16 513.151 466.245
171 0 60.0996 14.7256 885 105.592 514.527 464.464
172 0 61.2342 16.4614 1008 102.913 514.614 464.932
173 1 117.401 11.9846 1407 113.286 512.967 437.168
174 1 64.5884 13.6557 882 107.686 512.431 462.096
175 0 67.3487 13.0218 877 108.066 512.344 463.582
176 0 69.1218 13.8885 960 107.454 510.302 464.355
177 0 74.2447 13.8192 1026 104.887 511.892 467.174
178 0 75.3214 14.6439 1103 106.022 511.713 457.835
179 0 78.2148 13.8465 1083 106.62 509.913 464.025
180 0 81.4126 16.2874 1326 103.946 509.48 454.894
181 0 82.4272 12.6051 1039 111.029 508.667 456.084
182 0 86.2098 12.168 1049 109.852 507.713 456.602
183 0 88.2719 12.8693 1136 109.638 507.913 453.91
184 1 49.0989 11.9351 586 107.715 508.213 475.662
185 0 54.1347 17.6412 955 99.155 506.629 473.627
186 0 53.2498 12.3756 659 107.464 504.736 470.524
187 0 57.0635 14.5978 833 108.251 505.503 469.232
188 0 58.0844 13.6525 793 110.449 504.623 467.172
189 0 58.1156 16.9318 984 106.365 505.062 466.966
190 0 57.1921 12.4318 711 114.179 504.361 465.309
191 0 57.1613 13.6806 782 112.091 503.728 466.052
192 0 57.1613 13.7331 785 126.982 503.702 466.075
193 0 63.1315 17.1705 1084 106.576 503.314 460.731
194 0 66.1287 14.5625 963 110.027 504.729 457.485
195 0 68.1621 12.3236 840 113.396 504.581 456.948
196 0 69.1462 14.3609 993 111.55 504.599 453.115
197 0 71.1451 14.6461 1042 111.112 505.806 448.308
198 0 77.1887 18.0208 1391 105.055 506.398 449.024
199 0 76.1576 17.7133 1349 106.512 507.199 447.632
200 0 76.0971 12.5629 956 116.316 507.854 444.356
201 0 80.1696 15.2801 1225 111.899 507.642 445.199
202 0 83.2401 16.4824 1372 110.011 507.571 443.212
203 0 84.1942 11.8179 995 118.256 506.889 441.816
204 0 88.284 14.1588 1250 113.552 509.729 440.549
205 0 94.1809 11.9132 1122 117.191 510.209 437.995
206 0 93.1479 9.42587 878 148.637 511.273 442.74
207 0 93.1468 12.0026 1118 117.689 511.312 437.027
208 0 99.1283 11.591 1149 117.967 512.419 437.409
209 1 195.679 13.1798 2579 120.621 512.544 395.879
210 1 153.469 13.7162 2105 115.832 512.669 421.753
211 0 161.97 21.93 3552 105.371 511.481 416.284
212 0 169.577 15.3853 2609 111.24 511.282 412.676
213 1 115.616 11.9015 1376 113.999 510.073 434.182
214 1 59.3603 10.0235 595 112.573 508.82 464.568
215 0 66.1684 16.3069 1079 103.567 510.254 464.215
216 0 68.1893 17.774 1212 101.914 512.79 465.67
217 0 67.1339 14.3594 964 109.812 513.409 463.308
218 0 71.2 15.1545 1079 108.971 512.108 459.417
219 0 74.1224 10.9683 813 113.713 512.271 466.647
220 0 76.2493 10.9247 833 113.396 513.549 468.628
221 0 78.0663 15.3715 1200 110.769 511.651 456.715
222 0 80.2644 12.2221 981 115.192 511.516 460.538
223 0 84.3369 13.6121 1148 111.328 509.624 465.346
224 0 85.4293 15.0183 1283 111.015 508.025 462.794
225 1 47.2178 11.9658 565 111.235 506.405 479.715
226 0 49.5361 12.5565 622 110.04 504.516 477.963
227 0 45.5203 10.1274 461 107.967 504.644 470.72
228 0 45.0418 11.4116 514 108.827 501.191 475.827
229 0 50.0318 14.6906 735 101.845 500.497 478.725
230 0 50.1514 11.904 597 108.111 499.936 473.735
231 0 50.1013 12.3949 621 107.567 500.093 475.596
232 0 52.1022 16.1605 842 102.947 499.587 474.852
233 0 55.259 14.043 776 105.84 499.42 470.821
234 0 55.2225 16.3701 904 104.188 499.791 469.665
235 0 58.0944 12.3936 720 109.514 501.762 467.429
236 0 59.0884 14.656 866 106.382 502.199 466.304
237 0 58.1778 10.3992 605 112.357 501.66 463.408
238 0 61.1728 12.8162 784 107.131 501.079 463.76
239 0 60.0495 7.21071 433 114.21 502.148 465.261
240 0 63.4807 12.9961 825 108.061 500.549 459.598
241 0 67.3702 13.8637 934 105.63 502.374 461.1
242 0 70.4025 14.7438 1038 106.685 502.735 454.052
243 0 73.3381 13.6627 1002 108.066 502.147 452.483
244 0 75.436 14.1975 1071 105.885 503.056 456.159
245 0 79.3435 14.0906 1118 107.273 502.991 452.149
246 0 80.5307 17.2481 1389 104.544 504.667 447.735
247 0 84.2952 12.0054 1012 110.805 503.707 447.207
248 1 44.0629 12.6183 556 107.38 504.543 465.374
249 0 42.0552 14.8852 626 116.981 505.835 465.013
250 0 47.0853 16.4382 774 102.836 503.761 461.269
251 0 49.3921 10.2243 505 110.952 505.548 465.378
252 0 49.2624 11.2865 556 109.468 506.63 465.518
253 0 53.4399 12.1819 651 107.531 507.608 464.975
254 0 54.1306 13.0425 706 106.833 508.803 460.234
255 0 51.4173 13.089 673 108.171 507.297 468.013
256 0 52.1968 9.02355 471 113.435 508.518 468.408
257 0 56.2124 15.139 851 106.624 509.266 463.563
258 0 58.5155 18.2345 1067 101.035 508.948 470.071
259 0 59.3228 13.0641 775 109.741 509.066 466.465
260 0 61.2227 11.1723 684 112.01 508.936 468.624
261 0 62.17 10.407 647 112.895 507.138 471.6
262 0 67.1391 13.8072 927 110.196 507.95 465.629
263 0 70.3621 20.1245 1416 101.347 507.492 468.507
264 0 70.2503 12.6832 891 113.669 505.569 464.875
265 0 76.4805 13.559 1037 111.218 507.409 463.098
266 1 42.0262 14.7765 621 106.267 505.509 481.25
267 0 40.0837 14.0456 563 107.972 506.277 480.33
268 0 44.3598 11.6321 516 109.459 504.837 479.95
269 0 42.4224 13.342 566 106.825 504.399 479.774
270 0 42.2152 10.7544 454 109.778 502.793 481.518
271 0 43.2298 14.3651 621 106.76 502.868 475.862
272 0 47.4846 16.1947 769 102.791 501.304 475.137
273 0 47.2946 12.0944 572 110.507 502.404 474.458
274 0 49.4209 14.0224 693 106.336 501.602 474.228
275 0 50.2922 13.8192 695 107.106 501.227 474.252
276 0 50.3388 11.3233 570 109.879 500.277 475.686
277 0 51.3448 12.0947 621 110.91 500.601 470.296
278 0 53.3639 14.8415 792 107.576 500.823 468.224
279 0 54.1912 10.6106 575 112.828 499.843 468.537
280 0 59.4642 17.994 1070 103.248 500.741 459.891
281 0 60.4267 14.8444 897 107.095 498.978 462.536
282 0 61.1936 16.603 1016 106.543 500.698 459.176
283 0 62.1761 15.3435 954 107.943 501.242 462.125
284 0 62.2766 11.3044 704 114.868 501.254 461.207
285 0 63.2668 10.5426 667 116.78 500.871 459.135
286 0 67.3568 13.7477 926 110.938 501.943 455.447
287 0 70.2463 12.7266 894 111.331 502.964 454.603
288 0 72.1881 13.9774 1009 110.839 504.442 452.329
289 0 73.5049 11.4414 841 112.922 504.485 456.628
290 0 77.211 18.1192 1399 106.813 505.838 447.359
291 0 81.2434 14.0935 1145 112.867 506.223 442.836
292 0 83.5353 14.868 1242 109.45 508.313 444.46
293 1 44.3722 15.1671 673 111.416 508.55 462.945
294 0 46.3959 14.7427 684 109.254 509.69 463.541
295 0 48.2237 13.6655 659 110.786 509.577 462.431
296 0 47.3741 15.2404 722 109.514 510.251 461.485
297 0 47.3848 15.1948 720 120.838 510.251 461.547
298 0 52.164 16.0072 835 107.308 510.412 464.862
299 0 55.2594 14.1514 782 110.403 511.858 465.023
300 0 55.2672 14.6561 810 110.168 512.798 462.762
301 0 57.1997 12.8672 736 112.213 511.674 468.656
302 0 58.2955 17.4628 1018 105.745 511.666 467.175
303 0 60.2455 12.3495 744 112.751 511.726 466.552
304 0 61.2868 12.1723 746 114.166 511.287 465.009
305 0 64.4722 15.7122 1013 107.509 510.574 467.587
306 0 67.2928 16.8963 1137 104.18 510.686 469.479
307 0 69.2636 14.8563 1029 111.381 509.312 463.255
308 0 74.3254 12.9969 966 112.606 510.706 463.093
309 0 74.8073 13.3008 995 113.392 509.591 461.865
310 0 79.3977 15.5546 1235 109.747 509.401 460.732
311 0 79.8182 12.6287 1008 115.69 508.984 455.638
312 0 85.4522 15.4121 1317 110.08 508.071 459.187
313 0 86.3195 18.6401 1609 107.132 507.635 454.206
314 0 91.6823 12.3034 1128 114.965 507.762 453.797
315 0 96.5527 13.7541 1328 112.356 506.404 452.929
316 1 50.1401 13.6817 686 111.233 506.341 470.679
317 0 50.5321 14.9014 753 110.448 504.794 466.268
318 0 51.1654 16.046 821 108.513 503.817 466.14
319 0 52.2479 11.7708 615 115.21 504.233 464.88
320 0 56.2097 15.9403 896 109.459 503.463 461.652
321 0 56.2097 15.9759 898 128.811 502.458 461.696
322 0 62.4427 15.5663 972 107.221 503.576 463.512
323 0 60.2699 18.9813 1144 105.04 502.915 456.258
324 0 63.2777 12.5795 796 112.276 503.206 459.088
325 0 66.3689 17.011 1129 108.071 503.507 453.557
326 0 66.5562 13.5825 904 113.777 504.621 452.247
327 0 69.2178 13.8982 962 116.298 504.891 448.019
328 0 72.2542 12.456 900 117.366 504.68 448.401
329 0 76.1304 16.2222 1235 112.69 505.062 448.263
330 0 77.3716 14.398 1114 116.847 505.059 445.203
331 0 78.2365 13.702 1072 117.346 506.223 442.341
332 0 82.4477 13.9604 1151 116.699 506.891 443.421
333 0 83.6902 11.8413 991 120.729 507.049 440.743
334 0 87.4163 14.288 1249 117.75 507.597 435.255
335 0 92.4115 13.1261 1213 122.462 508.176 436.905
336 0 93.5763 14.8862 1393 121.72 508.506 433.966
337 1 49.5294 13.5677 672 120.393 509.164 455.811
338 0 50.3319 13.709 690 119.838 508.767 457.726
339 0 53.5567 14.7507 790 118.032 511.062 455.425
340 0 57.4558 15.6468 899 114.107 511.832 458.156
341 0 59.1783 15.1576 897 114.347 511.65 459.871
342 0 60.2616 12.4457 750 119.129 511.431 457.777
343 0 62.4745 12.5171 782 118.922 511.35 457.133
344 0 64.8586 13.4909 875 116.834 512.959 456.856
345 0 66.8306 14.7537 986 114.341 512.88 456.88
346 0 71.9542 13.7032 986 115.814 512.006 455.601
347 0 76.6088 14.1498 1084 114.865 512.672 453.752
348 0 76.5976 14.2955 1095 115.855 513.041 452.418
349 0 81.3984 14.1772 1154 118.124 512.006 452.341
350 0 83.7428 15.4043 1290 117.724 510.919 449.219
351 0 87.5651 16.1822 1417 115.291 510.74 451.184
352 0 91.7424 18.2468 1674 111.619 511.257 452.274
353 0 93.5026 18.7481 1753 112.851 511.118 445.393
354 0 98.765 12.0589 1191 120.828 510.829 448.28
355 0 98.765 12.0285 1188 155.54 509.83 448.137
356 0 104.514 14.9454 1562 118.831 507.703 441.853
357 1 51.4682 12.7263 655 116.447 507.368 466.58
358 0 56.4245 15.0821 851 110.367 508.719 469.945
359 0 57.0853 14.2418 813 113.171 506.78 466.922
360 0 61.5374 13.1627 810 116.73 506.417 467.954
361 0 60.4774 14.7493 892 114.086 506.955 463.186
362 0 62.2499 11.4378 712 118.499 506.729 462.476
363 0 65.2031 13.9411 909 114.652 506.59 463.505
364 0 67.3976 15.3121 1032 113.382 505.077 460.09
365 0 69.3436 14.1037 978 117.504 504.923 454.138
366 0 71.4681 12.2712 877 119.412 505.682 452.767
367 0 74.7519 20.2135 1511 108.256 504.952 449.377
368 0 77.9226 12.8333 1000 119.066 504.922 448.037
369 0 79.0648 15.228 1204 116.703 505.237 441.72
370 0 85.7296 20.8329 1786 106.984 504.865 443.686
371 0 84.9262 14.1299 1200 118.119 504.868 440.278
372 0 91.4701 14.7043 1345 117.088 506.37 438.73
373 0 92.6169 15.0404 1393 115.497 507.238 434.094
374 0 95.2509 14.2361 1356 116.803 508.208 435.359
375 1 49.4646 15.8497 784 111.078 506.477 457.023
376 0 51.17 13.1522 673 118.316 508.941 451.933
377 0 54.408 11.8733 646 120.711 507.435 456.3
378 0 54.408 11.91 648 142.069 507.415 456.296
379 0 55.1197 14.8586 819 118.186 511.933 453.956
380 0 59.3275 19.6368 1165 110.012 510.845 455.105
381 0 63.3128 14.3099 906 118.489 510.694 450.724
382 0 63.3176 13.8034 874 118.251 512.283 451.621
383 0 63.5531 11.5494 734 124.015 511.971 450.011
384 0 67.5472 15.293 1033 117.465 512.723 451.105
385 0 70.2006 15.6266 1097 116.064 512.088 451.954
386 0 75.4439 14.6201 1103 117.658 513.425 450.786
387 0 74.9051 14.4049 1079 120.131 513.488 449.696
388 0 77.6917 13.9011 1080 122.094 514.11 449.676
389 0 77.6917 13.8625 1077 149.016 515.1 449.639
390 0 82.9431 16.6017 1377 119.339 513.636 448.781
391 0 86.5216 19.186 1660 114.567 513.533 451.374
392 0 86.741 16.1054 1397 122.535 514.178 444.412
393 0 91.5917 16.0604 1471 121.568 512.64 444.8
394 0 95.2818 14.4938 1381 122.828 511.007 450.403
395 0 99.6529 16.9488 1689 120.255 510.932 444.711
396 0 101.895 17.5965 1793 119.018 511.84 444.894
397 1 52.2115 14.9584 781 118.654 510.903 468.213
398 0 53.2303 12.4741 664 122.52 509.538 466.861
399 0 56.4553 16.3138 921 118.726 508.764 464.738
400 0 58.2445 13.409 781 122.405 507.969 464.548
401 0 58.2445 13.3575 778 152.334 506.982 464.521
402 0 61.4162 13.7911 847 121.584 507.824 462.701
403 0 64.8818 16.1524 1048 116.656 507.004 458.27
404 0 64.4804 14.361 926 119.891 507.038 456.859
405 0 67.4616 13.0889 883 122.857 506.42 455.872
406 0 69.4572 12.972 901 123.293 505.646 454.041
407 0 74.0452 15.6121 1156 119.74 505.356 451.619
408 0 74.0452 15.6391 1158 148.51 505.358 451.562
409 0 79.6396 17.1648 1367 117.151 502.768 449.999
410 0 80.5056 17.2534 1389 119.513 504.644 445.405
411 0 83.4241 15.4032 1285 124.41 502.921 440.175
412 0 85.323 18.7992 1604 118.041 502.948 439.889
413 0 89.8421 15.0598 1353 124.357 503.43 439.497
414 0 92.6832 19.8094 1836 116.592 503.605 437.118
415 0 93.6256 17.068 1598 121.927 504.265 435.329
416 0 96.7684 15.842 1533 124.547 504.396 434.071
417 0 101.48 17.1955 1745 122.001 505.535 429.953
418 0 104.687 15.8472 1659 123.244 506.78 430.13
419 0 108.882 20.5452 2237 116.798 507.574 423.658
420 0 111.359 16.4064 1827 122.441 507.244 427.085
421 0 115.468 16.6972 1928 122.075 507.451 423.034
422 0 122.534 17.7584 2176 120.767 509.738 417.837
423 1 65.2667 11.3074 738 121.928 509.228 448.054
424 0 68.5484 13.144 901 119.613 510.71 443.203
425 0 72.8029 13.7769 1003 116.322 512.255 445.613
426 0 73.5238 13.873 1020 112.121 514.065 442.009
427 0 77.1672 14.9157 1151 110.733 513.136 448.143
428 0 79.3849 12.3575 981 114.375 512.523 448.298
429 0 82.3665 13.3671 1101 113.695 513.839 444.321
430 0 84.1234 11.3167 952 118.384 514.172 442.841
431 0 88.2636 10.6499 940 118.198 514.99 447.358
432 0 89.2169 13.5288 1207 114.929 514.254 446.936
433 0 95.3117 13.6395 1300 115.741 513.832 443.852
434 0 97.587 11.7434 1146 119.221 513.714 441.246
435 0 102.23 15.0935 1543 113.259 513.033 441.631
436 0 105.423 13.3746 1410 114.711 513.206 443.056
437 0 109.467 10.4049 1139 119.809 512.63 440.831
438 0 116.791 12.9805 1516 113.711 513.353 441.473
439 1 71.7409 11.667 837 102.781 513.07 465.657
440 0 68.386 12.4441 851 107.685 512.568 465.074
441 0 72.4216 12.9934 941 104.753 511.673 461.862
442 0 74.2835 12.0619 896 105.015 510.169 461.879
443 0 75.4624 13.8877 1048 102.634 510.408 456.592
444 0 77.2802 9.51085 735 115.412 508.346 460.456
445 0 82.5111 13.077 1079 110.361 508 454.123
446 0 83.4091 11.7134 977 111.508 506.521 454.814
447 0 85.5066 9.42617 806 113.921 506.576 450.303
448 0 87.3198 12.1049 1057 110.657 505.95 446.324
449 0 90.1367 10.2844 927 112.368 505.988 442.996
450 0 93.4925 10.5249 984 111.534 504.941 446.167
451 0 98.1421 10.872 1067 111.004 504.247 440.4
452 0 95.2472 10.0055 953 112.001 504.184 439.937
453 0 102.493 9.62013 986 111.974 504.098 437.265
454 0 109.394 10.9146 1194 110.337 504.812 435.693
455 1 61.1382 12.5453 767 103.207 503.147 461.143
456 0 60.0804 7.62311 458 110.063 504.542 457.699
457 0 63.4392 8.51208 540 104.807 505.781 461.496
458 0 64.3222 11.3647 731 103.766 504.532 454.999
459 0 67.3301 8.89647 599 106.254 505.114 449.92
460 0 69.5324 12.9724 902 110.742 505.963 448.835
461 0 71.7057 12.105 868 110.332 507.136 450.662
462 0 69.8382 8.69152 607 114.863 507.624 446.799
463 0 72.7371 11.2597 819 108.073 507.474 453.995
464 1 146.302 7.68956 1125 116.234 508.257 418.557
465 0 152.641 9.51908 1453 112.246 509.083 420.911
466 0 153.798 10.2927 1583 114.138 508.359 407.696
467 0 160.924 10.6075 1707 113.289 508.948 408.825
468 0 160.924 10.7131 1724 125.487 509.942 408.995
469 1 233.678 7.41619 1733 115.291 509.416 407.546
470 0 236.438 11.6436 2753 110.405 510.6 397.583
471 0 233.037 3.57024 832 116.452 510.995 425.09
472 1 54.2798 12.3066 668 99.1542 511.183 470.611
473 0 52.1478 12.8673 671 100.496 510.745 465.002
474 0 53.2998 10.3753 553 104.58 510.752 465.808
475 0 54.248 5.8251 316 112.335 512.171 474.81
476 0 57.2823 8.78107 503 104.986 512.219 474.048
477 0 58.8326 14.8897 876 99.6632 511.266 468.404
478 0 60.4427 12.3092 744 103.429 510.685 472.028
479 0 60.4627 8.18687 495 109.289 509.685 469.826
480 0 65.3252 8.52657 557 108.946 508.93 475.332
481 0 66.1282 7.71229 510 106.057 508.467 482.012
482 0 65.4575 10.1593 665 106.537 508.286 474.463
483 0 70.3931 7.98374 562 109.6 506.795 475.742
484 0 72.3494 13.9186 1007 103.321 505.054 471.371
485 0 72.3016 13.9416 1008 104.597 505.236 468.487
486 0 77.3764 8.33587 645 109.453 504.245 475.457
487 0 80.3535 14.7847 1188 102.606 503.822 470.671
488 0 78.5874 11.7831 926 108.571 503.689 467.401
489 0 82.4935 13.7223 1132 106.354 502.117 460.642
490 0 86.4541 14.4354 1248 106.288 502.585 455.789
491 0 91.4431 16.6005 1518 103.747 502.688 459.468
492 0 94.5879 18.755 1774 101.659 501.455 455.558
493 0 96.6188 15.3179 1480 106.604 501.432 452.495
494 1 49.0573 8.78565 431 112.03 502.891 473.566
495 0 52.1879 9.44663 493 108.047 502.391 475.637
496 0 56.172 19.4047 1090 95.8495 500.904 474.915
497 0 51.1307 9.54417 488 112.645 499.191 472.811
498 0 55.0911 9.38446 517 112.402 497.576 471.905
499 0 56.1255 10.9041 612 112.307 495.676 466.139
500 0 58.1956 11.427 665 109.614 496.442 465.513
501 0 60.1323 12.1732 732 109.21 496.753 461.701
502 0 57.2418 9.64331 552 115.415 497.386 460.14
503 0 63.1541 13.0158 822 108.373 498.128 461.669
504 0 63.1754 12.2833 776 110.728 499.799 456.903
505 0 60.201 9.58456 577 114.196 499.409 460.754
506 0 67.1633 12.5366 842 111.324 501.382 456.48
507 0 66.2305 9.31595 617 114.486 503.032 461.812
508 0 71.0913 11.647 828 108.617 502.434 456.552
509 0 75.3091 10.4635 788 112.013 503.043 453.879
510 0 79.2244 11.4232 905 110.686 504.355 451.735
511 0 78.3224 8.19689 642 115.371 505.044 448.656
512 0 86.4465 17.3633 1501 100.133 505.955 455.913
513 0 85.252 9.36048 798 113.961 506.934 449.544
514 1 44.0252 10.3804 457 111.081 505.696 470.059
515 0 48.0936 10.8746 523 110.547 506.656 469.388
516 0 48.1287 12.3835 596 109.081 508.611 470.661
517 0 48.0669 9.6324 463 111.631 508.68 474.309
518 0 53.3417 14.1165 753 104.567 512.41 471.482
519 0 55.2154 13.9635 771 106.802 512.258 470.56
520 0 52.169 13.1496 686 116.087 510.27 471.421
521 0 54.2538 12.7917 694 116.584 510.056 473
522 0 58.1906 11.7029 681 116.824 509.151 475.927
523 0 57.0294 10.6787 609 119.099 510.261 473.65
524 0 61.2828 13.7559 843 109.587 509.063 478.958
525 0 60.1711 14.6582 882 111.316 507.949 475.984
526 0 63.2473 12.965 820 114.144 506.84 475.955
527 0 64.0618 10.8801 697 119.034 507.122 474.439
528 0 67.1894 13.5438 910 114.763 507.075 471.116
529 0 70.2973 13.6847 962 114.631 506.553 468.779
530 0 68.1917 11.3504 774 119.845 505.039 465.973
531 0 73.2754 15.4486 1132 111.993 503.115 467.066
532 0 73.2775 10.5762 775 120.199 502.494 468.381
533 0 76.3461 13.059 997 116.177 500.854 463.189
534 0 78.4077 12.3202 966 116.3 500.675 464.815
535 0 80.403 13.6811 1100 115.491 500.425 456.281
536 0 84.5064 17.1466 1449 108.304 499.992 461.046
537 0 89.3702 13.0916 1170 113.629 499.591 458.117
538 1 42.1624 10.6493 449 114.169 497.223 476.459
539 0 47.1058 13.3741 630 106.071 498.164 477.514
540 0 47.1832 12.4197 586 108.529 496.86 473.447
541 0 48.1453 13.0023 626 109.158 496.474 472.901
542 0 52.4187 13.2396 694 107.748 496.991 472.308
543 0 50.0441 12.6089 631 110.916 497.328 469.932
544 0 54.14 14.6842 795 107.121 498.27 464.819
545 0 53.1359 16.2225 862 106.872 499.661 467.72
546 0 60.4802 15.7076 950 104.858 499.608 465.343
547 0 57.165 12.1578 695 111.999 499.597 464.19
548 0 59.321 12.9297 767 109.701 500.555 463.242
549 0 61.1968 14.2981 875 107.538 500.654 461.821
550 0 63.1655 12.1585 768 110.198 501.064 460.52
551 0 64.2475 11.5491 742 111.433 502.152 458.639
552 0 65.2368 12.0024 783 111.165 503.012 459.912
553 0 68.1806 13.3909 913 108.49 503.729 455.748
554 0 69.0992 15.6442 1081 105.619 504.656 457.698
555 0 73.1714 14.5139 1062 105.655 504.488 455.841
556 0 74.4725 14.1663 1055 108.437 506.92 457.549
557 0 76.5656 10.8796 833 113.646 508.376 455.036
558 0 78.4292 11.8833 932 112.59 508.742 454.661
559 0 82.3448 12.7513 1050 110.814 509.489 456.117
560 0 82.5022 13.7572 1135 110.828 508.765 454.485
561 0 84.5822 12.0593 1020 113.399 509.617 454.521
562 0 90.3375 11.9994 1084 111.756 508.424 455.896
563 1 48.1029 12.203 587 105.991 509.671 476.143
564 0 48.0209 13.9314 669 102.855 509.052 475.969
565 0 52.0931 12.9576 675 104.837 508.393 476.467
566 0 50.2977 9.9607 501 108.679 505.329 474.461
567 0 55.3502 15.8988 880 96.8943 505.136 480.566
568 0 55.1627 11.1851 617 105.011 505.348 477.214
569 0 57.1093 12.0821 690 102.503 504.135 479.854
570 0 58.1051 11.8234 687 104.234 504.135 474.721
571 0 60.0801 17.4267 1047 97.8224 503.866 474.111
572 0 62.1244 14.1651 880 100.01 501.881 472.567
573 0 66.1232 15.9248 1053 97.9174 501.523 471.045
574 0 68.3669 12.4768 853 102.056 500.905 472.063
575 0 69.2938 14.6189 1013 100.462 500.397 467.56
576 0 72.2579 13.0366 942 101.723 499.389 467.496
577 0 76.2198 18.5123 1411 95.1722 499.777 467.061
578 0 78.4288 12.8652 1009 101.221 499.717 465.78
579 0 77.1627 12.7782 986 102.364 499.412 464.213
580 0 83.4099 12.1688 1015 103.758 500.66 455.627
581 1 40.4419 9.96491 403 105.342 497.752 475.578
582 0 45.1008 14.1461 638 104.44 501.224 477.321
583 0 45.1008 14.1017 636 114.991 502.239 477.34
584 0 46.1748 13.947 644 105.966 502.912 474.382
585 0 46.1759 13.0371 602 108.973 502.736 470.204
586 0 46.2254 11.8117 546 110.244 503.216 470.064
587 0 49.098 11.0188 541 110.732 504.118 467.277
588 0 51.1323 15.6457 800 102.659 504.504 470.078
589 0 50.1535 11.4449 574 110.815 504.476 467.713
590 0 53.0514 12.3277 654 109.482 504.011 465.713
591 0 56.1303 17.7266 995 101.869 503.735 463.226
592 0 58.1339 14.6214 850 105.358 506.069 465.991
593 0 55.0773 12.2737 676 145.725 508.334 463.275
594 0 63.2129 15.2817 966 105.271 506.509 458.423
595 0 63.1465 12.4789 788 109.824 507.444 459.231
596 0 63.1639 15.2144 961 105.955 506.748 461.338
597 0 66.1848 16.3784 1084 103.589 508.604 462.634
598 0 68.5944 17.7857 1220 103.231 508.993 459.316
599 0 70.1212 13.5622 951 108.289 509.132 460.198
600 0 74.1458 14.4445 1071 106.965 509.43 460.485
601 0 74.0928 14.5628 1079 108.449 510.169 456.593
602 0 74.1815 12.0111 891 112.758 510.43 456.866
603 0 76.2019 15.3015 1166 108.38 510.247 458.485
604 0 83.1808 16.4341 1367 105.142 510.053 459.113
605 0 83.1823 14.919 1241 108.658 510.461 454.719
606 0 87.2629 15.5392 1356 107.576 510.239 455.937
607 0 89.4501 14.3544 1284 109.588 508.868 456.316
608 0 92.2612 15.2068 1403 108.391 509.038 457.009
609 0 91.2773 12.4346 1135 113.705 508.628 452.44
610 0 98.4279 14.9856 1475 108.875 507.801 458.035
611 0 102.356 16.003 1638 108.43 506.96 451.648
612 1 52.0598 9.83484 512 112.719 509.711 478.166
613 0 55.2298 10.8999 602 110.894 508.319 475.532
614 0 57.155 11.1451 637 107.67 507.416 477.166
615 0 59.4089 14.1561 841 105.757 505.606 473.866
616 0 60.1612 13.3641 804 106.189 505.748 470.751
617 0 59.1069 13.6532 807 104.685 504.389 473.099
618 0 59.1069 13.6701 808 119.611 503.416 473.212
619 0 69.3006 13.0735 906 103.955 503.115 470.342
620 0 71.081 10.7202 762 106.301 503.247 471.041
621 0 71.1391 15.8281 1126 101.489 503.437 464.482
622 0 72.3342 14.0459 1016 104.099 502.181 463.909
623 0 76.2526 21.4944 1639 95.5741 501.313 459.21
624 0 77.1801 14.8614 1147 104.313 501.643 456.174
625 0 80.2005 15.162 1216 104.128 501.419 453.91
626 0 82.2918 12.8567 1058 107.872 502.518 454.091
627 0 90.3711 13.2233 1195 105.69 501.557 456.29
628 0 89.16 14.5357 1296 106.606 502.03 450.32
629 0 92.2562 13.8636 1279 107.38 501.998 449.98
630 0 92.2562 13.972 1289 144.758 503.009 450.04
631 1 52.0724 17.1684 894 102.094 502.311 464.809
632 0 52.4016 13.5492 710 106.201 504.424 465.479
633 0 53.0792 13.753 730 104.104 503.095 466.348
634 0 56.1039 16.5051 926 100.308 504.118 464.585
635 0 54.1867 12.623 684 106.197 505.032 465.405
636 0 55.0683 12.2938 677 108.238 505.708 461.962
637 0 60.125 14.1539 851 105.383 506.331 460.64
638 0 63.0908 14.804 934 103.855 507.252 461.716
639 0 62.1508 11.5204 716 108.962 507.982 462.469
640 0 66.1593 9.06902 600 110.99 508.838 465.103
641 0 67.1266 16.1039 1081 103.377 508.314 457.427
642 1 137.272 15.7935 2168 104.66 509.727 430.553
643 1 71.2436 16.0014 1140 104.425 509.656 457.779
644 0 73.225 15.35 1124 105.231 509.63 460.004
645 0 78.2411 16.4492 1287 104.804 509.437 457.47
646 0 78.2635 17.6711 1383 103.643 508.978 458.106
647 0 80.1864 13.3439 1070 110.017 509.464 454.85
648 0 84.3082 12.5136 1055 111.099 509.876 455.25
649 0 85.24 13.6204 1161 110.014 508.886 458.741
650 0 88.2255 14.6443 1292 109.098 508.703 454.95
651 1 48.1562 11.9818 577 111.867 508.997 474.676
652 0 46.7273 10.9572 512 114.088 508.674 476.066
653 0 51.2185 13.706 702 106.511 506.201 480.254
654 0 52.1503 11.7545 613 113.85 505.385 474.051
655 0 53.1481 11.4021 606 112.063 503.949 480.228
656 0 57.1801 13.1514 752 110.93 504.324 477.481
657 0 56.1639 13.0333 732 112.608 503.721 475.93
658 0 58.0733 12.7081 738 113.589 502.469 470.306
659 0 60.1756 14.5075 873 110.922 502.926 471.982
660 0 63.1783 13.7864 871 108.979 500.843 474.573
661 0 64.1474 13.8899 891 110.915 500.505 469.14
662 0 65.1543 11.8181 770 114.69 500.881 470.566
663 0 67.1029 13.7699 924 110.903 500.734 470.719
664 0 71.1389 16.4326 1169 109.104 499.908 465.186
665 0 72.1366 15.5954 1125 109.348 500.095 465.106
666 0 73.0962 15.4044 1126 111.852 499.227 461.266
667 0 76.212 12.6621 965 116.911 499.146 459.841
668 0 80.1339 15.5739 1248 110.51 498.138 456.332
669 0 81.1646 13.3309 1082 114.848 498.571 455.763
670 1 43.0676 11.0756 477 112.847 499.478 474.396
671 0 46.0656 12.0046 553 113.91 498.926 471.425
672 0 45.1682 12.2653 554 111.942 499.061 468.437
673 0 46.2464 12.3253 570 114.937 499.36 469.921
674 0 49.0984 14.0127 688 112.988 500.06 466.933
675 0 49.0898 13.2818 652 115.189 500.65 468.842
676 0 51.1513 11.8668 607 118.353 500.901 467.595
677 0 49.1104 11.2807 554 121.231 501.572 465.691
678 0 54.0951 13.0141 704 116.435 502.003 466.705
679 0 56.0816 12.2857 689 119.183 503.11 466.036
680 0 57.1756 14.7265 842 117.233 504.561 462.248
681 0 59.0301 13.383 790 121.249 504.954 461.195
682 0 59.0637 12.0379 711 124.383 505.166 462.454
683 0 63.1208 13.7514 868 121.581 505.168 460.243
684 0 64.2149 13.8909 892 121.161 506.435 461.707
685 0 69.1649 13.0847 905 121.982 507.468 462.302
686 0 68.1645 13.4821 919 123.222 508.523 460.964
687 0 70.183 14.106 990 122.043 507.086 461.672
688 0 74.1221 13.3833 992 122.214 507.747 462.862
689 0 75.1187 14.4704 1087 120.809 507.612 461.483
690 0 79.2169 15.325 1214 117.593 508.148 462.813
691 0 81.1258 14.2371 1155 121.146 506.466 458.642
692 0 83.2491 14.811 1233 118.082 507.197 463.451
693 0 84.0534 13.0393 1096 123.261 507.052 458.293
694 0 86.0542 13.7588 1184 139.063 507.055 457.037
695 0 90.1968 14.4573 1304 120.524 506.843 460.295
696 0 95.2729 17.2977 1648 115.801 506.451 454.038
697 0 98.1236 13.9518 1369 121.06 504.652 454.942
698 0 100.497 12.1496 1221 124.599 505.102 454.731
699 0 103.382 12.5457 1297 124.301 503.951 451.918
700 0 105.456 12.2136 1288 124.267 504.802 449.794
701 0 109.374 11.4561 1253 123.49 503.973 452.626
702 1 56.2838 11.3176 637 115.931 501.951 479.063
703 0 58.3414 11.7069 683 111.65 502.523 472.079
704 0 61.1054 12.5684 768 109.378 500.91 472.835
705 0 62.1131 10.2394 636 113.577 499.253 471.134
706 0 63.092 10.9681 692 113.225 499.257 472.454
707 0 66.0981 13.1471 869 109.428 499.068 468.075
708 0 70.2053 12.5916 884 110.104 498.417 463.991
709 0 69.1112 13.6591 944 109.25 498.641 464.375
710 0 72.0826 10.7932 778 111.864 498.919 466.697
711 0 74.1384 11.1413 826 111.086 498.634 460.841
712 0 77.1382 12.873 993 108.475 498.649 457.525
713 0 83.1754 6.1196 509 115.955 497.362 463.79
714 0 80.1574 11.8517 950 110.707 499.902 451.285
715 0 86.4336 12.8769 1113 109.42 498.2 451.687
716 0 89.2616 12.7042 1134 108.746 499.757 450.599
717 0 90.139 9.99567 901 110.377 499.699 457.457
718 0 98.3538 14.6512 1441 106.334 500.801 445.654
719 1 51.0988 10.2351 523 113.782 501.101 467.954
720 0 54.201 10.867 589 113.503 501.613 467.282
721 0 54.1652 13.625 738 109.882 501.186 458.709
722 0 58.4346 15.9323 931 106.358 502.815 459.226
723 0 59.0702 15.9302 941 106.629 502.274 462.645
724 0 61.0684 13.1165 801 110.737 502.391 465.206
725 0 62.1784 12.8823 801 111.849 503.393 463.221
726 0 64.1391 14.3126 918 109.127 504.18 460.766
727 0 68.2952 12.607 861 114.796 505.38 461.806
728 0 71.3926 13.965 997 112.344 505.589 461.443
729 0 74.2509 14.1008 1047 112.857 506.235 459.676
730 0 76.3445 13.2426 1011 114.265 506.441 462.066
731 0 80.2325 14.3084 1148 112.115 506.952 460.887
732 0 81.3863 14.167 1153 113.833 506.415 459.871
733 0 88.5677 11.765 1042 116.215 507.357 461.05
734 0 87.2889 13.4496 1174 113.653 507.082 464.48
735 0 93.5073 16.4372 1537 109.442 506.653 461.306
736 0 96.1006 14.849 1427 112.231 509.577 457.885
737 1 48.1292 11.6561 561 115.979 509.251 479
738 0 53.0887 14.8243 787 107.474 509.164 479.463
739 0 53.1032 12.1838 647 113.41 508.091 477.179
740 0 54.09 12.6826 686 111.343 508.217 478.719
741 0 57.201 15.0697 862 111.081 507.558 476.244
742 0 60.0432 15.8719 953 110.423 508.3 477.626
743 0 61.1641 13.7172 839 115.092 506.757 474.865
744 0 61.0583 13.1514 803 116.664 505.925 475.548
745 0 63.1673 13.298 840 116.207 505.914 473.049
746 0 66.1389 15.664 1036 111.613 505.842 469.43
747 0 68.1412 15.4972 1056 111.246 504.199 469.987
748 0 70.1582 14.339 1006 114.315 504.99 468.4
749 0 74.1607 16.0867 1193 110.059 503.541 467.147
750 0 76.2755 14.7754 1127 114.414 503.746 462.948
751 0 79.0459 15.6871 1240 111.816 502.822 461.935
752 0 81.1594 14.7488 1197 113.899 502.54 458.899
753 0 83.2465 13.1898 1098 116.25 502.866 457.507
754 0 90.3971 16.7373 1513 110.237 503.466 451.796
755 0 93.5737 17.1629 1606 109.313 501.723 454.94
756 1 49.0708 11.7789 578 115.715 502.17 471.154
757 0 49.0717 11.31 555 117.346 503.252 469.939
758 0 51.1259 16.1562 826 108.788 503.134 469.633
759 0 50.5439 12.6029 637 116.097 503.036 462.934
760 0 55.1671 12.1812 672 114.887 503.728 465.912
761 0 57.0391 14.9722 854 110.049 504.607 465.211
762 0 57.0302 12.5372 715 114.631 504.857 465.169
763 0 58.0887 12.5498 729 114.97 506.406 463.185
764 0 62.091 14.6076 907 111.551 506.713 460.346
765 0 63.0687 13.6993 864 111.944 508.472 463.036
766 0 65.1316 15.9216 1037 108.475 507.794 458.353
767 0 66.1268 13.2019 873 112.745 508.386 458.028
768 0 71.21 17.2869 1231 105.986 508.248 457.85
769 0 70.0486 13.3193 933 111.909 509.884 459.449
770 0 74.154 13.4855 1000 108.969 510.584 461.839
771 0 78.1033 14.5961 1140 109.204 510.497 455.394
772 0 78.1513 14.3952 1125 110.028 509.971 455.154
773 0 78.1431 12.3875 968 113.39 510.865 454.106
774 0 83.2614 10.377 864 115.976 510.752 452.958
775 0 87.07 12.4727 1086 111.674 511.384 451.133
776 0 89.2731 12.389 1106 112.329 511.555 453.256
777 0 92.2374 12.6955 1171 112.237 510.998 452.889
778 0 95.1435 13.8422 1317 109.945 510.951 451.576
779 0 97.2113 13.6815 1330 110.292 510.774 452.716
780 1 50.0352 10.8324 542 108.913 510.937 473.039
781 0 52.1222 13.0271 679 105.753 509.903 476.442
782 0 54.2855 14.6816 797 104.439 509.035 475.824
783 0 56.0956 12.8887 723 108.885 509.775 477.643
784 0 56.1031 12.584 706 107.167 508.704 472.695
785 0 58.1262 15.9136 925 102.459 507.105 474.484
786 0 61.1698 12.4571 762 106.509 506.799 473.693
787 0 64.1762 14.6004 937 104.436 506.872 468.981
788 0 65.2552 15.1712 990 104.361 506.545 466.213
789 0 67.3318 17.2727 1163 101.655 505.661 466.452
790 0 67.3318 17.2727 1163 113.614 505.661 466.452
791 0 70.0833 12.7563 894 108.806 505.372 465.893
792 0 73.1403 17.6647 1292 102.526 504.252 457.731
793 0 74.1232 13.0189 965 110.144 505.154 461.362
794 0 77.1488 14.9322 1152 107.415 504.625 457.994
795 0 79.1514 17.1949 1361 105.602 503.417 453.701
796 0 82.0567 13.3444 1095 111.197 504.224 455.961
797 0 84.1698 12.653 1065 114.269 504.937 455.69
798 0 87.204 14.4604 1261 110.646 504.525 455.262
799 0 88.1584 14.6781 1294 110.827 503.072 452.213
800 0 90.3259 13.7281 1240 113.31 501.931 446.475
801 0 93.1924 14.1213 1316 113.091 503.345 444.441
802 0 95.128 12.993 1236 115.294 503.688 444.519
803 0 100.159 13.8978 1392 113.614 504.102 443.078
804 0 103.181 14.5085 1497 113.671 505.252 441.98
805 0 106.255 12.9218 1373 116.775 506.376 437.044
806 1 168.578 14.3969 2427 116.066 506.068 405.124
807 1 111.32 11.6511 1297 118.21 506.562 437.413
808 0 115.334 12.7977 1476 116.816 508.898 431.545
809 1 64.0683 13.3607 856 112.417 509.683 458.292
810 0 68.1278 13.4893 919 113.428 510.077 457.631
811 0 69.1652 15.9473 1103 110.041 509.71 456.74
812 0 71.081 13.9278 990 113.691 509.934 456.671
813 0 72.275 17.4888 1264 108.39 510.789 456.385
814 0 75.2461 13.5157 1017 115.015 511.303 454.582
815 0 81.2206 16.6091 1349 107.342 511.234 458.579
816 0 76.2406 13.5361 1032 113.962 511.058 454.016
817 0 80.1156 13.2059 1058 114.091 510.804 456.008
818 0 85.3083 16.8448 1437 108.379 509.961 456.1
819 0 89.306 15.4189 1377 110.02 510.314 455.532
820 0 91.3749 13.3188 1217 114.506 510.706 455.493
821 0 92.3053 12.5453 1158 115.166 511.414 458.315
822 0 95.2708 13.3199 1269 114.708 510.695 455.768
823 0 98.4797 16.4095 1616 111.47 510.093 452.064
824 0 101.371 18.7233 1898 107.622 509.227 451.186
825 0 102.377 13.4601 1378 116.213 508.428 447.607
826 0 108.74 14.6404 1592 113.66 509.327 443.887
827 0 111.57 15.5957 1740 112.949 508.119 444.69
828 1 61.1979 15.0495 921 111.454 509.076 469.73
829 0 64.0828 13.9507 894 112.371 507.397 466.082
830 0 66.1372 12.6253 835 103.933 505.277 458.186
831 0 67.1478 9.45676 635 108.814 504.351 459.425
832 0 73.3162 17.4041 1276 102.194 503.491 463.998
833 0 74.1757 13.8186 1025 108.702 502.888 461.244
834 0 76.1286 16.9844 1293 105.13 502.575 453.576
835 0 80.1575 16.2555 1303 104.165 502.978 458.999
836 0 82.3375 11.1128 915 108.581 503.456 456.178
837 0 82.3375 11.1371 917 133.993 502.425 456.387
838 0 87.4393 15.222 1331 104.192 502.506 452.499
839 0 93.3027 15.155 1414 102.228 501.339 455.595
840 1 49.0178 12.7913 627 100.981 501.171 470.161
841 0 50.1911 12.3727 621 103.628 502.847 468.783
842 0 54.0462 13.4145 725 105.495 505.294 469.571
843 0 54.2464 11.3556 616 108.852 504.841 469.458
844 0 58.1687 13.7875 802 104.764 505.562 468.137
845 0 58.1724 16.5886 965 103.495 505.518 460.22
846 0 57.1599 12.4213 710 110.725 503.813 462.042
847 0 61.1244 16.8182 1028 102.84 505.296 460.609
848 0 63.2175 15.7235 994 104.79 507.311 460.193
849 0 61.7029 13.7595 849 109.153 507.624 460.217
850 0 65.2698 15.0759 984 105.431 508.986 460.943
851 0 65.1082 12.6098 821 111.978 508.524 456.762
852 0 68.094 12.4681 849 112.726 510.055 456.452
853 0 72.1823 13.2581 957 110.786 508.237 454.877
854 0 73.0948 14.3786 1051 109.687 510.449 455.714
855 0 74.1174 12.2778 910 113.785 510.597 456.626
856 0 76.1246 11.0871 844 115.477 510.962 456.025
857 0 84.2246 15.2331 1283 108.536 510.971 456.097
858 0 79.3236 10.1105 802 119.41 511.757 452.54
859 0 84.1493 11.2419 946 117.126 511.508 455.471
860 0 86.4586 15.545 1344 112.256 510.814 451.977
861 1 45.1274 10.1269 457 121.271 512.958 468.928
862 0 48.2244 11.1769 539 118.096 511.82 473.035
863 0 48.0531 11.0711 532 119.733 511.915 470.989
864 0 51.484 10.5275 542 121.349 510.36 469.275
865 0 52.24 13.5337 707 116.066 510.19 468.402
866 0 56.4365 12.9172 729 118.007 511.129 471.697
867 0 56.4365 12.8286 724 144.954 512.122 471.718
868 0 57.1234 13.322 761 120.353 510.138 472.445
869 0 63.1178 14.8928 940 115.957 509.655 473.874
870 0 64.2606 14.5812 937 118.52 509.165 472.181
871 0 64.1927 13.3816 859 121.278 509.037 470.756
872 0 65.1468 11.973 780 123.747 508.164 473.841
873 0 68.1902 13.9756 953 122.549 507.63 469.719
874 0 68.2015 14.0906 961 143.467 506.639 469.65
875 0 74.434 15.7052 1169 118.958 506.551 465.53
876 0 73.221 15.8151 1158 120.067 506.727 464.368
877 0 76.3872 14.073 1075 122.902 505.746 462.77
878 0 78.2826 12.9403 1013 126.593 505.5 458.395
879 0 82.4518 15.0148 1238 123.28 504.821 456.09
880 0 85.2755 13.9196 1187 124.044 505.641 456.826
881 0 86.2914 14.4742 1249 126.335 503.918 448.743
882 0 91.3522 15.3034 1398 122.934 503.659 451.972
883 0 90.3474 12.1531 1098 129.894 503.853 450.603
884 0 95.5752 15.2969 1462 123.278 503.729 448.283
885 0 96.3441 14.1161 1360 125.599 503.677 447.206
886 0 102.528 14.1425 1450 125.261 504.257 441.868
887 0 103.692 14.2538 1478 125.312 504.825 439.869
888 0 108.691 13.9569 1517 126.051 504.331 437.418
889 0 105.577 13.592 1435 152.216 505.38 435.799
890 1 58.0942 10.3797 603 127.126 505.584 462.977
891 0 62.1752 14.0249 872 117.599 506.228 459.735
892 0 63.0893 13.0926 826 118.914 507.628 458.232
893 0 64.1036 11.9338 765 121.261 507.855 455.297
894 0 66.1384 12.2319 809 120 509.216 456.404
895 0 70.1583 16.3915 1150 111.514 508.719 457.386
896 0 72.288 14.6082 1056 114.286 509.026 456.485
897 0 75.2473 14.2995 1076 115.398 509.408 453.457
898 0 74.1424 13.6629 1013 117.246 509.763 455.517
899 0 77.4586 13.3362 1033 117.91 510.039 454.289
900 0 81.3143 15.9996 1301 112.623 510.505 453.64
901 0 84.3256 15.6536 1320 114.089 509.947 452.7
902 0 85.288 14.1052 1203 115.898 510.771 451.437
903 0 87.3316 14.84 1296 115.438 510.381 450.667
904 0 89.4653 13.0106 1164 118.574 511.472 448.579
905 0 88.4812 10.7141 948 150.195 512.636 452.682
906 0 96.4037 15.321 1477 113.318 509.681 455.356
907 0 99.3509 14.4639 1437 115.413 509.655 452.888
908 0 100.439 14.9543 1502 116.431 509.599 449.972
909 1 52.7476 13.0622 689 116.723 508.724 472.006
910 0 54.2434 13.9003 754 112.353 509.092 467.379
911 0 54.2714 8.95499 486 113.198 507.971 463.566
912 0 58.2196 11.8517 690 107.971 506.904 468.17
913 0 59.1761 13.3331 789 105.976 505.166 467.56
914 0 62.2119 13.5505 843 105.461 506.121 467.807
915 0 64.2522 12.2019 784 108.98 506.199 465.694
916 0 65.2803 13.7714 899 105.85 504.811 465.735
917 0 68.6012 14.6936 1008 105.095 504.08 458.671
918 0 68.3421 11.7058 800 110.634 502.92 458.93
919 0 69.5083 9.27947 645 114.313 503.797 457.301
920 0 74.3136 12.5414 932 109.562 503.48 455.759
921 0 73.2824 12.2403 897 111.159 503.577 454.213
922 0 80.3742 13.1759 1059 109.196 503.088 450.404
923 0 83.3267 14.6172 1218 109.011 502.916 454.222
924 0 86.3705 15.9198 1375 107.653 502.164 451.236
925 0 86.2697 13.9331 1202 111.775 502.406 444.36
926 0 88.4236 17.3031 1530 106.186 502.086 444.314
927 1 47.097 10.6589 502 106.518 502.261 467.333
928 0 47.1192 11.715 552 115.341 502.899 462.844
929 0 50.2537 10.2281 514 121.928 503.442 463.037
930 0 52.055 10.7963 562 125.472 504.052 467.851
931 0 57.2034 15.1215 865 116.428 504.288 466.102
932 0 56.174 14.5441 817 120.403 504.059 462.059
933 0 59.2325 12.9827 769 122.273 505.293 462.481
934 0 62.2687 16.1558 1006 116.721 505.68 461.531
935 0 62.0967 14.6868 912 120.234 506.788 461.395
936 0 63.0926 14.027 885 122.323 507.87 457.896
937 0 65.1861 13.6072 887 122.623 508.257 457.028
938 0 68.0911 14.9212 1016 119.03 508.902 457.424
939 0 74.2316 14.4278 1071 115.866 509.725 460.904
940 0 72.1613 15.8672 1145 118.342 509.196 453.846
941 0 71.1751 13.1366 935 122.128 509.773 457.569
942 0 75.1267 11.1545 838 123.819 510.533 458.273
943 0 76.0935 12.4715 949 122.805 510.182 454.996
944 0 79.1096 13.3359 1055 121.188 511.327 454.549
945 0 83.1458 17.0063 1414 114.388 511.057 450.852
946 0 86.15 17.8642 1539 112.831 509.744 455.974
947 0 87.2217 13.3224 1162 121.817 510.721 452.366
948 1 48.1478 9.86546 475 121.417 510.269 474.358
949 0 46.086 11.3266 522 123.684 511.086 472.494
950 0 50.3697 9.98616 503 124.346 510.392 476.099
951 0 51.5634 14.7779 762 112.395 508.478 470.714
952 0 56.6431 13.8764 786 114.413 508.92 468.023
953 0 55.3222 15.0211 831 110.635 507.461 471.065
954 0 57.1826 12.7661 730 123.293 509.463 473.77
955 0 58.151 12.5707 731 124.142 508.369 472.922
956 0 64.2008 18.5823 1193 109.614 508.504 476.718
957 0 63.1173 12.8332 810 122.332 507.809 472.765
958 0 66.0967 13.6618 903 120.825 507.261 470.903
959 0 67.0835 14.7279 988 120.108 507.089 469.154
960 0 68.1396 14.4116 982 121.188 505.959 469.822
961 0 70.2094 14.1434 993 120.739 504.666 471.042
962 0 74.1087 13.3318 988 123.879 503.468 464.852
963 0 76.1501 14.5896 1111 120.293 505.112 468.125
964 0 78.1182 14.7469 1152 120.29 503.745 460.895
965 0 81.1478 12.3109 999 124.295 504.084 460.523
966 0 83.2757 12.1644 1013 126.349 503.962 455.145
967 0 88.3451 13.7529 1215 124.176 503.652 454.366
968 1 49.544 16.2684 806 115.504 502.318 469.194
969 0 49.2824 12.4588 614 110.292 502.108 469.902
970 0 49.3261 13.1573 649 109.809 500.559 468.515
971 0 51.117 14.2418 728 114.306 500.896 468.349
972 0 53.158 14.3723 764 114.475 500.548 465.685
973 0 53.0642 10.4779 556 121.892 501.209 467.318
974 0 56.2489 13.5114 760 116.841 500.595 465.012
975 0 58.1042 12.4776 725 119.099 500.858 463.251
976 0 60.148 14.6804 883 113.561 502.291 465.779
977 0 58.1387 10.7846 627 122.823 502.187 460.545
978 0 62.1305 12.9727 806 120.15 502.598 459.259
979 0 65.2468 14.6827 958 116.255 504.217 456.681
980 0 67.1635 15.1719 1019 115.106 504.537 454.853
981 0 70.2678 17.4048 1223 113.673 505.707 454.06
982 0 73.2093 11.7745 862 122.383 504.6 456.968
983 0 76.2008 17.5589 1338 111.046 505.676 451.783
984 0 79.2784 12.6516 1003 119.353 506.889 449.663
985 0 80.4318 13.0545 1050 117.423 506.854 453.192
986 0 84.1637 14.0084 1179 114.98 507.924 448.562
987 0 85.1203 15.0258 1279 116.184 506.819 451.273
988 1 41.4448 10.2063 423 123.901 507.262 472.983
989 0 46.0803 11.7187 540 118.539 508.193 470.374
990 0 44.4615 9.35641 416 124.389 509.481 467.974
991 0 48.1299 20.4655 985 107.802 511.173 468.95
992 0 53.4654 15.8794 849 112.57 512.141 473.657
993 0 52.2186 12.7349 665 116.699 511.693 473.559
994 0 53.2414 13.1289 699 121.023 511.715 471.979
995 0 57.2043 16.782 960 112.847 510.602 475.623
996 0 59.0912 14.283 844 115.859 509.204 473.988
997 0 59.1716 13.1313 777 127.71 509.858 471.799
998 0 61.1528 13.5235 827 126.592 510.054 472.375
999 0 63.2846 14.6797 929 121.74 509.234 469.976
1000 0 64.4778 13.1828 850 125.002 508.053 471.222
1001 0 71.4867 19.3323 1382 113.356 506.25 467.214
1002 0 67.5699 13.6747 924 123.913 505.82 469.539
1003 0 72.4673 16.78 1216 119.306 504.448 463.727
1004 0 74.4332 17.7609 1322 117.733 502.922 462.278
1005 0 77.2556 13.4618 1040 125.15 502.882 463.143
1006 0 80.4043 15.2728 1228 121.259 503.181 462.056
1007 0 80.6246 16.5954 1338 121.01 503.315 460.49
1008 0 83.4669 14.6166 1220 123.669 502.798 459.262
1009 0 86.4694 15.6934 1357 121.551 502.152 456.79
1010 0 87.5249 13.8932 1216 125.426 502.763 457.951
1011 0 89.433 14.6478 1310 125.435 502.571 450.205
1012 0 91.5967 14.3127 1311 125.674 501.882 450.06
1013 0 95.4416 19.1845 1831 116.423 502.598 450.093
1014 0 101.426 14.868 1508 123.302 502.775 446.431
1015 0 101.392 17.1513 1739 119.694 498.136 445.221
1016 0 106.323 16.9672 1804 120.973 499.113 437.984
1017 1 56.4109 12.3203 695 123.452 499.321 463.191
1018 0 61.4608 11.8612 729 123.022 498.724 458.889
1019 0 60.2332 14.0454 846 119.247 502.202 458.015
1020 0 63.3325 15.5212 983 118.544 503.493 456.183
1021 0 66.2277 15.3561 1017 118.315 505.544 456.854
1022 0 65.1276 12.0072 782 126.875 505.841 454.652
1023 0 72.3664 17.6325 1276 116.285 506.153 449.643
1024 0 71.192 13.5268 963 124.053 506.526 453.738
1025 0 75.3056 12.7348 959 125.022 507.457 454.128
1026 0 78.2534 13.6991 1072 124.238 508.795 451.028
1027 0 80.169 13.4965 1082 124.96 510.008 449.115
1028 0 84.4221 15.6239 1319 120.851 510.039 449.185
1029 0 83.1568 12.5185 1041 126.874 511.21 447.065
1030 0 89.2407 13.895 1240 122.45 512.639 450.054
1031 0 93.1144 14.842 1382 120.404 512.501 448.392
1032 0 95.2304 14.9112 1420 121.485 511.886 447.173
1033 1 51.0677 12.7086 649 120.84 513.458 467.917
1034 0 55.0694 13.9097 766 117.192 511.799 470.56
1035 0 54.0473 12.6371 683 117.081 508.4 469.861
1036 0 55.108 9.7445 537 119.207 508.836 473.318
1037 0 58.2728 14.3635 837 112.631 506.681 467.81
1038 0 59.2649 11.1871 663 117.781 509.214 466.655
1039 0 61.112 15.6598 957 111.71 507.53 467.029
1040 0 63.2269 12.8426 812 115.877 507.11 468.267
1041 0 66.1248 13.7618 910 113.552 506.108 470.808
1042 0 69.1396 13.885 960 112.594 505.839 471.015
1043 0 72.3109 12.4048 897 115.178 504.638 469.831
1044 0 73.2627 14.1272 1035 114.99 504.488 468.121
1045 0 75.3325 13.2479 998 115.101 502.991 466.139
1046 0 78.3174 12.245 959 116.981 502.901 462.156
1047 0 82.3667 14.4962 1194 113.709 503.495 464.13
1048 0 82.387 13.9585 1150 115.027 504.075 455.017
1049 0 85.6593 10.4017 891 119.835 503.311 452.937
1050 0 89.4077 14.7303 1317 113.752 503.424 451.145
1051 0 91.6381 12.1238 1111 116.572 501.824 448.242
1052 0 94.3575 13.947 1316 113.721 502.588 448.006
1053 0 98.3362 12.9861 1277 115.158 502.5 441.563
1054 1 51.4621 12.7278 655 108.11 502.024 469.594
1055 0 53.2466 9.07101 483 112.393 501.358 468.495
1056 0 53.3109 11.5924 618 110.073 501.136 466.197
1057 0 53.3109 11.5549 616 128.263 499.151 466.169
1058 0 54.2316 10.0126 543 113.797 502.243 464.357
1059 0 56.1004 13.5115 758 110.11 501.42 461.107
1060 0 55.1311 11.0645 610 114.293 502.089 457.803
1061 0 60.2968 10.0005 603 114.564 502.837 456.756
1062 0 59.2796 11.6229 689 112.399 501.846 460.538
1063 0 59.2796 11.5723 686 127.899 501.87 460.528
1064 0 65.3749 10.6922 699 116.099 502.78 453.853
1065 0 67.1752 12.3111 827 119.869 505.524 460.012
1066 0 69.1819 12.1275 839 120.982 506.48 455.468
1067 0 73.192 13.9223 1019 119.757 507.374 451.461
1068 0 73.1761 14.8956 1090 116.903 507.581 453.279
1069 0 77.2033 13.7041 1058 119.397 508.303 451.564
1070 0 83.1869 11.4201 950 124.059 510.068 447.307
1071 0 80.2367 13.9961 1123 121.878 509.998 441.726
1072 0 85.1976 14.7305 1255 118.033 509.729 451.33
1073 0 88.2642 14.5586 1285 119.321 509.437 451.403
1074 0 91.1777 15.2011 1386 116.257 510.59 453.635
1075 0 96.3881 12.8335 1237 119.559 510.699 453.005
1076 0 100.363 17.5264 1759 112.13 510.386 450.401
1077 0 103.302 15.9822 1651 113.352 509.859 450.603
1078 1 59.1709 13.5709 803 116.017 511.385 471.757
1079 0 58.1081 11.8228 687 122.151 508.712 471.194
1080 0 59.4552 13.3714 795 114.532 508.13 471.077
1081 0 62.1406 14.258 886 112.638 506.755 472.281
1082 0 66.0918 14.7371 974 112.83 507.867 467.225
1083 0 73.3645 15.5525 1141 109.436 506.351 470.511
1084 0 71.1913 17.1791 1223 109.542 506.482 464.909
1085 0 71.2447 13.6151 970 115.486 505.576 465.587
1086 0 72.3375 13.907 1006 116.781 505.073 462.461
1087 0 78.2865 19.5947 1534 107.151 503.92 467.574
1088 0 80.4041 15.3723 1236 115.054 504.248 458.024
1089 0 82.2293 16.1256 1326 114.223 502.968 461.757
1090 0 85.2402 16.4594 1403 115.118 503.202 457.295
1091 0 86.1868 14.2713 1230 120.331 501.972 454.295
1092 0 90.3513 15.4065 1392 118.438 500.98 459.519
1093 0 92.3434 13.8072 1275 122.469 501.569 451.493
1094 0 95.3509 17.4408 1663 116.85 501.5 449.952
1095 0 99.4434 18.2013 1810 115.017 501.113 450.387
1096 0 100.294 15.4346 1548 118.269 500.243 449.805
1097 0 102.252 14.3861 1471 116.997 500.615 444.978
1098 1 56.1709 11.1446 626 116.425 502.026 460.821
1099 0 59.325 10.7037 635 119.748 501.948 458.498
1100 0 61.2194 12.153 744 112.565 501.305 460.984
1101 0 62.5428 10.6647 667 114.988 501.108 460.57
1102 0 62.2321 11.0233 686 114.87 501.929 457
1103 0 68.236 15.3438 1047 107.713 501.731 458.422
1104 0 68.3339 11.2389 768 113.488 500.909 454.237
1105 0 75.3655 12.592 949 111.395 501.45 452.858
1106 0 73.3465 13.4021 983 111.591 501.92 448.733
1107 0 79.58 11.3722 905 112.786 503.603 451.755
1108 0 83.7216 14.3929 1205 109.568 502.934 447.79
1109 0 84.4634 13.7101 1158 111.092 505.036 445.575
1110 0 87.5136 14.5349 1272 109.851 505.645 446.63
1111 0 91.8801 13.7679 1265 111.469 504.836 444.428
1112 0 93.5644 10.923 1022 116.186 505.896 440.36
1113 0 98.4724 11.9221 1174 114.078 507.018 441.022
1114 1 52.3434 12.3416 646 113.765 505.546 467.87
1115 0 53.3513 11.996 640 116.312 506.906 469.57
1116 0 55.1269 9.81372 541 119.335 505.15 466.342
1117 0 57.0873 17.4119 994 107.736 506.684 464.52
1118 0 59.1187 13.7858 815 112.453 505.725 468.501
1119 0 61.1658 16.7087 1022 108.336 507.377 466.006
1120 0 62.2436 13.1419 818 113.773 506.806 465.115
1121 0 63.2171 11.7532 743 115.145 506.203 472.328
1122 0 61.2667 12.0294 737 116.811 506.289 469.875
1123 0 64.1526 9.66446 620 118.858 506.763 473.174
1124 0 68.3861 18.3517 1255 106.617 506.688 467.785
1125 0 69.2247 10.4154 721 119.61 506.491 466.248
1126 0 73.1185 11.5976 848 117.705 505.797 464.617
1127 0 76.2287 14.7713 1126 112.273 504.943 469.763
1128 0 76.32 11.6614 890 118.365 505.483 462.807
1129 0 82.2438 13.5694 1116 114.538 502.984 467.903
1130 0 82.3579 10.5151 866 121.736 502.013 460.1
1131 0 90.2926 17.3104 1563 109.402 501.66 463.742
1132 0 92.3435 12.2153 1128 119.522 501.573 458.301
1133 1 52.3097 13.9554 730 115.507 500.951 482.481
1134 0 52.2321 10.9703 573 123.382 501.489 479.695
1135 0 53.3465 16.3647 873 115.863 499.38 475.162
1136 0 54.4296 12.9525 705 122.353 500.623 471.031
1137 0 54.3542 11.2043 609 127.002 499.547 474.634
1138 0 54.3542 11.0939 603 143.862 498.506 474.524
1139 0 59.5455 13.4351 800 123.722 499.299 472.112
1140 0 61.4472 13.8656 852 123.208 499.979 471.941
1141 0 62.2751 13.8739 864 124.742 498.966 468.228
1142 0 62.2778 12.8938 803 125.335 499.329 470.692
1143 0 65.4312 15.6806 1026 123.464 498.757 462.577
1144 0 67.1913 14.1983 954 127.336 498.323 463.209
1145 0 70.3498 14.9112 1049 125.628 498.455 461.946
1146 0 70.4167 14.542 1024 127.229 499.856 460.165
1147 0 77.4555 13.724 1063 128.065 499.832 458.596
1148 0 78.3946 18.0242 1413 121.165 500.611 456.268
1149 0 80.5898 14.9399 1204 126.615 500.715 454.193
1150 0 81.6354 14.5158 1185 129.041 502.733 450.432
1151 0 86.543 14.4899 1254 128.327 504.3 451.592
1152 0 85.785 13.5688 1164 132.749 503.668 446.344
1153 0 91.5725 14.2838 1308 131.044 506.13 443.587
1154 1 50.2794 11.3367 570 130.512 506.133 466.277
1155 0 51.5497 11.9108 614 131.811 506.684 463.366
1156 0 53.3634 12.0307 642 123.654 508.078 466.629
1157 0 56.3816 16.5834 935 117.071 507.071 465.54
1158 0 57.3129 14.0108 803 122.585 508.28 461.345
1159 0 60.138 14.0178 843 121.153 508.703 462.568
1160 0 61.1919 14.479 886 119.024 510.455 465.81
1161 0 62.2486 15.9843 995 118.893 508.72 461.401
1162 0 64.2071 13.3007 854 123.594 510.794 461.452
1163 0 68.2062 14.3242 977 120.909 510.193 462.985
1164 0 70.2124 15.681 1101 118.551 510.154 461.445
1165 0 71.2864 16.7353 1193 117.422 510.353 460.837
1166 0 74.1216 11.6835 866 126.411 510.482 462.487
1167 0 77.1933 14.0038 1081 122.53 510.562 462.358
1168 0 79.2911 13.1036 1039 125.399 509.899 462.329
1169 0 81.1174 15.5577 1262 122.302 509.276 459.41
1170 0 82.2176 13.6832 1125 127.2 508.099 457.708
1171 0 87.2863 14.0916 1230 125.659 507.15 463.99
1172 0 92.2179 15.0405 1387 123.296 507.319 463.953
1173 1 49.1312 11.5812 569 128.033 506.51 483.274
1174 0 52.0505 13.6982 713 121.877 505.987 482.607
1175 0 53.0508 13.3834 710 124.589 506.772 479.935
1176 0 53.0691 13.5672 720 127.462 504.654 477.431
1177 0 56.0384 15.4358 865 122.162 504.376 480.321
1178 0 58.0665 15.8439 920 121.564 503.44 475.918
1179 0 58.2403 12.8605 749 126.963 504.363 476.813
1180 0 62.1617 14.6071 908 123.191 503.355 473.472
1181 0 62.0317 13.6543 847 125.677 503.403 472.361
1182 0 66.0773 14.9068 985 122.339 502.787 471.022
1183 0 65.0455 13.6212 886 124.839 502.919 469.605
1184 0 66.3285 13.1015 869 126.876 502.93 465.544
1185 0 70.2438 16.3004 1145 120.995 502.19 463.114
1186 0 70.1738 14.6493 1028 123.865 501.749 462.596
1187 0 73.2494 12.9967 952 126.542 501.797 461.066
1188 0 76.2099 14.9193 1137 123.055 502.189 458.36
1189 0 78.2346 14.9934 1173 123.944 502.053 454.227
1190 0 78.2034 14.296 1118 125.017 502.671 456.689
1191 0 82.3098 12.5502 1033 128.917 502.683 453.463
1192 0 86.215 14.429 1244 125.351 503.764 450.718
1193 0 88.5219 14.1547 1253 125.779 503.953 450.512
1194 0 92.1252 15.7394 1450 124.188 503.383 446.813
1195 0 94.4041 16.8531 1591 121.841 504.764 444.851
1196 1 48.0484 10.3021 495 130.515 504.622 464.432
1197 0 53.2925 15.4056 821 115.633 505.488 470.071
1198 0 52.2256 12.6183 659 123.466 506.065 465.27
1199 0 54.3954 14.891 810 116.884 505.011 464.815
1200 0 54.3515 13.3391 725 120.617 505.877 464.309
1201 0 56.1648 11.6087 652 123.502 507.738 465.693
1202 0 60.5154 14.707 890 116.716 507.513 467.208
1203 0 63.5322 15.0947 959 117.057 508.086 465.659
1204 0 62.5352 14.5198 908 119.523 508.088 465.724
1205 0 66.2388 15.6706 1038 116.499 508.353 463.824
1206 0 67.4524 14.6325 987 118.503 509.693 466.485
1207 0 73.3072 19.5752 1435 110.38 509.469 465.057
1208 0 73.1997 17.582 1287 114.065 509.358 468.612
1209 0 71.1032 12.5592 893 124.232 509.671 466.42
1210 0 75.1815 13.9928 1052 121.105 507.842 466.156
1211 0 77.2194 15.5142 1198 118.765 508.217 466.227
1212 0 82.3266 15.3899 1267 117.601 507.701 466.537
1213 0 80.2639 12.9199 1037 123.978 507.732 463.611
1214 0 85.146 14.2696 1215 120.785 506.471 465.581
1215 0 87.3705 16.1382 1410 115.665 506.451 462.212
1216 0 90.2307 15.0946 1362 116.329 504.9 465.856
1217 0 93.2349 12.3559 1152 121.977 503.971 457.661
1218 1 53.1942 13.4225 714 118.294 502.929 480.782
1219 0 52.1742 12.5733 656 120.255 503.686 479.605
1220 0 57.2714 13.7765 789 118.646 502.218 475.94
1221 0 55.1925 13.3533 737 119.792 502.247 474.776
1222 0 57.0476 12.7087 725 123.945 501.372 474.177
1223 0 61.1244 14.0042 856 122.667 502.478 473.54
1224 0 62.219 11.6524 725 125.328 501.378 474.905
1225 0 66.2677 13.1889 874 124.162 500.213 469.462
1226 0 65.21 16.3779 1068 119.61 500.07 466.2
1227 0 68.3129 12.9258 883 123.575 500.212 469.621
1228 0 70.1809 14.6336 1027 122.889 500.344 465.781
1229 0 73.2954 14.7758 1083 122.006 500.9 461.335
1230 0 77.1627 13.9446 1076 123.468 500.709 461.551
1231 0 79.1958 16.2635 1288 120.682 501.508 458.692
1232 0 81.2202 14.159 1150 123.665 501.409 459.883
1233 0 83.133 13.9415 1159 125.627 500.998 456.047
1234 0 86.2346 15.3767 1326 123.238 501.235 454.897
1235 0 89.265 13.9248 1243 128.106 501.44 448.478
1236 0 90.3774 14.3509 1297 127.82 503.358 448.579
1237 0 94.4804 15.1883 1435 127.339 503.839 444.568
1238 0 97.5385 14.4558 1410 127.967 504.574 446.313
1239 1 54.4212 12.6237 687 126.333 504.461 465.643
1240 0 55.1735 12.651 698 122.006 505.347 458.334
1241 0 54.2064 12.5077 678 120.743 506.016 458.173
1242 0 54.2064 12.6369 685 136.645 506.02 458.175
1243 0 59.1369 16.149 955 115.099 506.813 456.829
1244 0 62.1238 12.8453 798 120.297 507.127 454.051
1245 0 65.1248 14.0653 916 118.025 507.69 459.552
1246 0 63.3756 12.0393 763 123.92 508.775 460.98
1247 0 67.2902 14.7421 992 119.281 509.916 461.205
1248 0 67.3386 13.098 882 122.752 508.882 459.161
1249 0 74.249 13.5086 1003 120.228 509.359 461.828
1250 0 73.1938 13.3208 975 123.879 507.964 459.262
1251 0 76.2287 15.0337 1146 120.804 509.903 460.974
1252 0 79.2919 11.5523 916 125.688 507.337 465.787
1253 0 83.2553 14.5696 1213 121.988 508.074 461.076
1254 0 84.2348 12.5126 1054 126.872 507.057 466.209
1255 0 88.3014 14.5185 1282 124.115 506.456 461.268
1256 0 93.4001 14.8929 1391 123.744 506.671 461.028
1257 0 93.3058 13.8577 1293 125.739 506.017 460.053
1258 1 53.1686 15.3286 815 121.741 504.876 481.634
1259 0 55.2258 14.2144 785 126.438 504.79 480.488
1260 0 58.0848 13.5491 787 125.382 503.103 480.555
1261 0 57.1795 14.0435 803 124.437 502.746 477.986
1262 0 60.1431 14.7149 885 122.785 501.858 477.193
1263 0 61.1652 14.1257 864 123.498 501.192 477.347
1264 0 66.125 16.0907 1064 119.741 500.784 474.699
1265 0 66.335 14.5926 968 123.185 501.561 473.259
1266 0 65.1986 13.6046 887 127.421 500.234 467.449
1267 0 70.2529 15.1168 1062 123.719 501.197 465.452
1268 0 71.171 14.1912 1010 126.149 500.45 464.68
1269 0 75.2599 14.3237 1078 124.365 500.265 466.06
1270 0 78.2455 18.8382 1474 115.869 500.079 462.633
1271 0 81.237 16.8273 1367 123.886 500.121 460.126
1272 0 82.1096 16.0882 1321 125.904 501.307 458.742
1273 0 86.2789 19.8078 1709 120.062 500.461 454.627
1274 0 87.2773 11.8931 1038 133.769 501.473 454.491
1275 0 91.1385 16.4256 1497 126.79 500.814 450.155
1276 1 48.191 12.0562 581 126.898 500.258 471.241
1277 0 50.0576 12.186 610 126.875 500.893 470.039
1278 0 49.1528 14.1803 697 125.61 501.318 470.024
1279 0 54.0915 15.5662 842 123.26 502.089 467.097
1280 0 56.128 15.2687 857 125.708 502.174 468.617
1281 0 56.4926 13.1522 743 128.843 504.108 464.393
1282 0 58.258 13.8865 809 127.839 505.591 463.126
1283 0 59.4405 15.0739 896 127.812 505.039 461.962
1284 0 63.1644 13.8844 877 128.851 507.015 462.414
1285 0 64.3004 17.4804 1124 122.907 508.165 460.249
1286 0 68.1592 15.3318 1045 125.965 508.956 459.937
1287 0 70.2514 16.1136 1132 124.723 508.252 458.614
1288 0 71.2852 15.8378 1129 126.152 509.013 457.599
1289 0 73.3488 12.87 944 131.481 509.644 456.121
1290 0 78.219 14.7023 1150 127.115 509.824 457.602
1291 0 79.6471 14.9284 1189 126.563 510.446 455.894
1292 0 81.2903 16.681 1356 124 510.563 456.262
1293 0 85.5405 14.8702 1272 127.285 510.438 452.926
1294 0 89.2569 12.436 1110 132.014 509.472 451.104
1295 1 47.4919 12.3811 588 129.301 509.201 473.874
1296 0 48.3848 12.5246 606 130.952 509.96 473.376
1297 0 50.4136 13.5083 681 132.714 509.827 472.987
1298 0 53.404 15.7853 843 126.261 511.492 474.162
1299 0 53.3568 13.9064 742 131.379 510.682 473.237
1300 0 56.7514 13.9556 792 130.566 508.673 471.928
1301 0 58.5886 14.4226 845 129.8 508.462 470.92
1302 0 60.4732 15.296 925 127.766 506.542 469.257
1303 0 65.4961 14.5505 953 127.668 505.917 469.058
1304 0 65.6793 12.561 825 131.078 504.89 472.582
1305 0 64.7023 12.9207 836 133.554 504.423 468.673
1306 0 69.4028 13.7458 954 130.957 503.96 468.443
1307 0 72.3617 16.6801 1207 126.428 503.913 464.464
1308 0 78.3769 14.1241 1107 132.134 501.85 460.061
1309 0 81.6928 17.1496 1401 125.281 501.283 461.939
1310 0 85.4272 15.4517 1320 131.08 502.149 450.034
1311 0 89.2814 15.3447 1370 130.307 501.643 454.217
1312 0 91.5012 14.6993 1345 133.339 501.884 449.709
1313 1 47.3451 12.335 584 132.988 501.272 470.913
1314 0 48.3585 11.1252 538 136.19 501.664 468.043
1315 0 51.201 11.9529 612 131.954 501.165 461.879
1316 0 51.5117 13.8998 716 130.99 501.346 463.374
1317 0 53.4155 14.6587 783 129.286 501.395 462.352
1318 0 55.464 14.55 807 129.033 501.833 462.502
1319 0 60.4852 15.1442 916 127.211 502.656 459.537
1320 0 60.3502 14.8964 899 129.07 502.786 457.671
1321 0 62.3791 13.7225 856 131.158 503.3 457.611
1322 0 65.3201 16.3196 1066 125.713 504.658 456.375
1323 0 64.2088 13.6741 878 132.596 504.206 456.445
1324 0 65.1173 12.8384 836 134.254 504.815 456.305
1325 0 70.142 17.8495 1252 121.692 505.974 458.576
1326 0 69.0973 14.675 1014 131.888 504.725 451.414
1327 0 72.2023 14.0993 1018 132.249 505.634 452.795
1328 0 77.0289 14.566 1122 128.771 507.352 454.587
1329 0 79.1448 14.2397 1127 129.719 506.505 455.679
1330 0 83.2163 18.8425 1568 119.517 507.246 455.985
1331 1 42.0248 10.2321 430 126.83 506.06 473.691
1332 0 44.0905 11.1815 493 123.28 507.01 474.262
1333 0 46.1534 9.75009 450 124.576 505.989 471.629
1334 0 45.0513 12.741 574 119.481 506.355 471.925
1335 0 47.1358 10.5864 499 126.273 506.254 474.303
1336 0 47.1528 10.5614 498 121.092 505.689 476.128
1337 0 49.1925 13.3964 659 116.37 507.002 477.93
1338 0 49.1131 10.0177 492 120.88 505.886 479.533
1339 0 48.1916 8.75671 422 123.187 506.673 480.284
1340 0 53.1344 11.7062 622 118.531 506.034 477.741
1341 0 52.2455 12.0967 632 117.59 505.951 479.578
1342 0 56.0934 12.6753 711 117.495 505.654 476.203
1343 0 58.0919 14.8213 861 112.784 504.276 480.923
1344 0 60.131 11.2754 678 118.752 503.92 477.487
1345 0 61.1898 13.2538 811 118.424 502.046 474.531
1346 0 64.2468 13.2925 854 118.65 502.374 473.817
1347 0 67.4151 14.077 949 118.921 501.613 469.68
1348 0 64.2633 11.6396 748 123.286 500.806 469.595
1349 0 70.3858 13.5112 951 121.072 500.209 466.199
1350 0 69.4512 11.6053 806 121.901 500.378 470.355
1351 0 74.3044 12.5834 935 121.133 500.729 466.552
1352 0 76.2804 12.2181 932 124.212 499.529 460.459
1353 0 78.3236 12.5888 986 123.398 500.486 456.945
1354 1 41.0794 12.3419 507 122.112 497.834 474.201
1355 0 43.0898 12.0446 519 123.559 498.505 474.528
1356 0 41.1373 13.0295 536 122.646 497.688 473.004
1357 0 47.2842 11.7164 554 123.518 497.926 474.197
1358 0 46.2026 12.8131 592 117.5 499.833 473.027
1359 0 44.027 10.1983 449 123.922 499.733 468.931
1360 0 51.1296 7.1974 368 123.976 500.247 473.856
1361 0 50.1216 7.14263 358 124.966 500.796 473.444
1362 0 50.1004 13.2734 665 118.841 501.367 465.111
1363 0 50.1518 6.77941 340 127.815 502.159 469.791
1364 1 100.694 9.60338 967 132.338 501.78 437.329
1365 0 106.402 12.9978 1383 125.926 503.863 436.019
1366 0 115.649 10.2379 1184 125.438 504.807 443.132
1367 0 116.777 14.7889 1727 121.825 503.453 433.552
1368 0 123.467 12.2867 1517 124.721 504.502 432.794
1369 0 124.536 13.7953 1718 122.839 505.681 431.235
1370 0 125.545 12.1948 1531 127.438 506.441 429.292
1371 0 129.523 13.0247 1687 125.29 506.825 423.575
1372 0 136.64 11.6584 1593 125.702 507.469 427.746
1373 0 136.774 11.6835 1598 125.983 506.509 423.367
1374 1 232.386 10.844 2520 131.985 508.425 385.413
1375 0 236.202 13.5223 3194 130.656 507.432 367.442
1376 0 246.506 13.9347 3435 129.394 508.346 377.043
1377 0 246.095 11.6987 2879 129.871 508.329 388.156
1378 0 246.204 7.44909 1834 135.85 508.3 390.338
1379 0 246.672 6.14987 1517 127.788 507.2 421.979
1380 1 43.0568 10.1958 439 114.308 507.449 480.025
1381 0 47.366 10.5561 500 112.994 508.68 477.852
1382 0 46.2851 10.3057 477 113.975 510.763 476.935
1383 0 46.2851 10.2841 476 113.882 511.763 477.019
1384 0 51.3479 13.9246 715 108.404 509.61 472.545
1385 0 51.2538 12.2723 629 111.612 507.928 477.525
1386 0 52.1983 11.054 577 112.615 506.321 472.556
1387 0 54.1668 15.6 845 106.559 504.715 475.821
1388 0 54.0748 14.9238 807 109.431 504.96 473.454
1389 0 56.1528 14.2646 801 110.056 503.337 473.101
1390 0 56.149 12.8052 719 113.026 503.513 470.392
1391 0 59.1876 15.3918 911 109.615 503.305 467.61
1392 0 62.0829 15.9947 993 106.957 503.494 472.216
1393 0 63.0783 14.5216 916 110.989 503.317 466.344
1394 0 65.0816 13.6751 890 112.17 503.074 467.601
1395 0 66.2782 15.9781 1059 110.837 501.247 464.869
1396 0 68.1866 15.4869 1056 111.757 501.767 464.571
1397 0 69.4855 10.9807 763 119.799 500.484 461.953
1398 0 71.1745 13.7268 977 116.003 500.874 464.18
1399 0 74.1711 13.725 1018 117.435 500.431 455.76
1400 0 75.3157 16.3976 1235 114.288 500.922 456.874
1401 0 81.3006 17.6629 1436 112.189 501.178 453.292
1402 0 81.2336 13.9228 1131 120.33 501.387 452.798
1403 0 83.2772 13.4851 1123 120.496 501.075 452.058
1404 1 43.0946 12.5074 539 123.473 501.293 467.824
1405 0 45.1032 11.906 537 121.395 503.022 472.631
1406 0 49.1331 14.3284 704 120.419 503.195 468.322
1407 0 48.0333 10.6801 513 124.928 505.487 470.561
1408 0 49.0307 12.6655 621 122.514 505.383 466.623
1409 0 51.0331 13.795 704 121.197 505.615 462.776
1410 0 53.1226 12.97 689 122.618 505.257 465.681
1411 0 54.0683 13.9823 756 121.717 506.968 463.045
1412 0 58.0854 12.9637 753 122.752 507.234 466.483
1413 0 60.0798 14.4308 867 120.122 506.812 462.757
1414 0 60.1187 17.5819 1057 116.344 507.508 460.728
1415 0 63.1125 16.0507 1013 118.631 508.492 462.499
1416 0 64.3354 15.699 1010 119.073 508.512 462.01
1417 0 64.3731 15.5966 1004 119.843 508.527 461.858
1418 0 71.13 15.9989 1138 117.806 508.446 465.024
1419 0 71.1212 12.4014 882 125.448 508.747 464.16
1420 0 73.1402 15.0943 1104 121.089 509.664 460.639
1421 0 75.1652 13.0247 979 125.531 508.571 462.702
1422 0 78.1692 12.9335 1011 124.033 508.435 466.41
1423 0 83.269 15.9483 1328 118.508 507.707 465.977
1424 0 84.5168 16.9907 1436 116.656 507.192 467.524
1425 0 85.3305 13.8755 1184 125.677 507.601 462.678
1426 0 88.2882 13.4333 1186 124.477 507.346 464.384
1427 1 46.2037 10.0208 463 134.21 506.212 482.378
1428 0 49.0371 10.1556 498 132.104 506.705 482.112
1429 0 51.2746 13.3984 687 128.246 504.994 476.563
1430 0 54.0469 14.7649 798 124.807 505.472 477.81
1431 0 58.1238 15.7767 917 120.782 504.703 477.032
1432 0 56.028 13.761 771 126.193 504.122 475.684
1433 0 61.0899 20.0033 1222 112.867 502.747 477.381
1434 0 59.2872 13.5105 801 127.928 503.115 471.856
1435 0 60.0874 12.0658 725 129.89 501.586 470.734
1436 0 63.344 14.1134 894 123.997 502.545 472.454
1437 0 66.1041 14.6133 966 122.68 501.167 469.793
1438 0 69.0836 14.3305 990 124.274 501.089 468.274
1439 0 72.1304 15.9849 1153 119.871 499.503 469.476
1440 0 75.1346 22.6261 1700 109.169 498.278 464.767
1441 0 78.1405 15.2034 1188 120.981 500.516 462.818
1442 0 78.162 21.046 1645 111.645 500.321 461.959
1443 0 77.0948 14.0995 1087 124.73 501.212 453.953
1444 0 83.1509 15.2975 1272 120.89 502.171 450.724
1445 0 82.1329 14.6348 1202 124.98 499.833 453.304
1446 0 79.1806 10.8234 857 128.13 502.489 456.603
1447 0 88.3433 13.4589 1189 126.764 502.784 450.022
1448 1 46.0407 12.0328 554 127.973 502.592 469.484
1449 0 48.1269 14.1501 681 123.348 502.54 468.408
1450 0 50.1206 13.1283 658 123.416 504.439 467.02
1451 0 51.0417 14.9094 761 121.386 504.842 465.991
1452 0 52.0669 13.9052 724 124.707 506.519 463.229
1453 0 54.1032 14.6572 793 121.866 506.696 462.85
1454 0 53.0562 13.6271 723 125.151 506.609 464.223
1455 0 57.0612 15.9829 912 119.445 507.139 463.55
1456 0 60.124 20.6739 1243 112.452 507.607 459.397
1457 0 62.1835 14.7788 919 121.296 508.99 461.083
1458 0 60.1162 14.2557 857 123.044 508.527 461.512
1459 0 62.0929 11.8532 736 128.026 509.807 465.003
1460 0 66.0794 16.011 1058 121.145 509.616 464.198
1461 0 68.0724 15.0869 1027 123.281 511.107 461.742
1462 0 71.0354 11.6421 827 128.395 511.008 463.011
1463 0 71.3164 12.9002 920 126.927 509.447 462.213
1464 0 74.1913 11.4973 853 126.897 507.381 465.574
1465 0 81.1203 13.4122 1088 121.775 506.688 464.706
1466 0 81.1863 11.6276 944 125.057 505.862 462.812
1467 1 43.0909 11.2553 485 126.47 505.742 479.276
1468 0 42.1639 10.4829 442 119.878 506.224 476.023
1469 0 46.1297 9.1698 423 121.411 507.617 474.057
1470 0 50.3839 13.4368 677 125.897 507.56 475.987
1471 0 47.0671 13.7251 646 127.283 507.542 479.542
1472 0 51.0518 13.0652 667 125.399 506.492 481.156
1473 0 54.0507 16.244 878 119.8 504.925 479.159
1474 0 57.0368 15.2884 872 120.607 505.247 478.143
1475 0 57.1161 15.4247 881 121.177 504.657 479.518
1476 0 59.083 24.0847 1423 108.796 503.599 476.03
1477 0 60.0717 13.7003 823 127.044 502.618 471.786
1478 0 62.1347 15.3215 952 122.225 502.202 471.243
1479 0 64.2485 15.9381 1024 121.577 502.114 470.185
1480 0 64.1628 12.1254 778 128.873 501.017 469.961
1481 0 70.4406 14.2673 1005 122.562 501.305 468.046
1482 0 72.3484 15.9921 1157 120.153 500.628 466.022
1483 0 75.1611 16.4713 1238 118.653 500.515 460.368
1484 0 77.1169 15.6127 1204 121.357 500.677 455.415
1485 0 81.3812 17.1661 1397 117.545 500.921 455.178
1486 1 42.0815 13.2362 557 123.296 501.953 475.104
1487 0 46.0564 15.7199 724 115.827 501.862 471.203
1488 0 46.0712 15.5412 716 127.289 501.878 471.018
1489 0 49.2085 13.0872 644 118.738 500.28 471.27
1490 0 50.0823 12.3996 621 123.172 503.692 466.383
1491 0 52.154 13.0575 681 121.169 503.648 466.239
1492 0 53.1637 18.6405 991 112.121 503.254 467.938
1493 0 54.1426 13.7784 746 120.292 504.949 463.894
1494 0 55.1319 15.5083 855 118.63 503.666 462.591
1495 0 58.0864 13.2045 767 122.545 505.321 465.248
1496 0 59.1762 13.012 770 121.305 506.796 464.645
1497 0 62.1856 14.4889 901 119.222 506.764 462.518
1498 0 62.4111 13.2348 826 122.433 507.479 457.564
1499 0 65.1951 15.722 1025 116.921 507.69 459.537
1500 0 66.2519 13.2826 880 122.218 508.785 461.553
1501 0 70.3761 13.8257 973 120.236 508.845 463.163
1502 0 72.1827 13.1888 952 122.242 509.108 461.409
1503 0 75.2875 13.0566 983 122.253 508.392 459.904
1504 0 77.4784 15.0623 1167 119.344 508.615 459.47
1505 0 81.322 14.1905 1154 118.718 509.003 463.332
1506 0 84.1865 18.0076 1516 112.683 508.654 456.211
1507 1 40.0831 11.1269 446 118.215 509.888 484.679
1508 0 43.4351 11.2121 487 119.156 506.037 480.343
1509 0 44.5285 12.7559 568 117.444 507.319 477.129
1510 0 45.1816 13.8773 627 114.026 505.41 478.804
1511 0 49.1966 15.0214 739 110.996 505.311 478.133
1512 0 49.3864 12.4933 617 115.724 505.916 478.175
1513 0 50.0742 10.1849 510 118.173 504.233 480.967
1514 0 53.2394 13.3172 709 114.065 504.992 476.759
1515 0 51.1236 12.3622 632 117.965 504.43 478.388
1516 0 56.1546 14.1751 796 113.246 503.011 480.906
1517 0 55.1814 11.7974 651 118.548 502.318 477.788
1518 0 57.0246 14.3798 820 119.138 502.304 472.807
1519 1 119.548 12.1374 1451 125.064 502.376 448.763
1520 1 62.1902 14.8094 921 114.839 502.65 473.401
1521 0 62.273 13.2481 825 120.109 501.891 470.327
1522 0 63.2652 10.3848 657 124.19 502.132 469.119
1523 0 70.1703 13.567 952 117.033 501.887 467.768
1524 0 70.2275 14.8233 1041 115.399 501.524 465.58
1525 0 72.3047 13.9687 1010 117.237 501.952 462.774
1526 0 76.194 14.1087 1075 116.224 500.888 461.268
1527 1 41.0844 12.949 532 116.929 502.226 477.895
1528 0 42.0578 12.1262 510 118.91 502.392 474.163
1529 0 44.0309 11.9689 527 117.133 502.474 475.894
1530 0 48.1082 13.6775 658 115.202 502.144 471.857
1531 0 47.0295 13.566 638 116.337 502.882 470.011
1532 0 47.0894 11.7436 553 116.425 503.009 470.42
1533 0 51.346 12.9513 665 111.863 503.72 473.235
1534 0 48.185 15.2745 736 110.913 504.38 468.542
1535 0 53.1162 17.7912 945 103.561 504.457 469.935
1536 0 55.1134 14.0982 777 111.115 505.094 464.927
1537 0 56.1406 16.3874 920 108.17 505.616 466.229
1538 0 55.0275 12.521 689 114.578 507.954 466.353
1539 0 60.1519 15.9264 958 109.306 507.425 461.392
1540 0 60.13 15.5995 938 110.26 507.836 463.431
1541 0 60.1489 11.9038 716 116.272 508.675 464.179
1542 0 63.1284 13.7022 865 113.924 509.035 460.962
1543 0 63.1284 13.6706 863 141.745 510.051 461.06
1544 0 67.2024 15.6096 1049 110.991 509.413 462.557
1545 0 68.1532 13.455 917 115.924 509.287 460.437
1546 0 67.0389 12.0676 809 118.546 509.687 464.337
1547 0 70.1603 14.5381 1020 115.341 509.131 460.362
1548 0 72.1227 11.938 861 117.892 509.633 465.895
1549 0 76.0867 13.064 994 118.56 509.265 462.613
1550 0 79.1362 15.2648 1208 115.892 509.338 461.204
1551 0 81.1866 12.6991 1031 121.157 509.705 461.444
1552 0 85.242 15.3445 1308 116.613 508.27 459.812
1553 0 87.3421 14.7352 1287 116.286 508.689 463.734
1554 0 89.3905 14.845 1327 117.982 508.008 462.648
1555 1 48.0404 12.094 581 121.895 507.556 482.207
1556 0 50.0438 13.6081 681 115.937 507.626 482.499
1557 0 51.1185 13.8111 706 114.932 506.558 479.438
1558 0 53.0454 14.8552 788 114.737 505.066 479.744
1559 0 55.0424 11.8636 653 119.319 505.121 479.067
1560 0 54.05 12.988 702 118.892 504.845 477.365
1561 0 57.1556 15.0816 862 115.212 503.625 476.013
1562 0 59.0496 14.9027 880 115.269 503.399 475.412
1563 0 60.1221 13.8385 832 117.688 502.46 470.596
1564 0 61.0617 13.7075 837 117.661 502.971 471.822
1565 0 63.1407 12.2425 773 119.988 502.715 470.221
1566 0 68.1354 10.9488 746 120.074 502.57 469.944
1567 0 68.1365 13.9426 950 116.454 502.325 466.793
1568 0 71.0847 15.2494 1084 114.862 502.412 463.711
1569 0 72.1505 15.1766 1095 116.045 502.087 461.516
1570 0 74.1824 14.5452 1079 116.983 501.743 457.324
1571 0 77.3264 18.493 1430 110.723 500.095 455.229
1572 0 78.1397 13.4631 1052 119.205 500.069 455.203
1573 0 84.4082 14.6787 1239 115.26 501.06 453.079
1574 0 83.4165 14.3017 1193 117.084 501.258 448.819
1575 1 43.0586 14.1668 610 116.051 502.307 472.361
1576 0 43.0672 12.9565 558 119.609 503.799 469.222
1577 0 47.0942 14.3967 678 115.706 504.881 468.91
1578 0 48.1147 14.4239 694 116.409 506.28 466.856
1579 0 49.0382 15.1514 743 116.588 505.821 464.72
1580 0 50.1218 13.6667 685 119.362 507.218 463.971
1581 0 51.0911 15.5017 792 116.931 506.85 465.27
1582 0 52.0535 13.9472 726 121.956 507.395 465.716
1583 0 54.1206 13.7471 744 121.867 507.551 463.755
1584 0 55.0673 13.2747 731 121.425 507.296 468.157
1585 0 56.2559 12.2832 691 123.841 508.528 466.177
1586 0 59.1254 12.9893 768 123.84 509.072 462.357
1587 0 61.0645 13.9688 853 120.886 510.13 465.958
1588 0 66.2683 15.9805 1059 117.71 509.508 462.637
1589 0 66.1171 12.9618 857 123.461 509.326 462.49
1590 0 67.0995 14.3071 960 122.651 509.503 464.498
1591 0 71.1158 15.1021 1074 118.993 510.015 467.763
1592 0 72.1479 15.3989 1111 119.818 509.599 465.906
1593 0 71.0785 12.6339 898 125.802 509.256 465.306
1594 0 78.2775 13.3372 1044 123.753 509.429 463.549
1595 0 82.0905 13.1928 1083 123.814 507.602 464.591
1596 0 81.5032 15.6313 1274 120.108 508.006 464.407
1597 0 84.3542 13.8701 1170 122.214 506.426 466.109
1598 0 87.3709 16.8134 1469 118.431 506.559 466.346
1599 0 88.4095 13.7429 1215 126.925 506.155 459.56
1600 0 91.7019 15.8557 1454 121.905 504.644 458.023
1601 1 49.3144 13.3835 660 122.868 503.694 479.273
1602 0 49.4932 12.83 635 122.063 502.469 479.935
1603 0 51.5131 14.0353 723 122.775 503.241 474.4
1604 0 54.8155 13.0802 717 122.961 501.057 474.01
1605 0 55.1419 14.5262 801 120.121 502.949 477.574
1606 0 57.341 15.2596 875 119.744 502.258 474.853
1607 0 60.1143 14.0898 847 122.05 501.325 473.334
1608 0 60.2266 15.1262 911 120.985 501.902 471.939
1609 0 58.1088 12.3389 717 127.512 500.512 468.968
1610 0 62.1756 13.5101 840 124.849 500.67 466.711
1611 0 65.1819 16.1701 1054 119.946 500.431 464.35
1612 0 67.2328 17.3725 1168 117.456 500.172 462.39
1613 0 70.3699 16.8112 1183 118.752 500.837 460.812
1614 0 71.5771 14.7114 1053 123.417 499.688 457.978
1615 0 73.5478 14.4668 1064 123.545 500.616 457.36
1616 0 76.7325 16.4989 1266 119.557 499.974 454.462
1617 0 82.6688 19.9108 1646 112.409 500.858 456.957
1618 0 77.3513 12.8117 991 126.13 502.724 451.201
1619 0 81.6177 15.9647 1303 120.686 502.22 441.127
1620 0 83.5105 15.4831 1293 117.714 502.52 442.609
1621 0 86.5875 13.1659 1140 122.529 503.54 438.464
1622 0 90.4653 16.3267 1477 117.275 503.88 441.241
1623 1 47.2539 10.1367 479 120.315 505.219 460.025
1624 0 50.203 13.5251 679 114.432 505.295 460.95
1625 0 51.1342 15.5082 793 115.153 504.783 458.359
1626 0 55.2652 15.8147 874 108.554 505.664 460.145
1627 0 54.1883 11.1463 604 116.806 505.606 454.877
1628 0 56.2056 16.0482 902 109.676 506.681 456.555
1629 0 59.1091 14.211 840 110.675 507.232 459.956
1630 0 60.4544 13.994 846 113.189 507.397 454.656
1631 0 62.218 13.4205 835 113.495 507.366 455.521
1632 0 65.357 14.612 955 111.125 507.471 457.02
1633 0 66.4981 11.8951 791 115.939 508.019 458.129
1634 0 67.1942 11.5486 776 117.715 508.276 457.263
1635 0 73.3113 13.204 968 114.225 508.554 459.815
1636 0 74.1674 15.2762 1133 113.205 506.215 455.422
1637 0 77.2208 13.688 1057 115.71 507.125 452.994
1638 0 81.2323 13.4922 1096 116.248 506.951 454.526
1639 0 85.5082 13.0163 1113 116.082 506.717 453.486
1640 0 88.3818 14.8673 1314 114.687 506.571 452.645
1641 0 90.4776 12.5998 1140 119.255 505.176 453.299
1642 1 48.279 11.5578 558 120.378 503.482 476.289
1643 0 47.0989 9.34205 440 123.552 503.477 476.491
1644 0 51.1173 12.5202 640 119.158 502.148 476.028
1645 0 52.1744 15.4099 804 115.733 501.611 475.34
1646 0 49.3134 10.5854 522 120.238 500.92 480.96
1647 0 53.4192 13.8153 738 115.248 501.844 476.354
1648 0 55.1733 14.8441 819 113.236 501.595 475.636
1649 0 58.1378 12.7456 741 115.507 499.803 473.902
1650 0 60.2179 15.4439 930 110.395 500.642 473.386
1651 0 61.2102 13.2821 813 115.106 499.23 470.202
1652 0 64.1618 10.7541 690 117.168 499.649 469.954
1653 0 66.1937 11.0585 732 115.913 498.597 469.791
1654 0 70.3517 15.849 1115 110.315 498.496 465.043
1655 0 74.1905 15.3119 1136 109.785 498.512 460.849
1656 0 73.3232 13.9246 1021 113.014 498.702 462.343
1657 0 78.3234 11.4653 898 115.408 498.108 459.46
1658 0 81.1692 14.0447 1140 113.63 499.346 455.074
1659 0 83.2654 15.3005 1274 110.878 498.572 450.041
1660 0 85.2945 12.6855 1082 114.192 499.958 446.074
1661 0 89.3237 12.3931 1107 113.602 501.098 446.995
1662 1 47.1069 11.5907 546 111.978 500.568 468.445
1663 0 47.0486 12.6465 595 111.526 499.531 463.795
1664 0 50.4159 10.1357 511 113.311 501.468 467.125
1665 0 51.2092 11.58 593 112.103 501.272 465.946
1666 0 55.2278 12.3851 684 111.232 502 463.946
1667 0 52.2616 8.36178 437 117.904 502.876 464.222
1668 0 57.5432 11.4349 658 112 502.96 465.748
1669 0 59.3464 12.0479 715 112.175 504.505 460.492
1670 0 60.1874 11.8962 716 113.633 504.561 459.918
1671 0 63.394 13.8026 875 110.837 505.162 458.423
1672 0 64.1514 10.4908 673 113.938 505.822 465.009
1673 1 130.401 12.6072 1644 120.307 507.545 429.73
1674 0 134.339 14.9249 2005 117.313 508.493 426.95
1675 0 136.466 13.3806 1826 120.77 508.857 427.472
1676 0 143.489 12.1891 1749 122.633 507.985 427.887
1677 1 79.2412 13.6167 1079 112.162 506.999 460.269
1678 1 45.0965 15.9879 721 105.089 506.362 479.308
1679 0 43.0914 12.5083 539 114.011 506.186 478.879
1680 0 45.0409 13.6765 616 113.807 505.144 477.86
1681 0 44.1492 11.5291 509 118.104 504.809 479.556
1682 0 46.3847 10.5207 488 121.455 505.594 480.26
1683 0 49.2225 11.8848 585 118.66 505.858 480.752
1684 0 50.2512 11.94 600 118.95 505.543 481.788
1685 0 51.224 11.967 613 120.803 504.909 481.145
1686 0 50.2192 12.6645 636 122.719 503.241 476.958
1687 0 53.159 14.372 764 119.272 503.171 475.461
1688 0 53.2492 11.4556 610 125.302 503.221 475.138
1689 0 54.1459 18.0808 979 112.423 502.279 478.919
1690 0 51.123 11.3647 581 127.411 501.246 473.9
1691 0 60.1358 18.4748 1111 112.35 500.788 474.647
1692 0 60.1368 13.17 792 123.174 500.956 471.242
1693 0 64.2016 12.8502 825 124.076 500.042 467.998
1694 0 66.1484 16.2513 1075 117.147 500.216 468.838
1695 0 72.2339 12.5841 909 123.617 499.565 466.443
1696 0 69.2705 15.2446 1056 120.839 498.783 462.727
1697 0 72.1946 16.8295 1215 117.674 499.945 461.263
1698 0 72.1946 16.9403 1223 134.43 500.969 461.237
1699 0 76.2338 13.9702 1065 122.577 500.248 457.294
1700 0 78.5345 11.9693 940 125.38 500.661 456.34
1701 1 43.0385 11.3619 489 122.558 501.63 470.808
1702 0 42.0741 10.0537 423 124.664 503.648 473.941
1703 0 48.1433 11.6943 563 121.394 502.172 470.082
1704 0 43.3364 13.2221 573 114.892 502.551 463.476
1705 0 45.2857 11.4606 519 118.838 502.782 462.171
1706 0 45.1693 12.752 576 116.967 504.438 460.536
1707 0 44.2524 11.7282 519 119.638 504.118 455.967
1708 0 47.2661 10.9592 518 119.342 504.452 458.514
1709 0 47.2661 11.0862 524 130.114 505.427 458.252
1710 0 50.1299 13.086 656 117.785 505.355 456.404
1711 0 52.1981 12.0503 629 123.021 504.536 464.362
1712 0 52.1981 12.0886 631 132.132 505.526 464.271
1713 0 53.2891 10.1146 539 125.182 505.876 465.883
1714 0 58.2164 14.24 829 117.961 506.571 463.802
1715 0 60.553 13.7731 834 117.193 506.741 467.338
1716 0 63.2222 13.8559 876 118.015 507.049 464.312
1717 0 64.2122 12.9103 829 118.274 506.596 459.286
1718 0 65.4317 13.2199 865 118.221 506.353 459.94
1719 0 69.2721 14.6091 1012 115.652 507.569 462.422
1720 0 69.0983 14.2406 984 116.116 507.182 463.962
1721 0 75.5075 12.5021 944 114.882 509.789 454.069
1722 0 77.6674 12.5793 977 115.638 508.561 452.993
1723 1 42.2677 12.3025 520 111.44 507.279 473.621
1724 0 46.5173 11.8021 549 111.208 506.741 474.517
1725 0 46.3104 12.1787 564 114.078 506.771 473.956
1726 0 45.3056 11.4335 518 129.232 507.707 474.697
1727 0 49.2311 13.264 653 112.44 507.037 472.458
1728 0 50.1188 12.3906 621 113.903 506.195 472.659
1729 0 55.2903 15.3915 851 107.657 503.881 472.612
1730 0 52.1052 14.9313 778 110.639 503.929 473.928
1731 0 55.2583 15.0566 832 110.839 501.001 468.37
1732 0 57.1173 14.654 837 110.521 502.159 472.343
1733 0 58.1573 11.2454 654 117.621 501.216 467.28
1734 0 60.2304 13.9962 843 113.465 501.006 467.508
1735 0 61.1684 12.0324 736 116.592 499.124 463.095
1736 0 64.1855 13.1494 844 115.434 500.281 463.331
1737 0 68.1136 13.5803 925 114.308 500.097 461.25
1738 0 67.3392 13.2464 892 115.989 499.944 460.021
1739 0 73.2254 14.0798 1031 112.45 498.98 460.661
1740 0 70.4064 13.1238 924 116.209 499.739 457.157
1741 0 73.1292 11.131 814 119.623 499.316 454.485
1742 0 78.1986 15.1921 1188 113.226 500.089 449.504
1743 1 40.0713 11.8539 475 111.789 500.021 469.402
1744 0 42.1395 12.1738 513 111.784 501.302 466.618
1745 0 44.266 12.0408 533 114.364 501.129 465.265
1746 0 44.1324 11.7148 517 119.76 502.464 462.998
1747 0 48.1389 12.5678 605 111.972 500.757 462.838
1748 0 50.0343 12.7513 638 111.434 500.592 460.903
1749 0 49.0658 14.7353 723 109.758 501.596 459.422
1750 0 48.0327 16.114 774 109.151 501.623 459.362
1751 0 53.1659 10.6647 567 121.598 501.787 456.25
1752 0 52.0981 12.0734 629 120.526 502.782 453.296
1753 0 54.0276 15.381 831 114.38 503.207 456.388
1754 0 53.1935 12.8963 686 119.794 503.461 455.27
1755 0 55.1417 8.41468 464 127.509 504.597 452.886
1756 0 60.2112 14.8976 897 114.41 504.233 456.441
1757 0 65.1923 11.3357 739 118.606 504.705 456.728
1758 0 63.5156 11.5247 732 120.686 505.818 454.272
1759 0 67.2446 10.6626 717 121.905 506.623 449.379
1760 1 135.555 16.2518 2203 117.511 507.144 420.139
1761 1 69.2903 13.2919 921 118.315 506.657 451.21
1762 0 72.3852 12.5716 910 118.903 507.567 450.808
1763 0 77.2418 12.8816 995 118.923 507.878 449.627
1764 0 78.7822 14.0514 1107 116.674 507.717 453.301
1765 0 80.2384 11.6777 937 117.148 507.717 452.434
1766 0 80.2384 11.6652 936 132.732 506.737 452.517
1767 0 86.3842 13.9493 1205 115.356 507.018 445.519
1768 0 89.2028 15.4255 1376 112.505 506.924 451.994
1769 1 48.3043 11.9865 579 109.997 507.461 474.204
1770 0 48.397 11.8602 574 110.883 506.382 472.477
1771 0 51.3188 16.4657 845 105.559 504.161 470.512
1772 0 49.4723 10.612 525 119.017 504.731 471.415
1773 0 53.3094 12.9058 688 113.933 502.581 474.866
1774 0 56.6889 12.4539 706 115.085 503.188 472.71
1775 0 57.3981 12.9621 744 116.259 502.605 469.597
1776 0 57.3981 13.0318 748 139.922 501.611 469.628
1777 0 62.4439 14.525 907 113.745 501.244 467.494
1778 0 64.453 12.1949 786 118.112 500.504 466.656
1779 0 64.4151 13.0715 842 117.267 499.378 465.596
1780 0 69.3028 13.5781 941 117.175 499.073 462.033
1781 0 69.3028 13.6791 948 130.825 499.082 461.93
1782 0 71.2782 12.4723 889 121.454 500.028 460.105
1783 0 75.3413 17.4672 1316 113.707 499.903 456.783
1784 0 75.348 11.7853 888 123.632 499.332 456.288
1785 0 79.2276 13.2908 1053 120.934 498.566 456.868
1786 0 82.4791 14.9129 1230 116.343 499.189 453.08
1787 0 83.579 13.1612 1100 118.503 499.909 450.651
1788 0 86.1598 13.3589 1151 124.53 498.825 451.058
1789 0 90.5274 15.8405 1434 121.05 499.704 454.225
1790 0 90.6031 12.7479 1155 130.182 501.284 447.324
1791 1 50.1441 10.7091 537 128.091 501.507 467.514
1792 0 52.0986 11.5166 600 127.082 502.978 465.045
1793 0 55.0917 12.7061 700 123.177 502.867 465.75
1794 0 54.226 13.7572 746 121.318 503.867 463.483
1795 0 57.589 11.5473 665 126.968 504.102 455.311
1796 0 58.5272 12.9512 758 124.557 502.625 460.923
1797 0 63.474 15.8018 1003 119.801 503.104 457.512
1798 0 65.4628 13.1678 862 125.161 504.611 456.462
1799 0 65.4365 12.0881 791 128.097 503.904 457.217
1800 0 70.292 15.6632 1101 119.071 504.616 457.609
1801 0 68.4214 12.4084 849 127.678 506.135 454.45
1802 0 74.4035 17.0153 1266 118.853 506.479 456.299
1803 0 76.4471 14.5852 1115 122.756 506.71 458.552
1804 0 77.2828 14.4405 1116 124.178 505.922 453.834
1805 0 81.2764 13.7309 1116 124.871 506.05 457.634
1806 0 80.1476 12.5144 1003 128.868 507.03 456.057
1807 0 87.3521 14.2298 1243 123.564 506.903 455.302
1808 0 88.3162 13.7461 1214 121.193 506.175 456.8
1809 0 88.2836 14.5894 1288 120.391 506.358 456.183
1810 0 94.2576 12.7099 1198 122.957 505.606 455.359
1811 0 97.2491 13.995 1361 119.357 504.839 456.003
1812 0 103.323 12.5819 1300 122.645 503.52 449.527
1813 1 54.0329 11.2339 607 119.975 503.346 477.311
1814 0 55.0803 14.3427 790 117.473 503.825 471.41
1815 0 57.2857 14.5935 836 116.955 505.038 472.665
1816 0 60.1291 11.1261 669 121.744 505.795 477.185
1817 0 62.0381 12.7664 792 120.237 504.124 475.587
1818 0 66.1073 13.2663 877 117.656 503.82 472.964
1819 0 67.105 11.6236 780 122.604 503.044 467.727
1820 0 70.3416 14.1026 992 118.537 503.24 465.181
1821 0 72.1981 14.7095 1062 116.253 501.717 466.864
1822 0 75.6033 15.0126 1135 114.416 502.712 470.643
1823 0 76.101 13.4821 1026 118.848 501.38 458.791
1824 0 79.2187 12.0805 957 118.922 500.681 465.683
1825 0 81.1432 13.5809 1102 117.267 500.693 461.685
1826 0 82.368 15.3822 1267 115.483 501.264 455.751
1827 0 85.1332 18.2772 1556 111.747 501.092 452.949
1828 0 87.1224 12.3619 1077 118.466 500.15 461.068
1829 0 92.1483 14.0209 1292 116.858 500.379 455.438
1830 0 94.27 17.7893 1677 113.363 501.249 450.116
1831 0 95.171 11.9574 1138 119.895 501.919 449.813
1832 1 52.1229 12.0485 628 114.654 501.197 470.661
1833 0 56.4031 12.9957 733 112.465 502.714 464.123
1834 0 55.1116 15.0966 832 111.304 502.737 463.945
1835 0 56.0622 13.8774 778 113.379 502.267 461.433
1836 0 55.1764 8.69937 480 119.398 504.273 464.785
1837 0 59.1056 13.5689 802 116.778 502.606 459.949
1838 0 62.1458 12.2454 761 117.063 504.901 464.473
1839 0 63.0846 14.0763 888 116.59 505.019 459.815
1840 0 65.4179 11.9692 783 119.317 505.455 463.2
1841 0 66.4179 14.5894 969 117.392 504.722 457.964
1842 0 69.2732 12.0249 833 118.743 506.286 458.19
1843 0 71.2143 13.8877 989 116.355 506.823 455.622
1844 0 76.1863 13.5983 1036 115.864 507.97 456.891
1845 0 78.3095 16.4476 1288 111.757 506.492 455.415
1846 0 80.2693 13.5045 1084 117.135 507.83 455.417
1847 0 82.2186 13.0992 1077 118.509 507.329 456.379
1848 0 85.2609 16.2794 1388 114.57 507.864 455.188
1849 1 45.1031 13.7241 619 120.782 507.63 474.431
1850 0 46.3571 12.6194 585 116.711 507.564 469.439
1851 0 46.2107 11.4043 527 118.423 507.324 470.861
1852 0 50.3227 12.6583 637 110.975 506.185 471.009
1853 0 50.3227 12.6384 636 127.025 506.211 470.958
1854 0 53.1799 14.2535 758 108.249 505.272 472.389
1855 0 55.4011 13.664 757 111.299 506.037 467.604
1856 0 55.3156 9.90679 548 116.661 504.708 474.792
1857 0 58.2532 13.2868 774 114.162 503.954 468.689
1858 0 61.2349 17.0164 1042 107.752 503.583 471.188
1859 0 61.2574 13.0107 797 114.502 502.87 471.072
1860 0 60.263 12.097 729 118.331 502.726 468.346
1861 0 65.2104 11.6699 761 117.522 502.18 467.356
1862 0 67.1795 14.2008 954 114.941 501.084 465.209
1863 0 70.2244 16.2906 1144 111.735 500.766 463.479
1864 0 69.3548 14.3465 995 117.211 499.514 460.53
1865 0 74.4542 14.8951 1109 115.149 498.32 459.766
1866 0 75.1951 15.4398 1161 115.816 499.343 457.228
1867 0 81.713 14.4285 1179 116.04 498.486 455.479
1868 0 78.2278 14.7518 1154 117.805 498.622 452.69
1869 0 83.2229 17.9398 1493 112.293 498.672 452.31
1870 0 85.3556 13.1684 1124 121.02 498.247 450.375
1871 0 87.3476 12.0095 1049 122.027 498.784 449.508
1872 1 46.2338 11.3121 523 118.864 497.38 469.105
1873 0 46.2188 15.0805 697 113.022 498.212 467.138
1874 0 49.2295 14.5848 718 115.894 498.845 465.167
1875 0 52.3942 14.849 778 119.874 498.643 466.824
1876 0 53.2759 14.5281 774 125.181 498.19 465.789
1877 0 55.4198 13.7496 762 126.529 499.547 462.854
1878 0 53.2678 10.4941 559 134.587 499.844 463.667
1879 0 59.3462 12.4524 739 131.091 499.869 460.264
1880 0 59.2633 13.904 824 128.501 500.773 461.148
1881 0 62.2994 14.8958 928 126.772 501.235 457.442
1882 0 64.4215 15.6935 1011 124.435 502.511 459.367
1883 0 66.341 14.4556 959 128.222 502.509 458.674
1884 0 68.2598 14.4155 984 128.591 503.495 454.474
1885 0 70.34 14.6005 1027 127.258 503.908 457.128
1886 0 75.2287 14.5556 1095 126.887 503.736 455.951
1887 0 78.3218 15.781 1236 124.131 505.789 454.303
1888 0 80.2409 16.8368 1351 120.529 505.43 458.175
1889 0 82.3143 12.0514 992 131.076 506.54 455.254
1890 0 87.3528 14.9623 1307 125.943 506.982 449.448
1891 0 89.3476 17.1577 1533 122.346 507.83 451.141
1892 0 93.7214 13.7002 1284 128.118 505.818 453.002
1893 1 50.1319 12.4472 624 125.317 508.058 473.907
1894 0 50.3563 13.4243 676 118.607 504.84 474.978
1895 0 51.2506 12.7023 651 117.63 505.848 472.028
1896 0 52.259 12.7059 664 117.991 504.608 473.574
1897 0 56.1991 13.0785 735 116.758 505.98 473.136
1898 0 59.1619 13.8434 819 115.648 504.969 473.194
1899 0 60.2474 13.9591 841 114.912 505.453 473.759
1900 0 61.2187 11.7121 717 125.236 503.879 475.48
1901 0 61.2052 12.1068 741 124.167 502.814 474.057
1902 0 63.2042 12.3568 781 123.256 502.948 472.138
1903 0 65.2188 13.2477 864 119.613 501.785 469.369
1904 0 69.1588 12.0592 834 121.049 501.143 468.018
1905 0 71.2968 14.8674 1060 116.177 499.986 466.506
1906 0 70.2446 12.8835 905 121.14 499.938 461.976
1907 0 76.2349 14.0093 1068 118.648 499.683 462.378
1908 0 80.3538 12.9054 1037 119.822 498.193 458.154
1909 0 80.2539 14.0803 1130 119.188 498.258 452.209
1910 0 82.2767 14.0988 1160 120.023 498.71 452.803
1911 0 84.4251 12.8161 1082 124.453 497.249 454.072
1912 0 89.6294 14.0802 1262 121.728 497.621 451.117
1913 0 88.4995 13.0735 1157 124.999 497.033 448.951
1914 0 92.4634 13.3674 1236 123.487 498.049 450.299
1915 0 95.4131 14.9875 1430 120.695 498.34 447.631
1916 1 51.1854 8.85018 453 122.362 498.287 466.826
1917 0 52.2903 10.5564 552 121.379 497.288 459.712
1918 0 56.2198 12.7002 714 124.814 500.066 458.938
1919 0 59.1562 15.2985 905 119.379 500.654 460.049
1920 0 59.1369 12.4964 739 125.204 501.145 454.593
1921 0 61.1432 14.3924 880 121.142 501.417 453.524
1922 0 63.0917 14.8989 940 120.109 502.19 453.955
1923 0 67.1444 12.5997 846 122.778 501.66 453.418
1924 0 68.4378 15.6492 1071 117.725 504.021 456.62
1925 0 70.5371 13.9785 986 121.279 504.281 455.619
1926 0 72.4072 15.4957 1122 118.929 504.989 452.863
1927 0 76.3586 14.1831 1083 120.715 505.042 451.627
1928 0 79.2297 14.5779 1155 119.436 505.877 453.834
1929 0 81.7441 13.6034 1112 120.597 506.727 447.772
1930 0 84.4062 14.0156 1183 120.378 507.541 450.075
1931 0 86.5038 13.4676 1165 120.139 506.677 448.49
1932 0 90.8531 12.3386 1121 122.589 508.5 445.922
1933 0 93.5437 12.8389 1201 122.558 508.941 442.216
1934 1 51.1544 10.7909 552 123.402 508.841 469.415
1935 0 53.097 10.7727 572 116.638 507.892 462.267
1936 0 57.36 15.2197 873 110.462 507.441 463.081
1937 0 53.3462 11.2473 600 118.65 506.638 466.027
1938 0 58.3584 12.7317 743 115.783 506.322 465.724
1939 0 58.179 11.499 669 119.096 506.776 463.779
1940 0 61.2413 11.071 678 117.948 505.109 464.879
1941 0 66.2548 12.301 815 115.902 506.498 463.541
1942 0 66.2621 8.90403 590 118.946 504.447 469.695
1943 0 68.3476 14.5579 995 113.335 504.777 467.395
1944 0 72.3107 14.5345 1051 115.04 504.157 464.983
1945 0 74.5606 14.0557 1048 116.019 501.191 462.764
1946 0 76.411 10.6267 812 122.118 501.67 459.677
1947 0 78.3189 10.7892 845 122.586 500.8 458.322
1948 0 83.2617 14.0761 1172 115.127 499.397 461.355
1949 0 84.4155 12.5214 1057 119.169 499.476 455.57
1950 0 89.2976 15.6443 1397 114.181 498.678 457.445
1951 0 91.3491 15.0193 1372 116.504 498.432 450.558
1952 0 95.3735 13.9976 1335 117.646 498.413 450.386
1953 1 53.3762 11.8592 633 116.463 497.506 469.695
1954 0 53.3516 9.59671 512 119.484 498.256 468.779
1955 0 61.3307 11.0548 678 117.519 496.678 466.283
1956 0 60.326 9.81335 592 134.024 494.532 468.468
1957 0 60.3014 15.8703 957 109.077 496.486 465.607
1958 0 59.3015 13.17 781 113.529 498.456 460.192
1959 0 62.2142 15.736 979 105.994 498.604 457.133
1960 0 62.3206 9.06603 565 120.103 500.12 464.336
1961 0 68.3418 13.2861 908 111.883 499.829 461.762
1962 0 71.3397 14.0455 1002 110.813 500.537 458.095
1963 0 74.2453 14.1962 1054 110.452 500.275 456.4
1964 0 75.2948 14.2108 1070 111.009 500.474 454.85
1965 0 76.3099 12.1478 927 113.652 502.863 452.319
1966 0 80.3715 12.2431 984 113.613 502.694 447.547
1967 0 81.2616 14.1395 1149 111.614 502.726 449.667
1968 0 85.3246 12.095 1032 113.746 503.853 451.383
1969 0 88.228 12.343 1089 113.334 505.108 450.782
1970 0 89.2477 14.3981 1285 112.953 504.719 444.583
1971 0 92.4779 11.2567 1041 117.502 505.088 442.92
1972 0 98.3923 16.2208 1596 109.8 505.649 444.469
1973 0 98.385 12.2885 1209 117.293 505.082 440.556
1974 0 104.596 16.2816 1703 108.758 504.615 447.625
1975 0 105.464 11.4732 1210 118.088 505.057 438.553
1976 0 110.474 12.9804 1434 114.895 506.381 440.114
1977 1 58.16 10.6602 620 108.998 506.089 464.295
1978 0 62.1141 11.9136 740 111.857 505.73 462.685
1979 0 64.351 19.1916 1235 106.627 507.398 468.156
1980 0 67.3959 15.995 1078 111.049 507.951 466.528
1981 0 68.2638 13.5211 923 115.294 506.459 465.966
1982 0 71.1887 14.005 997 114.031 505.992 465.921
1983 0 74.2384 17.3226 1286 108.635 505.585 465.989
1984 0 78.3144 15.8719 1243 111.348 505.862 463.52
1985 0 77.2148 11.0471 853 120.225 503.989 463.807
1986 0 80.3375 14.937 1200 114.822 504.107 462.625
1987 0 83.1776 12.828 1067 115.902 500.335 464.225
1988 0 85.2429 13.6903 1167 117.778 501.68 455.984
1989 0 88.2732 13.1297 1159 118.093 499.774 456.807
1990 0 93.3629 15.1666 1416 115.031 500.629 453.095
1991 0 97.231 12.8354 1248 118.832 500.228 452.808
1992 0 97.47 15.3483 1496 116.09 499.825 453.1
1993 0 104.398 16.1594 1687 113.555 499.522 451.855
1994 1 58.3556 12.9208 754 112.93 499.63 474.725
1995 0 59.2085 8.8163 522 121.849 496.948 471.669
1996 0 62.4227 13.8892 867 112.97 497.953 472.065
1997 0 61.3048 13.7836 845 111.833 496.694 468.297
1998 0 61.3975 11.792 724 110.975 499.425 455.946
1999 0 64.1731 10.7522 690 112.933 499.099 453.33
2000 0 64.1731 10.7989 693 129.683 498.108 453.17
2001 0 68.3754 14.1718 969 108.003 496.198 456.862
2002 0 72.2629 13.5754 981 109.633 497.943 456.241
2003 0 75.671 14.5366 1100 110.209 497.179 455.107
2004 0 78.5362 13.1022 1029 113.357 499.425 457.934
2005 0 78.0934 14.7003 1148 111.145 499.556 457.632
2006 0 82.0769 14.2915 1173 112.089 498.693 454.233
2007 0 86.119 15.734 1355 108.244 500.569 451.72
2008 0 89.2959 14.088 1258 111.076 500.726 448.503
2009 0 90.3076 14.351 1296 111.157 501.993 445.575
2010 0 96.3612 14.3419 1382 111.025 503.302 444.541
2011 0 97.4887 12.3296 1202 114.728 503.736 444.563
2012 0 102.63 15.0638 1546 112.649 503.799 435.515
2013 0 105.601 17.7649 1876 108.539 504.241 431.033
2014 1 58.5086 13.0066 761 109.494 505.455 461.519
2015 0 59.6192 10.2987 614 115.134 505.84 455.352
2016 0 61.1797 12.8801 788 109.152 505.222 456.251
2017 0 62.2735 11.0159 686 109.595 504.997 461.716
2018 0 63.3023 12.3692 783 107.192 505.536 460.572
2019 0 65.3876 16.7616 1096 102.36 506.318 461.018
2020 0 68.3803 13.6882 936 106.611 506.557 461.501
2021 0 70.325 12.428 874 107.169 505.33 468.952
2022 0 72.4358 11.5413 836 110.414 505.947 462.394
2023 0 73.4179 9.6298 707 113.017 505.543 464.284
2024 0 79.472 12.0797 960 108.101 505.441 462.848
2025 0 81.6577 15.565 1271 103.036 504.118 466.47
2026 0 82.3858 9.29772 766 110.745 505.637 459.157
2027 0 87.509 12.433 1088 106.579 503.814 457.788
2028 0 88.4412 10.0066 885 110.101 505.207 458.741
2029 0 94.1828 10.6707 1005 110.23 503.973 453.178
2030 0 95.6617 11.0807 1060 109.375 503.866 447.515
2031 0 98.2122 13.7661 1352 106.785 503.301 442.065
2032 0 101.567 11.5195 1170 110.242 502.35 444.182
2033 0 109.563 13.6542 1496 106.837 502.746 444.983
2034 1 55.2508 5.91846 327 112.612 502.875 468.749
2035 0 58.6592 15.1894 891 101.046 500.816 461.944
2036 0 59.1753 11.6265 688 106.922 499.336 462.783
2037 0 59.0876 10.4929 620 120.029 496.927 459.926
2038 0 68.2258 10.9196 745 117.608 496.762 464.314
2039 0 66.102 12.7379 842 116.441 496.682 460.533
2040 0 67.0944 13.0711 877 117.09 495.813 457.074
2041 0 72.1323 11.9225 860 117.343 496.429 459.18
2042 0 71.1079 14.8085 1053 114.598 497.121 453.934
2043 0 71.1232 13.3149 947 118.792 496.664 454.891
2044 0 77.1144 14.8092 1142 116.061 496.686 449.561
2045 0 77.1773 13.6309 1052 117.691 496.454 453.565
2046 0 79.1889 12.6533 1002 120.788 496.639 450.915
2047 0 86.1346 15.3365 1321 115.645 497.476 446.193
2048 0 85.1921 17.2199 1467 114.414 497.292 441.96
2049 0 89.1549 15.389 1372 117.821 500.12 441.616
2050 0 91.1776 13.885 1266 118.317 498.867 441.834
2051 0 94.2309 14.1143 1330 120.082 499.886 440.317
2052 0 94.2608 11.7971 1112 124.375 500.935 435.495
2053 0 98.3795 16.355 1609 115.779 501.313 440.05
2054 0 103.148 11.7113 1208 124.484 501.133 435.76
2055 0 107.648 15.9223 1714 117.515 504.25 429.075
2056 0 106.646 15.9593 1702 137.117 506.288 428.97
2057 1 58.2857 10.5343 614 123.852 504.619 453.22
2058 0 63.4656 15.7566 1000 115.64 505.457 455.601
2059 0 62.3516 11.6918 729 122.661 504.634 457.303
2060 0 66.1055 11.8144 781 121.26 504.6 454.138
2061 0 69.11 16.6112 1148 112.451 504.37 459.402
2062 0 68.2043 14.3979 982 118.194 503.972 456.455
2063 0 71.1006 18.4387 1311 110.728 503.818 457.054
2064 0 74.2597 16.1326 1198 114.64 504.576 456.574
2065 0 76.291 14.7724 1127 117.148 504.685 455.332
2066 0 82.1297 14.1605 1163 116.764 505.345 454.913
2067 0 84.1942 17.3409 1460 111.258 504.117 454.127
2068 0 87.307 12.1983 1065 120.858 504.814 451.77
2069 0 87.3186 15.4034 1345 115.84 504.564 451.497
2070 0 91.3242 11.3442 1036 122.434 504.198 449.993
2071 1 46.2154 9.82357 454 118.128 504.485 469.436
2072 0 46.1989 9.89202 457 128.088 503.501 469.328
2073 0 54.118 11.0315 597 118.948 502.4 470.598
2074 0 52.1349 10.9715 572 119.942 500.241 469.077
2075 0 56.051 11.1684 626 119.764 499.551 469.23
2076 0 58.0583 12.5219 727 115.711 497.963 472.908
2077 0 60.0896 13.7961 829 116.175 497.613 464.153
2078 0 60.173 10.5031 632 120.772 496.85 467.13
2079 0 65.0413 14.7445 959 112.09 496.98 467.578
2080 0 63.1169 11.6609 736 121.776 495.893 456.515
2081 0 66.0365 11.0091 727 120.979 496.404 459.912
2082 0 71.1134 11.5168 819 120.199 496.509 455.907
2083 0 70.0834 13.3555 936 118.109 495.246 453.667
2084 0 75.1422 14.5324 1092 115.845 496.801 451.069
2085 0 77.036 12.293 947 120.096 496.075 448.797
2086 0 78.0954 12.3951 968 119.468 496.501 451.777
2087 0 84.0795 12.179 1024 119.391 496.812 448.896
2088 0 85.1017 11.1396 948 121.592 496.561 446.11
2089 0 84.2956 13.595 1146 118.414 496.507 441.408
2090 0 87.2286 11.5214 1005 122.763 497.515 438.809
2091 0 95.1186 12.1638 1157 118.708 498.713 443.119
2092 1 50.0867 9.32384 467 117.717 498.886 460.233
2093 0 51.0711 8.7525 447 118.53 499.116 460.293
2094 0 54.0631 10.7837 583 115.23 499.413 460.034
2095 0 55.0961 12.814 706 112.336 500.887 457.074
2096 0 59.3092 14.7532 875 104.159 503.938 458.143
2097 0 61.2397 12.149 744 107.966 503.168 458.474
2098 0 60.4698 10.6003 641 110.312 504.577 458.555
2099 0 64.4505 18.0759 1165 99.2069 504.276 459.7
2100 0 65.2951 8.54582 558 113.69 505.744 455.602
2101 0 68.4672 10.2239 700 109.33 506.056 460.077
2102 0 71.179 13.8103 983 105.58 506.12 457.036
2103 0 72.2448 11.6548 842 108.545 506.675 456.603
2104 0 74.134 12.936 959 107.533 506.016 453.314
2105 0 77.3899 15.3638 1189 103.862 506.352 455.506
2106 0 79.4328 10.8645 863 109.688 507.603 455.484
2107 0 82.3476 11.9251 982 109.604 505.694 451.339
2108 0 88.75 15.6056 1385 103.074 505.544 454.283
2109 0 90.6381 14.0118 1270 106.661 505.78 454.201
2110 0 92.4364 14.5073 1341 107.21 505.084 451.403
2111 0 95.4788 13.7413 1312 110.231 505.51 449.182
2112 0 95.5879 14.6253 1398 109.742 504.438 452.267
2113 1 53.2485 12.0379 641 111.367 504.727 473.098
2114 0 54.4132 10.163 553 117.096 504.119 471.497
2115 0 57.346 12.9564 743 111.001 503.067 474.034
2116 0 58.3085 13.6344 795 111.423 501.624 469.009
2117 0 60.4047 12.7639 771 115.031 500.825 467.121
2118 0 62.4918 14.0978 881 110.596 501.121 470.062
2119 0 63.4332 12.8324 814 113.292 501.058 465.6
2120 0 67.2611 13.3361 897 111.328 501.381 462.749
2121 0 66.4628 13.1352 873 112.856 499.734 461.416
2122 0 72.4371 11.0441 800 110.881 497.862 469.498
2123 0 70.5086 10.6937 754 112.219 498.113 467.191
2124 0 74.4207 12.8459 956 109.514 498.273 461.922
2125 0 75.368 10.7075 807 113.556 499.623 456.83
2126 0 75.323 10.2625 773 114.726 499.762 454.259
2127 0 77.2084 9.58444 740 114.528 498.227 452.397
2128 0 87.3295 12.7448 1113 109.671 499.614 450.217
2129 0 86.3385 13.4818 1164 108.928 497.633 451.166
2130 0 87.3153 9.75774 852 114.083 499.069 448.629
2131 0 90.296 13.4004 1210 109.674 499.173 443.804
2132 0 94.3718 14.0614 1327 107.637 498.392 445.421
2133 0 97.3395 13.3142 1296 110.409 500.661 439.09
2134 0 99.277 13.558 1346 109.776 501.266 437.492
2135 0 103.256 12.3576 1276 110.778 501.069 438.532
2136 0 106.627 11.6011 1237 111.569 501.098 438.741
2137 1 52.2329 8.80671 460 113.965 502.102 459.646
2138 0 56.2361 10.6693 600 112.263 502.507 456.098
2139 0 60.1713 14.1263 850 106.464 502.896 455.715
2140 0 61.1078 16.4627 1006 104.174 504.568 453.358
2141 0 61.1078 16.3482 999 120.904 505.525 453.602
2142 0 67.1831 16.7155 1123 102.954 504.199 458.111
2143 0 67.2411 14.2919 961 107.345 504.17 456.573
2144 0 69.2269 10.2128 707 113.573 504.949 453.54
2145 0 72.1841 13.3824 966 109.218 506.057 455.163
2146 0 75.1644 14.5149 1091 107.429 505.512 453.182
2147 0 77.3364 15.077 1166 106.991 507.23 453.949
2148 0 81.26 15.112 1228 105.988 506.139 456.295
2149 0 85.1852 14.7561 1257 106.091 506.489 455.863
2150 0 87.2601 15.7689 1376 104.071 506.27 459.994
2151 0 91.2365 13.4047 1223 108.442 504.804 454.84
2152 0 94.2056 13.9376 1313 108.598 506.029 449.677
2153 0 98.3901 15.1946 1495 106.215 505.801 455.148
2154 1 55.1866 10.9809 606 107.805 504.794 476.177
2155 0 59.2846 17.9304 1063 101.883 503.155 472.768
2156 0 58.1053 13.7681 800 110.599 502.279 474.628
2157 0 61.1142 17.0828 1044 105.012 501.605 474.663
2158 0 63.1752 16.9054 1068 105.978 499.408 475.076
2159 0 65.0876 15.3486 999 107.926 499.849 472.014
2160 0 66.1614 10.157 672 115.315 498.141 472.716
2161 0 70.1555 14.8242 1040 109.314 499.562 470.162
2162 0 72.2325 16.0039 1156 108.259 498.27 466.162
2163 0 74.1314 13.1793 977 114.877 497.63 462.887
2164 0 80.2129 17.6281 1414 105.552 497.822 462.316
2165 0 79.2087 12.7511 1010 112.484 496.833 463.891
2166 0 79.1909 14.9638 1185 110.308 497.609 462.28
2167 0 87.4316 15.0518 1316 110.663 499.79 454.948
2168 0 88.4757 14.795 1309 111.701 499.038 451.659
2169 0 91.2745 14.5824 1331 112.885 498.05 446.424
2170 0 93.3629 13.1101 1224 114.777 498.842 447.485
2171 0 94.5209 12.3359 1166 117.121 497.673 441.238
2172 0 103.441 13.6697 1414 113.152 497.942 443.981
2173 0 103.441 13.6503 1412 141.852 497.946 443.833
2174 0 107.504 13.767 1480 112.833 498.928 440.009
2175 0 109.436 15.7261 1721 109.51 499.956 435.992
2176 1 56.0764 12.7326 714 110.542 501.202 462.347
2177 0 58.2224 10.4942 611 114.594 501.772 456.234
2178 0 64.2374 15.4738 994 103.292 501.785 456.497
2179 0 64.3714 11.8997 766 106.664 502.191 459.352
2180 0 67.2318 15.0821 1014 100.959 503.788 459.406
2181 0 68.2229 14.5406 992 101.877 504.359 460.264
2182 0 71.2193 13.9709 995 103.812 504.126 456.981
2183 0 71.2456 13.0254 928 105.761 505.208 458.196
2184 0 72.2614 12.8699 930 108.647 504.915 458.218
2185 0 76.1899 16.052 1223 105.866 505.259 450.719
2186 0 79.384 13.1513 1044 108.438 506.113 455.146
2187 0 83.1965 13.5342 1126 109.296 506.347 451.036
2188 0 83.3076 10.9594 913 112.398 508.11 454.065
2189 0 87.2608 14.5655 1271 109.183 508.404 450.636
2190 0 88.1935 10.6357 938 115.29 507.413 451.801
2191 0 90.1473 13.0786 1179 111.471 507.49 452.886
2192 0 95.3524 13.5602 1293 111.462 506.759 451.41
2193 0 100.312 18.3628 1842 104.372 507.33 452.322
2194 0 108.331 17.6126 1908 105.301 507.655 447.814
2195 0 106.305 14.3079 1521 111.865 506.269 446.939
2196 1 67.2194 10.4583 703 113.092 505.89 468.495
2197 0 64.4762 12.7954 825 102.785 505.602 466.531
2198 0 65.1945 13.0226 849 102.074 504.23 468.253
2199 0 66.4832 12.2136 812 102.349 503.586 468.631
2200 0 72.3913 14.2144 1029 100.052 502.221 466.144
2201 0 74.2529 11.3262 841 102.647 502.68 464.484
2202 0 80.2571 7.8747 632 105.677 500.059 467.272
2203 0 77.3795 14.0476 1087 100.035 499.919 463.628
2204 0 78.3303 13.3537 1046 102.595 500.671 457.228
2205 0 80.3175 10.1099 812 106.176 500.585 457.557
2206 1 158.727 13.2176 2098 108.699 499.719 418.553
2207 1 90.4349 14.0322 1269 99.8456 498.653 452.632
2208 0 89.4132 16.9214 1513 98.5968 498.217 446.395
2209 0 95.4682 12.9048 1232 103.74 497.832 441.304
2210 0 96.3374 12.9752 1250 104.135 497.78 436.51
2211 0 103.487 15.4029 1594 100.49 497.508 446.81
2212 0 102.391 15.2552 1562 105.566 498.801 437.216
2213 1 52.3192 13.0736 684 104.398 497.083 462.06
2214 0 58.1863 15.5879 907 99.5524 497.269 461.033
2215 0 55.1792 11.3449 626 103.738 498.355 457.335
2216 0 55.1792 11.4355 631 118.441 497.306 457.345
2217 0 57.2744 7.94421 455 108.424 498.749 453.855
2218 0 64.1627 10.5669 678 103.748 499.627 456.099
2219 0 64.2382 12.7494 819 102.792 499.883 452.687
2220 0 64.245 11.9854 770 104.174 501.517 453.012
2221 0 67.2644 15.2384 1025 97.319 502.517 458.733
2222 0 67.5206 7.06451 477 109.543 501.398 451.069
2223 0 72.3042 10.1239 732 105.686 502.389 446.339
2224 0 75.4133 12.2657 925 103.362 502.802 447.915
2225 0 75.4165 11.9868 904 104.879 504.616 446.449
2226 0 75.3112 7.66154 577 110.858 504.241 448.256
2227 0 84.2894 18.6856 1575 96.7784 504.112 447.201
2228 0 85.235 17.1995 1466 99.0136 503.207 448.447
2229 0 84.3308 11.8462 999 107.631 505.158 440.323
2230 0 88.2975 15.0287 1327 101.912 505.76 450.088
2231 0 92.2141 17.3726 1602 99.7516 505.974 448.039
2232 0 93.2967 15.1452 1413 104.59 506.312 441.446
2233 0 98.2949 14.8736 1462 103.515 506.012 445.415
2234 0 102.639 19.2519 1976 98.8052 506.812 445.819
2235 0 101.271 15.2067 1540 106.551 507.353 439.282
2236 0 106.847 13.8515 1480 108.211 507.061 443.124
2237 0 109.282 11.6854 1277 111.684 506.715 437.439
2238 1 64.3962 12.3454 795 109.542 503.776 469.696
2239 0 66.5 14.6015 971 103.605 505.713 469.041
2240 0 67.1608 14.1452 950 103.868 504.526 462.623
2241 0 70.4128 14.6848 1034 108.23 504.305 462.582
2242 0 72.3274 13.0379 943 110.321 502.562 465.412
2243 0 77.3457 14.5839 1128 109.354 503.289 458.668
2244 0 78.2448 12.9721 1015 109.092 501.71 456.432
2245 0 81.2355 12.7654 1037 110.053 501.411 455.511
2246 0 85.5015 12.5612 1074 110.247 500.577 454.19
2247 0 88.4431 14.5065 1283 105.248 499.341 456.057
2248 0 90.5398 8.78067 795 115.023 499.691 452.525
2249 0 94.4692 10.8924 1029 113.059 498.43 447.973
2250 0 97.4344 13.4449 1310 110.479 498.652 442.766
2251 1 49.2407 9.89019 487 108.277 498.663 467.374
2252 0 50.2691 11.2395 565 107.356 498.301 462.848
2253 0 52.4743 11.3961 598 112.318 497.654 466.288
2254 0 56.5082 12.3345 697 110.112 496.689 465.209
2255 0 55.4678 11.4841 637 113.049 496.438 464.003
2256 0 59.4285 11.863 705 112.867 497.556 460.901
2257 0 60.2756 12.0281 725 108.105 497.545 466.177
2258 0 63.3695 16.0014 1014 108.844 499.092 463.43
2259 0 63.3387 15.3777 974 112.229 498.672 458.666
2260 0 65.3764 11.7015 765 117.331 499.533 459.37
2261 0 67.3362 14.4202 971 114.581 500.72 455.953
2262 0 70.3752 12.9733 913 117.637 499.153 453.825
2263 0 72.443 15.488 1122 112.974 500.538 455.758
2264 0 73.2773 15.0251 1101 114.688 501.596 449.001
2265 0 77.4094 13.3705 1035 116.778 501.492 449.574
2266 0 81.4361 12.7339 1037 117.631 502.107 451.411
2267 0 81.5764 13.705 1118 116.978 501.039 450.844
2268 0 82.3118 15.3076 1260 114.435 501.187 453.598
2269 0 86.3437 15.2646 1318 116.192 503.307 448.794
2270 0 88.415 14.3754 1271 118.765 503.092 446.269
2271 0 94.438 13.4056 1266 120.208 503.581 443.717
2272 0 94.328 18.213 1718 111.26 505.949 444.994
2273 0 94.3099 18.0893 1706 124.228 508.96 444.993
2274 0 102.315 13.6149 1393 118.267 507.045 444.368
2275 0 105.356 13.8293 1457 117.679 506.844 442.472
2276 1 58.312 13.3935 781 109.694 505.229 465.653
2277 0 61.2743 12.8928 790 109.353 504.371 468.584
2278 0 61.1933 12.8609 787 110.391 505.776 464.996
2279 0 66.3017 16.4702 1092 104.408 505.435 465.832
2280 0 68.5093 13.4872 924 108.38 506.095 466.942
2281 0 70.1326 12.4621 874 113.217 503.708 466.565
2282 0 73.3762 11.8295 868 111.748 504.372 466.08
2283 0 78.2434 16.6659 1304 102.235 504.956 464.574
2284 0 80.384 14.381 1156 106.414 504.499 454.334
2285 0 82.441 13.1852 1087 108.328 503.839 457.216
2286 0 82.1752 11.4025 937 112.608 503.181 455.377
2287 0 86.316 11.6085 1002 111.485 502.21 452.667
2288 0 91.4877 12.723 1164 109.791 501.709 453.974
2289 0 94.5546 11.7815 1114 112.046 500.675 450.491
2290 0 95.4104 10.6173 1013 115.227 500.89 447.531
2291 1 52.27 11.9954 627 110.624 498.542 469.008
2292 0 54.1362 12.1915 660 111.926 500.605 468.653
2293 0 51.2449 10.0107 513 120.992 499.612 463.776
2294 0 58.2487 14.7471 859 108.374 497.991 465.505
2295 0 60.3713 14.0795 850 110.259 496.678 464.724
2296 0 63.2898 13.6989 867 109.991 497.754 465.286
2297 0 61.3274 11.8707 728 114.552 497.922 462.657
2298 0 65.4319 9.9187 649 118.191 498.076 456.066
2299 0 68.2895 14.8193 1012 112.303 497.032 464.228
2300 0 69.1922 14.7415 1020 114.278 497.679 458.21
2301 0 70.2324 15.5341 1091 113.902 498.122 456.764
2302 0 75.1448 13.1613 989 115.418 497.31 460.533
2303 0 75.1448 13.2411 995 139.475 497.329 460.482
2304 0 77.2148 15.5411 1200 114.178 499.267 452.48
2305 0 82.1409 13.1603 1081 116.813 498.954 452.835
2306 0 83.1281 15.6866 1304 113.571 500.497 449.357
2307 0 86.1688 15.1099 1302 115.085 499.855 445.679
2308 0 89.3006 15.0391 1343 114.611 502.343 446.391
2309 0 89.2909 13.372 1194 134.714 504.171 448.366
2310 1 46.1672 10.8302 500 111.404 503.314 464.794
2311 0 48.3063 10.4127 503 111.537 503.187 463.34
2312 0 49.3158 10.4834 517 119.044 504.302 457.737
2313 0 54.1982 13.2661 719 106.62 504.492 464.225
2314 0 54.5989 11.557 631 111.943 505.602 461.301
2315 0 55.2967 13.527 748 111.559 506.092 458.654
2316 0 57.351 10.9675 629 113.658 506.135 461.038
2317 0 60.2621 12.9932 783 112.029 505.722 460.75
2318 0 61.0361 12.5663 767 117.695 507.224 466.256
2319 0 63.0619 11.4808 724 119.153 506.964 465.729
2320 0 68.147 15.9802 1089 110.478 506.41 468.817
2321 0 72.1555 16.4229 1185 110.638 506.264 467.747
2322 0 75.1541 18.4155 1384 108.227 506.21 466.376
2323 0 76.1342 15.1837 1156 114.668 505.511 465.003
2324 0 79.0624 15.1652 1199 113.967 505.896 467.065
2325 0 80.0808 13.3865 1072 117.937 505.324 464.643
2326 0 88.252 13.4501 1187 116.101 505.049 462.277
2327 0 85.3354 11.7185 1000 121.058 504.446 456.279
2328 0 93.0693 17.4923 1628 110.498 503.523 462.077
2329 0 91.1296 12.8937 1175 119.134 502.252 458.919
2330 0 96.3487 12.5897 1213 120.126 501.862 454.97
2331 1 57.054 14.46 825 116.772 501.379 475.029
2332 0 58.0705 14.8268 861 117.468 501.742 468.856
2333 0 59.102 14.5342 859 115.21 502.187 469.906
2334 0 62.1551 14.9304 928 114.577 500.954 465.948
2335 0 64.3041 15.5822 1002 111.873 500.769 465.411
2336 0 62.121 13.1357 816 117.868 499.947 465.629
2337 0 67.2006 15.2826 1027 114.361 500.012 461.158
2338 0 66.1188 10.8744 719 122.531 500.601 460.266
2339 0 71.1445 16.0097 1139 113.335 499.621 460.076
2340 0 71.2126 14.1127 1005 117.714 499.859 456.135
2341 0 74.1192 13.114 972 119.274 500.634 456.509
2342 0 78.235 17.6008 1377 110.032 499.807 457.073
2343 0 79.178 13.8422 1096 118.325 499.883 450.115
2344 0 82.2152 15.6784 1289 114.97 500.351 448.649
2345 0 85.2499 15.1437 1291 115.938 500.871 445.871
2346 0 89.2113 18.9326 1689 109.086 501.36 447.355
2347 0 91.2554 13.7197 1252 118.447 501.228 442.93
2348 0 93.3039 14.0187 1308 118.198 501.639 443.718
2349 1 52.1311 10.3201 538 119.199 499.175 466.474
2350 0 51.1174 13.068 668 117.087 500.491 463.713
2351 0 54.1105 11.8461 641 120.757 501.051 460.037
2352 0 57.0824 15.1185 863 114.067 501.149 463.579
2353 0 57.0948 12.7857 730 120.763 502.642 459.049
2354 0 59.047 12.3461 729 122.351 503.159 462.047
2355 0 64.0764 14.0613 901 119.7 503.083 460.345
2356 0 64.1048 13.8835 890 120.782 503.763 456.028
2357 0 66.1208 13.7627 910 120.366 503.213 460.029
2358 0 67.0638 12.0333 807 124.052 505.357 455.85
2359 0 73.239 14.4185 1056 117.849 505.441 459.224
2360 0 73.0738 12.2205 893 121.413 505.204 458.861
2361 0 79.2732 15.1628 1202 115.758 503.977 461.267
2362 0 79.1358 14.1655 1121 118.959 504.972 457.068
2363 0 79.27 11.8204 937 123.121 504.28 458.117
2364 0 84.1892 14.9663 1260 118.389 505.539 456.622
2365 0 89.3984 12.6624 1132 120.397 504.217 458.878
2366 0 88.2106 12.2094 1077 122.709 503.877 459.405
2367 0 91.2997 13.6693 1248 120.881 503.889 459.632
2368 0 98.3875 14.2193 1399 120.081 503.041 457.5
2369 0 98.4241 15.0166 1478 120.014 501.121 450.491
2370 0 104.457 15.4896 1618 117.95 500.938 453.038
2371 0 107.299 15.6665 1681 116.286 500.489 457.152
2372 0 114.174 8.78487 1003 123.619 498.299 453.066
2373 0 116.417 15.1095 1759 114.852 499.614 450.304
2374 1 65.2787 11.5658 755 116.515 499.146 472.979
2375 0 66.1153 16.199 1071 110.809 496.202 468.328
2376 0 68.1911 13.5062 921 115.013 495.179 466.334
2377 0 72.115 13.2289 954 114.858 494.811 465.52
2378 0 74.1132 13.0071 964 115.321 494.463 462.869
2379 0 77.2333 17.35 1340 108.727 494.183 458.587
2380 0 76.2007 14.1731 1080 113.968 494.327 460.421
2381 0 80.2943 14.3721 1154 113.585 495.502 453.705
2382 0 83.1525 15.7903 1313 110.881 495.25 454.696
2383 0 87.2846 16.5436 1444 108.801 493.967 453.253
2384 0 89.2545 18.5873 1659 106.201 494.576 450.092
2385 0 89.2065 13.99 1248 113.613 495.394 446.724
2386 0 93.1889 16.3539 1524 109.434 495.953 445.314
2387 0 96.1217 16.9056 1625 107.924 497.16 446.175
2388 0 97.1217 15.321 1488 130.618 498.22 441.125
2389 0 101.366 16.2579 1648 109.85 497.33 439.07
2390 0 103.107 13.3066 1372 113.466 498.238 432.628
2391 0 106.271 15.3852 1635 110.01 498.998 433.524
2392 0 111.313 13.5743 1511 112.008 498.794 435.56
2393 0 113.293 16.0203 1815 109.6 500.759 429.801
2394 0 119.256 13.5004 1610 112.584 502.73 431.937
2395 0 119.658 14.1319 1691 111.988 503.251 434.896
2396 0 127.522 12.7586 1627 113.206 502.98 434.422
2397 0 134.345 13.1229 1763 113.478 504.142 429.719
2398 0 142.469 12.8028 1824 113.302 504.673 429.69
2399 0 142.473 13.6588 1946 113.545 504.778 427.91
2400 0 149.356 15.3928 2299 108.474 505.373 437.637
2401 0 152.37 10.993 1675 117.447 504.417 427.355
2402 1 89.3137 17.9032 1599 104.862 503.001 456.205
2403 0 91.2538 19.1883 1751 103.369 502.356 458.897
2404 0 93.2122 14.6225 1363 110.529 503.464 455.076
2405 0 97.2336 13.6373 1326 113.093 502.575 453.764
2406 1 54.0842 16.2155 877 103.756 501.862 481.015
2407 0 55.0719 12.5654 692 110.251 501.688 479.931
2408 0 57.1841 12.6259 722 106.756 500.965 481.454
2409 0 57.3928 13.5905 780 107.344 502.906 479.149
2410 0 60.2793 13.0559 787 107.211 501.226 474.51
2411 0 61.3199 18.379 1127 101.109 499.97 478.207
2412 0 63.1987 12.0572 762 114.127 499.646 475.717
2413 0 69.4363 17.1956 1194 105.916 498.94 474.716
2414 0 67.4983 11.7336 792 116.566 498.672 466.423
2415 0 70.275 11.8534 833 115.103 498.567 469.588
2416 0 72.5017 16.1651 1172 108.868 497.922 468.78
2417 0 74.2712 10.5694 785 116.341 497.452 469.954
2418 0 76.3529 17.8382 1362 107.122 496.582 464.952
2419 0 78.4099 15.0236 1178 109.667 495.618 465.538
2420 0 80.4903 12.0014 966 115.224 495.902 461.856
2421 0 85.5394 13.8416 1184 111.903 496.486 459.733
2422 0 85.5959 15.0358 1287 110.62 497.243 456.82
2423 0 88.5544 17.9551 1590 107.966 496.695 450.708
2424 0 93.9457 16.9992 1597 107.987 496.753 452.582
2425 0 94.6465 14.9081 1411 113.188 497.218 444.352
2426 0 96.3344 12.249 1180 112.016 498.22 443.257
2427 1 55.2788 12.0842 668 105.397 497.377 464.237
2428 0 55.3663 12.3541 684 107.197 497.168 465.05
2429 0 57.4153 13.0279 748 108.54 497.234 462.21
2430 0 61.3408 15.3405 941 104.511 498.855 456.884
2431 0 62.4321 14.4637 903 109.714 500.053 460.048
2432 0 62.4321 14.5118 906 135.492 500.042 460.046
2433 0 67.3005 14.0564 946 104.585 501.3 460.871
2434 0 71.3326 20.2993 1448 97.2693 501.881 456.588
2435 0 71.2901 13.9851 997 104.35 503.075 458.374
2436 0 71.2887 14.0555 1002 125.628 504.076 458.312
2437 0 73.2789 13.4145 983 109.286 503.17 453.881
2438 0 78.5011 14.2164 1116 108.151 503.15 450.711
2439 0 81.3969 13.7966 1123 108.786 504.071 452.232
2440 0 84.5904 12.8502 1087 109.845 505.461 453.579
2441 0 85.3178 12.0725 1030 113.657 504.53 451.662
2442 0 91.3655 15.4763 1414 109.008 504.035 452.043
2443 1 50.2306 10.85 545 110.305 502.864 473.084
2444 0 54.2235 10.9731 595 110.397 505.097 474.109
2445 0 52.3257 11.524 603 113.92 503.806 468.896
2446 0 54.4675 13.531 737 108.681 504.193 476.673
2447 0 56.2233 11.1875 629 114.035 503.948 476.328
2448 0 55.2292 12.946 715 113.154 503.65 474.66
2449 0 61.5501 12.8838 793 113.637 502.686 473.854
2450 0 63.4145 14.4604 917 111.48 503.126 472.354
2451 0 66.3341 14.1405 938 111.216 501.558 472.466
2452 0 66.3341 14.0953 935 130.539 500.557 472.553
2453 0 71.3477 13.4973 963 113.344 499.772 471.661
2454 0 73.2571 14.2512 1044 112.879 499.14 467.071
2455 0 75.39 13.1317 990 115.4 499.161 466.505
2456 0 76.171 15.6884 1195 110.527 497.161 469.017
2457 0 81.2661 14.4464 1174 115.147 497.079 459.063
2458 0 83.437 14.3342 1196 116.032 496.543 458.948
2459 0 86.3521 14.6493 1265 115.953 496.864 456.914
2460 0 89.6728 16.8278 1509 112.863 496.478 451.48
2461 0 92.7949 14.462 1342 116.039 496.723 454.187
2462 0 95.6393 16.0499 1535 114.079 496.924 453.561
2463 0 100.709 16.503 1662 113.721 497.638 448.877
2464 0 100.462 15.5681 1564 115.836 496.902 446.795
2465 0 101.75 15.1056 1537 117.448 496.716 443.864
2466 0 105.632 12.998 1373 120.759 497.063 438.291
2467 0 111.038 14.4095 1600 118.013 497.084 437.901
2468 1 56.2049 11.5648 650 116.5 498.166 466.674
2469 0 61.4993 15.1059 929 112.558 498.298 462.391
2470 0 61.6165 14.2007 875 113.96 498.234 463.215
2471 0 63.5147 12.8474 816 117.974 499.02 458.911
2472 0 66.3977 13.8107 917 117.073 499.507 457.122
2473 0 69.3415 13.9455 967 117.283 499.568 453.975
2474 0 72.6103 15.356 1115 114.753 500.651 456.378
2475 0 75.3109 13.7032 1032 116.99 501.782 456.083
2476 0 78.3257 13.4056 1050 116.806 502.397 453.709
2477 0 80.395 16.108 1295 114.154 503.743 452.143
2478 0 79.6374 12.4941 995 121.398 503.393 446.516
2479 0 87.5965 15.3773 1347 115.964 504.239 447.519
2480 0 90.798 15.8814 1442 113.558 503.738 447.494
2481 0 93.4146 14.623 1366 115.532 505.071 446.756
2482 0 94.9946 12.3691 1175 118.975 504.334 448.563
2483 0 99.9478 13.7072 1370 117.058 504.433 448.026
2484 0 103.805 12.2248 1269 120.344 502.485 444.284
2485 0 103.805 12.3019 1277 156.709 501.47 444.376
2486 1 60.8425 11.4722 698 116.116 503.629 471.023
2487 0 60.7336 10.1097 614 117.313 503.292 472.533
2488 0 65.6428 13.5125 887 114.07 502.82 473.455
2489 0 67.1462 11.7207 787 117.734 503.623 473.499
2490 0 70.1832 12.1539 853 116.288 502.658 473.944
2491 0 74.441 15.032 1119 114.93 501.165 467.784
2492 0 77.2924 13.6107 1052 115.619 501.494 467.644
2493 0 81.2639 16.7233 1359 112.115 500.712 463.036
2494 0 82.3172 15.6832 1291 112.804 499.623 466.258
2495 0 82.3172 15.7561 1297 135.082 498.607 466.345
2496 0 92.266 17.2978 1596 109.872 497.641 457.045
2497 0 91.689 14.451 1325 115.983 498.115 451.904
2498 0 93.1114 10.6969 996 119.36 497.393 456.17
2499 0 99.6239 14.3239 1427 114.227 497.064 452.089
2500 1 57.3121 13.1386 753 112.981 497.478 469.204
2501 0 59.3508 10.3453 614 120.187 496.236 462.143
2502 0 60.5382 13.5947 823 115.951 496.587 453.474
2503 0 62.5305 12.0101 751 116.242 496.783 462.29
2504 0 64.633 13.9403 901 113.06 495.749 462.151
2505 0 63.2944 10.8698 688 119.153 496.231 466.174
2506 0 69.5208 14.341 997 112.979 496.002 463.639
2507 0 71.2284 11.8071 841 116.408 496.228 462.259
2508 0 71.4993 14.8673 1063 111.566 495.731 458.962
2509 0 73.3562 14.8999 1093 113.669 496.398 456.117
2510 0 76.5095 17.9978 1377 109.633 496.447 452.899
2511 0 81.443 15.606 1271 112.012 495.364 451.476
2512 0 80.4325 13.3031 1070 118.38 496.877 444.126
2513 0 85.362 13.308 1136 118.868 498.387 445.292
2514 0 88.3584 16.4331 1452 112.523 499.59 446.893
2515 0 86.1569 12.1638 1048 121.592 499.368 443.433
2516 0 92.6224 13.636 1263 119.268 499.984 443.168
2517 0 93.2389 15.1439 1412 117.839 500.8 441.912
2518 0 98.4682 14.6139 1439 117.885 500.368 442.771
2519 0 103.406 14.3995 1489 118.19 500.523 442.431
2520 0 108.417 13.2175 1433 119.882 501.284 440.787
2521 0 105.551 14.1733 1496 121.587 502.562 433.969
2522 0 110.763 13.7411 1522 121.457 501.911 438.634
2523 0 115.539 14.93 1725 119.888 503.631 439.254
2524 0 118.538 16.3745 1941 117.592 502.494 440.205
2525 0 123.534 13.5995 1680 124.87 503.15 432.78
2526 1 73.2811 14.1237 1035 119.232 502.815 460.947
2527 0 73.2856 13.8363 1014 122.863 502.141 457.04
2528 0 79.22 16.3974 1299 117.676 501.88 458.702
2529 0 81.2136 14.1848 1152 121.866 501.724 461.789
2530 0 86.5119 18.6102 1610 114.447 501.567 458.125
2531 0 89.2825 15.6022 1393 120.048 501.495 458.098
2532 0 90.4265 13.0603 1181 124.876 501.467 457.246
2533 0 98.3172 17.6571 1736 114.397 500.417 460.722
2534 0 99.2738 16.1372 1602 119.273 499.963 455.076
2535 0 102.256 15.911 1627 119.943 498.567 452.615
2536 0 106.458 17.3496 1847 117.56 497.385 451.204
2537 0 109.346 13.8368 1513 124.541 497.325 447.632
2538 0 114.43 15.7126 1798 121.537 496.526 445.154
2539 0 117.408 15.9019 1867 121.55 496.304 440.249
2540 0 123.518 17.7384 2191 116.833 496.178 443.583
2541 0 126.346 17.7846 2247 118.195 495.485 436.168
2542 0 128.525 14.6897 1888 124.569 495.602 429.793
2543 0 135.584 16.2334 2201 121.378 495.291 431.054
2544 0 138.623 16.9019 2343 119.236 495.528 421.34
2545 0 148.268 14.1636 2100 122.841 496.372 418.002
2546 1 80.5221 10.6803 860 118.734 496.012 447.901
2547 0 85.8838 11.4806 986 117.651 495.339 444.811
2548 0 89.4953 16.3696 1465 111.868 497.145 448.478
2549 0 87.3837 11.7184 1024 123.666 497.437 440.953
2550 0 94.5677 17.0037 1608 113.733 496.667 441.238
2551 0 93.4615 12.5506 1173 121.75 498.512 440.452
2552 0 95.5343 10.0173 957 121.404 497.587 444.396
2553 0 100.497 15.075 1515 112.266 499.301 441.452
2554 0 103.288 14.2902 1476 113.48 498.892 440.412
2555 0 108.431 14.6545 1589 113.776 500.33 440.5
2556 0 108.588 12.2205 1327 118.702 500.909 441.382
2557 0 114.439 14.9861 1715 115.795 501.965 434.624
2558 0 115.265 15.1564 1747 115.06 502.386 432.51
2559 0 122.341 15.1054 1848 113.686 503.986 432.858
2560 1 71.4492 12.1625 869 114.277 503.592 455.264
2561 0 71.4492 12.1765 870 135.262 503.597 455.343
2562 0 78.5603 13.3401 1048 113.547 504.45 450.175
2563 0 77.8116 11.258 876 114.095 504.565 455.433
2564 0 82.6737 9.79756 810 117.7 505.099 450.149
2565 0 79.4025 8.13577 646 120.015 504.215 454.52
2566 0 89.6842 15.4096 1382 109.494 504.491 448.805
2567 0 88.2769 12.4495 1099 114.591 503.443 447.011
2568 1 100.454 8.70049 874 115.704 505.151 456.926
2569 0 97.4719 12.4446 1213 112.949 504.511 447.358
2570 0 94.4439 9.88947 934 117.944 503.467 447.693
2571 0 104.524 11.758 1229 115.308 504.142 444.314
2572 0 105.305 13.2757 1398 113.935 503.504 437.981
2573 0 109.56 13.1527 1441 113.662 501.86 442.019
2574 0 114.58 12.1749 1395 114.743 501.277 439.513
2575 0 115.42 12.4588 1438 112.347 500.195 447.059
2576 0 125.473 12.5286 1572 113.661 500.217 426.256
2577 1 70.1599 11.3455 796 113.345 498.893 456.491
2578 0 78.2011 10.0766 788 114.098 499.825 452.73
2579 0 70.2115 12.8469 902 111.716 498.102 454.744
2580 1 82.8669 10.4143 863 112.944 498.024 452.817
2581 0 83.4373 11.7573 981 110.139 498.528 453.042
2582 0 89.3976 12.0809 1080 109.484 497.348 455.001
2583 0 86.3219 8.73475 754 115.878 496.625 449.512
2584 0 90.8299 12.0885 1098 110.948 496.209 444.863
2585 0 94.4285 10.0182 946 112.922 497.021 444.574
2586 0 98.6914 17.3571 1713 101.088 496.225 440.007
2587 0 97.4408 17.1694 1673 101.928 496.936 440.519
2588 0 101.416 9.92938 1007 111.652 495.751 438.098
2589 0 108.373 14.5609 1578 104.445 496.547 436.297
2590 0 108.308 15.3082 1658 104.613 496.626 431.676
2591 0 107.483 11.6949 1257 110.02 496.791 433.125
2592 1 133.815 8.29505 1110 111.768 497.513 433.482
2593 0 125.474 6.57506 825 113.842 497 433.642
2594 0 129.766 13.848 1797 105.391 497.703 425.278
2595 0 129.686 10.1861 1321 141.416 498.634 433.805
2596 0 131.73 12.0322 1585 110.052 497.84 419.23
2597 0 136.579 14.2629 1948 106.797 499.176 417.536
2598 1 82.6179 11.6682 964 104.276 499.563 447.739
2599 0 86.384 16.635 1437 96.0306 499.779 445.575
2600 0 89.5019 12.2456 1096 102.328 500.918 443.157
2601 0 92.3036 14.0623 1298 99.3621 500.429 446.071
2602 0 93.7044 15.1754 1422 97.8502 500.053 440.956
2603 0 96.4585 11.4039 1100 102.808 500.835 437.5
2604 0 100.388 13.4877 1354 98.8634 500.645 444.346
2605 0 103.539 16.2547 1683 96.0404 501.124 445.056
2606 0 105.466 14.0235 1479 98.4233 501.723 439.048
2607 0 115.517 15.2185 1758 94.8043 500.839 443.368
2608 0 115.517 15.106 1745 135.379 499.874 443.232
2609 0 118.93 14.4286 1716 101.164 501.977 435.146
2610 0 118.876 14.1576 1683 102.424 501.254 437.506
2611 0 125.484 12.3283 1547 102.899 501.807 441.519
2612 0 130.629 10.0743 1316 106.198 501.966 434.474
2613 1 74.2584 11.5677 859 100.367 499.835 464.303
2614 0 74.1454 12.5564 931 101.435 499.879 458.122
2615 0 80.2743 13.404 1076 99.2054 499.031 462.294
2616 0 81.3482 16.497 1342 96.4426 497.885 459.606
2617 0 85.4001 13.1733 1125 100.076 497.557 454.497
2618 0 85.4001 13.3138 1137 136.113 497.529 454.643
2619 0 87.3958 14.1425 1236 100.189 495.972 453.4
2620 0 93.2124 13.6999 1277 100.888 495.598 451.719
2621 0 92.3797 10.8682 1004 105.49 496.366 444.766
2622 0 98.3543 12.5465 1234 101.306 495.684 450.366
2623 0 101.317 13.9167 1410 100.374 495.872 440.05
2624 0 99.3355 14.1943 1410 102.34 495.104 435.173
2625 0 108.397 13.7457 1490 102.283 494.787 438.083
2626 0 106.325 12.8286 1364 104.863 495.782 432.971
2627 0 112.381 14.789 1662 101.679 494.56 432.716
2628 0 107.276 15.5206 1665 102.34 495 428.443
2629 1 10.0012 12.8984 129 80.845 494.62 481.938
2630 0 9.00177 2.22178 20 87.75 495.55 483.8
2631 0 10.1137 9.88756 100 80.05 495.56 483.14
2632 0 10.0046 4.79779 48 84.375 496.812 482.312
2633 0 9.00058 13.3325 120 78.475 495 482.883
2634 0 12.007 2.08212 25 88.72 496.6 482.12
2635 0 12.007 2.1654 26 105.269 497.769 481.923
2636 0 7.00065 6.42797 45 82.6667 500.378 479.2
2637 0 9.00372 3.77622 34 84.3235 501.029 480.088
2638 0 0 0 0 -nan -nan -nan
2639 0 0 0 0 -nan -nan -nan
2640 0 0 0 0 -nan -nan -nan
2641 0 8.00387 8.49589 68 80.6029 498.912 485.088
2642 0 11.0434 10.3229 114 78.8158 501.149 485.877
2643 0 7 1.71429 12 87.25 502.167 483.583
2644 0 7.00078 2.85682 20 84.75 503.45 483.3
2645 0 8.00663 8.61786 69 79.4928 502.188 484.348
2646 0 12.0569 8.95755 108 77.5648 502.5 487.278
2647 0 0 0 3.95252e-322 -nan 490 -0.0215087
2648 0 12.0448 5.39654 65 81 501.662 489.923
2649 0 2 2.5 5 85.2 501.4 491.4
2650 0 10.0027 2.99918 30 83.4333 499.467 494.933
2651 1 81.2891 10.9855 893 96.5689 499.669 448.653
2652 0 91.5618 12.7564 1168 93.5471 500.503 439.223
2653 0 93.2352 14.9407 1393 89.5542 496.594 450.556
2654 0 91.1678 14.2594 1300 91.5585 496.745 442.927
2655 0 94.521 10.2094 965 94.9482 496.058 450.564
2656 0 96.3072 11.7333 1130 93.9177 494.974 450.11
2657 0 101.29 12.4593 1262 98.6862 493.768 448.059
2658 0 99.358 9.54125 948 98.9378 493.555 454.485
2659 0 100.363 13.9793 1403 122.757 494.944 447.909
2660 1 114.366 16.5521 1893 94.1569 495.036 442.151
2661 0 116.539 15.2824 1781 96.3925 494.386 437.801
2662 0 119.556 15.3234 1832 96.3259 493.708 439.965
2663 0 121.388 8.56756 1040 104.106 496.037 430.788
2664 0 125.337 13.1805 1652 99.1707 495.626 440.134
2665 0 128.463 18.1297 2329 95.9781 495.168 425.98
2666 0 132.379 13.28 1758 105.521 495.474 429.33
2667 0 136.49 12.5284 1710 105.061 496.137 432.83
2668 0 137.549 13.6242 1874 105.312 496.143 425.041
2669 0 138.626 11.347 1573 107.835 495.077 419.692
2670 0 138.626 11.347 1573 136.262 494.073 419.84
2671 0 148.473 12.4265 1845 103.344 494.591 417.302
2672 0 156.887 17.6178 2764 99.6302 495.399 402.158
2673 0 158.91 16.9026 2686 100.55 496.699 404.863
2674 0 161.491 15.9018 2568 102.572 497.991 403.793
2675 1 97.2896 13.6603 1329 96.7901 498.322 441.679
2676 0 100.782 15.2507 1537 97.0534 498.409 431.064
2677 0 102.428 11.1396 1141 99.7599 497.98 441.407
2678 0 103.419 10.6364 1100 100.668 497.728 442.947
2679 0 110.718 15.9595 1767 95.2779 500.467 441.377
2680 0 112.596 13.313 1499 98.2608 500.454 438.482
2681 0 111.254 11.4692 1276 101.056 500.47 434.661
2682 0 116.852 9.4906 1109 102.525 501.288 434.796
2683 0 119.516 13.7973 1649 98.9333 501.127 435.858
2684 0 123.693 9.99248 1236 100.875 501.517 444.846
2685 0 128.552 12.8119 1647 99.6891 500.457 435.506
2686 0 131.781 13.4087 1767 99.0334 500.591 434.637
2687 0 137.635 13.6085 1873 98.4196 501.311 428.041
2688 0 141.749 11.8731 1683 99.8241 501.625 432.37
2689 0 143.486 13.5066 1938 99.2575 501.754 426.357
2690 0 149.465 17.5626 2625 95.1234 500.945 427.656
2691 0 152.745 13.2115 2018 99.7101 501.844 427.842
2692 0 154.941 15.1154 2342 97.6072 501.166 422.718
2693 1 165.683 16.3807 2714 96.7332 499.555 417.492
2694 0 170.233 17.4173 2965 93.9373 500.143 432.119
2695 0 173.99 13.7536 2393 100.529 499.72 418.698
2696 0 181.658 16.0246 2911 98.1247 498.584 423.738
2697 0 181.658 16.0081 2908 134.485 496.602 423.475
2698 0 189.951 19.1155 3631 94.1082 497.8 411.886
2699 0 195.81 10.3468 2026 101.962 497.295 394.238
2700 0 203.82 17.6037 3588 94.1892 497.632 403.37
2701 0 204.39 14.8833 3042 99.9329 496.294 388.838
2702 0 213.643 13.8642 2962 87.423 496.12 395.599
2703 0 219.959 20.1129 4424 85.1555 494.988 397.817
2704 0 223.28 13.5122 3017 92.2357 493.807 372.285
2705 0 230.507 13.6352 3143 91.0554 494.96 388.009
2706 0 237.732 11.4415 2720 93.1096 494.162 382.845
2707 1 191.08 14.7687 2822 88.0904 493.547 414.299
2708 0 194.184 14.4193 2800 90.3582 493.803 401.173
2709 0 198.117 27.1405 5377 82.4714 493.605 397.221
2710 0 207.195 16.5062 3420 89.9708 494.869 398.676
2711 0 216.375 20.3766 4409 87.039 495.552 397.013
2712 0 219.923 11.5859 2548 94.4553 495.244 390.054
2713 0 224.272 14.0098 3142 95.2498 495.722 360.714
2714 1 240.297 22.493 5405 87.7684 495.732 375.954
2715 0 246.41 18.5057 4560 90.8675 496.685 376.223
2716 0 250.252 23.4923 5879 86.101 496.258 384.828
2717 0 259.367 18.2676 4738 91.6239 497.518 370.661
2718 0 266.897 16.4521 4391 94.3696 498.361 347.307
2719 0 276.471 18.1863 5028 92.9459 499.033 347.604
2720 1 209.292 17.908 3748 90.766 500.01 390.688
2721 0 214.068 12.6689 2712 96.611 499.739 378.828
2722 0 218.882 24.6251 5390 84.7649 498.63 398.322
2723 0 226.776 25.0467 5680 85.5542 499.534 363.045
2724 0 234.956 16.5691 3893 93.3979 500.695 347.85
2725 0 242.08 17.7008 4285 91.5463 501.036 346.428
2726 0 247.08 16.0758 3972 93.1198 500.032 334.53
2727 0 261.447 24.265 6344 85.6926 499.912 332.832
2728 0 267.216 27.7228 7408 83.9991 499.716 359.236
2729 1 204.717 14.9377 3058 94.3872 502.345 386.76
2730 0 209.79 13.8806 2912 97.3334 502.707 375.676
2731 0 220.536 14.5146 3201 96.0222 501.344 380.611
2732 0 227.682 17.0281 3877 93.1909 501.552 386.033
2733 0 233.652 17.479 4084 94.0416 501.365 376.731
2734 0 239.869 16.7217 4011 94.6043 501.924 383.159
2735 0 246.912 14.8069 3656 96.9029 500.453 373.522
2736 1 274.224 14.1271 3874 93.372 500.957 392.575
2737 0 276.314 13.9117 3844 94.9547 500.603 378.964
2738 0 275.422 17.337 4775 94.1847 500.228 351.424
2739 0 285.299 14.0274 4002 96.6867 500.09 362.401
2740 0 290.148 15.3784 4462 96.7199 498.658 351.47
2741 1 220.738 10.9813 2424 98.7558 499.317 396.6
2742 0 229.457 15.2621 3502 93.9969 497.375 397.114
2743 0 233.408 14.4896 3382 95.7215 496.997 382.382
2744 0 239.747 15.8876 3809 94.8238 496.433 377.015
2745 0 244.661 11.4076 2791 100.495 496.855 357.3
2746 0 256.013 17.6905 4529 92.539 495.843 372.788
2747 0 263.878 15.1661 4002 94.8116 495.837 371.424
2748 0 268.644 14.562 3912 96.7998 494.715 348.47
2749 0 279.842 20.6259 5772 92.1133 495.327 354.993
2750 0 287.479 18.1996 5232 93.7622 493.721 359.86
2751 0 296.44 23.4314 6946 90.5382 493.647 327.044
2752 0 303.197 16.049 4866 97.849 495.921 326.616
2753 0 313.281 24.8435 7783 88.3842 494.808 310.556
2754 0 320.36 20.9952 6726 100.233 495.994 303.948
2755 0 332.008 29.9962 9959 92.5584 496.137 319.237
2756 0 334.901 19.14 6410 103.327 497.432 299.259
2757 0 348.197 17.3925 6056 105.848 497.224 301.44
2758 0 360.605 18.3248 6608 105.365 497.728 289.704
2761 1 123.898 12.0179 1489 103.492 498.468 416.324
2762 0 130.825 12.1078 1584 101.979 498.704 423.432
2763 0 137.712 13.4701 1855 97.442 499.824 413.364
2764 0 135.748 12.9284 1755 98.7088 499.61 406.466
2765 0 142.772 13.2659 1894 98.274 500.588 409.856
2766 0 142.849 9.09353 1299 102.139 499.842 417.433
2767 0 150.842 16.0765 2425 94.548 500.933 423.676
2768 0 162.151 12.5316 2032 99.4877 500.869 408.815
2769 0 158.758 23.3878 3713 88.3178 501.369 420.564
2770 0 165.59 12.4645 2064 98.907 502.732 414.129
2771 1 95.7972 14.7082 1409 93.2328 503.463 445.05
2772 0 98.4426 19.585 1928 90.7562 503.582 445.157
2773 0 104.721 18.4012 1927 90.5267 504.108 456.791
2774 0 101.598 13.5338 1375 98.688 503.348 448.461
2775 0 104.7 9.3696 981 102.307 502.514 452.033
2776 0 108.86 17.1045 1862 95.0961 501.961 446.48
2777 0 109.39 14.5443 1591 98.9265 501.605 445.945
2778 0 114.719 13.5462 1554 100.306 502.204 444.313
2779 0 116.754 16.188 1890 98.4048 501.124 440.04
2780 0 122.684 16.5384 2029 98.7127 501.81 437.476
2781 0 123.476 15.8817 1961 99.028 501.554 445.244
2782 0 124.453 11.6911 1455 104.572 501.41 439.091
2783 0 130.644 14.2907 1867 100.304 501.011 439.838
2784 0 132.596 12.8888 1709 99.0579 499.982 434.745
2785 0 136.335 15.1025 2059 96.1773 500.076 433.639
2786 0 139.526 15.2516 2128 95.8059 498.313 434.403
2787 1 212.902 21.0473 4481 92.4133 497.958 389.646
2788 1 148.498 13.9329 2069 97.4795 496.542 430.26
2789 0 157.442 14.4181 2270 97.3802 495.601 417.902
2790 0 160.933 25.5199 4107 87.5057 495.772 422.976
2791 0 161.734 15.8841 2569 96.1491 495.431 412.684
2792 0 166.871 14.1007 2353 98.0438 496.531 410.985
2793 0 171.906 11.3609 1953 101.69 496.612 400.118
2794 0 176.873 14.9825 2650 98.1026 496.871 395.217
2795 0 188.269 15.2707 2875 96.6946 497.249 402.854
2796 0 190.168 14.7291 2801 99.0011 496.451 390.159
2797 0 192.774 14.6545 2825 99.1731 497.48 390.596
2798 0 202.164 15.0719 3047 98.0985 498.356 387.227
2799 0 205.179 17.5456 3600 95.9011 498.628 381.038
2800 0 209.107 10.2818 2150 103.041 498.652 383.417
2801 0 219.771 17.0769 3753 96.1956 498.163 371.124
2802 0 228.003 16.3726 3733 96.4787 499.441 365.249
2803 0 236.997 23.4096 5548 89.3005 497.893 376.516
2804 0 238.756 11.0531 2639 101.224 500.947 368.274
2805 0 248.56 16.2898 4049 97.7187 499.158 363.537
2806 0 251.023 9.19836 2309 106.894 501.068 349.468
2807 1 61.1045 8.77186 536 92.4422 499.675 462.5
2808 0 61.7131 11.116 686 92.2099 501.303 460.095
2809 0 68.1212 15.6192 1064 87.0235 500.463 460.985
2810 0 67.8121 15.7347 1067 86.9606 501.581 466.079
2811 0 64.769 14.8374 961 89.9615 502.134 458.024
2812 0 66.8041 14.4752 967 90.0796 503.808 458.218
2813 0 69.9348 19.4324 1359 84.2723 503.364 466.625
2814 0 66.4664 9.76433 649 96.1079 502.718 452.817
2815 0 72.8222 10.2029 743 95.7268 502.385 452.526
2816 0 73.5306 13.5454 996 90.7289 502.413 464.995
2817 0 75.5711 9.40836 711 96.2869 503.274 464.757
2818 0 75.7145 10.1566 769 96.6736 502.986 461.272
2819 0 81.0723 16.4668 1335 90.5558 504.278 457.127
2820 0 80.7306 12.0896 976 95.5379 503.089 460.514
2821 0 85.7309 15.362 1317 92.2361 503.936 454.581
2822 0 85.2104 14.0945 1201 93.8435 502.462 458.272
2823 0 87.9337 13.5443 1191 95.8623 502.906 454.546
2824 0 85.4562 6.23711 533 101.332 502.869 451.833
2825 0 91.629 10.3024 944 94.4481 502.359 462.386
2826 0 97.429 9.94571 969 94.8277 503.195 456.922
2827 0 102.112 16.4036 1675 86.9069 502.18 452.75
2828 0 100.531 16.1443 1623 89.894 501.492 451.794
2829 1 185.337 5.86499 1087 99.4793 501.952 419.006
2830 0 186.506 19.6294 3661 88.9312 500.4 396.074
2831 0 268.289 18.4689 4955 89.5905 499.814 392.099
2832 1 110.156 9.67717 1066 97.7345 499.252 432.151
2833 0 115.718 22.8486 2644 85.6259 498.382 440.545
2834 0 121.684 13.7816 1677 92.5236 498.971 432.001
2835 0 121.684 13.8885 1690 140.461 497.989 432.161
2836 0 121.778 9.45984 1152 97.309 497.844 434.021
2837 0 128.951 12.2139 1575 93.0889 498.142 431.03
2838 1 81.541 14.1279 1152 87.4861 498.501 456.979
2839 0 81.9614 19.2652 1579 84.1596 498.132 455.824
2840 0 86.5161 15.7774 1365 86.6718 499.321 456.901
2841 0 83.4702 14.8915 1243 89.4875 499.522 448.525
2842 1 145.886 10.7892 1574 95.6163 498.238 427.303
2843 1 89.4817 14.9751 1340 88.6672 498.746 452.748
2844 0 92.6435 14.6799 1360 89.5375 499.871 448.723
2845 0 95.4642 21.2226 2026 86.1565 499.903 439.507
2846 0 95.5052 14.4704 1382 92.0441 501.305 442.577
2847 0 95.5052 14.5123 1386 138.336 502.32 442.566
2848 0 104.743 13.7002 1435 92.2683 503.1 443.161
2849 0 109.019 26.3808 2876 83.4993 502.458 438.901
2850 0 107.723 11.6317 1253 95.735 503.986 438.191
2851 0 113.053 15.1522 1713 92.4466 504.502 436.01
2852 0 111.67 15.9935 1786 93.3802 504.627 428.417
2853 0 117.796 11.6048 1367 95.9437 505.565 434.871
2854 0 115.609 14.3155 1655 95.545 505.558 428.903
2855 0 122.576 10.6138 1301 98.9631 505.819 429.854
2856 0 126.883 17.1181 2172 91.9388 505.928 436.009
2857 0 136.131 16.1903 2204 92.7096 504.748 430.539
2858 0 130.877 9.57384 1253 100.123 506.456 429.103
2859 1 78.4928 12.4088 974 91.6879 506.782 463.592
2860 0 78.4928 12.3069 966 136.414 506.792 463.643
2861 0 78.2851 17.845 1397 87.1067 504.601 453.789
2862 0 75.3614 17.4094 1312 86.6738 504.406 461.62
2863 0 81.4467 16.6366 1355 86.4406 503.471 461.985
2864 0 83.3853 8.8145 735 95.7551 504.342 451.746
2865 0 85.1921 14.3793 1225 91.0792 504.161 452.892
2866 0 90.4539 16.5609 1498 88.6876 503.939 456.261
2867 0 88.3113 8.42475 744 96.082 504.151 453.212
2868 0 95.3196 14.1314 1347 89.804 503.001 457.037
2869 0 97.2783 9.88915 962 94.7651 502.04 450.126
2870 0 103.272 13.7307 1418 90.6481 501.507 452.225
2871 0 103.521 14.8183 1534 90.689 502.065 450.248
2872 0 109.51 13.9348 1526 91.9305 501.244 445.776
2873 1 59.0744 17.0124 1005 88.4726 500.855 470.281
2874 0 62.2743 14.8697 926 91.1717 500.173 465.464
2875 0 63.1547 16.2458 1026 89.4532 500.001 464.597
2876 0 65.5132 12.6692 830 93.9819 500.653 464.792
2877 0 66.2519 12.8902 854 94.0328 500.228 465.814
2878 0 70.1288 14.0884 988 91.414 499.649 462.527
2879 0 78.6266 17.0044 1337 87.8138 499.099 466.553
2880 0 76.1829 22.8923 1744 84.8389 497.885 459.319
2881 0 76.3116 16.0788 1227 90.7636 498.928 455.25
2882 0 76.3202 14.7929 1129 91.2436 499.284 459.764
2883 0 82.4788 11.7485 969 94.3519 499.936 455.762
2884 0 84.1444 16.5905 1396 90.7765 498.713 447.622
2885 0 87.5659 17.1414 1501 90.1106 500.438 449.317
2886 0 90.2875 15.3953 1390 91.7935 500.46 446.722
2887 0 91.5903 16.9014 1548 90.4167 500.295 446.994
2888 0 92.4766 12.295 1137 96.7493 500.349 437.167
2889 0 95.3493 12.407 1183 96.6526 500.487 439.167
2890 0 103.493 15.9335 1649 93.6082 501.973 437.785
2891 0 103.317 14.6926 1518 95.1041 502.742 433.842
2892 0 104.323 13.2185 1379 98.0305 502.632 437.476
2893 1 65.3896 10.0781 659 98.651 504.405 456.821
2894 0 61.2466 10.1067 619 100.036 504.738 452.029
2895 0 67.4955 12.2527 827 97.815 504.989 455.079
2896 0 73.4925 13.4163 986 95.9716 504.168 456.036
2897 0 72.4527 14.7959 1072 93.6968 505.165 460.168
2898 0 73.292 15.3768 1127 95.6832 505.596 452.138
2899 0 78.2329 15.7606 1233 94.7364 506.055 452.946
2900 0 78.2329 15.7862 1235 134.921 507.039 452.996
2901 0 81.2977 14.4654 1176 99.2551 506.4 447.758
2902 0 87.4142 19.4133 1697 91.482 506.776 457.971
2903 0 89.4169 11.3849 1018 103.834 506.67 453.534
2904 0 88.3116 14.9697 1322 102.213 507.141 445.697
2905 0 100.937 14.3753 1451 100.24 506.86 451.684
2906 0 97.6507 13.1899 1288 103.521 506.231 446.976
2907 1 173.888 19.9496 3469 96.3084 505.938 419.388
2908 0 178.876 17.3584 3105 100.361 505.961 410.885
2909 0 183.799 14.8531 2730 104.662 505.411 393.276
2910 0 196.186 22.3308 4381 95.6839 504.605 407.64
2911 0 196.186 22.1473 4345 133.742 505.666 407.585
2912 1 117.566 17.3435 2039 99.9588 504.588 438.437
2913 0 126.026 16.211 2043 96.1116 503.287 450.158
2914 1 71.5237 12.4714 892 97.0628 501.652 463.635
2915 0 71.4953 10.8259 774 101.185 500.837 459.561
2916 0 75.3656 12.8573 969 98.8462 499.573 460.352
2917 0 77.4023 14.4182 1116 97.4919 499.337 461.496
2918 0 78.6952 15.1598 1193 97.5775 499.758 459.049
2919 0 78.6952 15.0581 1185 138.737 499.765 459.005
2920 0 83.4167 15.4405 1288 98.1599 498.894 451.319
2921 0 87.5757 14.673 1285 98.677 500.343 452.016
2922 0 86.4214 12.925 1117 102.96 499.03 443.821
2923 0 95.3987 14.2979 1364 98.8394 498.043 450.289
2924 0 95.7365 14.3623 1375 99.9258 498.352 441.901
2925 0 97.448 13.1557 1282 102.157 499.367 440.505
2926 0 93.4208 17.8012 1663 98.4167 499.306 431.681
2927 0 101.454 16.0467 1628 99.0178 498.273 432.425
2928 0 105.563 13.7738 1454 102.398 498.177 422.351
2929 0 105.911 15.0882 1598 102.405 499.48 423.621
2930 0 109.518 13.5046 1479 105.89 499.629 420.143
2931 0 108.54 12.7972 1389 108.631 500.1 410.698
2932 0 112.653 11.025 1242 112.099 499.752 410.866
2933 0 119.671 14.1387 1692 105.931 501.055 412.135
2934 0 129.109 17.4271 2250 99.5369 501.45 416.458
2935 0 131.747 14.8846 1961 104.978 503.485 405.476
2936 1 83.415 11.0292 920 99.0533 504.118 450.225
2937 0 83.6515 13.102 1096 100.361 504.319 448.34
2938 0 86.2225 16.585 1430 99.3888 504.215 449.016
2939 0 87.2485 11.622 1014 100.485 504.99 443.446
2940 0 89.4728 10.1819 911 101.708 505.773 445.406
2941 0 93.5361 13.0217 1218 99.3998 506.307 441.982
2942 0 100.666 12.8445 1293 98.181 506.083 443.002
2943 0 100.393 11.963 1201 100.306 507.003 442.925
2944 0 103.27 13.1597 1359 98.8344 506.999 435.097
2945 0 110.79 17.0141 1885 94.765 506.405 435.419
2946 0 114.442 18.7082 2141 92.723 506.147 441.963
2947 0 116.574 14.5058 1691 97.0455 505.564 439.935
2948 0 119.331 19.4501 2321 93.1271 506.062 441.796
2949 0 120.49 13.2957 1602 101.062 506.76 443.33
2950 0 124.292 17.9496 2231 96.8637 505.262 441.983
2951 0 130.398 15.3837 2006 101.08 505.485 436.67
2952 0 134.469 15.2006 2044 99.0313 505.034 428.318
2953 0 142.353 10.9025 1552 105.494 505.369 434.251
2954 1 81.1356 11.8813 964 98.5322 506.038 462.506
2955 0 81.2439 11.9763 973 98.6619 506.363 460.569
2956 0 81.301 9.70468 789 102.464 503.603 457.16
2957 0 83.2594 8.74375 728 102.648 504.257 458.475
2958 0 91.2494 12.9754 1184 95.8505 502.778 461.9
2959 0 91.2156 12.6294 1152 97.7995 502.165 451.896
2960 0 91.2156 12.5856 1148 132.691 502.167 451.885
2961 0 97.5542 18.5128 1806 93.1827 501.496 450.444
2962 0 101.556 15.3019 1554 95.7149 501.403 451.775
2963 0 102.27 18.5098 1893 93.7887 501.368 447.076
2964 0 104.256 16.0759 1676 96.8144 499.734 445.4
2965 0 107.309 17.5196 1880 96.842 500.054 438.64
2966 0 112.355 17.8007 2000 96.809 499.84 436.926
2967 0 111.334 12.6107 1404 103.306 500.219 435.578
2968 0 117.38 14.3381 1683 100.766 500.129 438.984
2969 0 117.307 11.3122 1327 105.072 499.464 439.637
2970 0 121.381 17.2185 2090 98.2545 499.236 436.303
2971 0 126.767 13.3946 1698 103.602 498.698 425.382
2972 0 130.657 12.6132 1648 104.425 500.908 422.934
2973 0 135.41 17.2661 2338 98.5145 499.971 432.244
2974 0 140.503 19.6223 2757 96.8194 500.338 423.767
2975 0 141.581 12.9749 1837 105.116 501.774 412.968
2976 0 149.447 14.4199 2155 103.271 503.109 418.31
2977 0 153.534 10.9292 1678 108.146 503.872 413.272
2978 0 160.679 12.2542 1969 106.02 501.206 409.623
2979 1 96.473 14.232 1373 97.6154 501.735 444.039
2980 0 97.285 9.8268 956 100.687 500.775 446.137
2981 0 99.1802 16.7271 1659 95.3237 502.067 442.334
2982 0 102.386 13.7519 1408 98.2656 503.226 437.499
2983 0 105.46 10.459 1103 101.101 503.498 443.176
2984 0 108.226 11.2358 1216 99.486 504.081 441.526
2985 0 112.271 9.47705 1064 102.146 504.191 436.143
2986 0 118.308 9.10332 1077 98.6555 504.38 452.362
2987 0 120.399 14.1945 1709 97.6641 506.137 436.504
2988 0 125.33 16.4127 2057 94.58 505.444 440.657
2989 0 129.235 15.1972 1964 97.6848 506.193 432.237
2990 0 136.446 13.6391 1861 97.043 507.396 436.736
2991 0 139.576 13.5052 1885 97.0801 506.428 433.01
2992 0 146.741 13.7658 2020 97.9634 506.498 421.833
2993 1 80.1855 11.8974 954 92.891 505.332 467.556
2994 0 80.2979 12.08 970 95.0237 504.812 454.676
2995 0 85.2875 12.0533 1028 94.7772 504.08 460.434
2996 0 89.8321 12.8462 1154 94.0225 503.49 460.852
2997 0 88.3239 12.3749 1093 94.892 503.135 459.341
2998 0 92.4386 16.9951 1571 90.8122 503.621 458.617
2999 0 98.3289 19.8314 1950 87.9538 502.188 456.77
3000 1 183.291 17.8296 3268 94.7466 502.326 418.249
3001 0 191.242 14.845 2839 98.5065 502.123 408.458
3002 0 195.011 14.5171 2831 99.5454 501.576 406.549
3003 1 108.351 15.8374 1716 91.0944 500.509 459.382
3004 0 107.433 12.6405 1358 97.3814 500.059 442.938
3005 0 110.362 13.0751 1443 97.4477 497.45 442.897
3006 0 116.447 13.0102 1515 97.0053 497.211 448.38
3007 0 118.465 13.295 1575 97.4571 498.003 436.077
3008 0 123.6 15.6634 1936 95.4282 496.677 435.84
3009 0 125.346 12.1344 1521 98.0053 497.571 444.112
3010 0 127.443 15.2932 1949 94.3869 496.178 442.722
3011 0 129.468 12.2578 1587 99.3428 496.135 427.393
3012 0 132.363 13.599 1800 98.3911 498.176 433.16
3013 0 133.522 16.6265 2220 94.5622 498.072 437.015
3014 0 129.327 11.931 1543 100.064 498.356 436.028
3015 0 133.359 11.5703 1543 99.6734 499.373 440.763
3016 1 155.504 14.5013 2255 100.5 498.664 417.388
3017 0 152.615 15.2475 2327 99.8346 499.74 418.885
3018 1 164.673 12.7525 2100 102.924 498.421 411.218
3019 0 167.569 18.9057 3168 96.1146 499.438 415.933
3020 0 171.587 10.8342 1859 104.599 499.783 412.298
3021 0 178.662 11.1328 1989 103.809 498.612 410.455
3022 1 107.331 16.3234 1752 95.016 501.306 440.638
3023 0 109.491 14.2386 1559 97.4946 502.257 438.961
3024 0 111.396 10.2069 1137 102.022 501.933 440.516
3025 0 115.361 11.9625 1380 100.87 501.509 438.615
3026 0 118.496 13.6292 1615 98.031 502.39 436.732
3027 0 124.38 10.8458 1349 101.753 503.518 438.336
3028 0 125.573 14.8041 1859 98.8306 503.967 428.71
3029 1 79.3665 10.0798 800 99.48 504.451 458.56
3030 0 77.6934 19.0878 1483 91.3324 503.521 456.678
3031 0 79.3851 13.7431 1091 93.8414 504.337 465.468
3032 0 81.5534 14.8369 1210 94.4909 504.499 453.77
3033 0 85.3427 12.526 1069 96.7708 504.312 453.886
3034 0 88.4964 16.3396 1446 92.8887 504.37 454.347
3035 0 90.3822 13.7306 1241 95.9742 504.115 451.288
3036 0 92.6845 12.6882 1176 96.5893 504.384 453.316
3037 0 95.6825 10.7125 1025 98.7034 504.004 449.621
3038 0 101.75 16.285 1657 92.8859 504.803 454.169
3039 0 103.575 16.1525 1673 93.1961 503.651 453.084
3040 0 103.524 11.6978 1211 99.1899 501.646 447.912
3041 0 107.776 11.691 1260 98.819 502.986 446.175
3042 0 110.453 17.3739 1919 92.2241 501.158 453.015
3043 0 117.706 11.3503 1336 98.2073 501.531 451.669
3044 0 120.854 12.5027 1511 96.72 499.404 450.31
3045 0 125.086 16.2049 2027 94.1184 500.051 435.662
3046 1 72.3782 13.7058 992 94.5927 499.289 461.22
3047 0 76.6434 17.5618 1346 89.7303 498.961 467.166
3048 0 80.754 13.5102 1091 93.5078 498.289 462.2
3049 0 81.8465 16.4699 1348 90.4399 497.251 462.336
3050 0 85.5185 11.0269 943 96.0403 497.974 456.765
3051 0 87.6244 13.1014 1148 93.4294 497.164 459.735
3052 0 91.5537 18.0004 1648 88.9842 497.215 457.485
3053 0 92.3933 18.8001 1737 89.2003 496.752 448.474
3054 0 97.7236 14.2136 1389 92.6069 496.763 454.135
3055 0 97.2444 12.6691 1232 93.9586 498.462 451.436
3056 1 252.963 13.8281 3498 101.08 497.843 377.408
3057 0 260.205 14.5924 3797 102.598 497.411 353.151
3058 0 269.458 15.0636 4059 101.921 497.287 357.586
3059 1 200.798 14.6714 2946 97.4043 497.884 402.295
3060 1 114.403 11.608 1328 96.6017 499.167 437.893
3061 0 115.608 19.8688 2297 89.6757 498.067 438.238
3062 0 121.355 18.9938 2305 90.1813 498.754 434.788
3063 0 126.415 18.7398 2369 87.6754 498.869 449.953
3064 0 128.513 15.3681 1975 94.6294 500.269 429.966
3065 0 135.463 17.3037 2344 95.102 500.677 436.265
3066 0 136.43 11.691 1595 100.184 501.143 417.932
3067 0 147.786 16.7404 2474 96.0101 502.455 417.683
3068 1 80.2497 13.9938 1123 92.2752 501.922 459.17
3069 0 82.3117 6.59688 543 100.611 503.527 448.959
3070 0 83.537 14.5205 1213 92.8129 503.486 455.674
3071 0 88.3365 12.4637 1101 95.6322 502.789 452.489
3072 0 87.5218 15.4476 1352 94.1938 503.692 451.004
3073 0 91.579 13.0052 1191 96.4064 503.468 441.392
3074 0 97.5487 12.3323 1203 95.1762 504.3 454.347
3075 0 94.3821 11.6759 1102 99.1987 503.725 441.236
3076 0 102.45 18.3309 1878 90.7263 502.121 453.942
3077 0 102.41 16.844 1725 94.5693 503.551 447.196
3078 0 106.378 15.8585 1687 95.4386 503.007 451.854
3079 0 109.483 12.0932 1324 100.152 502.727 447.597
3080 0 111.86 13.0699 1462 100.071 502.571 440.972
3081 0 115.553 14.7551 1705 97.224 502.24 446.348
3082 0 117.505 15.8376 1861 97.5927 502.838 442.927
3083 0 124.605 16.2434 2024 97.3933 502.899 438.396
3084 0 132.501 14.1206 1871 98.6948 501.097 440.774
3085 0 133.555 17.7829 2375 94.341 500.443 446.173
3086 0 133.555 17.6781 2361 119.726 500.44 446.083
3087 0 139.802 12.8396 1795 101.691 499.196 433.584
3088 0 150.902 10.8548 1638 102.24 498.822 436.112
3089 0 153.925 19.2366 2961 94.3924 497.333 430.785
3090 1 87.6362 14.2863 1252 96.7979 497.654 461.579
3091 0 92.4109 14.8359 1371 94.1554 496.313 461.491
3092 0 93.2999 15.6699 1462 93.1306 496.263 463.41
3093 0 97.4725 13.1524 1282 96.2894 495.398 455.952
3094 0 98.8152 13.1964 1304 95.9348 495.133 456.918
3095 0 104.53 17.019 1779 93.3716 495.072 451.517
3096 0 105.344 18.1121 1908 93.1599 494.478 445.35
3097 0 107.303 14.4637 1552 96.7668 495.616 445.137
3098 0 112.245 16.5264 1855 95.483 495.495 443.375
3099 0 115.269 21.3067 2456 90.3054 495.044 452.705
3100 0 117.743 15.9415 1877 96.2984 496.172 439.005
3101 0 121.565 15.8022 1921 97.8053 495.957 431.201
3102 0 125.325 22.3019 2795 92.2165 495.421 428.597
3103 0 123.505 12.0967 1494 100.731 495.675 439.938
3104 0 129.441 10.275 1330 103.697 497.304 418.742
3105 0 136.583 12.4686 1703 104.86 497.539 414.78
3106 0 143.484 12.7052 1823 105.26 499.09 418.082
3107 1 84.3229 9.32131 786 98.0267 498.883 457.609
3108 0 87.5284 18.1541 1589 90.9238 499.669 449.238
3109 0 82.2488 8.30407 683 106.056 497.922 434.259
3110 0 88.4221 10.1671 899 103.05 500.854 437.374
3111 0 93.2748 16.0815 1500 97.2813 500.676 441.524
3112 0 94.4581 10.3326 976 104.052 502.337 440.168
3113 0 99.3602 15.9521 1585 97.4959 503.109 445.288
3114 0 100.591 11.8003 1187 102.297 503.476 446.202
3115 0 103.285 13.4095 1385 101.739 501.712 441.186
3116 0 109.892 16.3342 1795 97.6824 503.409 442.028
3117 0 109.661 14.3989 1579 101.191 502.119 442.478
3118 0 114.621 15.2067 1743 99.0734 504.202 447.994
3119 0 117.738 13.8274 1628 102.095 504.299 444.053
3120 0 120.804 10.6701 1289 106.584 503.268 440.33
3121 0 125.446 16.0388 2012 101.084 504.014 441.711
3122 0 133.023 14.2456 1895 101.199 503.252 445.081
3123 0 135.976 12.3183 1675 102.078 503.328 446.183
3124 0 135.585 14.3526 1946 103.026 502.089 439.23
3125 1 76.2997 11.3238 864 99.8623 502.705 469.242
3126 0 81.2987 18.2045 1480 92.6527 500.998 466.898
3127 0 80.223 13.0013 1043 98.5101 501.749 464.84
3128 0 85.2215 15.8528 1351 93.8705 500.486 466.036
3129 0 86.3007 16.2455 1402 93.9016 498.645 459.85
3130 0 88.2972 13.0015 1148 97.7274 498.191 459.19
3131 0 91.4409 14.4137 1318 95.3824 498.429 463.1
3132 0 89.2072 10.3467 923 100.463 496.6 457.232
3133 0 97.3349 13.6231 1326 96.3167 496.983 460.538
3134 0 98.4411 11.0015 1083 97.8366 496.292 463.033
3135 0 104.333 17.3388 1809 92.2034 496.107 455.891
3136 1 194.926 14.1438 2757 103.682 496.559 407.358
3137 1 270.822 9.78501 2650 105.515 494.071 402.674
3138 1 107.444 13.7374 1476 98.1599 493.758 447.51
3139 0 113.985 15.3266 1747 96.9239 494.014 443.399
3140 0 113.396 12.4872 1416 100.229 494.592 443.92
3141 0 116.467 9.65078 1124 101.74 493.547 450.732
3142 0 121.327 11.2836 1369 101.606 495.05 440.723
3143 0 122.588 14.0225 1719 99.0128 494.354 441.426
3144 0 129.396 17.9218 2319 95.6555 495.367 434.702
3145 0 132.463 13.9133 1843 100.559 495.533 429.219
3146 0 142.734 19.5329 2788 95.405 496.216 421.004
3147 0 141.652 13.4626 1907 100.927 497.369 430.601
3148 0 151.636 14.3898 2182 100.011 497.161 424.467
3149 0 152.648 16.8033 2565 96.9712 497.546 427.471
3150 0 160.677 17.7562 2853 96.8752 498.837 418.537
3151 0 163.466 13.2076 2159 100.88 497.356 423.009
3152 0 163.466 13.0914 2140 142.086 495.349 422.784
3153 1 103.365 14.5987 1509 91.782 498.42 459.843
3154 0 103.39 7.01231 725 99.3752 498.794 462.346
3155 0 103.773 12.7104 1319 96.0788 500.147 452.316
3156 0 103.451 11.6481 1205 98.1129 499.163 446.523
3157 0 105.463 16.1195 1700 94.2588 499.56 446.184
3158 0 109.325 13.254 1449 95.3892 501.076 451.511
3159 0 112.429 17.5489 1973 93.627 500.153 449.288
3160 0 117.672 17.2343 2028 93.7539 500.526 448.85
3161 0 119.452 17.5636 2098 95.2002 500.189 434.971
3162 0 123.698 15.7561 1949 96.7193 500.976 443.346
3163 0 124.822 15.6944 1959 98.8045 501.801 437.797
3164 0 128.74 13.7719 1773 99.8246 501.396 445.257
3165 0 130.925 20.6683 2706 94.4095 500.346 442.074
3166 0 140.816 14.3733 2024 100.917 500.429 434.633
3167 0 139.813 16.7152 2337 99.7086 500.825 428.149
3168 0 145.731 12.3721 1803 104.625 500.892 435.14
3169 0 146.55 12.7465 1868 104.195 500.122 434.828
3170 0 152.115 14.2064 2161 104.127 499.679 430.446
3171 0 156.202 13.7962 2155 104.103 499.541 428.928
3172 0 161.788 13.2334 2141 106.846 498.935 425.793
3173 0 164.599 14.4958 2386 106.935 498.787 414.635
3174 0 171.053 14.8433 2539 105.99 497.426 416.04
3175 0 175.826 18.251 3209 100.758 496.338 426.95
3176 0 181.415 19.4141 3522 100.311 495.515 417.815
3177 0 187.048 14.0125 2621 107.621 496.586 405.62
3178 0 192.119 13.8768 2666 106.002 494.785 409.296
3179 0 192.119 13.8768 2666 145.582 493.802 409.188
3180 1 202.923 14.5474 2952 107.264 495.739 398.934
3181 0 208.058 15.8658 3301 106.668 495.321 387.198
3182 0 218 16.1927 3530 106.435 495.543 383.207
3183 0 223.15 16.1237 3598 104.869 495.051 399.043
3184 0 231.021 16.782 3877 103.697 494.851 398.071
3185 1 54.6935 11.4639 627 98.9203 494.652 469.689
3186 0 56.8606 10.2883 585 100.508 494.169 470.019
3187 0 54.154 7.22015 391 103.051 493.532 467.483
3188 0 56.1211 10.0141 562 100.877 492.801 465.861
3189 0 59.1866 10.4247 617 100.755 494.502 464.439
3190 0 62.0608 17.2734 1072 93.4646 494.839 463.803
3191 0 63.1162 11.1382 703 100.797 494.387 464.679
3192 0 61.0689 9.18634 561 106.102 495.089 457.989
3193 0 67.0705 9.90004 664 102.828 494.886 463.271
3194 0 64.212 9.6088 617 106.771 496.417 456.172
3195 1 258.46 12.679 3277 115.654 497.222 369.597
3196 1 67.2169 7.87004 529 110.979 497.964 454.274
3197 0 72.2397 15.6285 1129 99.9965 498.013 461.141
3198 0 72.2397 15.6285 1129 120.657 497.989 461.053
3199 0 75.1256 11.168 839 107.172 499.34 456.536
3200 0 76.15 11.8319 901 107.192 500.558 455.192
3201 0 81.3518 13.0913 1065 105.937 501.64 464.241
3202 0 88.377 14.8568 1313 103.111 501.374 460.971
3203 0 89.3963 14.2959 1278 104.723 501.491 460.833
3204 0 90.5274 14.283 1293 105.505 503.706 454.913
3205 0 96.3636 18.1085 1745 100.314 501.7 454.45
3206 0 93.2946 13.5378 1263 104.205 503.236 462.567
3211 0 399.072 18.335 7317 104.545 498.342 289.026
3213 0 393.044 9.02698 3548 115.984 499.146 271.338
3214 0 398.792 19.0902 7613 99.3075 498.692 292.154
3215 0 404.079 27.0071 10913 91.3743 497.798 304.171
3216 0 396.83 16.5562 6570 101.881 497.249 287.133
3217 0 195.04 14.4944 2827 95.1387 496.272 427.057
3218 0 194.476 24.9285 4848 90.2952 495.972 403.245
3219 0 189.95 16.7518 3182 95.615 494.592 434.1
3220 0 182.785 20.1166 3677 93.2635 494.439 420.929
3221 0 182.376 16.1205 2940 97.432 494.643 429.871
3222 1 96.739 22.1937 2147 94.36 494.432 456.554
3223 0 98.711 17.5158 1729 100.097 494.123 457.817
3224 0 94.6667 19.3204 1829 100.347 492.872 458.247
3225 0 95.2288 16.9907 1618 103.676 496.358 456.564
3226 0 97.5616 15.2622 1489 105.221 496.026 458.457
3227 1 117.554 20.6373 2426 93.3446 495.021 441.217
3228 0 114.74 19.0954 2191 96.8097 495.435 444.386
3229 0 112.431 24.6196 2768 91.9458 494.695 436.061
3230 0 114.639 17.2803 1981 99.3332 496.282 453.025
3231 0 116.513 20.8046 2424 94.9686 496.257 451.731
3232 0 120.564 16.0662 1937 103.187 496.444 446.508
3233 0 120.546 15.9441 1922 104.856 497.339 442.098
3234 0 124.535 17.4409 2172 101.155 497.955 444.751
3235 0 130.902 24.5604 3215 94.9397 496.743 439.136
3236 0 131.021 17.9361 2350 102.861 499.609 429.914
3237 1 79.3046 15.0054 1190 104.274 500.151 456.702
3238 0 78.2057 17.7481 1388 98.7658 498.926 465.463
3239 0 82.4916 20.7173 1709 96.6062 500.665 458.415
3240 0 80.8282 16.2814 1316 100.498 501.242 448.687
3241 0 85.644 16.0081 1371 98.5784 501.687 457.91
3242 0 85.985 11.1531 959 106.834 501.838 448.511
3243 0 86.4185 11.5022 994 105.024 502.045 453.968
3244 0 96.3786 17.6388 1700 99.3112 502.538 444.651
3245 0 94.779 15.1299 1434 99.3556 502.883 454.327
3246 0 96.474 14.4495 1394 103.599 502.847 443.999
3247 0 99.3618 14.6435 1455 104.579 501.14 441.41
3248 0 107.285 17.6073 1889 100.431 501.248 440.711
3249 0 107.93 16.3995 1770 101.056 502.141 437.793
3250 0 107.849 15.3919 1660 102.887 502.328 438.173
3251 0 112.813 14.6436 1652 102.865 502.924 438.577
3252 0 118.342 13.8835 1643 103.037 501.771 441.204
3253 0 120.174 16.318 1961 100.67 502.681 437.382
3254 0 125.9 16.0286 2018 100.906 502.817 436.417
3255 0 129.726 13.9987 1816 98.0672 501.174 447.61
3256 1 76.247 12.9579 988 98.3128 500.506 465.426
3257 0 78.5109 14.1636 1112 99.0773 500.081 461.86
3258 0 79.5946 14.31 1139 99.3319 501.643 460.877
3259 0 86.4004 21.3888 1848 92.4984 500.725 459.615
3260 0 87.5572 12.5175 1096 101.282 499.478 460.981
3261 0 88.3652 19.3855 1713 93.9305 498.648 460.863
3262 0 91.6654 14.6075 1339 98.6468 498.528 457.249
3263 0 92.4819 11.1589 1032 98.5194 497.585 455.963
3264 0 96.3661 13.7704 1327 95.7996 496.815 451.928
3265 0 102.169 14.3292 1464 95.4727 496.054 450.236
3266 0 106.544 18.2554 1945 92.7296 495.057 448.001
3267 0 106.415 25.8987 2756 86.438 495.533 453.669
3268 0 109.56 14.5309 1592 96.0502 495.027 445.808
3269 0 113.501 15.1717 1722 97.0703 495.697 437.357
3270 0 117.397 11.9765 1406 100.007 496.105 435.679
3271 0 121.955 15.6451 1908 95.3192 496.357 439.321
3272 0 124.067 15.8624 1968 95.8481 496.979 430.67
3273 0 130.958 26.0389 3410 87.5727 495.541 430.62
3274 0 133.769 19.0627 2550 92.9639 495.083 432.893
3275 1 146.471 17.0205 2493 91.856 496.046 435.813
3276 0 146.92 12.694 1865 97.5544 497.012 429.717
3277 0 146.026 15.4013 2249 98.5367 497.511 412.108
3278 0 151.151 18.1011 2736 96.6363 499.204 406.777
3279 0 160.97 19.8795 3200 94.6397 498.984 404.918
3280 0 162.741 15.8043 2572 97.7131 500.739 408.766
3281 1 91.2722 11.9642 1092 97.9029 501.017 436.752
3282 0 97.5756 13.569 1324 93.5491 500.462 446.396
3283 0 98.3881 19.0673 1876 91.3635 501.6 441.175
3284 0 102.422 20.562 2106 90.9084 502.726 435.507
3285 0 107.481 16.3749 1760 94.1631 503.694 441.607
3286 0 103.827 11.2206 1165 101.491 502.918 434.278
3287 0 110.521 19.0462 2105 93.0409 501.902 438.791
3288 0 117.498 17.3195 2035 94.3332 502.658 434.048
3289 0 121.511 23.5864 2866 89.4337 501.911 431.483
3290 0 122.303 18.0944 2213 93.8825 504.107 437.324
3291 0 129.542 14.5975 1891 97.8313 502.704 433.188
3292 0 131.657 14.5605 1917 97.6322 503.801 434.681
3293 0 138.608 12.8997 1788 100.265 504.937 431.36
3294 0 142.674 14.817 2114 98.8836 504.123 428.446
3295 1 84.3019 14.1871 1196 94.6154 503.946 450.849
3296 0 93.0788 16.4699 1533 92.9843 503.594 454.181
3297 0 87.7696 10.7896 947 102.008 503.863 445.506
3298 0 93.3537 11.7939 1101 100.218 503.859 446.378
3299 0 95.6471 10.7478 1028 100.459 502.838 451.84
3300 0 99.3468 18.6518 1853 92.728 502.091 451.885
3301 0 102.038 12.0642 1231 100.5 501.061 441.1
3302 0 104.305 15.9245 1661 96.9061 500.902 441.886
3303 0 110.718 13.4124 1485 99.4673 500.512 443.902
3304 0 109.589 14.2351 1560 99.2487 499.51 443.865
3305 0 116.907 15.8246 1850 97.253 500.08 442.251
3306 0 116.994 16.0693 1880 98.2633 500.115 429.396
3307 0 121.111 11.7413 1422 101.848 499.604 433.888
3308 0 126.126 14.089 1777 100.298 499.213 423.784
3309 0 134.322 12.2095 1640 100.602 499.404 427.271
3310 0 133.714 15.3911 2058 94.8469 498.995 432.539
3311 0 137.628 11.5819 1594 99.6481 500.088 422.098
3312 0 144.074 14.2913 2059 96.3788 500.09 421.427
3313 0 150.913 18.6001 2807 92.7072 500.054 417.821
3314 0 152.557 13.844 2112 97.3068 499.065 412.729
3315 0 159.966 19.8168 3170 91.5369 499.785 415.472
3316 0 160.61 12.9319 2077 99.571 498.825 402.532
3317 0 169.195 15.8752 2686 95.6381 499.251 406.15
3318 0 173.638 14.2826 2480 97.1835 500.404 402.495
3319 0 175.839 19.9273 3504 92.9912 499.58 401.547
3320 0 182.524 14.5844 2662 97.355 500.747 403.585
3321 0 185.218 12.7309 2358 101.506 501.236 387.499
3322 0 185.218 12.7255 2357 137.765 502.224 387.814
3323 1 202 15.396 3110 99.3714 502.451 383.292
3324 0 211.066 16.3646 3454 97.7284 502.743 387.644
3325 0 212.181 15.4114 3270 100.132 503.429 379.29
3326 0 224.468 20.2211 4539 96.9614 504.153 365.42
3327 0 227.198 14.7405 3349 103.229 504.873 366.59
3328 0 235.105 13.8619 3259 104.723 505.131 359.333
3329 0 246.337 13.7008 3375 102.884 504.332 362.871
3330 0 254.068 18.3455 4661 99.0684 505.1 354.193
3331 0 326.118 18.1652 5924 99.0623 504.686 335.939
3332 0 313.057 24.0275 7522 91.5094 504.671 331.874
3333 0 312.99 30.4802 9540 86.6744 504.069 339.127
3334 0 316.35 29.0533 9191 88.231 503.58 346.624
3335 1 74.675 13.5922 1015 92.7419 505.297 452.925
3336 0 78.4201 10.4948 823 97.4945 506.281 452.13
3337 0 79.5681 12.5301 997 95.8185 507.412 453.295
3338 0 84.9732 14.2869 1214 94.2414 506.662 448.76
3339 0 84.7025 10.8143 916 98.6376 505.468 446.569
3340 0 86.8749 10.4173 905 100.314 506.598 442.828
3341 0 94.9972 12.1372 1153 94.9306 505.005 454.632
3342 0 96.6718 12.0925 1169 98.491 504.436 445.637
3343 0 100.763 13.3084 1341 96.0142 503.998 447.727
3344 0 102.752 10.5204 1081 100.996 503.455 442.415
3345 0 101.559 11.8552 1204 101.771 503.485 434.283
3346 0 107.809 16.4643 1775 93.6011 502.084 449.263
3347 0 110.77 15.347 1700 96.1529 502.31 441.394
3348 0 112.614 16.49 1857 95.9774 501.841 443.025
3349 0 116.595 13.4483 1568 99.9974 501.754 437.915
3350 1 48.3848 14.1367 684 85.8231 502.623 471.863
3351 0 48.1559 7.68338 370 89.9595 502.657 476.214
3352 0 50.2449 13.1954 663 87.5023 501.434 467.952
3353 0 49.3589 10.0488 496 90.1351 502.643 466.98
3354 0 48.0714 6.24072 300 93.96 502.233 469.78
3355 0 51.0656 10.555 539 89.6364 502.202 467.245
3356 0 133.479 15.7928 2108 102.999 500.324 418.68
3357 0 129.274 11.0308 1426 110.871 500.154 409.952
3358 0 134.451 15.3736 2067 103.984 501.589 423.242
3359 0 131.594 11.7787 1550 108.959 501.47 420.841
3360 0 131.594 11.7483 1546 150.462 501.456 420.413
3361 0 148.464 14.4479 2145 108.876 501.662 409.163
3362 1 194.239 20.2637 3936 96.516 501.208 393.956
3363 0 191.775 21.8902 4198 96.0469 501.449 395.146
3364 0 192.838 21.614 4168 97.7644 501.736 394.742
3365 0 194.507 21.773 4235 98.6026 501.638 395.357
3366 0 198.852 26.8692 5343 94.122 499.722 383.587
3367 0 204.162 25.5336 5213 95.8857 500.416 387.768
3368 0 194.5 23.6402 4598 100.341 501.32 378.23
3369 0 188.715 27.5707 5203 98.615 501.051 386.576
3370 0 191.691 19.7714 3790 109.029 503.888 377.05
3371 0 185.123 19.5438 3618 111.313 505.782 379.294
3372 0 183.23 12.8363 2352 124.342 506.894 375.339
