time division length width area intensity CMx CMy
0 0 39.0745 14.5619 569 130.373 588.805 467.624
1 0 38.1398 13.7651 525 131.469 587.815 466.293
2 0 38.129 13.6904 522 140.646 586.833 466.207
3 0 37.109 13.0965 486 141.728 585.959 467.222
4 0 37.109 13.2582 492 141.059 584.951 467.116
5 0 43.0934 14.0161 604 129.793 584.583 463.93
6 0 44.055 14.0733 620 129.01 584.4 465.523
7 0 46.047 13.117 604 134.348 583.286 464.103
8 0 46.0635 15.0879 695 129.701 583.588 464.642
9 0 46.0407 13.8356 637 135.127 583.237 462.664
10 0 50.0546 15.1235 757 128.062 583.408 462.65
11 0 52.1499 18.2551 952 123.126 582.139 461.746
12 0 51.0807 12.999 664 136.53 582.73 460.654
13 0 56.1143 18.6227 1045 123.535 581.273 456.645
14 0 55.1069 16.3863 903 126.895 580.241 458.558
15 0 57.0569 14.8273 846 129.703 581.461 455.434
16 0 58.1842 15.5369 904 126.76 581.038 453.261
17 0 61.216 15.5842 954 131.377 579.569 450.286
18 0 62.0404 16.457 1021 133.736 579.608 447.97
19 0 65.1174 15.2955 996 126.942 579.387 448.117
20 0 64.1742 15.3177 983 134.347 580.5 443.659
21 0 68.1522 15.5388 1059 129.768 580.766 443.059
22 0 71.1337 15.2249 1083 135.186 581.77 439.888
23 0 73.2244 16.6475 1219 128.694 587.645 435.771
24 0 75.2393 14.8194 1115 132.504 587.73 438.115
25 0 79.1758 17.0254 1348 127.878 590.932 433.949
26 0 81.3096 15.0167 1221 129.799 591.297 432.561
27 0 83.1386 18.848 1567 123.718 590.266 430.833
28 1 43.0812 13.6022 586 132.758 590.652 449.087
29 0 46.0578 13.8739 639 129.344 590.795 447.235
30 0 48.057 14.9406 718 126.983 589.794 447.039
31 0 48.0695 15.2279 732 126.298 590.055 447.197
32 0 51.048 13.7518 702 128.085 590.892 447.698
33 0 51.048 13.8105 705 130.918 590.879 447.648
34 0 55.1423 14.6893 810 127.046 591.774 446.174
35 0 55.0618 16.1273 888 127.274 591.677 443.768
36 0 58.0942 14.9757 870 126.184 593.972 445.432
37 0 61.1317 12.8902 788 126.138 594.165 448.079
38 0 60.1186 14.6377 880 124.735 595.245 442.981
39 0 63.0721 14.4279 910 122.174 594.143 448.354
40 0 67.1391 14.3434 963 121.05 593.183 445.006
41 0 67.1515 13.6706 918 124.692 593.396 445.438
42 0 70.054 15.3168 1073 121.636 592.967 443.394
43 0 75.2352 15.7506 1185 118.493 591.502 443.343
44 0 76.2506 14.2687 1088 122.335 591.408 443.802
45 0 81.5675 17.7767 1450 112.843 591.322 446.708
46 0 82.2036 15.8995 1307 133.572 590.983 438.293
47 0 88.1888 19.0614 1681 125.555 591.415 443.218
48 0 89.0888 16.1524 1439 129.145 590.751 438.097
49 1 49.0546 11.7216 575 132.473 590.381 460.377
50 0 48.1235 12.8835 620 137.971 590.266 461.905
51 0 53.1254 13.3081 707 135.048 588.48 461.075
52 0 56.1222 14.9852 841 131.283 588.021 461.039
53 0 57.2262 15.6572 896 132.548 587.345 458.1
54 0 58.3292 14.9839 874 132.967 585.896 458.59
55 0 61.1626 15.1563 927 136.6 586.149 453.358
56 0 63.149 11.4491 723 142.958 584.932 454.783
57 0 67.2562 14.0508 945 136.71 584.522 454.344
58 0 70.2214 17.0746 1199 129.936 583.048 452.737
59 0 69.2292 14.9937 1038 152.817 580.896 450.444
60 0 75.2351 15.7108 1182 135.069 582.509 446.026
61 0 74.1642 14.0634 1043 138.127 582.164 445.747
62 0 77.0486 15.2761 1177 135.696 581.857 442.881
63 0 82.1086 14.9923 1231 136.439 582.461 439.301
64 0 84.0972 14.3881 1210 137.9 581.157 436.386
65 0 85.146 13.7411 1170 139.814 581.238 435.64
66 0 89.3597 14.9732 1338 136.462 582.365 433.4
67 0 91.3476 15.1619 1385 137.301 582.304 430.604
68 1 50.1363 14.4007 722 133.136 582.143 449.51
69 0 52.1185 13.2391 690 134.662 583.259 448.646
70 0 55.0722 11.9298 657 135.489 581.7 450.866
71 0 57.0763 14.2091 811 133.245 583.896 446.054
72 0 55.0389 9.72039 535 141.774 584.594 446.179
73 0 57.0424 12.9202 737 131.791 585.588 447.836
74 0 57.0424 12.9728 740 141.557 586.558 447.832
75 0 63.0881 15.946 1006 126.908 586.715 442.67
76 0 66.0967 14.04 928 129.747 586.249 443.665
77 0 67.1762 13.4423 903 130.043 587.752 443.642
78 0 70.0777 15.4543 1083 127.784 587.94 441.333
79 0 70.0777 15.44 1082 133.815 586.955 441.414
80 0 74.0462 13.5861 1006 131.386 589.639 442.267
81 0 77.064 15.3379 1182 128.105 588.616 441.174
82 0 79.3018 13.9719 1108 129.611 589.131 445.608
83 0 82.0892 14.5086 1191 131.698 588.753 440.139
84 0 83.1917 14.0278 1167 132.517 590.128 438.312
85 0 86.2982 12.7813 1103 134.444 589.348 437.293
86 0 90.212 14.0114 1264 132.132 589.906 440.006
87 0 92.0935 15.7666 1452 130.453 589.078 436.554
88 0 95.1133 14.1936 1350 132.299 589.098 439.498
89 0 99.3661 13.0226 1294 137.015 587.512 440.086
90 0 105.166 16.7069 1757 128.809 587.062 437.38
91 0 110.226 15.4501 1703 131.627 587.1 434.112
92 0 111.431 15.9022 1772 133.498 586.077 432.104
93 0 118.414 15.9694 1891 132.71 585.335 431.675
94 0 117.259 11.7177 1374 140.342 585.196 429.944
95 0 126.252 15.6829 1980 130.225 583.346 436.039
96 1 67.0951 12.0426 808 133.056 583.302 452.927
97 0 71.0596 13.5379 962 129.114 582.217 454.667
98 0 74.0849 13.1201 972 130.54 582.103 450.769
99 0 77.1729 15.2903 1180 126.347 581.953 451.003
100 0 81.1063 14.3885 1167 129.124 581.522 447.935
101 0 82.0728 16.3148 1339 126.706 579.923 443.875
102 0 84.1036 13.8995 1169 132.681 580.249 443.971
103 0 88.0946 14.7001 1295 131.653 580.058 439.605
104 0 88.2043 13.8088 1218 136 580.387 439.449
105 0 93.2071 13.0677 1218 137.535 579.465 437.212
106 0 98.1655 17.0936 1678 128.664 578.768 434.822
107 0 102.175 14.6317 1495 133.815 580.156 432.724
108 0 105.291 14.9586 1575 135.523 580.471 429.137
109 0 107.205 12.7047 1362 142.993 580.085 425.984
110 0 111.35 12.537 1396 142.846 581.008 422.928
111 1 64.1173 11.9625 767 135.428 581.46 449.85
112 0 65.2082 12.0997 789 134.105 582.344 445.722
113 0 68.142 10.9037 743 133.459 582.402 446.351
114 0 69.1295 13.5687 938 129.919 581.552 444.102
115 0 73.0838 12.1368 887 131.475 582.688 443.377
116 0 73.2106 12.0065 879 131.838 583.548 441.275
117 0 77.0742 10.8207 834 134.592 584.402 442.175
118 0 80.0717 13.7751 1103 130.267 584.151 437.517
119 0 83.2149 12.6059 1049 131.49 584.39 437.044
120 0 86.1101 13.9821 1204 127.142 584.296 437.986
121 0 88.1901 13.4029 1182 129.717 586.022 433.721
122 0 91.202 12.9164 1178 128.061 587.172 437.149
123 0 98.3748 10.5515 1038 133.42 588.367 435.446
124 0 100.172 12.0892 1211 130.468 587.344 431.226
125 0 102.149 12.3741 1264 129.974 587.96 431.682
126 0 107.317 13.53 1452 127.717 587.351 430.212
127 0 109.251 11.1211 1215 128.552 587.304 435.151
128 1 60.1168 14.056 845 115.447 588.502 459.742
129 0 62.1173 13.716 852 115.469 589.577 459.784
130 0 64.1536 11.6907 750 122.627 586.961 453.52
131 0 65.1174 11.533 751 130.154 586.722 451.486
132 0 66.109 10.0289 663 130.778 587.148 451.947
133 0 72.125 13.6014 981 123.413 586.43 452.05
134 0 73.1565 12.5348 917 124.468 585.993 451.658
135 0 75.0814 13.0925 983 124.25 586.261 451.127
136 0 79.1277 13.6109 1077 121.295 585.924 449.37
137 0 79.1934 12.4505 986 123.767 586.597 448.21
138 0 82.1196 13.4682 1106 122.865 584.934 445.802
139 0 87.1482 12.1632 1060 122.898 585.203 448.383
140 0 88.074 13.8406 1219 121.636 582.59 441.006
141 0 92.2081 17.2653 1592 115.968 582.774 440.254
142 1 47.2252 11.8369 559 118.825 583.524 462.485
143 0 50.0637 11.0659 554 119.542 582.749 462.917
144 0 50.0947 11.5382 578 121.661 581.37 458.194
145 0 51.1839 10.5697 541 118.525 579.702 458
146 0 55.1237 12.3903 683 116.051 579.884 456.638
147 0 56.2336 12.9282 727 116.42 580.358 455.791
148 0 55.0462 10.4276 574 122.251 578.463 457.765
149 0 60.0142 12.4471 747 117.135 575.72 456.124
150 0 61.2238 12.9035 790 117.63 579.462 456.415
151 0 61.1617 12.9002 789 120.119 579.387 449.58
152 0 63.089 14.1863 895 117.582 580.072 450.523
153 0 66.0661 17.2403 1139 112.93 579.003 442.844
154 0 67.1038 14.7086 987 117.036 579.821 447.625
155 0 69.149 13.4058 927 119.7 580.955 441.284
156 0 73.2486 22.5533 1652 105.075 580.848 444.648
157 0 74.2356 17.1212 1271 113.453 581.691 442.272
158 0 74.1509 12.7308 944 121.303 581.789 442.835
159 0 76.2776 13.0051 992 122.189 583.513 437.898
160 0 78.3327 13.9788 1095 120.685 583.441 440.739
161 0 81.2482 12.8741 1046 124.061 585.648 437.983
162 0 82.1941 15.3904 1265 121.425 585.16 433.403
163 0 84.188 14.9309 1257 120.789 586.83 436.459
164 0 87.3637 13.6212 1190 124.151 586.771 432.903
165 0 92.2999 15.9589 1473 118.703 586.876 435.153
166 0 94.3406 14.649 1382 122.49 585.439 432.757
167 0 96.2073 15.4354 1485 116.783 586.498 437.374
168 0 98.2601 12.416 1220 123.976 587.096 426.66
169 0 103.183 14.7796 1525 120.489 586.283 432.709
170 0 105.302 11.9941 1263 126.624 586.947 430.343
171 0 111.207 17.7866 1978 116.082 587.214 429.632
172 1 57.3239 13.6243 781 114.953 585.513 461.283
173 0 57.2093 11.4841 657 118.863 585.038 460.562
174 0 60.2101 14.383 866 115.452 584.874 457.992
175 0 62.2143 12.7463 793 117.493 583.946 460.605
176 0 63.1835 13.9119 879 117.577 584.973 459.444
177 0 67.1727 13.9938 940 115.843 583.887 459.539
178 0 68.16 12.544 855 119.895 583.289 458.577
179 0 69.1552 13.8095 955 118.588 583.661 455.849
180 0 72.2601 13.8251 999 117.877 581.687 456.248
181 1 150.437 15.8073 2378 122.139 581.644 418.701
182 0 154.566 15.7991 2442 123.634 580.529 414.539
183 1 78.206 14.9221 1167 116.701 580.67 455.433
184 0 80.1753 14.2812 1145 118.065 578.209 452.513
185 0 83.1642 15.1267 1258 118.529 580.052 448.787
186 0 84.1391 14.7018 1237 121.498 579.715 446.8
187 0 87.1729 13.7657 1200 122.604 577.909 448.059
188 0 92.2449 14.2772 1317 121.115 578.01 445.234
189 0 92.2988 16.5766 1530 118.626 578.191 442.267
190 0 95.5353 13.0528 1247 123.403 577.572 442.07
191 0 100.528 14.4934 1457 119.443 577.568 441.12
192 0 101.378 12.261 1243 123.109 577.996 438.222
193 0 106.276 13.6343 1449 121.306 577.852 429.972
194 1 62.2368 13.2558 825 118.398 578.205 450.413
195 0 63.1871 13.5945 859 114.92 578.228 450.971
196 0 64.1003 15.1793 973 114.3 578.796 446.35
197 0 64.1005 15.1793 973 126.637 579.796 446.35
198 0 69.2615 14.4092 998 114.591 579.076 444.645
199 0 74.0832 13.9168 1031 114.089 580.014 447.217
200 0 71.1311 14.3116 1018 116.963 580.883 442.529
201 0 74.1244 13.7337 1018 117.283 581.243 441.545
202 0 82.1714 14.7497 1212 113.932 582.234 440.222
203 0 81.335 14.0161 1140 116.989 583.073 436.225
204 0 84.3487 16.6807 1407 112.709 582.882 434.316
205 0 85.2939 13.7759 1175 117.162 584.284 432.872
206 0 90.3165 14.4713 1307 115.658 584.23 430.604
207 0 95.4717 17.4293 1664 110.84 584.927 431.767
208 1 180.44 14.4148 2601 118.695 584.915 392.851
209 1 98.3516 13.7466 1352 114.583 586.658 428.763
210 0 101.365 11.868 1203 117.454 585.876 425.265
211 1 54.1097 10.9777 594 110.32 587.593 452.581
212 0 55.0694 9.2792 511 116.755 586.75 457.274
213 0 58.1829 17.0841 994 104.01 586.232 457.168
214 0 60.3139 16.3312 985 103.602 584.93 456.848
215 0 62.2121 13.3093 828 107.489 585.932 458.338
216 0 64.3061 14.0889 906 107.143 585.084 456.925
217 0 67.1356 13.2567 890 107.321 585.172 459.292
218 0 68.1676 16.4888 1124 104.729 584.334 451.603
219 0 68.2711 11.1028 758 109.974 584.633 462.062
220 0 73.3476 12.1476 891 110.236 583.082 458.521
221 0 76.1848 12.1678 927 110.462 581.937 458.313
222 0 78.1853 14.1459 1106 108.194 581.339 456.207
223 0 79.1037 13.8426 1095 110.724 581.355 452.402
224 0 84.2133 15.1401 1275 108.135 580.334 452.504
225 0 85.3568 12.3247 1052 113.471 580.091 448.797
226 0 88.0863 13.6684 1204 112.326 580.025 449.857
227 0 88.1868 14.1518 1248 112.407 578.374 446.756
228 0 95.2472 13.3967 1276 111.949 578.219 448.029
229 0 99.4971 15.7291 1565 109.497 577.915 443.007
230 0 101.272 14.2192 1440 111.928 576.558 437.642
231 1 57.1358 11.3939 651 108.336 576.071 466.381
232 0 57.0558 12.111 691 109.181 575.922 458.359
233 0 61.1191 15.4453 944 104.2 576.626 460.688
234 0 62.2546 17.2196 1072 101.93 574.366 458.93
235 1 119.34 15.5773 1859 110.256 574.896 432.35
236 0 122.239 10.2504 1253 119.373 574.816 423.623
237 0 122.242 10.602 1296 117.549 573.639 427.518
238 0 120.399 6.72764 810 115.743 574.056 445.643
239 1 140.3 15.9658 2240 111.112 574.364 425.174
240 0 139.336 14.727 2052 117.542 576.487 409.044
241 0 146.419 15.3669 2250 115.344 576.116 411.568
242 0 149.619 13.2135 1977 119.466 577.188 406.857
243 0 153.296 12.4465 1908 120.959 577.646 402.48
244 0 160.813 15.7326 2530 114.373 577.274 404.425
245 0 158.672 11.1425 1768 121.803 578.243 404.287
246 0 160.631 9.81128 1576 119.853 577.398 412.249
247 0 158.506 7.20477 1142 121.658 579.04 419.29
248 0 157.455 9.63452 1517 125.477 579.774 405.811
249 1 54.2548 13.0127 706 108.994 578.785 456.674
250 0 53.0971 11.9781 636 110.723 580.513 454.159
251 0 58.0571 14.1929 824 104.233 580.769 452.761
252 0 58.1269 13.8834 807 101.393 582.001 459.214
253 0 58.0988 14.8712 864 104.262 583.986 454.773
254 0 61.1814 12.5855 770 107.536 582.627 454.377
255 0 60.0999 9.98338 600 112.552 582.568 455.5
256 0 63.1904 14.575 921 105.967 581.648 456.451
257 0 65.2433 15.0207 980 104.592 583.781 457.136
258 0 66.115 13.1891 872 108.345 582.225 452.452
259 0 68.2587 12.8628 878 108.56 581.967 451.091
260 0 70.2624 8.69597 611 112.784 581.242 458.331
261 0 75.2073 13.2035 993 109.584 582.528 450.236
262 0 78.2356 16.8082 1315 103.881 582.215 453.894
263 0 81.1974 14.1014 1145 107.458 581.705 451.958
264 0 84.5491 15.1391 1280 106.961 582.928 449.737
265 1 45.062 12.3608 557 105.878 580.747 472.822
266 0 46.1102 10.4749 483 108.043 581.236 473.768
267 0 46.225 12.2445 566 108.019 579.537 468.2
268 0 48.152 11.9621 576 113.278 578.88 468.608
269 0 48.0758 13.5827 653 106.933 578.521 470.551
270 0 47.0688 11.9825 564 110.305 577.461 467.796
271 0 50.0664 10.9854 550 111.505 578.455 467.085
272 0 52.1513 14.3621 749 106.505 578.146 465.567
273 0 52.1211 9.43955 492 113.829 576 461.805
274 0 56.1861 11.6043 652 110.202 576.784 462.638
275 1 105.511 12.5769 1327 116.265 576.121 433.953
276 1 59.1284 12.735 753 106.754 575.32 459.297
277 0 60.143 14.7482 887 104.395 574.259 457.144
278 0 64.2109 13.0975 841 104.449 574.677 459.517
279 0 65.1009 15.0689 981 104.269 575.464 451.158
280 0 65.1009 14.9 970 127.964 576.464 451.16
281 0 68.2548 13.4936 921 109.85 575.218 449.924
282 0 73.161 12.6433 925 109.408 576.275 449.179
283 0 73.1755 17.4239 1275 102.934 575.648 450.956
284 0 71.2298 12.3965 883 112.231 576.454 446.669
285 0 79.2791 12.929 1025 110.194 577.256 444.884
286 0 78.1923 12.725 995 112.565 577.832 438.972
287 0 83.3211 13.526 1127 111.138 578.823 436.985
288 0 83.2498 13.8499 1153 113.19 578.748 432.199
289 0 87.1616 11.9204 1039 115.545 580.851 435.305
290 1 47.0853 10.704 504 114.486 581.407 454.942
291 0 49.1488 11.5567 568 113.632 582.539 453.454
292 0 51.2355 13.3696 685 112.026 581.934 452.438
293 0 52.0895 12.9585 675 113.415 584.437 452.043
294 0 52.1014 10.6715 556 111.827 582.995 454.237
295 0 56.3263 14.7888 833 105.94 583.838 452.778
296 0 58.211 14.6536 853 106.807 584.551 449.298
297 0 60.0964 15.2921 919 104.361 585.042 452.915
298 0 61.1162 14.3988 880 106.397 586.442 450.475
299 0 64.1338 12.4115 796 109.495 585.53 451.421
300 0 66.2998 13.7708 913 107.284 584.807 451.88
301 0 70.3363 14.2458 1002 105.914 586.154 451.489
302 0 71.2336 12.6766 903 113.683 585.028 448.559
303 0 75.2848 12.818 965 111.253 584.847 451.979
304 0 77.4488 11.6077 899 113.838 584.554 450.795
305 0 78.2382 11.989 938 110.517 585.14 449.273
306 0 84.2372 11.5982 977 109.945 584.706 450.567
307 1 40.059 9.53594 382 111.162 585.66 472.296
308 0 40.2033 12.6358 508 109.049 584.327 468.427
309 0 41.217 10.3598 427 111.29 583.171 470.731
310 0 41.1325 10.4297 429 110.923 582.361 470.606
311 0 43.097 11.6713 503 108.408 583.672 467.789
312 0 46.0359 15.6182 719 102.75 583.136 467.733
313 0 48.015 13.0584 627 105.199 582.199 468.689
314 0 46.0484 14.9408 688 104.436 581.533 467.064
315 0 49.1869 12.9303 636 106.491 580.778 465.72
316 0 49.0702 11.5549 567 108.815 580.76 465.362
317 0 51.0564 11.6734 596 109.735 579.854 460.889
318 0 54.1391 12.6711 686 107.396 579.187 461.238
319 0 52.1093 10.3244 538 112.509 579.297 459.143
320 0 55.1524 10.4801 578 111.609 579.107 454.832
321 0 54.0617 8.4903 459 114.878 579.882 456.344
322 0 57.1418 9.88769 565 113.011 580.046 454.782
323 0 61.1895 12.3224 754 109.289 579.024 453.633
324 0 62.1774 11.9014 740 110.816 578.901 450.027
325 0 63.1006 12.3454 779 110.294 579.25 447.507
326 0 65.1128 14.0525 915 108.71 578.295 445.737
327 0 67.0922 12.7138 853 110.596 579.569 445.014
328 0 70.1438 11.4479 803 113.437 579.638 441.943
329 0 72.2075 13.3643 965 111.407 578.762 437.546
330 0 73.2246 13.4245 983 112.711 580.796 436.126
331 0 77.1949 12.9283 998 114.408 580.795 437.472
332 0 80.4196 12.8078 1030 116.906 582.194 435.789
333 0 86.3309 14.5139 1253 112.769 582.653 436.982
334 0 86.5769 15.0964 1307 114.672 582.98 430.392
335 0 88.2983 11.0195 973 119.729 583.706 430.559
336 1 49.4096 10.7469 531 113.906 584.488 452.09
337 0 46.0896 9.72019 448 113.114 584.368 449.98
338 0 49.0403 9.58396 470 113.711 583.836 454.366
339 0 51.2408 11.6118 595 109.519 583.694 453.457
340 0 54.2233 14.9382 810 106.672 587.722 452.705
341 0 54.2951 12.6162 685 112.025 586.667 453.536
342 0 54.2406 11.9099 646 112.536 588.319 455.124
343 0 55.0746 12.365 681 111.604 588.928 453.799
344 0 57.1612 14.3979 823 110.362 588.358 453.516
345 0 62.1628 12.3707 769 110.861 589.092 456.896
346 0 61.1503 9.68107 592 112.902 588.519 459.024
347 0 65.2708 12.9461 845 106.897 587.737 454.806
348 0 65.2089 11.2408 733 107.96 589.359 457.258
349 0 69.1804 12.8071 886 107.159 588.642 451.954
350 0 70.2171 11.9486 839 108.474 588.507 448.913
351 0 73.2044 11.4611 839 110.263 587.734 450.296
352 0 74.122 12.0072 890 107.927 585.926 454.281
353 0 78.3366 9.80385 768 109.833 584.991 456.031
354 0 81.3874 13.233 1077 108.853 584.666 449.094
355 0 83.3041 12.4484 1037 111.383 583.644 449.337
356 0 86.1601 11.9429 1029 112.476 583.323 449.498
357 0 92.256 14.6224 1349 106.788 583.818 452.32
358 1 48.1432 11.715 564 111.8 583.603 466.729
359 0 50.1096 17.9606 900 99.5622 583.057 464.814
360 0 50.1142 12.9903 651 105.756 582.702 465.017
361 0 52.1218 11.5882 604 107.584 578.871 460.828
362 0 53.127 12.4984 664 108.316 579.506 457.098
363 0 53.2098 10.6183 565 110.857 578.788 457.896
364 0 57.2824 14.961 857 103.786 578.621 455.004
365 0 59.2768 12.0452 714 108.889 578.443 451.951
366 0 58.1835 10.8278 630 111.756 578.76 450.743
367 0 63.1861 13.2624 838 107.479 578.43 447.456
368 0 65.1821 13.8688 904 106.532 579.038 447.501
369 0 68.3348 17.8679 1221 101.096 578.309 444.817
370 0 72.2068 18.2393 1317 98.5535 579.513 449.777
371 0 71.049 14.4267 1025 106.837 580.426 443.05
372 0 75.2135 15.8748 1194 104.798 582.088 439.909
373 0 77.5602 12.3259 956 110.368 580.546 439.602
374 1 42.2479 12.7107 537 107.315 581.557 455.583
375 0 42.1852 14.5074 612 104.328 584.505 453.637
376 0 43.237 10.5465 456 109.406 584.54 454.026
377 0 44.3281 11.1442 494 109.792 585.51 453.372
378 0 44.3281 11.1667 495 137.531 586.483 453.356
379 0 47.0555 13.0697 615 107.265 585.208 455.577
380 0 48.1636 12.0008 578 110.116 584.519 451.753
381 0 52.2512 15.4829 809 104.198 586.462 451.946
382 0 50.1973 12.0724 606 109.356 588.365 454.188
383 0 52.2435 12.1738 636 108.536 589.44 455.297
384 0 57.1846 14.357 821 104.766 589.838 454.247
385 0 56.2476 14.2051 799 106.879 589.632 452.175
386 0 55.1264 10.5938 584 111.195 589.572 456.062
387 0 60.2194 14.3973 867 106.653 590.102 450.288
388 0 60.1478 11.9871 721 110.096 590.067 455.264
389 0 64.1947 13.8485 889 108.551 590.594 451.305
390 0 65.1072 16.0965 1048 104.452 589.659 453.46
391 0 66.056 12.5651 830 111.354 588.318 453.896
392 0 72.2251 11.6026 838 109.891 589.463 455.899
393 0 73.146 14.0268 1026 108.807 587.133 451.67
394 0 74.2089 10.6456 790 112.657 587.195 454.473
395 0 77.0818 12.2338 943 111.571 586.1 449.723
396 0 80.0872 13.3604 1070 109.336 586.853 451.309
397 0 81.2563 11.2607 915 112.562 586.536 453.61
398 1 45.1219 12.6989 573 111.115 585.932 467.215
399 0 47.025 11.4833 540 114.165 586.433 469.531
400 0 49.1034 15.7219 772 111.909 584.654 465.702
401 0 49.0822 12.6115 619 118.262 584.061 464.438
402 0 49.0782 11.6956 574 120.545 582.847 463.291
403 0 52.1656 16.3134 851 112.209 581.897 461.626
404 0 53.1791 14.0093 745 117.38 581.868 458.188
405 0 53.0232 11.8816 630 121.398 581.99 460.283
406 0 55.0639 11.859 653 123.162 578.949 458.074
407 0 57.2022 12.8317 734 121.597 578.411 454.932
408 0 61.334 13.3694 820 118.801 578.196 452.17
409 0 61.334 13.2879 815 140.655 577.21 452.19
410 0 64.1535 13.0001 834 120.368 579.267 449.151
411 0 67.3148 13.1917 888 120.412 579.122 446.803
412 0 67.245 14.0085 942 119.037 579.307 444.544
413 0 70.3235 14.3053 1006 117.507 579.86 444.046
414 0 72.5327 12.5185 908 121.251 579.878 442.399
415 0 76.3126 13.1564 1004 119.558 580.568 440.703
416 0 79.2011 13.674 1083 118.278 580.735 435.509
417 0 83.3588 14.7315 1228 114.707 581.467 438.683
418 0 86.2666 15.5796 1344 113.857 581.667 434.844
419 1 42.0607 9.51006 400 120.128 583.575 454.032
420 0 44.0919 11.4987 507 115.943 584.081 453.426
421 0 49.1186 14.1901 697 105.234 583.277 454.603
422 0 47.1698 15.4972 731 106.137 582.564 451.398
423 0 46.2523 11.0913 513 114.033 583.154 452.567
424 0 46.2523 11.0913 513 134.643 584.168 452.649
425 0 48.0594 8.5311 410 116.734 585.934 454.22
426 0 53.1855 12.7478 678 110.15 586.345 451.681
427 0 53.3132 10.3352 551 113.022 586.303 453.492
428 0 55.0829 12.7807 704 110.043 588.626 453.541
429 0 57.1702 13.661 781 107.588 588.243 452.256
430 0 59.1248 11.9239 705 111.277 588.101 453.573
431 0 61.2714 11.245 689 112.115 587.454 454.337
432 0 63.0878 14.6462 924 107.676 587.557 451.95
433 0 62.194 14.8406 923 106.588 587.11 457.897
434 0 63.1661 11.1927 707 114.272 586.99 452.163
435 0 68.2521 13.1132 895 111.263 586.769 451.191
436 0 72.2741 14.9708 1082 107.592 586.291 454.487
437 0 74.1604 12.5404 930 111.685 586.476 453.567
438 0 75.1307 12.8043 962 112.396 586.494 453.072
439 0 79.207 12.5747 996 112.559 585.642 450.246
440 0 84.1086 15.4324 1298 108.161 584.676 449.066
441 0 84.173 11.6308 979 115.489 583.969 447.932
442 1 43.1835 11.509 497 112.799 582.777 465.32
443 0 47.2708 15.9506 754 101.534 582.635 468.572
444 0 48.1577 10.964 528 109.525 582.79 468.068
445 0 48.0723 12.2108 587 109.201 580.804 463.717
446 0 51.1757 13.7956 706 105.846 581.054 465.752
447 0 51.0548 14.9056 761 105.501 580.573 464.679
448 0 52.0343 10.8582 565 111.465 580.085 461.832
449 0 53.172 10.9832 584 111.945 579.159 461.159
450 0 57.0749 12.9829 741 107.964 578.58 460.765
451 0 58.2573 14.127 823 107.503 579.108 452.569
452 0 59.1274 11.2131 663 111.407 579.237 455.232
453 0 63.0996 15.3725 970 104.915 579.382 454.82
454 0 66.1858 14.3384 949 106.764 578.496 452.682
455 0 66.1496 12.6683 838 108.945 577.677 452.569
456 0 68.0832 13.1016 892 109.522 578.072 449.961
457 0 71.1437 14.4075 1025 108.2 577.684 446.485
458 0 71.1432 12.2991 875 112.191 578.435 444.541
459 0 75.0977 13.1429 987 110.395 578.8 439.9
460 0 78.186 14.4143 1127 109.171 579.173 442.018
461 0 81.2742 14.5311 1181 109.528 580.081 439.823
462 0 81.2742 14.4695 1176 122.57 580.088 439.794
463 0 83.1284 12.6311 1050 115.622 580.481 439.179
464 1 46.0241 10.3424 476 116.546 582.176 455.424
465 0 49.065 13.7573 675 110.184 581.618 455.967
466 0 48.068 12.2119 587 107.809 582.884 459.094
467 0 51.1285 14.6885 751 105.292 582.614 456.963
468 0 53.1534 16.6876 887 102.185 582.585 457.759
469 0 55.149 13.2369 730 107.064 584.521 457.51
470 0 54.1561 13.1103 710 109.266 584.783 455.37
471 0 59.2035 12.9046 764 107.986 583.699 458.529
472 0 58.1769 12.376 720 108.569 584.54 460.067
473 0 64.1505 15.261 979 105.332 584.611 457.258
474 0 63.2159 12.0697 763 110.658 585.397 459.193
475 0 65.3448 12.9161 844 108.434 584.432 461.416
476 0 66.0789 17.5245 1158 104.428 585.56 459.452
477 0 68.1754 9.95961 679 113.439 584.356 464.993
478 0 71.1434 12.0461 857 112.028 584.152 459.725
479 0 72.2051 12.9354 934 111.823 583.812 459.517
480 0 77.138 13.8324 1067 109.017 583.531 463.276
481 0 78.1947 12.8525 1005 113.422 582.658 459.556
482 0 81.2739 10.7291 872 115.42 581.966 460.837
483 0 82.2266 13.9736 1149 112.368 580.512 456.086
484 0 87.2538 10.8419 946 117.576 580.153 452.586
485 0 89.4573 13.5819 1215 113.504 578.066 453.946
486 0 92.377 15.9022 1469 109.607 578.42 451.833
487 1 47.1134 12.2683 578 112.635 576.35 474.529
488 0 49.0595 12.2708 602 114.243 576.568 472.839
489 0 49.1618 10.9841 540 119.552 576.387 471.394
490 0 51.0985 11.4876 587 117.911 574.957 471.312
491 0 54.2226 12.3565 670 117.382 574.87 468.194
492 0 53.0327 11.9549 634 118.692 574.483 468.656
493 0 57.2445 14.307 819 114.52 574.432 466.129
494 0 57.1874 12.6601 724 117.985 573.126 463.293
495 0 59.1446 14.7604 873 114.191 574.147 463.082
496 0 63.0851 15.0749 951 112.551 574.454 461.604
497 0 62.3599 13.1976 823 116.757 573.226 458.704
498 0 65.1616 13.9499 909 116.339 573.884 455.238
499 0 67.2371 12.0321 809 120.109 574.146 451.744
500 0 67.0981 12.519 840 114.861 573.717 456.469
501 0 70.2001 10.0854 708 118.096 573.874 454.339
502 0 72.1523 15.3841 1110 111.825 575.33 450.405
503 0 75.1758 12.5439 943 117.651 575.789 445.803
504 0 75.1613 11.003 827 120.832 575.574 443.676
505 0 80.0954 15.7562 1262 112.692 577.206 438.044
506 0 80.2822 12.8671 1033 119.091 577.254 436.142
507 0 84.3675 11.521 972 122.228 577.463 438.857
508 0 89.1829 14.0049 1249 117.139 579.026 437.041
509 1 46.0389 11.9681 551 120.868 579.359 455.45
510 0 50.0459 14.0871 705 116.519 579.87 456.06
511 0 50.0778 13.2394 663 118.831 580.462 457.555
512 0 51.0601 12.8672 657 117.297 583.622 458.521
513 0 53.1448 12.0614 641 118.39 585.435 460.524
514 0 53.1521 12.8875 685 118.762 585.266 456.009
515 0 56.0563 12.6302 708 118.504 586.525 458.631
516 0 57.3122 13.2084 757 116.254 582.999 459.363
517 0 61.093 11.4088 697 121.372 584.265 457.502
518 0 62.063 14.1469 878 117.372 582.92 458.293
519 0 64.1332 13.3472 856 119.321 583.303 459.442
520 0 65.1705 14.8226 966 115.793 582.82 461.894
521 0 66.1301 13.1105 867 120.382 584.316 459.824
522 0 70.1353 13.1318 921 119.632 585.265 461.142
523 0 73.2208 14.8045 1084 116.754 584.06 460.546
524 0 73.1338 12.8805 942 120.194 583.737 462.09
525 0 76.3272 11.9748 914 123.228 582.025 459.076
526 0 79.2369 13.9455 1105 119.39 582.341 460.478
527 0 82.0844 13.6567 1121 119.075 580.999 461.473
528 0 85.2277 14.0095 1194 118.75 580.94 456.816
529 0 88.2354 12.3647 1091 122.342 580.388 454.72
530 1 45.1412 12.2062 551 123.034 577.713 471.149
531 0 50.272 11.1593 561 122.134 577.547 470.364
532 0 48.2203 12.2562 591 117.103 575.008 469.078
533 0 50.1722 12.1382 609 117.557 575.928 466.777
534 0 52.3278 13.2434 693 115.124 576.143 467.504
535 0 54.2464 13.1069 711 115.028 573.893 466.807
536 0 54.1484 12.318 667 116.679 574.208 463.895
537 0 57.0895 16.9558 968 109.07 573.328 463.71
538 0 59.1166 13.1266 776 115.226 573.129 461.849
539 0 61.1314 15.7857 965 110.719 574.006 459.158
540 0 63.1439 17.0563 1077 108.325 574.415 454.518
541 0 64.1007 15.1168 969 112.194 574.968 454.07
542 0 64.2177 12.6601 813 115.401 574.258 452.391
543 0 70.4126 17.1276 1206 108.443 574.4 447.474
544 0 70.2286 12.559 882 115.382 574.257 450.492
545 0 74.4284 13.6104 1013 114.887 574.984 445.725
546 0 76.1758 15.3067 1166 112.516 574.479 444.057
547 0 80.0921 15.3948 1233 111.416 577.089 444.926
548 0 81.1799 16.371 1329 111.625 576.166 442.544
549 0 85.0937 14.7367 1254 113.79 578.234 439.226
550 0 86.2043 14.7788 1274 112.472 579.615 440.9
551 0 90.1782 12.5197 1129 118.452 579.216 436.143
552 0 95.2827 15.2389 1452 116.291 579.8 436.51
553 1 52.1496 11.1219 580 117.781 579.884 456.116
554 0 53.1174 12.237 650 116.417 580.923 458.123
555 0 54.2769 13.2469 719 114.463 582.355 455.769
556 0 56.1968 12.9011 725 113.017 582.415 456.422
557 0 59.1392 13.0201 770 111.123 583.517 457.655
558 0 61.157 12.5251 766 111.617 583.115 457.923
559 0 59.2732 9.41403 558 116.79 583.068 456.998
560 0 63.163 11.779 744 112.095 583.442 455.02
561 0 67.1975 10.8486 729 111.952 583.498 458.601
562 0 69.1865 14.0201 970 108.447 584.179 453.202
563 0 71.1502 13.9423 992 108.032 583.124 458.757
564 0 71.1502 13.9283 991 120.982 580.134 458.813
565 0 76.3244 12.6696 967 111.971 582.581 455.688
566 0 78.2372 13.0501 1021 110.709 581.505 456.853
567 0 82.3769 14.4094 1187 108.655 581.843 458.134
568 0 83.1743 15.1008 1256 108.857 581.752 450.327
569 0 85.1356 13.2847 1131 112.851 580.717 447.881
570 0 87.1217 13.5443 1180 112.992 579.177 453.742
571 0 90.2051 12.3829 1117 115.293 578.865 451.306
572 0 94.2549 14.3759 1355 112.221 577.621 448.464
573 0 96.1629 12.8324 1234 115.082 577.724 448.143
574 1 52.068 14.0009 729 110.177 577.62 469.38
575 0 54.1738 10.7986 585 115.32 575.762 468.388
576 0 56.0372 12.2062 684 115.145 575.887 465.914
577 0 59.0935 12.0318 711 113.612 575.959 462.878
578 0 62.0372 12.4925 775 109.787 575.062 464.601
579 0 61.1084 9.6386 589 114.895 575.087 462.978
580 0 65.0663 14.0011 911 109.48 574.09 459.43
581 0 66.1614 10.429 690 114.612 574.352 458.178
582 0 70.1567 14.3964 1010 108.856 574.226 453.485
583 0 70.1646 13.5966 954 111.413 575.177 451.479
584 0 75.1706 15.7375 1183 107.565 573.958 452.194
585 0 77.3036 14.1649 1095 111.188 574.391 452.71
586 0 80.2455 14.3684 1153 112.629 575.375 447.341
587 0 83.1933 17.8861 1488 107.073 576.013 446.891
588 0 85.1611 11.5311 982 117.963 575.748 442.557
589 0 90.1324 16.3759 1476 109.709 575.774 442.623
590 0 91.1051 13.6107 1240 116.91 576.069 435.834
591 0 92.1823 10.9132 1006 121.923 577.85 436.828
592 0 96.1773 12.7993 1231 118.666 578.736 437.97
593 0 102.094 14.7609 1507 116.025 578.804 433.014
594 0 103.189 11.8908 1227 121.345 579.564 433.389
595 0 111.296 16.3348 1818 113.24 579.337 428.332
596 1 55.0967 10.7629 593 117.212 581.155 455.13
597 0 58.1482 13.8439 805 114.338 579.988 453.535
598 0 63.1053 13.6756 863 112.926 580.603 453.093
599 0 67.092 11.8643 796 115.524 581.3 451.374
600 0 64.0913 10.7971 692 118.533 582.649 450.986
601 0 72.1472 17.6722 1275 106.376 582.734 452.371
602 0 71.136 12.0052 854 114.109 583.611 452.826
603 0 75.0978 12.0509 905 114.559 583.567 452.127
604 0 76.1773 11.3945 868 115.556 583.397 452.653
605 0 78.103 13.1237 1025 114.222 582.422 451.833
606 0 84.0544 14.3835 1209 110.489 583.473 452.75
607 0 84.0843 11.5717 973 116.91 583.69 449.975
608 0 87.2618 11.5744 1010 116.875 582.775 446.247
609 0 88.142 12.2983 1084 117.095 582.588 446.993
610 0 94.3696 16.446 1552 109.358 581.937 448.909
611 0 93.2248 11.8316 1103 118.075 580.237 444.313
612 0 98.3226 12.7031 1249 116.447 579.389 448.098
613 0 102.203 14.7843 1511 113.651 579.935 444.178
614 0 105.394 15.6176 1646 112.902 578.657 444.786
615 0 106.29 11.4687 1219 120.139 577.794 442.139
616 1 58.0683 12.8469 746 111.641 575.534 467.932
617 0 58.1228 13.1446 764 109.442 576.781 466.081
618 0 62.1176 18.304 1137 101.671 575.926 464.967
619 0 63.1254 12.1029 764 110.353 575.978 464.116
620 0 67.0731 13.4778 904 108.103 574.402 459.185
621 0 67.0705 13.4038 899 109.395 575.103 457.86
622 0 70.2212 16.4195 1153 104.69 574.053 455.809
623 0 71.0735 17.5312 1246 103.512 573.056 457.111
624 0 74.127 16.6606 1235 105.101 573.636 452.777
625 0 76.1076 16.6869 1270 105.542 573.958 451.412
626 0 75.0794 11.2947 848 115.353 574.649 449.1
627 0 81.2191 13.8884 1128 109.88 573.284 450.535
628 0 80.0924 10.4629 838 116.841 573.848 447.97
629 0 86.3963 15.8572 1370 108.658 574.974 440.615
630 0 94.1788 18.1039 1705 104.133 573.92 441.36
631 0 93.2558 14.2297 1327 110.799 575.348 439.16
632 0 96.209 14.2918 1375 111.039 575.433 437.523
633 0 100.22 16.813 1685 106.869 577.65 435.392
634 0 101.173 12.8888 1304 114.723 575.974 433.454
635 1 54.0467 10.8795 588 115.267 577.706 455.289
636 0 51.0958 7.28044 372 113.841 577.882 455.315
637 0 55.1257 9.01576 497 112.348 580.841 452.427
638 0 58.0627 13.0032 755 109.579 579.487 457.95
639 0 58.144 14.7393 857 107.579 580.1 455.585
640 0 61.1913 12.273 751 105.18 581.121 451.413
641 0 64.1214 11.8057 757 109.355 580.765 457.995
642 0 66.1642 13.0131 861 109.038 581.058 451.863
643 0 72.1812 12.0253 868 108.15 581.424 457.469
644 0 72.0591 15.3485 1106 104.947 582.165 453.653
645 0 71.1656 12.211 869 109.558 582.307 459.092
646 0 74.1812 14.6129 1084 107.268 581.974 453.684
647 0 77.1042 13.9811 1078 108.494 581.907 452.41
648 0 76.0796 11.8166 899 112.504 582.194 452.424
649 0 80.0967 14.2078 1138 108.815 581.856 453.779
650 0 81.1663 12.8378 1042 111.496 581.71 453.524
651 0 90.3017 16.0573 1450 106.897 581.039 456.579
652 0 88.1847 13.5965 1199 112.755 581.7 451.758
653 0 91.1473 15.0306 1370 111.727 581.697 449.176
654 0 93.2971 12.5835 1174 114.92 581.13 453.344
655 0 96.0816 14.852 1427 112.175 580.9 447.692
656 0 99.159 14.4213 1430 112.463 580.501 447.259
657 0 103.227 15.0542 1554 111.769 579.191 443.608
658 0 105.267 16.3015 1716 104.912 579.53 448.187
659 1 54.1647 14.4374 782 105.708 578.038 471.928
660 0 53.1405 13.8689 737 108.022 578.227 469.68
661 0 55.0996 10.8894 600 112.382 577.303 467.643
662 0 57.2005 13.374 765 109.729 577.301 466.103
663 0 59.1943 12.8391 760 110.354 576.308 464.205
664 0 62.1256 15.533 965 106.291 575.332 462.531
665 0 62.2261 14.0777 876 108.545 575.179 459.955
666 0 64.1414 10.3989 667 113.49 574.979 461.24
667 0 67.2245 16.4523 1106 103.602 574.448 451.686
668 0 72.1496 13.7353 991 107.479 575.042 452.946
669 0 71.2258 13.4783 960 108.695 574.217 448.241
670 0 74.4169 14.15 1053 108.049 575.022 448.573
671 0 76.235 15.2817 1165 107.659 575.7 444.842
672 0 79.5748 13.8486 1102 110.08 575.769 444.457
673 0 83.349 12.4417 1037 111.155 576.598 445.792
674 0 84.4347 13.6555 1153 112.251 577.176 442.095
675 0 87.2884 14.1714 1237 113.522 576.732 438.593
676 0 90.3367 12.0992 1093 117.823 578.008 439.77
677 0 94.3158 14.6529 1382 113.96 578.476 438.572
678 1 49.3842 13.3038 657 110.875 578.12 461.233
679 0 50.1965 12.3913 622 113.381 578.109 459.897
680 0 51.2942 15.1089 775 109.755 580.893 457.103
681 0 54.2863 15.3814 835 108.6 578.883 457.275
682 0 53.0926 12.789 679 114.084 579.716 455.931
683 0 58.2042 18.899 1100 102.149 581.973 458.717
684 0 58.2295 13.9792 814 110.579 581.913 456.5
685 0 60.1035 14.5249 873 109.074 582.9 460.359
686 0 63.1569 13.0469 824 110.665 582.15 461.244
687 0 63.2496 14.3084 905 110.522 583.461 458.055
688 0 66.3319 17.533 1163 105.224 583.585 459.184
689 0 68.0982 16.7993 1144 106.889 583.625 457.127
690 0 72.3991 14.572 1055 110.132 583.367 454.253
691 0 74.2526 13.9389 1035 110.169 583.327 458.858
692 0 76.3166 13.4309 1025 112.292 582.206 455.669
693 0 78.1832 13.8649 1084 112.921 582.531 458.281
694 0 78.172 13.8029 1079 129.051 582.506 458.054
695 0 85.2505 12.2463 1044 114.798 581.799 454.926
696 1 45.022 13.8155 622 110.921 580.268 474.457
697 0 44.1137 10.1556 448 114.996 581.067 477.491
698 0 45.1924 9.7804 442 115.803 580.457 474.498
699 0 49.1931 14.0467 691 107.006 579.737 475.281
700 0 49.0765 12.776 627 109.705 580.424 472.85
701 0 53.0899 15.728 835 104.214 579.669 472.901
702 0 55.0993 17.6772 974 101.495 579.395 470.427
703 0 55.0993 17.6046 970 115.036 579.375 470.34
704 0 59.1232 15.0026 887 103.962 578.088 468.37
705 0 59.1232 14.8165 876 117.374 577.06 468.462
706 0 59.1232 14.6643 867 117.333 576.078 468.435
707 0 66.168 14.7654 977 105.132 576.944 461.938
708 0 65.2025 11.2266 732 111.225 578.081 460.701
709 0 69.3166 12.6521 877 107.743 578.116 462.625
710 0 73.1715 13.3385 976 107.599 576.481 454.283
711 0 74.2965 12.5578 933 109.334 577.57 455.877
712 0 78.3153 12.7689 1000 107.676 575.946 456.222
713 0 80.2102 12.3426 990 110.105 577.939 452.22
714 0 83.2505 12.6846 1056 112.124 574.857 447.469
715 1 44.0717 10.8687 479 112.785 574.904 468.392
716 0 46.0639 13.0688 602 110.659 574.829 465.601
717 0 48.0621 12.4839 600 103.375 577.3 461.268
718 0 49.1902 13.8036 679 101.035 576.979 459.096
719 0 51.0875 14.8177 757 103.232 577.72 466.756
720 0 51.0511 11.5766 591 111.09 579.096 459.34
721 0 54.2055 12.0836 655 107.705 580.06 457.58
722 0 55.146 10.5357 581 113.806 579.36 454.601
723 0 57.2267 14.0494 804 108.98 580.808 452.863
724 0 60.102 15.1576 911 105.126 581.587 457.142
725 0 61.0695 12.0355 735 111.585 579.475 457.942
726 0 64.2696 13.1322 844 109.686 579.868 456.515
727 0 67.1142 13.857 930 108.326 580.929 458.625
728 0 69.0864 15.8642 1096 105.296 581.2 458.36
729 0 71.1107 15.047 1070 107.65 581.243 456.965
730 0 73.1243 15.7266 1150 106.375 583.157 457.485
731 0 76.2794 13.2015 1007 112.275 582.335 457.089
732 0 78.1364 13.3484 1043 114.114 582.798 456.255
733 0 85.0897 19.0622 1622 104.593 583.258 456.653
734 0 85.2307 13.1291 1119 115.13 583.188 454.88
735 0 86.0598 12.1892 1049 117.785 582.684 455.398
736 0 92.2859 14.5309 1341 113.331 582.318 455.67
737 0 94.2169 14.3499 1352 110.115 582.765 450.973
738 1 49.1569 9.60191 472 112.358 580.167 476.159
739 0 51.2816 12.4216 637 109.454 582.207 472.3
740 0 54.1805 14.5994 791 108.521 581.448 473.603
741 0 55.1803 16.4189 906 107.987 582.641 470.743
742 0 56.2062 13.4683 757 118.642 580.679 472.445
743 0 59.0811 12.7791 755 121.052 581.154 469.823
744 0 59.0733 14.5751 861 118.952 581.019 469.131
745 0 63.1674 13.8046 872 119.643 580.006 466.56
746 0 62.0282 14.4128 894 119.392 579.818 465.513
747 0 64.1024 13.9776 896 120.02 579.486 464.846
748 0 66.0476 13.9748 923 120.283 577.809 463.332
749 0 71.1912 16.1115 1147 114.363 579.102 464.097
750 0 71.096 14.178 1008 120.29 578.531 458.803
751 0 72.0785 14.7062 1060 119.917 578.871 459.858
752 0 76.1172 15.5287 1182 117.752 578.756 458.993
753 0 78.2084 15.3436 1200 118.682 578.419 454.933
754 0 80.1302 14.127 1132 121.09 577.284 452.072
755 0 84.0908 19.3125 1624 111.505 577.799 449.662
756 0 88.281 13.457 1188 122.096 578.114 447.115
757 1 46.075 13.478 621 118.573 578.562 465.515
758 0 45.0364 12.5676 566 122.731 578.558 464.526
759 0 46.1835 14.464 668 118.94 579.117 461.799
760 0 48.1181 11.2016 539 124.462 579.788 461.692
761 0 50.0791 14.3173 717 116.544 580.271 461.428
762 0 54.0725 17.1252 926 109.785 581.319 458.882
763 0 55.0881 15.7566 868 112.378 581.278 458.824
764 0 57.1452 11.9345 682 118.937 582.196 458.889
765 0 58.0981 14.9747 870 115.209 582.236 457.084
766 0 57.073 13.2111 754 119.107 583.576 455.883
767 0 58.0954 9.7598 567 124.423 584.023 458.173
768 0 63.2312 15.7834 998 114.491 584.686 453.366
769 0 63.0806 13.2529 836 118.573 584.09 456.447
770 0 66.1543 13.7557 910 118.076 584.123 455.031
771 0 69.0926 11.9115 823 121.162 585.182 452.892
772 0 74.0897 18.1132 1342 109.232 585.535 454.305
773 0 75.1148 13.9786 1050 117.819 585.126 453.545
774 0 77.141 15.2578 1177 115.157 585.401 455.601
775 0 80.4051 13.8922 1117 116.419 585.265 453.667
776 0 82.321 14.0669 1158 117.021 584.728 453.381
777 1 42.1109 12.7521 537 120.011 585.02 473.235
778 0 43.0686 12.7703 550 119.295 584.209 472.398
779 0 45.1845 12.1723 550 122.167 583.651 472.776
780 0 46.154 16.4233 758 115.598 583.544 470.752
781 0 50.1518 15.1141 758 115.982 584.059 470.752
782 0 47.0897 10.4481 492 127.988 583.573 472.12
783 0 49.0648 12.7179 624 123.266 583.207 471.832
784 0 53.1529 12.3606 657 122.877 582.715 471.178
785 0 54.1281 15.1123 818 118.396 582.513 471.301
786 0 56.0789 12.3754 694 123.248 582.889 468.36
787 0 57.1021 12.9242 738 122.638 580.44 467.737
788 0 62.0428 17.0044 1055 114.008 580.577 465.595
789 0 61.0788 13.458 822 122.431 580.275 464.318
790 0 64.1445 14.062 902 120.304 580.681 462.174
791 0 64.0982 15.3671 985 119.087 580.071 457.962
792 0 69.1352 17.6755 1222 114.489 580.71 458.178
793 0 71.1253 16.7732 1193 116.043 579.246 455.598
794 0 74.3391 15.0796 1121 116.861 579.07 459.211
795 0 75.1841 13.8726 1043 121.024 579.434 453.71
796 0 77.1603 16.9258 1306 117.06 578.933 449.962
797 0 80.2487 14.9535 1200 121.59 578.028 449.174
798 0 83.1292 17.1781 1428 115.802 578.003 447.455
799 0 84.287 12.6829 1069 125.303 577.432 443.914
800 0 84.287 12.7066 1071 139.526 576.431 443.841
801 1 42.122 10.7782 454 124.211 578.751 465.674
802 0 43.1314 11.5461 498 125.233 578.55 463.261
803 0 46.3465 15.5352 720 110.939 578.512 458.253
804 0 46.2049 14.1976 656 114.062 578.986 458.18
805 0 49.119 13.681 672 110.007 579.168 454.467
806 0 50.0962 12.995 651 115.303 579.034 457.017
807 0 51.2369 12.3349 632 116.788 580.4 456.384
808 0 53.3209 14.047 749 113.494 579.82 455.142
809 0 54.2278 12.2078 662 116.63 580.725 455.434
810 0 57.27 16.2738 932 108.163 583.252 459.219
811 0 60.2807 15.1458 913 111.537 581.679 454.773
812 0 59.1839 11.8444 701 117.98 584.131 453.618
813 0 63.1739 16.5416 1045 108.807 584.277 456.901
814 0 64.2065 13.8148 887 114.681 584.165 453.028
815 0 66.365 14.6011 969 113.478 585.137 453.43
816 0 70.2567 14.8171 1041 112.473 585.27 452.82
817 0 71.3868 12.5794 898 116.628 586.497 450.912
818 0 77.1465 12.4179 958 116.061 586.064 451.692
819 0 79.2311 16.698 1323 109.945 585.742 449.954
820 0 81.3892 14.4737 1178 113.808 584.939 449.776
821 1 44.0969 12.9714 572 115.379 584.367 469.182
822 0 46.4128 11.8502 550 119.904 584.553 466.609
823 0 49.1862 13.5811 668 116.383 585.175 465.844
824 0 48.2117 12.9014 622 109.767 582.082 470.522
825 0 50.0644 12.464 624 109.663 583.196 467.955
826 0 51.1115 11.0151 563 112.487 580.973 468.805
827 0 52.0913 10.9615 571 112.084 582.131 470.135
828 0 56.1 14.8841 835 106.828 581.704 465.673
829 0 58.1232 15.1747 882 106.368 581.232 466.938
830 0 59.1886 11.9787 709 111.633 579.711 463.227
831 0 62.1368 18.1696 1129 102.616 579.952 460.189
832 0 63.2824 11.7252 742 113.596 579.674 458.294
833 0 66.7801 12.5037 835 111.862 579.814 460.455
834 0 68.1496 12.678 864 112.005 578.657 458.125
835 0 70.2491 12.9539 910 118.134 579.737 451.893
836 0 76.7785 13.7278 1054 116.373 579.472 450.832
837 0 79.3303 15.4039 1222 114.795 578.831 447.583
838 0 79.3303 15.5804 1236 134.49 577.81 447.618
839 0 83.6234 18.5833 1554 109.909 579.189 444.409
840 1 42.3406 11.3839 482 119.915 580.031 460.251
841 0 44.3718 12.4178 551 119.114 579.412 458.272
842 0 46.4052 14.3949 668 116.638 579.377 457.674
843 0 49.3139 16.2226 800 112.958 580.118 455.522
844 0 48.6216 13.7799 670 118.957 581.17 453.045
845 0 48.5317 12.6927 616 122.951 581.2 452.64
846 0 52.7959 13.5616 716 118.718 581.536 453.374
847 0 53.704 14.4682 777 118.181 582.062 451.819
848 0 54.886 11.2597 618 123.833 583.409 450.544
849 0 57.0389 14.008 799 120.885 583.214 446.925
850 0 62.9004 15.3576 966 115.936 582.917 447.037
851 0 62.692 17.1154 1073 113.634 583.486 449.674
852 0 62.5857 13.2139 827 123.282 581.868 446.823
853 0 65.7404 18.7556 1233 111.77 584.174 446.883
854 0 69.6814 17.9388 1250 113.922 584.686 444.437
855 0 71.5055 14.9639 1070 120.771 584.922 443.664
856 0 71.3744 13.7024 978 121.966 585.137 446.015
857 0 77.6133 17.7805 1380 113.976 586.12 445.472
858 0 78.4358 14.0497 1102 122.923 585.346 443.522
859 0 80.6871 14.6864 1185 121.982 585.861 442.587
860 0 83.3428 18.1659 1514 115.131 586.027 445.501
861 0 86.7283 19.7744 1715 112.406 586.749 445.402
862 1 48.4927 11.8781 576 122.592 587.601 463.373
863 0 46.4804 8.39064 390 131.064 585.564 464.772
864 0 51.7033 12.0108 621 125.166 587.409 462.435
865 0 51.2481 13.2297 678 124.562 587.252 463.133
866 0 54.6877 11.0263 603 127.235 587.537 464.904
867 0 55.4184 15.2657 846 121.411 585.862 462.754
868 0 55.3012 11.8442 655 129.11 585.113 462.51
869 0 58.259 14.1437 824 123.569 585.147 463.635
870 0 60.5728 14.1318 856 124.707 584.748 461.411
871 0 60.253 13.991 843 127.925 584.135 459.66
872 0 63.2761 14.9503 946 124.891 584.62 459.486
873 0 64.3448 14.8885 958 127.31 581.8 456.531
874 0 69.4262 14.2453 989 126.664 582.462 456.519
875 0 69.2052 15.0856 1044 124.229 582.359 459.622
876 0 72.1366 15.235 1099 125.01 580.575 456.259
877 0 76.2601 18.4369 1406 119.486 580.812 452.518
878 0 76.2076 13.2008 1006 133.265 579.105 447.144
879 0 81.2524 15.9995 1300 125.758 580.869 448.116
880 0 81.1235 15.7784 1280 128.312 580.321 445.354
881 0 84.1607 15.4466 1300 128.692 580.229 443.602
882 0 88.3331 16.0755 1420 127.33 579.373 440.697
883 0 90.5474 15.1744 1374 129.763 579.981 440.209
884 0 89.2532 13.7026 1223 134.558 579.668 434.697
885 0 95.2284 16.8857 1608 127.055 579.835 437.533
886 0 97.2815 16.4163 1597 127.14 579.362 438.331
887 0 96.3765 15.5432 1498 132.724 579.356 433.862
888 0 102.531 18.4237 1889 125.792 580.438 426.131
889 0 104.237 15.9444 1662 130.708 580.548 429.097
890 0 104.332 12.7861 1334 138.295 581.981 427.291
891 0 110.498 16.5433 1828 130.381 581.742 422.672
892 0 112.231 14.3098 1606 135.712 581.57 417.543
893 0 115.582 15.6512 1809 130.703 583.203 415.309
894 0 115.647 13.3942 1549 136.995 582.578 405.576
895 0 122.591 13.5409 1660 133.864 583.644 407.858
896 0 124.297 13.9745 1737 134.066 584.03 401.743
897 0 131.495 12.6468 1663 135.826 584.562 404.448
898 1 73.0632 13.0298 952 124.18 585.477 440.254
899 0 78.2542 10.9131 854 123.918 583.717 443.272
900 0 78.183 8.79986 688 129.555 585.785 440.121
901 0 81.2967 8.53664 694 129.488 586.017 438.922
902 0 84.2228 8.51313 717 128.107 584.718 441.77
903 0 88.4833 9.71935 860 123.43 584.645 444.712
904 0 88.2179 10.3494 913 123.924 584.289 441.531
905 0 95.3408 11.9571 1140 120.838 584.276 438.574
906 1 55.0905 7.76904 428 116.509 582.752 463.334
907 0 55.059 7.35575 405 118.02 582.469 461.793
908 0 58.1582 10.7293 624 112.248 582.788 461.732
909 0 59.1997 12.9224 765 104.784 583.707 462.593
910 0 58.1475 8.01411 466 114.03 581.693 463.24
911 0 59.2125 9.38991 556 115.169 582.151 460.827
912 0 64.172 11.3913 731 111.249 582.918 458.358
913 0 64.1738 7.5576 485 118.155 582.041 456.833
914 0 67.243 10.7521 723 111.532 580.618 460.296
915 0 69.2221 10.7336 743 112.961 582.293 455.607
916 0 69.2719 10.3217 715 113.046 579.001 460.354
917 0 74.2495 9.56235 710 114.779 578.83 454.646
918 0 76.1196 11.6133 884 112.094 578.698 450.124
919 0 78.3143 10.9942 861 112.042 577.136 454.425
920 0 80.1461 11.5664 927 112.092 577.151 450.389
921 1 157.807 11.1212 1755 123.638 576.862 410.771
922 0 162.588 7.60817 1237 127.348 577.03 413.761
923 0 162.596 7.50943 1221 145.945 578.005 413.925
924 1 134.391 10.3579 1392 121.245 577.162 417.958
925 0 137.622 11.488 1581 119.816 577.915 416.806
926 0 140.601 10.9672 1542 121.326 577.508 419.016
927 1 95.3404 11.0551 1054 117.824 576.751 432.943
928 0 98.2972 10.6412 1046 117.942 577.068 430.706
929 0 97.2264 9.71959 945 121.038 576.535 429.587
930 0 108.541 11.9862 1301 115.722 577.297 433.723
931 0 108.45 11.7843 1278 114.664 578.282 429.937
932 0 109.44 10.4989 1149 117.009 578.957 430.102
933 1 174.016 10.1658 1769 122.509 579.261 400.028
934 0 175.929 9.70849 1708 124.985 580.205 387.451
935 0 184.245 13.1673 2426 119.303 580.552 381.646
936 0 189.018 11.1577 2109 122.632 581.068 379.03
937 0 196.79 12.3482 2430 120.523 581.054 382.586
938 0 200.77 11.4908 2307 122.114 581.177 377.9
939 1 70.1343 11.863 832 109.544 582.074 443.77
940 0 74.2595 11.5002 854 109.837 582.97 444.703
941 0 74.268 11.5124 855 112.227 583.959 444.92
942 0 76.1459 11.4123 869 113.626 582.371 443.135
943 0 74.1737 8.49357 630 120.402 582.443 438.983
944 0 82.0823 10.4651 859 114.219 583.356 451.115
945 0 85.1953 14.2027 1210 110.76 584.116 444.262
946 0 86.2592 10.6423 918 118.337 584.643 439.356
947 0 90.1234 12.1389 1094 114.794 583.736 445.963
948 0 94.3133 12.6281 1191 114.674 584.946 441.573
949 1 49.157 10.2936 506 114.814 584.184 464.856
950 0 54.0974 11.4978 622 111.098 584.084 465.323
951 0 54.1141 10.3115 558 117.711 587.138 461.608
952 0 58.0912 11.2065 651 116.295 586.604 462.736
953 0 58.1012 11.6349 676 117.349 586.886 461.154
954 0 62.0521 10.878 675 120.354 585.16 462.591
955 0 62.0521 10.9263 678 143.117 584.174 462.822
956 0 64.0965 11.8571 760 120.146 584.391 460.728
957 0 64.0699 12.9546 830 118.91 582.634 461.955
958 0 63.062 12.3371 778 121.518 582.656 462.54
959 0 66.2723 12.5844 834 121.982 581.6 461.165
960 0 67.1989 13.0657 878 120.755 581.462 460.747
961 0 70.0784 14.5837 1022 119.792 580.005 455.965
962 0 70.0714 13.2151 926 124.288 580.99 455.852
963 0 72.0804 16.218 1169 118.982 579.547 455.493
964 0 74.2318 13.7407 1020 125.31 580.614 452.787
965 0 76.0468 13.0972 996 125.735 580.509 453.585
966 0 76.0606 12.0562 917 130.848 579.082 450.032
967 0 75.0393 12.5534 942 131.301 579.276 451.2
968 0 83.0999 13.8508 1151 128.632 578.871 444.5
969 0 82.1859 12.6177 1037 132.557 578.422 445.158
970 0 82.1859 12.6786 1042 156.379 577.417 445.115
971 0 87.196 14.2208 1240 130.223 578.551 440.448
972 0 88.1398 13.7282 1210 130.922 580.372 441.696
973 0 89.2071 14.1357 1261 131.164 579.368 439.296
974 0 94.4042 14.9252 1409 130.935 579.011 434.628
975 0 92.2764 11.769 1086 138.308 578.553 436.08
976 0 95.3856 14.216 1356 131.956 580.537 435.282
977 1 54.2929 12.9115 701 126.709 580.047 451.779
978 0 52.2675 12.1108 633 128.118 582.439 451.355
979 0 52.2865 9.77308 511 130.505 581.89 452.528
980 0 55.2194 12.4594 688 125.193 581.292 453.552
981 0 57.1376 14.6138 835 120.137 580.204 451.832
982 0 61.2545 13.7459 842 123.523 581.664 451.542
983 0 64.0813 15.1682 972 112.316 581.077 451.884
984 0 65.2818 14.9812 978 111.891 582.042 449.339
985 0 67.2666 13.4539 905 112.223 583.044 453.881
986 0 68.3137 13.1306 897 111.239 583.241 451.225
987 0 70.1949 14.2176 998 111.696 583.649 448.833
988 0 75.3117 13.4508 1013 109.486 583.512 454.194
989 0 76.2156 25.8215 1968 97.53 583.569 447.44
990 0 76.1356 11.624 885 114.868 583.558 446.549
991 0 82.3426 14.4518 1190 108.153 584.302 444.907
992 0 84.206 13.7045 1154 110.154 583.38 447.741
993 0 86.2455 11.4209 985 110.865 583.016 448.3
994 0 88.2183 14.8382 1309 107.466 583.42 448.908
995 0 95.2591 15.799 1505 106.467 582.423 445.056
996 0 95.2375 12.4951 1190 114.203 583.003 444.61
997 1 51.0687 12.8259 655 114.934 582.374 468.49
998 0 51.3765 10.1992 524 122.75 583.406 466.174
999 0 55.1477 11.8047 651 115.636 583.66 465.985
1000 0 56.1067 12.6723 711 115.048 583.415 464.305
1001 0 58.05 15.0904 876 111.91 579.567 463.881
1002 0 58.0484 15.0564 874 126.042 577.55 463.775
1003 0 61.1712 14.9253 913 111.936 578.175 464.234
1004 0 64.1091 14.9901 961 111.208 578.336 462.287
1005 0 65.1073 17.0795 1112 110.326 577.309 458.964
1006 0 66.1194 14.3982 952 115.128 576.85 455.59
1007 0 69.1112 14.6141 1010 114.232 576.109 454.421
1008 0 68.1047 12.2752 836 119.751 575.907 454.888
1009 0 73.115 14.3473 1049 115.062 576.034 449.937
1010 0 73.1276 16.3003 1192 112.202 575.794 452.721
1011 0 76.2828 13.3713 1020 117.895 575.785 447.415
1012 0 77.1743 13.787 1064 117.371 576.013 444.229
1013 0 83.19 14.4969 1206 115.781 576.31 446.467
1014 0 85.2511 14.2168 1212 115.593 576.6 443.44
1015 1 45.2988 11.6559 528 118.015 574.684 461.663
1016 0 44.0823 11.2971 498 121.293 575.534 460.633
1017 0 48.0459 13.4663 647 117.005 571.725 456.964
1018 0 48.036 11.6579 560 120.252 571.739 454.912
1019 0 49.2626 10.9008 537 120.672 572.367 454.793
1020 0 51.2444 14.1284 724 115.372 572.976 455.358
1021 0 54.1159 12.7135 688 119.551 575.401 454.225
1022 0 54.1243 13.4875 730 119.707 576.792 449.125
1023 0 56.2 13.9324 783 117.829 577.86 451.33
1024 0 57.2351 12.37 708 120.411 577.329 450.096
1025 0 59.137 12.9191 764 119.336 579.139 452.479
1026 0 60.1305 13.3543 803 119.858 579.716 448.509
1027 0 60.07 14.8327 891 116.743 580.91 453.024
1028 0 64.1371 13.284 852 118.383 586.579 451.035
1029 0 65.1056 13.8544 902 117.723 586.08 449.576
1030 0 68.0717 13.2507 902 118.411 585.733 451.817
1031 0 68.1515 13.1619 897 118.726 587.208 449.221
1032 0 70.2092 12.3915 870 120.225 587.303 451.19
1033 0 72.1836 12.1219 875 119.043 588.178 452.833
1034 0 74.1472 11.5985 860 119.073 586.615 454.913
1035 0 77.1771 12.4001 957 120.211 587.35 450.259
1036 0 82.1912 14.2229 1169 117.459 585.25 450.31
1037 0 84.2899 11.0571 932 121.304 584.711 454.393
1038 0 84.137 10.269 864 124.066 584.925 453.079
1039 0 90.3258 12.0896 1092 121.23 584.379 449.832
1040 0 91.2422 12.4285 1134 122.23 583.747 449.867
1041 0 96.2352 16.0336 1543 115.354 584.071 449.01
1042 0 98.266 12.3644 1215 122.196 582.602 447.327
1043 1 54.1596 12.9802 703 118.321 582.02 470.838
1044 0 55.0506 11.771 648 123.08 581.522 467.301
1045 0 54.0702 11.8734 642 116.349 580.469 462.662
1046 0 59.2394 12.2047 723 111.393 580.81 464.516
1047 0 60.1103 11.9946 721 113.526 579.06 460.237
1048 0 60.2462 9.71016 585 116.508 578.458 462.157
1049 0 63.1826 13.8804 877 110.64 578.896 459.578
1050 0 67.6377 13.4688 911 110.559 576.729 456.687
1051 0 67.2062 12.231 822 114.768 578.624 452.052
1052 0 71.3012 13.5902 969 112.11 577.849 453.633
1053 0 75.1414 13.7873 1036 111.158 577.907 450.918
1054 0 76.331 15.2887 1167 106.922 577.087 454.904
1055 0 75.3464 12.0643 909 115.441 577.861 448.752
1056 0 81.1546 14.2937 1160 111.465 578.609 445.237
1057 0 82.1438 11.4555 941 116.871 578.363 441.185
1058 0 87.3496 14.1958 1240 112.506 578.437 439.421
1059 0 90.1633 12.8877 1162 117.052 579.519 437.123
1060 0 90.2942 11.0195 995 121.502 579.63 435.889
1061 0 93.2414 13.3953 1249 115.464 579.275 433.206
1062 0 96.327 13.5684 1307 116.77 580.448 431.145
1063 0 101.4 18.2151 1847 109.926 579.671 425.781
1064 1 53.1716 12.7888 680 111.826 581.084 447.765
1065 0 54.2604 9.56499 519 116.266 581.561 450.541
1066 0 55.1555 12.8546 709 112.347 581.035 453.245
1067 0 56.1324 10.5109 590 116.427 580.725 453.532
1068 0 61.344 14.3127 878 110.876 582.96 444.856
1069 0 61.1005 12.1603 743 114.685 583.174 445.982
1070 0 63.4703 15.0149 953 110.329 583.739 443.623
1071 0 66.1985 15.5895 1032 109.352 584.94 445.49
1072 0 67.5239 15.5204 1048 110.386 583.851 442.496
1073 0 69.2839 15.7612 1092 109.091 584.743 447.372
1074 0 70.2376 13.9669 981 113.88 585.37 442.861
1075 0 71.3895 12.2427 874 116.862 583.626 444.708
1076 0 71.352 11.2541 803 120.437 585.856 439.672
1077 0 73.229 11.8942 871 119.638 585.428 438.786
1078 0 79.2586 13.5632 1075 116.487 584.637 439.747
1079 0 82.3071 12.8786 1060 116.385 585.178 444.345
1080 0 84.2068 13.4194 1130 118.573 583.905 437.686
1081 0 88.2044 15.1126 1333 115.977 585.377 438.979
1082 0 90.1789 11.8986 1073 123.115 585.372 438.181
1083 0 92.323 11.9472 1103 121.894 586.041 440.994
1084 0 96.2608 14.0556 1353 118.98 583.599 438.432
1085 0 99.1736 13.915 1380 119.549 583.364 434.639
1086 0 102.364 13.8428 1417 119.528 583.356 437.357
1087 0 108.286 12.1807 1319 125.892 581.471 440.03
1088 0 113.376 18.0814 2050 114.981 579.331 443.848
1089 0 114.45 13.0013 1488 124.915 579.228 436.889
1090 0 119.291 15.3741 1834 119.851 577.249 434.862
1091 0 123.215 14.495 1786 121.355 577.688 434.589
1092 1 64.2276 11.8641 762 122.357 577.955 458.803
1093 0 70.2435 15.1758 1066 115.716 577.219 458.397
1094 0 71.2686 10.72 764 122.99 575.759 456.724
1095 0 73.196 13.7849 1009 120.312 576.118 455.802
1096 0 77.2223 13.9986 1081 120.685 576.417 453.844
1097 0 80.157 14.5589 1167 118.523 576.201 453.732
1098 0 81.3129 13.8109 1123 120.134 575.923 450.074
1099 0 83.182 15.4 1281 117.585 575.938 448.738
1100 0 89.3788 14.4106 1288 117.779 576.387 446.694
1101 0 90.5232 12.5824 1139 118.714 576.557 448.103
1102 0 91.234 11.5527 1054 119.024 575.482 448.209
1103 0 94.3589 13.8196 1304 117.872 575.727 438.432
1104 0 96.4525 12.4621 1202 118.537 577.299 441.924
1105 0 101.195 13.4097 1357 118.128 577.147 437.573
1106 1 51.165 11.1795 572 120.005 576.979 458.329
1107 0 53.0712 13.2087 701 115.031 577.745 458.417
1108 0 53.0712 13.2275 702 137.037 577.751 458.48
1109 0 53.067 13.2851 705 136.255 577.762 458.637
1110 0 58.2007 14.0892 820 115.21 580.323 454.332
1111 0 62.1416 17.1705 1067 109.163 581.043 455.004
1112 0 62.1757 15.6331 972 112.184 581.457 454.122
1113 0 65.2019 16.0885 1049 111.068 581.083 451.148
1114 0 65.2306 13.7972 900 114.039 581.138 454.97
1115 0 70.2253 15.2509 1071 111.92 581.55 450.261
1116 0 69.1779 15.583 1078 112.268 582.191 449.992
1117 0 74.2915 15.493 1151 112.241 580.605 445.063
1118 0 73.1553 12.8357 939 116.241 583.367 449.212
1119 0 75.1612 14.0099 1053 114.772 582.225 446.228
1120 0 81.2791 14.2964 1162 113.39 583.193 446.903
1121 0 79.184 11.467 908 113.443 582.958 454.768
1122 0 80.3208 13.9067 1117 111.882 582.861 447.6
1123 1 46.0523 9.72807 448 115.268 582.377 471.047
1124 0 44.2336 7.88994 349 119.45 581.991 468.834
1125 0 48.3977 11.9014 576 110.957 583.238 468.214
1126 0 47.1788 10.704 505 105.927 583.069 466.012
1127 0 49.2845 9.29299 458 105.917 582.858 466.367
1128 0 48.306 7.97002 385 106.829 581.226 468.19
1129 0 48.2615 7.31431 353 110.207 580.904 463.943
1130 0 54.2112 12.4882 677 101.824 580.82 462.941
1131 0 57.1606 13.2434 757 100.885 579.624 464.886
1132 0 57.1275 10.4853 599 105.496 577.848 461.895
1133 0 59.2669 14.9325 885 99.9062 577.925 460.756
1134 0 60.1992 12.2095 735 103.937 577.622 458.392
1135 0 60.1992 12.2095 735 108.158 576.622 458.392
1136 0 65.1406 9.84026 641 105.683 577.317 455.136
1137 0 62.2102 9.48398 590 108.125 577.656 453.951
1138 0 67.0843 10.9862 737 106.384 575.876 452.365
1139 0 69.0846 12.463 861 103.181 574.699 456.058
1140 0 70.2563 10.9029 766 105.595 575.996 450.885
1141 0 75.3099 9.33476 703 107.774 575.596 446.273
1142 0 75.2304 10.4745 788 107.414 574.038 440.419
1143 0 75.2304 10.5011 790 110.394 573.048 440.411
1144 0 83.1121 12.2966 1022 105.44 574.932 432.611
1145 1 42.1578 8.23099 347 106.121 577.957 462.478
1146 0 43.0898 5.61618 242 111.256 577.942 459.314
1147 0 41.2165 15.3337 632 99.2041 577.326 454.56
1148 0 47.1879 12.5032 590 101.78 577.114 457.097
1149 0 46.1764 7.08154 327 108.615 578.716 457.483
1150 0 49.1504 9.37938 461 106.482 577.672 455.536
1151 0 51.1916 8.98586 460 107.702 578.911 454.174
1152 0 53.0927 7.32681 389 115.033 581.357 457.47
1153 0 55.2565 12.5053 691 106.614 580.517 457.643
1154 0 55.2404 10.8797 601 118.458 579.629 459.161
1155 0 57.1041 14.9727 855 103.492 581.593 455.971
1156 0 59.1049 11.5557 683 108.52 582.684 455.553
1157 0 60.0982 13.0287 783 106.181 583.315 456.925
1158 0 61.186 12.3558 756 108.017 582.749 455.996
1159 1 129.604 11.8901 1541 113.981 584.964 429.143
1160 0 129.371 17.7397 2295 107.902 584.262 424.95
1161 1 67.1622 16.0209 1076 103.644 586.149 450.48
1162 0 67.2386 13.177 886 108.58 584.632 448.286
1163 0 67.2386 13.1323 883 130.313 584.624 448.248
1164 0 70.1693 13.0684 917 109.436 585.349 450.261
1165 0 78.3386 15.4841 1213 104.73 585.65 451.559
1166 0 79.1368 15.2394 1206 105.887 585.49 451.968
1167 0 80.1821 11.1621 895 112.164 584.898 453.4
1168 0 83.2152 13.2067 1099 110.125 583.725 451.839
1169 0 84.1437 10.8267 911 114.683 583.522 450.337
1170 0 94.33 16.1348 1522 105.416 582.245 441.125
1171 0 92.2336 13.4333 1239 111.253 582.709 447.887
1172 0 94.235 12.1611 1146 113.715 581.633 447.07
1173 0 95.07 13.8424 1316 113.274 581.106 436.844
1174 0 97.4686 11.4704 1118 116.242 581.033 444.418
1175 0 101.194 15.2974 1548 109.197 579.831 440.275
1176 1 54.0637 11.061 598 112.719 578.873 463.565
1177 0 56.1572 10.5774 594 112.901 579.532 464.128
1178 0 60.3051 12.8016 772 111.667 578.595 458.385
1179 0 62.1362 12.891 801 107.834 576.813 455.973
1180 0 63.1619 12.1909 770 109.788 577.52 454.826
1181 0 63.1027 12.4083 783 108.833 575.635 457.871
1182 0 70.1043 13.052 915 108.473 575.835 451.855
1183 0 73.3138 12.3851 908 110.107 576.13 448.787
1184 0 72.1701 10.2813 742 113.367 577.047 447.867
1185 0 73.2485 12.0139 880 111.677 576.644 446.002
1186 0 78.1766 13.994 1094 107.495 575.322 438.364
1187 0 81.5227 13.1252 1070 110.133 576.494 432.822
1188 0 83.1427 14.3849 1196 108.048 576.164 431.041
1189 0 86.3279 13.8194 1193 109.576 576.334 433.293
1190 0 92.5253 13.5314 1252 109.244 576.264 431.05
1191 0 91.4304 13.595 1243 111.341 578.212 430.976
1192 0 95.4461 12.6878 1211 112.512 578.417 431.945
1193 1 52.2086 14.7294 769 103.285 577.302 453.753
1194 0 50.1751 10.4434 524 113.975 577.464 445.134
1195 0 55.1058 12.0677 665 107.872 578.353 446.263
1196 0 56.0906 14.227 798 105.001 580.02 447.99
1197 0 58.2336 8.98107 523 112.53 580.162 444.908
1198 0 61.4744 14.38 884 105.396 580.871 444.119
1199 0 63.1979 11.7884 745 109.357 582.172 444.097
1200 0 65.293 11.1344 727 109.719 582.373 443.359
1201 0 68.2366 12.9842 886 106.235 583.016 446.28
1202 0 68.6986 9.62173 661 111.773 582.641 445.921
1203 0 68.2338 11.5632 789 109.815 584.48 444.663
1204 0 73.2828 13.7959 1011 107.184 583.471 442.268
1205 0 77.4959 12.9039 1000 109.251 583.858 440.495
1206 0 78.7005 12.0965 952 109.534 584.879 445.709
1207 0 82.4654 14.685 1211 104.983 583.167 447.614
1208 0 82.4654 14.8305 1223 108.632 582.216 447.67
1209 0 87.2945 11.0431 964 112.536 582.902 439.188
1210 0 83.2766 10.0869 840 127.499 582.908 436.18
1211 1 48.0634 10.611 510 115.839 582.065 465.8
1212 0 50.4215 10.9675 553 114.085 583.875 464.06
1213 0 52.3645 14.1699 742 110.268 581.422 465.594
1214 0 50.0249 12.8936 645 112.349 581.081 464.366
1215 0 56.3823 13.2666 748 109.729 579.857 468.953
1216 0 57.4137 11.4258 656 113.056 578.752 466.314
1217 0 59.281 11.8082 700 112.854 579.567 467.923
1218 0 60.3504 12.9079 779 109.045 578.603 469.641
1219 0 59.4128 9.67805 575 116.645 577.33 462.899
1220 0 65.3556 16.5709 1083 106.014 577.693 459.792
1221 0 66.3783 11.5249 765 114.059 575.796 461.01
1222 0 68.3418 11.3108 773 113.542 576.684 463.97
1223 0 67.2368 8.99805 605 118.719 574.808 454.506
1224 0 75.0386 10.5279 790 112.338 575.753 465.9
1225 0 74.4847 12.6335 941 112.063 576.57 450.672
1226 0 78.682 11.0317 868 114.893 576.776 450.198
1227 0 82.7134 11.4854 950 114.235 575.916 446.993
1228 0 82.7088 11.6795 966 114.991 575.662 445.07
1229 0 85.7127 9.85852 845 117.793 576.175 443.471
1230 0 90.8554 11.6449 1058 116.364 575.833 444.014
1231 0 92.1297 11.7877 1086 111.367 577.958 440.766
1232 0 97.6908 11.2498 1099 111.181 576.281 437.814
1233 0 92.397 11.6562 1077 112.335 577.37 435.064
1234 1 54.3652 11.0181 599 112.524 577.788 448.217
1235 0 56.1616 12.7667 717 111.213 578.898 448.404
1236 0 55.4604 13.8477 768 110.191 578.266 448.137
1237 0 59.6586 11.9681 714 113.155 579.94 446.623
1238 0 60.2687 14.4022 868 109.732 580.112 448.306
1239 0 60.3606 10.6858 645 117.753 581.56 443.774
1240 0 66.382 11.9912 796 115.315 581.456 443.83
1241 0 66.1759 12.0286 796 116.751 582.211 440.631
1242 0 69.6012 12.9308 900 114.976 582.923 444.307
1243 0 72.0505 13.7126 988 118.029 584.949 448.763
1244 0 75.2708 14.76 1111 116.697 585.277 442.587
1245 0 79.3232 15.3297 1216 113.428 584.519 451.224
1246 0 81.361 12.6596 1030 115.623 585.644 446.713
1247 0 81.185 14.6702 1191 112.43 585.421 448.423
1248 1 43.1847 10.0035 432 120.326 586.35 463.819
1249 0 44.1775 10.2088 451 119.237 585.366 466.703
1250 0 48.2149 12.1539 586 115.575 585.659 465.988
1251 0 47.4286 12.8825 611 116.298 585.812 466.046
1252 0 49.2234 11.5798 570 118.07 585.332 469.389
1253 0 49.1195 12.4187 610 115.585 585.023 467.839
1254 0 54.2358 14.0498 762 112.719 584.534 467.919
1255 0 54.1693 12.3686 670 117.315 583.851 467.172
1256 0 55.0812 14.8145 816 114.292 583.233 466.112
1257 0 57.1356 12.4791 713 120.139 582.755 468.477
1258 0 59.1054 14.8041 875 116.246 581.875 469.317
1259 0 60.1506 13.1171 789 119.189 582.295 466.668
1260 0 63.3308 16.3112 1033 113.049 581.006 463.891
1261 0 64.1042 13.7432 881 118.03 580.501 461.741
1262 0 68.1433 16.025 1092 114.387 580.088 458.739
1263 0 71.2907 16.3556 1166 112.302 580.016 459.761
1264 0 72.1444 15.0254 1084 115.404 579.108 455.467
1265 0 74.1634 14.4681 1073 116.704 578.044 454.791
1266 0 75.1489 14.9703 1125 116.204 577.508 450.717
1267 0 79.2516 15.0028 1189 113.855 578.058 457.095
1268 0 80.1793 15.9393 1278 113.513 576.84 451.842
1269 1 42.07 11.3145 476 120.782 577.338 465.868
1270 0 44.1702 12.3386 545 114.728 577.73 468.95
1271 0 43.035 12.5712 541 118.636 577.93 465.786
1272 0 50.1668 15.0697 756 108.386 577.143 468.099
1273 0 48.0802 11.564 556 116.002 577.219 465.529
1274 0 48.0898 14.161 681 113.455 576.097 464.401
1275 0 48.2661 12.8662 621 118.52 576.042 455.99
1276 0 50.194 12.8302 644 116.792 575.545 458.039
1277 0 51.0823 15.8568 810 112.051 576.717 454.535
1278 0 51.0658 12.1412 620 117.513 576.966 454.935
1279 0 56.1085 14.2403 799 114.165 576.776 451.121
1280 0 55.1127 13.6629 753 126.116 576.667 450.308
1281 0 59.1657 16.6482 985 110.857 578.071 450.933
1282 0 61.1214 13.4323 821 115.266 578.924 451.893
1283 0 61.2419 15.104 925 114.756 579.774 452.179
1284 0 65.2139 13.8007 900 116.233 581.101 447.277
1285 0 67.1571 18.2408 1225 109.538 580.3 449.829
1286 0 67.3518 14.1347 952 116.977 580.248 450.04
1287 0 70.298 13.6846 962 117.383 582.283 448.095
1288 0 74.2009 14.865 1103 115.6 582.644 446.238
1289 0 74.3362 11.9188 886 120.863 583.17 448.248
1290 0 78.3463 15.8655 1243 113.312 584.292 449.804
1291 0 81.3026 13.4436 1093 116.59 584.511 449.903
1292 0 83.4101 14.2549 1189 117.402 583.087 444.778
1293 0 84.271 12.5785 1060 120.726 583.95 445.83
1294 0 89.3681 14.2109 1270 117.172 584.689 444.34
1295 0 93.5688 14.321 1340 116.049 584.527 444.912
1296 0 94.2861 12.8333 1210 119.836 583.484 439.196
1297 0 99.5649 12.9765 1292 117.472 584.368 431.754
1298 1 55.3807 12.2786 680 108.124 584.822 460.906
1299 0 55.5508 11.575 643 110.9 583.037 466.017
1300 0 55.2437 9.59385 530 108.094 582.772 468.226
1301 0 58.3159 11.815 689 107.115 580.965 466.885
1302 0 60.1331 10.51 632 109.309 580.601 462.475
1303 0 62.1158 11.8649 737 107.782 579.931 459.243
1304 0 64.3988 14.3481 924 104.437 578.856 458.386
1305 0 67.1231 11.7247 787 108.221 578.694 457.845
1306 0 67.1798 9.3927 631 113.99 577.445 455.374
1307 0 70.2151 13.7008 962 107.755 577.36 449.465
1308 0 77.4123 10.3084 798 116.099 575.623 448.731
1309 0 82.2088 14.378 1182 109.662 575.703 450.189
1310 0 82.1538 12.1966 1002 113.252 575.242 453.384
1311 0 88.3396 16.2328 1434 108.536 573.674 445.178
1312 0 89.2905 16.2839 1454 110.553 573.503 444.744
1313 0 90.2877 12.726 1149 116.289 574.849 437.893
1314 0 96.3845 14.2346 1372 112.82 573.84 438.164
1315 0 99.4445 15.3352 1525 111.793 575.212 433.279
1316 0 101.24 14.9051 1509 113.292 575.391 429.197
1317 0 103.314 12.2248 1263 117.756 576.052 433.12
1318 1 57.1946 11.5745 662 115.81 575.157 453.261
1319 0 59.2149 11.2641 667 111.603 576.39 458.696
1320 0 62.3425 13.4419 838 114.451 578.68 449.455
1321 0 64.1749 11.531 740 116.327 580.466 448.605
1322 0 65.0842 12.8756 838 114.021 580.203 449.183
1323 0 67.1178 12.8282 861 114.398 581.935 444.012
1324 0 69.3524 13.1647 913 114.055 582.796 444.515
1325 0 70.3098 12.2885 864 115.289 582.946 445.093
1326 0 74.4125 13.4924 1004 113.131 584.004 445.349
1327 0 75.4105 12.5447 946 114.965 581.485 447.458
1328 0 77.3515 11.4671 887 117.47 582.867 441.12
1329 0 82.2276 12.0154 988 115.545 584.367 446.504
1330 0 85.755 13.3053 1141 115.683 583.917 440.229
1331 0 87.3286 14.1649 1237 114.861 584.041 441.403
1332 0 90.5761 14.5182 1315 115.967 583.853 435.854
1333 0 93.3267 12.5473 1171 120.611 584.394 443.072
1334 0 97.2335 13.5344 1316 119.977 583.496 439.126
1335 0 96.6585 10.4802 1013 126.001 585.42 439.693
1336 0 103.561 11.8578 1228 122.906 584.134 437.375
1337 0 108.217 16.7719 1815 113.683 583.482 443.603
1338 0 109.331 10.0704 1101 123.734 583.784 437.288
1339 1 56.1857 11.2306 631 116.525 581.688 465.268
1340 0 59.2967 14.1492 839 112.228 580.819 464.552
1341 0 59.1357 12.3276 729 114.66 580.734 466.336
1342 0 63.247 13.8188 874 113.805 579.587 463.77
1343 0 63.1338 12.9408 817 115.171 579.912 464.066
1344 0 64.1143 10.5905 679 120.564 578.395 463.339
1345 0 67.116 12.6497 849 117.389 578.918 462.197
1346 0 68.1076 13.0235 887 117.95 577.701 461.088
1347 0 69.1969 12.674 877 119.099 577.698 459.219
1348 0 73.2647 13.6082 997 116.632 576.83 458.572
1349 0 75.228 14.3032 1076 115.845 575.374 457.255
1350 0 75.3875 14.1933 1070 117.006 575.326 457.708
1351 0 81.3119 15.9755 1299 113.948 574.647 452.893
1352 0 82.3128 15.9028 1309 116.333 575.024 444.855
1353 0 86.4427 17.6765 1528 112.745 574.334 446.346
1354 0 89.6008 16.5177 1480 115.241 575.455 444.069
1355 0 89.6558 11.4995 1031 124.878 573.714 443.706
1356 0 92.7041 12.7503 1182 124.375 574.601 439.538
1357 0 97.4622 15.0007 1462 122.153 576.018 437.284
1358 1 51.1664 12.4105 635 122.589 575.046 458.515
1359 0 51.1664 12.4496 637 154.733 575.072 458.463
1360 0 54.2712 16.5097 896 114.002 574.61 462.156
1361 0 54.1211 14.1165 764 120.708 575.794 455.581
1362 0 57.3388 14.0219 804 120.481 576.219 454.17
1363 0 58.1781 15.9166 926 117.177 576.699 455.342
1364 0 62.2664 17.6821 1101 114.508 577.023 453.402
1365 0 60.3214 13.9917 844 122.861 578.36 450.386
1366 0 64.1973 14.7202 945 120.971 578.167 449.528
1367 0 68.2283 16.1077 1099 117.063 580.162 452.386
1368 0 68.1858 13.5805 926 123.462 580.971 446.3
1369 0 71.2626 13.7941 983 122.707 581.121 446.985
1370 0 73.225 12.9464 948 125.79 580.89 447.07
1371 0 75.2071 14.7592 1110 122.323 582.088 446.363
1372 0 78.1774 12.4588 974 125.351 582.517 447.232
1373 0 81.1834 14.5473 1181 122.064 584.206 444.27
1374 0 85.2455 15.1562 1292 120.461 582.931 446.592
1375 0 89.1933 18.5776 1657 114.506 584.369 441.856
1376 1 50.149 12.3233 618 120.311 582.553 466.165
1377 0 47.0835 10.4708 493 126.771 582.892 466.876
1378 0 49.0329 10.9722 538 126.766 581.773 465.706
1379 0 53.0759 15.4684 821 116.613 582.19 468.08
1380 0 52.0493 13.468 701 125.414 580.15 464.738
1381 0 59.0404 14.092 832 121.928 580.823 468.399
1382 0 58.0664 13.2607 770 123.93 579.844 466.947
1383 0 59.0673 12.8328 758 124.724 581.74 468.024
1384 0 59.0812 13.2868 785 125.383 580.884 466.953
1385 0 63.0333 15.0555 949 120.662 580.098 467.186
1386 0 63.13 12.5455 792 126.687 578.71 465.03
1387 0 66.1404 15.331 1014 120.373 579.391 463.119
1388 0 73.2851 18.3393 1344 112.737 577.403 455.565
1389 0 71.0664 12.9879 923 124.19 577.803 461.91
1390 0 72.1872 12.5091 903 126.017 577.279 461.363
1391 0 80.1822 18.0215 1445 114.132 577.018 453.815
1392 0 81.1164 15.9524 1294 119.155 576.874 455.319
1393 0 83.1741 16.3392 1359 119.148 575.648 452.358
1394 0 80.2886 12.6045 1012 128.678 574.626 451.258
1395 0 85.3252 13.1028 1118 126.924 576.194 446.254
1396 1 44.1257 11.3766 502 124.052 574.719 470.976
1397 0 47.1681 13.1657 621 121.955 575.834 467.118
1398 0 47.0681 12.7475 600 123.7 577.212 467.325
1399 0 49.554 11.765 583 125.225 577.017 464.038
1400 0 49.4041 12.9139 638 125.738 576.201 462.045
1401 0 49.2706 11.6094 572 129.414 576.617 460.502
1402 0 53.327 13.5766 724 124.601 576.401 459.519
1403 0 55.3248 13.8997 769 123.889 577.745 457.918
1404 0 51.3497 12.892 662 136.302 578.798 455.98
1405 0 55.3357 11.0778 613 130.256 578.78 454.454
1406 0 61.2494 12.5226 767 126.807 579.163 455.121
1407 0 63.3433 14.7135 932 123.821 578.448 451.659
1408 0 64.1489 13.5622 870 125.023 579.174 452.188
1409 0 67.3196 14.6168 984 123.075 579.142 447.844
1410 0 70.415 14.7412 1038 121.43 580.635 449.144
1411 0 71.1921 13.0632 930 124.271 580.689 451.352
1412 0 75.2694 14.6009 1099 122.63 581.462 446.158
1413 0 78.4072 13.2768 1041 125.19 581.889 448.159
1414 0 77.3804 15.4044 1192 121.784 582.122 450.393
1415 0 80.5513 14.0407 1131 125.278 583.285 445.341
1416 0 84.3177 14.8249 1250 123.217 583.186 445.874
1417 0 88.3136 13.9729 1234 123.395 584.368 448.38
1418 0 89.5589 14.6272 1310 122.654 584.013 444.189
1419 0 90.2423 12.5329 1131 128.21 583.987 442.111
1420 0 95.3593 15.7824 1505 122.292 584.043 442.014
1421 0 99.2332 12.5563 1246 128.155 583.047 447.183
1422 1 53.0982 13.8234 734 120.188 583.09 464.12
1423 0 57.126 13.2864 759 120.175 582.593 466.253
1424 0 60.2122 13.8676 835 118.17 583.588 467.158
1425 0 60.234 12.8001 771 127.865 583.55 465.72
1426 0 63.4271 12.8652 816 127.496 582.414 466.249
1427 0 68.4078 11.3876 779 128.454 583.014 466.755
1428 0 67.1379 12.2881 825 128.616 581.801 465.515
1429 0 66.1981 14.0487 930 124.091 581.832 466.438
1430 0 71.2753 14.5212 1035 120.057 580.067 462.652
1431 0 75.2307 15.1933 1143 118.723 579.141 458.914
1432 0 76.2211 13.9594 1064 122.48 579.662 453.933
1433 0 75.2251 14.45 1087 125.731 580.325 457.818
1434 0 82.3837 15.2943 1260 124.068 578.404 452.115
1435 0 83.3041 14.5851 1215 127.596 578.826 449.154
1436 0 86.6566 13.3746 1159 130.879 576.638 448.231
1437 1 50.3054 13.0602 657 127.79 577.887 468.041
1438 0 51.41 13.013 669 128.812 577.691 467.069
1439 0 52.1835 12.7435 665 133.423 576.32 462.641
1440 0 53.2522 15.6425 833 129.623 577.514 462.7
1441 0 54.2653 13.9868 759 133.996 577.24 459.706
1442 0 57.3685 15.2174 873 130.811 577.025 457.715
1443 0 57.2969 15.3586 880 131.824 577.391 457.225
1444 0 60.3472 14.4 869 134.072 576.624 455.131
1445 0 61.3117 18.039 1106 128.082 577.915 452.625
1446 0 65.29 17.2768 1128 129.121 578.241 451.399
1447 0 66.3332 15.5126 1029 132.903 580.661 452.215
1448 0 69.18 16.074 1112 133.283 578.276 447.762
1449 0 71.3264 17.6092 1256 130.291 579.878 447.481
1450 0 73.3547 14.4367 1059 138.645 581.397 443.727
1451 0 73.2469 14.1439 1036 139.409 580.979 445.037
1452 0 78.5402 15.0114 1179 134.392 581.586 445.658
1453 0 81.3108 15.779 1283 133.428 582.193 443.377
1454 0 84.2528 15.9045 1340 133.59 583.791 442.124
1455 0 88.3096 15.9892 1412 133.258 583.855 440.779
1456 0 92.8416 20.088 1865 123.932 583.493 441.504
1457 0 94.3754 17.7271 1673 127.741 584.21 441.109
1458 0 96.4396 15.3049 1476 132.537 585.49 440.188
1459 1 47.1427 13.6819 645 141.203 584.364 459.366
1460 0 49.2202 13.0028 640 140.897 585.834 461.608
1461 0 53.3479 14.0399 749 137.895 585.817 461.706
1462 0 53.1921 15.491 824 136.096 584.523 460.916
1463 0 55.1229 15.6922 865 135.265 585.037 460.998
1464 0 55.2417 13.0517 721 142.398 583.986 460.865
1465 0 60.2633 16.9921 1024 131.72 584.691 460.847
1466 0 61.221 19.0131 1164 127.609 585.609 461.316
1467 0 64.071 14.4059 923 138.001 583.934 460.38
1468 0 67.2239 15.9021 1069 132.558 583.743 460.879
1469 0 68.1817 14.4027 982 137.693 583.289 461.298
1470 0 67.2011 14.9105 1002 139.667 582.939 456.466
1471 0 73.1607 20.0107 1464 126.525 582.299 458.068
1472 0 76.3758 16.7069 1276 132.487 581.871 457.392
1473 0 77.2913 15.461 1195 136.096 580.078 453.358
1474 0 79.4226 17.7154 1407 131.485 579.768 452.618
1475 0 82.1166 17.5604 1442 132.213 579.332 452.851
1476 0 84.5117 18.1277 1532 130.903 577.949 447.687
1477 0 87.2751 15.7548 1375 136.436 578.377 448.647
1478 0 89.2788 18.1118 1617 132.04 577.844 447.026
1479 0 91.34 14.4187 1317 139.901 577.62 446.923
1480 0 91.1892 15.7036 1432 139.384 577.022 441.501
1481 0 98.2839 18.8739 1855 130.662 576.846 440.551
1482 0 98.3135 15.8574 1559 138.277 576.776 439.284
1483 0 103.367 17.0655 1764 135.104 577.252 433.997
1484 1 57.3096 11.1151 637 141.733 577.224 454.024
1485 0 59.2382 12.0362 713 139.237 576.715 452.279
1486 0 62.1363 11.0563 687 139.562 578.118 453.063
1487 0 63.0856 13.0616 824 136.785 576.8 447.996
1488 0 65.0968 14.0253 913 134.739 575.758 443.015
1489 0 65.0968 14.1328 920 146.338 575.75 443.172
1490 0 68.074 13.074 890 139.061 576.343 436.406
1491 0 71.0467 13.2167 939 136.412 577.835 441.31
1492 0 76.1635 13.5629 1033 135.775 578.874 436.127
1493 0 75.1139 11.609 872 142.822 579.23 432.788
1494 0 79.1611 13.2767 1051 138.367 579.868 432.027
1495 0 81.0995 14.698 1192 135.647 580.24 430.799
1496 0 84.1212 12.8624 1082 139.984 581.538 429.424
1497 0 87.2939 13.1052 1144 139.441 582.075 428.64
1498 0 90.1736 14.4721 1305 136.207 581.46 431.83
1499 0 89.2749 11.571 1033 144.822 583.247 420.282
1500 0 96.4883 12.0533 1163 142.026 582.88 424.476
1501 1 58.1872 8.31797 484 130.932 584.428 456.25
1502 0 59.0648 11.6144 686 131.5 585.004 449.313
1503 0 63.0953 13.1547 830 126.22 585.318 452.559
1504 0 61.1176 7.82099 478 133.912 585.653 452.743
1505 0 65.1304 9.10482 593 126.243 584.943 457.358
1506 0 69.1141 11.9368 825 122.733 585.32 453.364
1507 0 73.1104 10.9971 804 124.389 584.705 453.947
1508 0 72.1778 10.7097 773 124.779 584.898 447.984
1509 0 76.2967 13.1067 1000 119.512 584.145 452.64
1510 0 80.2272 14.9201 1197 117.303 584.445 448.74
1511 0 82.2991 11.1666 919 127.245 582.345 451.324
1512 0 85.2648 9.12452 778 129.555 582.267 451.1
1513 0 88.3858 8.84757 782 128.061 582.445 452.504
1514 1 46.0258 7.64789 352 122.733 583.432 469.068
1515 0 50.0808 7.06858 354 122.667 581.46 465.551
1516 0 50.0808 7.02865 352 107.608 579.432 465.568
1517 0 52.1899 12.1288 633 122.283 578.218 465.013
1518 0 50.2878 6.30371 317 133.48 578.833 464.082
1519 0 51.0765 6.55879 335 130.281 578.409 467.904
1520 0 50.3178 9.06241 456 127.375 578.173 464.969
1521 0 54.1624 7.42212 402 131.47 577.754 459.465
1522 0 61.171 9.25275 566 127.477 577.122 457.961
1523 0 62.1508 12.3892 770 122.423 576.808 456.59
1524 0 62.1726 10.0044 622 124.611 576.256 460.344
1525 0 65.2628 11.4613 748 123.693 575.687 455.797
1526 0 69.4527 10.6835 742 125.929 575.896 450.177
1527 0 68.3431 9.5401 652 127.801 575.759 451.182
1528 0 71.31 11.5271 822 124.653 576.606 448.182
1529 0 74.2897 11.7513 873 123.592 576.056 446.45
1530 0 77.4355 10.0342 777 126.614 577.239 442.826
1531 0 76.3044 9.17378 700 128.443 576.234 442.961
1532 0 82.4746 10.5002 866 125.423 577.997 440.492
1533 0 84.4405 10.611 896 123.372 578.571 441.363
1534 0 86.226 9.27794 800 124.418 578.854 439.266
1535 0 88.3662 10.2867 909 123.299 577.528 433.64
1536 0 91.358 7.79351 712 127.008 579.902 434.31
1537 1 55.0599 8.64514 476 118.441 580.868 453.376
1538 0 54.0855 11.2599 609 114.345 581.358 455.176
1539 0 55.1809 10.3115 569 117.269 582.786 452.183
1540 0 56.1642 8.42174 473 120.148 582.592 454.518
1541 0 56.1575 10.4884 589 117.739 583.694 451.806
1542 0 58.4927 9.98416 584 127.053 582.467 451.824
1543 0 58.319 9.49947 554 128.496 582.572 453.2
1544 0 63.2387 9.69343 613 125.931 583.295 452.471
1545 0 60.393 8.57716 518 131.195 583.865 448.409
1546 0 67.4103 12.372 834 122.584 583.867 454.613
1547 0 68.3686 10.2533 701 127.272 583.749 454.551
1548 0 72.3043 13.2634 959 121.419 584.398 453.612
1549 0 73.3264 12.9012 946 123.463 583.311 451.967
1550 0 72.4317 11.9837 868 124.609 583.304 455.512
1551 0 77.5062 12.2829 952 124.128 583.152 453.048
1552 1 153.881 13.4064 2063 125.935 582.517 420.733
1553 1 81.5064 11.95 974 125.138 582.809 454.044
1554 0 83.5408 10.6894 893 127.972 583.551 454.447
1555 0 86.6548 10.6168 920 128.826 581.358 450.734
1556 0 90.5451 12.3033 1114 125.143 581.584 450.983
1557 0 92.4639 12.4048 1147 125.474 580.874 450.371
1558 1 54.2009 8.98509 487 127.881 580.495 469.78
1559 0 55.2557 11.3472 627 122.067 580.069 471.22
1560 0 53.2721 12.0326 641 123.7 579.284 470.482
1561 0 55.1961 11.6313 642 126.654 578.972 464.907
1562 0 60.2382 12.0355 725 125.341 579.01 466.935
1563 0 63.2944 14.9618 947 121.156 579.638 462.452
1564 0 63.2172 12.8762 814 127.065 579.232 460.103
1565 0 65.3655 13.8605 906 124.908 578.225 461.315
1566 0 65.0971 9.44742 615 134.94 578.826 459.21
1567 0 70.2892 16.0622 1129 120.605 578.275 456.725
1568 0 72.1448 13.7224 990 126.186 577.381 454.499
1569 0 74.2429 12.7824 949 130.092 577.251 449.516
1570 0 76.2828 13.2533 1011 129.045 575.964 451.043
1571 0 79.4939 14.5797 1159 126.703 577.015 446.779
1572 0 79.3988 14.2572 1132 129.153 577.597 442.034
1573 0 83.4532 12.6059 1052 131.252 577.487 444.968
1574 0 87.5551 13.4772 1180 130.174 577.337 439.106
1575 0 86.2634 11.7315 1012 134.494 578.622 439.664
1576 0 90.475 13.7165 1241 130.439 577.655 433.591
1577 0 93.4748 14.8061 1384 127.565 578.586 433.494
1578 0 96.6376 13.1936 1275 132.104 578.216 429.803
1579 0 96.6376 13.2764 1283 155.687 578.219 429.719
1580 0 108.561 15.0607 1635 126.917 579.04 429.572
1581 0 109.443 14.053 1538 130.161 579.411 426.78
1582 0 112.351 15.0688 1693 128.227 578.395 422.616
1583 1 61.229 11.6448 713 129.198 579.003 451.363
1584 0 62.252 11.9514 744 130.179 579.605 447.199
1585 0 65.5324 15.6106 1023 121.897 581.194 447.387
1586 0 67.0429 14.9307 1001 122.41 580.482 451.915
1587 0 68.0888 13.8496 943 126.469 579.41 448.251
1588 0 70.0886 13.3545 936 126.263 580.229 451.893
1589 0 73.033 16.9375 1237 119.576 581.883 447.503
1590 0 75.1212 13.5514 1018 125.427 581.374 449.163
1591 0 76.1495 11.9633 911 128.753 582.204 448.416
1592 0 76.1038 10.0521 765 132.562 581.222 445.604
1593 0 83.1103 16.3157 1356 118.895 582.198 450.625
1594 0 87.0805 15.5833 1357 120.539 581.576 448.341
1595 0 87.1055 15.1655 1321 121.149 582.259 449.792
1596 0 89.2236 10.7483 959 130.7 580.417 447.788
1597 0 93.0878 12.7514 1187 127.23 580.359 443.147
1598 0 96.204 17.4317 1677 119.805 580.628 439.121
1599 0 100.31 14.7742 1482 125.693 580.084 436.079
1600 0 103.31 13.3772 1382 128.22 580.042 434.823
1601 0 106.357 16.6702 1773 122.152 579.102 433.252
1602 0 104.36 11.834 1235 130.31 579.221 435.534
1603 1 61.3711 11.0964 681 127.476 577.398 453.28
1604 0 60.2363 13.3474 804 124.25 575.91 460.802
1605 0 61.1969 9.0364 553 124.005 576.915 461.957
1606 0 65.2411 11.7257 765 118.503 575.944 456.076
1607 0 67.1456 15.6972 1054 110.768 576.718 456.187
1608 0 70.1314 11.7636 825 117.307 575.339 455.256
1609 0 72.187 12.8416 927 115.353 575.321 451.465
1610 0 74.2018 12.9377 960 116.435 575.874 448.296
1611 0 76.2521 11.8816 906 117.517 575.913 445.578
1612 0 81.1223 13.1407 1066 115.163 575.583 448.802
1613 0 82.1277 13.4912 1108 114.81 574.389 447.9
1614 0 88.1956 14.4678 1276 112.05 575.072 447.103
1615 0 89.1999 14.9328 1332 114.242 575.194 438.385
1616 0 90.3187 11.9909 1083 118.285 577.404 435.241
1617 0 96.2226 14.4145 1387 113.854 577.37 431.723
1618 0 100.308 11.3949 1143 118.455 576.404 431.943
1619 1 50.2296 7.92362 398 118.07 575.92 452.932
1620 0 53.1409 11.366 604 111.584 577.68 453.815
1621 0 55.1751 14.0281 774 108.596 576.11 451.784
1622 0 55.366 9.06694 502 119.221 578.255 442.839
1623 0 59.2345 11.3279 671 115.089 576.964 443.784
1624 0 58.3651 13.7582 803 111.788 578.86 443.042
1625 0 61.1834 12.4217 760 112.893 580.65 448.912
1626 0 62.2656 13.0248 811 113.291 581.364 444.635
1627 0 66.1845 13.7041 907 112.088 581.633 442.019
1628 0 67.185 12.3093 827 114.242 581.993 442.259
1629 0 68.2078 11.3477 774 115.696 582.789 443.102
1630 0 71.154 11.7913 839 114.142 583.287 448.876
1631 0 74.1785 11.6206 862 115.082 583.155 444.849
1632 0 74.1866 11.6059 861 132.901 583.153 444.691
1633 0 80.2736 11.2241 901 116.401 583.826 444.769
1634 0 83.2114 13.6039 1132 111.318 585.126 446.034
1635 0 83.2362 11.0168 917 116.438 583.955 446.887
1636 0 87.2657 10.0841 880 117.936 584.268 444.283
1637 0 92.2681 12.8105 1182 114.385 583.199 440.754
1638 0 94.211 12.4189 1170 114.163 582.356 446.122
1639 0 96.1994 10.8836 1047 118.325 582.789 439.684
1640 0 101.382 13.0299 1321 115.45 582.67 436.98
1641 1 54.1187 13.2117 715 109.257 582.824 465.638
1642 0 54.1187 13.2487 717 113.184 583.806 465.637
1643 0 59.2848 11.5375 684 115.737 581.861 461.646
1644 0 61.1995 12.3857 758 122.499 582.175 462.273
1645 0 63.2319 13.6482 863 117.314 580.406 465.769
1646 0 65.236 15.5282 1013 121.058 579.273 463.76
1647 0 69.116 14.3527 992 117.546 579.141 460.499
1648 0 69.2057 12.6146 873 120.975 578.285 459.813
1649 0 72.2093 14.9565 1080 117.988 579.328 457.109
1650 0 75.2891 14.4908 1091 117.863 577.5 457.292
1651 0 78.3632 13.4757 1056 120.577 578.571 453.579
1652 0 80.2239 13.8114 1108 121.142 578.81 446.159
1653 0 80.1979 12.5564 1007 123.468 577.962 446.406
1654 0 86.5336 15.7973 1367 117.162 576.854 445.778
1655 0 88.2225 16.243 1433 117.115 576.876 444.848
1656 0 92.2561 16.8661 1556 116.008 576.267 443.202
1657 0 96.3636 18.4821 1781 113.226 576.833 440.151
1658 1 48.3502 9.16232 443 125.896 577.476 458.3
1659 0 50.2976 9.62272 484 122.791 577.097 458.934
1660 0 53.1783 8.19883 436 124.557 577.417 459.443
1661 0 56.2605 13.3842 753 118.41 578.021 454.56
1662 0 56.1712 12.4441 699 118.368 578.621 452.446
1663 0 54.2103 12.0641 654 120.555 579.962 453.472
1664 0 57.1302 11.7276 670 120.497 579.093 453.024
1665 0 61.2737 11.8974 729 120.76 581.199 450.567
1666 0 58.2598 10.6592 621 124.208 581.185 448.905
1667 0 62.1597 10.5374 655 124.137 582.014 449.089
1668 0 63.391 12.0522 764 122.13 582.165 448.01
1669 0 66.5988 10.766 717 123.134 583.416 447.379
1670 0 66.2256 11.642 771 122.035 582.957 450.279
1671 0 69.218 12.7857 885 120.797 583.567 446.305
1672 0 70.2852 12.5489 882 121.836 583.708 445.188
1673 0 74.457 11.51 857 122.737 584.599 445.179
1674 0 76.465 10.4361 798 123.658 584.05 446.885
1675 0 78.3909 11.6978 917 122.471 584.443 444.567
1676 0 82.8963 10.7363 890 124.018 584.135 443.894
1677 0 84.7771 15.1456 1284 116.512 582.334 442.188
1678 0 87.6015 13.6185 1193 120.32 583.792 436.947
1679 1 49.2202 12.2917 605 117.372 583.972 464.934
1680 0 51.3723 10.2584 527 123.192 582.81 462.353
1681 0 51.1576 11.5134 589 118.869 583.494 466.576
1682 0 56.1431 13.2697 745 115.278 583.515 465.047
1683 0 54.0735 11.17 604 116.508 580.07 467.214
1684 0 55.2294 8.38322 463 120.765 580.041 462.59
1685 0 54.2199 10.4574 567 106.944 578.855 465.376
1686 0 60.0825 11.2512 676 116.701 577.895 460.66
1687 0 63.393 13.1403 833 113.158 578.121 459.543
1688 0 61.2041 10.7346 657 116.883 578.07 466.594
1689 0 66.1799 11.5443 764 116.097 576.719 457.757
1690 0 67.2609 11.6264 782 115.925 577.081 457.303
1691 0 69.198 12.6015 872 115.63 576.186 453.455
1692 0 70.1711 9.93287 697 119.598 573.98 452.011
1693 0 71.1125 13.3591 950 115.674 574.377 451.72
1694 0 73.148 11.0871 811 119.502 574.694 450.538
1695 0 80.1746 13.3334 1069 114.141 574.729 444.977
1696 0 81.2974 11.7962 959 116.358 574.441 448.927
1697 0 84.3685 13.441 1134 114.291 574.556 444.555
1698 0 86.1801 14.2956 1232 113.808 574.572 443.698
1699 0 90.3302 12.6868 1146 116.291 575.099 442.18
1700 0 93.1512 13.0433 1215 115.788 576.034 438.764
1701 0 96.3976 13.8385 1334 116.152 577.381 431.922
1702 1 52.1399 9.12928 476 118.107 576.918 456.945
1703 0 52.171 8.14628 425 121.341 578.339 457.518
1704 0 57.264 13.4814 772 112.737 576.943 452.768
1705 0 57.1494 12.721 727 115.646 578.369 451.71
1706 0 60.4335 13.2708 802 116.111 577.141 444.127
1707 0 62.2587 13.3636 832 120.038 578.343 446.182
1708 0 62.1144 11.3822 707 124.274 576.975 450.434
1709 0 64.108 12.1982 782 124.414 578.127 446.827
1710 0 67.2506 14.3642 966 118.981 577.348 448.268
1711 0 69.2507 13.776 954 119.556 578.434 447.817
1712 0 72.206 17.09 1234 114.195 578.895 448.227
1713 0 75.2356 12.5207 942 123.572 578.852 444.528
1714 0 74.1561 13.5929 1008 121.389 580.228 445.4
1715 0 78.1405 13.079 1022 122.729 580.452 443.101
1716 0 80.1923 12.3578 991 123.402 581.243 444.151
1717 0 80.1923 12.2705 984 142.293 582.229 443.998
1718 0 88.103 15.4819 1364 117.763 581.295 444.37
1719 0 89.1424 13.0802 1166 122.818 582.656 443.651
1720 0 90.1459 12.9124 1164 123.527 582.362 444.113
1721 0 94.2812 14.775 1393 120.803 582.693 444.478
1722 0 97.3241 17.1386 1668 117.31 582.103 444.834
1723 0 98.3718 12.8492 1264 127.163 582.424 439.318
1724 0 103.306 16.3398 1688 120.21 580.964 443.185
1725 0 105.3 13.7702 1450 124.837 580.305 441.029
1726 0 108.214 14.8317 1605 123.709 581.527 440.305
1727 0 112.389 15.5709 1750 123.079 581.062 439.096
1728 1 63.2557 9.23237 584 126.461 580.966 465.788
1729 0 64.244 14.1803 911 120.42 580.948 461.097
1730 0 68.3746 11.5247 788 122.607 577.89 464.832
1731 0 68.284 12.8141 875 122.707 579.207 461.433
1732 0 71.1704 15.3575 1093 118.45 578.275 458.631
1733 0 73.2628 13.6632 1001 121.594 577.922 456.054
1734 0 73.2628 13.745 1007 139.749 576.909 456.051
1735 0 81.256 17.0818 1388 114.193 577.511 454.432
1736 0 80.2592 10.9396 878 125.747 576.747 452.982
1737 0 84.3898 16.6726 1407 116.186 576.183 450.319
1738 0 85.1862 13.3003 1133 120.727 575.655 453.109
1739 0 88.1386 15.5437 1370 117.841 575.739 445.938
1740 0 87.353 11.5165 1006 123.287 575.886 444.26
1741 0 93.3203 14.9807 1398 117.628 575.352 442.38
1742 0 96.2227 14.8717 1431 117.611 576.4 441.242
1743 0 97.1635 14.2029 1380 114.879 575.311 442.864
1744 0 103.247 13.5985 1404 115.522 575.337 437.987
1745 0 105.164 14.1399 1487 116.113 576.319 435.128
1746 0 108.507 11.7043 1270 119.373 576.827 437.972
1747 1 55.3843 11.8084 654 120.063 576.373 456.517
1748 0 60.1567 13.9469 839 117.205 578.182 452.763
1749 0 62.3013 14.462 901 116.329 578.851 448.836
1750 0 65.3705 15.4963 1013 113.486 579.24 452.052
1751 0 64.4854 12.7005 819 120.238 579.906 447.527
1752 0 65.8903 12.6422 833 120.468 580.406 445.995
1753 0 68.297 15.9304 1088 114.878 580.16 447.613
1754 0 70.8909 13.9933 992 117.462 581.286 446.999
1755 0 70.8909 13.9651 990 143.696 582.303 446.99
1756 0 70.5999 13.6261 962 118.97 581.085 444.458
1757 0 69.4447 11.7648 817 123.377 581.962 443.707
1758 0 78.5184 12.0736 948 121.844 581.873 440.768
1759 0 81.45 11.2953 920 123.886 583.187 440.253
1760 0 84.3189 13.4489 1134 118.466 584.577 442.12
1761 0 90.5718 14.8611 1346 115.749 584.455 441.236
1762 0 92.4939 16.4876 1525 113.59 583.813 441.958
1763 0 93.7914 13.6793 1283 118.005 584.309 444.258
1764 0 94.6793 14.5227 1375 119.067 584.142 437.172
1765 0 100.557 13.107 1318 120.401 582.945 439.159
1766 0 104.753 15.8849 1664 115.446 583.531 441.882
1767 0 108.568 15.2255 1653 116.25 582.914 441.664
1768 0 109.564 15.3791 1685 117.833 582.857 435.239
1769 0 112.728 13.8829 1565 119.417 582.829 434.672
1770 0 118.314 13.0162 1540 120.503 580.734 434.327
1771 0 121.254 13.4676 1633 119.329 581.638 429.946
1772 0 126.416 14.6026 1846 117.595 580.121 426.75
1773 0 133.37 17.3802 2318 112.334 580.714 427.465
1774 0 136.426 13.5605 1850 118.977 578.404 424.158
1775 0 139.525 12.1555 1696 122.857 578.661 422.46
1776 1 76.1425 12.1877 928 121.178 576.97 447.435
1777 0 81.4031 15.1591 1234 115.014 577.153 448.604
1778 0 81.0817 14.1709 1149 113.346 576.455 442.221
1779 0 86.3122 11.7828 1017 116.94 576.206 441.305
1780 0 87.2332 11.005 960 118.279 575.726 441.383
1781 0 89.3444 16.789 1500 110.645 575.076 438.196
1782 0 89.1768 10.5072 937 119.894 575.699 440.642
1783 0 95.4968 9.80138 936 121.915 575.197 437.072
1784 0 95.3986 11.4362 1091 119.613 574.84 438.413
1785 0 102.315 11.5135 1178 120.666 574.653 433.033
1786 0 103.317 14.6346 1512 117.463 574.743 431.99
1787 0 108.25 13.7275 1486 120.301 574.275 428.928
1788 0 112.232 15.6372 1755 116.122 574.36 433.287
1789 0 118.181 12.1001 1430 121.734 574.727 430.071
1790 0 120.289 13.8915 1671 121.591 575.418 419.652
1791 1 67.1962 11.5632 777 118.269 576.734 450.338
1792 0 65.2979 11.5318 753 119.846 578.056 446.264
1793 0 71.1478 11.1036 790 119.985 579.414 444.132
1794 0 71.17 14.2476 1014 113.961 579.213 445.11
1795 0 75.3757 13.3332 1005 115.569 580.859 442.388
1796 0 78.1962 13.594 1063 114.564 580.523 443.517
1797 0 79.1342 13.2181 1046 116.061 581.841 441.227
1798 0 83.1852 13.8727 1154 114.768 582.45 441.689
1799 0 86.2837 11.5201 994 118.007 582.469 440.596
1800 0 89.1173 14.3855 1282 113.494 583.193 437.619
1801 0 91.0808 13.6362 1242 115.177 583.82 438.763
1802 0 94.2345 13.9864 1318 114.626 584.247 436.157
1803 0 95.3143 13.104 1249 116.808 583.554 433.252
1804 0 99.1767 11.3535 1126 117.954 584.277 439.974
1805 0 102.439 13.3933 1372 116.229 584.7 435.425
1806 0 106.271 14.5007 1541 113.83 583.751 436.748
1807 0 112.325 20.6099 2315 104.848 583.549 434.821
1808 0 116.24 15.3561 1785 112.6 584.124 433.702
1809 0 118.292 19.7985 2342 107.462 582.69 429.898
1810 0 120.184 11.8568 1425 117.582 581.583 441.027
1811 0 126.256 13.8845 1753 115.427 579.444 434.878
1812 1 67.1792 9.13974 614 120.922 579.207 457.41
1813 0 69.1022 10.1154 699 119.295 579.475 458.398
1814 0 76.1252 14.1477 1077 111.825 578.344 458.874
1815 0 76.0791 7.71565 587 121.532 577.739 460.819
1816 0 81.3557 15.635 1272 110.906 580.306 450.652
1817 0 83.1908 14.7372 1226 112.697 579.189 449.726
1818 0 90.2518 15.2241 1374 110.855 578.849 449.113
1819 0 92.3429 14.2512 1316 112.505 578.707 445.227
1820 0 95.215 13.7583 1310 113.696 578.117 441.676
1821 0 95.1555 13.8405 1317 113.71 578.034 444.79
1822 0 99.1609 13.4831 1337 115.088 576.588 438.541
1823 0 101.276 13.1522 1332 115.666 576.341 434.519
1824 0 106.398 14.2014 1511 113.347 576.552 436.793
1825 0 108.35 12.8657 1394 116.311 576.267 429.712
1826 0 112.3 15.3606 1725 111.253 576.028 436.278
1827 0 114.48 14.841 1699 112.592 574.014 428.699
1828 0 115.28 10.1753 1173 120.896 574.465 430.742
1829 0 121.509 15.1594 1842 113.029 574.989 423.013
1830 1 68.1287 11.6985 797 114.368 573.668 455.242
1831 0 67.2626 13.1871 887 112.905 574.122 451.862
1832 0 70.2266 12.2034 857 112.285 574.603 450.452
1833 0 69.4221 12.0999 840 109.043 574.088 450.135
1834 0 74.3685 11.2144 834 111.54 573.754 444.715
1835 0 74.1486 10.3441 767 113.688 576.63 441.876
1836 0 77.3509 14.3502 1110 108.623 574.896 442.227
1837 0 82.452 11.2065 924 112.807 576.931 441.381
1838 0 84.25 13.5786 1144 110.301 577.486 438.422
1839 0 83.3063 11.1876 932 115.793 578.279 435.997
1840 0 88.3297 14.1289 1248 111.294 578.09 440.25
1841 0 92.2369 12.8907 1189 114.18 578.927 438.268
1842 0 93.4243 13.6688 1277 112.388 579.181 434.95
1843 0 97.3615 13.7221 1336 111.829 579.888 437.01
1844 0 97.195 11.3792 1106 116.503 581.432 435.576
1845 0 102.319 12.0994 1238 116.553 580.787 431.927
1846 0 107.274 15.3625 1648 110.982 580.19 430.397
1847 0 109.37 11.548 1263 116.959 582.039 433.025
1848 1 63.1933 10.8239 684 116.212 579.716 452.199
1849 0 65.3245 12.1547 794 111.746 580.859 459.024
1850 0 65.2898 10.8899 711 117.421 580.968 453.523
1851 0 69.539 13.8627 964 112.772 581.442 452.312
1852 0 74.3294 14.3685 1068 108.832 580.856 457.44
1853 0 73.2223 11.1851 819 117.385 580.513 455.188
1854 0 75.2124 15.4762 1164 109.737 580.101 455.221
1855 0 79.2426 12.4428 986 113.941 580.578 457.825
1856 0 79.1794 8.17132 647 122.578 579.746 456.097
1857 0 83.3046 12.3162 1026 116.098 580.214 455.13
1858 0 86.3167 11.1913 966 118.999 578.596 452.656
1859 0 89.3243 13.9268 1244 115.763 577.947 451.138
1860 0 93.2615 13.6176 1270 115.587 577.706 450.894
1861 0 96.549 15.0286 1451 113.965 576.74 449.765
1862 0 97.315 11.8687 1155 121.216 576.578 441.553
1863 0 102.352 13.141 1345 118.771 574.622 441.952
1864 0 106.243 14.5045 1541 116.083 574.392 444.609
1865 1 60.2076 9.30115 560 121.28 574.171 465.321
1866 0 60.185 9.33788 562 147.165 574.178 465.365
1867 0 64.2066 11.9147 765 115.895 572.614 460.817
1868 0 64.1316 9.13747 586 123.355 571.933 455.968
1869 0 68.2139 12.4755 851 115.127 573.783 459.499
1870 0 70.2814 10.7283 754 117.853 572.361 454.398
1871 0 70.2814 10.8421 762 139.852 571.354 454.388
1872 0 72.2611 13.0499 943 115.741 572.41 448.227
1873 0 74.2356 14.4674 1074 114.437 573.664 444.926
1874 0 77.2172 14.6082 1128 112.377 572.042 449.131
1875 0 80.426 13.6523 1098 115.56 572.715 440.855
1876 0 83.2217 15.7531 1311 111.703 573.935 442.372
1877 0 84.3263 13.5189 1140 117.039 574.867 436.544
1878 0 88.3344 13.7659 1216 116.093 574.814 437.294
1879 0 91.3458 15.3154 1399 113.533 575.749 433.435
1880 0 91.3458 15.3373 1401 132.311 576.742 433.557
1881 0 93.4735 11.9178 1114 120.722 577.434 429.943
1882 0 99.3807 13.5137 1343 117.357 577.523 429.978
1883 0 102.416 12.6445 1295 119.642 579.052 426.597
1884 0 105.373 13.7227 1446 118.441 579.958 422.246
1885 0 108.329 12.3328 1336 120.624 580.62 421.093
1886 1 62.2151 10.6726 664 117.821 579.089 449.642
1887 0 63.2734 10.9999 696 116.596 579.427 451.027
1888 0 64.1748 12.6062 809 116.004 580.114 445.252
1889 0 65.0922 11.0612 720 118.226 579.719 450.899
1890 0 66.1386 11.4305 756 118.944 581.607 446.265
1891 0 70.1407 12.3466 866 115.457 579.724 446.656
1892 0 73.3816 12.5781 923 113.252 581.427 450.485
1893 0 75.4732 12.8655 971 114.075 581.288 446.9
1894 0 76.1471 11.9506 910 115.311 581.801 450.67
1895 0 76.4635 11.6134 888 117.073 580.369 449.49
1896 0 81.2707 12.3538 1004 115.67 580.38 451.062
1897 0 84.1914 13.8969 1170 113.135 580.442 449.73
1898 0 85.1748 17.5169 1492 107.15 579.995 452.473
1899 0 87.2566 12.8586 1122 116.114 580.262 446.693
1900 0 91.2472 13.2607 1210 116.074 579.6 443.405
1901 0 94.2062 13.7252 1293 115.317 578.79 444.393
1902 0 99.2799 14.6354 1453 112.233 577.231 445.481
1903 0 98.3708 13.0628 1285 115.866 576.712 438.046
1904 0 103.505 12.2216 1265 116.957 576.09 435.194
1905 0 105.286 10.3338 1088 119.506 575.738 438.944
1906 1 62.1167 11.8326 735 112.679 574.492 459.766
1907 0 63.0811 13.1101 827 112.372 577.252 460.802
1908 0 66.1883 11.8299 783 109.456 575.82 455.81
1909 0 65.2125 11.3782 742 110.908 575.938 455.751
1910 0 68.215 13.3695 912 107.849 574.083 455.137
1911 0 68.2937 10.8355 740 112.614 575.712 450.932
1912 0 68.181 9.91478 676 115.42 574.385 447.612
1913 0 71.1607 12.2118 869 111.696 574.849 446.346
1914 0 73.237 12.7531 934 110.715 574.209 446.548
1915 0 77.1841 12.1657 939 112.006 575.089 445.427
1916 0 79.2662 12.2372 970 112.77 575.068 446.373
1917 0 82.3203 16.12 1327 107.347 575.812 439.667
1918 0 85.3762 12.8724 1099 112.62 575.572 440.575
1919 0 88.1618 14.2238 1254 111.115 576.655 437.718
1920 0 90.2127 13.0359 1176 113.677 577.609 430.828
1921 0 93.3811 15.1101 1411 110.472 577.378 433.442
1922 0 95.2317 14.5015 1381 111.75 577.922 435.064
1923 0 97.2052 11.7483 1142 117.678 579.042 427.584
1924 1 54.1672 12.8122 694 112.785 579.367 453.026
1925 0 56.2733 12.2971 692 115.587 580.822 449.509
1926 0 58.1956 12.1143 705 116.084 581.306 449.157
1927 0 58.1666 11.7249 682 112.705 579.078 447.963
1928 0 60.0989 11.1816 672 119.295 579.048 443.025
1929 0 62.1167 10.5447 655 121.156 579.577 442.696
1930 0 63.1052 11.5204 727 118.989 579.415 443.668
1931 0 65.1681 13.7337 895 113.832 580.8 446.428
1932 0 69.0455 15.0336 1038 112.444 580.916 445.873
1933 0 68.2965 8.82915 603 119.459 581.536 445.896
1934 0 70.2503 9.73662 684 116.838 582.845 449.624
1935 0 74.0926 11.6341 862 115.355 583.178 445.085
1936 0 79.1663 13.4401 1064 111.349 582.705 447.862
1937 0 82.0904 12.1208 995 114.21 583.018 446.675
1938 0 84.1819 15.2171 1281 110.052 582.012 445.138
1939 0 86.2086 14.3025 1233 111.974 581.182 443.048
1940 0 88.2707 11.0682 977 117.476 581.951 444.905
1941 0 93.2038 11.2549 1049 116.575 580.97 445.405
1942 0 95.1469 13.1166 1248 114.722 579.795 439.511
1943 0 100.218 13.3908 1342 113.208 578.984 444.111
1944 0 103.171 17.0785 1762 108.485 576.674 436.764
1945 0 106.267 13.0144 1383 114.167 578.405 439.503
1946 0 110.316 13.978 1542 112.348 577.636 439.386
1947 0 111.405 12.8361 1430 115.879 576.008 432.317
1948 1 63.1282 9.88465 624 113.63 575.665 457.986
1949 0 63.1622 16.4022 1036 106.166 576.45 454.952
1950 0 67.2399 12.3885 833 114.116 575.551 455.48
1951 0 72.1809 12.8012 924 108.479 575.148 454.2
1952 0 68.2474 8.49849 580 118.16 574.136 449.291
1953 0 75.1417 10.2606 771 112.502 574.438 451.311
1954 0 76.1141 10.458 796 114.619 575.555 445.882
1955 0 79.1412 10.7656 852 111.367 574.905 451.668
1956 0 84.2667 13.4335 1132 108.347 574.858 445.072
1957 0 84.155 11.3362 954 112.747 574.901 442.18
1958 0 84.2694 10.2054 860 113.431 574.272 443.583
1959 0 84.2694 10.3715 874 134.857 574.296 443.763
1960 0 88.1653 7.20238 635 117.38 575.15 439.131
1961 0 94.2988 10.2228 964 114.008 576.386 434.367
1962 0 97.3986 11.9201 1161 111.61 575.75 431.909
1963 0 101.386 13.1379 1332 112.771 576.131 424.979
1964 0 99.2641 12.0386 1195 119.151 577.229 420.128
1965 0 104.148 15.0267 1565 114.243 577.008 418.776
1966 0 113.362 12.7733 1448 116.742 577.8 422.63
1967 1 65.3892 12.1121 792 115.907 579.479 442.739
1968 0 66.2083 12.5513 831 115.392 580.67 444.505
1969 0 69.2492 13.8774 961 113.776 580.31 447.457
1970 0 70.3261 12.6127 887 116.317 581.223 445.661
1971 0 70.4156 11.9292 840 118.138 582.837 441.407
1972 0 72.4376 13.1285 951 116.539 582.249 440.76
1973 0 77.4126 14.1837 1098 113.53 582.585 445.262
1974 0 79.519 12.9151 1027 116.873 582.404 440.553
1975 0 81.7307 14.0094 1145 115.286 582.052 441.772
1976 0 84.64 13.268 1123 117.504 582.344 441.868
1977 0 86.4069 14.7442 1274 116.293 582.539 438.942
1978 0 90.5212 12.7926 1158 119.484 581.614 438.967
1979 0 95.6183 17.3712 1661 112.182 582.197 438.936
1980 0 98.6203 14.7536 1455 117.038 581.017 436.191
1981 0 99.6742 15.4503 1540 116.923 581.68 437.033
1982 0 104.488 15.0257 1570 117.768 581.492 438.171
1983 0 109.745 16.1192 1769 115.839 580.641 436.88
1984 0 111.622 17.5055 1954 114.497 579.352 436.256
1985 0 112.518 12.558 1413 120.813 580.293 431.555
1986 0 115.645 10.7657 1245 123.138 579.044 436.342
1987 0 120.541 19.2134 2316 110.368 579.078 435.224
1988 0 126.075 13.6506 1721 120.16 577.545 427.93
1989 0 129.736 12.456 1616 121.825 577.941 429.797
1990 0 135.645 14.619 1983 115.662 575.716 426.53
1991 0 142.546 13.7149 1955 115.227 575.909 418.785
1992 0 146.806 12.4995 1835 117.265 577.083 414.841
1993 1 83.3185 10.9579 913 114.697 575.313 445.292
1994 0 84.3278 11.4672 967 114.492 574.369 445.816
1995 0 86.3486 15.5996 1347 109.821 575.197 439.434
1996 0 87.2943 12.5781 1098 113.763 573.921 445.163
1997 0 94.3965 13.4857 1273 113.879 574.384 439.069
1998 0 90.3442 17.699 1599 110.339 574.655 434.998
1999 0 96.3786 13.5611 1307 117.513 574.513 429.979
2000 0 101.223 15.6387 1583 115.563 574.104 429.656
2001 0 101.379 13.0994 1328 120.861 574.869 428.081
2002 0 104.463 14.0528 1468 119.825 574.336 423.708
2003 0 105.285 12.5943 1326 122.448 574.532 424.434
2004 0 111.249 14.499 1613 118.901 574.36 422.048
2005 0 113.189 14.383 1628 120.688 574.138 417.662
2006 0 116.234 13.0943 1522 123.468 576.778 417.373
2007 1 66.0654 11.4886 759 122.37 575.655 436.539
2008 0 70.2432 14.5067 1019 118.98 576.565 446.057
2009 0 71.3457 13.8341 987 118.636 579.027 442.584
2010 0 73.412 14.262 1047 118.592 579.036 440.589
2011 0 78.2718 14.999 1174 115.391 580.993 442.429
2012 0 78.2718 14.9351 1169 132.627 582.997 442.353
2013 0 85.4344 17.1945 1469 108.71 580.79 446.619
2014 0 86.4041 15.7747 1363 113.458 579.733 440.545
2015 0 87.2872 11.3648 992 119.944 580.16 443.066
2016 0 90.235 13.4427 1213 117.036 580.805 439.622
2017 0 95.1476 16.2905 1550 111.975 581.219 435.273
2018 0 99.3454 13.1662 1308 116.662 580.781 436.316
2019 0 103.316 15.9027 1643 111.813 581.068 437.523
2020 0 106.149 15.6101 1657 112.987 581.774 436.127
2021 0 110.114 13.8946 1530 114.973 580.682 438.148
2022 0 111.178 12.3855 1377 118.233 580.892 433.561
2023 0 115.154 14.2505 1641 113.484 581.416 441.352
2024 0 119.157 14.7788 1761 112.885 580.667 436.587
2025 1 69.093 10.4931 725 115.161 580.058 462.305
2026 0 68.0968 11.6746 795 117.019 578.831 454.775
2027 0 68.0735 12.2074 831 112.155 582.812 460.643
2028 0 71.0826 14.0119 996 110.305 582.008 455.405
2029 0 77.3905 8.96751 694 116.043 581.578 458.599
2030 0 78.1694 10.2982 805 113.591 581.338 458.457
2031 0 81.0984 12.1704 987 111.44 579.428 454.564
2032 0 83.1414 11.6067 965 112.468 578.725 452.721
2033 0 83.1414 11.5706 962 132.898 577.701 452.638
2034 0 89.207 14.472 1291 108.641 577.203 449.396
2035 0 90.2683 9.97027 900 114.559 577.822 451.334
2036 0 96.2871 12.4835 1202 112.893 576.822 445.447
2037 1 52.173 8.12681 424 119.333 576.446 461.743
2038 0 57.1124 11.9414 682 111.144 576.434 462.076
2039 0 59.2406 11.6137 688 113.057 576.016 459.272
2040 0 60.0442 14.023 842 110.533 576.527 457.242
2041 0 61.0737 13.3609 816 111.545 574.49 458.277
2042 0 64.1771 15.3014 982 108.422 576.405 457.523
2043 0 65.1211 12.0698 786 115.402 575.112 451.51
2044 0 68.0884 13.2181 900 112.304 574.451 452.367
2045 0 65.1816 9.25108 603 119.867 575.25 451.091
2046 0 67.1612 12.001 806 114.421 576.469 452.168
2047 0 64.203 9.62572 618 120.341 576.322 451.542
2048 0 74.1365 11.87 880 116.14 578.269 446.809
2049 0 76.2572 11.8153 901 117.752 576.236 440.792
2050 0 78.0958 14.1749 1107 114.825 577.984 441.125
2051 0 83.1441 11.0411 918 118.035 579.289 439.958
2052 0 82.1318 11.4207 938 119.89 579.173 437.625
2053 0 87.1338 12.6013 1098 118.764 579.355 432.387
2054 0 91.0958 13.129 1196 117.951 580.834 431.967
2055 0 93.2237 13.709 1278 117.806 580.863 434.367
2056 0 97.2577 18.2299 1773 109.38 582.452 436.346
2057 0 97.1752 16.1152 1566 114.998 581.65 430.967
2058 0 99.1135 16.5063 1636 114.36 583.038 430.202
2059 1 56.0608 10.56 592 120.478 584.856 450.826
2060 0 59.0414 9.62037 568 118.285 583.454 457.083
2061 0 61.1566 10.9882 672 117.094 583.423 455.521
2062 0 63.1125 11.7885 744 115.351 584.227 457.25
2063 0 65.3014 14.0273 916 111.041 584.687 454.91
2064 0 65.2006 15.7821 1029 110.18 583.657 455.373
2065 0 68.2042 9.85277 672 119.914 584.588 456.969
2066 0 71.2106 16.7812 1195 108.073 583.102 459.15
2067 0 72.1482 11.9892 865 117.025 583.809 457.946
2068 0 71.3045 14.1786 1011 115.795 583.739 454.636
2069 0 76.2293 15.1517 1155 112.85 584.188 456.708
2070 0 78.1819 13.8011 1079 114.341 582.523 457.239
2071 0 81.441 14.8206 1207 113.992 581.204 455.486
2072 0 85.3414 17.3304 1479 110.728 580.944 453.291
2073 0 87.1711 15.6589 1365 114.415 578.985 447.916
2074 0 88.1632 13.9514 1230 118.498 578.045 446.601
2075 0 87.1764 10.8745 948 124.958 575.958 443.696
2076 0 94.2803 12.6113 1189 120.943 576.327 447.658
2077 0 98.1869 15.6436 1536 116.642 576.591 441.077
2078 0 100.233 14.4364 1447 119.836 576.012 440.635
2079 0 103.271 14.5153 1499 120.754 575.184 439.574
2080 0 107.25 17.7903 1908 114.876 575.56 436.871
2081 0 108.369 15.115 1638 120.485 575.056 436.834
2082 0 112.276 14.0368 1576 123.648 574.484 430.577
2083 0 115.34 15.3199 1767 121.211 575.265 429.794
2084 0 116.234 16.7335 1945 120.38 575.164 424.582
2085 0 121.231 15.722 1906 120.888 575.228 431.767
2086 0 125.152 17.0512 2134 120.052 574.639 422.122
2087 1 70.1366 10.6221 745 126.714 575.87 448.31
2088 0 73.1697 11.4938 841 125.325 574.57 446.708
2089 0 77.1839 10.5074 811 118.866 575.355 441.753
2090 0 77.1093 9.57083 738 122.564 575.832 438.356
2091 0 81.1296 11.8699 963 117.12 575.653 436.102
2092 0 83.2362 10.8246 901 118.464 577.046 434.346
2093 0 83.2362 10.7645 896 142.964 579.044 434.566
2094 0 83.2531 9.41707 784 123.626 578.921 426.628
2095 0 92.2251 12.3285 1137 116.45 578.825 430.88
2096 0 95.2035 11.5857 1103 118.108 580.005 426.207
2097 0 97.2539 10.1487 987 120.968 581.468 426.203
2098 0 101.32 10.6889 1083 118.905 580.79 428.237
2099 0 102.449 13.109 1343 117.241 580.6 422.104
2100 0 105.187 9.87768 1039 121.991 581.514 425.729
2101 0 103.359 11.3778 1176 121.867 581.157 417.077
2102 0 110.235 10.4504 1152 120.514 582.861 427.85
2103 0 110.261 12.6065 1390 120.229 582.141 421.067
2104 0 108.18 6.80347 736 123.615 581.845 435.939
2105 1 67.1302 9.84653 661 115.555 581.3 446.865
2106 0 70.1707 11.3295 795 120.478 581.543 438.927
2107 0 74.361 12.4797 928 123.988 581.522 443.911
2108 0 79.0637 13.1793 1042 119.496 583.728 449.401
2109 0 81.1333 10.1191 821 125.424 583.415 447.95
2110 0 83.1993 11.5386 960 122.272 584.279 448.778
2111 0 87.2022 10.9974 959 124.255 582.595 447.075
2112 0 94.1905 9.50202 895 125.18 582.101 452.046
2113 0 94.1662 13.1363 1237 120.258 581.173 447.165
2114 0 93.1368 11.2415 1047 125.712 580.909 441.449
2115 0 98.18 9.92055 974 127.833 579.664 444.571
2116 0 99.2478 13.1086 1301 123.61 579.223 439.452
2117 0 105.198 14.1163 1485 120.715 578.95 439.14
2118 0 105.261 13.3193 1402 123.496 577.987 436.368
2119 0 111.419 14.2346 1586 122.426 577.124 433.987
2120 0 115.333 11.8874 1371 124.85 575.894 436.681
2121 0 117.603 13.486 1586 123.856 575.931 431.885
2122 1 66.5491 11.8409 788 123.009 574.274 450.896
2123 0 69.2312 13.9099 963 119.185 576.511 451.73
2124 0 72.1099 14.2838 1030 118.559 576.831 449.063
2125 0 73.1672 10.5375 771 124.633 575.256 450.528
2126 0 75.1083 12.1824 915 122.797 575.512 446.254
2127 0 79.2411 13.541 1073 118.113 576.383 449.664
2128 0 77.3613 9.78525 757 126.139 576.054 444.917
2129 0 80.1403 12.3658 991 121.985 576.249 441.166
2130 0 82.2124 12.3582 1016 122.676 575.53 440.314
2131 0 85.1686 13.3617 1138 120.103 575.842 441.222
2132 0 91.2399 14.8071 1351 116.011 576.66 441.361
2133 0 88.1942 12.3137 1086 123.887 578.226 433.901
2134 0 88.1942 12.3818 1092 149.524 579.218 433.867
2135 0 94.3827 14.2929 1349 120.533 578.335 425.889
2136 0 96.412 11.8865 1146 124.838 578.907 428.229
2137 0 101.567 17.5253 1780 114.839 578.826 425.596
2138 0 104.371 16.1731 1688 117.017 579.328 421.744
2139 0 105.674 14.2798 1509 120.178 579.36 421.168
2140 0 103.557 13.4804 1396 121.148 579.836 423.971
2141 0 111.429 15.6512 1744 118.45 580.083 424.752
2142 0 115.25 12.3471 1423 118.671 580.64 426.826
2143 0 108.237 7.06786 765 128.693 581.588 417.718
2144 0 121.145 14.0823 1706 116.748 582.416 415.979
2145 0 124.386 10.6282 1322 120.219 582.041 422.725
2146 0 129.398 12.3263 1595 118.681 582.527 419.994
2147 0 132.556 10.8407 1437 121.854 582.079 409.12
2148 1 78.7298 13.5146 1064 109.078 582.744 440.524
2149 0 83.3673 13.4105 1118 106.908 581.514 440.695
2150 0 86.2422 14.8767 1283 104.153 581.154 445.284
2151 0 87.2719 11.6762 1019 109.442 581.713 443.301
2152 0 90.2336 9.37566 846 112.706 579.588 446.382
2153 0 93.2631 12.6417 1179 109.483 580.434 443.101
2154 0 97.4825 12.6074 1229 111.203 580.544 437.964
2155 0 97.6103 14.2198 1388 111.617 579.176 436.638
2156 0 97.6103 14.1993 1386 124.533 577.185 436.278
2157 0 97.6103 14.271 1393 123.884 575.225 436.23
2158 0 198.654 15.4641 3072 116.615 577.719 393.737
2159 0 203.896 13.9973 2854 119.212 576.905 393.364
2160 0 210.492 11.017 2319 126.653 576.564 370.411
2161 0 220.082 12.2954 2706 123.542 576.287 377.991
2162 0 220.939 12.9176 2854 122.197 574.773 389.737
2163 0 218.732 8.19268 1792 129.258 575.226 391.283
2164 1 75.5786 9.46035 715 116.024 575.316 445.537
2165 0 77.7308 11.6556 906 112.743 573.976 445.522
2166 0 79.9104 12.3639 988 116.304 574.245 439.573
2167 0 81.7021 9.17969 750 122.603 575.613 440.039
2168 0 84.6226 11.5808 980 116.162 573.905 448.979
2169 0 83.25 9.7898 815 117.703 575.302 437.427
2170 0 91.21 12.3342 1125 112.932 574.976 437.89
2171 0 90.2966 11.5287 1041 115.6 574.993 435.193
2172 0 94.2308 13.5837 1280 110.877 575.689 438.15
2173 0 98.2479 13.0893 1286 113.33 576.215 429.345
2174 0 98.3946 14.391 1416 111.381 577.366 429.563
2175 0 102.449 11.4301 1171 116.586 577.529 427.299
2176 0 104.414 13.7817 1439 113.974 577.184 421.989
2177 0 106.38 12.3144 1310 115.491 578.589 425.579
2178 0 106.48 9.58868 1021 122.224 577.366 417.524
2179 0 110.403 14.8275 1637 113.956 578.957 417.325
2180 0 112.416 9.73169 1094 123.589 579.204 412.734
2181 0 119.632 12.0202 1438 118.289 579.095 417.734
2182 0 120.423 13.2616 1597 118.377 579.55 409.23
2183 0 123.421 14.406 1778 116.778 579.078 415.184
2184 0 126.481 12.9347 1636 119.61 580.424 412.827
2185 0 128.518 11.8972 1529 122.902 580.886 404.602
2186 0 126.484 10.7444 1359 141.714 581.881 406.518
2187 0 138.317 12.869 1780 119.974 582.104 415.374
2188 0 142.268 11.2745 1604 123.83 583.628 410.775
2189 0 150.477 11.3572 1709 122.569 583.053 411.567
2190 0 155.434 12.5777 1955 122.431 583.825 403.279
2191 1 92.2137 14.1953 1309 109.429 584.573 439.363
2192 0 92.2656 11.4669 1058 113.915 583.645 434.313
2193 0 93.2091 14.5908 1360 109.328 582.696 434.576
2194 0 95.1983 12.0275 1145 114.01 582.686 436.073
2195 0 100.283 11.4874 1152 116.704 582.864 429.599
2196 0 106.347 12.2053 1298 114.671 582.011 432.889
2197 0 105.287 14.9686 1576 112.289 580.128 430.223
2198 0 108.293 12.6601 1371 115.162 580.888 433.078
2199 0 116.301 13.0609 1519 115.734 580.653 429.055
2200 0 119.396 10.3605 1237 120.698 579.686 425.449
2201 0 121.324 11.325 1374 119.59 578.54 422.861
2202 0 128.322 14.9779 1922 113.246 578.824 425.536
2203 0 128.335 13.4258 1723 116.79 577.037 426.598
2204 0 133.147 12.2046 1625 120.526 575.233 419.922
2205 0 138.438 13.9847 1936 118.849 574.833 413.676
2206 1 82.336 9.27906 764 116.267 574.114 447.075
2207 0 85.2204 10.995 937 114.67 573.186 442.848
2208 0 85.1351 10.4422 889 115.972 574.057 437.886
2209 0 85.2307 10.2076 870 117.807 573.259 438.212
2210 0 93.17 10.0247 934 117.552 572.588 435.577
2211 0 96.3543 13.4607 1297 112.357 573.335 434.049
2212 0 98.4412 9.92471 977 117.647 573 435.154
2213 0 101.261 13.4504 1362 111.426 573.027 437.523
2214 0 104.45 14.5045 1515 111.393 572.298 428.154
2215 0 107.473 13.5849 1460 113.758 574.35 425.07
2216 0 107.344 13.6756 1468 114.742 573.72 422.798
2217 0 113.507 13.6291 1547 114.233 574.783 421.753
2218 0 114.643 9.25484 1061 121.834 575.229 421.791
2219 0 119.751 18.7806 2249 107.375 575.713 415.221
2220 0 122.509 12.5869 1542 117.978 575.834 416.91
2221 0 124.283 12.8739 1600 119.438 576.125 416.326
2222 0 129.62 13.3159 1726 119.866 577.623 411.186
2223 0 131.485 12.0698 1587 121.917 578.525 412.342
2224 0 137.735 11.573 1594 122.434 578.864 409.903
2225 0 141.638 12.7014 1799 121.655 578.556 404.133
2226 1 82.4138 9.02762 744 116.788 579.655 434.194
2227 0 83.1976 10.0724 838 115.447 578.637 440.473
2228 0 84.3958 11.3157 955 114.436 582.122 433.823
2229 0 87.3368 10.3164 901 115.222 582.861 436.927
2230 0 89.2441 8.40392 750 118.927 585.633 433.243
2231 0 93.437 10.4776 979 114.864 584.411 437.467
2232 0 94.4165 6.84202 646 119.115 584.593 438.642
2233 0 97.1433 13.7014 1331 110.29 585.274 437.554
2234 0 102.152 13.8029 1410 111.654 584.92 431.772
2235 0 104.126 12.4561 1297 114.963 583.682 429.897
2236 0 106.245 11.9252 1267 115.895 583.248 426.938
2237 0 111.23 13.144 1462 113.96 581.914 429.937
2238 0 112.296 12.3513 1387 115.54 583.094 428.239
2239 0 117.242 12.8111 1502 115.499 582.602 423.698
2240 0 119.229 12.1614 1450 117.437 581.524 420.853
2241 0 126.569 9.97879 1263 119.234 580.805 429.846
2242 0 131.644 11.2272 1478 118.571 580.067 427.321
2243 0 134.483 13.3623 1797 115.629 577.786 422.649
2244 1 72.1066 9.83267 709 117.567 576.398 450.581
2245 0 76.3291 12.3151 940 112.231 575.561 452.447
2246 0 81.4169 13.4739 1097 111.516 575.373 450.047
2247 0 85.0742 14.1876 1207 112.538 574.217 448.63
2248 0 86.0798 11.3035 973 118.123 573.751 443.225
2249 0 89.127 12.7795 1139 116.266 572.739 444.518
2250 0 92.1728 13.0733 1205 115.498 573.564 441.868
2251 0 94.1179 13.1856 1241 114.87 573.467 443.659
2252 0 95.1208 11.8586 1128 117.379 573.528 442.535
2253 0 98.33 15.9768 1571 110.67 572.763 441.999
2254 0 100.256 13.3757 1341 117.262 573.706 434.083
2255 0 103.237 12.8443 1326 117.962 574.522 432.481
2256 0 104.18 12.9584 1350 117.741 574.826 431.49
2257 0 108.175 14.0051 1515 116.295 574.774 430.402
2258 0 113.245 15.3207 1735 111.161 574.728 436.71
2259 0 111.142 12.5965 1400 118.593 575.04 429.672
2260 0 115.431 13.7658 1589 116.844 576.502 426.099
2261 0 114.183 11.6567 1331 120.641 575.591 416.702
2262 0 121.341 13.8783 1684 114.445 576.98 413.233
2263 0 119.383 11.3249 1352 119.641 576.214 413.3
2264 0 122.271 11.5154 1408 120.161 577.311 409.457
2265 0 129.326 13.3306 1724 116.26 578.775 413.228
2266 0 131.178 12.2277 1604 120.205 579.402 408.2
2267 0 141.347 15.6706 2215 112.382 579.336 414.578
2268 1 84.4046 10.5326 889 116.655 579.58 436.804
2269 0 84.27 15.1774 1279 110.082 579.544 435.306
2270 0 86.1489 12.6409 1089 114.421 580.055 432.182
2271 0 88.4739 14.6258 1294 110.789 580.5 430.699
2272 0 91.1964 14.3646 1310 108.749 579.862 432.202
2273 0 95.562 13.4363 1284 109.996 580.427 433.597
2274 0 96.3711 13.9357 1343 109.508 581.813 431.248
2275 0 100.297 13.2307 1327 112.194 581.587 426.072
2276 0 106.338 13.711 1458 110.796 581.805 424.764
2277 0 99.2093 11.6925 1160 117.172 582.274 418.091
2278 0 109.244 13.923 1521 112.2 581.1 420.582
2279 0 112.309 16.2765 1828 107.839 580.944 425.14
2280 0 111.26 10.8844 1211 117.835 579.462 425.565
2281 0 117.227 13.8278 1621 114.439 580.635 418.741
2282 1 71.0891 11.8443 842 111.496 580.523 443.109
2283 0 75.2024 8.76302 659 116.234 581.882 449.378
2284 0 76.4277 10.3496 791 113.761 581.765 454.527
2285 0 73.3645 8.96892 658 115.4 580.524 443.895
2286 0 81.3225 10.7596 875 112.391 579.961 441.344
2287 0 85.3574 13.6368 1164 107.204 579.482 442.478
2288 0 88.576 13.3784 1185 108.392 576.96 438.504
2289 0 89.4008 14.3064 1279 107.31 577.088 440.066
2290 0 96.5098 10.5482 1018 113.395 574.531 434.386
2291 0 92.4749 11.3869 1053 114.243 576.576 429.139
2292 0 97.6121 10.8286 1057 114.32 575.552 434.276
2293 0 100.76 10.5101 1059 114.545 575.435 433.67
2294 0 104.5 13.9999 1463 110.131 573.943 431.928
2295 0 107.472 12.2451 1316 112.512 574.919 431.635
2296 0 110.175 11.3547 1251 113.941 574.073 429.084
2297 0 111.379 12.0489 1342 113.466 574.2 427.69
2298 0 115.237 13.0167 1500 112.967 573.803 426.105
2299 0 117.313 10.3058 1209 117.245 574.827 419.814
2300 1 71.0932 12.3359 877 105.591 574.829 449.523
2301 0 72.4298 10.7138 776 106.763 575.039 450.049
2302 0 74.2061 11.9397 886 107.579 575.518 443.41
2303 0 78.3856 11.4052 894 108.102 576.847 440.622
2304 0 78.4251 10.4813 822 109.92 576.608 437.103
2305 0 82.3194 12.8645 1059 106.047 577.965 438.93
2306 0 80.4582 8.2403 663 115.555 576.587 429.798
2307 0 84.416 9.72564 821 112.178 579.173 434.959
2308 0 87.4348 12.6837 1109 109.353 578.992 434.253
2309 0 91.6171 10.7949 989 111.281 580.181 429.857
2310 0 92.4176 11.9782 1107 111.205 578.319 424.164
2311 0 96.596 11.9053 1150 110.274 579.646 425.243
2312 0 98.3187 9.88621 972 114.09 582.007 424.9
2313 0 103.437 11.2629 1165 112.74 582.057 416.906
2314 0 103.679 12.6352 1310 111.589 581.477 420.37
2315 0 105.565 13.8587 1463 109.87 582.615 421.122
2316 0 110.505 11.9995 1326 112.557 581.886 423.604
2317 0 117.717 14.5094 1708 107.437 584.044 427.629
2318 0 119.481 11.6169 1388 111.861 583.869 428.74
2319 0 114.43 9.76144 1117 118.856 584.349 414.985
2320 0 126.37 13.4604 1701 111.618 583.617 425.573
2321 1 71.2262 10.1648 724 109.37 581.99 451.294
2322 0 72.4724 12.1288 879 107.228 582.749 449.032
2323 0 78.4188 10.7117 840 107.038 582.027 452.983
2324 1 146.54 10.4818 1536 118.378 581.368 413.38
2325 1 81.3652 7.03003 572 114.365 580.727 449.364
2326 0 86.2339 11.1789 964 109.233 580.083 449.065
2327 0 87.3079 11.992 1047 107.349 579.858 451.832
2328 0 88.3509 10.7299 948 111.989 576.994 442.961
2329 0 92.3385 9.16194 846 114.074 577.187 442.417
2330 0 95.1859 11.8295 1126 111.188 577.208 439.553
2331 0 98.2924 13.999 1376 107.923 577.221 441.336
2332 0 101.298 14.1168 1430 107.937 576.632 440.392
2333 0 101.269 11.6028 1175 113.96 575.535 430.832
2334 0 104.374 12.8001 1336 112.28 576.194 429.987
2335 0 109.299 10.4301 1140 115.242 575.754 430.473
2336 0 111.363 13.0384 1452 112.163 575.802 429.835
2337 0 116.404 16.1076 1875 105.511 573.171 432.646
2338 0 117.306 14.6114 1714 110.907 573.528 419.772
2339 0 122.414 15.1209 1851 109.203 573.518 421.479
2340 0 120.245 12.225 1470 112.681 572.722 426.865
2341 0 126.358 12.0926 1528 114.386 571.814 419.004
2342 0 127.349 9.52502 1213 118.116 573.07 416.091
2343 0 134.241 14.1983 1906 111.666 572.616 413.014
2344 0 133.312 11.8894 1585 114.238 573.364 415.842
2345 0 131.296 10.899 1431 118.345 573.813 409.656
2346 0 132.344 8.20588 1086 112.119 574.28 432.11
2347 1 87.1866 11.2747 983 104.678 575.685 446.344
2348 0 86.2874 11.5892 1000 111.346 577.802 428.044
2349 0 91.21 14.3186 1306 106.492 579.766 433.132
2350 0 94.228 14.8576 1400 106.053 578.229 428.204
2351 0 96.1763 13.7768 1325 107.968 580.13 428.096
2352 0 96.2557 12.446 1198 111.158 580.469 428.298
2353 0 99.2807 11.4121 1133 113.778 581.185 423.127
2354 0 103.211 12.6634 1307 111.226 581.468 428.899
2355 0 106.172 13.4216 1425 111.174 581.946 423.789
2356 0 111.266 15.5663 1732 108.318 582.577 420.022
2357 0 110.257 13.7044 1511 112.553 582.978 425.224
2358 0 116.191 13.736 1596 112.397 582.578 420.153
2359 0 121.111 12.9468 1568 113.584 583.678 422.302
2360 0 123.27 12.3712 1525 115.755 582.494 415.414
2361 0 130.277 12.6039 1642 114.931 583.259 421.691
2362 0 132.227 16.5019 2182 109.59 583.995 419.848
2363 0 135.226 14.5313 1965 113.472 583.222 415.791
2364 0 140.247 13.1269 1841 116.153 582.222 414.029
2365 1 83.3006 9.02754 752 114.516 581.408 452.711
2366 0 86.3311 9.59098 828 110.627 580.475 447.553
2367 0 88.3427 9.37259 828 111.944 579.418 444.019
2368 0 92.2687 15.2706 1409 104.659 577.75 443.635
2369 0 94.2552 15.3944 1451 104.624 577.725 442.323
2370 0 95.2576 11.8521 1129 110.7 575.476 439.951
2371 0 102.333 12.557 1285 109.54 575.12 432.428
2372 0 104.339 13.3315 1391 109.324 573.998 436.935
2373 0 107.383 12.8232 1377 111.026 573.986 430.683
2374 0 110.377 10.7722 1189 114.564 574.152 425.359
2375 0 113.344 14.0634 1594 110.058 573.066 424.105
2376 0 122.325 14.4615 1769 107.53 573.86 434.086
2377 0 122.177 11.6307 1421 113.11 572.842 424.627
2378 0 128.17 14.0673 1803 110.039 573.725 421.566
2379 0 126.168 14.7106 1856 115.173 573.546 418.135
2380 0 134.158 13.253 1778 116.042 573.649 420.086
2381 0 142.365 13.4654 1917 116.724 574.005 407.247
2382 1 79.1754 10.0789 798 116.739 573.02 438.315
2383 0 84.4035 11.1488 941 115.882 572.358 439.108
2384 0 88.2217 12.718 1122 109.053 574.03 443.181
2385 0 88.1786 12.7355 1123 110.22 574.493 436.639
2386 0 90.1798 9.85808 889 114.569 575.849 435.862
2387 0 91.3321 11.0585 1010 114.35 575.416 431.438
2388 0 95.1055 14.037 1335 110.182 576.771 429.233
2389 0 99.2384 14.3896 1428 110.586 577.119 430.533
2390 0 101.161 16.1228 1631 107.651 576.742 430.133
2391 0 102.111 13.3776 1366 112.957 578.23 423.849
2392 0 105.207 13.174 1386 112.903 578.864 425.996
2393 0 111.131 13.1736 1464 113.628 578.338 424.674
2394 0 112.21 16.2374 1822 108.759 580.734 427.478
2395 0 116.168 14.4187 1675 111.783 579.115 425.121
2396 0 120.358 13.41 1614 113.364 579.789 422.673
2397 0 121.169 12.2556 1485 116.599 579.909 417.191
2398 0 123.244 9.95586 1227 121.28 579.395 415.75
2399 0 134.199 12.6231 1694 114.352 580.254 416.26
2400 1 74.3057 10.1338 753 112.594 581.742 445.819
2401 0 76.1669 12.6433 963 108.655 581.927 448.153
2402 0 77.2209 13.8952 1073 110.463 582.57 445.698
2403 0 83.3457 13.186 1099 110.095 582.817 450.065
2404 0 84.2789 11.1653 941 115.588 581.593 444.972
2405 0 88.239 12.8288 1132 112.903 580.635 446.538
2406 0 91.3974 12.6481 1156 114.172 580.023 442.333
2407 0 93.2674 12.5982 1175 114.194 580 440.784
2408 0 99.3941 16.4698 1637 108.054 579.525 444.528
2409 0 99.2078 15.9665 1584 109.272 579.46 446.931
2410 0 101.24 10.6183 1075 117.962 577.794 436.412
2411 0 106.254 13.0349 1385 113.536 576.513 440.721
2412 0 109.342 12.3648 1352 115.746 576.712 433.357
2413 0 112.386 13.1867 1482 114.727 575.766 434.608
2414 0 113.291 13.5492 1535 116.407 574.712 423.766
2415 0 119.487 14.0182 1675 115.119 574.724 419.085
2416 0 122.516 12.8881 1579 117.303 573.994 423.914
2417 0 128.54 16.0261 2060 112.569 574.11 422.469
2418 0 134.42 15.1242 2033 114.903 573.827 415.763
2419 0 138.448 12.4523 1724 118.762 573.859 417.789
2420 0 141.517 14.3516 2031 115.903 573.01 415.722
2421 0 147.528 14.7498 2176 117.851 573.434 405.562
2422 0 150.621 14.0485 2116 118.822 572.454 408.54
2423 0 147.477 12.0697 1780 121.127 572.148 414.001
2424 1 99.4217 13.6791 1360 113.045 572.948 433.724
2425 0 102.34 11.8234 1210 110.597 572.097 438.36
2426 0 103.447 12.4992 1293 110.299 572.702 432.621
2427 0 104.365 15.4171 1609 105.405 572.919 435.299
2428 0 107.11 12.4171 1330 111.519 573.659 430.408
2429 0 108.308 13.7201 1486 110.893 574.26 426.09
2430 0 113.256 10.9222 1237 113.997 575.068 416.727
2431 0 116.217 10.0588 1169 115.257 575.549 418.825
2432 0 121.37 15.1849 1843 107.701 575.564 415.194
2433 0 124.392 14.0684 1750 109.721 575.233 418.054
2434 0 125.411 11.3786 1427 117.669 575.986 410.837
2435 1 73.28 11.9132 873 109.921 576.282 439.471
2436 0 77.303 10.6076 820 110.391 577.023 444.552
2437 0 79.2008 11.1236 881 111.904 577.034 435.914
2438 0 82.1902 11.9114 979 109.939 577.459 439.98
2439 0 83.1761 13.7299 1142 107.792 577.833 437.126
2440 0 87.2383 14.5922 1273 107.104 577.687 436.195
2441 0 90.2023 12.6715 1143 110.588 579.323 443.081
2442 0 90.2023 12.6272 1139 127.294 580.302 443.04
2443 0 85.1756 7.0795 603 117.416 579.353 445.328
2444 1 98.2143 14.9571 1469 108.728 579.268 431.117
2445 0 100.432 13.1134 1317 112.109 580.521 435.7
2446 0 104.33 12.5946 1314 109.937 578.349 439.617
2447 0 110.522 13.2372 1463 110.53 578.496 436.051
2448 0 114.269 10.309 1178 116.112 579.419 433.296
2449 0 115.478 12.7557 1473 111.539 579.135 434.444
2450 0 117.192 11.3147 1326 114.164 576.818 433.295
2451 0 121.179 12.9313 1567 112.615 577.681 432.438
2452 1 67.1832 10.0769 677 111.394 575.74 455.433
2453 0 65.1819 10.9847 716 115.296 576.437 450.737
2454 0 72.3824 11.2596 815 108.107 574.466 454.367
2455 0 78.2317 12.169 952 105.651 573.188 453.996
2456 0 77.153 9.92832 766 110.052 573.5 450.073
2457 0 79.2872 11.9565 948 109.176 572.668 442.112
2458 0 79.221 10.5275 834 111.333 572.489 443.206
2459 0 85.2053 10.4688 892 111.058 571.629 441.109
2460 0 86.1513 10.8646 936 111.112 571.605 437.035
2461 0 90.3021 11.1182 1004 110.946 571.302 435.173
2462 0 92.2487 12.6072 1163 108.609 571.16 438.176
2463 0 96.2879 12.1926 1174 109.35 572.848 435.524
2464 0 98.327 11.3194 1113 110.684 572.334 435.179
2465 0 102.316 15.9311 1630 103.007 571.894 437.543
2466 0 100.224 13.3401 1337 109.571 572.895 428.021
2467 0 105.14 12.6593 1331 110.713 572.322 421.741
2468 0 110.369 13.6813 1510 108.622 572.374 423.726
2469 0 103.289 11.0951 1146 113.871 573.082 425.272
2470 0 111.22 12.7315 1416 112.108 574.943 420.037
2471 0 116.51 12.9517 1509 111.14 575.694 421.732
2472 0 122.389 14.0944 1725 111.351 576.572 422.719
2473 0 126.208 14.0562 1774 112.175 577.145 419.095
2474 1 72.1501 11.8919 858 111.115 577.82 443.464
2475 0 78.1789 10.4888 820 114.945 578.905 445.922
2476 0 76.114 7.67271 584 116.68 579.269 436.524
2477 0 83.3239 16.0458 1337 102.014 577.888 434.004
2478 0 84.2028 11.888 1001 108.193 579.288 434.484
2479 0 85.3206 14.9788 1278 104.736 577.755 436.963
2480 0 92.237 12.8582 1186 106.83 579.814 434.266
2481 0 91.2244 10.9839 1002 111.068 580.001 434.346
2482 0 98.3042 13.4175 1319 106.652 580.73 438.119
2483 0 97.1943 12.4493 1210 110.188 579.817 429.006
2484 0 102.24 16.5591 1693 103.977 580.445 439.449
2485 0 106.338 12.6765 1348 111.273 579.298 433.59
2486 0 113.112 12.9783 1468 111.424 580.414 435.037
2487 0 112.185 12.5863 1412 114.616 579.248 425.353
2488 0 120.303 11.3131 1361 115.666 579.209 431.19
2489 0 124.23 14.0063 1740 113.098 579.233 427.081
2490 0 129.224 16.4753 2129 114.148 579.146 427.93
2491 1 75.2866 12.2598 923 113.801 577.415 460.67
2492 0 76.1889 11.734 894 109.667 577.353 457.875
2493 0 79.3116 11.625 922 108.977 576.266 460.069
2494 0 82.2784 12.5549 1033 108.87 575.156 453.534
2495 0 85.1272 18.7014 1592 101.94 574.493 449.787
2496 0 87.2524 13.8907 1212 109.186 574.308 446.895
2497 0 92.4 15.3896 1422 107.471 573.745 443.639
2498 0 95.2206 11.5941 1104 113.468 573.362 444.582
2499 0 95.2564 12.7236 1212 113.064 573.715 440.762
2500 0 96.1283 9.43531 907 116.324 571.241 447.914
2501 0 98.2297 15.5554 1528 136.796 569.38 437.093
2502 0 103.213 12.9345 1335 116.187 572.429 432.192
2503 0 106.184 12.563 1334 117.182 572.56 431.529
2504 0 113.313 16.2735 1844 111.042 571.754 424.241
2505 0 114.584 16.6079 1903 110.619 571.222 430.926
2506 0 118.415 14.7869 1751 117.335 572.461 423.488
2507 0 120.358 15.5869 1876 115.933 572.342 425.537
2508 0 124.404 16.2134 2017 115.976 571.76 417.627
2509 0 126.467 18.147 2295 112.107 573.424 423.515
2510 0 128.326 17.9387 2302 114.081 573.924 414.42
2511 0 134.254 16.439 2207 115.546 574.29 411.313
2512 0 140.264 15.8843 2228 116.125 575.553 412.474
2513 0 142.513 14.0689 2005 119.653 574.708 409.511
2514 0 145.565 15.0655 2193 118.548 575.083 407.695
2515 0 152.459 15.3615 2342 118.237 575.537 401.998
2516 0 157.375 13.8777 2184 120.785 575.682 401.389
2517 1 90.2029 12.8821 1162 113.502 576.828 436.365
2518 0 90.2029 12.8266 1157 133.855 576.846 436.296
2519 0 95.2058 13.7176 1306 111.938 577.907 432.985
2520 0 99.2735 13.488 1339 112.439 579.846 425.686
2521 0 103.208 13.2838 1371 113.217 579.214 425.405
2522 0 107.289 13.5242 1451 111.843 580.071 428.095
2523 0 109.326 16.1444 1765 108.889 579.753 429
2524 0 114.338 15.1743 1735 110.203 581.032 430.48
2525 0 114.375 10.8852 1245 117.71 580.669 426.23
2526 0 119.338 14.505 1731 112.575 579.802 420.289
2527 0 127.389 13.7846 1756 112.055 579.521 425.695
2528 0 130.287 14.6983 1915 116.041 580.339 421.834
2529 0 130.287 14.5909 1901 138.298 581.336 421.745
2530 1 80.2452 12.1752 977 108.809 578.804 450.032
2531 0 84.1517 11.5862 975 114.638 578.109 451.616
2532 0 90.1812 14.737 1329 109.54 576.719 445.675
2533 0 92.1156 14.0258 1292 111.194 576.027 446.959
2534 0 99.1634 17.8292 1768 105.164 573.929 446.262
2535 0 101.217 13.4562 1362 110.546 574.57 448.047
2536 0 102.145 14.2738 1458 110.114 574.64 443.87
2537 0 106.187 19.9553 2119 102.148 573.909 445.183
2538 0 107.237 12.6356 1355 114.514 573.887 434.971
2539 0 109.242 13.7218 1499 113.557 573.365 432.099
2540 0 113.188 13.8795 1571 111.684 572.588 438.01
2541 0 120.227 17.6666 2124 107.626 571.441 429.862
2542 0 120.213 13.8587 1666 114.024 571.02 425.613
2543 0 124.164 15.6486 1943 111.406 570.532 425.767
2544 0 127.153 16.838 2141 110.045 570.986 418.475
2545 0 133.297 14.8466 1979 113.805 572.165 408.18
2546 0 135.166 15.4107 2083 112.527 570.441 414.551
2547 0 138.142 13.5224 1868 116.978 571.804 407.253
2548 0 146.198 16.4024 2398 111.319 571.936 404.769
2549 0 147.126 12.4655 1834 119.391 572.287 398.658
2550 0 153.248 19.563 2998 108.265 572.829 401
2551 0 159.487 17.8197 2842 110.704 573.057 395.135
2552 0 164.199 13.1365 2157 117.654 575.126 392.882
2553 1 90.1132 9.57684 863 111.783 575.545 438.911
2554 0 94.2922 12.0264 1134 108.627 576.583 436.348
2555 0 96.1473 11.8672 1141 108.449 574.9 435.905
2556 0 100.486 14.2208 1429 106.176 576.204 431.443
2557 0 101.184 12.0869 1223 110.402 576.56 427.275
2558 0 108.237 14.071 1523 107.127 578.01 426.338
2559 0 107.341 10.2104 1096 114.288 577.097 418.804
2560 0 116.268 15.3869 1789 103.234 578.386 431.333
2561 0 117.133 11.2778 1321 111.847 577.6 422.344
2562 0 124.199 11.6748 1450 112.673 578.279 433.015
2563 0 127.215 13.3868 1703 113.277 577.491 425.278
2564 0 130.256 14.8323 1932 110.571 577.891 427.111
2565 0 134.281 17.158 2304 106.601 578.898 430.888
2566 0 139.559 13.6501 1905 113.437 579.148 420.37
2567 0 144.131 12.7593 1839 115.598 579.153 417.141
2568 0 149.279 13.0628 1950 115.728 578.66 413.14
2569 1 88.0653 9.8109 864 116.133 578.234 443.98
2570 0 91.1953 10.801 985 113.146 578.191 443.026
2571 0 93.1447 14.2681 1329 105.261 579.503 441.861
2572 0 96.2196 10.1642 978 111.63 578.97 441.731
2573 0 101.411 10.9653 1112 111.54 577.303 441.577
2574 0 105.264 13.2619 1396 109.374 576.658 439.322
2575 0 107.276 11.2421 1206 113.231 576.295 435.522
2576 0 114.299 12.861 1470 111.471 574.684 436.283
2577 0 117.483 11.5591 1358 114.214 574.577 429.362
2578 0 122.368 12.9446 1584 111.794 574.085 438.576
2579 0 125.225 14.6456 1834 111.299 575.042 427.263
2580 0 129.354 13.7221 1775 113.109 574.217 428.83
2581 1 72.1452 8.46903 611 116.232 573.694 454.553
2582 0 74.1292 8.76848 650 113.658 572.786 446.695
2583 0 78.1953 9.02868 706 109.567 571.895 449.215
2584 0 80.1508 8.62125 691 114.133 571.023 443.748
2585 0 81.2398 11.3122 919 108.783 570.577 437.334
2586 0 85.2791 12.2187 1042 106.79 572.115 439.062
2587 0 87.1901 10.0126 873 111.17 570.467 429.794
2588 0 89.4552 10.6422 952 111.14 572.189 432.244
2589 0 95.3481 11.9457 1139 109.957 571.68 429.399
2590 0 97.3702 12.016 1170 110.366 572.016 427.955
2591 0 101.441 13.2293 1342 108.87 572.731 434.417
2592 0 104.575 13.6935 1432 111.45 573.217 428.868
2593 0 109.706 15.6874 1721 108.076 573.456 429.14
2594 0 109.344 13.8188 1511 112.555 573.526 425.73
2595 0 111.474 12.5949 1404 113.963 573.283 427.48
2596 0 116.459 12.2876 1431 115.567 574.546 423.968
2597 0 116.444 11.9285 1389 117.898 573.532 419.949
2598 0 122.403 13.1043 1604 115.344 574.299 416.011
2599 0 124.377 11.3767 1415 116.009 576.576 415.411
2600 0 124.377 11.2561 1400 138.797 578.587 415.332
2601 0 132.555 14.0168 1858 111.694 576.716 416.247
2602 0 138.402 12.0735 1671 113.743 576.983 413.836
2603 0 142.499 11.5369 1644 114.007 577.327 413.942
2604 0 148.694 12.2601 1823 114.286 578.387 406.862
2605 0 158.584 15.3609 2436 109.391 577.784 405.746
2606 0 160.521 16.191 2599 106.872 578.125 402.682
2607 0 167.372 13.2758 2222 112.639 577.943 394.402
2608 1 92.4114 13.0503 1206 105.686 576.072 436.305
2609 0 95.2404 7.88531 751 112.562 577.522 437.81
2610 0 100.41 12.0406 1209 108.227 577.792 430.277
2611 0 99.1751 12.6241 1252 108.679 577.085 431.454
2612 0 109.365 12.8286 1403 107.182 577.982 431.762
2613 0 109.417 12.4752 1365 109.19 577.547 424.141
2614 0 116.352 12.634 1470 107.433 576.792 433.05
2615 0 121.351 14.767 1792 104.287 577.389 433.006
2616 0 122.335 9.35139 1144 109.466 575.693 434.679
2617 0 129.52 11.7125 1517 106.586 574.674 432.33
2618 0 134.512 11.8056 1588 109.341 574.178 424.398
2619 0 138.465 11.1652 1546 111.03 573.641 418.778
2620 0 143.529 12.8127 1839 109.52 573.669 418.9
2621 0 141.326 9.48868 1341 112.49 573.707 422.966
2622 1 97.3453 10.2111 994 101.865 573.768 454.936
2623 0 93.2971 11.2329 1048 102.884 572.114 444.261
2624 0 98.6652 10.5204 1038 105.212 571.806 444.603
2625 0 99.3164 11.8409 1176 104.884 571.835 437.41
2626 0 99.2841 12.288 1220 106.212 571.864 433.997
2627 0 103.211 15.9769 1649 102.441 571.385 434.861
2628 0 105.262 10.6116 1117 109.175 571.893 438.249
2629 0 106.461 12.7371 1356 107.711 573.661 433.956
2630 0 110.494 11.6749 1290 110.126 572.281 428.377
2631 0 114.596 11.4839 1316 109.48 572.932 428.032
2632 0 116.504 14.7377 1717 105.365 572.253 426.302
2633 0 122.606 13.7106 1681 106.375 574.324 426.829
2634 0 125.473 12.7437 1599 110.181 574.572 418.606
2635 0 129.658 13.5356 1755 109.1 573.834 417.442
2636 0 130.648 12.3845 1618 111.486 574.223 416.039
2637 0 136.365 13.6032 1855 109.706 575.118 412.171
2638 0 136.365 13.5959 1854 134.196 576.125 412.429
2639 0 146.383 12.4673 1825 111.472 576.656 410.135
2640 0 149.427 11.3701 1699 113.277 575.996 405.377
2641 0 155.499 12.1737 1893 112.493 576.12 412.842
2642 1 101.171 13.413 1357 105.951 578.178 438.471
2643 0 103.202 10.6587 1100 107.241 579.156 443.766
2644 0 107.279 11.1019 1191 111.241 579.496 438.908
2645 0 111.215 14.3956 1601 105.149 578.332 437.288
2646 0 115.278 13.5064 1557 106.941 578.037 438.312
2647 0 118.396 13.6745 1619 107.58 577.311 431.747
2648 0 120.538 14.8915 1795 107.243 577.176 432.062
2649 0 124.287 16.4377 2043 104.88 577.216 436.457
2650 0 130.269 15.2607 1988 105.157 575.611 436.5
2651 0 127.199 15.5583 1979 103.182 576.544 429.38
2652 0 126.428 11.817 1494 111.588 574.463 415.537
2653 1 79.3058 10.7558 853 105.19 574.256 453.524
2654 0 78.2531 16.6383 1302 99.0645 573.69 453.598
2655 0 82.3321 12.1095 997 104.345 572.148 448.204
2656 0 82.1842 12.4963 1027 104.515 572.204 442.574
2657 0 86.4067 11.2607 973 104.969 572.165 448.646
2658 0 89.2414 18.3771 1640 97.5512 570.564 443.272
2659 0 89.2414 18.5564 1656 122.163 568.55 443.348
2660 0 92.2054 14.3592 1324 102.464 570.149 443.266
2661 0 96.2605 13.4842 1298 104.373 571.085 438.916
2662 0 99.2778 11.2714 1119 108.332 570.649 435.128
2663 0 101.365 11.0787 1123 108.146 569.358 430.605
2664 0 103.327 11.933 1233 106.371 570.106 428.172
2665 0 107.27 13.9275 1494 103.965 569.978 428.677
2666 0 116.332 17.6478 2053 99.2246 569.866 422.472
2667 0 113.521 13.231 1502 107.802 570.445 420.25
2668 0 119.481 15.6929 1875 103.384 568.701 423.398
2669 0 121.178 9.91931 1202 111.483 570.986 424.602
2670 1 66.0944 9.94032 657 107.58 571.301 447.466
2671 0 71.052 12.3149 875 105.234 571.805 444.334
2672 0 71.1514 11.9464 850 107.646 572.194 438.54
2673 0 75.1099 12.6481 950 104.131 572.614 443.306
2674 0 77.2571 14.1734 1095 102.156 572.937 430.673
2675 0 76.252 10.1506 774 108.49 574.355 432.207
2676 0 82.2183 14.5466 1196 102.157 574.594 434.385
2677 0 84.1045 13.0195 1095 103.793 574.602 430.682
2678 0 88.2981 11.7896 1041 105.364 575.658 433.194
2679 0 90.3331 14.513 1311 102.352 575.977 434.474
2680 0 95.5514 11.6796 1116 107.053 576.2 422.487
2681 0 95.4979 14.1888 1355 104.883 577.57 427.51
2682 0 101.268 14.358 1454 106.694 577.233 434.692
2683 0 102.193 14.277 1459 108.734 578.032 428.923
2684 0 107.23 17.2433 1849 104.157 577.594 433.888
2685 0 109.399 15.8594 1735 105.458 579.014 427.335
2686 0 113.222 18.5123 2096 102.418 578.31 429.271
2687 0 118.396 14.6458 1734 106.847 578.701 429.837
2688 1 67.1051 10.9977 738 106.222 578.103 452.232
2689 0 64.131 9.49619 609 110.741 577.087 449.071
2690 0 66.3282 12.212 810 107.093 578.847 449.128
2691 0 76.3514 16.5681 1265 95.0103 575.536 457.539
2692 0 68.2868 6.79487 464 108.877 575.545 447.789
2693 0 81.2409 14.2662 1159 98.3434 576.096 450.226
2694 0 81.3639 14.0234 1141 99.6836 574.444 448.718
2695 0 85.2084 14.001 1193 100.349 574.277 447.684
2696 0 85.2827 12.0306 1026 103.382 574.301 448.642
2697 0 90.2503 13.3961 1209 102.412 572.916 444.639
2698 0 93.273 15.4493 1441 100.498 572.443 443.354
2699 0 97.3179 17.0472 1659 95.2942 572.797 449.865
2700 0 97.4387 9.01079 878 107.467 571.99 439.172
2701 0 100.309 12.2222 1226 105.367 571.104 438.555
2702 0 102.456 16.4851 1689 89.1078 571.107 434.046
2703 0 107.525 13.8015 1484 93.6402 570.696 434.007
2704 0 108.513 15.6387 1697 93.4478 569.708 431.348
2705 0 114.579 15.6573 1794 93.1605 570.32 432.651
2706 0 113.658 14.6317 1663 97.083 569.485 421.538
2707 0 119.686 14.1787 1697 97.5439 569.828 428.731
2708 0 121.717 12.6605 1541 100.889 569.566 417.585
2709 0 126.503 13.47 1704 99.8369 569.701 423.056
2710 0 128.676 11.7194 1508 101.424 570.147 420.068
2711 1 77.4775 11.7582 911 96.2986 570.266 447.217
2712 0 78.1635 11.9877 937 94.6724 571.273 439.07
2713 0 80.423 7.79627 627 99.8278 570.592 437.085
2714 0 85.3392 13.8623 1183 92.88 572.427 438.45
2715 0 85.3392 13.8037 1178 121.061 574.436 438.068
2716 0 88.255 9.64252 851 98.7697 573.761 426.684
2717 0 95.2419 6.90872 658 101.666 574.505 434.36
2718 0 95.4204 16.7889 1602 91.4688 573.453 422.645
2719 0 93.3285 10.6505 994 99.2968 575.234 426.862
2720 0 99.3435 13.408 1332 95.8093 575.45 430.895
2721 0 103.311 15.7195 1624 93.6373 577.001 432.702
2722 0 103.167 14.3553 1481 96.9176 575.933 423.706
2723 0 105.513 11.4678 1210 100.074 576.439 423.171
2724 0 114.586 9.72193 1114 101.158 577.491 427.642
2725 0 112.295 8.44208 948 103.709 577.094 423.791
2726 0 118.402 19.9321 2360 91.9428 577.507 421.08
2727 0 119.207 10.5531 1258 102.685 577.484 420.964
2728 0 125.537 16.8158 2111 94.8603 577.718 428.484
2729 0 126.592 14.3926 1822 98.4319 578.043 424.385
2730 0 128.173 12.5221 1605 101.972 577.248 413.735
2731 0 136.451 14.1735 1934 99.044 577.472 421.25
2732 0 139.362 15.3772 2143 98.3056 577.193 418
2733 0 141.492 11.1455 1577 104.542 576.412 410.349
2734 0 149.185 13.8418 2065 102.177 576.193 410.129
2735 0 153.398 12.6143 1935 104.875 576.319 408.106
2736 0 158.482 13.6798 2168 103.901 577.112 402.993
2737 0 163.666 14.8167 2425 102.685 575.06 400.494
2738 0 166.321 12.6623 2106 103.521 575.323 415.289
2739 0 168.475 11.2005 1887 108.282 574.34 402.611
2740 0 177.465 14.2169 2523 103.693 574.119 411.637
2741 0 178.873 7.12796 1275 116.033 573.296 380.546
2742 1 195.344 12.9362 2527 104.731 572.125 404.778
2743 1 15.0179 9.38878 141 83.5957 570.879 487.773
2744 0 14.011 7.06586 99 88.1515 569.212 485.374
2745 0 13.0276 12.1281 158 86.8544 570.171 482.032
2746 0 12.0044 3.49872 42 95.119 570.19 478.667
2747 0 17.0108 6.17253 105 90.2 569.133 485.619
2748 0 14.0025 5.64185 79 92.3038 569.354 482.709
2749 0 20.0147 5.99559 120 87.3667 565.825 482.125
2750 0 16.0116 7.24474 116 88.3879 567.233 478.448
2751 0 7.00055 3.714 26 89.8077 567.462 478.808
2752 0 3 0.666667 2 96.5 571.5 477.5
2753 0 10.0064 6.19602 62 86.8064 567.468 479.661
2754 0 13.016 7.60603 99 92.8485 568.758 477.152
2755 0 12.0019 1.83305 22 100.455 568.591 478.727
2756 0 11.0047 3.6348 40 98.5 568.05 476.4
2757 0 14.0192 1.99725 28 103.5 569.143 472.179
2758 1 93.1223 9.98687 930 113.103 572.578 429.883
2759 0 96.4193 11.0766 1068 111.448 575.934 432.972
2760 0 101.429 15.0154 1523 105.829 575.714 431.252
2761 0 103.238 11.4977 1187 112.174 576.986 422.834
2762 0 105.564 10.1644 1073 113.587 576.738 423.817
2763 0 112.423 14.7123 1654 107.187 576.538 424.749
2764 0 112.423 10.9586 1232 113.346 578.413 416.637
2765 0 117.378 14.3042 1679 106.733 578.781 428.107
2766 0 123.521 12.9452 1599 108.621 580.617 425.672
2767 0 121.579 8.57877 1043 115.291 579.001 423.56
2768 0 121.579 10.2896 1251 133.882 577.092 426.621
2769 1 178.514 9.92637 1772 113.094 580.891 415.339
2770 1 192.846 12.3207 2376 116.586 579.386 383.92
2771 0 199.526 14.4693 2887 113.583 578.724 385.577
2772 1 85.4091 15.057 1286 101.57 579.194 446.193
2773 0 86.3714 13.5925 1174 107.598 578.6 441.135
2774 0 88.372 17.9808 1589 102.491 578.105 445.62
2775 0 90.162 14.3298 1292 107.241 577.399 446.635
2776 0 92.1576 16.2656 1499 105.149 577.673 447.72
2777 0 96.2381 14.2355 1370 108.909 576.842 441.412
2778 0 96.2381 14.2355 1370 129.737 575.842 441.412
2779 0 101.309 15.4281 1563 107.414 577.113 446.368
2780 0 101.293 13.4067 1358 110.94 576.718 446.16
2781 0 104.522 11.4904 1201 113.677 576.448 444.988
2782 0 106.399 16.814 1789 107.269 575.349 439.999
2783 0 111.664 14.8929 1663 109.441 575.569 438.255
2784 0 115.355 18.8635 2176 105.402 575.108 433.245
2785 0 117.49 14.4949 1703 110.529 575.035 437.644
2786 0 120.638 14.4399 1742 112.391 574.778 430.253
2787 0 123.552 13.549 1674 113.844 573.863 429.606
2788 0 125.512 13.7597 1727 112.943 573.965 424.884
2789 0 132.641 17.6567 2342 106.737 573.025 427.696
2790 0 136.852 16.0465 2196 105.227 572.273 428.48
2791 0 139.497 15.4269 2152 107.072 572.44 423.445
2792 0 141.385 12.816 1812 112.716 573.014 414.504
2793 0 148.283 13.744 2038 110.765 572.054 415.837
2794 0 151.495 11.4922 1741 115.213 573.756 405.572
2795 0 157.405 16.3083 2567 108.351 572.753 406.711
2796 0 160.533 11.767 1889 115.569 572.345 399.97
2797 1 98.5253 12.5145 1233 104.917 570.813 434.831
2798 0 103.413 17.4929 1809 100.017 571.954 430.032
2799 0 105.244 11.4876 1209 107.198 572.002 426.629
2800 0 106.314 12.6229 1342 106.189 571.573 421.946
2801 0 111.605 9.26485 1034 107.829 573.471 431.307
2802 0 116.238 12.3109 1431 105.859 574.67 423.544
2803 0 118.531 11.2544 1334 110.349 576.247 419.828
2804 0 123.473 14.5457 1796 105.521 576.761 422.671
2805 0 124.531 8.29512 1033 112.262 578.669 423.641
2806 0 127.465 14.4667 1844 108.765 577.241 407.047
2807 0 134.638 15.9464 2147 105.601 578.722 416.347
2808 0 139.312 14.3634 2001 106.466 579 401.883
2809 0 144.518 12.22 1766 109.548 580.409 407.401
2810 0 144.602 9.34289 1351 114.724 581.141 398.261
2811 0 145.626 8.76905 1277 115.121 580.949 399.846
2812 0 157.553 13.094 2063 109.689 579.8 393.878
2813 0 160.387 9.79508 1571 111.606 580.945 409.941
2814 1 91.2183 11.0504 1008 106.517 582.077 437.919
2815 0 94.2884 10.2346 965 108.674 582.292 429.059
2816 0 88.3392 12.169 1075 106.913 581.921 429.705
2817 0 92.2132 10.9746 1012 108.821 581.173 430.622
2818 0 102.45 10.7272 1099 107.167 582.177 429.894
2819 0 102.398 14.2288 1457 104.191 580.68 427.902
2820 0 108.223 13.5553 1467 104.575 581.499 428.466
2821 0 105.465 14.0521 1482 104.657 581.2 427.812
2822 0 114.596 13.229 1516 105.425 581.83 426.573
2823 1 3 2.66667 8 110.5 579.375 365.25
2824 0 8 2.25 18 100.278 581.056 477.944
2825 0 11.0111 5.1766 57 91.0175 579.754 484.158
2826 0 10.0042 8.19654 82 92.2317 579.085 481.659
2827 0 20.0083 5.2978 106 93.0094 577.934 484.877
2828 0 19.1032 6.59576 126 96.381 576.96 482.484
2829 1 149.64 14.2409 2131 105.004 574.685 408.061
2830 0 147.628 7.89145 1165 124.791 572.91 421.723
2831 0 159.005 12.1946 1939 108.037 575.43 403.342
2832 1 169.202 13.1263 2221 107.244 575.233 403.065
2833 0 170.173 12.311 2095 108.479 575.791 401.143
2834 0 169.815 11.8364 2010 110.486 574.834 398.732
2835 0 180.056 12.7405 2294 109.364 574.63 397.05
2836 0 188.69 17.7752 3354 99.5558 573.629 391.153
2837 0 191.804 15.1091 2898 102.789 572.961 392.793
2838 0 196.828 14.2561 2806 103.542 573.165 394.696
2839 0 204.678 14.9259 3055 103.894 573.412 383.794
2840 0 203.762 13.074 2664 106.701 574.704 381.851
2841 0 196.381 9.71071 1907 108.961 573.285 392.666
2842 0 196.381 9.56304 1878 126.193 573.264 392.808
2843 1 231.983 13.682 3174 107.433 575.666 371.062
2844 0 238.926 13.5314 3233 109.087 574.487 358.422
2845 1 306.123 15.974 4890 107.362 575.516 342.117
2846 0 308.134 18.4725 5692 134.17 577.389 335.842
2847 1 197.634 14.6534 2896 106.798 576.976 367.612
2848 0 203.934 13.0337 2658 108.582 576.497 376.359
2849 0 210.504 10.8311 2280 111.371 578.26 373.104
2850 0 222.04 18.3435 4073 102.808 578.528 363.437
2851 0 224.675 11.2251 2522 109.398 578.849 377.985
2852 0 233.992 13.3552 3125 109.199 579.377 358.522
2853 1 177.573 19.699 3498 98.1152 579.628 398.818
2854 0 181.773 12.7412 2316 107.221 578.725 388.309
2855 0 190.976 15.5569 2971 103.915 580.014 389.183
2856 0 195.969 12.7622 2501 108.826 578.288 381.915
2857 0 198.656 11.764 2337 108.981 580.49 392.594
2858 0 208.155 14.4604 3010 107.333 580.613 387.262
2859 0 213.775 13.6686 2922 107.195 579.695 393.799
2860 0 221.877 13.8816 3080 108.367 580.004 384.535
2861 0 225.961 15.5071 3504 108.843 580.308 371.959
2862 0 232.226 13.4998 3135 112.401 580.96 369.925
2863 0 240.164 14.1695 3403 111.87 581.552 361.009
2864 0 251.251 18.4238 4629 106.228 580.542 370.64
2865 0 259.014 17.3736 4500 108.21 580.181 360.244
2866 0 265.914 13.7488 3656 113.417 580.298 352.885
2867 1 223.104 8.99134 2006 115.327 580.404 393.566
2868 1 58.2293 13.1377 765 101.025 580.142 462.492
2869 0 63.0703 12.2245 771 103.772 580.38 460.907
2870 0 63.223 13.4603 851 102.537 579.053 459.722
2871 0 64.2195 10.0748 647 107.304 573.794 457.893
2872 0 69.4808 10.377 721 107.183 574.591 453.431
2873 0 72.2275 14.3436 1036 100.658 574.011 453.686
2874 0 70.1273 11.9212 836 105.962 574.931 450.157
2875 0 74.265 11.5263 856 106.301 574.079 450.887
2876 0 79.6376 16.0728 1280 99.3164 574.05 448.423
2877 0 79.1305 14.2423 1127 103.254 573.02 443.56
2878 0 83.5847 9.97791 834 107.881 574.814 449.174
2879 0 83.3523 14.9366 1245 103.338 574.557 444.156
2880 0 87.2789 14.9177 1302 102.359 574.988 444.19
2881 0 88.2837 15.3143 1352 103.219 573.436 443.51
2882 0 87.5362 12.9318 1132 106.853 574.284 436.489
2883 0 92.4844 13.3212 1232 105.885 572.379 438.96
2884 0 92.5278 11.7262 1085 109.031 574.509 434.971
2885 0 97.2507 15.5166 1509 102.036 574.095 436.663
2886 0 98.1266 9.73232 955 110.399 574.285 426.732
2887 0 106.167 17.3594 1843 100.232 574.527 421.969
2888 0 107.435 10.9834 1180 108.778 575.17 426.22
2889 1 90.4344 13.6895 1238 101.339 576.28 445.22
2890 0 81.5457 6.97768 569 110.84 576.309 439.706
2891 1 71.5116 15.508 1109 100.391 578.165 429.851
2892 0 69.5068 13.0635 908 103.862 578.156 424.329
2893 0 77.791 16.1458 1256 96.8949 579.749 426.559
2894 0 74.3732 18.0576 1343 97.1214 579.448 420.2
2895 0 76.8138 13.8126 1061 102.683 579.756 421.236
2896 0 77.3775 12.691 982 103.356 581.306 425.66
2897 0 80.3917 12.1281 975 105.396 580.515 424.482
2898 0 82.5129 12.5677 1037 105.658 582.031 424.416
2899 0 83.3321 18.4563 1538 99.6372 581.737 426.036
2900 0 84.2558 12.8656 1084 108.327 582.669 428.743
2901 0 87.4534 10.3598 906 110.67 583.695 432.808
2902 0 89.6154 14.8747 1333 107.579 582.535 421.715
2903 0 94.2778 14.383 1356 107.015 583.338 427.248
2904 0 98.5893 16.6144 1638 103.436 582.528 430.694
2905 0 95.5946 13.6305 1303 110.294 581.167 426.914
2906 0 98.6384 12.1961 1203 112.844 582.329 426.144
2907 0 105.773 18.6342 1971 102.529 581.772 432.174
2908 0 101.484 9.46949 961 117.712 581.095 424.697
2909 0 105.572 11.9444 1261 113.529 582.23 429.679
2910 0 109.389 16.062 1757 108.76 581.047 428.217
2911 0 112.396 14.4044 1619 111.253 580.674 425.519
2912 0 119.784 21.1714 2536 102.347 580.304 427.054
2913 0 123.686 18.5228 2291 105.399 579.1 431.676
2914 0 122.466 13.3915 1640 113.72 577.993 426.622
2915 0 127.791 13.6943 1750 112.479 578.049 421.166
2916 0 134.43 17.3771 2336 107.149 576.957 418.14
2917 0 139.491 14.6031 2037 111.417 577.177 417.158
2918 0 143.482 17.5701 2521 107.276 575.694 414.069
2919 1 66.5065 10.7057 712 104.75 576.507 457.056
2920 0 67.4656 11.3095 763 105.885 575.999 451.288
2921 0 69.4025 15.4749 1074 101.052 575.962 449.915
2922 0 70.2294 10.9925 772 107.986 575.553 448.087
2923 0 70.2624 16.6661 1171 101.653 576.085 448.003
2924 0 73.2864 13.8907 1018 105.641 575.921 442.789
2925 0 75.2527 11.3351 853 110.315 574.441 439.103
2926 0 79.3296 13.2107 1048 106.942 576.208 442.148
2927 0 79.2572 13.6139 1079 107.391 575.241 438.794
2928 0 84.2382 15.9548 1344 103.593 576.866 439.122
2929 0 84.2864 11.6863 985 111.085 576.643 434.802
2930 0 84.2864 11.6626 983 149.855 576.631 434.655
2931 0 90.1896 16.4653 1485 104.256 577.738 435.144
2932 0 90.2725 11.9305 1077 112.623 578.733 429.033
2933 0 93.2029 13.594 1267 110.517 578.614 428.394
2934 0 98.2766 15.4666 1520 107.639 579.41 429.303
2935 0 100.331 13.585 1363 111.439 579.496 422.905
2936 0 100.32 16.3377 1639 109.077 578.706 423.506
2937 0 105.611 14.667 1549 111.405 580.568 423.673
2938 0 107.132 14.6735 1572 111.873 578.926 423.392
2939 0 109.323 11.7725 1287 118.796 579.941 416.566
2940 0 111.242 12.693 1412 114.348 580.305 426.96
2941 0 115.289 11.8225 1363 120.307 580.697 412.606
2942 0 120.496 14.3905 1734 115.109 581.837 419.646
2943 0 122.359 12.7004 1554 119.051 581.675 417.601
2944 0 127.301 13.4013 1706 118.071 581.305 413.26
2945 0 127.301 13.3228 1696 157.144 580.286 413.195
2946 0 137.404 15.8292 2175 115.461 580.658 410.83
2947 0 141.633 11.4239 1618 122.879 581.04 409.756
2948 0 146.612 14.303 2097 119.209 580.873 407.073
2949 1 96.4507 14.4115 1390 108.33 579.783 438.3
2950 0 92.3523 9.96185 920 116.647 580.399 431.786
2951 0 96.3402 8.17935 788 119.624 580.604 429.797
2952 0 101.337 9.54245 967 110.347 579.057 441.096
2953 0 107.258 10.9176 1171 109.151 578.804 434.631
2954 0 106.278 7.49923 797 115.073 579.499 427.644
2955 0 111.269 10.6679 1187 110.468 578.307 425.104
2956 0 118.267 10.2649 1214 109.276 579.127 433.666
2957 0 123.335 10.062 1241 108.938 577.764 435.727
2958 0 121.26 10.1518 1231 112.523 578.341 423.601
2959 1 24.0072 3.20737 77 101.221 574.961 481.61
2960 0 24.0143 8.57823 206 93.6942 575.262 480.286
2961 0 22.0334 6.49014 143 97.7762 575.371 478.434
2962 0 17.0232 6.46176 110 95.7182 574.982 482.427
2963 0 20.0093 10.8949 218 91.7982 573.495 479.931
2964 0 25.038 6.15066 154 98.5714 574.338 475.695
2965 0 20.0167 5.6453 113 97.6372 572.912 480.266
2966 0 22.0134 9.08536 200 95.245 572.555 475.335
2967 0 15.0347 5.91963 89 96.6517 573.056 481.326
2968 0 18.0443 7.20448 130 97.7462 572.362 474.546
2969 0 24.0035 3.62448 87 100.805 572.816 472.345
2970 0 24.0151 4.74702 114 99.6667 572.5 475.553
2971 0 27.0277 8.62078 233 95.8069 574.446 473.266
2972 0 21.0081 3.71286 78 101.769 573.359 470.359
2973 0 20.0039 6.69868 134 99.0298 572.903 470.306
2974 0 25.102 6.25448 157 100.541 573.618 470.427
2975 0 24.0125 3.41489 82 103.11 575.72 470.793
2976 0 24.0756 7.14415 172 98.8663 576.57 470.599
2977 0 24.0537 4.03264 97 103.979 575.763 469.65
2978 0 18.0245 6.935 125 99.256 576.192 472.688
2979 0 16.0024 5.06173 81 104.407 576.333 471.704
2980 0 15.0096 7.06214 106 100.547 577.132 472.189
2981 0 23.0175 8.03738 185 98.2486 577.584 466.789
2982 0 21.0069 5.76001 121 101.603 577.686 467.727
2983 0 20.0082 6.79723 136 98.5221 579.537 472.868
2984 0 21.0693 8.63817 182 94.2418 580.5 475.231
2985 0 15.0033 8.13152 122 96.2295 580.738 474.074
2986 0 22.0131 8.26779 182 95.9176 579.989 474.637
2987 0 17.0045 6.93933 118 96.6017 580.822 474.288
2988 0 14.0114 3.71125 52 94.9231 580.365 473.788
2989 0 15.0434 5.51737 83 94.0964 580.807 482.024
2990 0 14.0036 4.9987 70 100.386 581.9 483.871
2991 1 27.0501 3.77077 102 105.471 583.637 478.578
2992 1 124.24 9.24826 1149 121.48 580.753 420.258
2993 0 132.374 12.7064 1682 115.328 581.734 422.408
2994 0 135.497 10.9228 1480 117.911 581.178 429.508
2995 1 23.0663 10.3614 239 95.5607 581.891 484.816
2996 0 25.0711 3.31059 83 106.518 581.699 480.964
2997 0 22.0977 3.8918 86 105.058 581.43 481.337
2998 0 16.0237 5.55428 89 101.787 579.854 487.483
2999 0 21.0147 7.47095 157 98.242 577.879 486.599
3000 0 26.0122 6.65073 173 96.4624 575.156 483.942
3001 0 28.0877 6.69331 188 96.8298 577.069 485.09
3002 0 23.1021 8.65721 200 96.805 579.86 475.74
3003 0 26.2743 4.9478 130 100.454 579.423 478.092
3004 0 21.1858 7.83544 166 95.253 578.711 480.367
3005 0 20.058 6.58092 132 97.053 579.28 478.508
3006 0 16.088 4.91048 79 99.5316 578.873 477.797
3007 0 22.0902 5.88498 130 94.7077 577.062 480.977
3008 0 26.0373 4.7624 124 97.4758 577.734 476.863
3009 0 23.1068 6.40504 148 97.1757 576.953 473.797
3010 1 208.418 14.4709 3016 115.481 575.603 377.808
3011 0 210.632 13.8583 2919 115.738 574.062 379.065
3012 0 204.624 10.1503 2077 119.598 574.652 384.653
3013 0 207.506 4.22639 877 128.612 574.428 381.91
3014 0 208.556 8.06497 1682 150.736 573.23 366.239
3015 0 206.678 6.40126 1323 121.863 574.782 385.835
3016 1 194.531 10.0653 1958 118.468 576.024 381.864
3017 0 200.447 12.1229 2430 114.938 575.339 387.928
3018 0 205.66 10.1041 2078 121.267 575.379 369.556
3019 0 212.503 11.7645 2500 119.114 574.282 365.932
3020 0 218.485 13.6989 2993 116.05 576.844 361.897
3021 0 228.617 12.9474 2960 116.43 577.696 362.076
3022 0 235.65 12.7392 3002 118.046 578.533 354.545
3023 0 243.888 14.56 3551 115.066 579.296 361.881
3024 0 250.947 13.6124 3416 120.89 579.38 341.576
3025 0 256.245 14.2246 3645 119.772 579.773 341.064
3026 1 190.647 12.0747 2302 117.61 580.644 385.351
3027 0 191.801 13.3889 2568 119.26 580.217 361.908
3028 0 205.742 15.4709 3183 115.571 580.315 368.538
3029 0 205.347 12.3888 2544 122.222 578.705 356.502
3030 0 212.62 12.2754 2610 120.692 579.255 365.232
3031 0 220.463 11.2672 2484 121.368 578.764 366.05
3032 0 224.621 13.6808 3073 119.061 580.285 352.913
3033 0 234.526 14.8597 3485 118.067 579.843 352.441
3034 0 243.732 13.1128 3196 120.02 579.625 350.588
3035 0 237.447 15.0223 3567 117.661 579.215 349.585
3036 1 317.803 8.37626 2662 123.902 578.787 349.524
3037 1 183.572 10.263 1884 119.455 579.271 373.194
3038 0 191.395 12.8269 2455 113.352 579.085 389.56
3039 0 191.602 8.47069 1623 122.13 579.402 371.433
3040 0 199.672 11.7443 2345 117.875 578.972 352.812
3041 0 204.607 12.2039 2497 116.254 578.289 368.078
3042 0 207.375 13.0826 2713 115.065 578.05 367.052
3043 0 208.45 10.2567 2138 119.883 576.239 354.781
3044 0 219.599 14.1667 3111 113.67 575.937 359.337
3045 0 227.538 12.2881 2796 117.366 573.931 349.234
3046 0 230.498 18.2171 4199 109.593 574.451 343.321
3047 0 240.597 12.5812 3027 116.157 574 349.907
3048 0 231.737 12.786 2963 119.278 572.84 334.132
3049 1 14.0026 4.85625 68 87.9559 572.559 472.471
3050 0 7.0006 3.28543 23 88.2174 573.956 479.217
3051 0 272.902 21.0332 5740 107.019 572.58 318.788
3052 0 276.862 14.6427 4054 114.682 572.526 332.58
3053 0 270.86 12.176 3298 122.918 572.666 305.244
3054 1 253.924 12.2438 3109 114.904 572.226 347.052
3055 0 252.863 5.33095 1348 126.379 572.659 331.917
3056 0 256.702 7.67818 1971 119.557 573.519 350.223
3057 0 251.715 9.59419 2415 120.988 572.116 322.389
3058 0 17.038 6.33879 108 90.4167 572.407 477.491
3059 0 20.0787 4.38274 88 92.6477 572.784 469.42
3060 0 21.029 2.37767 50 93.84 571.78 472.36
3061 0 18.0039 5.77652 104 90.4615 572.635 473.481
3062 0 25.0253 7.79211 195 88.6769 572.451 469.697
3063 0 20.0106 2.19883 44 94.8864 575.205 466.864
3064 0 22.0529 9.11446 201 86.3831 574.493 472.274
3065 0 16.0041 8.49782 136 87.2941 574.684 469.272
3066 0 8.00494 3.12307 25 94.08 576.64 473.96
3067 0 18.008 4.88673 88 90.25 580.205 471.67
3068 0 23.0069 4.2596 98 88.0918 579.449 478.469
3069 0 15.0031 2.19955 33 93.4848 581 477.697
3070 0 15.0452 4.91852 74 89.1892 576.932 477.486
3071 0 0 0 0 -nan -nan -nan
3072 0 18.0323 1.94096 35 94.0571 575.286 471.029
3073 0 25.2914 2.60958 66 93.8485 578.273 471.47
3074 0 354.54 20.3249 7206 99.8467 579.345 297.486
3078 0 19.0123 12.5708 239 81.3138 577.966 469.971
3079 0 19.0128 3.15577 60 92.5167 578.933 478.717
3080 0 20.0466 3.64152 73 90.8493 576.411 475.178
3081 0 20.005 9.84754 197 85.0711 577.244 477.091
3082 0 25.0021 1.27989 32 92.4062 579.219 476.5
3083 0 20.0869 5.62555 113 87.6283 576.345 466.301
3084 0 19.0138 5.31194 101 89.5148 575.059 465.693
3085 0 15.0009 0.933278 14 90.8571 573.071 478.929
3086 0 10.0154 4.5929 46 82.4565 574.456 476.478
3087 0 12.0488 5.06275 61 84.5738 575.115 477.459
3088 0 1 6 6 79 581.833 479.5
3089 0 0 0 0 -nan -nan -nan
3090 1 21.8771 17.5069 383 62.3499 576.728 488.245
3091 0 10.0291 5.48403 55 68.1273 574.255 488.073
3092 0 8.07549 9.4112 76 65.7105 569.513 476.342
3093 0 7.02335 11.6753 82 61 575.5 516.634
3094 0 9.09185 18.4781 168 62.5893 570.274 477.131
