time division length width area intensity CMx CMy
0 0 36.1751 13.0753 473 139.564 664.74 467.429
1 0 37.2254 13.2974 495 132.721 663.685 468.438
2 0 37.2254 13.4317 500 147.104 662.708 468.49
3 0 37.1949 13.5503 504 146.272 661.688 468.462
4 0 37.1854 13.7151 510 145.653 660.674 468.269
5 0 41.0692 13.0268 535 131.75 660.351 466.396
6 0 46.1348 14.1108 651 129.834 660.16 465.324
7 0 44.1668 14.0377 620 134.166 658.855 465.197
8 0 45.0731 14.2214 641 130.072 659.208 466.676
9 0 48.2236 13.6448 658 133.953 659.003 463.088
10 0 50.054 15.5632 779 126.986 659.196 463.11
11 0 53.078 14.62 776 130.079 658.187 461.927
12 0 53.0572 15.5116 823 130.546 658.54 461.1
13 0 54.0853 18.5633 1004 123.618 657.007 458.804
14 0 54.0859 18.5815 1005 134.634 655.994 458.753
15 0 58.1161 16.3982 953 124.955 657.3 457.444
16 0 58.0864 15.5802 905 124.396 656.624 455.754
17 0 61.2713 16.99 1041 125.247 655.285 453.397
18 0 63.1225 14.2105 897 135.583 655.233 449.798
19 0 66.1098 14.3852 951 126.951 654.99 449.491
20 0 65.1422 14.1229 920 136.066 655.789 444.582
21 0 71.1988 14.4946 1032 130.129 656.035 445.348
22 0 71.198 14.7055 1047 135.84 657.118 443.291
23 0 74.2764 15.8328 1176 128.623 663.377 440.944
24 0 75.1131 17.9196 1346 125.698 663.03 441.52
25 0 77.1737 15.2254 1175 131.423 666.308 437.592
26 0 80.1076 14.3432 1149 132.864 666.644 433.235
27 0 84.2375 14.7915 1246 132.136 665.579 432.571
28 0 86.2323 15.1567 1307 131.477 666.03 431.173
29 1 48.1263 13.3814 644 130.121 665.932 447.554
30 0 50.0386 15.3282 767 127.249 664.776 447.147
31 0 52.0994 13.9733 728 124.764 666.321 450.576
32 0 52.0754 16.1497 841 122.294 666.436 449.729
33 0 52.0754 16.1112 839 137.427 667.437 449.762
34 0 53.1575 15.1061 803 125.029 667.197 447.066
35 0 57.1445 13.4746 770 126.836 667.04 447.591
36 0 64.1586 12.2197 784 122.995 669.647 450.693
37 0 64.1155 14.8014 949 117.413 669.87 448.389
38 0 66.2604 14.6543 971 116.57 670.893 446.448
39 0 67.1412 15.5046 1041 114.625 669.704 445.041
40 0 69.0717 12.1468 839 115.963 668.943 448.35
41 0 72.0788 14.5951 1052 113.026 669.263 447.791
42 0 78.2999 14.3678 1125 110.704 669.054 448.994
43 0 78.1765 13.7637 1076 112.854 667.35 443.08
44 0 80.2004 14.2269 1141 112.33 667.337 446.038
45 0 83.3116 14.1037 1175 111.229 667.172 446.165
46 0 85.1199 13.9098 1184 126.058 667.057 443.679
47 0 90.1383 14.5665 1313 124.678 667.091 442.683
48 0 94.3429 13.9173 1313 122.201 666.545 441.939
49 0 97.3519 15.6032 1519 121.847 666.107 438.455
50 1 51.1451 12.0051 614 127.332 666.202 462.925
51 0 52.0999 12.9175 673 124.559 664.489 459.306
52 0 55.08 12.3457 680 121.84 664.034 460.61
53 0 56.0413 13.383 750 124.671 662.332 458.044
54 0 56.28 10.4833 590 128.727 660.647 458.422
55 0 59.0708 12.5273 740 125.816 661.004 455.512
56 0 61.1046 12.9941 794 125.375 659.733 451.914
57 0 65.2935 15.9128 1039 119.507 659.738 452.348
58 0 67.2614 13.9307 937 121.348 658.043 451.528
59 0 67.2614 14.0051 942 136.286 657.06 451.493
60 0 71.1544 11.8194 841 125.476 658.213 449.057
61 0 72.2706 12.8545 929 125.574 657.676 444.541
62 0 74.1077 12.2524 908 126.327 657.363 443.102
63 0 79.3007 14.5648 1155 122.74 658.104 438.433
64 0 84.27 17.0998 1441 117.958 657.033 436.701
65 0 86.2704 16.6801 1439 118.023 656.774 436.155
66 0 87.4051 15.5254 1357 120.159 657.788 435.311
67 0 89.5211 15.3483 1374 122.493 657.621 427.647
68 0 92.2935 13.3812 1235 125.853 657.01 424.44
69 0 95.4335 12.7523 1217 124.169 658.307 428.048
70 1 51.0631 10.0072 511 121.382 657.597 445.403
71 0 52.045 11.6053 604 119.257 660.149 441.566
72 0 54.2979 10.2398 556 119.865 660.7 440.885
73 0 56.0971 11.4444 642 116.109 661.913 440.107
74 0 56.1062 11.4961 645 126.211 662.913 440.014
75 0 60.1946 13.2072 795 116.73 662.179 447.564
76 0 62.1111 13.7012 851 115.723 661.175 446.633
77 0 65.174 14.6377 954 113.88 662.786 443.344
78 0 66.2008 13.3684 885 116.537 662.647 444.516
79 0 66.2008 13.3231 882 133.67 662.656 444.463
80 0 73.0982 13.4203 981 113.436 665.106 443.788
81 0 75.1543 11.35 853 114.531 664.637 446.525
82 0 77.1988 13.4329 1037 109.988 665.217 449.684
83 0 76.2698 11.1053 847 114.175 664.795 449.301
84 0 83.1651 14.5494 1210 110.233 666.219 444.595
85 0 83.1597 12.7706 1062 110.772 665.268 449.07
86 0 86.2053 11.867 1023 113.256 666.1 444.084
87 0 92.2941 13.4136 1238 111.023 665.307 440.967
88 0 95.2494 16.945 1614 104.869 665.018 448.133
89 0 95.2931 11.302 1077 113.226 663.964 444.781
90 0 100.212 13.9804 1401 109.942 663.313 441.436
91 0 105.262 15.3997 1621 108.123 663.271 436.104
92 0 110.218 16.1317 1778 111.909 661.414 434.218
93 0 112.13 13.6806 1534 115.746 660.133 436.131
94 1 60.1574 12.1847 733 112.423 659.293 460.902
95 0 64.0972 15.6481 1003 107.096 658.19 460.18
96 0 64.1101 12.7437 817 111.06 658.891 454.891
97 0 65.1496 10.6217 692 111.66 657.25 459.788
98 0 65.088 10.4781 682 111.856 657.141 459.482
99 0 69.3894 14.3826 998 108.561 656.995 454.547
100 0 72.1204 13.1863 951 110.445 656.485 454.084
101 0 74.275 11.1343 827 113.077 654.748 453.308
102 0 75.3266 10.5806 797 116.23 655.097 446.679
103 0 79.2448 17.1999 1363 107.241 655.051 445.839
104 0 81.2655 12.7606 1037 113.979 655.425 446.003
105 0 91.2783 19.3365 1765 108.252 654.269 442.401
106 0 91.252 17.9722 1640 110.933 654.088 442.498
107 0 93.2755 16.0385 1496 115.614 655.326 435.918
108 0 95.4943 14.0008 1337 120.544 655.593 433.086
109 0 98.3857 14.7989 1456 116.852 655.349 432.748
110 0 101.246 13.8574 1403 119.825 656.401 429.559
111 0 106.166 12.9138 1371 115.507 657.071 429.249
112 0 109.557 13.153 1441 114.259 657.2 427.806
113 1 60.2087 13.9515 840 109.764 657.681 449.142
114 0 63.2218 11.8946 752 112.953 657.707 449.785
115 0 67.2469 17.3093 1164 104.457 659.534 443.266
116 0 70.1428 15.7536 1105 105.778 660.625 446.502
117 0 69.1066 14.9624 1034 106.656 659.972 447.98
118 0 73.319 15.112 1108 107.727 659.693 443.118
119 0 73.2518 13.3649 979 111.389 659.9 438.962
120 0 77.2363 13.6205 1052 109.821 660.118 436.335
121 0 81.1882 15.1377 1229 107.386 661.898 437.807
122 0 84.1453 12.5022 1052 108.874 663.948 442.059
123 0 84.1936 13.1126 1104 110.242 664.945 435.859
124 0 88.1638 12.6356 1114 110.522 663.458 433.155
125 0 93.4225 12.2454 1144 111.011 664.448 436.962
126 0 94.5331 13.1383 1242 113.528 663.616 435.39
127 0 102.496 16.7324 1715 102.955 663.796 442.283
128 1 50.217 11.4901 577 106.241 666.012 463.002
129 0 50.217 11.4901 577 114.444 666.974 463.054
130 0 51.163 12.8804 659 104.766 664.379 461.41
131 0 50.1111 12.5521 629 108.984 660.35 463.118
132 0 51.221 14.1153 723 107.761 660.841 460.304
133 0 53.1908 12.2954 654 109.549 660.002 465.011
134 0 55.2524 13.8455 765 107.831 659.561 463.122
135 0 56.2405 13.2822 747 109.436 659.78 459.542
136 0 57.2382 12.02 688 111.183 659.137 464.749
137 0 55.1035 11.4875 633 114.259 659.981 462.42
138 0 59.1844 11.0671 655 113.296 658.026 463.35
139 0 61.2664 11.7356 719 113.225 658.381 460.433
140 0 64.2722 14.1274 908 109.872 655.874 458.845
141 0 66.2255 15.9002 1053 106.287 656.572 462.453
142 0 68.2521 18.4463 1259 105.06 656.589 451.156
143 0 70.3637 14.3114 1007 111.955 655.689 452.306
144 0 74.1385 14.7966 1097 111.158 655.161 451.017
145 0 74.1427 12.395 919 114.749 653.825 449.008
146 0 79.4426 15.7598 1252 110.007 654.158 444.708
147 0 81.3928 13.2076 1075 115.268 654.281 446.306
148 0 84.0773 11.5013 967 114.456 654.466 445.139
149 0 87.229 14.2384 1242 111.018 653.316 442.821
150 0 90.314 11.7922 1065 118.265 654.835 438.632
151 0 91.3852 13.4048 1225 117.322 654.187 431.328
152 1 48.2204 11.1778 539 114.451 655.712 458.245
153 0 51.3097 12.8631 660 113.855 653.244 450.179
154 0 51.4241 11.3565 584 115.647 654.204 455.161
155 0 52.1416 15.5538 811 107.376 656.349 453.107
156 0 49.0479 9.5417 468 114.983 657.348 457.496
157 0 53.2624 11.0209 587 114.555 657.399 452.549
158 0 56.3402 18.4415 1039 104.984 656.933 450.392
159 0 58.193 13.8505 806 112.496 658.933 447.644
160 0 61.1382 13.1505 804 113.18 658.59 449.388
161 0 63.1197 14.1002 890 113.246 661.727 446.372
162 0 62.0943 12.2717 762 116.671 661.156 448.69
163 0 68.131 14.4868 987 112.088 662.743 448.782
164 0 68.3067 14.4788 989 114.646 662.514 443.978
165 0 69.1103 11.9374 825 117.89 663.319 448.856
166 0 72.1816 16.1675 1167 111.511 662.051 448.078
167 0 75.2659 13.366 1006 118.094 662.849 444.135
168 0 79.2785 14.0265 1112 117.282 663.754 442.639
169 0 78.279 14.5505 1139 118.908 662.919 441.287
170 0 84.1046 13.507 1136 119.837 662.93 443.387
171 0 86.2704 12.3913 1069 120.039 663.842 448.14
172 0 93.2749 15.3846 1435 116.27 662.649 443.649
173 1 47.2056 13.8543 654 116.177 662.566 464.18
174 0 48.0532 10.7589 517 121.956 662.623 466.126
175 0 51.1108 13.5979 695 115.868 661.604 468.201
176 0 49.0672 12.0651 592 117.51 660.743 467.503
177 0 51.1337 12.6336 646 116.495 659.732 465.913
178 0 54.0867 18.6922 1011 105.544 659.285 468.481
179 0 53.1432 14.4515 768 114.587 659.59 463.279
180 0 57.321 15.7011 900 111.064 657.943 464.623
181 0 59.2324 12.0711 715 116.66 656.843 462.904
182 0 61.1521 14.6029 893 113.604 655.9 462.149
183 0 61.1655 12.1801 745 117.799 656.439 459.07
184 0 63.2652 13.6884 866 114.528 654.048 459.083
185 0 66.1697 12.1052 801 117.37 654.98 457.489
186 0 67.1576 13.8629 931 114.291 654.023 457.663
187 0 69.1907 13.4989 934 115.495 652.592 454.336
188 0 71.0873 11.507 818 116.498 652.538 457.756
189 0 75.22 12.829 965 116.365 652.956 446.983
190 0 77.1263 14.4957 1118 113.121 652.756 447.606
191 0 81.1476 15.2685 1239 112.023 653.854 444.557
192 0 84.1761 18.295 1540 107.573 654.284 440.902
193 0 88.3062 16.624 1468 108.61 653.94 441.235
194 0 90.1895 18.9157 1706 103.941 652.844 441.225
195 0 94.1497 16.0489 1511 107.088 653.033 435.645
196 1 48.0395 12.1567 584 113.498 654.524 458.731
197 0 48.0395 12.1775 585 137.677 654.552 458.597
198 0 53.3002 14.09 751 111.481 653.244 456.021
199 0 55.1986 16.3229 901 107.431 653.844 456.466
200 0 58.0917 14.4255 838 111.531 654.884 453.44
201 0 59.1601 13.3874 792 113.741 655.189 451.913
202 0 60.2711 14.6173 881 112.386 656.314 449.905
203 0 60.2116 15.5618 937 112.237 657.302 448.132
204 0 64.5543 14.2825 922 112.438 657.386 449.037
205 0 65.1053 13.8852 904 112.594 658.518 449.313
206 0 66.2516 14.0072 928 113.324 658.553 447.764
207 0 69.0742 11.9871 828 117.001 659.531 445.958
208 0 74.2677 18.9854 1410 105.257 659.861 446.938
209 0 69.4034 11.8294 821 117.681 661.142 445.381
210 0 77.1653 13.4776 1040 112.779 660.424 445.959
211 0 81.069 12.7176 1031 118.213 663.95 443.304
212 1 42.1337 9.8496 415 113.689 662.253 466.802
213 0 44.0835 14.223 627 108.469 662.448 465.49
214 0 44.0495 12.5768 554 109.706 662.579 465.85
215 0 45.1126 13.6991 618 109.484 662.668 465.037
216 0 47.1407 13.6188 642 107.037 662.209 468.397
217 0 48.0736 13.3545 642 109.444 661.963 465.893
218 0 49.1283 11.7041 575 110.628 661.191 468.266
219 0 56.3122 15.5739 877 106.396 661.975 470.847
220 0 55.259 14.043 776 111.924 660.713 467.988
221 0 57.121 12.3072 703 115.26 659.526 465.686
222 0 60.165 15.873 955 109.39 658.818 466.075
223 0 59.2864 13.0553 774 115.709 658.344 463.044
224 0 60.141 11.922 717 117.031 657.463 462.142
225 0 63.1714 14.7852 934 111.618 656.567 462.565
226 0 65.3486 14.0324 917 112.881 656.448 463.52
227 0 68.4192 16.662 1140 109.488 655.043 460.421
228 0 70.3324 14.076 990 113.114 654.819 458.257
229 0 74.3614 13.2999 989 112.937 654.585 460.176
230 0 74.2219 11.5869 860 117.683 653.431 455.986
231 0 78.1971 13.6322 1066 113.363 653.345 456.687
232 0 82.2346 12.5859 1035 116.268 652.893 449.945
233 1 43.052 11.0796 477 112.019 653.145 469.101
234 0 44.1271 12.6226 557 106.133 651.443 472.517
235 0 46.0277 14.0133 645 107.878 651.895 465.172
236 0 49.1264 18.0351 886 102.756 651.299 462.723
237 0 51.0603 13.1413 671 108.633 650.608 461.757
238 0 51.0698 14.8033 756 106.81 650.717 461.067
239 0 53.1146 13.8192 734 107.875 650.455 460.737
240 0 53.0806 12.8296 681 112.254 653.618 455.789
241 0 54.2063 13.2457 718 110.904 653.022 454.967
242 0 56.2492 12.7113 715 110.284 654.387 455.779
243 0 57.2654 12.6254 723 109.953 654.792 455.528
244 0 59.2666 13.0596 774 107.304 654.251 456.68
245 0 62.1519 11.5684 719 109.463 655.523 453.892
246 0 64.2524 15.4236 991 104.468 654.667 452.03
247 0 66.2118 12.6262 836 110.032 656.498 446.666
248 0 67.4426 12.4105 837 110.425 656.812 445.663
249 0 72.2882 10.5411 762 112.046 656.936 449.51
250 0 75.234 13.3184 1002 108.89 658.34 447.529
251 0 76.3241 12.4207 948 110.053 657.946 447.982
252 0 80.1778 13.495 1082 109.149 659.174 444.729
253 0 80.1778 13.3952 1074 138.523 660.197 444.638
254 0 84.3843 14.434 1218 108.924 659.783 440.884
255 1 46.0703 13.2189 609 109.246 660.856 461.015
256 0 47.3273 20.1575 954 98.6614 659.505 462.334
257 0 47.0609 11.8145 556 111.982 662.128 460.117
258 0 49.1259 12.6817 623 109.628 659.095 465.326
259 0 51.196 12.3838 634 110.21 658.923 465.505
260 0 47.0415 8.43935 397 118.892 659.028 465.194
261 0 51.1008 13.1309 671 111.972 660.234 462.13
262 0 54.0297 12.0859 653 112.689 659.936 465.423
263 0 55.0572 12.6414 696 112.244 659.178 460.343
264 0 59.1188 10.8764 643 115.065 660.523 464.191
265 0 58.1477 11.1784 650 115.12 658.735 466.555
266 0 59.0545 12.1583 718 115.17 658.962 462.522
267 0 61.1133 13.2213 808 112.225 657.498 462.161
268 0 63.1712 12.6323 798 113.664 656.221 460.891
269 0 65.4137 14.9357 977 110.745 655.119 457.451
270 0 68.1604 12.7347 868 114.645 655.96 456.016
271 0 73.1419 12.715 930 114.009 655.33 456.056
272 1 146.897 12.2331 1797 120.654 655.98 421
273 1 77.179 15.1855 1172 109.764 654.006 454.858
274 0 79.3238 10.8542 861 115.955 653.855 455.31
275 0 82.224 12.5268 1030 111.909 653.596 453.434
276 0 84.3584 12.8736 1086 114.705 652.935 440.364
277 0 87.1749 16.1285 1406 108.818 651.39 442.013
278 0 88.326 12.5784 1111 113.746 651.95 442.623
279 1 102.227 7.26814 743 118.88 652.194 444.771
280 0 102.211 7.24969 741 153.906 652.198 444.683
281 0 99.3513 14.6148 1452 114.067 651.658 429.722
282 0 107.353 14.9879 1609 113.446 650.668 433.213
283 0 110.308 13.9972 1544 113.38 650.107 427.791
284 0 111.345 15.1241 1684 113.764 650.896 426.577
285 0 112.283 15.9151 1787 113.483 652.03 421.995
286 1 167.894 12.2756 2061 121.28 652.76 402.907
287 1 122.325 15.5733 1905 113.161 653.745 420.103
288 0 127.296 10.998 1400 119.751 653.155 418.446
289 0 131.546 16.8838 2221 111.322 655.387 415.014
290 0 136.156 13.2421 1803 116.3 654.814 416.478
291 0 139.402 13.6082 1897 117.427 656.194 410.37
292 0 143.332 13.0257 1867 117.498 655.706 413.868
293 1 72.2723 13.0756 945 116.199 658.482 440.732
294 0 74.1046 16.0044 1186 112.088 660.426 439.643
295 0 75.1302 14.202 1067 114.126 660.892 443.37
296 0 78.1029 14.6089 1141 114.305 661.529 442.599
297 0 83.3025 14.1893 1182 115.527 662.36 436.336
298 0 86.2256 19.3562 1669 107.377 663.288 438.94
299 0 88.2578 12.3049 1086 118.046 662.514 443.832
300 0 92.1652 15.4939 1428 114.649 661.636 439.64
301 0 95.1816 13.1223 1249 118.591 661.529 437.914
302 0 98.2413 13.589 1335 125.58 660.101 435.093
303 0 103.264 14.8745 1536 121.844 659.042 436.184
304 0 105.266 13.9551 1469 123.788 658.894 434.859
305 0 107.315 13.26 1423 126.599 659.668 431.071
306 0 112.418 13.8234 1554 122.86 659.73 435.118
307 0 120.436 13.4096 1615 120.892 659.152 432.262
308 0 119.245 14.768 1761 118.227 658.35 437.102
309 0 124.364 14.4897 1802 121.498 657.99 424.052
310 0 128.51 13.8044 1774 122.377 656.864 426.753
311 0 132.483 14.2056 1882 123.33 657.268 424.333
312 0 137.346 16.4985 2266 120.333 656.861 421.78
313 0 142.538 14.7821 2107 122.931 656.394 421.418
314 1 156.45 12.202 1909 127.713 655.642 420.979
315 0 155.06 15.2651 2367 124.434 654.754 411.028
316 0 158.773 14.7002 2334 126.719 655.623 400.222
317 0 165.588 15.3815 2547 125.225 654.567 396.573
318 0 162.764 11.6979 1904 133.092 654.059 398.206
319 1 112.535 12.2984 1384 129.191 653.695 423.077
320 0 117.767 13.17 1551 129.714 653.988 417.511
321 0 121.803 14.8355 1807 126.182 654.621 420.545
322 0 127.815 13.6526 1745 128.847 655.17 416.74
323 0 129.549 12.8446 1664 130.942 653.959 416.513
324 0 133.79 12.3552 1653 131.715 654.077 413.354
325 0 144.797 13.6812 1981 129.473 654.28 407.3
326 0 142.559 15.0604 2147 128.211 653.35 403.39
327 0 146.709 14.2323 2088 129.943 654.663 401.804
328 0 152.665 16.1661 2468 125.276 654.809 403.703
329 0 154.53 14.1526 2187 130.216 653.902 400.652
330 0 156.683 14.4049 2257 131.187 655.86 393.008
331 0 161.595 14.295 2310 131.384 655.886 391.822
332 0 170.522 14.1976 2421 130.838 657.441 390.557
333 0 175.851 13.1191 2307 132.994 657.707 386.708
334 0 182.688 15.0037 2741 129.939 658.259 383.774
335 0 187.619 14.7906 2775 129.407 659.049 386.428
336 0 191.432 13.4303 2571 134.173 659.371 367.856
337 0 198.522 14.4921 2877 132.268 659.436 371.689
338 0 206.709 14.489 2995 132.213 659.37 372.287
339 0 213.617 15.3171 3272 130.454 661.078 363.751
340 0 220.772 15.0064 3313 130.911 662.612 364.12
341 1 56.263 9.97104 561 121.004 663.018 452.184
342 0 61.4257 14.3263 880 113.088 664.735 452.047
343 0 61.2238 12.2011 747 118.72 665.145 447.076
344 0 58.2007 10.9105 635 118.498 664.411 451.304
345 0 61.2007 10.7352 657 113.778 664.58 453.545
346 0 61.2007 10.7025 655 126.676 665.589 453.553
347 0 68.1921 11.7609 802 111.7 664.118 453.869
348 0 68.1793 10.4284 711 115.051 665.284 451.547
349 0 72.1774 10.5019 758 113.214 664.583 452.104
350 0 73.1649 14.0095 1025 108.58 664.922 450.818
351 0 76.2486 8.40671 641 114.724 664.02 449.215
352 1 42.094 10.3102 434 107.965 662.401 465.221
353 0 41.1423 5.68758 234 113.201 661.543 469.021
354 0 47.1724 12.6769 598 102.458 659.985 466.092
355 0 43.1152 10.182 439 107.2 659.164 469.278
356 0 44.1166 8.77221 387 109.057 658.922 469.209
357 0 48.2868 9.62997 465 108.813 659.486 464.271
358 0 48.1152 7.56518 364 110.379 658.747 468.64
359 0 49.0791 8.17048 401 110.895 659.317 464.399
360 0 50.2953 9.96117 501 110.287 658.627 459.996
361 0 50.1665 9.24919 464 110.845 657.222 462.828
362 0 52.4632 14.0479 737 104.373 657.243 460.1
363 0 57.2722 12.9731 743 104.758 656.995 453.61
364 0 57.3401 11.5103 660 108.264 656.324 450.15
365 0 59.3452 10.0092 594 109.338 656.482 452.684
366 0 61.3352 10.2877 631 109.639 656.834 450.217
367 0 63.2632 9.95839 630 109.279 656.198 449.744
368 0 63.3172 11.245 712 108.947 656.726 445.822
369 0 66.2195 11.477 760 108.899 655.438 449.022
370 0 69.5412 12.7694 888 106.825 656.884 444.829
371 0 70.2294 12.2314 859 108.481 656.879 442.086
372 0 71.2317 12.8594 916 108.393 657.98 437.628
373 0 72.3418 11.3074 818 111.479 656.808 434.281
374 0 77.2358 17.0258 1315 102.364 658.163 439.398
375 0 76.2558 11.068 844 110.154 658.983 438.258
376 0 81.2603 8.60198 699 116.303 658.322 431.306
377 0 85.3695 12.5103 1068 110.035 659.497 433.447
378 0 85.3695 12.4986 1067 121.736 660.463 433.347
379 0 90.2072 12.7706 1152 110.548 660.138 430.977
380 0 95.3714 13.5156 1289 108.924 661.453 430.559
381 0 96.5571 9.99409 965 115.94 660.484 426.829
382 1 51.4165 9.99679 514 108.971 662.286 447.366
383 0 53.3367 11.6243 620 105.769 663.673 449.776
384 0 55.1133 10.6689 588 112.551 662.9 449.99
385 0 57.1215 13.27 758 108.305 662.638 448.607
386 0 60.0796 12.8996 775 108.354 662.449 449.765
387 0 61.1228 10.7652 658 110.617 663.119 452.271
388 0 61.1506 12.9843 794 108.878 662.897 449.661
389 0 65.0978 11.9666 779 109.574 663.499 450.028
390 0 66.0821 12.4542 823 107.401 662.928 454.852
391 0 67.0926 8.89815 597 115.199 661.531 450.859
392 0 74.1877 15.3934 1142 101.881 662.926 455.591
393 0 75.2398 12.8921 970 108.816 660.659 449.112
394 0 77.0865 10.832 835 110.505 660.85 453.879
395 1 152.294 13.8285 2106 114.079 660.624 419.161
396 0 156.531 11.1416 1744 118.156 660.897 418.069
397 1 81.2411 12.309 1000 113.039 659.902 445.803
398 0 84.5714 11.0676 936 117.19 661.673 446.79
399 0 93.32 18.7955 1754 103.694 661.262 450.15
400 1 46.043 9.70833 447 115.11 661.219 468.134
401 0 46.082 10.503 484 117.87 660.209 462.498
402 0 48.1534 9.76048 470 118.755 658.923 462.568
403 0 53.0623 15.0955 801 109.129 658.408 462.521
404 0 53.0806 15.5047 823 110.933 658.013 460.081
405 0 54.0476 14.7463 797 112.146 658.28 460.309
406 0 56.2076 13.379 752 114.836 656.289 460.29
407 0 57.0511 11.9367 681 117.862 656.721 457.332
408 0 61.0595 15.575 951 111.358 655.304 452.713
409 0 61.0595 15.6241 954 130.407 654.283 452.79
410 0 63.03 15.9606 1006 112.834 656.195 446.908
411 0 62.0566 11.7312 728 121.18 656.315 447.615
412 0 64.0873 12.6858 813 119.67 656.522 447.583
413 0 67.0807 13.1782 884 119.06 656.26 445.048
414 0 69.1295 15.4927 1071 115.115 656.601 440.838
415 0 75.1215 10.5296 791 121.487 657.765 445.124
416 0 73.0794 13.889 1015 118.039 657.585 437.154
417 0 75.0878 12.9049 969 120.11 658.193 436.518
418 0 77.1491 14.1803 1094 115.77 658.577 439.694
419 0 77.129 12.4078 957 119.625 659.215 438.796
420 0 83.2055 13.1361 1093 117.988 660.411 434.786
421 0 85.1805 14.7804 1259 115.264 661.48 433.609
422 0 88.1143 14.0613 1239 116.271 661.294 432.67
423 0 89.1629 14.3894 1283 117.401 661.716 427.227
424 0 89.1629 14.3333 1278 139.365 662.728 427.317
425 0 97.19 11.7708 1144 120.173 664.083 429.12
426 1 52.0532 11.4882 598 114.63 663.52 451.488
427 0 52.177 9.73609 508 115.445 665.852 455.138
428 0 54.0326 11.9002 643 114.328 667.453 450.776
429 0 58.0458 13.6616 793 110.502 667.19 451.243
430 0 59.1736 15.125 895 109.553 666.899 447.752
431 0 56.1325 10.7424 603 117.459 666.405 449.784
432 0 64.0527 14.0665 901 110.062 666.108 451.589
433 0 65.1765 13.824 901 110.808 665.804 453.007
434 0 68.0759 15.2183 1036 108.215 665.51 449.954
435 0 72.0973 15.2294 1098 106.322 664.262 453.977
436 0 70.2061 12.9903 912 112.012 662.685 450.649
437 0 72.2641 12.4266 898 112.689 662.896 451.654
438 0 75.2668 13.5518 1020 110.551 662.868 451.793
439 0 78.3758 11.8149 926 113.234 661.847 452.602
440 0 80.2314 12.0776 969 113.443 661.014 451.222
441 0 81.3945 11.8558 965 114.368 660.536 449.284
442 0 84.3896 13.6984 1156 112.546 659.467 444.548
443 0 90.3277 11.3586 1026 116.208 659.393 442.039
444 0 91.1074 13.292 1211 112.988 659.676 444.322
445 0 93.3242 15.2051 1419 111.709 657.408 440.6
446 0 95.2911 13.3486 1272 112.812 657.686 445.103
447 0 98.3081 15.0039 1475 113.035 657.584 434.443
448 0 101.602 12.4604 1266 116.71 657.558 435.028
449 1 53.2318 12.9622 690 108.871 657.646 457.083
450 0 57.2774 17.7382 1016 101.38 657.018 459.423
451 0 56.1177 10.3711 582 112.373 657.392 456.239
452 0 57.0963 10.7713 615 111.65 657.956 456.034
453 0 61.109 14.4987 886 105.642 658.002 455.105
454 0 61.0728 12.3296 753 110.097 656.93 450.863
455 0 64.0831 13.2796 851 108.179 656.138 450.951
456 0 65.0731 12.6012 820 109.572 656.656 448.438
457 0 68.1608 14.9353 1018 106.404 656.15 449.029
458 0 71.1222 12.4574 886 110.025 656.893 445.218
459 0 74.1431 13.7302 1018 108.687 656.999 444.216
460 0 76.2212 11.5453 880 111.259 657.356 443.243
461 0 79.1386 15.8962 1258 104.873 658.032 441.857
462 0 79.1598 15.9424 1262 120.748 659.032 441.868
463 0 84.1577 13.7361 1156 108.938 658.51 433.907
464 0 87.2238 14.6061 1274 109.002 658.608 437.542
465 0 89.2165 12.408 1107 117.083 659.067 436.688
466 0 92.2683 15.2382 1406 113.225 660.521 435.228
467 0 97.2631 13.3555 1299 116.4 660.054 433.557
468 0 99.2357 14.8838 1477 112.643 659.775 435.438
469 1 54.0821 12.4995 676 110.691 661.642 458.277
470 0 57.1126 10.7507 614 110.736 660.622 459.954
471 0 57.1685 14.0462 803 108.229 660.543 455.081
472 0 61.0972 14.125 863 111.095 660.477 457.24
473 0 59.1904 11.5897 686 116.534 660.104 457.396
474 0 65.3603 12.8518 840 113.537 661.119 455.633
475 0 70.132 14.6866 1030 109.464 660.202 457.156
476 0 70.1651 14.7794 1037 110.171 660.591 459.535
477 0 73.3012 14.188 1040 112.447 659.428 456.478
478 0 76.0989 14.8228 1128 111.414 659.311 456.34
479 0 77.0694 18.0227 1389 105.809 658.932 460.423
480 0 79.2079 16.6271 1317 109.595 658.678 455.433
481 0 82.1304 14.0508 1154 114.053 657.552 457.452
482 0 80.1229 10.721 859 119.929 657.125 458.843
483 0 87.099 16.3836 1427 111.643 655.53 455.617
484 0 89.1369 13.3278 1188 118.496 655.531 454.26
485 0 91.1194 14.6731 1337 116.234 653.575 453.54
486 0 95.2201 15.879 1512 114.179 653.605 450.058
487 0 98.1338 13.1555 1291 119.311 652.89 447.452
488 0 100.118 17.7889 1781 111.003 653.025 451.216
489 0 103.209 16.423 1695 114.053 652.326 447.403
490 1 55.1217 12.8987 711 113.041 651.807 469.335
491 0 53.1971 10.4517 556 117.475 651.588 469.845
492 0 61.0897 13.2919 812 110.583 651.842 468.144
493 0 61.2743 11.4893 704 114.46 650.051 467.136
494 0 63.1185 15.2253 961 110.664 649.981 462.339
495 0 67.4359 16.5194 1114 108.164 650.072 461.192
496 0 65.1776 15.7263 1025 112.036 650.244 456.527
497 0 69.3425 12.1571 843 117.336 648.759 453.791
498 0 71.3663 19.463 1389 105.717 649.677 452.465
499 0 74.251 17.1311 1272 109.184 650.643 452.252
500 0 74.2323 15.1821 1127 114.009 649.259 449.131
501 0 77.2154 13.8832 1072 115.732 650.377 447.468
502 0 79.4702 15.2887 1215 113.238 651.277 447.272
503 0 83.2838 15.201 1266 115.4 652.191 439.689
504 0 86.1781 14.1915 1223 116.146 651.956 438.877
505 0 88.2106 11.6086 1024 121.217 653.154 439.129
506 0 89.241 12.1693 1086 121.858 653.256 432.601
507 0 92.3461 17.4994 1616 112.068 653.637 436.029
508 0 97.4888 12.9964 1267 118.368 654.959 433.306
509 0 98.178 12.5181 1229 118.511 655.977 434.348
510 0 103.348 12.2983 1271 119.1 656.563 430.88
511 0 106.358 12.4109 1320 118.341 656.705 429.962
512 0 112.483 14.1444 1591 116.329 657.636 422.764
513 0 115.476 12.7299 1470 116.923 658.926 426.008
514 1 65.0516 10.6992 696 115.055 658.618 452.322
515 0 68.1475 13.3974 913 110.148 660.855 448.284
516 0 67.1264 14.7483 990 103.947 659.426 441.353
517 0 73.1192 10.5171 769 108.694 660.59 446.917
518 1 137.566 13.8043 1899 112.896 659.924 422.262
519 0 144.806 14.2053 2057 110.839 659.708 419.271
520 0 146.797 13.8899 2039 114.774 659.461 415.906
521 0 153.245 17.919 2746 107.193 658.868 419.769
522 0 154.376 7.70198 1189 123.638 659.448 414.115
523 1 90.3036 15.4257 1393 106.564 658.775 447.409
524 0 90.3293 12.8862 1164 108.472 657.256 444.461
525 0 95.323 11.802 1125 111.532 655.912 449.204
526 0 99.3781 13.0713 1299 108.24 656.164 444.859
527 1 54.3522 8.6841 472 114.934 655.206 468.32
528 0 59.2101 9.47474 561 112.271 655.052 467.745
529 0 62.206 14.6449 911 104.446 654.456 466.4
530 0 63.127 11.3581 717 108.775 652.137 464.561
531 0 60.1987 6.09648 367 116.019 653.093 465.665
532 0 66.1766 14.2195 941 104.749 651.412 458.497
533 0 68.1303 10.8322 738 109.041 652.225 458.019
534 0 69.1746 10.076 697 109.224 651.94 459.36
535 0 73.1867 13.5134 989 104.499 650.172 456.314
536 0 75.2024 10.3321 777 109.534 650.468 454.703
537 0 78.4077 12.384 971 106.305 649.754 450.373
538 0 80.4268 11.1654 898 107.045 649.798 442.889
539 0 84.4374 14.0933 1190 105.238 650.632 439.868
540 0 85.5216 12.1373 1038 108.499 650.794 439.562
541 0 90.3228 14.4592 1306 106.047 651.495 437.497
542 0 89.4824 8.53799 764 114.497 650.868 436.525
543 0 96.7442 15.3187 1482 106.401 650.671 434.225
544 0 97.3491 11.5564 1125 113.921 650.188 427.973
545 1 50.1582 12.022 603 107.091 650.672 457.209
546 0 51.2262 12.0251 616 105.943 650.118 456.232
547 0 50.2025 10.8361 544 109.02 653.149 453.445
548 0 52.2673 10.7715 563 111.583 652.119 450.179
549 0 55.1874 12.4304 686 109.673 654.316 449.927
550 0 56.1974 13.2924 747 110.791 655.762 453.078
551 0 60.4255 12.8754 778 112.988 655.956 453.072
552 0 61.3032 12.5768 771 115.165 656.245 452.209
553 0 63.3165 10.6607 675 116.883 656.822 453.439
554 0 68.3512 13.5184 924 112.157 657.768 451.352
555 0 68.505 11.7218 803 116.569 659.192 450.71
556 0 70.4985 14.1563 998 113.631 659.065 450.108
557 0 72.1892 12.0101 867 117.339 660.185 447.586
558 0 77.6309 21.6924 1684 100.995 659.549 450.916
559 0 78.1862 13.4934 1055 113.991 659.472 447.25
560 0 85.5447 13.9693 1195 111.587 659.497 448.619
561 0 83.4475 12.7146 1061 114.082 659.861 448.145
562 0 87.5805 12.2744 1075 110.42 660.683 446.645
563 0 90.3471 15.0531 1360 107.072 659.717 447.056
564 0 90.3471 15.0863 1363 133.478 659.715 447.177
565 1 47.2212 8.87313 419 112.68 659.938 467.969
566 0 52.3802 11.6265 609 109.89 658.23 467.737
567 0 54.147 13.1863 714 106.304 659.542 467.957
568 0 55.1611 10.2427 565 111.412 659.396 467.011
569 0 58.2829 13.4516 784 106.929 658.393 467.829
570 0 59.2148 13.9999 829 107.055 657.04 467.841
571 0 63.2015 13.7339 868 107.315 656.387 468.753
572 0 61.0922 13.0622 798 110.836 654.944 463.475
573 0 61.1431 11.1869 684 114.193 655.159 465.412
574 0 65.2542 13.1792 860 110.231 655.701 460.578
575 0 67.0694 13.6128 913 111.378 653.779 459.543
576 0 70.0951 16.9341 1187 106.274 654.11 459.565
577 0 70.1063 12.7806 896 113.275 653.881 455.416
578 0 75.0932 12.904 969 113.555 652.411 455.107
579 0 77.302 15.6399 1209 108.781 653.025 452.45
580 0 81.173 12.2824 997 113.583 651.987 452.66
581 0 85.5243 15.5862 1333 106.401 652.11 450.476
582 0 86.0882 16.5993 1429 107.266 651.112 446.994
583 1 44.1059 10.7015 472 112.742 653.189 467.682
584 0 46.3095 16.2818 754 104.711 651.78 464.444
585 0 50.1106 17.1022 857 103.186 652.051 465.488
586 0 49.1269 13.0275 640 110.716 653.186 461.745
587 0 50.0549 12.0468 603 115.169 651.398 460.34
588 0 53.1528 12.7557 678 113.883 651.116 460.5
589 0 54.0984 12.7545 690 114.432 651.03 453.664
590 0 54.1184 14.3389 776 111.595 651.487 457.534
591 0 55.0551 12.1515 669 115.871 653.166 458.078
592 0 55.0706 12.1117 667 117.196 653.612 454.937
593 0 55.0706 12.0754 665 137.247 653.648 455.018
594 0 61.2221 18.3431 1123 106.248 654.62 454.437
595 0 64.1762 15.3328 984 111.218 654.807 450.163
596 0 64.2592 13.3366 857 115.348 656.438 448.998
597 0 68.0751 13.8817 945 113.636 655.966 449.572
598 0 68.1024 14.8306 1010 112.565 656.41 449.643
599 0 72.0488 12.1723 877 116.794 657.206 448.506
600 0 72.0488 12.089 871 133.876 658.214 448.422
601 0 75.0836 12.8923 968 116.253 658.528 449.126
602 0 78.1275 13.9004 1086 113.351 659.502 451.646
603 0 82.126 13.9055 1142 113.399 659.615 450.88
604 0 84.1134 15.919 1339 111.435 659.785 446.502
605 0 83.0949 12.3834 1029 117.475 658.538 444.706
606 0 86.1171 13.412 1155 115.095 659.639 448.106
607 0 91.1244 15.4514 1408 111.217 659.73 447.261
608 0 91.2416 12.7464 1163 112.487 659.778 442.162
609 0 93.1219 11.7373 1093 114.054 659.599 443.763
610 1 50.0991 8.42331 422 111.46 659.635 467.301
611 0 48.0664 10.1942 490 110.686 658.151 464.827
612 0 51.2896 11.5228 591 108.058 657.139 462.596
613 0 54.2114 11.9901 650 106.455 656.292 464.702
614 0 52.176 9.98543 521 110.349 654.624 464.654
615 0 57.1108 8.87749 507 110.953 654.148 461.264
616 0 57.3002 12.9145 740 104.426 652.585 464.993
617 0 60.2392 11.4875 692 107.993 653.558 462.019
618 0 65.3082 9.35563 611 110.781 652.367 462.185
619 0 67.1435 14.9679 1005 104.736 653.261 453.766
620 0 68.093 11.5577 787 109.767 651.437 452.911
621 0 70.2727 10.5589 742 112.259 652.179 450.302
622 0 73.24 13.3943 981 107.507 651.007 454.207
623 0 73.0683 12.5499 917 110.708 650.195 451.33
624 0 81.2412 14.1185 1147 110.402 651.587 454.219
625 0 80.1843 13.5189 1084 113.871 651.844 447.109
626 0 82.3169 12.5977 1037 115.081 652.544 451.242
627 0 88.1397 18.0055 1587 106.327 651.237 448.769
628 1 46.2017 12.6835 586 117.471 652.73 461.539
629 0 46.1191 10.8632 501 118.788 651.305 464.046
630 0 47.0897 13.9309 656 114.947 649.909 459.466
631 0 50.0958 12.6557 634 115.631 651.511 459.2
632 0 50.0672 13.2622 664 113.569 651.387 460.081
633 0 54.0443 15.2097 822 110.092 653.914 457.549
634 0 52.13 13.0443 680 116.126 652.298 455.382
635 0 56.1508 14.1761 796 113.432 654.356 455.687
636 0 57.133 13.4948 771 115.359 653.977 454.376
637 0 61.1836 14.1868 868 113.016 654.957 452.892
638 0 62.1555 16.33 1015 110.25 655.581 451.199
639 0 61.2372 11.5289 706 118.003 655.894 453.661
640 0 66.1551 13.4986 893 113.619 656.414 452.456
641 0 68.1333 13.6204 928 112.501 656.901 449.755
642 0 72.177 15.6421 1129 108.932 657.013 447.845
643 0 72.1674 13.3301 962 113.869 657.804 450.836
644 0 73.105 13.036 953 113.653 658.251 452.006
645 0 79.226 13.3542 1058 112.683 658.68 453.019
646 0 86.1715 13.5428 1167 110.907 658.173 451.331
647 0 86.2074 13.2935 1146 112.41 658.105 449.376
648 0 89.2895 14.1226 1261 110.342 658.482 451.895
649 0 89.298 17.2008 1536 106.326 658.044 450.99
650 0 95.1869 14.025 1335 111.013 658.024 446.412
651 0 95.3419 13.7295 1309 111.615 657.76 443.084
652 0 98.3734 12.544 1234 112.015 658.625 445.741
653 1 52.2594 12.9738 678 111.083 658.885 466.976
654 0 53.2345 13.7317 731 109.964 658.067 467.979
655 0 54.3055 12.6875 689 111.412 657.845 464.366
656 0 56.2413 13.0687 735 110.946 657.044 465.845
657 0 59.1967 15.8286 937 106.334 655.934 466.452
658 0 60.2933 13.9816 843 111.074 656.039 463.178
659 0 62.2121 16.7974 1045 106.989 654.991 462.198
660 0 62.2566 12.7055 791 113.575 654.915 462.32
661 0 68.0886 18.5053 1260 102.913 654.858 461.89
662 0 68.0958 13.3488 909 111.937 654.914 459.573
663 0 70.1604 12.0581 846 115.453 653.948 455.117
664 0 74.3006 13.58 1009 112.887 652.68 455.109
665 0 76.1013 14.5464 1107 111.444 652.828 452.368
666 0 79.2816 16.8639 1337 108.317 652.452 450.908
667 0 80.3266 13.0716 1050 114.719 651.132 448.61
668 0 84.2232 11.6595 982 116.405 652.044 450.573
669 1 45.1072 12.4814 563 110.671 650.19 466.581
670 0 46.1595 13.15 607 110.614 651.03 463.661
671 0 48.0439 12.2596 589 112.772 651.652 461.138
672 0 48.0505 11.0093 529 118.015 652.626 464.355
673 0 53.0839 13.7518 730 112.405 653.263 460.104
674 0 53.2182 14.2808 760 112.849 653.791 460.386
675 0 55.3268 14.3692 795 112.971 653.316 457.231
676 0 55.1563 13.6702 754 115.129 654.454 457.997
677 0 58.2274 14.8384 864 112.784 654.98 457.88
678 0 61.0746 14.8016 904 112.821 654.835 453.734
679 0 66.1572 13.3923 886 113.151 655.169 456.477
680 0 65.145 14.982 976 111.15 657.723 455.295
681 0 67.1414 13.9556 937 112.852 655.771 450.794
682 0 70.0582 13.6172 954 112.414 656.473 451.715
683 0 73.1795 17.5732 1286 108.23 659.095 449.33
684 0 72.1443 14.1106 1018 114.426 658.842 450.52
685 0 75.1169 14.4841 1088 114.513 659.809 448.335
686 0 80.1446 15.3473 1230 112.719 659.19 451.052
687 0 81.061 14.5816 1182 114.249 660.519 451.797
688 0 86.1313 15.0932 1300 114.226 660.401 450.772
689 1 41.1096 13.014 535 118.064 659.916 470.561
690 0 41.2042 13.1055 540 119.291 659.88 470.643
691 0 43.0938 14.2248 613 117.442 659.91 470.648
692 0 45.1195 15.1154 682 115.057 658.751 472.686
693 0 48.335 14.5857 705 116.262 659.026 473.874
694 0 48.335 14.565 704 137.915 659.014 473.886
695 0 50.1927 14.0857 707 114.661 658.605 474.178
696 0 54.175 15.6714 849 112.259 657.248 471.908
697 0 56.07 15.3737 862 114.945 657.888 470.956
698 0 57.3207 17.6725 1013 110.945 657.041 471.178
699 0 57.3506 14.0365 805 118.489 655.785 470.651
700 0 61.4086 12.5064 768 119.031 654.582 471.398
701 0 62.5037 14.5111 907 118.676 654.046 466.707
702 0 65.3149 17.408 1137 114.409 653.42 464.708
703 0 65.3149 17.3314 1132 132.78 652.447 464.756
704 0 69.3433 19.0069 1318 112.485 651.986 461.568
705 0 68.2938 16.3412 1116 146.763 652.052 459.235
706 0 68.281 16.3442 1116 146.241 652.031 459.254
707 0 76.3396 16.0205 1223 118.222 651.051 454.748
708 0 79.5335 15.3646 1222 119.095 652.167 452.742
709 0 80.4949 15.7277 1266 117.889 652.084 453.55
710 0 84.5746 15.9031 1345 118.023 650.97 448.038
711 0 85.3926 14.8725 1270 120.635 652.152 448.406
712 0 88.6838 15.3241 1359 119.692 650.523 447.555
713 0 91.8178 14.8882 1367 119.96 653 445.117
714 1 48.3073 16.0017 773 119.41 650.884 461.254
715 0 50.629 14.5964 739 121.25 651.834 460.98
716 0 51.4158 15.4233 793 119.438 651.14 462.322
717 0 53.5307 16.1776 866 119.781 652.104 458.837
718 0 56.3842 13.9223 785 122.563 651.159 457.24
719 0 57.2232 16.4793 943 120.151 652.699 453.996
720 0 60.3336 15.3314 925 121.568 652.589 452.529
721 0 61.3563 14.5706 894 122.393 653.058 454.736
722 0 63.5669 13.0728 831 126.183 652.815 451.253
723 0 69.828 16.512 1153 118.972 654.539 449.542
724 0 70.5576 16.8657 1190 119.265 655.445 447.655
725 0 71.6311 14.0861 1009 124.69 655.518 450.844
726 0 75.8562 15.0284 1140 122.834 655.863 449.002
727 0 76.5493 14.3959 1102 124.972 656.953 448.485
728 0 80.7221 15.7578 1272 121.584 657.17 448.112
729 0 84.815 17.0017 1442 120.196 657.223 448.158
730 0 86.6224 16.3353 1415 121.764 659.276 447.319
731 0 85.6129 13.8414 1185 128.889 658.548 445.262
732 0 90.9823 15.6844 1427 125.562 659.16 444.008
733 0 94.3516 15.9722 1507 124.856 659.593 444.046
734 0 98.591 17.0401 1680 121.495 659.45 445.857
735 0 101.85 17.3197 1764 121.364 659.059 445.353
736 1 53.2748 11.2248 598 130.441 658.191 465.768
737 0 57.4021 12.6302 725 126.719 657.684 466.397
738 0 57.3972 12.8404 737 128.745 656.304 465.113
739 0 58.22 12.573 732 130.165 658.037 464.087
740 0 63.3223 15.5711 986 123.934 656.621 462.968
741 0 64.1937 15.8894 1020 125.273 656.798 459.693
742 0 70.4515 16.8485 1187 120.794 654.414 458.186
743 0 70.3353 15.4545 1087 125.078 654.918 459.323
744 0 71.3512 12.3614 882 132.832 654.871 458.6
745 0 73.2846 15.0782 1105 127.601 653.633 457.048
746 0 79.3727 16.8572 1338 122.602 652.968 456.555
747 0 80.2296 14.7576 1184 128.616 652.683 452.218
748 0 84.233 18.4251 1552 122.496 651.243 448.291
749 0 87.2196 14.7903 1290 128.435 652.253 448.781
750 0 89.2065 16.0078 1428 126.585 651.611 445.96
751 0 91.3004 15.334 1400 128.208 652.014 445.094
752 0 95.0974 15.8049 1503 127.057 652.072 444.512
753 0 99.2792 14.5851 1448 129.028 651.56 442.408
754 0 100.224 17.2115 1725 125.631 650.666 436.627
755 0 103.153 15.4916 1598 128.607 651.684 435.213
756 1 56.116 11.9039 668 123.668 651.418 455.952
757 0 51.13 6.63016 339 133.912 652.245 449.333
758 0 58.2343 13.2568 772 117.684 652.836 451.794
759 0 61.082 12.0985 739 121.667 653.196 449.364
760 0 63.0725 13.3339 841 117.858 655.498 457.742
761 0 66.2502 12.5886 834 119.037 654.719 457.505
762 0 67.278 11.9207 802 121.988 656.771 450.06
763 0 67.087 11.4925 771 123.879 656.624 446.353
764 0 72.3252 13.2181 956 120.25 657.212 448.19
765 0 73.1756 11.6842 855 123.451 657.43 446.646
766 0 75.0664 11.7096 879 122.33 658.81 448.638
767 0 79.2187 14.1128 1118 119.556 659.114 444.241
768 0 80.1793 10.4391 837 124.167 659.879 446.652
769 0 84.2413 14.2804 1203 118.102 659.334 443.732
770 0 85.2358 13.011 1109 121.014 659.145 442.49
771 0 90.2604 11.0458 997 123.808 659.929 438.511
772 0 94.4082 13.4204 1267 117.995 660.61 441.428
773 0 97.1956 13.6632 1328 117.491 659.523 440.977
774 1 55.1365 9.64878 532 117.338 659.427 463.132
775 0 55.0705 11.458 631 112.403 658.87 464.859
776 0 53.0444 9.46377 502 119.687 661.261 460.05
777 0 58.1392 10.6125 617 110.846 659.891 464.58
778 0 57.0747 9.74162 556 113.394 659.088 461.766
779 0 60.0538 7.26015 436 116.014 658.427 463.427
780 0 64.0806 11.5636 741 109.072 658.41 464.696
781 1 123.357 11.7302 1447 118.902 658.495 428.936
782 0 125.147 10.1081 1265 122.344 657.787 429.863
783 1 68.0765 10.2679 699 113.024 658.175 460.665
784 0 71.1285 12.3017 875 109.746 657.698 458.101
785 0 74.1604 10.8009 801 110.348 657.687 462.973
786 0 75.208 5.95681 448 117.4 657.911 459.538
787 0 78.2991 13.4484 1053 108.6 655.719 452.474
788 0 79.1461 9.46351 749 114.746 656.007 448.929
789 0 87.1239 11.8337 1031 109.906 655.334 453.588
790 1 47.1004 10.9341 515 108.561 655.155 472.505
791 0 50.1704 13.6136 683 105.256 654.694 469.836
792 0 47.4445 10.0749 478 113.46 655.408 468.241
793 0 44.0986 9.02523 398 109.485 654.729 469.103
794 0 45.119 8.9541 404 110.205 654.428 465.626
795 0 45.1783 8.1455 368 110.375 655.774 467.201
796 0 51.116 9.2339 472 109.294 655.091 464.301
797 0 50.0304 8.25498 413 111.402 653.465 464.416
798 0 51.0622 11.2608 575 107.69 653.788 461.953
799 0 54.2418 9.95543 540 108.378 652.806 463.844
800 0 54.2231 9.90353 537 113.248 651.818 463.819
801 0 56.071 8.86377 497 111.755 653.998 458.006
802 0 66.1383 7.28776 482 110.766 654.714 461.942
803 0 64.1935 8.89498 571 111.543 655.834 453.846
804 0 62.1085 6.84286 425 113.16 656.482 457.722
805 0 70.0851 7.07711 496 112.754 656.155 455.649
806 0 68.1427 10.3459 705 110.729 656.579 446.443
807 0 69.1779 11.1596 772 109.482 658.136 448.972
808 0 72.1653 10.1988 736 109.503 657.209 450.864
809 0 75.2313 13.8373 1041 105.115 658.017 443.126
810 0 79.0814 12.5946 996 106.471 660.423 445.025
811 0 81.1896 11.8734 964 107.405 658.42 444.855
812 0 82.2053 9.45194 777 110.825 660.789 443.021
813 0 88.0866 12.2607 1080 105.876 660.009 445.487
814 1 43.0739 8.84527 381 109.199 661.239 461.383
815 0 45.2367 10.5666 478 106.498 661.805 463.602
816 0 47.2095 12.9847 613 102.3 660.971 464.602
817 0 48.0678 10.3396 497 112.181 664 464.058
818 0 50.0352 11.392 570 110.977 663.404 462.298
819 0 50.0775 11.7618 589 111.217 663.143 463.129
820 0 52.145 11.468 598 111.957 662.077 464.836
821 0 53.1482 11.3833 605 112.154 661.567 465.959
822 0 57.0383 13.8854 792 106.568 661.953 466.172
823 0 57.0832 14.6103 834 107.502 661.863 463.417
824 0 61.1208 14.4468 883 107.777 660.281 464.762
825 0 57.0826 10.3184 589 115.25 660.851 462.107
826 0 64.0887 12.5451 804 110.623 658.289 463.817
827 0 63.2572 12.0302 761 110.409 659.463 457.97
828 0 66.239 15.3384 1016 105.046 658.68 459.85
829 0 67.1628 11.6582 783 111.664 657.997 458.171
830 0 66.0957 12.4214 821 110.496 656.47 460.881
831 0 71.0587 11.4412 813 112.705 657.218 453.895
832 0 71.0525 7.22001 513 119.844 656.214 450.984
833 0 76.1392 12.4378 947 111.228 656.177 456.148
834 0 75.0598 7.6872 577 120.088 655.017 450.302
835 0 86.326 10.9005 941 117.06 655.357 447.132
836 0 85.1665 13.3503 1137 112.134 655.138 444.412
837 0 85.1665 13.2916 1132 114.743 654.142 444.283
838 0 84.1282 13.1109 1103 115.261 653.183 443.64
839 1 45.441 11.4214 519 107.902 654.507 461.42
840 0 47.2863 11.8639 561 107.082 655.162 457.465
841 0 50.2747 13.6052 684 102.004 654.835 464.494
842 0 52.4845 12.537 658 106.429 654.546 460.716
843 0 54.2622 12.8082 695 105.97 655.2 457.296
844 0 54.1878 11.4048 618 109.38 655.79 456.837
845 0 56.2251 13.7127 771 105.711 656.005 457.128
846 0 55.1889 13.0461 720 108.533 655.897 454.167
847 0 59.1494 13.9477 825 106.539 656.428 452.526
848 0 60.3472 12.1961 736 109.988 657.613 450.942
849 0 63.2196 11.4205 722 109.482 657.525 451.166
850 0 65.2726 11.4596 748 110.687 657.074 448.676
851 0 67.1815 13.2179 888 108.352 657.619 449.348
852 0 67.1875 13.0977 880 110.101 655.783 444.868
853 0 72.2186 13.5422 978 108.418 658.891 447.689
854 0 73.3185 11.6478 854 111.101 658.918 449.97
855 0 75.1809 13.1549 989 110.475 658.945 445.568
856 0 77.1785 11.9463 922 113.066 659.055 442.952
857 0 84.3241 12.5112 1055 112.558 660.143 444.518
858 0 87.2471 14.4761 1263 109.778 659.401 447.055
859 0 87.4896 11.3956 997 115.475 660.879 442.88
860 0 92.4784 13.7546 1272 111.381 660.87 441.996
861 1 44.1842 9.98095 441 113.517 662.204 466.746
862 0 48.1672 12.8511 619 109.255 662.17 464.278
863 0 49.1409 14.8349 729 106.501 660.292 468.638
864 0 50.2229 10.3339 519 113.331 662.046 466.272
865 0 54.1579 15.6025 845 104.846 661.834 468.138
866 0 54.2181 13.5379 734 108.624 661.995 467.343
867 0 56.2217 12.7353 716 110.723 660.538 464.316
868 0 60.1701 15.7387 947 105.432 659.714 466.394
869 0 61.4302 17.7926 1093 103.13 659.683 465.44
870 0 64.3018 13.5766 873 108.85 659.34 465.851
871 0 66.1583 13.77 911 109.092 658.821 465.411
872 0 66.1714 15.0518 996 108.659 658.938 461.32
873 0 69.2414 14.2256 985 110.379 656.311 461.446
874 0 71.2636 14.3552 1023 110.114 656.842 461.196
875 0 74.1123 15.0717 1117 109.876 656.649 456.291
876 0 74.2154 13.9998 1039 111.399 655.115 459.712
877 0 76.3162 15.9206 1215 109.089 655.444 456.235
878 0 78.2436 13.6113 1065 112.405 653.557 453.776
879 0 80.1217 11.832 948 116.007 655.417 448.705
880 0 81.202 11.9209 968 117.416 654.721 446.702
881 0 86.304 12.6182 1089 113.99 654.849 449.86
882 0 85.3448 11.0845 946 119.242 654.039 443.38
883 0 91.2286 15.2474 1391 112.183 654.642 441.802
884 0 92.1383 14.1635 1305 112.759 654.32 441.921
885 0 97.1418 12.8987 1253 119.453 654.856 439.018
886 0 98.2428 13.0188 1279 116.839 653.912 432.829
887 1 53.2146 11.1811 595 113.928 654.829 458.881
888 0 56.2408 14.598 821 108.03 656.139 457.443
889 0 56.0922 12.0516 676 115.879 655.198 455.888
890 0 58.1317 12.8501 747 114.961 657.63 454.537
891 0 60.0609 12.3541 742 114.845 657.841 449.625
892 0 60.0831 11.767 707 114.617 657.634 450.736
893 0 61.0169 11.3083 690 117.258 659.278 448.064
894 0 65.2291 13.2303 863 113.78 658.772 444.387
895 0 67.1513 12.0474 809 116.342 660.158 443.807
896 0 70.1525 11.4322 802 116.399 660.665 446.61
897 0 72.1108 10.9554 790 116.858 661.308 444.809
898 0 75.2648 10.1774 766 117.597 660.569 444.185
899 0 78.1217 11.9557 934 116.016 660.747 442.212
900 0 78.0898 11.9094 930 117.133 662.44 438.753
901 0 85.1832 12.3264 1050 115.347 662.466 440.154
902 0 88.12 13.8788 1223 116.697 662.224 444.405
903 1 46.1293 11.0342 509 116.336 663.006 463.929
904 0 45.1388 10.0136 452 119.493 662.429 465.212
905 0 52.0527 13.2366 689 113.639 661.971 464.634
906 0 49.3527 14.2039 701 115.699 662.401 462.86
907 0 53.1539 13.8654 737 108.989 659.271 462.601
908 0 55.163 14.6656 809 108.55 659.344 461.288
909 0 56.1831 13.9722 785 104.995 659.628 463.08
910 0 57.1233 11.2564 643 110.848 658.605 457.302
911 0 60.1154 12.8919 775 111.52 657.636 465.348
912 0 65.2459 13.0276 850 109.891 658.349 459.811
913 0 64.1813 11.2806 724 113.715 657.376 459.07
914 0 73.6822 16.069 1184 100.694 656.582 461.443
915 0 69.161 12.6372 874 108.879 658.114 453.923
916 0 72.2062 13.4476 971 108.075 655.224 453.615
917 0 74.5204 11.8357 882 110.904 654.902 451.317
918 0 78.2674 14.131 1106 106.639 654.742 455.001
919 0 83.3561 15.7517 1313 104.081 653.173 454.465
920 0 82.1909 12.8481 1056 110.381 653.327 451.197
921 0 84.2386 10.957 923 113.342 653.666 446.427
922 0 86.3227 13.4495 1161 110.167 653.43 438.935
923 0 92.2888 14.758 1362 107.714 653.753 437.377
924 1 48.2292 13.7883 665 103.167 654.179 462.087
925 0 48.1954 15.9351 768 102.104 654.68 462.676
926 0 47.0437 8.82158 415 113.359 654.704 456.624
927 0 51.2204 12.6512 648 108.099 652.688 453.097
928 0 48.1944 10.9556 528 112.559 652.845 452.722
929 0 55.1661 16.1331 890 102.591 652.434 457.745
930 0 57.2026 18.618 1065 103.219 653.033 457.909
931 0 58.3089 14.4918 845 109.464 654.715 459.264
932 0 57.1734 12.3659 707 114.56 655.328 455.023
933 0 58.4744 11.458 670 116.697 656.227 452.225
934 0 61.2113 11.8115 723 116.526 656.69 452.91
935 0 64.1433 13.7816 884 111.55 657.018 451.365
936 0 64.1339 10.7431 689 117.607 658.017 447.488
937 0 70.3457 12.7513 897 111.999 658.282 448.297
938 0 69.2787 12.8178 888 114.944 658.082 442.437
939 0 71.1337 12.4976 889 114.785 658.143 445.685
940 0 74.2355 13.2282 982 114.303 659.263 441.89
941 0 74.2059 13.2065 980 129.42 661.251 441.877
942 0 77.1547 11.7038 903 117.25 659.563 443.247
943 0 77.1547 11.7815 909 133.546 657.587 443.241
944 0 81.2787 11.4913 934 116.612 660.276 436.133
945 0 87.301 11.6723 1019 114.664 660.704 442.666
946 0 92.2365 16.642 1535 106.577 661.375 442.307
947 0 94.272 12.7185 1199 112.751 660.315 440.803
948 0 97.1743 11.8653 1153 113.561 661.49 442.056
949 0 97.173 13.2341 1286 114.66 661.086 437.84
950 0 102.218 11.8081 1207 116.051 659.501 432.37
951 1 54.3596 9.2532 503 116.121 658.962 460.958
952 0 53.0838 10.2479 544 117.237 658.592 466.958
953 0 57.2567 11.7715 674 113.488 658.671 460.677
954 0 59.0633 16.8294 994 105.509 656.932 462.208
955 0 59.0633 16.7786 991 117.411 654.937 462.197
956 0 62.1183 13.5387 841 111.969 656.414 458.108
957 0 65.1817 11.7978 769 114.402 654.731 458.713
958 0 67.2154 11.2028 753 116.594 654.796 458.061
959 0 68.3875 11.9905 820 115.507 653.8 456.641
960 0 71.204 13.3279 949 113.566 653.602 456.038
961 0 74.268 19.1065 1419 103.765 652.39 459.07
962 0 76.2881 15.4677 1180 111.191 653.308 452.847
963 0 77.261 11.9854 926 118.026 651.876 449.991
964 1 38.3002 11.3054 433 115.533 652.656 467.658
965 0 42.0551 9.17844 386 119.381 655.057 469.402
966 0 43.1336 12.4033 535 112.77 652.116 470.116
967 0 44.2894 11.041 489 117.871 651.438 463.384
968 0 46.4242 11.3518 527 116.884 651.233 460.793
969 0 48.4017 13.9251 674 113.412 650.834 459.608
970 0 47.4046 14.0282 665 131.791 649.86 459.568
971 0 52.1537 11.9838 625 115.973 651.587 459.134
972 0 49.1686 11.4504 563 119.609 653.156 458.101
973 0 52.0284 11.5898 603 120.783 651.95 456.627
974 0 54.1362 11.7297 635 120.236 653.506 454.616
975 0 58.0975 13.7527 799 116.467 653.222 452.608
976 0 59.1589 13.9793 827 115.664 654.041 454.404
977 0 58.13 12.1624 707 117.05 653.18 451.714
978 0 61.1387 13.8047 844 114.216 655.501 451.171
979 0 63.1425 14.5069 916 112.202 654.92 447.945
980 0 65.0847 13.5669 883 113.202 655.703 449.693
981 0 68.3214 15.2368 1041 111.21 656.224 445.827
982 0 71.1366 13.7763 980 115.344 657.239 447.684
983 0 72.2316 17.3054 1250 106.13 657.254 443.786
984 0 73.262 17.8537 1308 105.524 658.19 441.007
985 0 77.1685 18.3754 1418 103.262 658.848 445.869
986 0 78.2971 15.786 1236 105.415 659.122 446.395
987 0 81.2223 14.368 1167 109.734 659.519 441.812
988 0 84.2439 13.8408 1166 109.901 659.404 443.961
989 0 86.322 16.45 1420 106.969 660.254 444.518
990 0 92.2175 15.6803 1446 107.502 659.486 436.96
991 1 49.0726 15.8948 780 102.101 662.446 467.89
992 0 49.1449 10.7234 527 110.417 661.634 464.854
993 0 49.2507 11.4516 564 109.186 661.323 464.454
994 0 51.0816 13.684 699 107.021 661.445 460.067
995 0 55.0631 13.0396 718 106.73 660.344 463.291
996 0 57.2415 15.2162 871 104.487 661.126 462.484
997 0 54.2804 10.4458 567 117.529 660.723 460.19
998 0 59.2766 12.8381 761 113.562 659.231 462.506
999 0 62.3117 13.8818 865 109.921 659.412 458.606
1000 0 64.2238 12.0516 774 113.482 659.473 461.685
1001 0 68.4148 16.1369 1104 105.798 658.137 459.105
1002 0 68.4148 16.1515 1105 119.706 657.149 459.201
1003 0 70.242 14.2792 1003 110.725 656.872 456.137
1004 0 73.2185 13.5758 994 112.001 656.982 455.464
1005 0 75.262 15.652 1178 110.866 655.95 449.843
1006 0 78.2397 16.9863 1329 108.849 655.306 449.503
1007 0 80.4713 15.5459 1251 111.26 654.574 447.684
1008 0 82.4475 14.5183 1197 113.155 654.433 447.188
1009 0 84.1542 14.0932 1186 114.937 654.568 446.321
1010 0 90.2369 16.7781 1514 109.426 654.21 444.21
1011 0 91.3635 14.7433 1347 112.95 654.408 445.044
1012 0 92.3176 13.6594 1261 115.456 654.634 441.983
1013 1 49.1335 11.0719 544 121.243 655.54 457.16
1014 0 51.0736 13.9994 715 115.431 654.088 458.592
1015 0 53.0917 13.7686 731 116.435 652.025 457.227
1016 0 55.0355 14.1 776 114.138 653.36 458.003
1017 0 58.1765 15.6764 912 110.191 650.966 453.509
1018 0 58.1096 14.2489 828 114.918 650.996 449.392
1019 0 59.136 12.4628 737 118.59 651.494 448.596
1020 0 61.1269 13.202 807 116.259 652.078 449.375
1021 0 62.143 13.4368 835 116.514 652.424 443.253
1022 0 65.114 14.3287 933 114.525 652.7 441.763
1023 0 69.111 15.6849 1084 110.877 653.679 442.333
1024 0 72.2992 14.9379 1080 110.277 653.359 446.566
1025 0 75.2524 13.0627 983 113.672 655.026 444.165
1026 0 78.216 13.8974 1087 112.553 655.646 440.678
1027 0 78.1109 17.5392 1370 106.993 657.246 435.288
1028 0 81.1662 12.111 983 114.308 663.179 442.064
1029 0 85.1713 14.3241 1220 109.007 662.832 441.745
1030 1 44.2423 13.9911 619 106.467 660.982 462.756
1031 0 44.0958 10.0236 442 109.391 660.667 458.844
1032 0 45.1323 8.61911 389 104.054 662.296 459.522
1033 0 46.148 8.97113 414 103.362 662.488 457.348
1034 0 48.1592 10.5483 508 102.215 661.175 456.47
1035 0 46.1214 7.17671 331 107.341 662.115 458.199
1036 0 48.2218 10.6176 512 103.277 660.164 461.787
1037 0 52.0701 13.501 703 99.4011 661.619 458.614
1038 0 56.1543 12.1273 681 108.623 660.608 465.756
1039 0 58.399 12.9112 754 109.137 658.391 460.117
1040 0 58.1173 11.8553 689 112.302 659.139 466.115
1041 0 59.0902 9.96782 589 116.025 659.372 461.742
1042 0 62.1913 12.7831 795 111.053 658.414 463.445
1043 0 64.2752 13.5511 871 110.676 658.769 462.816
1044 0 64.3023 13.3121 856 111.742 657.702 462.965
1045 0 68.3164 13.5107 923 113.038 656.431 456.771
1046 0 70.2704 10.7442 755 116.326 657.052 462.036
1047 0 70.3095 10.0271 705 118.404 655.328 460.614
1048 0 74.2212 11.816 877 117.856 654.413 455.009
1049 0 75.6261 11.3585 859 119.354 655.07 456.403
1050 0 78.2423 12.5763 984 117.619 653.287 454.684
1051 0 82.2144 14.1338 1162 116.126 655.13 453.293
1052 0 84.2257 13.0602 1100 119.239 653.793 449.145
1053 0 83.1711 10.4243 867 124.826 653.123 448.708
1054 0 88.2767 13.0272 1150 118.636 650.798 448.881
1055 0 94.1309 16.1477 1520 114.286 651.871 446.426
1056 1 47.0233 11.1221 523 119.403 652.249 463.669
1057 0 51.0613 14.8057 756 112.508 652.262 461.16
1058 0 52.0329 11.6657 607 119.446 652.651 461.077
1059 0 56.2998 12.5222 705 117.803 656.265 459.044
1060 0 57.4952 14.0707 809 116.169 656.204 456.397
1061 0 55.3248 13.5021 747 120.368 655.758 455.242
1062 0 61.4925 16.0345 986 114.332 656.667 454.636
1063 0 61.5654 15.1384 932 118.128 656.056 452.307
1064 0 60.3986 12.2354 739 126.617 657.242 449.701
1065 0 65.4218 17.1044 1119 114.722 657.937 452.545
1066 0 65.3861 14.422 943 122.82 658.048 451.115
1067 0 66.3125 13.6777 907 125.428 657.934 447.549
1068 0 70.438 11.8544 835 128.854 659.196 447.011
1069 0 71.136 11.9911 853 129.013 657.224 450.578
1070 0 72.2685 16.0374 1159 121.411 657.937 449.16
1071 0 75.1035 16.6038 1247 120.171 659.544 448.733
1072 0 79.0666 15.9865 1264 121.686 658.285 447.354
1073 0 84.1241 15.2513 1283 123.402 659.539 444.266
1074 0 84.1409 14.547 1224 126.007 659.86 443.958
1075 0 87.3203 14.9106 1302 126.023 658.495 443.34
1076 0 91.2687 17.947 1638 119.253 660.838 444.643
1077 0 94.2938 17.5939 1659 120.015 660.216 442.621
1078 0 97.2936 15.89 1546 123.367 659.554 443.981
1079 1 52.0481 12.5077 651 124.859 659.833 467.038
1080 0 55.196 12.0842 667 127.202 658.538 465.825
1081 0 57.2065 12.0441 689 124.827 660.386 468.534
1082 0 61.5395 15.7947 972 119.856 660.804 462.692
1083 0 61.184 12.6504 774 126.222 661.717 462.62
1084 0 64.1575 13.7318 881 124.531 657.477 463.838
1085 0 64.1119 14.8958 955 124.028 657.112 460.904
1086 0 67.2449 11.4507 770 128.499 656.973 464.749
1087 0 69.2506 13.2273 916 125.919 656.808 462.439
1088 0 69.246 13.5748 940 127.015 655.17 461.047
1089 0 73.3196 14.6618 1075 124.216 654.869 461.62
1090 0 75.2269 14.6357 1101 126.348 652.922 456.98
1091 0 78.1786 12.6505 989 129.74 653.461 455.995
1092 0 79.2635 14.1301 1120 126.66 654.154 456.593
1093 0 81.3645 12.3272 1003 129.987 653.363 456.619
1094 0 82.4333 12.2159 1007 131.476 652.262 448.5
1095 0 83.3169 14.5469 1212 127.587 652.381 445.53
1096 0 87.3124 15.1067 1319 125.383 652.676 449.358
1097 0 91.1988 14.7151 1342 126.127 652.337 445.172
1098 0 95.4375 14.8265 1415 126.269 652.91 447.536
1099 0 99.4789 15.8325 1575 123.097 653.404 444.363
1100 0 102.359 15.0452 1540 126.52 653.548 439.06
1101 1 56.4293 11.3771 642 123.846 654.878 463.748
1102 0 56.2077 12.7918 719 126.128 652.645 456.473
1103 0 57.1206 10.9768 627 124.439 652.97 460.904
1104 0 58.1647 12.6881 738 121.598 654.291 455.864
1105 0 59.0443 10.7885 637 124.94 653.743 460.54
1106 0 61.0688 12.8052 782 120.555 653.568 458.006
1107 0 63.2609 11.9979 759 124.078 653.058 454.949
1108 0 63.2609 12.1086 766 150.804 653.072 454.856
1109 0 62.2939 12.8424 800 148.016 653.114 455.088
1110 0 72.0504 13.3518 962 124.913 655.55 449.181
1111 0 75.0535 12.8708 966 126.903 656.348 445.692
1112 0 75.0779 12.4138 932 128.006 656.711 448.365
1113 0 76.1402 13.9874 1065 124.622 656.669 447.992
1114 0 81.1831 14.1532 1149 125.559 656.784 443.637
1115 0 84.2006 15.665 1319 121.89 656.973 442.827
1116 0 85.1764 12.797 1090 126.385 657.742 439.06
1117 1 45.0772 11.4914 518 117.662 656.79 461.402
1118 0 44.0839 10.2985 454 123.652 659.289 458.445
1119 0 51.0388 13.3036 679 124.424 661.218 461.645
1120 0 50.0222 10.0755 504 131.456 662.004 464.016
1121 0 52.1176 12.3375 643 128.613 661.554 460.404
1122 0 56.0306 14.4742 811 123.173 661.398 463.63
1123 0 54.0274 11.7163 633 131.167 661.033 464.719
1124 0 57.0575 12.8993 736 128.834 660.851 461.923
1125 0 61.1414 13.3788 818 126.209 660.885 464.494
1126 0 59.0972 12.031 711 127.432 660.277 465.345
1127 0 60.1821 11.7145 705 128.495 659.786 468.601
1128 0 64.055 12.7859 819 126.352 658.06 464.532
1129 0 65.2632 13.5145 882 126 657.961 466.651
1130 0 68.2332 14.7582 1007 123.893 657.736 463.601
1131 0 71.17 12.1681 866 129.229 656.276 463.263
1132 0 73.1234 11.8703 868 131.613 654.888 461.911
1133 0 75.1004 12.8228 963 129.156 654.629 460.862
1134 0 77.154 12.0668 931 131.279 653.481 460.426
1135 0 79.1554 13.1513 1041 135.561 651.454 458.452
1136 1 47.1476 13.0229 614 126.728 654.834 469.617
1137 0 46.1484 13.0232 601 129.473 654.654 468.579
1138 0 46.0667 11.4182 526 137.048 652.926 467.734
1139 0 47.054 10.3711 488 131.572 651.352 472.898
1140 0 49.0199 12.9335 634 129.292 653.174 469.781
1141 0 50.0466 11.809 591 134.152 652.484 463.904
1142 0 51.1669 12.2931 629 133.933 651.207 465.277
1143 0 51.149 11.3003 578 142.957 649.211 464.443
1144 0 53.0548 11.1583 592 136.159 652.008 461.534
1145 0 59.2536 13.7376 814 127.113 653.504 463.262
1146 0 61.1544 15.8942 972 124.002 653.177 458.791
1147 0 62.1828 16.355 1017 124.96 654.183 455.419
1148 0 62.217 14.4816 901 131.768 653.824 453.636
1149 0 66.2034 16.4795 1091 124.986 655.282 454.655
1150 0 67.3794 18.7446 1263 122.358 654.058 451.917
1151 0 68.2344 15.3442 1047 130.275 655.204 448.847
1152 0 71.276 14.2124 1013 131.957 656.779 448.701
1153 0 72.1099 14.6582 1057 132.387 655.986 447.588
1154 0 71.1169 14.4269 1026 145.693 654.934 447.164
1155 0 79.3719 17.3613 1378 124.954 657.004 446.628
1156 0 79.3304 15.2779 1212 128.564 657.512 449.305
1157 0 82.254 12.8626 1058 134.307 658.245 445.263
1158 1 43.0759 9.14666 394 134.249 658.779 467.596
1159 0 44.0931 11.952 527 131.216 661.154 464.992
1160 0 44.1473 12.0732 533 129.623 659.587 464.647
1161 0 47.1518 11.0494 521 127.585 658.585 460.484
1162 0 49.1954 13.8224 680 121.051 657.084 463.984
1163 0 49.1954 13.8834 683 131.833 656.066 463.99
1164 0 52.0678 14.5964 760 120.176 658.409 465.111
1165 0 53.2118 11.8019 628 125.299 658.384 464.123
1166 0 54.0493 14.7643 798 119.462 658.108 465.267
1167 0 57.1589 12.509 715 123.448 657.448 466.631
1168 0 57.0972 9.80784 560 129.404 656.55 466.034
1169 0 61.3173 12.0358 738 121.726 656.825 465.117
1170 0 59.1636 10.378 614 126.923 656.248 465.178
1171 0 62.1604 12.0495 749 122.696 656.142 465.312
1172 0 65.2592 12.7032 829 121.416 655.082 462.645
1173 0 65.1791 10.847 707 126.885 655.283 461.703
1174 0 70.3322 10.4362 734 126.282 654.659 463.228
1175 0 72.1469 12.4468 898 124.225 653.966 463.836
1176 0 73.093 11.3417 829 126.942 652.396 463.238
1177 0 75.1748 12.5707 945 125.254 652.876 457.03
1178 0 79.3793 14.3236 1137 122.826 652.908 451.529
1179 0 81.2155 12.9532 1052 124.96 651.541 454.688
1180 0 83.2695 13.078 1089 123.874 652.027 451.916
1181 0 86.3353 14.5711 1258 121.3 650.156 451.377
1182 0 89.4048 16.3079 1458 119.885 650.808 451.514
1183 0 92.196 13.8401 1276 126.89 650.232 445.886
1184 1 48.1252 9.70386 467 126.754 651.375 468.55
1185 0 52.1176 10.0158 522 126.255 652.308 468.391
1186 0 53.1214 14.0433 746 119.845 651.18 463.138
1187 0 55.277 12.555 694 120.016 653.382 464.736
1188 0 56.1979 13.3635 751 119.652 652.67 462.896
1189 0 57.3242 10.9552 628 125.406 653.035 459.885
1190 0 59.2779 11.6232 689 122.607 653.026 461.353
1191 0 61.549 12.3316 759 122.967 653.996 457.647
1192 0 64.269 13.0078 836 126.695 653.183 455.263
1193 0 64.3773 11.1841 720 128.394 653.303 452.46
1194 0 66.3546 11.4838 762 124.058 654.503 453.584
1195 0 69.3124 12.2345 848 122.815 654.28 450.055
1196 0 71.2901 13.7466 980 119.941 655.905 450.133
1197 0 74.1669 10.5303 781 125.713 656.452 449.749
1198 0 77.2595 12.6716 979 122.2 656.338 447.874
1199 0 81.24 14.1433 1149 119.698 657.406 446.183
1200 0 81.6253 11.0627 903 125.796 657.94 446.483
1201 1 44.1398 11.1237 491 123.438 659.619 464.464
1202 0 46.0433 11.8801 547 123.558 659.468 463.755
1203 0 45.1284 13.517 610 120.974 661.359 463.259
1204 0 47.0789 13.0632 615 121.969 660.532 464.841
1205 0 49.1553 12.4503 612 123.4 661.366 463.472
1206 0 48.3032 12.6286 610 120.569 661.366 466.415
1207 0 52.2297 14.2065 742 114.313 659.801 461.864
1208 0 52.2185 14.3053 747 125.53 658.811 461.9
1209 0 54.2049 13.6888 742 116.051 659.407 463.36
1210 0 54.2049 13.8179 749 125.853 659.423 463.154
1211 0 59.1594 14.4018 852 115.168 659.623 463.79
1212 0 57.2435 10.4641 599 121.292 660.9 468.239
1213 0 61.2627 12.6015 772 119.211 658.514 465.163
1214 0 65.1633 13.7194 894 115.864 659.419 465.248
1215 0 66.203 13.7456 910 117.766 657.101 463.645
1216 0 67.2903 11.9036 801 120.317 656.002 463.255
1217 0 73.1495 14.3678 1051 114.775 656.722 462.176
1218 0 74.1796 12.6315 937 118.044 655.591 456.613
1219 0 77.1629 14.2037 1096 114.088 654.862 459.598
1220 0 80.3627 12.9911 1044 116.921 654.699 452.875
1221 1 44.2436 9.28948 411 118.985 654.372 471.62
1222 0 47.18 11.2336 530 116.062 654.877 472.164
1223 0 49.0728 10.9429 537 116.276 653.723 470.248
1224 0 49.1759 11.3063 556 118.016 653.293 469.378
1225 0 52.315 16.2668 851 109.471 653.296 463.978
1226 0 52.1211 11.5884 604 118.579 654.212 459.404
1227 0 53.3198 12.2468 653 115.882 653.048 462.614
1228 0 55.1071 11.9041 656 114.306 652.105 457.302
1229 0 55.1822 10.42 575 116.833 652.737 458.141
1230 0 58.1568 12.0536 701 114.568 652.193 454.643
1231 0 61.1492 15.2905 935 108.396 652.991 452.751
1232 0 61.0978 11.3261 692 115.311 652.818 451.452
1233 0 64.35 12.0901 778 113.839 653.746 450.593
1234 0 67.2231 13.18 886 111.933 654.264 446.931
1235 0 68.0885 12.2781 836 113.427 655.284 448.05
1236 0 70.14 12.304 863 114.035 654.43 446.158
1237 0 75.2483 13.4887 1015 111.198 656.216 446.137
1238 0 75.2415 12.2007 918 114.027 655.793 438.599
1239 0 77.291 11.8772 918 115.038 657.45 437.188
1240 0 79.3065 13.2019 1047 113.608 657.177 435.961
1241 0 80.4397 15.9623 1284 109.298 658.02 434.51
1242 0 83.4348 10.1397 846 118.122 658.921 438.443
1243 0 86.2332 9.74103 840 117.59 660.086 439.258
1244 0 91.179 15.6615 1428 108.861 659.978 436.298
1245 0 93.2092 12.5846 1173 113.564 659.476 436.355
1246 0 96.2313 10.7034 1030 116.012 659.842 440.42
1247 0 95.1346 9.60744 914 119.37 659.666 436.249
1248 1 51.082 8.04588 411 117.095 659.693 460.652
1249 0 53.0417 14.4603 767 107.974 658.928 458.261
1250 0 56.1036 10.6589 598 114.242 659.462 455.985
1251 0 56.3558 9.70619 547 114.442 660.042 454.355
1252 0 59.144 11.4466 677 111.681 659.691 456.845
1253 0 61.4608 13.9113 855 108.269 658.734 457.075
1254 0 63.275 12.1217 767 111.402 658.735 456.013
1255 0 66.2375 12.0174 796 112.069 657.888 453.729
1256 0 66.1483 8.54141 565 117.724 657.915 452.623
1257 0 69.2893 12.2241 847 112.177 657.358 456.573
1258 0 68.2312 8.22204 561 119.984 655.884 445.909
1259 0 78.482 16.7172 1312 105.495 656.723 453.135
1260 0 76.2226 10.1282 772 117.229 655.005 448.67
1261 0 80.2703 8.4963 682 119.296 654.111 447.985
1262 0 84.2879 14.9132 1257 109.114 654.18 446.66
1263 0 83.5654 13.0078 1087 113.115 654.089 443.997
1264 0 90.1842 11.6761 1053 114.697 653.784 437.635
1265 1 50.0639 13.2431 663 105.434 653.398 461.894
1266 0 49.0548 9.64228 473 111.146 653.512 462.423
1267 0 55.1994 14.3842 794 102.821 653.911 465.849
1268 0 52.0572 14.0038 729 104.813 651.405 456.776
1269 0 56.2823 11.4956 647 107.326 650.779 455.536
1270 0 54.1976 10.6647 578 108.851 650.187 459.453
1271 0 58.4344 10.8156 632 108.578 651.06 458.101
1272 0 58.3834 10.7907 630 110.125 650.505 454.025
1273 0 61.3358 14.8853 913 103.239 651.163 446.99
1274 0 59.3802 13.0178 773 106.686 650.674 453.264
1275 0 64.274 11.3887 732 108.046 651.675 449.086
1276 0 69.2569 17.4568 1209 100.492 651.561 445.138
1277 0 70.2365 14.4512 1015 104.638 653.048 442.991
1278 0 70.5477 15.4505 1090 103.853 653.425 443.848
1279 0 74.2914 12.2087 907 109.064 652.719 445.173
1280 0 74.2883 12.2226 908 115.623 652.713 445.238
1281 0 78.3345 11.17 875 115.723 654.026 442.258
1282 0 77.0954 12.4132 957 113.426 655.259 437.302
1283 0 81.2131 13.0644 1061 111.999 655.839 441.991
1284 0 85.1284 14.3196 1219 111.173 657.007 438.313
1285 0 88.1291 11.5853 1021 115.601 656.278 438.898
1286 0 89.4232 10.3329 924 114.852 656.29 438.074
1287 0 95.643 10.5183 1006 114.556 658.304 438.231
1288 0 97.3183 11.9608 1164 114.052 658.724 436.118
1289 0 100.699 11.6188 1170 114.328 659.056 433.247
1290 1 149.077 11.3096 1686 118.521 660.063 415.381
1291 0 149.207 10.8775 1623 118.669 660.567 417.49
1292 0 151.715 9.13556 1386 117.546 658.732 425.967
1293 1 58.118 10.5131 611 111.597 659.103 457.293
1294 0 59.1565 8.02955 475 115.265 659.335 458.749
1295 0 62.4044 13.2843 829 106.344 661.157 461.168
1296 0 65.211 14.8594 969 105.385 660.178 458.062
1297 0 66.1923 9.54794 632 113.215 660.62 455.177
1298 0 72.1868 14.033 1013 105.832 660.169 458.873
1299 0 71.1854 12.9521 922 109.423 657.92 456.397
1300 0 78.2371 13.6636 1069 106.737 659.133 453.484
1301 0 79.3291 15.379 1220 105.057 657.289 456.007
1302 0 81.1209 9.97277 809 113.837 657.099 449.964
1303 0 81.1603 12.8018 1039 110.506 656.687 451.327
1304 0 89.3869 14.4428 1291 106.774 655.467 453.115
1305 0 92.3294 15.0006 1385 105.814 655.519 451.631
1306 0 95.1318 13.1292 1249 109.605 654.404 450.239
1307 0 96.2487 13.7976 1328 109.16 654.238 445.94
1308 0 104.154 19.1159 1991 103.806 652.373 439.837
1309 0 108.336 13.7628 1491 112.489 652.294 431.904
1310 0 112.453 11.9339 1342 113.063 651.08 425.305
1311 0 115.376 13.1483 1517 111.737 650.129 422.682
1312 1 63.3263 9.85372 624 113.952 650.572 446.705
1313 0 64.1951 11.4027 732 109.6 651.378 448.217
1314 0 67.1609 12.8051 860 112.03 649.448 446.998
1315 0 67.2426 12.15 817 114.938 650.51 443.14
1316 0 71.2361 13.1534 937 113.34 650.592 440.88
1317 0 76.2487 11.0559 843 114.779 651.791 445.079
1318 0 75.2676 10.2966 775 119.621 651.812 439.626
1319 0 79.2486 12.9214 1024 116.305 653.14 434.164
1320 0 80.2599 12.2477 983 117.375 652.703 436.272
1321 0 88.2603 16.7573 1479 109.288 653.984 433.631
1322 0 89.3706 15.7323 1406 113.383 653.697 430.753
1323 0 90.2616 12.9069 1165 116.62 655.498 435.809
1324 0 93.3568 12.5861 1175 120.683 656.174 430.152
1325 0 94.3135 12.7871 1206 124.214 656.357 435.181
1326 0 99.25 13.471 1337 123.203 657.491 433.662
1327 1 57.2642 12.1717 697 119.828 656.208 455.397
1328 0 59.2213 11.3473 672 121.168 657.604 455.405
1329 0 60.1237 11.8256 711 119.661 658.724 458.916
1330 0 61.385 12.2668 753 122.191 658.96 454.024
1331 0 62.1585 11.3902 708 119.821 660.373 457.162
1332 0 63.1676 15.3876 972 113.143 660.864 454.637
1333 0 69.2424 14.0521 973 113.378 662.054 457.038
1334 0 69.1221 14.2067 982 114.669 660.477 455.003
1335 0 67.171 10.7785 724 122.001 662.211 454.89
1336 0 72.1653 22.102 1595 103.893 660.631 454.473
1337 0 73.1824 16.0148 1172 112.978 660.403 458.902
1338 0 76.2538 15.3697 1172 113.167 660.422 458.523
1339 0 76.1825 13.1001 998 118.222 659.945 457.008
1340 0 80.2002 15.6234 1253 115.164 658.805 453.572
1341 0 82.2945 14.5939 1201 116.87 658.678 451.695
1342 0 84.2162 15.0446 1267 115.059 657.302 458.013
1343 0 84.1196 14.1703 1192 117.986 657.443 455.173
1344 0 91.3606 15.1488 1384 116.171 656.115 452.702
1345 0 92.1958 14.0245 1293 118.992 656.429 450.804
1346 0 94.5569 14.1291 1336 118.992 655.283 448.088
1347 0 95.1452 12.2234 1163 122.684 655.263 449.092
1348 0 100.278 15.3273 1537 117.647 654.344 443.403
1349 0 101.241 15.5964 1579 118.156 652.564 439.788
1350 0 102.428 13.3752 1370 125.247 652.15 442.445
1351 0 100.596 12.0581 1213 128.318 651.46 441.542
1352 0 107.215 10.9873 1178 127.322 651.957 438.899
1353 0 110.25 12.0182 1325 126.595 651.278 430.155
1354 0 115.209 12.5597 1447 124.421 652.315 431.218
1355 0 120.382 14.2214 1712 122.511 650.395 426.85
1356 0 123.257 13.7842 1699 123.039 651.35 422.287
1357 0 128.194 13.1753 1689 122.249 652.403 419.879
1358 0 132.573 15.8403 2100 122.052 652.191 409.69
1359 0 132.573 15.8177 2097 127.088 651.199 409.912
1360 0 143.375 12.4499 1785 124.258 650.851 414.302
1361 1 76.411 11.6344 889 120.011 652.195 436.148
1362 0 80.7195 9.91086 800 123.084 652.63 430.866
1363 0 83.6103 11.8646 992 121.646 652.826 428.562
1364 0 85.5714 10.2838 880 123.566 653.138 426.394
1365 0 90.4551 13.7969 1248 118.358 654.398 426.254
1366 0 94.3634 12.7062 1199 121.932 654.029 423.911
1367 0 97.5934 12.3062 1201 123.137 656.193 420.897
1368 0 102.779 13.5242 1390 121.606 656.864 427.727
1369 0 107.588 17.1209 1842 115.903 657.06 424.859
1370 0 108.453 11.1754 1212 126.663 657.177 423.535
1371 0 114.927 13.9219 1600 122.246 658.539 418.773
1372 0 118.631 14.4903 1719 121.153 658.738 421.617
1373 0 118.631 14.583 1730 126.992 659.716 421.578
1374 1 65.255 12.7653 833 115.341 658.409 450.887
1375 0 68.2021 10.1463 692 118.374 659.405 453.288
1376 0 71.2711 12.3332 879 115.871 658.634 448.768
1377 0 73.44 11.4788 843 116.352 658.559 451.878
1378 0 75.1836 10.8135 813 118.004 657.841 447.381
1379 0 81.3435 12.3427 1004 114.714 658.326 450.193
1380 0 82.189 11.8629 975 115.091 656.067 455.029
1381 0 84.1427 10.8744 915 117.927 656.729 453.027
1382 0 89.3525 11.6952 1045 115.99 655.964 451.228
1383 0 91.4445 12.7946 1170 115.015 657.278 446.964
1384 0 93.3828 10.8157 1010 118.631 656.719 441.479
1385 0 93.3828 10.8371 1012 125.493 655.727 441.674
1386 0 104.597 9.99072 1045 119.197 654.974 447.427
1387 0 100.577 10.4596 1052 122.26 655.655 436.486
1388 0 109.48 11.098 1215 119.1 653.309 443.435
1389 0 109.498 13.224 1448 117.771 653.831 438.004
1390 0 111.365 11.817 1316 121.062 653.576 435.239
1391 1 62.1301 10.0112 622 120.365 652.087 463.518
1392 0 65.2779 13.6187 889 114.202 653.475 458.204
1393 0 67.2098 13.2124 888 113.402 653.098 456.777
1394 0 71.1666 12.534 892 117.675 653.496 458.348
1395 0 72.1282 13.6978 988 116.885 653.745 453.978
1396 0 74.0852 13.7679 1020 116.532 653.116 455.224
1397 0 75.112 12.3948 931 118.768 655.098 451.447
1398 0 79.1113 12.691 1004 118.257 653.425 448.994
1399 0 80.1552 12.2762 984 119.892 654.799 443.685
1400 0 85.3329 15.9141 1358 112.455 653.097 446.274
1401 0 90.1278 14.8789 1341 113.398 653.548 444.419
1402 0 90.1802 11.6434 1050 120.596 653.613 438.813
1403 0 94.2556 13.474 1270 116.687 653.181 437.514
1404 0 94.2556 13.4846 1271 138.997 654.184 437.54
1405 1 54.1599 12.537 679 110.642 653.398 458.539
1406 0 55.0443 12.4445 685 111.911 654.228 453.204
1407 0 58.1642 10.8314 630 111.924 653.573 456.584
1408 0 57.1834 10.6499 609 114.296 654.021 454.31
1409 0 59.0936 10.9149 645 113.437 654.554 453.912
1410 0 61.0663 9.84176 601 112.331 655.972 457.045
1411 0 63.0931 14.8352 936 106.667 656.499 456.148
1412 0 63.1077 11.726 740 113.93 656.991 449.05
1413 0 66.184 12.1933 807 112.803 657.233 452.357
1414 0 68.1583 12.0308 820 113.638 657.462 452.97
1415 0 69.2557 12.7065 880 112.674 657.798 447.801
1416 0 72.069 11.8081 851 110.946 658.429 455.954
1417 0 75.2001 11.25 846 114.739 659.759 447.468
1418 0 77.1755 12.8927 995 111.368 659.286 453.393
1419 0 78.1541 11.5669 904 115.487 659.281 447.393
1420 0 82.1626 11.2947 928 116.43 659.387 449.999
1421 0 86.3156 12.0488 1040 115.456 658.293 453.887
1422 0 90.2815 14.2 1282 112.962 658.746 447.572
1423 1 53.084 12.5838 668 112.428 658.368 468.186
1424 0 55.0746 9.38727 517 117.406 658.114 466.886
1425 0 53.0516 8.23726 437 120.233 657.609 466.645
1426 0 58.3001 13.602 793 111.798 656.937 468.194
1427 0 58.107 9.17274 533 120.694 658.409 467.349
1428 0 60.1801 12.3463 743 115.791 657.946 469.257
1429 0 60.1147 10.5631 635 114.888 656.718 468.205
1430 0 63.1794 12.2983 777 112.332 655.282 467.947
1431 0 62.0693 11.4066 708 114.72 654.089 463.92
1432 0 66.2203 10.6765 707 115.808 653.601 463.83
1433 0 69.2703 12.8771 892 113.178 653.799 461.606
1434 0 70.2483 13.2103 928 113.53 652.211 456.011
1435 0 71.3088 12.8455 916 114.896 652.743 454.249
1436 0 74.33 15.0814 1121 110.979 650.828 456.149
1437 0 75.302 10.9293 823 118.343 651.865 455.01
1438 0 77.1569 10.7832 832 119.603 651.601 450.282
1439 0 79.3124 10.5154 834 121.825 650.077 447.778
1440 0 85.1769 11.1298 948 119.56 650.93 449.636
1441 0 90.5615 16.5302 1497 111.167 650.929 444.039
1442 0 92.3302 12.7261 1175 118.367 650.615 439.381
1443 1 46.1431 8.10522 374 125.428 650.094 460.938
1444 0 48.1083 8.29379 399 125.8 649.596 460.471
1445 0 52.184 9.9839 521 123.15 651.536 456.207
1446 0 52.1882 10.328 539 117.622 653.486 456.996
1447 0 55.1752 13.8287 763 112.927 655.928 456.307
1448 0 54.116 11.6601 631 117.838 653.57 453.439
1449 0 59.3333 14.1742 841 111.987 655.108 453.749
1450 0 60.2113 11.4596 690 118.375 656.635 450.793
1451 0 60.1922 9.43644 568 121.745 656.032 451.467
1452 0 62.2868 12.6672 789 116.084 657.101 452.577
1453 0 62.1543 11.6323 723 120.006 657.447 450.062
1454 0 66.1773 12.9803 859 117.534 658.955 449.896
1455 0 65.2481 10.713 699 122.308 659.292 450.629
1456 0 71.284 14.309 1020 115.126 658.977 450.284
1457 0 70.2522 11.8146 830 121.857 659.651 447.26
1458 0 75.1024 12.8491 965 118.621 661.049 450.619
1459 0 75.1076 13.221 993 120.653 659.739 445.809
1460 0 76.1509 12.554 956 121.045 661.172 450.029
1461 0 80.4062 10.9444 880 123.402 661.036 447.945
1462 0 81.3676 11.6877 951 122.85 659.56 447.57
1463 0 87.4227 15.4079 1347 115.873 660.056 447.442
1464 0 84.1929 10.8441 913 125.839 659.161 447.297
1465 0 89.1532 13.2693 1183 121.395 659.625 447.184
1466 0 94.2329 13.5515 1277 120.316 660.512 446.359
1467 0 96.3437 11.9364 1150 122.602 659.054 447.857
1468 0 101.487 14.9872 1521 117.956 658.442 440.909
1469 0 102.405 14.6769 1503 118.261 658.237 445.941
1470 1 56.1016 12.3882 695 120.18 658.568 464.886
1471 0 58.08 13.6019 790 118.018 657.478 464.399
1472 0 59.2494 12.152 720 121.614 656.056 460.506
1473 0 63.3151 13.6618 865 118.634 654.235 462.09
1474 0 64.2395 15.0998 970 116.897 653.969 461.03
1475 0 65.2232 13.2622 865 120.503 653.688 458.909
1476 0 69.3932 13.6613 948 117.437 651.993 455.572
1477 0 71.4686 16.5807 1185 112.928 652.878 452.425
1478 0 73.3502 11.7927 865 121.494 652.043 454.327
1479 0 76.3175 16.3265 1246 113.518 651.748 450.615
1480 0 78.2677 12.6489 990 120.464 651.436 449.571
1481 0 82.3785 15.0646 1241 115.626 650.919 448.125
1482 0 83.4554 16.3441 1364 114.992 651.52 443.555
1483 0 85.4055 13.231 1130 121.647 651.981 443.015
1484 0 88.3786 15.1055 1335 117.078 651.578 440.938
1485 0 90.4523 13.4325 1215 121.002 651.084 435.622
1486 0 92.2045 12.0818 1114 122.196 651.407 438.218
1487 0 96.2009 14.2514 1371 119.737 650.588 430.874
1488 0 98.3622 12.0676 1187 124.191 649.57 430.351
1489 0 98.3608 12.0678 1187 135.993 649.57 430.205
1490 0 103.114 11.2399 1159 125.651 651.348 428.476
1491 0 108.338 13.6333 1477 121.943 653.265 423.838
1492 0 111.19 13.5533 1507 121.911 654.332 424.196
1493 0 114.191 13.7489 1570 122.933 654.928 422.2
1494 1 60.0415 15.3394 921 117.789 655.833 449.036
1495 0 65.1 11.1521 726 125.632 656.291 444.864
1496 0 67.1562 14.0717 945 120.235 657.455 441.943
1497 0 70.1856 14.9461 1049 118.332 657.896 440.296
1498 0 74.3063 13.552 1007 119.095 657.576 444.2
1499 0 75.1621 14.8479 1116 116.429 659.326 445.556
1500 0 76.1602 13.7867 1050 119.16 658.714 442.752
1501 0 78.2854 13.2336 1036 120.011 659.831 444.968
1502 0 86.2921 14.4277 1245 117.259 660.202 443.191
1503 0 86.1836 12.6242 1088 121.156 660.563 442.507
1504 0 86.314 16.0113 1382 115.908 660.371 439.608
1505 0 89.0727 15.5603 1386 117.234 660.188 441.183
1506 0 92.2471 14.9381 1378 118.198 660.846 441.765
1507 0 95.2229 15.2904 1456 118.132 660.087 440.247
1508 0 95.1386 12.0981 1151 124.117 660.688 441.222
1509 0 95.207 11.3122 1077 126.854 659.947 439.426
1510 0 101.323 13.8468 1403 121.099 660.133 442.901
1511 0 106.329 15.3674 1634 118.92 658.051 440.387
1512 0 105.418 12.9105 1361 125.141 658.331 440.888
1513 0 109.325 14.3426 1568 120.344 658.44 446.342
1514 0 117.252 16.1874 1898 118.167 658.344 438.084
1515 1 59.1908 9.34267 553 122.633 657.114 466.137
1516 0 59.1908 9.34267 553 149.557 655.118 466.065
1517 0 64.156 12.9216 829 110.1 653.976 460.941
1518 0 66.1832 11.6797 773 114.532 654.462 454.484
1519 0 69.167 11.3927 788 115.621 653.325 454.008
1520 0 73.1922 11.9548 875 113.368 653.061 452.085
1521 0 70.3264 11.7595 827 116.573 653.021 448.383
1522 0 79.2725 9.47365 751 121.509 651.896 448.672
1523 0 77.4779 11.3581 880 120.009 651.556 440.738
1524 0 78.3154 13.1647 1031 117.756 650.558 439.187
1525 0 83.293 11.7657 980 120.101 650.444 437.405
1526 0 83.4135 11.449 955 120.24 651.119 438.02
1527 0 87.5212 11.003 963 125.148 650.729 445.21
1528 0 89.4861 13.991 1252 121.391 651.444 436.965
1529 0 91.5077 11.4854 1051 125.28 650.924 440.386
1530 0 93.7012 10.192 955 127.92 652.084 439.692
1531 0 98.9544 12.4199 1229 125.33 650.802 430.492
1532 0 100.31 12.8103 1285 124.623 652.803 429.349
1533 0 106.22 15.1761 1612 121.62 654.519 428.864
1534 0 108.572 14.6907 1595 123.449 654.776 424.172
1535 0 111.476 14.1016 1572 126.268 653.322 423.205
1536 0 114.381 15.2385 1743 122.959 655.518 427.978
1537 0 117.538 13.9274 1637 126.027 655.991 423.252
1538 0 124.48 13.4479 1674 127.431 656.102 416.272
1539 0 123.305 12.5948 1553 126.939 657.024 415.785
1540 0 131.297 15.6744 2058 122.942 656.701 411.42
1541 0 132.387 11.7081 1550 130.143 657.288 407.914
1542 0 137.518 14.26 1961 124.739 657.657 408.793
1543 1 77.2369 10.6814 825 121.044 657.79 443.697
1544 0 71.2392 10.5841 754 124.511 658.397 440.867
1545 0 77.2175 13.0281 1006 119.528 658.992 441.857
1546 0 76.3842 9.68786 740 127.989 658.705 439.627
1547 0 81.333 13.2173 1075 121.908 658.582 436.793
1548 0 82.2001 13.382 1100 121.969 659.2 439.982
1549 0 85.4519 15.6462 1337 119.343 658.387 438.868
1550 0 86.1431 12.3515 1064 129.661 657.624 443.337
1551 0 93.2054 14.9884 1397 124.184 657.621 439.948
1552 0 93.2055 13.5936 1267 128.039 657.363 436.143
1553 1 179.274 11.8199 2119 135.022 657.662 401.168
1554 1 101.217 13.6143 1378 126.504 658.03 438.377
1555 0 104.161 13.028 1357 129.13 656.104 436.399
1556 0 108.351 13.6963 1484 128.473 656.749 433.125
1557 0 112.509 16.7987 1890 122.904 656.149 432.375
1558 0 115.33 18.4775 2131 119.036 654.694 434.781
1559 0 117.357 14.2471 1672 126.542 654.737 425.884
1560 1 130.459 13.7668 1796 124.102 654.138 433.843
1561 0 125.309 13.0716 1638 129.766 653.61 420.053
1562 0 127.337 14.8425 1890 127.084 653.72 411.719
1563 0 132.337 20.5158 2715 117.041 654.723 411.127
1564 0 137.392 12.7519 1752 132.245 654.06 408.668
1565 0 140.224 16.0101 2245 126.928 653.197 410.822
1566 0 145.356 14.633 2127 130.471 653.63 410.175
1567 0 149.379 14.5201 2169 131.268 653.414 404.549
1568 0 154.268 16.4778 2542 128.421 652.689 401.898
1569 0 158.662 15.095 2395 132.534 652.383 406.75
1570 0 160.411 14.5252 2330 136.664 651.418 399.491
1571 0 168.204 15.1721 2552 134.724 652.506 402.091
1572 0 173.298 18.5807 3220 128.792 653.015 395.208
1573 0 177.658 15.558 2764 136.687 652.964 389.809
1574 0 182.436 15.7974 2882 137.328 652.769 383.498
1575 0 187.446 15.2898 2866 139.21 653.79 387.649
1576 0 194.538 16.074 3127 137.956 653.102 381.037
1577 0 197.476 15.45 3051 140.54 654.028 380.744
1578 0 204.509 18.0921 3700 135.778 653.689 374.546
1579 0 204.516 18.1893 3720 143.627 653.696 374.611
1580 0 213.568 14.1922 3031 147.26 654.56 365.137
1581 1 170.422 9.88138 1684 150.179 654.488 397.664
1582 0 170.418 11.8708 2023 146.955 654.45 397.277
1583 0 171.428 12.3317 2114 148.521 655.21 392.596
1584 0 180.316 14.0974 2542 144.456 655.764 389.683
1585 0 184.378 14.4052 2656 146.068 656.988 377.857
1586 1 197.416 12.385 2445 148.477 657.743 386.851
1587 0 196.442 16.977 3335 140.83 656.659 381.831
1588 0 203.446 13.3352 2713 149.384 657.559 374.325
1589 0 211.304 15.3949 3253 144.944 659.018 373.419
1590 0 217.428 16.9527 3686 141.929 658.953 367.716
1591 0 225.402 17.3557 3912 141.121 659.395 368.633
1592 0 228.495 14.2279 3251 149.4 657.973 363.838
1593 0 236.649 15.3815 3640 146.52 658.964 367.478
1594 0 242.518 14.704 3566 149.755 658.531 357.325
1595 1 60.0543 10.8402 651 128.326 658.823 456.776
1596 0 62.1318 10.9767 682 126.491 657.106 461.361
1597 0 58.1323 10.4761 609 124.952 656.911 462.534
1598 0 62.1173 9.57865 595 127.039 656.924 464.366
1599 0 66.06 9.44596 624 125.973 656.04 467.433
1600 0 65.1699 11.3089 737 124.365 656.024 461.141
1601 0 67.1192 11.5317 774 123.366 653.804 459.486
1602 0 70.4128 10.2112 719 125.131 654.164 459.234
1603 0 74.1557 8.83277 655 127.808 653.298 451.234
1604 0 75.1228 8.49276 638 128.752 651.752 456.053
1605 0 80.2463 10.1438 814 122.989 651.053 461.447
1606 0 81.2832 7.76298 631 129.68 650.534 447.011
1607 0 85.255 10.1343 864 123.146 651.744 452.581
1608 0 87.3174 9.34521 816 125.879 650.727 448.811
1609 0 90.3165 8.02733 725 130.055 651 440.378
1610 0 92.3121 9.44622 872 132.95 650.727 441.924
1611 0 94.9426 10.2483 973 129.23 651.86 439.466
1612 0 96.4734 10.4381 1007 126.698 652.013 445.973
1613 0 100.512 11.3022 1136 127.783 651.468 434.102
1614 0 101.694 8.8992 905 132.71 651.536 432.322
1615 0 106.45 7.87225 838 133.734 651.424 434.786
1616 1 63.1713 8.37406 529 124.471 655.232 457.399
1617 0 65.1899 10.4924 684 124.836 655.088 449.616
1618 0 65.1179 9.15263 596 127.255 654.067 452.421
1619 0 74.1052 14.0341 1040 115.581 654.282 443.144
1620 0 75.1499 15.0898 1134 114.242 655.785 444.601
1621 0 73.1412 12.428 909 119.457 654.959 446.428
1622 0 73.1716 11.3159 828 122.89 655.971 445.572
1623 0 78.1999 14.0793 1101 118.104 654.514 443.28
1624 0 77.2283 12.4695 963 122.452 656.342 443.001
1625 0 81.1572 12.8146 1040 123.459 658.434 443.154
1626 0 82.1018 13.398 1100 123.507 658.976 440.858
1627 0 85.1678 12.8452 1094 125.168 659.613 438.057
1628 0 84.2005 10.8907 917 130.161 660.137 438.481
1629 0 89.2447 13.2557 1183 126.06 660.695 438.394
1630 0 92.1233 14.828 1366 124.107 660.788 436.456
1631 0 93.2091 14.9771 1396 123.4 661.053 440.001
1632 0 93.2091 15.02 1400 143.024 661.078 439.875
1633 0 98.2418 13.5889 1335 128.259 661.103 436.074
1634 0 102.306 14.6912 1503 126.137 662.444 433.862
1635 0 102.346 12.321 1261 129.513 660.854 432.226
1636 0 105.272 14.3438 1510 125.851 660.924 434.702
1637 0 108.279 13.4745 1459 130.67 659.239 434.55
1638 0 114.404 13.6534 1562 125.378 658.33 436.824
1639 1 62.104 9.96715 619 131.258 657.603 461.276
1640 0 64.1523 13.5771 871 126.006 656.844 460.411
1641 0 65.2591 11.7991 770 122.258 658.892 459.323
1642 0 65.2686 13.4827 880 129.323 659.799 457.635
1643 0 69.1041 12.1266 838 123.297 657.699 457.079
1644 0 70.0677 11.2605 789 125.965 655.645 453.757
1645 0 73.1026 13.2827 971 121.573 654.463 453.406
1646 0 73.1026 13.269 970 128.011 653.444 453.126
1647 0 76.2317 11.5175 878 125.456 653.301 453.259
1648 0 79.1678 13.8819 1099 122.079 652.51 450.926
1649 0 80.4176 12.8081 1030 124.397 653.206 448.137
1650 0 84.1913 13.0892 1102 124.165 651.463 445.83
1651 0 85.1447 12.4611 1061 125.561 652.355 444.498
1652 0 89.2133 14.1907 1266 122.617 652.498 443.09
1653 0 90.0992 14.029 1264 122.719 651.939 440.257
1654 0 93.2004 13.2725 1237 124.572 650.927 437.617
1655 0 96.2402 14.1521 1362 123.375 650.937 433.472
1656 0 97.2454 11.98 1165 127.817 650.318 432.32
1657 0 101.182 13.7278 1389 123.69 651.328 431.194
1658 0 102.336 10.3385 1058 131.529 651.389 423.703
1659 0 106.397 12.6508 1346 127.269 651.501 428.002
1660 0 109.346 13.4527 1471 127.287 651.403 423.76
1661 0 109.235 12.1481 1327 131.891 652.006 420.496
1662 1 60.1449 10.4415 628 127.745 652.325 446.646
1663 0 62.2084 12.0884 752 124.819 653.597 446.42
1664 0 63.1873 12.2493 774 127.897 652.817 441.85
1665 0 64.1278 10.0892 647 128.862 656.508 440.777
1666 0 67.097 14.3971 966 115.78 655.531 442.426
1667 0 67.0534 11.8115 792 121.534 656.299 439.75
1668 0 73.1361 12.005 878 120.047 656.428 440.459
1669 0 75.071 14.8526 1115 123.615 656.084 442.848
1670 0 75.1405 13.7875 1036 125.345 655.823 445.821
1671 0 79.1132 13.7398 1087 124.944 656.606 442.703
1672 0 84.1367 11.8854 1000 127.911 656.775 442.448
1673 0 87.1254 13.8536 1207 124.812 657.867 438.136
1674 0 86.1296 12.8179 1104 127.574 657.41 435.247
1675 0 88.1256 11.7446 1035 129.83 657.4 437.945
1676 0 93.3059 15.5939 1455 121.346 657.795 440.863
1677 0 96.1477 13.7081 1318 125.384 656.497 437.674
1678 0 100.326 15.4198 1547 121.59 657.733 437.755
1679 0 101.468 15.0786 1530 123.759 658.05 436.897
1680 0 103.171 13.5988 1403 127.17 657.11 435.105
1681 0 105.222 10.6822 1124 132.003 656.52 438.556
1682 0 106.179 12.6484 1343 129.298 657.112 433.656
1683 0 112.217 13.964 1567 127.207 655.896 434.304
1684 0 113.366 11.7407 1331 132.588 656.653 436.724
1685 0 113.366 11.7143 1328 127.156 657.648 436.862
1686 0 123.279 15.0067 1850 127.546 654.869 430.882
1687 0 126.289 13.0256 1645 131.661 654.596 426.917
1688 1 69.0858 10.7837 745 131.591 653.37 454.954
1689 0 71.0485 12.597 895 127.731 651.884 450.73
1690 0 72.3526 10.3244 747 132.088 653.989 453.553
1691 0 73.1153 12.3777 905 124.09 651.514 451.435
1692 0 75.0786 10.216 767 122.336 650.412 447.92
1693 0 77.0872 9.49574 732 124.602 650.5 447.122
1694 0 79.1529 10.3218 817 122.69 650.998 439.989
1695 0 79.1528 13.2276 1047 118.144 651.118 440.358
1696 0 81.1327 10.1685 825 125.202 651.301 440.44
1697 0 87.1065 13.7762 1200 118.212 650.937 440.847
1698 0 89.1249 11.6466 1038 122.871 650.598 435.035
1699 0 89.1668 13.2112 1178 121.194 651.054 433.911
1700 0 92.1134 11.1276 1025 124.765 651.415 426.76
1701 0 94.2051 9.07594 855 128.091 652.002 430.926
1702 0 97.3387 13.2219 1287 129.23 651.015 432.401
1703 0 102.411 12.1374 1243 130.716 652.145 431.438
1704 1 57.1484 8.55668 489 138.391 651.798 449.133
1705 0 57.119 12.5527 717 129.543 653.727 451.449
1706 0 57.29 13.9291 798 128.625 653.274 447.421
1707 0 60.1972 12.2597 738 131.327 654.126 448.817
1708 0 61.1098 13.5821 830 129.294 654.825 446.875
1709 0 61.1616 10.693 654 136.456 656.355 445.381
1710 0 68.0751 11.8839 809 133.043 653.731 443.659
1711 0 67.1055 13.2925 892 128.975 654.638 447.754
1712 0 71.17 13.6574 972 129.185 655.012 445.772
1713 0 72.0774 11.8761 856 133.376 655.638 443.929
1714 0 70.1439 12.4743 875 133.559 657.224 443.107
1715 0 73.1001 11.2175 820 135.101 658.98 445.187
1716 0 77.41 14.7914 1145 129.119 659.502 439.654
1717 0 77.41 14.8301 1148 134.936 660.52 439.582
1718 0 81.1497 13.0623 1060 130.747 659.808 446.337
1719 0 84.1384 10.8512 913 135.306 660.914 446.342
1720 0 89.3652 13.8645 1239 130.207 660.446 441.726
1721 0 93.1341 15.3864 1433 127.017 660.512 445.306
1722 0 89.2697 11.9637 1068 136.373 659.457 443.541
1723 0 95.4292 11.1077 1060 136.849 660.199 445.324
1724 0 97.1558 12.9174 1255 135.576 658.542 440.696
1725 0 100.151 13.6493 1367 134.958 657.98 440.742
1726 0 104.23 15.3603 1601 130.415 658.608 443.819
1727 0 103.162 11.6419 1201 139.705 657.989 442.627
1728 0 106.305 12.6804 1348 138.768 656.365 440.042
1729 0 110.252 11.7458 1295 139.219 656.71 440.793
1730 0 113.347 12.6073 1429 139.641 653.292 436.961
1731 0 117.165 13.1011 1535 138.311 654.773 435.878
1732 0 121.225 13.2151 1602 137.846 653.97 435.768
1733 0 123.192 14.4571 1781 131.707 653.748 432.924
1734 0 123.199 14.57 1795 148.549 653.762 433.1
1735 1 75.2082 10.7036 805 133.161 652.8 453.706
1736 0 74.2716 11.9561 888 131.965 651.744 451.027
1737 0 78.2274 11.5177 901 133.669 651.179 446.103
1738 0 82.2354 14.653 1205 129.315 651.344 437.061
1739 0 81.2415 12.9367 1051 136.26 651.36 429.351
1740 0 85.3137 15.5192 1324 128.412 651.51 433.912
1741 0 86.3114 14.0538 1213 133.66 650.942 430.716
1742 0 89.207 14.8867 1328 131.876 652.053 428.596
1743 0 92.4203 13.655 1262 134.847 651.654 425.473
1744 0 95.5215 14.0911 1346 134.007 651.475 425.848
1745 0 96.2635 13.6708 1316 136.801 652.395 424.93
1746 0 97.3042 13.7199 1335 136.864 652.846 427.798
1747 0 101.42 14.0899 1429 137.065 652.627 427.378
1748 0 104.386 14.7338 1538 135.234 654.211 427.725
1749 0 107.292 16.3665 1756 133.194 654.793 421.613
1750 0 109.297 13.7973 1508 138.983 654.916 421.104
1751 0 113.233 15.1282 1713 134.936 655.401 421.351
1752 0 114.291 13.4044 1532 141.067 655.845 414.976
1753 1 60.1649 9.95598 599 134.536 656.139 445.755
1754 0 66.1908 12.8417 850 128.113 657.593 450.899
1755 0 68.1497 12.5459 855 129.615 657.729 450.053
1756 0 67.2602 11.8495 797 132.213 657.454 449.294
1757 0 67.2865 14.2525 959 128.372 657.265 446.396
1758 0 73.1372 13.9601 1021 128.207 658.107 446.452
1759 0 76.1059 12.8505 978 129.579 659.667 449.373
1760 0 79.2437 14.7898 1172 126.625 660.689 448.69
1761 0 81.2438 14.2657 1159 127.783 660.569 448.681
1762 0 81.2266 14.7858 1201 128.569 659.704 446.216
1763 0 86.199 15.9399 1374 125.23 660.425 448.582
1764 0 87.2629 13.1098 1144 132.257 660.114 446.656
1765 0 90.147 13.8662 1250 130.603 658.809 444.359
1766 0 92.2386 12.8146 1182 133.475 659.106 443.091
1767 0 95.2419 13.2715 1264 132.999 658.652 442.898
1768 0 96.3001 13.3956 1290 131.355 658.663 447.232
1769 0 101.373 13.9386 1413 130.875 658.7 441.679
1770 0 102.166 11.589 1184 136.677 656.839 437.041
1771 0 108.485 11.2919 1225 136.246 657.181 441.992
1772 0 112.204 13.2081 1482 132.825 655.723 436.912
1773 0 115.249 14.4469 1665 130.668 656.496 435.435
1774 0 120.42 15.2383 1835 129.063 654.604 431.915
1775 0 124.4 13.7299 1708 132.121 654.776 432.539
1776 1 66.0745 12.5616 830 129.36 653.132 459.894
1777 0 71.1566 13.3087 947 126.799 652.257 456.766
1778 0 71.3008 16.0727 1146 124.396 651.277 456.638
1779 0 74.2532 16.9016 1255 124.021 650.833 454.76
1780 0 74.1992 14.1646 1051 130.246 650.211 452.022
1781 0 75.2072 12.2196 919 134.182 649.65 453.228
1782 0 79.194 14.1299 1119 130.979 650.324 450.612
1783 0 81.2399 14.4879 1177 130.229 650.038 449.966
1784 0 83.5417 11.6588 974 136.392 649.832 443.485
1785 0 86.5837 14.333 1241 132.064 649.778 441.369
1786 0 87.1186 14.7156 1282 130.645 649.341 441.686
1787 0 91.2399 15.8922 1450 128.082 649.692 439.932
1788 0 89.2034 13.3515 1191 136.642 649.939 436.135
1789 0 93.1678 13.9963 1304 135.49 650.413 433.877
1790 0 93.2437 12.4405 1160 140.275 650.84 432.146
1791 0 99.1618 13.7553 1364 135.661 651.751 432.606
1792 0 102.245 11.9125 1218 141.085 651.448 429.484
1793 0 104.167 15.0624 1569 133.978 652.96 428.854
1794 0 107.376 13.1315 1410 137.989 652.567 428.215
1795 0 109.235 11.5348 1260 143.121 654.187 421.379
1796 1 64.188 11.8714 762 135.307 653.64 447.99
1797 0 66.1977 14.0337 929 132.05 655.68 452.843
1798 0 70.1802 13.0664 917 135.037 656.122 451.551
1799 0 70.1536 11.4748 805 134.18 656.96 452.323
1800 0 70.2414 11.8022 829 134.236 657.661 450.995
1801 0 73.0896 12.6968 928 133.95 658.56 448.591
1802 0 73.0882 12.738 931 131.264 659.555 448.551
1803 0 75.1575 9.89921 744 140.371 658.573 446.755
1804 0 81.1749 14.8691 1207 129.998 659.194 449.953
1805 0 83.1682 12.084 1005 135.458 659.795 448.94
1806 0 87.233 12.4953 1090 135.71 658.891 449.225
1807 0 90.3551 12.7386 1151 135.571 658.886 448.447
1808 0 92.1567 13.8677 1278 134.142 659.243 449.737
1809 0 95.1245 13.025 1239 139.468 658.178 447.84
1810 0 97.2947 15.3862 1497 136.42 657.963 446.959
1811 0 100.243 13.8164 1385 140.508 656.148 445.845
1812 0 105.253 16.2941 1715 134.688 657.168 446.226
1813 0 104.392 17.4534 1822 133.466 657.282 448.506
1814 0 106.375 13.9413 1483 143.924 655.978 443.092
1815 0 111.435 13.4877 1503 144.633 655.226 442.023
1816 0 120.382 12.8009 1541 143.396 654.963 442.51
1817 0 119.316 13.6277 1626 143.568 653.207 435.654
1818 0 121.273 13.5561 1644 142.821 653.217 433.486
1819 0 124.316 12.5487 1560 144.673 652.69 429.009
1820 0 128.21 15.9349 2043 136.688 652.188 424.047
1821 0 130.339 15.498 2020 138.557 652.405 421.355
1822 0 138.412 14.6592 2029 140.249 650.887 422.462
1823 0 140.463 15.2567 2143 139.789 650.932 409.675
1824 0 142.336 15.4494 2199 140.939 651.336 411.964
1825 0 147.605 16.3884 2419 138.134 651.703 410.11
1826 0 151.519 18.8755 2860 132.557 651.34 411.264
1827 0 154.556 15.3278 2369 142.416 651 403.72
1828 0 154.264 15.0586 2323 144.163 651.499 406.976
1829 0 162.417 17.0117 2763 138.683 651.889 404.86
1830 0 166.626 16.174 2695 141.686 651.16 398.404
1831 0 173.4 15.4383 2677 143.857 651.148 392.106
1832 0 175.669 14.9428 2625 146.254 651.635 387.966
1833 1 90.3912 12.3021 1112 139.692 651.037 430.764
1834 0 93.2765 13.1223 1224 145.824 651.4 436.054
1835 0 97.2023 16.0078 1556 138.792 653.819 435.75
1836 0 101.645 14.59 1483 141.971 652.076 433.514
1837 0 101.39 13.8968 1409 144.009 654.28 431.896
1838 0 107.246 15.9539 1711 138.19 654.953 428.243
1839 0 109.263 14.909 1629 140.7 655.572 427.85
1840 0 114.205 17.3372 1980 135.943 655.394 424.736
1841 0 117.189 15.3513 1799 140.798 656.245 420.299
1842 0 119.188 15.0854 1798 139.462 656.325 422.11
1843 0 123.435 14.3072 1766 141.1 656.865 420.367
1844 0 125.198 14.5928 1827 140.153 658.421 419.525
1845 0 128.314 15.6569 2009 139.26 657.943 418.118
1846 0 131.55 15.1121 1988 141.651 657.092 417.3
1847 0 134.308 12.5532 1686 148.477 659.111 410.728
1848 0 141.432 15.0531 2129 142.972 657.49 415.826
1849 0 145.407 14.2428 2071 144.935 658.391 404.945
1850 0 151.575 14.4021 2183 142.919 658.158 409.384
1851 1 79.4411 11.6438 925 139.032 658.848 444.723
1852 0 83.361 12.3319 1028 139.31 659.168 446.238
1853 0 82.1858 12.6299 1038 141.445 658.052 444.408
1854 0 87.0704 15.1257 1317 135.879 658.468 443.08
1855 0 88.0985 12.8606 1133 141.777 659.079 443.065
1856 0 91.3619 14.5575 1330 137.824 657.702 442.191
1857 0 93.2634 14.518 1354 137.982 657.832 442.782
1858 0 92.1769 12.4435 1147 144.421 656.272 438.087
1859 0 100.132 14.5009 1452 136.195 655.665 439.677
1860 0 100.129 11.7648 1178 144.06 655.313 437.423
1861 0 104.235 15.2252 1587 136.057 654.022 439.12
1862 0 108.357 14.8952 1614 138.132 653.094 435.776
1863 0 109.256 14.9648 1635 138.398 651.254 429.554
1864 0 114.146 14.4201 1646 140.363 651.281 429.702
1865 0 114.262 14.5805 1666 140.053 651.597 428.813
1866 0 114.262 14.598 1668 147.868 651.578 428.79
1867 0 122.321 14.1922 1736 140.851 650.54 423.972
1868 0 126.308 13.6017 1718 141.57 650.141 421.6
1869 0 131.308 14.3403 1883 140.489 650.479 416.687
1870 0 135.343 16.8387 2279 134.027 649.903 418.186
1871 0 135.343 16.8165 2276 132.935 649.895 418.059
1872 0 142.294 15.0042 2135 139.673 649.756 410.446
1873 1 72.2624 11.4721 829 139.638 650.719 443.875
1874 0 76.109 12.4295 946 137.616 649.255 444.172
1875 0 81.3609 14.2575 1160 136.216 649.439 445.428
1876 0 82.2763 14.4635 1190 137.908 650.812 440.268
1877 0 83.2765 14.1937 1182 138.814 651.141 441.916
1878 0 87.3979 13.6845 1196 140.916 651.345 438.217
1879 0 88.2822 11.4972 1015 145.573 652.246 435.999
1880 0 88.2822 11.5086 1016 147.501 653.222 435.935
1881 0 95.375 12.8965 1230 142.477 653.959 434.518
1882 0 99.3034 15.1556 1505 137.179 653.88 431.748
1883 0 99.498 12.3118 1225 145.401 655.331 425.829
1884 0 101.503 13.1819 1338 143.268 656.212 426.486
1885 0 107.535 13.6886 1472 140.255 656.727 427.866
1886 0 114.406 15.7597 1803 135.078 656.591 424.319
1887 0 115.562 14.5463 1681 136.519 656.594 428.212
1888 0 118.448 13.0353 1544 140.592 657.148 425.372
1889 0 122.449 13.1647 1612 139.113 656.989 426.565
1890 0 126.443 14.4571 1828 136.653 658.46 423.415
1891 0 131.644 15.5039 2041 135.732 656.697 417.754
1892 0 132.238 12.7876 1691 140.191 658.322 423.093
1893 0 139.423 13.2259 1844 140.064 658.029 419.224
1894 0 140.233 13.8341 1940 134.703 659.138 424.248
1895 0 146.421 12.2729 1797 138.605 657.282 415.952
1896 1 89.1743 10.8888 971 133.775 656.642 446.276
1897 0 95.2329 14.5328 1384 126.761 656.454 450.259
1898 0 97.3519 13.785 1342 130.253 656.914 444.862
1899 0 97.3995 12.382 1206 136.216 655.708 447.141
1900 0 105.243 13.7777 1450 133.714 654.83 444.721
1901 0 106.09 14.893 1580 131.808 654.082 446.377
1902 0 107.137 13.1048 1404 138.261 652.604 440.39
1903 0 113.174 14.0314 1588 135.579 651.916 440.659
1904 0 115.438 13.5138 1560 136.349 651.149 439.875
1905 0 116.407 11.8292 1377 140.59 650.826 438.369
1906 0 120.401 13.0481 1571 138.628 650.547 435.913
1907 0 123.27 12.5416 1546 141.342 650.373 430.81
1908 0 126.394 15.697 1984 132.646 650.017 435.401
1909 0 131.26 13.5076 1773 137.157 649.969 432.928
1910 0 135.312 14.1524 1915 137.264 648.503 429.209
1911 0 138.457 12.8704 1782 140.649 649.674 424.224
1912 0 136.201 12.2245 1665 142.866 648.592 424.688
1913 1 78.1518 10.454 817 131.848 650.397 445.633
1914 0 80.2595 12.3474 991 131.051 649.559 445.918
1915 0 82.1903 11.8384 973 132.855 650.571 449.078
1916 0 85.3618 12.9332 1104 131.119 650.098 447.818
1917 0 88.1826 13.7556 1213 132.293 650.822 439.055
1918 0 89.1476 15.9511 1422 121.817 650.984 445.721
1919 0 92.1859 13.527 1247 127.434 651.888 443.741
1920 0 94.1485 15.7092 1479 124.368 652.739 436.38
1921 0 94.3528 14.0006 1321 128.799 652.737 436.524
1922 0 97.295 13.2381 1288 130.931 653.12 436.205
1923 0 100.312 12.3714 1241 133.728 654.224 434.804
1924 0 103.36 15.4412 1596 127.719 653.669 432.674
1925 0 104.241 11.7612 1226 136.275 655.233 430.699
1926 0 110.251 14.5305 1602 130.194 655.762 429.202
1927 0 111.37 14.2947 1592 131.583 655.895 429.979
1928 0 112.284 13.635 1531 135.523 656.35 425.306
1929 0 116.331 12.0088 1397 137.686 656.868 427.291
1930 0 121.234 14.8061 1795 132.657 656.183 427.848
1931 0 125.334 15.327 1921 132.795 657.552 420.306
1932 0 128.231 12.5632 1611 139.99 657.707 419.232
1933 0 135.309 13.5911 1839 136.541 657.557 420.09
1934 0 140.237 11.9441 1675 138.269 659.303 423.669
1935 0 139.356 12.3424 1720 139.283 659.254 418.245
1936 0 148.404 12.8366 1905 137.812 658.755 417.694
1937 0 155.538 13.7394 2137 135.979 658.643 411.058
1938 0 159.482 12.3463 1969 138.319 657.567 414.244
1939 1 87.1311 14.7708 1287 128.605 656.611 440.071
1940 0 91.312 14.1164 1289 129.427 657.272 443.94
1941 0 91.1812 13.6432 1244 132.236 656.071 443.3
1942 0 95.2787 12.2273 1165 134.356 654.966 447.544
1943 0 97.239 13.1532 1279 133.385 654.421 445.93
1944 0 101.465 17.8189 1808 123.33 651.673 447.59
1945 0 104.287 15.9464 1663 127.948 653.621 442.876
1946 0 107.191 15.1225 1621 127.943 652.868 441.2
1947 0 106.333 13.4201 1427 133.827 651.468 436.989
1948 0 111.253 15.1187 1682 130.574 650.941 436.713
1949 0 115.357 12.925 1491 134.728 651.759 439.295
1950 0 117.28 13.8302 1622 135.009 650.485 437.053
1951 0 123.223 15.5571 1917 129.25 649.474 438.821
1952 0 126.206 13.9851 1765 134.163 649.394 434.697
1953 0 128.299 13.4686 1728 135.883 649.087 430.708
1954 0 134.24 13.8706 1862 134.945 650.354 429.074
1955 0 136.185 13.5257 1842 136.112 649.646 426.208
1956 0 139.409 16.6632 2323 129.37 649.628 425.119
1957 0 144.416 14.5205 2097 134.789 649.706 413.062
1958 0 149.334 16.5803 2476 129.303 648.969 416.753
1959 0 149.331 16.6007 2479 141.131 648.962 416.424
1960 0 158.459 13.6439 2162 134.675 649.897 413.977
1961 0 161.449 15.7325 2540 132.362 651.055 405.152
1962 0 163.276 14.0437 2293 135.487 650.536 406.273
1963 0 169.275 16.3521 2768 132.457 651.277 400.603
1964 0 173.493 15.0438 2610 133.089 652.523 404.316
1965 0 179.431 13.7824 2473 137.66 652.146 394.456
1966 0 182.305 13.9985 2552 137.752 653.264 387.476
1967 0 186.198 13.3621 2488 139.41 653.924 388.806
1968 0 194.438 14.2565 2772 136.794 654.799 392.526
1969 0 198.367 13.3439 2647 139.485 655.032 387.451
1970 0 203.31 15.0706 3064 136.06 655.863 381.788
1971 0 209.496 11.8523 2483 141.894 657.292 379.303
1972 0 221.381 17.4676 3867 129.076 656.914 378.525
1973 0 225.492 14.6701 3308 136.212 657.662 366.942
1974 0 233.403 16.1823 3777 133.929 657.426 360.582
1975 0 244.755 14.3981 3524 135.693 657.339 364.91
1976 0 252.938 15.1618 3835 135.602 657.593 358.214
1977 0 262.717 22.3549 5873 120.928 657.489 352.289
1978 1 61.2807 13.8543 849 129.642 655.808 453.947
1979 0 63.1862 14.4335 912 129.872 656.587 452.703
1980 0 66.3514 13.8505 919 129.251 656.464 449.548
1981 0 68.2821 13.5321 924 132.481 657.233 444.972
1982 0 68.242 14.7417 1006 130.278 657.066 447.233
1983 0 71.1901 13.5272 963 132.185 656.372 447.046
1984 0 72.3004 12.9045 933 134.049 655.113 446.728
1985 0 77.5247 14.8598 1152 129.664 656.109 447.565
1986 0 77.1428 13.4815 1040 133.175 654.572 446.993
1987 0 79.4804 13.9531 1109 131.847 655.043 446.087
1988 0 82.3763 12.3579 1018 130.695 653.317 447.15
1989 0 87.2525 16.5267 1442 123.718 653.751 442.068
1990 0 91.1156 15.1127 1377 126.039 652.123 445.568
1991 0 92.1234 14.8388 1367 125.747 652.003 447.494
1992 0 95.1591 15.7526 1499 125.355 652.847 440.165
1993 0 97.1067 18.2686 1774 121.514 651.23 437.303
1994 0 100.217 15.5662 1560 127.113 650.156 436.419
1995 0 102.21 15.3508 1569 128.314 651.065 433.698
1996 0 103.364 15.044 1555 129.846 649.573 429.814
1997 0 109.231 18.4655 2017 122.181 650.062 429.736
1998 0 110.405 16.5662 1829 126.441 650.331 429.046
1999 0 114.311 17.4962 2000 123.984 650.214 429.769
2000 0 116.272 16.7796 1951 126.095 649.645 425.593
2001 0 119.335 15.8545 1892 128.33 650.55 421.103
2002 0 121.185 18.055 2188 124.388 650.077 422.222
2003 0 123.213 16.0373 1976 129.007 650.259 418.436
2004 0 127.131 13.4585 1711 133.317 650.289 419.019
2005 0 127.311 14.3507 1827 133.284 649.996 414.227
2006 1 78.2852 10.449 818 135.747 652.896 442.455
2007 0 76.2732 10.2657 783 135.524 652.922 444.415
2008 0 78.085 13.4469 1050 131.729 653.538 439.626
2009 0 76.11 13.6776 1041 132.669 654.438 436.842
2010 0 78.1654 12.9725 1014 132.711 654.566 437.401
2011 0 81.2551 15.2852 1242 128.503 656.377 434.762
2012 0 81.2551 15.2606 1240 132.546 658.398 434.863
2013 0 86.3888 17.2013 1486 123.119 658.016 436.565
2014 0 89.4817 13.9582 1249 129.906 657.135 433.954
2015 0 92.4463 15.7497 1456 126.458 657.539 434.588
2016 0 96.2545 15.6876 1510 126.66 658.045 429.752
2017 0 98.2544 15.0629 1480 127.992 658.426 428.232
2018 0 102.492 15.289 1567 126.782 657.994 427.396
2019 0 108.388 17.5757 1905 121.019 658.29 432.503
2020 0 109.386 16.0898 1760 125.772 658.853 426.76
2021 0 112.344 13.2451 1488 130.224 657.755 429.144
2022 0 117.174 15.4557 1811 125.962 657.88 427.268
2023 0 120.366 16.4332 1978 125.062 658.218 422.526
2024 0 122.341 13.8547 1695 129.461 657.913 424.544
2025 0 130.285 15.5275 2023 126.353 657.84 424.236
2026 0 135.273 15.1102 2044 126.868 656.387 421.717
2027 0 140.586 16.2249 2281 124.943 657.889 416.389
2028 0 145.201 14.9861 2176 126.915 656.096 416.669
2029 0 145.201 14.8897 2162 144.871 655.105 416.687
2030 0 151.188 14.4059 2178 128.93 655.469 411.401
2031 0 156.372 12.2464 1915 132.601 653.587 409.838
2032 0 165.514 15.4911 2564 125.586 652.969 412.926
2033 0 166.513 15.5243 2585 143.293 652.975 413.079
2034 0 174.436 16.8371 2937 124.914 651.663 401.806
2035 0 180.481 13.3532 2410 129.095 652.074 407.407
2036 0 185.314 15.8542 2938 126.731 651.358 398.163
2037 0 191.508 16.2395 3110 126.33 650.296 392.519
2038 0 196.504 16.4017 3223 126.097 650.44 389.049
2039 0 204.427 15.3551 3139 128.213 650.086 385.739
2040 0 208.809 17.7626 3709 124.941 650.399 379.78
2041 0 217.885 19.9876 4355 120.249 648.544 383.744
2042 0 222.528 19.1572 4263 122.003 650.309 382.882
2043 0 227.484 18.5024 4209 125.593 649.144 369.939
2044 0 233.556 15.4524 3609 132.493 648.585 362.197
2045 1 180.375 11.1878 2018 136.646 649.154 397.567
2046 0 188.22 14.3077 2693 132.472 650.475 390.162
2047 0 195.497 18.8494 3685 124.382 651.544 387.323
2048 0 203.404 16.1698 3289 131.473 652.346 377.801
2049 0 207.544 17.0133 3531 131.387 650.517 372.545
2050 0 215.44 16.4872 3552 133.434 652.289 374.119
2051 0 222.394 17.6084 3916 131.584 653.236 366.857
2052 0 228.506 15.8464 3621 136.637 653.272 361.104
2053 0 233.486 14.866 3471 139.035 653.425 358.251
2054 0 240.411 18.3852 4420 131.85 654.496 358.491
2055 0 250.454 16.4102 4110 134.723 654.464 358.466
2056 0 255.481 16.3613 4180 135.351 656.567 344.444
2057 0 263.632 16.5534 4364 135.107 655.462 345.803
2058 0 269.606 13.2378 3569 141.239 656.775 351.108
2059 0 336.977 15.6717 5281 135.596 658.433 320.323
2060 0 333.683 15.4518 5156 139.213 656.938 306.838
2061 0 336.346 19.5632 6580 124.698 656.768 300.529
2062 0 339.965 28.7265 9766 112.128 656.194 309.789
2063 0 340.905 27.1014 9239 115.513 657 304.2
2064 0 340.851 27.9858 9539 115.008 656.027 289.669
2065 0 342.617 22.0509 7555 126.665 658.272 304.941
2066 0 353.772 20.304 7183 130.49 656.806 302.366
2067 0 363.67 16.5809 6030 138.061 657.763 291.182
2068 0 368.952 18.2815 6745 135.088 658.034 294.942
2069 0 370.632 20.2573 7508 131.323 658.563 295.328
2070 0 369.665 18.5087 6842 135.171 656.759 294.918
2071 0 368.822 19.2477 7099 134.384 655.406 295.302
2073 0 368.653 20.1056 7412 134.007 653.474 293.451
2074 0 371.077 18.0313 6691 138.265 652.613 292.811
2075 0 356.605 19.9745 7123 134.387 650.625 287.564
2077 0 361.834 21.3192 7714 134.208 651.01 290.061
2078 0 363.904 24.5697 8941 129.591 651.086 293.352
2079 0 370.839 24.7385 9174 128.106 650.874 296.986
2080 0 368.72 32.488 11979 115.471 654.126 299.197
2081 0 70.0923 11.7417 823 136.103 649.256 443.996
2082 0 78.2218 13.9475 1091 128.817 648.946 447.291
2083 0 77.0525 11.4597 883 138.137 649.894 437.66
2084 0 79.0885 12.2268 967 131.573 649.769 409.44
2085 0 86.1497 13.6623 1177 128.285 649.448 411.236
2086 0 92.2118 20.5071 1891 114.701 650.278 359.689
2087 0 89.0753 15.964 1422 125.989 650.062 355.033
2088 0 94.2081 18.8731 1778 119.564 649.496 358.9
2089 0 95.176 18.1033 1723 121.966 651.493 357.572
2090 0 99.0911 21.8688 2167 114.748 652.097 361.021
2091 0 97.3941 16.2433 1582 127.325 651.515 357.153
2092 0 103.215 16.8096 1735 124.489 653.032 367.798
2093 0 103.215 19.658 2029 136.419 653.037 365.701
2094 0 110.32 24.6828 2723 111.198 654.837 372.342
2095 0 111.178 19.0235 2115 122.357 654.486 368.244
2096 0 115.146 23.1011 2660 116.104 655.895 366.746
2097 0 119.229 20.2383 2413 120.409 656.989 372.495
2098 0 120.547 19.4613 2346 123.64 656.354 373.127
2099 0 126.294 26.0978 3296 112.505 655.227 371.784
2100 0 126.142 17.8845 2256 127.349 656.997 371.828
2101 0 130.213 19.8905 2590 123.541 656.625 373.281
2102 0 129.34 14.891 1926 134.989 658.269 377.819
2103 0 135.263 19.1849 2595 126.44 657.766 384.343
2104 0 140.322 18.9635 2661 126.97 657.549 380.311
2105 0 144.292 19.9179 2874 125.303 657.866 384.872
2106 0 146.25 20.082 2937 125.93 658.01 385.669
2107 0 154.398 18.3551 2834 128.393 658.831 389.096
2108 0 154.591 17.6077 2722 131.742 657.807 388.053
2109 0 159.254 16.7657 2670 132.639 657.75 396.395
2110 0 166.366 22.2461 3701 121.86 658.276 398.956
2111 0 171.663 20.313 3487 126.382 656.888 396.029
2112 0 176.39 19.1451 3377 129.341 656.381 394.333
2113 0 180.379 17.6961 3192 132.31 655.448 393.729
2114 0 186.4 18.0633 3367 131.517 655.309 394.51
2115 0 191.65 18.4921 3544 131.341 653.955 386.165
2116 0 197.317 19.2279 3794 130.074 653.872 384.185
2117 0 204.469 20.7562 4244 127.025 653.59 379.386
2118 0 209.332 18.0097 3770 132.986 652.445 380.194
2119 0 214.462 18.7632 4024 131.554 652.27 374.316
2120 0 224.439 20.5757 4618 127.769 650.972 371.821
2121 0 230.344 21.3767 4924 126.776 651.617 365.12
2122 0 236.468 18.0786 4275 133.885 650.62 365.883
2123 0 242.242 18.5847 4502 133.339 651.697 355.525
2124 0 252.38 20.1838 5094 130.66 650.946 349.878
2125 0 259.311 19.6328 5091 131.812 649.379 346.524
2126 0 268.762 19.6121 5271 131.838 649.658 340.176
2127 1 73.1511 7.35464 538 127.203 649.786 446.1
2128 0 74.0624 10.0726 746 126.091 649.172 442.745
2129 0 79.1171 11.4767 908 124.01 649.736 442.733
2130 0 79.1462 11.005 871 125.684 648.847 441.057
2131 0 78.2348 13.7918 1079 120.226 649.36 443.1
2132 0 82.1943 14.9645 1230 119.095 650.459 438.096
2133 0 84.2055 13.0277 1097 121.336 651.927 437.97
2134 0 84.2283 13.1072 1104 124.868 652.924 437.987
2135 0 88.1691 12.7256 1122 122.726 651.926 433.321
2136 0 89.1743 12.7391 1136 121.965 652.957 430.718
2137 0 92.0656 11.7525 1082 123.119 653.034 430.249
2138 0 96.1771 13.8183 1329 118.925 653.371 430.834
2139 0 98.1262 10.2827 1009 124.111 653.687 428.644
2140 0 104.098 13.3912 1394 119.248 654.539 423.663
2141 0 102.124 11.6721 1192 123.334 654.743 417.108
2142 0 108.329 11.742 1272 123.149 655.265 417.201
2143 0 118.234 18.0659 2136 109.892 655.959 409.767
2144 0 116.129 9.87697 1147 125.075 657.315 416.874
2145 0 123.179 11.6416 1434 121.353 656.389 419.338
2146 0 124.329 11.2444 1398 123.961 657.257 414.238
2147 1 99.1638 7.2708 721 124.302 656.395 408.695
2148 0 100.228 9.09926 912 120.853 657.518 411.668
2149 1 71.161 11.1578 794 116.077 659.858 416.36
2150 0 70.3139 9.81313 690 120.19 658.755 415.843
2151 0 72.3043 12.9453 936 114.475 659.983 429.955
2152 0 72.2985 9.22564 667 121.397 657.906 437.72
2153 0 76.1189 13.6366 1038 113.855 658.131 450.598
2154 0 74.1411 12.0041 890 113.4 656.431 456.152
2155 0 78.1613 13.4977 1055 113.615 654.149 447.825
2156 0 78.1613 13.3698 1045 114.207 652.125 448.085
2157 0 78.1613 13.3698 1045 113.752 650.125 448.085
2158 0 83.3179 11.1501 929 118.477 652.956 450.526
2159 0 85.2859 12.3936 1057 117.41 652.157 449.665
2160 0 86.1522 9.9359 856 122.431 651.301 447.574
2161 0 90.2977 13.7656 1243 116.532 651.408 443.187
2162 0 91.0904 14.557 1326 116.229 649.994 444.864
2163 0 93.2033 11.7056 1091 119.999 650.83 447.4
2164 0 95.3197 13.2082 1259 119.557 650.805 442.853
2165 0 96.237 14.2772 1374 117.892 649.451 442.662
2166 0 96.2453 10.7434 1034 126.263 648.918 431.873
2167 0 99.3931 12.6065 1253 122.544 650.373 436.57
2168 0 102.466 14.5512 1491 119.74 648.794 434.568
2169 0 100.556 14.022 1410 121.852 650.16 428.959
2170 0 105.535 12.8678 1358 123.194 649.921 429.22
2171 0 108.44 12.7444 1382 125.053 650.454 423.967
2172 0 110.429 13.5291 1494 123.116 651.033 422.521
2173 0 114.26 12.9442 1479 123.043 650.929 423.098
2174 0 117.4 12.845 1508 123.156 652.371 416.261
2175 0 114.628 8.32259 954 132.464 652.372 405.681
2176 0 121.541 12.7529 1550 123.101 652.43 409.728
2177 0 122.24 12.1564 1486 124.086 653.827 413.234
2178 0 126.436 11.4999 1454 125.695 652.79 405.389
2179 0 125.466 13.0394 1636 124.096 654.196 406.078
2180 0 133.432 11.7588 1569 126.465 654.578 401.354
2181 0 135.57 12.7019 1722 124.58 654.354 399.677
2182 0 134.385 10.4922 1410 130.551 654.674 391.776
2183 0 142.622 10.9871 1567 128.162 654.133 393.656
2184 0 143.406 14.4067 2066 122.23 655.689 396.046
2185 0 148.392 11.4224 1695 127.318 656.157 393.098
2186 0 148.382 11.558 1715 128.669 657.152 393.328
2187 0 148.298 9.17073 1360 131.775 656.906 389.727
2188 0 146.311 7.68225 1124 131.638 658.393 398.242
2189 0 152.229 9.26234 1410 124.83 657.84 409.498
2190 0 146.297 2.26252 331 134.202 659.35 411.619
2191 0 149.358 6.07937 908 128.611 659.775 408.935
2192 0 150.281 2.51529 378 134.296 659.148 409.709
2193 0 148.264 2.90023 430 126.723 658.23 426.272
2194 1 201.632 13.8222 2787 122.866 658.215 373.171
2195 0 203.704 14.1725 2887 123.147 658.469 365.685
2196 0 213.605 14.0727 3006 123.012 657.603 371.005
2197 0 220.855 11.4691 2533 127.147 655.753 374.391
2198 0 221.401 13.0261 2884 126.081 656.289 367.647
2199 0 226.802 15.7009 3561 122.839 656.179 348.867
2200 0 230.573 15.4398 3560 121.773 655.551 370.442
2201 0 231.824 12.6562 2934 126.349 654.013 369.436
2202 0 228.756 8.80414 2014 131.928 654.134 374.625
2203 1 258.549 12.3613 3196 130.684 652.085 344.679
2204 0 268.57 15.3554 4124 125.178 651.399 349.449
2205 0 281.177 17.345 4877 122.572 650.93 341.83
2206 1 232.849 10.2513 2387 127.684 650.31 385.038
2207 0 227.892 10.2636 2339 128.441 649.304 383.477
2208 0 225.561 8.46779 1910 136.407 650.171 365.044
2209 0 226.615 13.5075 3061 128.37 649.516 366.982
2210 0 232.664 12.3182 2866 128.363 648.807 373.845
2211 0 241.784 14.6991 3554 127.496 649.645 359.034
2212 0 244.62 13.1551 3218 131.713 649.463 350.574
2213 0 250.632 12.4166 3112 136.264 649.592 333.686
2214 0 258.755 14.7978 3829 130.15 648.549 347.161
2215 0 268.746 13.496 3627 134.409 650.216 333.429
2216 0 275.73 16.5778 4571 128.103 649.684 338.508
2217 1 202.414 11.6444 2357 130.749 650.437 374.441
2218 0 207.375 11.9349 2475 131.693 650.698 366.664
2219 0 212.524 11.5516 2455 131.806 651.537 365.584
2220 0 213.553 14.3571 3066 129.027 651.505 352.927
2221 0 222.461 11.9347 2655 133.27 652.342 349.803
2222 0 229.625 14.9984 3444 127.39 653.02 349.706
2223 0 232.386 12.5653 2920 132.976 653.984 338.697
2224 1 308.53 8.56968 2644 139.039 654.336 330.969
2225 0 308.826 11.3365 3501 135.683 654.027 321.836
2226 0 316.464 12.3837 3919 135.734 656.133 306.293
2227 0 307.812 18.0825 5566 117.822 655.412 312.79
2228 0 308.09 20.0461 6176 116.505 656.463 310.567
2229 0 302.245 23.0707 6973 112.937 655.786 306.622
2230 0 297.938 23.6123 7035 113.87 657.738 301.095
2231 0 292.953 12.0292 3524 132.005 657.901 340.086
2232 1 127.699 9.49109 1212 112.071 658.729 423.875
2233 0 128.494 7.88364 1013 118.413 659.549 414.357
2234 0 130.764 9.33746 1221 118.726 659.616 414.687
2235 0 135.582 9.73582 1320 118.041 658.104 415.048
2236 0 142.911 9.95023 1422 116.654 657.234 419.43
2237 0 145.632 10.0459 1463 117.215 655.7 414.532
2238 0 141.779 7.94193 1126 122.456 656.577 399.203
2239 0 147.584 9.41159 1389 119.855 656.579 403.308
2240 0 158.67 8.70987 1382 120.292 655.676 402.506
2241 0 157.682 10.5782 1668 117.254 655.052 404.174
2243 0 117.104 6.92547 811 112.388 654.028 437.517
2244 0 116.596 4.78574 558 114.256 653.611 441.14
2245 1 56.2571 11.6252 654 98.2401 654.171 469.206
2246 0 64.5695 10.934 706 99.6388 653.771 457.354
2247 0 62.3644 9.34828 583 103.792 652.631 453.324
2248 0 62.2246 11.3942 709 103.894 651.755 445.896
2249 0 62.0583 10.6513 661 107.912 652.72 439.41
2250 0 67.1079 13.3218 894 102.965 653.301 439.998
2251 0 66.1133 8.50056 562 112.626 652.952 435.769
2252 0 69.0675 12.6688 875 106.081 653.039 436.959
2253 0 65.1362 16.335 1064 101.557 651.482 437.42
2254 0 72.1292 11.6458 840 108.039 652.693 438.432
2255 0 68.1394 11.9021 811 109.677 653.239 433.728
2256 0 74.329 11.18 831 106.162 653.576 442.748
2257 0 73.1082 11.9275 872 109.728 653.237 434.033
2258 0 74.1844 10.9727 814 111.813 652.811 432.624
2259 0 73.1846 12.53 917 111.262 653.01 432.892
2260 0 74.106 14.3848 1066 106.463 654.378 435.927
2261 0 75.0614 11.9369 896 111.904 653.391 431.658
2262 0 75.1504 13.3732 1005 110.246 654.527 434.581
2263 0 78.1354 10.277 803 115.131 654.121 433.928
2264 0 79.2607 13.1843 1045 111.148 654.708 434.146
2265 0 86.3228 17.3419 1497 104.384 656.102 433.46
2266 0 83.0388 15.559 1292 109.108 656.941 431.367
2267 0 83.2083 11.7416 977 115.894 657.583 430.349
2268 0 88.3393 14.6707 1296 111.173 657.434 429.617
2269 0 87.3483 12.7421 1113 113.943 657.878 432.734
2270 0 90.3026 14.7836 1335 112.2 657.968 429.267
2271 0 93.3782 12.1549 1135 115.852 658.686 429.958
2272 0 94.2793 14.7222 1388 111.634 658.083 426.206
2273 0 99.3476 14.4241 1433 111.381 658.509 426.876
2274 0 98.4471 11.2853 1111 116.243 659.6 432.615
2275 0 103.525 15.0785 1561 111.405 658.899 426.868
2276 0 103.585 14.5001 1502 112.851 659.009 422.503
2277 0 108.202 15.3231 1658 111.999 659.35 420.647
2278 0 110.402 15.0722 1664 112.283 658.478 422.35
2279 0 118.842 15.1798 1804 109.826 658.017 423.948
2280 0 118.667 15.4971 1839 110.569 656.798 424.334
2281 0 122.624 12.9746 1591 114.47 658.026 420.459
2282 0 128.941 13.9521 1799 113.145 657.961 415.32
2283 0 131.583 12.5396 1650 115.575 656.805 414.065
2284 1 78.6489 12.8927 1014 110.201 656.693 446.7
2285 0 76.3494 12.4428 950 110.84 656.038 440.635
2286 0 83.2 12.476 1038 109.042 655.74 449.908
2287 0 86.1325 14.083 1213 106.377 656.03 449.756
2288 0 85.1091 9.69344 825 113.847 653.564 444.232
2289 0 90.1176 11.03 994 111.067 653.516 448.278
2290 0 91.1766 13.4245 1224 109.983 650.64 439.541
2291 0 98.3723 11.7513 1156 110.141 652.82 445.011
2292 0 93.2047 14.1516 1319 108.064 651.881 443.414
2293 0 98.2336 14.1499 1390 109.401 651.558 436.314
2294 0 99.1747 11.7268 1163 113.396 650.596 433.883
2295 0 102.287 14.1855 1451 109.574 651.331 432.899
2296 0 104.147 11.4453 1192 113.846 650.519 429.209
2297 0 107.272 13.0789 1403 112.748 650.414 424.592
2298 0 110.382 12.1216 1338 114.441 649.487 423.423
2299 0 115.355 9.73517 1123 114.691 650.475 430.656
2300 0 117.427 14.2471 1673 109.655 650.484 425.362
2301 1 70.1897 12.6514 888 108.752 649.766 445.975
2302 0 70.4132 8.71996 614 116.508 649.653 443.212
2303 0 72.1967 10.7069 773 112.624 651.216 444.247
2304 0 75.1429 11.5114 865 110.343 650.494 442.576
2305 0 77.2169 14.8154 1144 106.146 651.949 440.341
2306 0 77.0964 13.9047 1072 107.037 651.255 442.763
2307 0 83.1277 13.4973 1122 108.365 653.679 438.296
2308 0 84.104 12.4608 1048 110.864 653.062 434.315
2309 0 92.5357 18.1551 1680 98.3726 655.82 442.174
2310 0 89.3152 10.9612 979 111.337 654.364 430.859
2311 0 92.3687 11.151 1030 111.754 655.435 432.25
2312 0 95.416 13.3416 1273 108.119 656.503 433.667
2313 0 96.3817 10.9668 1057 113.235 656.665 427.357
2314 0 99.4097 11.0351 1097 113.401 656.307 427.818
2315 1 180.602 10.6754 1928 120.855 657.395 385.01
2316 1 102.367 12.4943 1279 114.142 656.875 434.299
2317 0 108.448 16.6808 1809 108.968 658.676 432.142
2318 0 108.38 12.5392 1359 116.722 658.335 430.433
2319 0 113.507 14.3251 1626 114.718 658.526 431.113
2320 0 117.31 15.5144 1820 114.339 658.215 422.547
2321 0 126.571 12.1196 1534 118.092 657.272 428.294
2322 0 124.633 14.5869 1818 117.093 657.486 423.47
2323 0 129.574 14.2159 1842 118.904 656.006 419.745
2324 0 134.494 14.3724 1933 119.529 656.593 419.81
2325 0 138.413 13.5175 1871 121.4 655.331 420.612
2326 0 143.451 15.0435 2158 119.954 654.809 417.991
2327 0 148.683 13.7945 2051 122.98 654.424 414.07
2328 1 80.3701 11.6212 934 117.926 652.061 450.484
2329 0 82.2193 14.8019 1217 112.536 651.767 451.164
2330 0 85.2546 16.4331 1401 111.959 651.359 450.678
2331 0 89.1443 12.6873 1131 118.477 651.001 449.798
2332 0 90.1209 16.1339 1454 113.646 650.625 450.583
2333 0 90.1376 12.603 1136 122.615 649.637 442.942
2334 0 93.186 12.0297 1121 125.092 650.384 441.125
2335 0 95.2292 18.2087 1734 114.997 650.082 440.309
2336 0 98.1346 14.9488 1467 120.168 650.392 439.221
2337 0 100.148 13.4002 1342 123.668 649.462 438.141
2338 0 99.2171 10.1999 1012 131.22 649.843 433.597
2339 0 104.153 13.893 1447 123.374 649.746 437.234
2340 0 104.271 13.7527 1434 124.889 649.291 434.505
2341 0 111.262 16.3579 1820 121.505 649.63 422.79
2342 0 112.38 14.2463 1601 125.819 650.783 422.063
2343 0 114.327 12.6305 1444 129.193 649.731 421.562
2344 0 119.35 14.2187 1697 125.876 650.786 417.301
2345 0 119.363 13.2453 1581 129.426 650.925 410.481
2346 0 124.507 13.7663 1714 128.34 651.861 409.344
2347 0 126.436 14.8534 1878 126.534 652.721 409.097
2348 0 127.368 13.5199 1722 129.691 652.739 404.457
2349 0 132.337 13.6999 1813 129.386 654.591 400.133
2350 0 139.5 16.258 2268 122.819 653.448 408.082
2351 1 76.2815 13.3191 1016 118.573 656.09 438.825
2352 0 75.2444 12.8116 964 119.182 655.734 432.517
2353 0 78.2143 12.6959 993 118.731 655.27 438.712
2354 0 80.2296 14.5582 1168 117.425 654.744 440.328
2355 0 82.2497 12.9848 1068 120.469 655.565 438.082
2356 0 86.2157 14.2781 1231 118.277 656.42 440.693
2357 0 87.1239 13.7391 1197 120.393 656.649 438.378
2358 0 91.1129 13.829 1260 123.074 656.223 440.656
2359 0 93.1676 12.3004 1146 129.463 658.921 437.056
2360 0 97.1931 14.5586 1415 123.88 657.659 439.677
2361 0 97.2786 13.2095 1285 126.407 658.49 442.544
2362 0 104.269 14.549 1517 124.239 659.119 438.321
2363 0 106.162 14.0164 1488 125.692 658.543 436.178
2364 0 109.206 14.3949 1572 123.099 656.915 437.795
2365 0 111.152 15.2404 1694 120.631 655.779 439.541
2366 0 114.124 15.3167 1748 119.544 656.704 438.153
2367 0 120.128 12.1537 1460 125.857 655.523 433.173
2368 0 122.251 11.6564 1425 126.758 653.774 429.339
2369 0 125.314 11.4273 1432 127.271 653.645 429.751
2370 0 132.235 14.6028 1931 121.924 651.638 427.023
2371 0 138.357 16.161 2236 119.102 651.104 428.19
2372 0 145.523 8.11556 1181 131.596 650.336 429.712
2373 0 147.517 15.1983 2242 121.939 649.826 424.753
2374 1 82.2089 9.54884 785 125.573 649.971 453.518
2375 0 81.1733 10.1758 826 124.045 648.64 452.93
2376 0 80.1396 12.3035 986 125.414 647.985 449.983
2377 0 88.4657 15.2828 1352 120.701 648.013 443.108
2378 0 89.1676 14.2204 1268 123.257 649.569 441.928
2379 0 90.148 14.332 1292 121.188 649.062 444.94
2380 0 96.1702 13.3929 1288 122.895 649.039 442.369
2381 0 94.2412 10.2078 962 129.548 649.242 444.127
2382 0 100.22 14.1589 1419 122.344 647.926 440.046
2383 0 101.101 15.44 1561 126.646 648.997 433.026
2384 0 98.3264 11.5534 1136 135.79 649.338 432.854
2385 0 104.152 10.1775 1060 136.403 648.401 435.654
2386 0 105.188 14.6309 1539 129.11 649.496 432.813
2387 0 108.276 12.8837 1395 132.915 649.258 430.442
2388 0 108.273 13.0689 1415 131.31 650.652 433.286
2389 0 109.194 13.618 1487 131.242 651.198 432.139
2390 0 117.415 13.1329 1542 133.344 650.375 419.118
2391 0 122.333 13.1853 1613 132.465 652.143 421.388
2392 0 121.33 13.2943 1613 131.729 653.056 422.916
2393 0 127.205 12.8375 1633 134.312 652.513 417.53
2394 0 130.34 15.2755 1991 127.222 655.191 424.424
2395 1 71.0968 10.6896 760 129.443 654.097 450.897
2396 0 71.1418 12.4118 883 128.804 654.687 449.48
2397 0 73.1656 10.4011 761 133.52 655.25 445.919
2398 0 80.172 15.7162 1260 121.404 655.358 449.453
2399 0 78.1542 13.6269 1065 128.331 655.834 445.822
2400 0 79.15 13.5313 1071 129.599 657.389 446.376
2401 0 85.226 15.5938 1329 124.042 657.464 445.924
2402 0 85.2307 14.3024 1219 129.023 657.303 445.18
2403 0 87.1404 12.8184 1117 132.348 657.833 449.426
2404 0 90.1704 12.5651 1133 134.685 656.95 445.824
2405 0 92.2728 13.601 1255 132.87 655.811 448.233
2406 0 96.1062 15.847 1523 129.892 655.421 441.848
2407 0 97.1738 15.7759 1533 130.078 655.288 444.81
2408 0 99.4098 14.2642 1418 135.508 654.632 438.226
2409 0 104.102 14.0247 1460 135.942 654.595 440.358
2410 0 105.165 14.6532 1541 134.851 653.372 436.26
2411 0 113.329 15.83 1794 130.915 652.258 437.663
2412 0 110.302 15.1583 1672 135.978 652.34 433.776
2413 0 114.264 14.9478 1708 137.268 651.411 428.877
2414 0 118.293 16.0957 1904 134.993 650.835 424.506
2415 0 121.45 16.476 2001 134.909 650.853 426.003
2416 0 125.485 16.4243 2061 135.333 650.179 427.044
2417 0 128.451 14.8384 1906 140.762 650.388 421.726
2418 0 133.427 17.785 2373 134.105 650.043 422.072
2419 0 136.282 16.2237 2211 139.27 650.148 411.427
2420 0 139.463 15.9397 2223 140.124 649.409 413.97
2421 0 142.396 14.9091 2123 143.878 649.656 412.834
2422 0 142.48 18.7675 2674 135.368 648.82 416.864
2423 0 148.555 16.0344 2382 144.304 648.806 405.948
2424 0 150.525 12.1043 1822 153.881 649.207 406.119
2425 1 82.2495 12.8268 1055 144.5 649.129 440.774
2426 0 83.4438 15.3277 1279 140.136 649.798 435.984
2427 0 86.3074 14.9234 1288 141.099 650.142 437.074
2428 0 87.0782 10.8982 949 150.476 651.042 435.881
2429 0 92.1056 16.6222 1531 135.524 651.886 433.632
2430 0 91.0892 14.8206 1350 139.662 651.817 433.902
2431 0 93.1218 13.4877 1256 144.548 652.306 429.838
2432 0 98.2133 14.6925 1443 140.634 652.315 427.728
2433 0 97.2923 13.9066 1353 145.014 652.465 423.202
2434 0 102.298 14.9465 1529 140.508 653.183 427.891
2435 0 102.156 15.8287 1617 140.998 653.988 425.631
2436 0 107.275 15.9591 1712 140.374 655.058 421.223
2437 0 109.261 14.9368 1632 143.597 654.542 422.139
2438 0 112.259 14.5912 1638 144.425 655.435 422.429
2439 0 116.378 16.8847 1965 138.824 655.243 422.173
2440 0 120.205 14.6998 1767 144.443 654.737 420.181
2441 0 121.28 15.3281 1859 143.582 656.104 414.422
2442 0 121.28 15.3281 1859 144.032 657.104 414.422
2443 0 130.339 14.2244 1854 146.53 657.031 416.399
2444 0 133.316 16.5471 2206 140.932 656.109 418.681
2445 1 144.22 14.6928 2119 142.111 657.482 423.309
2446 0 144.238 15.3496 2214 142.586 655.046 416.625
2447 0 147.231 15.2142 2240 144.176 654.996 414.283
2448 0 150.261 13.0905 1967 149.81 655.122 407.713
2449 0 158.195 14.2925 2261 145.661 655.595 411.729
2450 0 163.276 17.8593 2916 137.887 652.7 409.3
2451 0 169.561 14.9917 2542 146.348 653.436 407.847
2452 0 171.485 14.9401 2562 147.79 652.175 403.941
2453 0 179.389 15.3632 2756 146.394 651.894 403.977
2454 0 180.414 15.0266 2711 148.889 651.04 398.061
2455 0 183.19 13.587 2489 152.291 649.66 395.399
2456 0 192.427 14.4522 2781 148.926 649.605 395.546
2457 0 196.609 14.923 2934 150.325 648.758 382.04
2458 0 203.31 12.931 2629 153.566 648.843 385.602
2459 1 104.304 12.3581 1289 148.192 647.88 433.446
2460 0 107.285 14.8017 1588 143.797 647.241 428.162
2461 0 106.517 12.5426 1336 149.533 647.073 429.32
2462 0 114.551 14.5262 1664 143.89 647.193 425.856
2463 0 116.418 12.5324 1459 148.513 648.715 427.636
2464 0 118.241 12.7705 1510 149.054 648.365 424.647
2465 0 125.636 11.8278 1486 149.861 648.091 421.083
2466 0 124.336 12.9006 1604 150.299 648.978 415.558
2467 0 132.638 14.2946 1896 146.266 648.48 415.674
2468 0 129.382 15.319 1982 144.879 648.761 415.341
2469 0 132.426 13.585 1799 149.635 649.575 410.715
2470 0 136.533 12.7369 1739 151.914 650.54 410.76
2471 0 141.613 15.4223 2184 145.827 651.504 407.766
2472 0 143.482 12.4615 1788 151.164 651.542 411.821
2473 0 144.342 13.8837 2004 151.385 651.915 404.981
2474 0 150.238 14.5303 2183 148.906 652.37 403.679
2475 0 154.497 13.5666 2096 150.324 652.779 404.019
2476 0 157.422 13.3654 2104 151.234 654.644 403.246
2477 0 164.302 12.6779 2083 149.336 653.835 412.718
2478 0 164.393 14.2646 2345 151.945 654.954 398.493
2479 0 168.349 14.7907 2490 150.353 653.502 402.212
2480 0 173.539 15.1493 2629 149.293 655.729 402.444
2481 0 181.22 15.815 2866 147.924 655.622 400.088
2482 0 186.295 14.0637 2620 151.954 655.606 395.459
2483 0 192.369 13.3546 2569 153.716 654.748 391.871
2484 0 200.456 15.6493 3137 148.088 655.504 393.291
2485 0 204.527 13.7097 2804 152.517 654.401 393.986
2486 0 208.448 13.1399 2739 154.414 655.301 388.648
2487 0 217.425 15.4444 3358 149.43 654.403 384.004
2488 0 223.569 13.4276 3002 153.801 654.41 385.124
2489 0 232.453 15.5128 3606 151.575 654.427 377.864
2490 0 240.422 14.7282 3541 155.025 654.973 377.15
2491 0 245.521 14.4753 3554 157.819 654.886 371.335
2492 0 255.584 16.879 4314 150.915 653.687 373.338
2493 0 259.633 15.1098 3923 157.369 652.832 359.106
2494 0 266.669 14.1974 3786 157.624 651.603 371.38
2495 1 278.973 17.4318 4863 152.733 650.844 354.912
2496 0 283.818 16.4472 4668 155.463 650.577 354.33
2497 0 290.777 15.2832 4444 159.47 649.836 349.413
2498 0 297.927 15.7791 4701 158.484 649.881 340.383
2499 0 307.657 14.7989 4553 158.74 650.096 349.922
2500 0 313.921 15.4083 4837 158.9 647.864 325.589
2501 0 313.944 15.4072 4837 155.119 647.866 325.756
2502 0 356.966 11.8835 4242 165.131 647.782 334.592
2503 0 354.76 12.648 4487 163.671 648.254 334.041
2504 0 355.571 16.6746 5929 157.011 647.327 303.434
2505 0 366.703 17.9437 6580 154.376 646.87 294.725
2506 0 365.798 21.2713 7781 147.663 647.839 293.323
2507 0 363.535 16.0095 5820 160.722 647.776 288.677
2508 0 363.303 19.7383 7171 151.785 647.086 289.684
2509 0 364.433 19.2381 7011 154.162 648.61 287.211
2510 0 362.633 19.4301 7046 154.497 648.973 285.552
2511 0 361.613 20.5662 7437 152.998 649.616 284.51
2512 0 63.0902 9.27244 585 138.824 650.99 454.827
2513 0 63.0709 11.7328 740 135.653 650.38 453.147
2514 0 65.0651 9.83631 640 140.994 650.839 448.589
2515 0 65.1219 9.106 593 138.961 652.152 447.499
2516 0 67.0638 13.7183 920 130.523 652.483 447.889
2517 0 67.1589 10.974 737 136.261 653.874 444.14
2518 0 67.1589 11.0186 740 115.658 653.895 444.242
2519 0 71.2298 8.0865 576 140.628 655.674 445.042
2520 0 77.1152 10.7631 830 133.794 657.098 444.033
2521 0 79.0814 8.87693 702 137.49 656.302 444.157
2522 0 82.1372 9.55718 785 132.271 657.141 445.987
2523 0 86.1643 10.921 941 128.372 656.336 444.404
2524 0 87.1796 11.092 967 127.907 657.601 447.188
2525 0 96.2557 14.8459 1429 116.626 656.645 435.711
2526 0 94.2252 9.28626 875 138.471 654.833 434.33
2527 0 106.154 19.1702 2035 113.348 653.692 438.746
2528 0 106.099 15.2688 1620 121.933 654.611 439.67
2529 0 106.099 15.3819 1632 148.644 652.632 439.71
2530 1 60.065 12.5864 756 116.276 655.882 466.509
2531 0 63.2517 13.9127 880 112.789 656.405 468.834
2532 0 62.3289 14.8085 923 122.846 653.205 458.78
2533 0 62.1024 14.0735 874 122.761 654.253 458.484
2534 0 65.1235 12.53 816 123.653 652.474 461.727
2535 0 65.1214 13.4518 876 125.394 653.35 460.265
2536 0 65.1145 12.7314 829 128.245 653.509 459.491
2537 0 67.0973 14.4715 971 124.856 652.2 459.646
2538 0 66.1675 11.7278 776 132.724 652.117 456.826
2539 0 71.1212 13.9199 990 126.488 651.74 458.91
2540 0 70.1715 13.7093 962 128.063 651.007 457.412
2541 0 72.1696 13.8285 998 129.325 649.807 454.148
2542 0 73.0817 15.0243 1098 126.717 649.134 456.059
2543 0 75.0931 14.4487 1085 128.384 648.728 455.182
2544 0 79.3401 15.339 1217 124.506 649.23 456.212
2545 0 79.2972 14.3637 1139 128.805 649.859 452.642
2546 0 77.0668 13.3391 1028 133.653 648.012 450.768
2547 0 80.2185 16.5548 1328 124.381 648.96 445.072
2548 0 80.0998 12.784 1024 132.651 648.106 442.52
2549 0 83.1898 16.829 1400 128.253 648.468 441.716
2550 0 83.2087 12.9914 1081 133.52 648.913 443.499
2551 0 84.1161 14.4919 1219 132.349 649.248 440.08
2552 0 89.2508 16.1791 1444 127.612 650.893 439.945
2553 0 88.3413 14.4213 1274 134.019 650.019 438.714
2554 0 90.1752 15.4477 1393 135.93 651.543 433.307
2555 0 92.3588 14.7685 1364 137.799 650.253 435.847
2556 0 92.1547 14.6059 1346 140.166 651.47 432.604
2557 0 95.1353 15.9983 1522 136.949 652.085 433.025
2558 0 99.2018 16.5521 1642 136.051 653.402 432.529
2559 0 99.1503 15.6833 1555 139.703 652.586 430.905
2560 0 100.27 15.9469 1599 140.273 653.902 428.308
2561 0 103.235 18.0849 1867 135.11 653.136 427.373
2562 0 107.204 20.5029 2198 130 653.723 425.212
2563 0 109.092 15.8491 1729 139.473 654.071 429.328
2564 0 115.189 16.0258 1846 137.514 654.302 427.556
2565 1 61.1872 11.2605 689 142.412 655.199 452.314
2566 0 63.1608 12.1436 767 139.355 655.639 455.241
2567 0 66.0577 14.0635 929 135.358 655.419 456.28
2568 0 66.0335 11.7971 779 140.579 654.819 455.746
2569 0 68.0924 15.5964 1062 135.835 655.329 451.123
2570 0 72.0518 14.5867 1051 136.419 653.897 457.66
2571 0 74.2032 13.463 999 138.801 654.215 458.974
2572 0 78.1553 19.2565 1505 125.509 654.038 458.756
2573 0 77.188 14.6266 1129 137.261 652.21 455.871
2574 0 81.0719 14.3083 1160 136.535 651.452 457.815
2575 0 86.0962 16.3306 1406 132.092 651.275 456.031
2576 0 86.1833 14.1559 1220 137.775 649.43 454.302
2577 0 89.0673 15.3704 1369 135.418 649.622 451.191
2578 0 91.1204 16.7251 1524 132.755 648.62 450.138
2579 0 93.07 13.0547 1215 139.672 649.328 446.17
2580 0 99.2034 15.3422 1522 132.914 648.633 445.16
2581 0 102.195 13.5624 1386 135.478 647.634 443.896
2582 0 103.168 14.8787 1535 133.367 646.991 439.193
2583 0 106.119 18.2154 1933 125.813 647.62 439.115
2584 0 106.39 13.9205 1481 135.631 646.935 434.473
2585 0 112.344 16.1557 1815 129.768 646.078 429.675
2586 0 114.394 13.2699 1518 132.96 647.511 428.985
2587 0 117.33 15.0004 1760 129.707 645.373 428.505
2588 0 121.337 16.1204 1956 127.383 647.142 424.49
2589 0 122.181 13.8647 1694 131.762 646.53 421.721
2590 0 128.323 17.908 2298 122.5 647.053 423.618
2591 0 129.326 15.6426 2023 128.821 647.979 415.966
2592 0 132.298 14.1498 1872 132.123 648.22 414.095
2593 0 138.351 15.6631 2167 128.827 648.562 411.398
2594 0 141.295 15.1739 2144 129.65 648.853 410.901
2595 1 75.4596 14.2725 1077 127.333 648.393 436.913
2596 0 81.4053 13.9672 1137 125.396 649.932 439.973
2597 0 82.3284 12.0129 989 128.546 648.84 440.372
2598 0 83.3342 16.0558 1338 122.821 649.475 439.191
2599 0 85.1192 15.6134 1329 122.052 651.713 437.826
2600 0 85.1192 15.6839 1335 131.98 653.688 437.797
2601 0 90.2437 14.3833 1298 124.77 652.033 438.844
2602 0 95.4531 13.7764 1315 124.509 652.337 436.619
2603 0 96.173 17.5829 1691 118.946 652.726 433.982
2604 0 101.494 15.9713 1621 120.67 653.577 436.237
2605 0 104.124 16.173 1684 121.131 653.064 435.109
2606 0 107.356 15.4905 1663 119.548 653.288 434.589
2607 0 111.166 15.5803 1732 122.173 652.988 425.99
2608 0 114.273 14.159 1618 125.444 652.183 432.019
2609 0 121.268 15.9811 1938 122.823 653.568 427.454
2610 0 123.284 16.3849 2020 121.926 653.699 430.805
2611 0 128.344 18.4114 2363 119.128 652.931 428.468
2612 0 133.401 15.2698 2037 124.042 653.317 422.483
2613 0 139.293 16.8351 2345 121.388 653.088 421.072
2614 0 144.292 14.0687 2030 126.402 651.743 422.249
2615 0 146.449 13.8205 2024 127.93 651.86 413.233
2616 0 150.528 12.6355 1902 131.055 650.044 408.875
2617 0 157.367 15.0794 2373 124.825 649.029 417.539
2618 0 162.433 13.9811 2271 128.914 648.248 405.654
2619 0 166.387 17.0265 2833 122.962 648.114 408.6
2620 0 169.174 14.1689 2397 129.614 648 397.388
2621 0 175.272 15.3133 2684 126.89 647.853 399.752
2622 0 179.312 13.68 2453 131.029 647.727 394.993
2623 0 186.39 14.8774 2773 126.598 646.708 394.321
2624 0 186.39 14.8023 2759 142.41 645.712 394.136
2625 0 197.357 16.4068 3238 126.596 646.349 384.03
2626 0 202.256 16.2764 3292 127.224 646.58 383.416
2627 0 209.605 16.0445 3363 127.861 645.982 378.391
2628 0 217.482 15.8542 3448 127.305 646.663 380.441
2629 0 223.658 15.7338 3519 127.4 647.873 378.218
2630 0 229.584 14.1299 3244 130.466 646.721 376.292
2631 0 234.402 14.3343 3360 131.11 647.289 366.784
2632 0 240.703 14.79 3560 130.46 646.949 358.604
2633 0 245.476 16.853 4137 127.684 649.126 352.402
2634 0 254.356 15.6316 3976 131.3 649.43 354.565
2635 0 260.545 15.7247 4097 132.332 648.738 350.812
2636 0 264.664 12.4611 3298 140.049 649.109 337.848
2637 0 274.602 16.0013 4394 133.142 650.023 343.168
2638 0 274.566 16.0326 4402 146.413 650.015 343.32
2640 0 357.738 19.8944 7117 130.612 651.12 286.009
2641 0 363.77 19.4436 7073 130.53 651.868 286.35
2642 0 104.359 14.6801 1532 116.943 654.091 443.564
2643 0 108.292 14.2577 1544 115.027 655.055 441.773
2644 0 109.338 14.6884 1606 119.014 655.468 437.984
2645 0 113.28 15.775 1787 115.6 654.323 434.852
2646 0 115.231 12.9479 1492 120.877 653.974 435.546
2647 0 118.284 14.1777 1677 119.293 653.468 432.284
2648 0 119.363 13.438 1604 120.956 653.115 432.39
2649 0 125.323 13.1181 1644 121.342 653.42 431.121
2650 0 126.251 12.6098 1592 121.849 651.348 431.494
2651 1 71.2521 12.561 895 118.093 652.455 457.918
2652 0 67.0948 10.8205 726 114.793 650.723 452.942
2653 0 69.1585 14.1414 978 111.26 650.748 451.76
2654 0 76.3772 14.6902 1122 114.897 649.042 458.09
2655 0 81.106 14.7091 1193 114.422 646.93 454.881
2656 0 373.258 14.6735 5477 127.089 647.552 280.477
2657 0 370.943 15.6223 5795 125.157 647.468 282.153
2658 0 372.01 12.6959 4723 122.783 645.601 289.313
2659 0 372.01 12.6959 4723 149.85 645.601 289.313
2660 0 371.392 15.6008 5794 117.464 645.35 292.899
2661 1 102.523 26.3453 2701 98.3458 645.273 437.451
2662 0 102.118 27.3409 2792 98.8994 644.769 436.187
2663 0 102.14 21.9307 2240 105.825 643.919 432.902
2664 0 99.3538 13.2456 1316 123.238 644.324 429.263
2665 0 101.179 17.0688 1727 118.761 644.283 421.687
2666 0 104.193 10.97 1143 130.112 644.18 422.199
2667 0 106.494 13.3341 1420 125.995 644.756 424.363
2668 0 108.106 15.2628 1650 122.758 643.334 424.751
2669 0 114.152 14.9713 1709 123.681 645.503 422.84
2670 0 116.159 16.245 1887 121.642 646.13 415.854
2671 0 119.225 14.7955 1764 124.525 647.143 418.617
2672 0 122.154 15.8079 1931 120.621 647.675 430.341
2673 0 124.126 15.1861 1885 123.297 648.364 425.478
2674 1 68.0799 13.3226 907 121.666 647.558 452.778
2675 0 67.1432 11.2148 753 128.768 648.863 447.68
2676 0 67.2081 12.8258 862 123.051 650.729 442.56
2677 0 71.2461 13.5586 966 120.952 650.694 442.238
2678 0 71.3462 13.7639 982 122.549 652.283 437.765
2679 0 71.1682 10.3276 735 129.595 652.762 440.506
2680 0 75.149 12.6149 948 125.836 652.582 439.25
2681 0 78.0916 14.2141 1110 122.678 653.783 441.559
2682 0 77.2333 11.9896 926 129.078 652.604 434.915
2683 0 80.2838 13.8259 1110 125.681 653.396 439.213
2684 0 84.1161 13.2555 1115 125.997 652.97 441.697
2685 0 83.1561 13.156 1094 127.887 654.605 440.822
2686 0 89.0789 13.4824 1201 126.562 653.971 441.565
2687 0 89.1073 15.1054 1346 123.181 653.315 444.594
2688 0 95.2557 14.4453 1376 121.549 652.86 447.289
2689 0 96.2415 13.0817 1259 124.351 651.72 447.669
2690 0 97.4724 13.6141 1327 124.019 653.418 445.411
2691 0 100.103 15.3941 1541 120.717 651.707 450.105
2692 0 102.205 14.7742 1510 122.543 651.576 445.504
2693 0 104.303 14.7167 1535 122.263 652.58 439.473
2694 0 109.119 16.0559 1752 120.384 650.836 444.249
2695 0 112.535 19.5405 2199 114.397 650.72 440.08
2696 0 114.322 15.124 1729 126.759 650.765 440.816
2697 0 116.387 15.6891 1826 124.877 648.878 438.146
2698 0 121.429 14.0247 1703 127.163 647.996 435.688
2699 0 125.284 15.1575 1899 122.115 648.489 435.63
2700 0 125.619 20.2199 2540 115.045 647.668 434.622
2701 0 129.369 18.2115 2356 120.902 646.855 427.895
2702 0 133.567 16.9503 2264 105.798 646.886 424.493
2703 1 65.432 11.1566 730 113.51 646.534 454.241
2704 0 69.1953 14.3073 990 106.546 645.88 456.042
2705 0 68.2307 17.646 1204 104.046 646.394 453.882
2706 0 67.1214 16.0009 1074 108.325 645.452 450.309
2707 0 74.1175 13.8969 1030 110.869 645.665 446.157
2708 0 72.2434 15.2263 1100 110.945 645.405 445.525
2709 0 75.2652 13.0472 982 113.224 645.308 444.321
2710 0 81.105 18.1 1468 104.529 645.93 445.2
2711 0 78.3083 14.6472 1147 111.65 646.616 442.242
2712 0 85.6467 16.8016 1439 107.574 646.979 441.728
2713 0 87.336 17.1178 1495 108.189 646.352 438.358
2714 0 87.4972 14.0347 1228 113.672 648.492 432.433
2715 0 87.4972 14.1147 1235 140.962 650.504 432.414
2716 0 93.174 19.4153 1809 107.505 649.349 435.737
2717 0 95.21 15.3345 1460 113.064 649.747 436.598
2718 0 97.3613 17.5224 1706 110.167 648.692 431.985
2719 0 102.237 15.8456 1620 112.885 650.396 429.691
2720 0 104.459 15.8722 1658 113.068 650.507 423.47
2721 0 106.488 15.5699 1658 113.37 651.788 429.467
2722 0 108.344 14.8785 1612 115.622 650.886 424.775
2723 0 113.598 16.4704 1871 111.661 651.501 428.334
2724 0 111.807 13.9974 1565 117.385 652.628 421.813
2725 0 118.432 15.6123 1849 115.116 652.43 417.211
2726 0 120.601 13.3166 1606 117.907 653.073 418.541
2727 0 122.414 13.5524 1659 118.385 652.954 409.368
2728 0 123.403 12.0418 1486 121.633 653.242 408.017
2729 0 129.468 19.2403 2491 109.688 653.354 417.621
2730 1 66.2545 13.5538 898 115.477 653.099 446.543
2731 0 67.2523 15.479 1041 112.705 653.011 447.681
2732 0 70.4977 14.9225 1052 113.692 652.816 447.166
2733 0 72.1988 12.4656 900 115.602 652.13 451.826
2734 0 73.4243 16.248 1193 111.332 652.011 446.379
2735 0 73.456 15.0566 1106 112.976 652.326 449.323
2736 1 84.2534 13.6968 1154 113.123 653.167 446.23
2737 0 87.3187 16.5028 1441 108.013 651.253 445.001
2738 0 90.1513 15.2743 1377 110.198 651.809 444.837
2739 0 89.3598 16.0027 1430 109.427 650.394 447.242
2740 0 90.2465 14.959 1350 113.297 650.274 440.543
2741 0 90.3058 13.7422 1241 115.528 649.519 437.206
2742 0 95.1676 12.6409 1203 115.328 648.463 441.348
2743 0 100.312 15.0131 1506 110.752 649.289 439.69
2744 0 102.245 10.7683 1101 115.896 647.352 443.053
2745 0 102.425 16.617 1702 111.192 647.925 429.83
2746 0 102.425 16.7927 1720 131.892 647.92 429.866
2747 1 113.225 12.4973 1415 115.577 645.652 430.165
2748 0 110.292 11.9592 1319 118.024 646.47 426.574
2749 0 117.424 15.4057 1809 114.104 644.119 419.867
2750 0 120.3 14.7215 1771 115.202 646.627 418.375
2751 0 121.278 13.3247 1616 118.561 646.887 413.971
2752 0 123.206 13.6195 1678 118.384 646.806 413.577
2753 0 131.289 14.5861 1915 115.58 647.025 413.06
2754 0 134.41 14.8872 2001 128.357 647.567 407.467
2755 0 140.416 16.6647 2340 125.998 647.791 401.297
2756 1 71.2426 11.3977 812 131.461 647.867 435.666
2757 0 72.2285 12.2251 883 130.238 649.038 436.25
2758 0 76.225 11.7153 893 132.897 648.739 431.497
2759 0 77.1632 16.4327 1268 124.345 651.671 428.468
2760 0 81.2578 18.7305 1522 118.8 650.137 429.467
2761 0 87.2725 14.0594 1227 125.104 651.942 431.37
2762 0 88.1766 14.3802 1268 124.632 651.491 427.935
2763 0 88.2461 19.1396 1689 118.098 651.265 428.036
2764 1 101.212 14.1781 1435 122.777 653.319 431.033
2765 0 100.203 13.5225 1355 126.188 654.025 427.88
2766 0 96.3555 13.1596 1268 128.473 655.683 421.711
2767 0 96.2621 12.5075 1204 128.923 654.045 426.326
2768 0 96.2621 12.6114 1214 133.988 653.046 426.18
2769 0 107.489 14.9224 1604 124.146 656.009 418.512
2770 1 119.497 14.695 1756 123.409 654.49 419.458
2771 0 111.237 16.8649 1876 122.424 654.098 417.805
2772 0 115.352 14.0353 1619 128.064 654.426 415.695
2773 0 123.359 15.9211 1964 123.977 654.262 416.262
2774 0 122.255 16.9401 2071 122.011 654.739 418.957
2775 0 126.399 16.8909 2135 121.865 654.182 416.217
2776 0 131.318 13.9508 1832 126.837 654.258 414.634
2777 0 135.564 14.5319 1970 125.979 653.551 408.827
2778 0 135.564 14.4508 1959 129.588 652.572 408.876
2779 1 145.422 13.6568 1986 127.405 653.335 405.01
2780 0 149.471 14.9795 2239 125.6 653.015 400.571
2781 0 156.366 14.7794 2311 125.179 652.621 402.124
2782 0 159.571 15.7799 2518 124.772 651.341 397.913
2783 0 163.661 14.0107 2293 127.328 652.129 399.152
2784 0 164.6 14.9696 2464 127.23 651.383 394.613
2785 1 101.191 9.7835 990 126.642 651.422 436.754
2786 0 103.324 10.0557 1039 125.56 650.726 439.791
2787 0 101.251 14.2123 1439 120.095 650.028 435.409
2788 1 21.0352 5.56211 117 100.872 650.034 476.521
2789 0 21.0294 10.7468 226 96.6593 648.522 475.35
2790 0 20.0399 9.08187 182 97.5549 647.626 475.308
2791 0 21.1485 7.32914 155 99.7032 647.439 472.529
2792 0 19.062 7.08217 135 100.993 648.244 471.496
2793 0 23.0576 5.63806 130 100.977 647.262 470.438
2794 0 21.0834 6.64031 140 100.379 648.814 467.807
2795 0 23.1015 8.441 195 98.6974 648.159 468.2
2796 0 27.2674 7.92154 216 99.0324 648.264 463.551
2797 0 24.0216 4.20454 101 106.069 648.069 462.842
2798 0 22.0118 2.36237 52 110.519 650.019 461.75
2799 0 21.0056 4.71303 99 106.707 650.01 459.869
2800 0 14.0262 6.70176 94 99.5319 649.585 468.117
2801 0 20.0176 3.74671 75 108.067 651.8 459.867
2802 0 22.0084 7.17908 158 103.386 651.399 459.348
2803 1 147.402 12.1504 1791 130.391 650.618 394.228
2804 0 151.512 12.3225 1867 126.096 651.551 407.352
2805 1 26.0232 6.87847 179 104.274 655.212 458.737
2806 0 23.0595 2.99227 69 109 653.956 462
2807 0 33.0878 10.7592 356 96.0169 654.843 463.34
2808 0 27.1089 9.62783 261 99.2146 655.475 463.119
2809 0 26.0939 7.74129 202 103.406 656.733 459.762
2810 0 24.0137 4.49743 108 106.713 657.509 461.537
2811 0 25.0215 6.75419 169 102.432 657.97 465.775
2812 0 26.0287 9.48951 247 102.866 656.498 462.263
2813 0 30.105 10.862 327 99.7492 657.278 465.202
2814 0 25.0947 5.57887 140 108.543 657.8 463.236
2815 0 21.0426 3.84933 81 110.852 658.123 465.037
2816 0 27.0393 6.28715 170 105.359 658.212 470.871
2817 0 24.1646 4.59349 111 108.198 657.018 473.631
2818 0 27.2972 11.2832 308 99.552 657.237 473.097
2819 0 31.0254 8.99263 279 102.634 654.563 473.699
2820 0 28.0723 6.05579 170 110.594 654.924 471.4
2821 0 29.061 6.81326 198 110.672 653.414 473.273
2822 0 30.154 5.77038 174 110.678 654.115 479.316
2823 0 25.0149 9.23448 231 108.775 652.286 473.45
2824 0 28.1262 8.81741 248 106.819 653.186 478.5
2825 0 24.12 10.8624 262 105.252 653.863 479.626
2826 0 26.0905 9.62035 251 106.422 652.701 478.701
2827 0 27.1072 7.30433 198 107.242 651.444 475.788
2828 0 30.0741 8.67856 261 105.636 650.467 473.559
2829 0 30.0741 8.91132 268 111.631 649.56 473.731
2830 0 30.0741 9.04432 272 110.901 648.533 473.757
2831 0 31.1519 5.00772 156 110.532 649.609 470.385
2832 0 31.207 4.99888 156 109.397 649.846 471.468
2833 0 33.0941 5.7412 190 108.595 649.784 469.374
2834 0 31.1951 8.81549 275 102.287 649.513 472.418
2835 0 33.0774 9.79521 324 103.475 648.796 465.438
2836 0 31.0828 3.98934 124 110.226 648.814 469.685
2837 0 34.3274 8.24415 283 102.583 648.004 468.929
2838 0 34.1306 7.9987 273 102.502 648.506 465.033
2839 0 29.069 3.19929 93 111.667 648.742 460.86
2840 0 34.1236 8.29337 283 102.622 649.519 457.661
2841 0 25.1826 7.42577 187 104.385 648.054 458.658
2842 0 25.1837 7.7034 194 97.9639 646.015 458.381
2843 0 26.3625 6.63821 175 101.771 651.84 456.389
2844 0 23.2552 7.2672 169 102.55 650.562 455.42
2845 0 24.1418 5.79908 140 105 651.236 453.714
2846 0 24.1564 5.79556 140 95.35 653.236 453.714
2847 0 23.4301 7.7678 182 102.368 652.374 459.379
2848 0 23.0438 6.24896 144 103.104 651.771 457.618
2849 0 23.0524 10.9316 252 98.1508 653.433 458.591
2850 0 18.0203 6.15972 111 102.577 653.928 457.685
2851 0 19.1318 4.9133 94 102.947 654.596 458.692
2852 0 17.0147 11.1668 190 95.979 654.753 458.432
2853 0 25.3449 9.39044 238 97.1092 656.113 460.336
2854 0 21.0656 8.97196 189 100.27 654.91 457.582
2855 0 24.2944 10.5786 257 98.5798 656.187 459.07
2856 0 28.1347 12.0136 338 96.7041 654.612 459.536
2857 0 26.2516 5.40919 142 105.528 656.528 458.937
2858 0 28.2151 7.01751 198 104.601 657.076 459.672
2859 0 29.1508 8.6447 252 101.385 656.643 463.214
2860 0 31.2388 4.28953 134 106.91 656.276 462.104
2861 0 29.1916 6.6115 193 104.85 656.658 463.492
2862 0 27.0561 6.28324 170 103.994 657.241 467.965
2863 0 22.136 2.03289 45 110.356 657.556 470.356
2864 0 25.2201 7.61297 192 102.672 656.797 470.281
2865 1 8.00236 3.49897 28 105.679 657.321 476.179
2866 0 20.01 8.14593 163 101.521 655.902 473.558
2867 0 20.037 5.1405 103 104.078 655.68 476.65
2868 0 22.0016 4.31786 95 105.368 655.116 474.495
2869 0 21.0798 7.44788 157 103.025 654.56 474.344
2870 0 22.1205 7.50436 166 102.331 653.916 477.175
2871 0 24.0137 9.53623 229 101.576 651.629 475.838
2872 0 25.1068 10.3956 261 102.858 652.364 477.303
2873 0 24.1366 8.3276 201 103.562 649.896 475.428
2874 0 24.0111 5.49746 132 107.576 650.455 477.159
2875 0 26.1092 7.43032 194 103.866 650.747 477.165
2876 0 24.0368 8.36218 201 101.856 650.682 477.298
2877 0 23.0253 9.29414 214 101.126 649.757 475.107
2878 0 27.011 10.8474 293 98.058 650.218 473.334
2879 0 27.0311 7.39888 200 102.94 650.445 471.65
2880 0 28.0414 8.84408 248 101.23 650.657 473.819
2881 0 29.0413 9.36599 272 100.732 649.452 472.912
2882 0 30.0395 10.7858 324 99.2562 651.108 468.981
2883 0 29.072 10.0096 291 101.887 647.485 468.687
2884 0 30.0257 8.75916 263 103.114 649.555 468.376
2885 0 29.0202 11.9572 347 99.8501 650.68 468.481
2886 0 31.0186 9.63936 299 102.816 651.502 464.773
2887 0 30.0189 9.06096 272 103.169 651.585 465.566
2888 0 33.0361 8.748 289 104.332 652.779 464.952
2889 0 33.082 9.43111 312 104.737 654.468 462.827
2890 0 34.1094 9.73338 332 105.16 654.503 462.892
2891 0 34.0938 8.41795 287 106.606 655.202 465.226
2892 0 36.1811 10.1158 366 104.003 656.109 463.273
2893 0 37.2381 11.4667 427 102.679 656.646 462.23
2894 0 35.3633 8.53994 302 106.046 656.212 462.752
2895 1 24.0851 7.09982 171 105.567 655.871 470.62
2896 0 28.1055 11.1722 314 103.949 657.583 468.51
2897 0 21.0689 5.50575 116 112.353 657.052 468.353
2898 0 23.1229 4.19497 97 111.856 658.041 472.722
2899 0 24.1905 6.86221 166 107.608 657.717 473.265
2900 0 28.1717 8.05774 227 107.207 658.656 472.216
2901 0 29.3253 10.0596 295 104.176 659.712 472.759
2902 0 31.3395 4.59484 144 109.347 658.799 475.625
2903 0 25.1011 4.54163 114 113.061 659.982 473.018
2904 0 25.1208 4.41865 111 101.315 660.937 473.018
2905 0 31.1593 2.92047 91 112.868 657.516 477.099
2906 0 29.0941 5.94623 173 110.705 659.358 472.341
2907 1 45.1333 8.28657 374 108.358 658.714 469.987
2908 0 42.0865 7.95979 335 110.427 658.367 466.281
2909 0 32.0778 4.30203 138 114.971 659.37 474.804
2910 0 27.1794 7.984 217 110.055 658.304 477.101
2911 0 35.212 8.94581 315 109.898 657.759 475.095
2912 0 34.1002 7.82986 267 110.839 657.431 476.809
2913 0 34.1873 9.06769 310 110.89 656.3 474.619
2914 0 40.1317 6.80261 273 112.952 655.015 475.557
2915 1 57.1923 12.3443 706 104.987 655.085 467.55
2916 0 57.4422 8.30399 477 109.518 654.038 471.375
2917 0 55.1591 10.1887 562 108.461 654.199 469.776
2918 0 54.4996 12.8992 703 106.047 652.734 462.899
2919 0 53.2055 9.96138 530 109.847 652.8 466.955
2920 0 54.2271 10.5667 573 110.244 652.403 461.998
2921 0 52.3556 9.83658 515 113.623 652.891 449.885
2922 0 52.3099 11.6422 609 110.015 652.217 455.486
2923 0 50.2063 15.9143 799 105.8 652.373 452.794
2924 0 46.0581 9.81369 452 105.387 650.498 449.1
2925 0 49.0278 12.3399 605 100.4 648.555 449.985
2926 0 48.2772 7.97477 385 106.79 650.294 449.868
2927 0 47.0809 9.1757 432 106.164 649.38 447.301
2928 0 45.0347 10.8139 487 104.483 650.261 447.614
2929 0 43.0762 10.702 461 104.803 650.412 448.416
2930 0 43.0762 10.702 461 103.158 650.393 448.482
2931 0 39.1861 7.37506 289 108.304 651.979 450.197
2932 0 35.1091 11.9342 419 102.549 653.921 454.661
2933 0 36.0813 10.7812 389 104.049 653.049 455.517
2934 0 38.0749 13.1058 499 102.529 654.651 453.413
2935 0 34.0419 5.58136 190 110.621 654.805 462.774
2936 0 33.0423 7.83844 259 110.081 654.228 460.112
2937 0 34.0757 8.83328 301 107.664 656.106 465.874
2938 0 30.5831 9.64585 295 108.153 655.034 464.437
2939 0 32.087 9.19376 295 110.173 656.366 465.19
2940 0 28.1856 7.4861 211 112.592 656.825 466.654
2941 0 28.0952 8.89831 250 110.596 656.848 467.696
2942 0 27.1097 6.30771 171 114.807 658 467.807
2943 0 26.2259 3.7749 99 116.434 657.03 472.505
2944 0 25.1591 11.3279 285 106.028 656.79 473.895
2945 0 26.2927 10.269 270 108.544 656.97 473.63
2946 0 26.2039 6.6784 175 113.84 656.074 476.617
2947 0 25.2163 5.67093 143 115.126 656.378 475.105
2948 0 22.0483 6.30435 139 114.518 655.209 478.496
2949 0 23.0782 9.22947 213 109.15 655.244 476.493
2950 0 24.0952 11.4131 275 105.996 655.68 478.251
2951 0 21.0387 8.65073 182 108.967 655.472 481.132
2952 0 19.0173 8.20306 156 108.782 655.333 482.288
2953 0 19.0101 7.94315 151 111.205 654.728 482.98
2954 0 21.0022 9.47519 199 107.452 655.01 482.533
2955 0 19.0088 5.36593 102 113.304 653.833 483.314
2956 0 18.0182 8.87991 160 107.856 654.875 485.775
2957 0 18.015 9.3811 169 107.284 654.154 483.207
2958 0 16.0663 5.6018 90 112.144 654.678 485.878
2959 0 16.048 3.8634 62 116.597 652.339 483.79
2960 0 17.0089 8.99528 153 105.954 652.876 481.209
2961 0 17.0043 8.7625 149 108.141 652.826 483.094
2962 0 15.0033 3.46591 52 115.154 652.135 482.538
2963 0 15.0317 4.72334 71 112.38 651.225 483.718
2964 0 12.024 2.49502 30 114.867 651.067 481.767
2965 0 18.0221 6.04814 109 108.174 650.11 480.615
2966 0 17.0821 9.4836 162 103.531 649.58 478.519
2967 0 17.0383 6.51472 111 109.27 650.45 479.135
2968 0 16.0162 5.05737 81 110.988 649.63 478.741
2969 0 15.0174 6.3926 96 108.552 650.188 476.594
2970 0 18.0541 5.37275 97 110.814 650.866 474.876
2971 0 17.0738 7.37972 126 106.841 652.524 474.587
2972 0 16.0611 6.5998 106 109.302 650.83 473.151
2973 0 16.0044 6.24829 100 111.22 651.81 473.37
2974 0 16.0326 4.17899 67 113.582 650.955 473.179
2975 0 22.1007 11.9453 264 100.765 651.057 472.019
2976 0 18.0317 4.65847 84 109.988 653.286 468.56
2977 0 17.0029 5.29323 90 110.289 653.4 471.533
2978 0 18.0774 8.62956 156 105.923 653.872 474.07
2979 0 17.0056 10.5259 179 103.352 654.112 472.369
2980 0 17.0407 8.50905 145 106.476 654.538 472.241
2981 0 19.018 7.99245 152 105.105 654.941 473.493
2982 0 17.0073 8.52576 145 104.917 655.614 474.069
2983 0 15.0638 4.51413 68 110.941 657.162 475.221
2984 0 16.0146 8.92936 143 104.14 656.804 475.203
2985 0 18.0243 10.3194 186 101.194 657.522 474.694
2986 0 15.0046 4.26535 64 110.766 656.344 476.281
2987 0 20.0509 9.77513 196 102.24 656.255 476.097
2988 0 21.0144 9.99313 210 101.39 656.19 477.633
2989 0 17.0345 6.39879 109 106.193 656.376 480
2990 0 17.0052 9.05603 154 102.597 656.597 479.695
2991 0 16.0157 9.24094 148 103.98 656.189 477.905
2992 0 21.3121 6.70979 143 104.483 654.657 483.329
2993 0 20.0521 9.62493 193 102.829 656.14 480.953
2994 0 22.0065 8.58839 189 103.968 655.037 484.09
2995 0 19.1711 6.9897 134 106.873 655.396 484.881
2996 0 21.151 7.89559 167 107.096 658.707 478.748
2997 0 22.0203 9.49125 209 104.464 654.861 481.56
2998 0 21.0524 5.41507 114 111.64 651.447 470.114
2999 0 20.0227 2.89671 58 116.707 650.397 471.983
3000 0 20.044 4.93913 99 114.626 650.667 471.838
3001 0 29.1646 14.7782 431 89.8353 648.951 471.798
3002 0 24.0069 4.70697 113 107.044 649.115 468.345
3003 0 25.0782 11.4841 288 99.3819 649.24 465.149
3004 0 23.0076 9.95323 229 105.812 648.493 462.629
3005 0 24.0187 7.03618 169 107.325 648.053 464.059
3006 0 20.043 9.77898 196 100.153 647.449 465.888
3007 0 22.0127 10.2214 225 100.182 645.658 465.698
3008 0 24.0589 9.9755 240 99.4333 646.754 465.446
3009 0 21.0249 8.18077 172 104.256 646.215 465.785
3010 1 83.3332 12.756 1063 114.599 649.387 436.923
3011 0 85.383 11.6651 996 117.708 648.149 431.327
3012 0 87.5222 13.8936 1216 112.053 648.869 436.394
3013 0 88.2073 14.6586 1293 112.526 648.774 434.7
3014 0 88.2073 14.8514 1310 147.764 648.798 434.648
3015 0 89.0883 12.7065 1132 118.513 649.207 427.593
3016 0 91.1992 11.9628 1091 120.531 650.403 426.067
3017 0 95.1548 17.2771 1644 112.199 649.508 420.377
3018 0 96.3792 16.653 1605 113.621 649.832 423.062
3019 0 96.2107 17.0251 1638 113.74 649.004 421.938
3020 0 94.2893 12.6525 1193 122.793 651.396 418.685
3021 1 23.0041 10.1286 233 103.481 651.498 457.36
3022 0 24.076 10.5084 253 102.273 652.332 458.534
3023 0 21.1536 8.08374 171 105.953 653.018 461.216
3024 0 19.0325 9.82529 187 102.674 654.16 465.636
3025 0 22.0415 8.93767 197 104.736 654.503 464.65
3026 0 21.0356 11.3142 238 103.046 654.958 465.651
3027 0 22.0383 7.62311 168 105.804 654.78 467.476
3028 0 23.0082 5.17206 119 109.294 655.588 467.748
3029 0 22.0223 7.9465 175 106.669 654.154 467.794
3030 0 23.0161 7.77716 179 106.525 655.642 468.313
3031 0 24.0603 10.4321 251 104.884 654.701 466.223
3032 0 29.176 8.26022 241 107.743 656.075 469.651
3033 0 22.1367 13.1456 291 97.5945 655.488 474.859
3034 0 20.0616 11.8136 237 100.46 655.329 477.924
3035 0 22.0273 10.5324 232 101.375 654.707 477.457
3036 0 21.031 7.22743 152 104.441 653.993 481.066
3037 0 21.0936 12.0416 254 98.1654 654.437 482.917
3038 1 140.455 15.2504 2142 125.141 654.033 424.765
3039 0 143.706 16.1162 2316 124.5 654.441 424.519
3040 0 143.516 12.1798 1748 133.219 654.201 419.794
3041 0 144.519 14.5102 2097 129.967 653.25 415.69
3042 0 151.537 14.2209 2155 130.025 653.004 418.386
3043 1 12.0122 5.91064 71 100.549 652.662 486.972
3044 0 18.0639 11.57 209 95.6124 653.215 483.158
3045 1 89.273 13.3075 1188 123.271 649.565 447.187
3046 0 89.238 13.1894 1177 126.073 650.155 442.811
3047 0 95.0986 12.976 1234 130.18 649.493 442.391
3048 0 98.3139 14.769 1452 126.813 648.691 440.247
3049 0 99.3239 15.7767 1567 124.862 649.432 440.739
3050 0 101.438 13.0326 1322 131.318 648.742 432.694
3051 1 85.2093 14.7871 1260 131.38 647.91 431.784
3052 1 175.388 8.0336 1409 135.785 647.874 412.558
3053 0 169.337 11.2616 1907 136.056 648.017 400.693
3054 1 179.198 7.68426 1377 141.701 647.59 402.887
3055 1 167.228 12.6355 2113 137.892 648.164 389.654
3056 0 167.441 11.7056 1960 140.676 649.203 387.165
3057 0 176.492 9.66618 1706 141.506 647.457 394.278
3058 0 166.296 12.4537 2071 138.122 648.638 391.998
3059 1 135.218 11.5369 1560 133.96 648.809 412.256
3060 0 126.21 14.4996 1830 131.105 648.724 404.929
3061 1 12.0017 5.3326 64 93.8438 651.797 472.109
3062 0 12.0022 9.24832 111 91.9189 652.243 472.297
3063 0 8.00669 2.24812 18 97.3889 654.333 471.056
3064 0 3 14.6667 44 91.4773 653.636 468.477
3065 0 11.006 7.63219 84 97.25 654.488 475.512
3066 0 0 0 0 -nan -nan -nan
3067 0 0 0 0 -nan -nan -nan
3068 0 8.00176 8.12322 65 95.2308 654.246 479.831
3069 0 8.00267 4.37354 35 99.3714 654.943 481.086
3070 1 88.1844 13.1316 1158 126.568 653.505 434.249
3071 0 89.3398 12.3573 1104 127.631 653.733 435.216
3072 0 95.1518 10.3939 989 130.958 653.382 433.519
3073 0 93.0982 12.2881 1144 128.245 654.368 431.174
3074 0 100.326 13.4262 1347 125.583 654.921 431.786
3075 0 108.299 13.2134 1431 126.178 655.43 426.529
3076 0 107.198 15.0935 1618 123.677 654.533 428.365
3077 0 109.349 13.8089 1510 127.234 654.096 423.129
3078 0 110.262 14.8737 1640 124.882 654.368 427.604
3079 0 114.229 14.8912 1701 125.669 653.797 424.598
3080 0 116.429 13.0551 1520 128.704 653.955 422.924
3081 0 118.443 13.4157 1589 128.903 653.357 418.222
3082 0 124.277 12.9147 1605 129.806 653.753 419.597
3083 0 125.334 11.7526 1473 132.133 651.881 416.546
3084 0 129.193 15.1788 1961 127.129 651.613 415.15
3085 0 133.412 13.4171 1790 129.528 650.79 415.298
3086 0 136.501 13.6556 1864 129.183 652.553 412.483
3087 0 137.48 13.1364 1806 130.966 650.395 410.892
3088 0 140.546 12.7503 1792 132.533 649.775 407.056
3089 0 150.406 19.0352 2863 120.364 650.086 408.073
3090 0 148.347 14.4391 2142 129.529 650.642 405.186
3091 0 150.591 14.7353 2219 130.658 649.995 396.844
3092 0 155.565 13.7949 2146 132.418 647.902 393.105
3093 0 159.663 11.9 1900 134.951 647.74 394.161
3094 0 166.576 15.2303 2537 128.337 646.914 395.654
3095 1 11.0037 6.81589 75 97.1867 649.32 480.013
3096 0 15.0081 7.9957 120 96.1167 649.05 477.508
3097 0 11.0018 7.63514 84 96.25 648.131 478.75
3098 0 13.0065 3.99801 52 101.596 650.058 480.712
3099 0 13.0155 3.45742 45 103.156 649.667 474.444
3100 0 10.0106 2.69713 27 104.481 649.444 473.333
3101 0 18.0206 5.49372 99 101.404 650.919 472.263
3102 0 10.006 4.1975 42 99.9048 650.976 470.881
3103 0 15.0649 3.71725 56 104.607 650.786 473.946
3104 0 14.0077 2.92697 41 102.756 650.024 476.902
3105 0 16.0243 5.11724 82 101.793 652.195 478.5
3106 0 15.0044 7.39782 111 101.622 650.622 475.991
3107 0 17.0297 7.04653 120 102.417 650.892 474.867
3108 0 15.0059 7.26383 109 103.248 650.156 474.541
3109 0 12.0017 7.99884 96 102.594 652.031 473.406
3110 0 17.0241 3.52441 60 107.633 652.3 477.833
3111 0 17.0202 6.93293 118 103.203 653.119 478.356
3112 0 16.0026 8.7486 140 101.336 651.986 478.279
3113 0 18.0231 9.54331 172 102.465 653.454 477.279
3114 0 17.0238 4.87552 83 106.59 652.422 476.554
3115 0 19.0187 9.41181 179 102.296 654.106 478.458
3116 0 19.0261 7.20065 137 105.774 651.708 477.825
3117 0 20.0153 8.94314 179 102.939 654.458 479.559
3118 0 24.0866 7.18241 173 104.069 653.382 479.821
3119 0 20.0146 7.84426 157 103.809 652.465 482.624
3120 0 24.1054 8.75324 211 102.024 652.024 484.934
3121 0 23.1047 9.0458 209 95.7512 651.034 484.837
3122 0 22.0868 3.98428 88 109.239 651.034 485.045
3123 0 21.0079 5.56934 117 106.564 651.291 483.376
3124 0 20.0824 7.91737 159 103.66 652.27 485.698
3125 0 20.0191 9.69076 194 100.206 650.015 486.052
3126 0 17.173 4.94963 85 107.341 652.494 487.494
3127 0 18.0328 1.9409 35 109.857 652.4 486.4
3128 0 21.0048 6.76036 142 102.472 651.993 488.739
3129 0 20.038 10.0808 202 100.792 652.812 485.995
3130 0 20.05 12.3691 248 97.2258 650.794 486.782
3131 0 13.0118 7.45478 97 105.866 651.629 475.247
3132 0 17.0093 10.5824 180 101.194 651.883 481.261
3133 0 20.0441 10.0279 201 104.597 647.304 481.98
3134 0 21.1757 9.01976 191 104.539 648.613 485.298
3135 0 20.0224 8.09095 162 105.358 648.37 482.642
3136 0 23.0352 12.9801 299 98.3512 650.054 484.498
3137 0 23.0188 11.0779 255 100.604 648.639 485.678
3138 0 23.0131 8.08236 186 104.887 648.306 482.452
3139 0 22.0177 9.08361 200 103.87 647.665 484.43
3140 0 23.013 7.99548 184 104.723 648.723 481.429
3141 0 23.1189 7.3533 170 106.535 646.512 479.7
3142 0 24.1533 6.21033 150 108.647 647.3 480.5
3143 0 23.0269 7.20896 166 107.723 648.56 477.536
3144 0 23.1674 9.36661 217 103.124 646.866 476.857
3145 0 25.0328 7.90963 198 103.899 650.475 474.652
3146 0 24.0418 7.279 175 105.229 649.949 476.343
3147 0 24.026 7.82486 188 106.277 650.218 475.878
3148 0 25.0591 9.57737 240 103.979 652.304 472.45
3149 0 31.007 11.6748 362 98.6906 652.423 473.627
3150 0 30.1301 10.9193 329 100.869 653.362 471.529
3151 0 31.1505 10.3369 322 102.115 653.404 471.096
3152 0 31.03 10.506 326 102.896 652.666 470.773
3153 0 32.1144 6.94393 223 107.668 654.117 472.058
3154 0 33.2644 8.83829 294 105.088 654.014 471.861
3155 0 32.0511 10.8265 347 102.496 654.631 472.294
3156 0 34.1358 8.9642 306 104.216 655.31 472.5
3157 0 32.226 7.81978 252 105.016 655.639 475.155
3158 0 32.0684 9.82276 315 105.559 655.343 473.346
3159 0 34.1111 11.8437 404 101.347 654.396 473.842
3160 0 32.1666 10.4145 335 104.454 655.284 475.343
3161 0 33.0666 7.16736 237 106.502 654.886 479.608
3162 0 32.0174 8.08934 259 105.761 654.819 481.228
3163 0 32.0559 11.1056 356 105.146 652.733 478.933
3164 0 29.4408 5.94413 175 112.794 650.931 473.634
3165 0 30.0512 12.7782 384 104.516 650.583 474.297
3166 0 33.1826 10.4573 347 106.674 650.499 476.089
3167 0 33.3303 10.0809 336 106.863 649.095 476.804
3168 0 35.1542 9.70011 341 107.009 649.572 474.994
3169 0 30.253 5.32178 161 114.522 649.72 475.429
3170 0 33.1495 9.20075 305 106.961 649.774 478.062
3171 0 35.2489 11.1776 394 103.414 648.396 477.193
3172 0 32.2607 5.82752 188 110.681 647.91 477.957
3173 0 35.4021 8.67179 307 107.498 647.199 475.375
3174 0 32.1476 8.52318 274 109.131 646.157 474.642
3175 0 36.3322 14.395 523 101.405 645.491 473.459
3176 0 30.1355 6.27167 189 111.899 645.91 476.942
3177 0 29.0554 5.40348 157 112.127 644.14 477.924
3178 0 35.2527 11.5168 406 105.7 645.438 474.128
3179 0 31.1842 8.40169 262 109.565 643.721 475.981
3180 0 33.1226 9.29879 308 108.114 644.299 475.542
3181 0 33.0548 7.86572 260 110.758 648.588 476.485
3182 0 33.03 7.08447 234 109.487 648.598 479.171
3183 0 31.0338 5.86456 182 111.209 649.154 478.357
3184 0 33.0792 13.3619 442 102.563 649.803 474.136
3185 0 35.1024 7.09353 249 109.964 649.655 475.863
3186 0 33.0997 6.76744 224 112.759 649.638 472.728
3187 0 34.1115 10.6709 364 106.525 650.607 473.489
3188 0 36.0195 7.85686 283 111.413 650.869 471.855
3189 0 36.0542 8.18212 295 109.997 651.044 474.627
3190 0 38.0264 9.07265 345 110.661 651.925 471.041
3191 0 36.1866 6.41122 232 113.728 652.392 471.931
3192 0 34.0226 8.75889 298 110.07 650.903 468.785
3193 0 37.0294 10.4782 388 106.384 653.144 474.268
3194 0 38.019 12.4674 474 103.722 655.108 472.35
3195 0 35.0648 7.98521 280 108.757 654.043 474.164
3196 0 34.0911 7.27464 248 112.403 653.226 471.762
3197 0 35.0564 9.5275 334 110.32 655.075 472.584
3198 0 34.0828 6.71893 229 113.428 655.017 473.061
3199 0 35.1286 9.67872 340 108.535 656.421 474.015
3200 0 34.1308 10.7234 366 107.738 655.085 475.462
3201 0 35.0465 7.70404 270 111.048 653.474 476.2
3202 0 33.0831 10.6096 351 106.265 654.254 476.59
3203 0 33.0769 9.03955 299 110.448 652.716 473.288
3204 0 29.1954 6.0626 177 113.497 651.045 476.299
3205 0 34.149 10.8934 372 109.062 651.634 473.513
3206 0 34.149 10.9227 373 101.18 651.614 473.528
3207 0 36.3518 7.48243 272 115.537 651.658 470.912
3208 0 37.1363 9.23624 343 113.338 649.773 473.534
3209 0 36.2331 8.27973 300 117.733 650.497 459.09
3210 0 37.0823 9.46544 351 115.729 649.689 461.217
3211 0 38.3229 7.95868 305 116.249 650.013 468.134
3212 0 39.3169 9.30898 366 116.172 649.667 473.921
3213 0 38.1733 8.27803 316 114.171 649.047 480.418
3214 0 39.1758 6.56017 257 118.634 648.634 479.105
3215 0 38.1071 6.06186 231 119.597 647.208 478.952
3216 0 37.1558 6.27089 233 121.017 646.283 477.421
3217 0 40.1164 9.04866 363 117.333 647.482 475.399
3218 0 36.1668 6.69122 242 113.959 645.657 476.612
3219 0 29.0241 4.06559 118 115.839 648.212 454.254
3220 0 26.0522 6.41021 167 111.012 649.066 452.695
3221 0 35.0234 7.13809 250 111.6 646.86 450.684
3222 0 31.0429 8.21445 255 109.694 647.561 453.835
3223 0 35.0922 2.22272 78 117.013 649.244 462.295
3224 0 39.0876 5.34697 209 113.225 649.722 458.818
3225 0 41.0611 9.13272 375 109.832 648.691 465.981
3226 0 39.0932 5.44852 213 116.878 650.526 462.324
3227 0 46.2642 6.61418 306 116.431 646.667 467.039
3228 0 43.0832 6.98649 301 116.349 647.282 465.817
3229 0 45.0459 10.7224 483 112.619 647.847 451.859
3230 0 45.2616 7.97586 361 114.737 648.161 461.726
3231 0 40.0647 8.46132 339 112.504 646.127 470.799
3232 0 36.0379 8.49107 306 116.225 647.886 464.961
3233 0 40.3409 10.8327 437 111.872 646.485 466.174
3234 0 38.1469 9.35855 357 116.227 645.765 465.487
3235 0 54.431 5.65854 308 123.338 647.867 459.276
3236 0 51.1368 8.42837 431 117.812 648.378 462.724
3237 0 45.2315 10.4794 474 111.951 649.175 462.076
3238 0 48.2277 10.9895 530 110.36 649.749 461.613
3239 0 44.0747 10.6864 471 114.134 649.253 461.96
3240 0 42.2444 9.80013 414 119.307 650.181 463.843
3241 0 50.4939 9.54571 482 121.006 649.766 462.475
3242 0 53.5399 9.46957 507 119.594 651.428 465.602
3243 0 50.6058 7.25213 367 127.035 651.594 465.627
3244 0 50.6316 8.78898 445 124.398 652.364 462.366
3245 0 53.4425 8.25187 441 124.444 652.052 468.719
3246 0 48.3163 16.3713 791 105.659 650.741 462.006
3247 0 45.1987 12.611 570 115.963 651.37 466.416
