time division length width area intensity CMx CMy
0 0 30.1283 12.2808 370 131.727 891.503 472.1
1 0 34.0225 12.286 418 125.361 890.376 472.703
2 0 34.0225 14.1671 482 138.676 889.232 471.774
3 0 32.0149 8.37109 268 158.869 888.403 473.022
4 0 32.0104 11.5275 369 151.659 887.209 470.531
5 0 30.0512 12.1792 366 128.076 887.219 469.579
6 0 30.0512 12.2125 367 159.098 887.204 469.605
7 0 32.1379 16.2736 523 120.212 885.618 469.379
8 0 31.1383 14.5801 454 120.46 886.132 470.778
9 0 34.0418 15.1578 516 118.291 886.079 472.401
10 0 33.0354 13.0769 432 123.583 885.977 471.505
11 0 33.0189 12.5685 415 126.749 885.072 469.889
12 0 35.0548 12.4947 438 126.607 885.573 469.171
13 0 36.0443 11.9575 431 127.55 883.984 466.835
14 0 36.0443 12.0685 435 151.616 883.002 466.869
15 0 38.039 14.38 547 121.495 884.088 463.846
16 0 40.0315 14.4136 577 117.442 883.697 464.879
17 0 39.1278 12.9575 507 127.984 882.221 459.479
18 0 46.1424 12.3314 569 128.404 882.41 459.752
19 0 44.0753 15.1559 668 116.217 881.978 459.072
20 0 44.0705 15.3618 677 123.189 883.081 456.324
21 0 44.1204 14.8004 653 120.394 883.41 457.095
22 0 46.1046 14.4237 665 126.095 884.144 453.313
23 0 49.0857 14.9738 735 120.713 890.565 452.712
24 0 50.0983 15.5295 778 120.391 890.271 452.305
25 0 50.1314 15.6988 787 121.273 893.503 448.273
26 0 51.0547 16.0612 820 119.572 893.861 446.816
27 0 53.1194 13.0461 693 125.139 892.837 446.742
28 0 58.1442 15.9259 926 118.877 893.222 446.841
29 0 56.1293 14.3062 803 120.604 893.4 445.2
30 0 61.1008 15.2044 929 120.011 892.611 443.786
31 0 65.3426 14.4163 942 121.006 893.096 441.958
32 0 65.3448 14.3393 937 136.41 893.107 441.934
33 0 65.3516 14.3225 936 135.988 893.097 441.937
34 0 67.2531 13.189 887 130.25 894.77 437.398
35 0 72.1689 15.9071 1148 123.6 894.416 440.502
36 0 75.2111 14.6255 1100 124.042 896.819 440.063
37 0 76.2357 18.2723 1393 116.227 897.124 440.748
38 0 80.3137 19.6853 1581 112.626 898.275 436.992
39 0 81.1182 16.2849 1321 118.599 897.066 438.201
40 0 84.3175 13.9354 1175 119.804 896.027 440.092
41 0 86.0645 19.1368 1647 112.751 896.425 439.561
42 0 89.2657 16.5797 1480 116.444 896.081 440.175
43 0 93.146 17.8966 1667 113.71 894.598 438.488
44 0 98.1293 14.328 1406 119.847 894.329 437.203
45 1 53.1703 14.1432 752 113.426 893.846 461.783
46 0 51.0287 12.5028 638 135.582 894.069 458.785
47 0 56.1027 16.1311 905 128.274 894.057 458.918
48 0 56.1193 13.3109 747 133.083 893.511 457.197
49 0 62.1593 13.7228 853 132.208 892.703 459.104
50 0 62.1118 16.4864 1024 133.735 892.62 455.013
51 0 65.1274 14.6636 955 136.193 890.902 454.085
52 0 67.0515 14.2726 957 137.393 890.457 452.578
53 0 71.1406 16.4885 1173 131.264 889.766 453.273
54 0 73.0828 16.4197 1200 131.869 888.245 450.632
55 0 75.2587 15.0946 1136 135.51 888.343 447.069
56 0 78.1809 18.9304 1480 127.47 887.204 446.432
57 0 82.2096 16.5552 1361 130.979 887.08 445.025
58 0 85.0662 15.2822 1300 133.84 885.278 442.503
59 0 85.0662 15.247 1297 164.157 884.289 442.498
60 0 92.257 15.7928 1457 130.127 885.269 440.184
61 0 94.6399 16.6103 1572 130.242 885.107 435.067
62 0 98.2164 15.8935 1561 131.302 884.63 433.785
63 1 52.0374 11.2996 588 132.641 884.997 455.908
64 0 53.0767 14.2247 755 126.538 883.285 453.212
65 0 54.2411 13.5875 737 128.647 883.364 452.775
66 0 56.1526 14.4784 813 126.336 884.349 450.314
67 0 61.229 14.16 867 125.239 884.301 449.171
68 0 62.4661 13.5594 847 128.568 883.623 445.462
69 0 64.2363 15.5519 999 124.903 885.125 443.14
70 0 67.1535 15.889 1067 123.306 884.005 444.047
71 0 69.1658 13.7207 949 128.051 886.5 440.499
72 0 73.256 16.4901 1208 125.499 886.852 441.123
73 0 73.143 13.8769 1015 130.468 888.154 439.295
74 0 73.1419 13.8635 1014 154.392 888.126 439.33
75 0 82.3328 15.4495 1272 124.671 889.437 436
76 0 82.1545 15.1179 1242 126.463 889.031 433.105
77 0 86.2517 14.7012 1268 125.177 890.51 434.138
78 0 89.2639 12.6255 1127 128.259 890.345 434.392
79 0 89.2452 12.2696 1095 148.333 890.328 434.187
80 1 46.0789 11.4803 529 124.414 891.881 454.308
81 0 48.2136 11.5113 555 123.681 891.413 457.232
82 0 52.0322 13.1842 686 119.65 891.615 455.953
83 0 52.0777 11.406 594 121.854 891.135 458.308
84 0 54.0584 11.95 646 121.093 892.336 458.04
85 0 56.0594 12.6473 709 119.199 891.406 457.381
86 0 58.0548 13.0739 759 117.069 892.339 459.967
87 0 60.0611 11.5049 691 118.741 891.713 461.501
88 0 62.0891 12.5787 781 118.648 891.627 460.059
89 0 64.0842 13.0609 837 120.048 890.209 457
90 0 67.1213 13.1106 880 119.882 890.06 455.936
91 0 70.1628 14.3951 1010 117.676 890.187 457.371
92 0 72.2762 11.6913 845 122.704 889.504 455.471
93 0 76.1248 13.3596 1017 119.964 888.449 456.489
94 0 75.3767 12.9218 974 123.682 887.882 452.216
95 0 80.1246 12.3433 989 123.872 886.219 452.906
96 0 83.3149 13.3109 1109 122.927 886.398 447.08
97 0 84.2965 10.7478 906 125.777 885.469 448.364
98 0 87.0646 14.2308 1239 120.72 885.391 443.701
99 1 48.1406 12.6297 608 118.41 885.354 466.28
100 0 50.2671 13.6471 686 118.859 885.079 464.439
101 0 50.0823 11.8804 595 129.55 883.286 460.597
102 0 50.0465 12.7681 639 126.54 882.214 458.011
103 0 53.1164 13.4422 714 125.863 881.912 455.595
104 0 51.1258 11.0707 566 131.684 882.249 455.216
105 0 58.1719 12.4631 725 126.89 881.423 456.16
106 0 58.2081 14.1733 825 125.647 880.8 451.767
107 0 61.1658 13.4225 821 127.183 882.18 449.618
108 0 65.3085 15.1894 992 122.197 882.668 449.52
109 0 63.1459 12.1782 769 131.194 882.043 448.199
110 0 66.1671 13.7379 909 127.752 883.344 445.384
111 0 69.2813 12.875 892 130.183 884.024 443.8
112 0 72.3545 15.0509 1089 124.976 884.239 442.56
113 0 74.3183 13.1461 977 129.99 884.995 439.789
114 0 73.2176 13.0706 957 132.623 884.296 438.916
115 0 81.2628 15.0007 1219 126.851 885.596 437.984
116 0 81.4763 13.3658 1089 129.373 886.523 439.346
117 0 85.4404 13.3894 1144 129.307 887.488 435.08
118 0 88.342 14.2628 1260 128.591 887.041 433.568
119 0 88.2587 13.959 1232 130.094 887.343 430.758
120 1 48.1184 9.99617 481 127.187 887.622 452.439
121 0 52.1247 12.3934 646 119.554 889.008 450.469
122 0 50.2193 10.2948 517 118.956 889.957 450.282
123 0 55.0926 13.7949 760 113.247 891.672 451.291
124 0 58.078 15.0487 874 119.47 889.589 452.162
125 0 59.0843 12.626 746 124.615 889.973 452.473
126 0 60.147 14.3814 865 122.942 889.498 452.29
127 0 63.2081 13.4635 851 122.133 889.604 452.428
128 0 65.165 17.2178 1122 115.141 890.986 450.491
129 0 65.165 17.3866 1133 137.5 892.014 450.507
130 0 70.1435 13.7718 966 120.371 889.476 453.426
131 0 69.0744 12.2042 843 125.11 887.972 453.963
132 0 71.1809 12.6017 897 124.959 888.414 450.512
133 0 73.1202 13.8129 1010 125.112 887.797 451.462
134 0 74.2072 12.6807 941 126.05 886.822 455.194
135 0 77.034 13.6952 1055 125.905 887.228 451.924
136 0 80.1577 16.2305 1301 121.117 886.691 451.879
137 0 80.1804 11.5365 925 130.163 887.574 450.202
138 0 83.1445 15.431 1283 123.651 885.777 447.275
139 0 86.2004 12.993 1120 126.8 886.327 446.925
140 0 89.335 13.7348 1227 126.096 883.669 440.575
141 0 92.1441 13.9021 1281 118.993 883.671 441.602
142 1 46.0819 12.0655 556 116.138 883.108 462.408
143 0 48.096 12.2879 591 119.298 882.577 462.888
144 0 47.1269 12.4982 589 116.995 882.93 464.331
145 0 49.1065 12.9107 634 116.2 881.453 460.73
146 0 50.0671 11.7243 587 117.135 881.426 461.211
147 0 51.1867 13.5387 693 115.892 881.882 457.802
148 0 53.1254 13.7975 733 114.928 881.254 458.315
149 0 54.2092 14.1673 768 113.79 880.04 458.092
150 0 54.1465 12.5031 677 118.437 881.973 455.57
151 0 55.2863 13.2402 732 116.754 881.477 452.273
152 0 56.1885 10.6428 598 120.965 882.226 452.03
153 0 60.2609 14.9185 899 113.261 881.721 449.914
154 0 60.2771 11.7458 708 119.819 882.534 445.326
155 0 64.089 12.5138 802 117.092 883.347 445.859
156 0 63.1028 10.6651 673 120.153 883.948 446.84
157 0 75.2997 11.9921 903 117.182 884.136 442.604
158 0 72.1624 11.7097 845 118.677 883.904 442.014
159 0 73.0978 10.657 779 119.228 885.9 443.504
160 0 70.2055 10.042 705 122.17 885.474 439.789
161 0 78.2417 12.9598 1014 117.733 888.376 437.067
162 0 78.19 12.1627 951 120.087 887.774 436.326
163 0 81.1821 10.6181 862 121.705 889.617 437.416
164 0 84.2939 13.0021 1096 118.274 889.41 436.393
165 0 88.108 13.1657 1160 117.372 890.184 438.348
166 0 90.2496 13.7729 1243 118.442 888.7 431.939
167 1 52.0649 12.8109 667 116.319 889.924 454.874
168 0 54.1462 12.928 700 114.329 890.736 456.057
169 0 52.0934 14.0133 730 109.889 890.23 455.756
170 0 54.0681 10.7827 583 113.412 890.587 460.607
171 0 54.1802 13.732 744 110.102 891.237 456.113
172 0 56.0786 12.9639 727 110.658 890.16 458.937
173 0 59.1377 14.4409 854 107.347 889.364 459.125
174 0 61.0516 13.0873 799 110.255 889.055 456.025
175 0 62.2193 13.9989 871 109.064 888.152 456.372
176 0 65.2001 13.5122 881 110.195 888.997 457.043
177 0 69.2789 14.1602 981 108.557 887.739 453.954
178 0 70.1438 16.1098 1130 105.434 887.843 456.419
179 0 72.354 11.6649 844 112.355 887.552 456.914
180 0 76.1995 12.1654 927 110.742 885.714 455.666
181 0 80.275 14.6247 1174 107.474 884.708 452.653
182 0 80.275 14.6372 1175 118.276 883.694 452.596
183 0 85.2558 15.9872 1363 107.021 884.485 451.077
184 0 84.3375 9.56869 807 116.83 881.99 447.409
185 0 91.1184 11.2381 1024 113.245 882.792 446.362
186 0 92.2097 13.8706 1279 110.452 882.105 438.67
187 0 95.1635 13.4505 1280 112.858 880.784 439.325
188 0 96.461 12.4403 1200 115.709 880.387 439.618
189 1 51.0883 11.7052 598 114.276 881.149 461.246
190 0 51.202 12.5776 644 111.411 880.551 462.18
191 0 55.0595 14.7114 810 109.021 881.264 457.048
192 0 55.2946 12.4244 687 113.448 881.082 456.607
193 0 55.1246 10.3584 571 116.103 880.767 455.499
194 0 59.0963 11.8789 702 106.158 878.991 456.537
195 0 59.3224 9.79394 581 110.067 878.957 453.666
196 0 62.1235 10.5596 656 109.389 879.559 451.73
197 0 62.1274 10.6072 659 121.206 879.545 451.737
198 0 64.1022 11.5441 740 110.007 880.485 446.699
199 0 71.1637 15.1622 1079 104.317 881.407 445.937
200 0 70.0723 11.0885 777 110.719 882.194 445.447
201 0 74.3142 13.6313 1013 108.068 882.48 443.448
202 0 76.3002 13.3289 1017 108.641 883.531 443.852
203 0 76.0799 13.3544 1016 110.611 884.486 443.204
204 0 80.2639 13.7796 1106 110.5 884.504 440.745
205 1 43.0656 9.59002 413 109.571 885.37 462.625
206 0 42.1338 9.75464 411 114.652 886.017 459.861
207 0 47.0285 13.9915 658 109.236 887.597 459.483
208 0 46.2562 15.6087 722 107.211 887.731 458.51
209 0 48.0938 17.5906 846 105.72 889.296 458.415
210 0 49.107 11.0371 542 116.194 888.485 459.184
211 0 51.0871 13.1736 673 112.089 890.042 460.643
212 0 49.0507 12.64 620 118.623 890.176 458.195
213 0 54.105 17.0594 923 108.971 889.283 458.678
214 0 56.314 12.7677 719 115.424 889.22 459.9
215 0 58.1678 13.0313 758 115.753 890.148 460.731
216 0 58.1699 12.7042 739 116.731 889.306 459.825
217 0 58.1049 13.6649 794 116.46 889.252 459.557
218 0 60.2224 15.0276 905 113.762 888.341 461.412
219 0 65.4188 14.4148 943 112.762 888.462 460.782
220 0 67.1282 12.8262 861 116.137 887.362 459.697
221 0 67.2182 13.7612 925 115.088 885.998 458.416
222 0 70.0803 12.5285 878 114.518 885.378 461.864
223 0 73.2198 16.1295 1181 110.091 884.86 456.83
224 0 73.0626 12.5782 919 114.542 883.98 460.301
225 0 79.2772 15.162 1202 110.682 883.09 456.103
226 0 84.1186 16.4054 1380 108.58 883.088 454.889
227 0 86.2831 16.6197 1434 113.272 882.031 453.907
228 0 87.3058 13.5615 1184 119.99 881.776 447.1
229 0 92.1444 20.7066 1908 107.181 881.28 449.042
230 0 95.2704 17.4136 1659 110.655 880.243 451.332
231 1 50.2408 13.4552 676 116.615 880.271 465.231
232 0 54.1423 14.7389 798 112.147 879.916 465.288
233 0 56.0978 13.316 747 112.431 880.178 462.264
234 0 54.2151 13.7785 747 112.549 878.541 459.843
235 0 60.2264 17.6169 1061 102.822 878.894 459.048
236 0 59.0565 21.4202 1265 99.8822 878.687 458.542
237 0 60.2308 14.0626 847 109.895 877.649 450.926
238 0 63.0912 16.4207 1036 104.217 878.294 455.209
239 0 65.1175 14.9729 975 106.865 878.135 451.18
240 0 68.2961 16.0331 1095 104.826 879.831 448.792
241 0 70.374 18.2169 1282 101.74 879.377 448.658
242 0 72.1727 11.5002 830 110.587 880.663 446.731
243 0 74.3654 13.4606 1001 108.569 880.989 443.998
244 0 76.2002 14.7637 1125 106.939 880.62 442.593
245 0 82.2502 16.693 1373 103.24 881.744 443.978
246 0 78.1902 9.55362 747 113.763 881.083 438.916
247 0 84.2603 13.9093 1172 106.985 882.744 440.654
248 0 85.1816 12.9958 1107 109.261 883.177 436.905
249 0 89.375 11.4685 1025 109.694 883.21 441.531
250 0 90.2337 13.1769 1189 109.77 884.77 432.529
251 0 94.1098 11.7841 1109 108.967 884.227 439.071
252 1 49.1115 10.8325 532 106.906 886.045 458.494
253 0 49.1115 10.7307 527 130 887.059 458.55
254 0 53.1094 15.3833 817 102.858 887.627 459.184
255 0 55.2178 13.0031 718 109.939 887.581 458.685
256 0 56.1402 13.591 763 104.886 886.231 459.46
257 0 56.154 15.2794 858 104.318 888.199 459.107
258 0 56.251 12.5509 706 109.126 886.788 457.578
259 0 60.1658 12.2495 737 106.948 886.225 457.218
260 0 60.3289 12.0175 725 107.658 885.825 458.909
261 0 64.1382 13.1123 841 107.031 886.396 456.554
262 0 66.2672 12.4043 822 106.888 885.746 458.204
263 0 68.1967 13.4611 918 105.953 885.078 456.871
264 0 71.3734 15.1877 1084 103.909 886.098 457.857
265 0 72.2966 14.6342 1058 105.43 884.395 457.451
266 0 75.3387 13.9769 1053 106.481 884.666 454.578
267 0 76.1528 9.37589 714 111.487 883.08 454.052
268 0 80.1345 10.8443 869 109.665 881.722 453.862
269 0 83.0849 10.9527 910 110.407 881.28 448.007
270 0 85.1366 10.2424 872 111.796 880.983 447.828
271 1 45.0238 9.48388 427 108.489 882.094 467.534
272 0 48.047 11.1141 534 106.62 882.802 464.404
273 0 46.2256 9.56181 442 108.258 880.622 466.81
274 0 47.2282 11.6244 549 105.953 880.166 463.237
275 0 48.0566 9.2391 444 108.574 879.658 464.7
276 0 50.227 9.79553 492 107.057 880.382 461.927
277 0 53.1799 14.9493 795 101.191 878.157 458.923
278 0 53.1866 12.0895 643 105.771 878.656 458.072
279 0 56.1535 11.6288 653 105.864 879.135 455.711
280 0 56.1535 11.7357 659 124.527 879.118 455.696
281 0 60.3181 11.1409 672 109.817 878.875 451.935
282 0 65.2045 16.9467 1105 100.486 878.907 451.443
283 0 64.0407 9.60326 615 110.657 878.662 453.275
284 0 67.3886 16.8575 1136 102.231 878.982 446.904
285 0 69.1991 9.68221 670 111.63 880.246 446.603
286 0 69.1991 9.79782 678 132.656 881.274 446.659
287 1 34.0227 6.0254 205 116.659 882.312 458.312
288 0 39.0204 10.8405 423 107.26 882.05 459.404
289 0 39.0601 12.724 497 104.203 883.243 461.461
290 0 41.3963 14.2042 588 104.032 881.835 451.719
291 0 45.0308 11.6143 523 106.813 884.811 457.512
292 0 43.1756 13.5493 585 105.913 884.368 455.125
293 0 43.1232 13.6122 587 107.073 886.496 454.83
294 0 45.164 11.9343 539 108.709 887.664 454.529
295 0 45.1085 12.9466 584 107.158 888.207 456.514
296 0 48.1098 17.0236 819 102.125 888.519 452.513
297 0 52.0368 13.183 686 105.36 888.974 454.917
298 0 51.152 13.0396 667 106.24 890.186 456.642
299 0 52.1042 12.475 650 109.158 889.257 457.105
300 0 54.1764 12.4778 676 109.206 888.564 457.768
301 0 55.1333 12.9142 712 108.183 889.268 457.375
302 0 57.3115 14.7789 847 105.332 888.436 458.151
303 0 57.061 13.8799 792 107.538 887.312 455.273
304 0 62.4008 11.4902 717 110.456 887.017 458.05
305 0 61.254 10.4809 642 112.104 887.273 458.548
306 0 63.2262 12.9219 817 109.825 886.482 454.479
307 0 67.1371 16.5929 1114 103.975 886.61 456.068
308 0 68.14 11.5204 785 112.171 885.822 453.455
309 0 71.1776 12.8411 914 110.108 885.601 453.486
310 0 74.0915 14.5226 1076 108.1 884.302 453.404
311 0 78.2117 13.0032 1017 109.842 884.857 453.055
312 0 79.1239 13.7885 1091 110.191 884.089 448.364
313 1 41.0261 9.87177 405 110.627 883.99 472.225
314 0 44.0704 12.0262 530 108.226 883.298 470.538
315 0 46.068 12.0908 557 110.108 882.501 465.214
316 0 45.0851 11.3341 511 111.493 882.704 464.249
317 0 44.0698 10.5514 465 114.643 881.237 463.406
318 0 48.0913 11.291 543 112.527 880.858 460.319
319 0 47.1313 8.86883 418 115.182 881.031 463.469
320 0 52.0623 12.5235 652 110.253 881.058 459.396
321 0 52.1465 13.5196 705 109.597 881.393 454.939
322 0 55.2176 10.8118 597 112.486 881.898 458.3
323 0 57.0651 10.8473 619 111.985 880.976 457.651
324 0 57.1722 11.7714 673 111.966 880.792 449.572
325 0 61.1644 16.006 979 105.099 881.037 450.264
326 0 65.1289 13.4963 879 108.771 880.136 445.786
327 0 65.1544 13.7519 896 109.268 881.332 445.109
328 0 66.1422 11.4753 759 111.279 881.582 448.12
329 0 68.0453 10.8163 736 113.47 880.83 443.976
330 0 70.3392 12.4397 875 111.541 882.794 440.638
331 0 75.1792 12.1576 914 111.468 882.842 440.014
332 1 38.1523 10.694 408 113.777 884.524 456.029
333 0 41.2127 13.6123 561 109.424 885.055 453.622
334 0 41.2127 13.588 560 123.143 886.068 453.623
335 0 44.1366 13.1863 582 110.292 886.342 454.969
336 0 45.0969 13.9034 627 109.663 886.593 452.96
337 0 47.1088 12.5242 590 110.747 887.115 454.053
338 0 49.1241 14.4532 710 108.056 887.082 452.097
339 0 50.0148 12.6163 631 112.249 888.723 451.426
340 0 51.0713 11.7679 601 111.067 890.275 455.526
341 0 52.2312 13.0765 683 111.796 889.116 453.337
342 0 54.192 11.3485 615 113.127 890.574 455.629
343 0 56.1049 14.1521 794 109.489 891.209 453.947
344 0 59.1024 14.3311 847 109.602 890.59 452.613
345 0 61.0797 16.192 989 106.437 891.001 453.768
346 0 63.2256 14.0449 888 109.885 890.643 454.744
347 0 63.1873 11.9011 752 114.823 890.388 453.044
348 0 68.1838 14.6369 998 109.584 891.596 453.792
349 0 68.1838 14.5929 995 129.379 892.634 453.543
350 0 70.2378 14.4082 1012 112.519 891.157 451.847
351 0 74.2052 12.6002 935 115.662 890.297 451.188
352 0 75.3617 13.6409 1028 114.958 888.588 448.665
353 0 79.0981 18.0662 1429 108.435 887.531 445.63
354 0 83.1647 15.5354 1292 112.964 887.264 445.908
355 0 86.2737 15.219 1313 114.209 885.928 446.647
356 0 87.2056 12.6827 1106 119.463 885.49 445.898
357 1 41.0319 10.894 447 117.515 886.069 466.691
358 0 42.0397 9.68132 407 122.101 885.545 465.646
359 0 47.1391 12.7707 602 113.35 884.377 464.62
360 0 47.1221 14.1547 667 110.351 884.391 464.274
361 0 48.0964 12.6621 609 113.737 883.058 460.911
362 0 50.1394 13.0237 653 112.279 883.006 460.475
363 0 52.1203 13.7758 718 110.758 881.61 457.284
364 0 55.1285 12.6432 697 116.327 883.142 454.422
365 0 58.0561 13.9003 807 113.941 883.763 452.28
366 0 58.0935 13.0996 761 115.938 884.255 452.527
367 0 58.0391 12.7672 741 117.564 883.443 450.047
368 0 62.0824 13.9975 869 114.247 884.251 447.865
369 0 63.0994 12.4565 786 117.316 882.765 448.816
370 0 66.1784 12.7987 847 116.576 884.56 445.384
371 0 69.0645 14.6385 1011 114.007 884.747 443.084
372 0 71.2781 13.1317 936 115.585 885.892 440.049
373 0 71.255 13.15 937 129.926 887.898 439.82
374 0 77.1532 15.1776 1171 112.82 885.599 438.301
375 0 81.1073 13.476 1093 114.08 887.259 438.413
376 1 44.0528 13.7335 605 110.863 886.818 453.383
377 0 45.0399 13.0773 589 112.044 888.09 452.881
378 0 45.0399 13.0551 588 132.963 890.092 452.847
379 0 48.2463 12.9129 623 113.77 886.616 451.814
380 0 51.1131 18.1362 927 101.038 887.406 450.448
381 0 48.1083 13.2409 637 110.776 887.006 451.002
382 0 50.0979 13.4137 672 110.225 888.592 450.728
383 0 54.1851 14.3582 778 107.109 889.909 452.584
384 0 53.1918 11.5055 612 112.704 890.4 450.131
385 0 55.0836 14.1785 781 109.25 891.006 450.74
386 0 55.148 12.3304 680 111.553 889.612 452.812
387 0 57.1501 13.6833 782 108.303 890.862 456.069
388 0 59.2946 11.2152 665 113.164 890.671 451.086
389 0 62.2276 13.6756 851 109.479 891.181 451.622
390 0 63.3546 11.3804 721 112.853 890.373 454.392
391 0 68.1957 14.1651 966 108.425 889.313 455.337
392 0 68.1344 11.5947 790 113.335 890.199 450.806
393 0 73.1932 14.9058 1091 109.38 888.044 450.307
394 0 76.0816 15.2994 1164 108.924 888.076 445.396
395 0 78.1264 11.1998 875 115.248 887.135 450.487
396 0 81.1206 10.8234 878 115.506 888.063 451.973
397 0 84.2323 12.881 1085 113.688 887.601 447.59
398 1 48.0384 12.3027 591 109.496 888.717 468.171
399 0 46.1154 14.1818 654 109.787 888.702 467.147
400 0 48.1929 13.0932 631 112.651 885.162 462.968
401 0 52.0324 19.6993 1025 98.8595 885.105 467.609
402 0 51.08 11.5114 588 112.684 885.476 463.26
403 0 51.109 11.2896 577 113.53 884.357 462.631
404 0 55.1522 16.3004 899 105.009 883.742 462.846
405 0 57.0652 11.8987 679 113.268 883.834 459.698
406 0 58.0981 13.5633 788 111.438 882.496 458.646
407 0 58.0855 12.2061 709 113.832 882.506 457
408 0 64.1812 15.5965 1001 104.447 881.32 458.261
409 0 64.1812 15.7367 1010 122.564 880.278 458.342
410 0 65.1001 11.8433 771 113.031 882.249 453.112
411 0 67.164 12.6407 849 113.152 882.008 447.4
412 0 68.1897 11.512 785 115.201 882.553 445.929
413 0 71.1525 9.69748 690 115.522 882.799 451.52
414 0 75.1763 13.8342 1040 111.242 882.663 443.574
415 0 74.0857 10.1639 753 113.53 882.568 443.796
416 0 79.258 12.3773 981 110.073 882.377 439.448
417 0 83.2354 14.1046 1174 108.868 883.089 433.522
418 0 85.264 14.4375 1231 107.559 883.341 435.241
419 0 88.0747 15.2144 1340 107.186 884.285 432.001
420 1 45.1645 9.89716 447 112.374 886.23 451.696
421 0 46.0543 9.61908 443 114.989 887.702 454.745
422 0 49.0778 12.2866 603 112.184 887.4 450.398
423 0 51.2375 16.6089 851 104.877 887.109 449.911
424 0 51.2375 16.4528 843 114.613 888.158 449.879
425 0 55.1287 16.7064 921 107.397 889.076 450.316
426 0 54.1903 14.7628 800 110.265 889.398 450.774
427 0 59.1343 16.1159 953 107.557 889.721 450.719
428 0 61.0663 17.2763 1055 106.863 891.722 448.701
429 0 59.0655 11.2756 666 116.95 891.324 452.062
430 0 62.1555 16.8127 1045 107.325 891.462 451.544
431 0 66.2762 13.6399 904 110.241 890.831 447.456
432 0 68.1512 16.0966 1097 106.6 890.812 449.576
433 0 72.1766 15.9609 1152 106.59 890.447 450.508
434 0 73.1768 13.0096 952 112.114 890.096 452.717
435 0 76.0843 16.1663 1230 108.141 890.143 445.075
436 0 79.0861 15.1986 1202 110.019 889.493 449.79
437 0 81.2069 14.0875 1144 111.864 889.757 447.545
438 0 83.2127 12.9307 1076 114.29 889.775 449.287
439 1 42.0365 12.2037 513 115.926 888.306 469.31
440 0 43.191 13.6834 591 105.964 888.433 467.971
441 0 44.2896 11.6958 518 109.486 887.826 466.683
442 0 43.2236 12.4006 536 109.894 886.548 465.017
443 0 45.0585 12.1842 549 110.536 886.603 464.934
444 0 47.074 15.1889 715 106.041 887.421 464.26
445 0 48.0723 13.6461 656 109.139 885.087 461.154
446 0 50.0548 14.0047 701 114.334 886.046 464.857
447 0 52.0618 12.4276 647 118.23 885.692 463.42
448 0 51.1312 12.1452 621 120.121 885.333 461.274
449 0 55.0886 13.8686 764 115.2 883.743 463.665
450 0 56.242 14.7932 832 114.758 883.238 460.59
451 0 58.1366 13.4167 780 117.164 884.183 457.427
452 0 60.0622 15.2176 914 114.039 884.507 453.813
453 0 64.2921 13.7497 884 115.521 884.551 455.89
454 0 63.1959 12.485 789 119.157 883.507 452.084
455 0 66.0887 14.5864 964 114.967 882.694 452.939
456 0 69.147 15.8358 1095 113.652 882.854 447.888
457 0 71.1397 14.5488 1035 114.8 882.445 450.056
458 0 75.1829 13.9926 1052 114.329 883.198 452.152
459 0 74.1789 14.4111 1069 116.618 883.208 445.651
460 0 78.1645 16.1454 1262 113.685 883.477 441.54
461 0 78.2125 12.6706 991 120.571 884.382 443.978
462 0 78.2125 12.6706 991 142.871 885.382 443.893
463 0 83.249 12.3004 1024 120.188 884.807 441.971
464 1 45.0283 16.634 749 113.79 885.26 459.78
465 0 51.1708 14.3441 734 111.892 885.627 458.357
466 0 48.0742 14.6856 706 114.306 886.899 458.533
467 0 50.1048 16.0065 802 115.95 886.794 457.263
468 0 50.112 12.8113 642 121.062 886.612 458.167
469 0 54.0865 17.8973 968 111.314 888.452 457.049
470 0 55.2521 15.4021 851 116.769 888.651 458.757
471 0 57.1564 14.4341 825 119.478 887.651 457.744
472 0 59.0978 18.9685 1121 111.808 888.462 458.12
473 0 61.1017 14.3367 876 120.483 888.245 457.981
474 0 64.2293 14.853 954 118.716 889.763 458.573
475 0 64.0937 16.9907 1089 117.193 888.637 461.075
476 0 67.1696 14.6495 984 120.479 888.938 462.772
477 0 71.0938 14.1363 1005 121.878 888.094 461.291
478 0 74.1315 16.147 1197 117.332 887.665 463.586
479 0 75.237 15.5907 1173 120.24 887.049 458.484
480 0 79.1436 15.5287 1229 119.214 887.333 459.674
481 0 83.3158 16.1554 1346 118.649 886.374 459.42
482 0 84.2112 14.7486 1242 122.172 885.548 457.502
483 1 43.103 13.4562 580 122.955 883.562 480.364
484 0 45.0902 15.5244 700 121.127 883.833 478.299
485 0 43.0553 12.7278 548 131.392 881.854 475.695
486 0 47.01 13.6141 640 126.15 882.159 477.15
487 0 50.1904 13.5285 679 123.623 880.43 474.258
488 0 50.1102 14.6677 735 122.811 880.452 472.075
489 0 53.2468 14.367 765 121.805 879.816 472.379
490 0 54.1788 13.4924 731 124.133 879.107 470.595
491 0 57.1165 13.1836 753 124.065 878.446 468.919
492 0 59.1505 13.2374 783 123.452 877.968 468.893
493 0 61.1005 15.4172 942 119.98 877.606 464.862
494 0 64.1443 13.0331 836 124.853 876.77 462.291
495 0 63.1719 14.3576 907 123.992 877.738 461.433
496 0 67.1489 15.8603 1065 120.184 878.016 458.644
497 0 68.296 14.4518 987 121.626 876.719 453.565
498 0 71.1063 14.64 1041 120.949 877.284 452.638
499 0 72.1186 14.1572 1021 123.385 878.531 449.484
500 0 74.1611 12.9583 961 124.391 876.774 450.507
501 0 78.2029 12.7105 994 129.316 878.691 446.101
502 0 81.1533 13.3205 1081 125.685 879.455 448.166
503 0 84.3021 13.416 1131 126.697 879.723 442.655
504 1 42.1166 10.9458 461 125.482 880.239 462.013
505 0 43.2616 15.9495 690 118.638 881.683 457.346
506 0 45.2244 12.847 581 125.229 881.917 453.943
507 0 47.1877 13.5205 638 122.268 882.544 455.569
508 0 48.0975 11.6638 561 124.977 883.481 456.857
509 0 48.0631 14.8347 713 120.593 884.15 455.398
510 0 52.0843 15.6093 813 117.891 884.615 454.943
511 0 54.0853 13.2198 715 121.101 884.607 455.822
512 0 58.1153 15.6585 910 115.127 885.407 457.066
513 0 58.169 14.2172 827 118.375 886.811 454.886
514 0 60.068 13.4514 808 118.839 886.641 457.119
515 0 63.0412 14.4033 908 117.417 887.985 454.252
516 0 63.0766 14.3793 907 118.247 887.302 453.058
517 0 65.2087 11.7776 768 121.417 888.69 456.641
518 0 69.0699 17.5909 1215 109.062 887.218 461.252
519 0 68.076 11.6047 790 122.499 887.476 455.027
520 0 73.2585 14.6604 1074 117.452 887.044 455.162
521 0 75.1705 13.3563 1004 120.219 886.152 452.705
522 0 77.1709 14.6817 1133 121.876 886.569 455.037
523 0 82.103 13.885 1140 122.177 885.519 454.973
524 0 84.1066 15.7419 1324 120.252 885.166 453.386
525 0 87.1581 16.1431 1407 118.364 883.77 451.484
526 0 89.206 14.999 1338 121.62 884.036 452.835
527 0 91.2037 13.4753 1229 125.59 882.608 450.385
528 0 94.2654 14.6713 1383 120.896 882.524 442.278
529 0 97.4469 16.1216 1571 121.493 882.245 444.965
530 1 50.3406 11.9387 601 122.514 879.496 465.694
531 0 53.2769 11.8438 631 121.016 880.23 465.872
532 0 52.2129 13.3492 697 120.888 878.506 463.938
533 0 57.3727 12.2881 705 121.827 879.686 466.278
534 0 61.2735 12.942 793 119.439 879.449 466.021
535 0 62.1996 15.1609 943 118.194 876.861 460.631
536 0 64.6706 13.8239 894 121.196 877.336 456.912
537 0 69.4859 19.6155 1363 110.855 876.588 452.778
538 0 65.3801 13.5974 889 124.812 876.357 449.485
539 0 70.4601 16.8038 1184 117.977 877.129 448.979
540 0 72.4777 14.6804 1064 123.542 877.671 444.389
541 0 73.3408 13.2668 973 125.692 878.144 446.548
542 0 76.271 14.042 1071 125.28 877.412 442.198
543 0 79.5193 15.7823 1255 122.604 877.565 440.222
544 0 83.5771 15.1357 1265 123.481 877.386 439.996
545 0 85.3806 14.1367 1207 125.818 878.053 437.848
546 0 88.578 12.8813 1141 128.173 877.547 435.271
547 0 93.3349 15.0105 1401 123.221 880.211 432.261
548 1 45.2075 7.80845 353 132.53 879.224 454.363
549 0 51.272 11.6243 596 122.772 880.864 452.955
550 0 49.2733 9.90395 488 127.922 882.486 451.305
551 0 56.4053 15.2113 858 120.516 882.58 451.3
552 0 58.0844 12.5507 729 116.573 882.587 456.66
553 0 59.1077 13.1793 779 117.083 884.16 450.737
554 0 63.1871 15.1455 957 112.951 885.297 451.334
555 0 65.1301 10.932 712 120.007 886.399 449.747
556 0 67.265 13.0529 878 116.106 886.575 451.452
557 0 70.3315 14.5312 1022 113.962 887.69 449.379
558 0 72.1204 13.9073 1003 114.978 887.264 451.51
559 0 73.1781 13.2007 966 117.699 886.909 451.03
560 0 74.1973 13.1676 977 119.654 887.013 449.323
561 0 78.2386 14.737 1153 116.513 887.274 448.879
562 0 80.2318 12.5262 1005 120.601 887.563 451.046
563 0 83.3733 16.5161 1377 115.058 886.748 449.466
564 0 83.3942 16.452 1372 120.459 885.73 449.48
565 0 86.3235 15.859 1369 118.164 886.438 449.429
566 0 89.3587 12.9366 1156 123.27 885.131 450.208
567 1 50.2147 11.6898 587 119.015 885.532 470.233
568 0 48.1411 10.6977 515 119.932 885.282 472.406
569 0 50.183 12.1356 609 120.591 884.608 467.312
570 0 53.236 12.8297 683 120.524 883.392 466.325
571 0 55.2862 12.6976 702 121.808 883.209 465.469
572 0 57.1433 11.5149 658 117.959 881.366 467.758
573 0 58.5682 12.7373 746 115.67 881.521 465.052
574 0 61.126 13.0877 800 114.758 881.965 464.635
575 0 61.1017 13.6166 832 115.099 880.154 460.983
576 0 64.1913 12.2758 788 117.487 880.239 459.75
577 0 68.0938 12.2478 834 115.542 880.26 457.052
578 0 71.1795 15.8192 1126 109.849 878.515 456.544
579 0 73.1776 12.2169 894 116.369 878.48 455.557
580 0 72.1012 10.4437 753 121.363 877.324 449.114
581 0 76.2499 11.3312 864 119.068 877.785 452.06
582 0 76.2473 11.384 868 123.887 878.823 451.881
583 0 82.2174 13.0751 1075 117.171 878.193 443.18
584 0 86.185 14.3992 1241 114.815 876.928 442.787
585 0 89.194 12.1197 1081 117.439 877.179 444.037
586 1 47.125 11.2255 529 117.096 877.206 460.068
587 0 51.0415 12.0882 617 114.01 877.887 459.546
588 0 52.0209 10.9571 570 118.209 878.3 458.198
589 0 55.1632 12.5809 694 114.873 880.947 452.31
590 0 55.1947 11.7946 651 117.627 881.355 451.404
591 0 58.2776 12.5263 730 113.288 883.168 453.284
592 0 58.2115 12.5748 732 114 883.376 454.87
593 0 58.2184 13.8959 809 125.728 884.187 451.998
594 0 62.3451 11.2278 700 114.89 884.267 452.184
595 0 65.2356 13.5202 882 111.35 884.441 448.29
596 0 64.2948 9.09872 585 117.677 886.282 452.954
597 0 67.4205 11.7323 791 114.621 885.526 447.655
598 0 69.33 11.7265 813 114.383 885.957 449.943
599 0 73.1616 12.3699 905 111.597 886.898 452.05
600 0 73.1628 13.3675 978 121.711 887.819 451.105
601 0 78.2683 13.607 1065 110.316 887.909 450.196
602 0 78.1997 10.4092 814 115.932 888.753 444.324
603 0 83.1814 15.6405 1301 106.806 888.939 450.929
604 0 85.3312 13.2542 1131 111.007 888.555 445.915
605 0 85.3298 10.8637 927 115.483 887.352 447.795
606 0 91.369 15.5304 1419 108.371 888.156 444.181
607 0 93.2657 11.3225 1056 114.083 888.267 449.961
608 0 92.498 9.42724 872 118.794 887.417 443.857
609 0 98.2276 13.7843 1354 111.783 886.914 443.646
610 1 52.0644 10.0452 523 117.082 886.91 468.21
611 0 55.038 11.1196 612 114.368 885.536 469.562
612 0 57.0956 11.8048 674 108.369 883.985 463.837
613 0 59.0829 12.0339 711 120.162 882.458 464.764
614 0 60.1313 15.2999 920 109.514 881.579 467.683
615 0 59.1714 11.0864 656 117.524 880.131 467.41
616 0 61.1226 14.5609 890 112.254 879.566 463.915
617 0 64.0918 14.0423 900 112.768 880.787 464.2
618 0 65.0402 9.10206 592 122.593 878.601 461.644
619 0 68.0542 12.8721 876 115.704 879.256 459.637
620 0 70.1666 12.5273 879 116.75 877.64 458.754
621 0 73.0839 13.6008 994 115.107 878.208 456.808
622 0 72.084 11.6669 841 120.251 877.157 453.512
623 0 76.1801 10.7246 817 122.129 876.11 454.295
624 0 80.1743 12.1984 978 119.231 876.558 453.154
625 0 83.2078 13.0637 1087 117.227 877.03 452.805
626 0 87.2194 13.4259 1171 118.365 877.757 443.093
627 0 89.0965 14.7032 1310 116.288 876.453 442.163
628 0 92.1476 14.9651 1379 116.569 877.753 439.54
629 0 95.1309 13.0347 1240 117.506 877.869 438.532
630 0 96.1553 14.7262 1416 116.425 877.481 433.997
631 0 98.2444 11.5732 1137 123.281 879.869 439.078
632 0 101.232 11.4786 1162 121.665 880.282 430.725
633 0 104.153 13.5186 1408 119.054 881.761 429.712
634 1 55.2171 14.5788 805 113.383 879.774 453.718
635 0 55.2171 14.5607 804 117.627 877.782 453.658
636 0 60.1061 14.3579 863 112.905 881.299 451.671
637 0 63.0735 15.3947 971 110.264 881.9 452.912
638 0 64.2941 13.1738 847 113.726 882.256 454.555
639 0 65.1155 10.9344 712 117.895 882.664 451.952
640 0 69.1968 12.7463 882 113.634 883.162 450.947
641 0 72.1225 12.4233 896 112.985 883.614 451.001
642 0 74.1722 13.2934 986 111.319 883.797 446.973
643 0 77.156 11.0814 855 113.566 884.14 451.28
644 0 79.282 9.61126 762 115.541 884.752 449.119
645 0 85.3539 12.126 1035 107.533 885.499 445.899
646 0 88.1259 11.8921 1048 108.284 885.158 443.831
647 0 89.2685 10.7205 957 109.005 884.994 446.289
648 0 95.2389 14.9204 1421 102.078 885.519 449.145
649 0 96.2849 12.328 1187 107.71 885.294 440.579
650 0 97.2649 10.1578 988 110.759 885.184 441.319
651 0 101.153 10.1035 1022 111.439 884.501 435.642
652 0 106.196 15.1889 1613 105.689 886.658 443.967
653 0 106.299 12.3708 1315 106.544 886.386 448.473
654 0 111.139 11.85 1317 108.159 885.732 441.973
655 1 58.3729 10.8955 636 105.357 883.679 462.629
656 0 59.2159 13.6788 810 106.3 885.222 460.77
657 0 60.1307 10.4106 626 107.382 883.013 459.05
658 0 60.1307 10.4106 626 124.986 882.013 459.05
659 0 66.1839 12.0573 798 105.941 881.916 456.51
660 0 67.1208 13.7364 922 103.643 882.235 458.844
661 0 69.1542 12.5083 865 107.318 881.206 451.532
662 0 71.1368 11.1475 793 112.335 880.922 456.301
663 0 74.1509 13.7962 1023 109.969 879.661 452.066
664 0 77.1331 11.9923 925 113.604 878.381 447.737
665 0 78.1383 13.1946 1031 109.467 878.865 447.347
666 0 78.2235 11.8123 924 112.18 879.016 444.955
667 0 82.1815 9.11397 749 117.117 877.279 446.569
668 0 85.1946 11.6909 996 116.564 878.307 439.738
669 0 86.3749 11.2996 976 117.109 876.753 435.028
670 0 93.4594 12.0694 1128 115.643 877.592 434.838
671 1 49.1392 9.62572 473 111.607 878.397 454.833
672 0 51.0732 8.81088 450 115.193 879.524 452.811
673 0 54.3444 13.3592 726 108.007 879.64 449.785
674 0 56.2996 11.9361 672 109.396 880.677 452.39
675 0 56.4244 14.001 790 107.297 880.097 451.171
676 0 56.1629 12.6418 710 110.641 881.349 449.318
677 0 57.1817 12.3466 706 110.989 881.925 449.877
678 0 60.2354 14.6924 885 107.494 881.53 448.379
679 0 62.1635 12.0489 749 112.212 881.809 446.299
680 0 63.1066 11.8054 745 112.842 884.223 444.732
681 0 66.2837 8.81061 584 116.837 882.192 445.825
682 0 71.2849 13.6074 970 108.992 883.555 439.85
683 0 74.2562 12.7935 950 109.371 886.023 442.313
684 0 77.2016 13.1992 1019 109.274 885.649 441.453
685 0 77.1925 16.9706 1310 105.199 886.521 439.672
686 0 79.1599 12.9106 1022 111.776 885.788 439.121
687 1 40.09 11.8982 477 120.973 885.589 464.872
688 0 43.1046 13.502 582 117.632 885.926 466.034
689 0 46.054 11.2042 516 119.151 885.469 467.413
690 0 46.1476 12.5034 577 122.256 885.718 463.988
691 0 52.0838 13.6511 711 116.266 885.495 466.343
692 0 53.3511 16.4945 880 113.315 884.953 466.241
693 0 53.2399 11.6266 619 121.659 886.716 468.491
694 0 53.2399 11.7769 627 132.831 888.73 468.494
695 0 57.1164 11.9405 682 120.757 886.029 467.776
696 0 58.1486 12.1757 708 120.583 884.164 468.143
697 0 61.219 12.5288 767 119.728 883.807 467.42
698 0 62.4285 15.5858 973 115.001 883.476 464.556
699 0 64.3719 14.1521 911 116.868 881.975 466.417
700 0 63.3489 12.2654 777 121.909 881.138 463.864
701 0 68.4973 13.3582 915 118.15 880.488 459.903
702 0 70.2978 14.9365 1050 115.884 880.15 460.619
703 0 70.2862 14.9389 1050 126.783 880.153 460.65
704 0 77.2107 12.6019 973 120.026 878.737 457.222
705 0 77.2107 12.6278 975 137.866 876.724 457.282
706 0 77.1716 12.686 979 137.207 874.755 457.289
707 0 85.2881 15.1721 1294 115.861 877.795 452.469
708 0 88.3476 16.2879 1439 113.825 878.812 446.597
709 1 44.044 12.8054 564 117.106 877.587 469.956
710 0 44.0832 11.7959 520 117.206 876.279 471.744
711 0 47.0845 11.851 558 117.738 877.486 470.116
712 0 50.0913 13.4155 672 115.564 875.921 466.902
713 0 50.0736 13.8197 692 116.822 878.984 463.525
714 0 52.0456 13.0655 680 117.707 876.682 460.24
715 0 52.0361 12.4337 647 119.957 877.756 462.043
716 0 53.0815 13.4698 715 112.115 880.379 463.571
717 0 57.1775 14.0615 804 110.494 881.621 460.683
718 0 58.2189 12.5389 730 114.301 880.478 453.526
719 0 59.1353 13.4945 798 112.736 881.835 455.919
720 0 60.0662 12.2698 737 114.187 881.644 457.746
721 0 63.168 11.5723 731 115.495 882.227 455.413
722 0 65.2056 12.0082 783 115.175 881.741 455.129
723 0 64.0631 12.2536 785 115.69 883.557 451.259
724 0 69.1093 12.3283 852 114.31 884.308 451.444
725 0 72.1054 14.1737 1022 111.164 884.529 452.914
726 0 73.2127 12.6344 925 114.692 884.945 448.896
727 0 75.1577 12.0547 906 115.404 885.408 450.053
728 0 78.1683 11.9614 935 114.105 885.425 450.918
729 0 79.1517 11.6233 920 113.961 885.283 454.796
730 0 83.1531 14.1907 1180 110.717 887.492 449.283
731 0 85.0553 14.8727 1265 110.047 886.379 448.352
732 0 89.2589 12.1893 1088 112.504 885.85 454.016
733 0 90.1636 12.1224 1093 112.158 885.911 450.257
734 1 50.0145 12.0165 601 111.686 886.131 469.16
735 0 50.0988 12.4155 622 112.246 886.574 471.051
736 0 50.0973 12.1164 607 113.175 886.061 471.163
737 0 54.0689 15.4618 836 107.225 885.276 469.288
738 0 56.0487 16.2537 911 106.634 883.833 469.651
739 0 57.1128 14.0599 803 110.691 885.391 467.217
740 0 60.0646 15.2835 918 108.382 884.08 467.283
741 0 64.2023 13.6444 876 110.32 884.281 466.582
742 0 63.0745 14.253 899 109.859 880.994 464.534
743 0 63.1769 14.1349 893 110.399 881.365 466.882
744 0 68.1118 14.623 996 110.309 881.453 463.286
745 0 71.0924 18.6659 1327 103.429 880.485 459.301
746 0 73.2262 17.5893 1288 105.03 879.831 459.637
747 0 76.2413 14.8345 1131 109.842 879.294 459.665
748 0 75.3563 13.4561 1014 113.263 877.747 457.892
749 0 80.3506 17.3988 1398 106.409 879.154 454.491
750 0 83.2035 18.9295 1575 103.989 878.445 453.542
751 1 43.138 11.0112 475 117.48 877.998 472.006
752 0 44.1411 12.1429 536 119.101 878.144 469.243
753 0 47.5125 11.8495 563 118.426 878.304 469.602
754 0 47.4352 14.2299 675 116.735 877.941 464.28
755 0 46.5928 10.7957 503 124.31 878.861 463.654
756 0 51.371 17.033 875 111.927 878.747 462.293
757 0 52.4303 13.4655 706 120.014 879.302 461.415
758 0 53.4995 17.888 957 111.743 879.265 460.336
759 0 54.4661 15.4959 844 117.717 880.268 456.948
760 0 56.2104 15.5487 874 117.793 881.085 457.013
761 0 58.2856 12.9192 753 122.928 881.028 458.393
762 0 61.3072 14.2887 876 118.231 882.807 456.305
763 0 61.42 15.9883 982 114.419 882.645 456.716
764 0 64.3844 14.196 914 120.573 883.289 452.48
765 0 64.304 14.0738 905 123.018 883.263 452.487
766 0 69.3188 16.6766 1156 116.079 884.602 452.007
767 0 71.3145 18.3413 1308 114.975 885.344 447.023
768 0 72.2255 15.8254 1143 119.556 886.023 450.443
769 0 76.3265 13.4161 1024 125.519 885.332 447.304
770 0 76.6014 14.8561 1138 124.524 885.51 445.18
771 0 82.4606 17.4871 1442 116.886 886.101 447.524
772 0 82.4366 14.6537 1208 124.085 887.11 444.238
773 0 85.3767 12.685 1083 128.289 886.375 447.182
774 0 90.3975 16.7593 1515 117.897 886.836 448.129
775 1 47.2455 9.48239 448 128.219 885.931 468.321
776 0 50.2108 11.5314 579 125.219 885.361 466.579
777 0 51.2004 11.4843 588 125.658 885.828 466.495
778 0 54.1951 11.9014 645 125.89 885.098 466.101
779 0 54.1682 12.4427 674 119.476 884.533 466.654
780 0 56.2055 11.7426 660 119.117 884.518 467.92
781 0 58.1043 16.849 979 110.539 885.126 466.999
782 0 59.1558 12.3403 730 119.856 884.381 467.304
783 0 61.139 11.9564 731 119.952 883.977 469.215
784 0 63.2322 13.6798 865 117.594 883.554 466.703
785 0 62.2327 12.0194 748 122.155 883.373 463.426
786 0 67.1576 16.0518 1078 111.84 883.887 463.582
787 0 71.1019 14.0081 996 116.352 881.525 460.81
788 0 70.1853 10.572 742 122.067 881.822 459.705
789 0 74.1731 10.5025 779 121.461 881.235 459.955
790 0 76.2702 12.7704 974 118.783 881.607 454.854
791 0 79.4244 12.8172 1018 118.578 881.049 452.972
792 0 82.225 11.7847 969 121.239 881.97 450.051
793 1 40.0348 11.49 460 118.941 880.011 470.641
794 0 42.1024 11.4245 481 118.958 879.617 468.738
795 0 43.0899 12.4391 536 117.91 880.259 467.019
796 0 45.0638 12.9372 583 117.228 878.47 463.991
797 0 44.2538 11.886 526 121.376 878.304 462.96
798 0 47.1559 12.5753 593 118.427 878.506 462.118
799 0 49.1138 13.6214 669 116.001 877.272 463.532
800 0 49.1138 13.6214 669 129.607 876.281 463.492
801 0 51.1806 13.0518 668 119.72 878.418 456.487
802 0 54.335 14.4106 783 115.467 879.372 455.982
803 0 56.0856 14.2283 798 116.957 883.328 453.627
804 0 55.0626 12.8218 706 125.982 884.644 455.249
805 0 59.0738 11.7819 696 127.993 884.417 453.292
806 0 60.1144 12.6592 761 128.66 884.729 448.397
807 0 64.2217 14.8859 956 121.558 886.327 450.374
808 0 66.1304 12.808 847 125.686 885.163 448.455
809 0 65.1972 12.2091 796 127.927 885.954 447.183
810 0 70.1438 14.1139 990 120.792 888.374 451.511
811 0 71.2552 14.0762 1003 122.675 886.419 445.521
812 0 71.2552 14.0762 1003 153.339 884.419 445.629
813 0 75.2552 10.976 826 127.824 888.441 445.182
814 0 74.3182 11.3027 840 128.658 888.073 443.112
815 0 79.4587 13.9569 1109 122.443 888.568 444.482
816 0 80.3337 11.0912 891 128.488 888.366 443.685
817 0 83.4402 14.4894 1209 122.323 889.915 442.176
818 0 83.4402 14.4654 1207 139.06 890.919 442.246
819 0 87.3954 14.3371 1253 122.251 889.273 445.633
820 0 90.5998 14.2053 1287 122.448 888.277 442.744
821 0 92.7431 13.8555 1285 123.071 887.839 441.93
822 0 96.307 15.3052 1474 116.79 888.722 442.29
823 0 101.237 11.0631 1120 121.707 888.488 444.36
824 0 104.393 14.3592 1499 116.517 886.84 442.633
825 0 105.385 11.1117 1171 122.015 887.414 442.613
826 0 110.376 13.4721 1487 117.754 884.7 441.791
827 0 114.206 11.2866 1289 121.813 886.178 438.325
828 1 61.2812 12.9567 794 115.849 884.088 461.499
829 0 64.3955 16.1813 1042 109.88 883.575 458.12
830 0 64.2899 13.8124 888 114.169 881.956 458.904
831 0 65.3362 13.5912 888 114.98 882.837 455.025
832 0 70.5228 13.2581 935 113.348 881.643 457.737
833 0 73.3509 12.4061 910 115.776 881.446 455.23
834 0 73.2464 12.6832 929 116.099 880.531 453.1
835 0 77.3435 15.0368 1163 111.044 881.219 452.106
836 0 79.3597 13.5081 1072 114.244 881.059 447.881
837 0 81.4768 13.7831 1123 114.594 880.281 446.599
838 0 81.4768 13.7462 1120 132.938 879.288 446.602
839 0 85.327 9.93824 848 120.445 881.053 445.962
840 0 89.292 14.2902 1276 112.249 881.438 443.338
841 0 91.2189 14.2405 1299 113.38 879.667 433.801
842 0 95.1521 12.0649 1148 116.525 879.512 435.076
843 1 50.1118 10.0376 503 116.35 880.304 456.161
844 0 50.0982 9.26181 464 117.041 880.918 455.991
845 0 52.1319 11.0105 574 115.46 881.34 451.388
846 0 57.3482 12.0318 690 108.955 882.7 450.042
847 0 58.2862 13.6568 796 106.475 883.117 449.232
848 0 60.2022 11.2621 678 110.456 885.426 447.363
849 0 63.1332 13.0359 823 107.305 885.066 447.748
850 0 64.1426 12.1916 782 109.881 884.87 442.689
851 0 66.2306 11.7468 778 109.035 884.508 447.969
852 0 69.165 12.8244 887 109.805 883.264 442.032
853 0 72.1502 13.0838 944 109.773 886.903 441.881
854 0 73.077 9.90735 724 116.691 886.968 438.456
855 0 77.1989 13.5883 1049 110.024 887.113 443.142
856 0 78.0767 12.3724 966 113.439 887.378 438.613
857 0 82.1146 16.1238 1324 106.691 888.353 444.662
858 0 82.1146 16.0751 1320 120.785 889.335 444.729
859 0 87.1826 14.3377 1250 112.616 888.27 440.179
860 0 88.1538 11.1963 987 119.074 888.332 439.818
861 0 92.1784 15.9365 1469 111.822 889.447 436.078
862 0 93.1409 14.1506 1318 116.002 889.517 437.046
863 0 99.3359 10.9427 1087 122.04 887.512 434.401
864 0 102.257 13.378 1368 117.733 889.409 437.3
865 0 104.234 11.0137 1148 122.478 889.063 437.112
866 0 107.299 12.0411 1292 123.28 888.57 436.486
867 0 108.266 11.7581 1273 120.074 887.355 444.318
868 1 56.1855 13.6868 769 113.114 886.592 465.101
869 0 61.2642 13.858 849 112.131 886.938 463.435
870 0 62.3798 14.2033 886 111.65 886.349 459.449
871 0 65.3294 13.0875 855 113.433 885.719 465.476
872 0 66.3102 13.0146 863 113.042 886.294 460.14
873 0 69.1592 12.1314 839 115.248 883.386 457.095
874 0 72.3108 16.3876 1185 107.562 884.224 456.949
875 0 75.2321 13.5846 1022 111.274 884.182 458.968
876 0 75.156 12.1747 915 115.258 882.529 456.952
877 0 81.3062 12.6928 1032 113.714 882.644 454.245
878 0 79.1568 13.8207 1094 114.144 880.957 450.989
879 0 86.2072 13.4908 1163 114.22 882.604 445.576
880 0 86.1906 10.3492 892 120.346 882.358 449.574
881 0 89.2177 18.6398 1663 107.675 881.909 442.471
882 0 91.2783 10.2763 938 122.231 881.287 441.281
883 0 97.3201 14.1697 1379 115.586 881.87 440.929
884 0 98.299 14.1812 1394 117.377 881.562 435.143
885 0 100.22 12.8418 1287 119.553 881.913 436.609
886 0 104.457 14.9247 1559 117.461 881.212 429.532
887 1 57.1418 13.4752 770 114.766 882.108 455.568
888 0 63.6264 17.0212 1083 107.884 883.296 453.146
889 0 60.2202 13.4506 810 117.452 883.138 449.659
890 0 61.1353 12.6604 774 117.882 884.651 453.395
891 0 63.2701 12.6126 798 119.167 884.125 446.753
892 0 67.1529 14.5191 975 115.181 884.332 449.032
893 0 68.3497 13.4602 920 117.045 886.021 447.403
894 0 71.1259 15.7889 1123 114.29 885.457 445.478
895 0 74.1512 13.5938 1008 117.918 887.034 446.228
896 0 76.1092 15.6749 1193 114.583 887.553 445.686
897 0 77.0692 13.4295 1035 119.243 888.185 445.748
898 0 80.0959 14.2329 1140 116.954 887.53 446.279
899 0 83.1356 14.2298 1183 118.133 887.644 444.059
900 0 85.3501 17.3989 1485 113.89 889.323 445.361
901 0 88.2262 14.1568 1249 121.316 889.874 442.738
902 0 92.1899 15.2186 1403 119.022 889.15 443.562
903 1 47.117 14.0714 663 124.37 889.638 462.842
904 0 51.094 14.5418 743 119.132 889.221 466.332
905 0 51.0979 13.7383 702 124.219 888.778 465.038
906 0 52.1259 14.9638 780 123.674 889.037 461.874
907 0 53.0976 12.1475 645 121.612 888.708 464.885
908 0 56.3552 12.6696 714 116.58 888.391 461.51
909 0 57.1376 12.3386 705 117.789 888.096 461.102
910 0 61.2087 16.8767 1033 111.956 887.334 464.168
911 0 63.1071 14.5942 921 116.439 887.194 463.189
912 0 63.3054 12.4792 790 120.263 887.873 463.929
913 0 63.0973 11.2208 708 124.508 886.862 458.871
914 0 67.1925 13.0967 880 120.267 885.453 458.157
915 0 71.1658 15.0775 1073 115.733 886.779 454.431
916 0 73.2959 14.0799 1032 117.054 883.905 457.903
917 0 74.1863 12.7112 943 121.039 883.44 451.554
918 0 79.1493 15.6666 1240 114.627 883.431 454.083
919 0 78.2145 11.1233 870 124.436 881.84 452.898
920 0 83.3567 14.7918 1233 117.014 881.927 450.215
921 1 41.0912 11.146 458 121.847 881.965 469.825
922 0 44.0731 10.9818 484 124.273 882.209 463.696
923 0 44.0775 8.66656 382 126.992 882.662 465.421
924 0 45.0997 15.2107 686 115.187 882.644 464.3
925 0 48.1351 13.6283 656 117.684 883.431 461.773
926 0 50.0606 14.1229 707 116.379 883.003 460.365
927 0 50.1632 10.3861 521 125.008 882.472 457.977
928 0 53.117 13.9692 742 118.279 882.563 456.85
929 0 53.1324 11.9701 636 121.895 882.083 456.66
930 0 56.083 13.9436 782 118.518 882.722 454.234
931 0 57.1293 11.5878 662 122.793 882.554 456.813
932 0 58.1075 15.196 883 117.162 883.163 449.878
933 0 61.1237 13.3173 814 119.636 883.566 452.694
934 0 64.076 14.5608 933 118.094 884.451 449.175
935 0 65.1489 15.4722 1008 116.391 884.828 447.312
936 0 65.0504 11.3758 740 126.089 885.531 445.162
937 0 68.1095 12.7295 867 123.155 885.437 444.646
938 0 70.1306 14.4587 1014 119.448 885.469 446.975
939 0 74.1312 13.8943 1030 120.946 886.018 442.459
940 0 76.1626 14.771 1125 118.094 886.984 447.231
941 0 76.1809 14.6887 1119 130.87 887.996 447.236
942 1 40.0605 9.46069 379 127.736 887.507 463.274
943 0 40.0605 9.33588 374 143.888 886.524 463.209
944 0 44.2042 12.6685 560 119.921 888.505 465.023
945 0 42.1285 11.6548 491 120.829 887.456 455.898
946 0 45.2277 11.9396 540 112.604 887.406 456.894
947 0 47.2264 12.9377 611 111.052 886.73 457.913
948 0 48.2411 12.1059 584 113.128 888.12 456.866
949 0 47.07 11.1961 527 116.334 888.905 459.025
950 0 53.0486 13.1201 696 112.111 888.351 458.562
951 0 53.107 12.9173 686 112.818 887.576 460.628
952 0 54.2278 13.7752 747 119.704 887.486 467.419
953 0 58.1467 17.5762 1022 111.998 888.076 462.431
954 0 59.2211 13.5762 804 120.404 886.49 464.82
955 0 59.2211 13.5594 803 135.938 885.484 464.767
956 0 64.1088 14.6314 938 115.822 886.092 462.097
957 0 66.1893 14.2017 940 117.039 884.307 460.536
958 0 67.1408 14.2238 955 117.404 884.053 459.529
959 0 68.1417 13.2665 904 119.378 883.137 457.553
960 0 70.1732 13.9227 977 118.702 883.088 453.755
961 0 72.138 12.892 930 120.788 881.798 453.822
962 0 76.1088 13.8486 1054 118.902 882.934 453.467
963 1 38.1432 11.4831 438 122.411 882.18 472.251
964 0 39.0224 10.4812 409 127.875 882.866 471.822
965 0 41.0192 11.5068 472 125.004 882.587 468.614
966 0 43.2068 13.7016 592 119.179 881.122 468.135
967 0 44.1131 11.8106 521 123.921 881.33 466.962
968 0 44.2807 14.1597 627 118.844 881.209 462.995
969 0 46.1001 13.8395 638 118.229 880.723 463.661
970 0 46.0941 13.8413 638 124.898 879.686 463.721
971 0 48.0707 11.2959 543 123.269 881.556 460.604
972 0 51.1057 15.4582 790 115.009 882.88 460.418
973 0 50.1464 14.5973 732 119.511 882.156 455.348
974 0 53.278 15.0531 802 118.222 883.508 455.194
975 0 55.2707 16.0664 888 115.838 883.025 456.67
976 0 55.1637 12.3451 681 123.684 884.175 455.451
977 0 57.2805 13.2331 758 121.23 883.029 453.425
978 0 59.0851 15.1138 893 119.236 884.994 450.467
979 0 62.1413 14.982 931 117.405 884.537 449.519
980 0 63.4553 15.5858 989 114.938 885.025 452.144
981 0 64.1351 14.3603 921 118.309 885.22 446.246
982 0 67.3017 12.8229 863 124.144 886.715 448.093
983 0 68.1362 16.1441 1100 111.873 886.635 448.007
984 0 71.2739 17.3135 1234 109.78 887.255 446.055
985 0 79.2917 17.4041 1380 104.637 888.426 453.134
986 0 76.2105 12.1112 923 114.423 888.463 443.372
987 1 43.0915 10.9302 471 114.166 889.59 465.503
988 0 42.0881 10.9295 460 115.635 889.761 464.67
989 0 47.0681 13.1087 617 110.639 889.89 462.126
990 0 47.0236 12.6107 593 113.496 888.696 462.194
991 0 49.0286 12.5029 613 111.545 889.328 461.114
992 0 50.1457 14.4579 725 108.135 888.07 463.503
993 0 52.1369 13.4454 701 109.967 888.004 463.99
994 0 52.1353 13.3115 694 110.95 887.847 462.912
995 0 53.064 11.7028 621 113.332 887.066 460.035
996 0 58.1898 16.6868 971 106.271 887.852 459.477
997 0 57.1328 13.3023 760 117.328 887.674 460.95
998 0 59.1441 13.763 814 118.246 885.948 461.248
999 0 60.1538 11.3044 680 119.491 886.543 463.619
1000 0 61.2755 13.1537 806 116.615 885.913 460.55
1001 0 66.4497 14.4922 963 112.402 884.997 463.591
1002 0 66.4497 14.5524 967 124.875 883.999 463.663
1003 0 68.1189 15.7519 1073 112.312 881.858 457.868
1004 0 70.2349 14.4657 1016 114.659 881.965 454.094
1005 0 72.1893 13.2014 953 117.426 880.926 458.106
1006 0 74.1827 12.7658 947 119.264 879.866 452.149
1007 0 77.2495 16.8674 1303 111.337 879.266 452.476
1008 1 39.0258 11.3515 443 121.262 878.316 469.801
1009 0 38.0513 9.51347 362 125.42 878.171 468.892
1010 0 41.0186 12.8478 527 118.854 878.364 467.015
1011 0 42.2022 11.3501 479 121.184 879.294 464.82
1012 0 42.0225 12.4933 525 119.103 881.815 461.777
1013 0 44.0622 13.4809 594 117.015 881.709 461.066
1014 0 45.0889 14.172 639 115.823 882.084 460.188
1015 0 44.0603 12.7325 561 117.97 879.825 460.761
1016 0 47.051 12.4333 585 117.877 880.692 460.875
1017 0 47.1833 11.6567 550 120.284 876.031 455.165
1018 0 47.1769 10.1533 479 124.386 874.701 455.455
1019 0 50.1206 12.1906 611 119.635 875.146 456.198
1020 0 52.1383 12.2175 637 119.551 875.732 455.846
1021 0 55.0695 14.055 774 115.667 876.266 454.641
1022 0 56.1666 12.4629 700 119.556 876.821 451.767
1023 0 55.1584 11.4579 632 120.59 877.907 452.761
1024 0 60.3017 13.4159 809 116.172 877.42 448.879
1025 0 63.3453 14.2078 900 114.33 879.16 449.347
1026 0 63.2984 14.1394 895 125.189 880.179 449.25
1027 0 66.1539 13.6046 900 115.06 881.781 447.864
1028 0 67.1233 11.7247 787 117.637 887.682 448.995
1029 0 70.218 13.0166 914 116.674 887.85 447.014
1030 0 73.2251 12.6733 928 117.073 886.972 446.28
1031 0 77.2421 13.503 1043 114.51 887.652 447.815
1032 0 77.2393 13.7754 1064 116.019 887.96 446.028
1033 0 80.2841 13.8134 1109 115.875 888.876 443.552
1034 0 82.3523 12.1187 998 119.183 887.109 445.533
1035 0 85.3482 14.517 1239 115.321 888.249 446.144
1036 0 87.3549 14.3896 1257 116.786 885.972 444.595
1037 0 89.2386 11.4076 1018 120.953 889.345 445.25
1038 0 93.3703 10.2923 961 119.665 888.949 448.734
1039 0 95.0899 12.5986 1198 118.963 888.116 439.565
1040 1 52.0795 9.92712 517 120.675 887.847 466.638
1041 0 52.0795 9.86952 514 136.237 886.85 466.619
1042 0 58.0943 12.3076 715 122.543 886.327 466.713
1043 0 58.2928 14.2385 830 122.448 885.661 465.599
1044 0 61.3516 13.2515 813 125.344 884.327 462.383
1045 0 64.2019 14.6413 940 122.715 883.087 462.248
1046 0 63.262 13.0884 828 127.736 883.321 460.228
1047 0 68.3387 15.5988 1066 121.891 881.894 462.784
1048 0 70.1835 14.3908 1010 124.806 881.169 458.405
1049 0 72.3976 15.5254 1124 122.894 881.791 457.664
1050 0 75.2772 14.3603 1081 124.93 879.819 456.883
1051 0 78.2765 15.8157 1238 123.023 881.696 455.717
1052 0 79.2456 17.3007 1371 120.255 880.53 449.359
1053 0 81.2732 13.4239 1091 127.803 880.879 452.143
1054 0 85.2301 15.2528 1300 123.342 879.623 446.498
1055 0 87.2961 15.6135 1363 123.42 880.814 447.657
1056 0 91.41 13.6309 1246 126.775 881.379 445.516
1057 1 46.1404 11.2483 519 127.68 882.277 465.707
1058 0 48.1019 10.4778 504 128.873 882.212 464.113
1059 0 51.0924 12.585 643 123.886 883.047 463.907
1060 0 53.0877 11.6411 618 125.807 883.519 459.097
1061 0 52.1032 12.6864 661 127.531 882.926 455.961
1062 0 55.6274 12.9613 721 126.75 883.491 454.313
1063 0 56.4898 11.9136 673 128.773 882.902 449.946
1064 0 58.2532 14.0593 819 123.122 884.375 455.093
1065 0 60.4031 14.4198 871 122.781 884.778 452.217
1066 0 62.2218 13.2269 823 125.505 885.242 452.933
1067 0 63.1785 13.5489 856 126.616 885.21 449.308
1068 0 68.2623 13.1991 901 125.462 886.515 450.033
1069 0 70.4385 14.2536 1004 123.951 886.74 446.861
1070 0 72.2747 14.4587 1045 123.025 887.191 448.318
1071 0 73.3994 12.6295 927 127.184 888.615 446.297
1072 0 79.3503 14.7825 1173 121.926 887.146 447.902
1073 0 80.7372 13.129 1060 125.312 888.259 448.764
1074 1 43.3401 12.3442 535 123.63 887.785 464.415
1075 0 43.3401 12.2289 530 140.055 887.776 464.451
1076 0 46.1508 13.4126 619 117.205 887.732 461.719
1077 0 47.1242 11.9259 562 118.626 886.683 465.952
1078 0 49.0795 14.8534 729 114.771 885.909 466.675
1079 0 51.0599 14.199 725 116.015 886.861 468.03
1080 0 50.0439 10.1711 509 123.709 884.976 469.668
1081 0 53.0674 12.7008 674 119.96 886.318 468.012
1082 0 55.2091 15.2873 844 115.5 885.902 467.018
1083 0 57.2034 13.9327 797 117.705 886.999 465.098
1084 0 56.267 12.9205 727 119.893 884.648 467.86
1085 0 58.1482 9.78535 569 126.114 884.376 465.413
1086 0 60.3589 11.879 717 122.381 884.311 466.035
1087 0 64.2288 12.6734 814 119.762 884.023 466.152
1088 0 67.1097 14.29 959 116.795 882.137 464.315
1089 0 69.1846 12.9798 898 119.968 881.895 460.859
1090 0 72.2755 17.8345 1289 111.673 879.992 460.58
1091 0 75.2314 13.3721 1006 119.205 880.64 455.287
1092 0 76.1076 12.4429 947 121.487 881.36 453.875
1093 1 40.0682 15.1242 606 114.182 879.335 474.855
1094 0 41.1703 11.2703 464 119.642 881.849 467.442
1095 0 41.0836 8.32448 342 125.213 881.582 465.959
1096 0 41.1025 11.1185 457 119.214 882.184 469.849
1097 0 43.0689 11.6557 502 119.203 881.637 467.235
1098 0 45.056 14.4709 652 112.299 878.379 471.08
1099 0 45.044 15.7846 711 112.277 878.581 465.8
1100 0 47.0562 11.5181 542 119.792 878.67 466.387
1101 0 48.0923 14.5345 699 114.163 879.107 462.784
1102 0 50.0393 13.7492 688 114.85 877.897 462.981
1103 0 49.0629 13.4725 661 116.623 878.169 461.292
1104 0 52.0468 13.8913 723 115.697 880.014 458.252
1105 0 51.088 12.2534 626 119.208 879.668 460.812
1106 0 56.3071 15.007 845 112.347 880.034 459.514
1107 0 57.1726 13.7478 786 116.44 880.483 457.08
1108 0 57.182 13.8155 790 132.963 880.485 457.077
1109 0 56.159 14.1384 794 132.188 880.447 457.23
1110 0 62.1282 19.2022 1193 107.645 883.137 452.601
1111 0 64.1827 13.633 875 116.353 883.842 453.741
1112 0 66.1702 12.3621 818 119.242 884.238 449.533
1113 0 70.196 14.431 1013 115.334 884.208 447.362
1114 0 71.2622 16.9375 1207 110.354 884.341 454.664
1115 0 70.1488 10.6488 747 119.695 884.26 454.68
1116 0 77.1059 10.6218 819 122.634 885.127 449.052
1117 0 78.2388 12.8069 1002 119.068 883.766 447.999
1118 0 81.2153 13.5319 1099 116.878 886.622 450.959
1119 1 43.0957 12.9015 556 115.964 885.228 467.933
1120 0 45.2227 10.4815 474 120.42 886.658 468.361
1121 0 44.0278 10.9022 480 118.152 885.471 464.104
1122 0 49.1787 17.2432 848 104.777 884.884 469.699
1123 0 52.4692 19.9546 1047 101.728 884.798 467.012
1124 0 50.1899 13.5486 680 109.871 885.448 462.332
1125 0 52.1045 12.5133 652 110.629 885.975 464.331
1126 0 54.1354 12.7089 688 113.177 886.699 470.751
1127 0 57.3337 14.3197 821 110.555 886.273 469.89
1128 0 59.4757 14.2579 848 112.223 884.671 466.044
1129 0 59.2836 15.08 894 111.787 884.497 466.959
1130 0 63.3035 13.6169 862 113.495 884.204 466.624
1131 0 63.1777 11.9029 752 119.105 882.572 463.032
1132 0 67.2454 14.3058 962 115.127 881.398 465.937
1133 0 67.3408 13.3946 902 117.866 880.961 463.803
1134 0 71.4202 15.5698 1112 114.381 880.071 463.349
1135 0 71.4202 15.5838 1113 132.215 879.06 463.389
1136 0 74.2097 14.6746 1089 117.309 880.097 457.348
1137 0 75.2723 16.3274 1229 115.096 880.467 459.589
1138 0 77.4249 14.4656 1120 121.005 878.544 452.056
1139 0 79.3735 14.4003 1143 121.385 877.437 451.419
1140 0 80.3142 13.0612 1049 124.931 878.622 447.816
1141 0 83.3415 11.5189 960 126.95 878.294 447.661
1142 0 89.3717 13.8746 1240 122.295 877.081 448.725
1143 0 89.3717 13.8746 1240 144.434 876.064 448.756
1144 1 49.3084 14.3383 707 115.656 878.767 463.88
1145 0 49.1295 12.6604 622 120.368 880.172 463.08
1146 0 49.2429 10.6208 523 124.813 879.721 458.446
1147 0 53.0319 13.4259 712 119.322 880.826 462.164
1148 0 52.1572 11.7913 615 121.948 879.446 460.967
1149 0 55.2043 14.0569 776 121.088 881.064 457.756
1150 0 55.1742 18.4506 1018 117.165 879.342 455.14
1151 0 57.2312 16.0052 916 121.738 880.699 453.369
1152 0 62.5113 17.1009 1069 117.392 882.335 453.138
1153 0 63.3458 13.6552 865 124.55 881.578 452.222
1154 0 63.3329 13.7369 870 142.636 880.556 452.222
1155 0 68.5317 14.6356 1003 121.36 883.118 451.74
1156 0 71.6106 15.7938 1131 119.737 883.702 449.082
1157 0 66.2312 11.7467 778 129.391 883.458 447.978
1158 0 74.5477 12.4752 930 125.801 883.552 447.902
1159 0 74.2214 12.6918 942 126.92 885.668 448.373
1160 0 76.1309 13.8708 1056 124.688 885.26 449.089
1161 0 81.5531 14.0032 1142 122.689 886.582 447.534
1162 0 82.2932 12.4798 1027 126.817 885.051 446.063
1163 0 82.2932 12.5648 1034 148.27 884.063 445.965
1164 0 89.3261 14.1392 1263 120.903 886.231 440.22
1165 0 93.3138 14.1994 1325 120.121 886.663 441.693
1166 0 96.4295 12.6621 1221 123.509 886.24 442.916
1167 1 44.0617 8.64696 381 129.856 884.89 464.782
1168 0 47.1498 11.0499 521 124.85 884.09 465.196
1169 0 51.2313 12.5704 644 118.787 883.907 468.357
1170 0 52.0881 13.362 696 117.8 883.667 469.175
1171 0 55.2762 12.8265 709 125.425 884.028 469.884
1172 0 55.1693 13.1051 723 125.318 882.722 469.665
1173 0 59.1381 14.3393 848 122.8 882.988 469.298
1174 0 57.1646 12.4378 711 127.482 881.456 469.298
1175 0 59.1168 12.5853 744 128.319 881.921 466.167
1176 0 60.2943 13.9814 843 124.53 879.452 468.078
1177 0 64.1799 14.4282 926 123.707 879.931 464.134
1178 0 65.1405 13.0948 853 125.539 879.053 463.825
1179 0 68.1549 13.9535 951 121.034 878.165 459.512
1180 0 69.1336 13.2208 914 122.466 878.934 460.999
1181 0 69.1724 14.4566 1000 121.335 877.04 460.154
1182 0 71.2349 14.768 1052 121.651 877.031 459.606
1183 0 74.1421 13.9462 1034 123.253 877.618 453.256
1184 0 77.1088 14.6416 1129 120.65 878.062 456.267
1185 0 80.2348 14.0463 1127 123.093 877.856 453.828
1186 0 80.2299 12.0653 968 127.667 877.528 451.594
1187 0 85.1896 14.5558 1240 124.289 878.714 447.941
1188 0 87.1333 14.518 1265 124.697 878.217 446.09
1189 0 90.1417 14.6547 1321 124.998 878.568 443.373
1190 0 93.1075 13.8013 1285 125.893 878.694 442.971
1191 0 98.1401 14.7137 1444 124.389 880.027 440.107
1192 0 100.321 11.4034 1144 130.727 879.908 437.767
1193 1 56.0489 14.7906 829 119.89 879.758 458.654
1194 0 56.1498 15.8327 889 120.083 881.853 455.506
1195 0 57.1112 12.1517 694 121.88 881.386 452.569
1196 0 58.1014 12.5987 732 119.955 883.027 454.236
1197 0 62.1313 13.4715 837 117.335 883.241 454.955
1198 0 62.0711 13.4523 835 119.653 883.14 450.847
1199 0 66.2059 12.9747 859 120.296 884.842 452.058
1200 0 67.0738 13.1944 885 119.729 885.009 450.647
1201 0 67.1757 13.4424 903 121.247 885.597 450.176
1202 0 74.1231 13.8553 1027 118.376 885.508 452.64
1203 0 73.201 14.2348 1042 118.269 887.522 452.737
1204 0 75.1246 13.9235 1046 120.126 886.542 448.589
1205 0 78.1602 12.7942 1000 121.5 887.214 451.885
1206 0 81.2025 16.2803 1322 115.642 888.042 452.778
1207 0 84.2386 15.5392 1309 117.823 886.378 448.647
1208 0 85.2559 15.084 1286 135.025 884.372 448.861
1209 0 90.2714 14.0576 1269 120.175 886.496 447.788
1210 0 90.2714 14.0133 1265 136.333 889.458 447.671
1211 1 50.1743 13.3335 669 120.714 887.257 466.993
1212 0 51.2388 12.2368 627 119.759 887.828 468.544
1213 0 52.0624 10.2953 536 121.017 885.121 471.394
1214 0 54.0687 11.0415 597 120.429 886.077 469.901
1215 0 58.1011 15.3181 890 113.437 883.863 468.551
1216 0 59.0671 16.0665 949 112.501 882.861 466.033
1217 0 61.1537 10.4491 639 121.146 884.423 465.501
1218 0 64.0398 12.1799 780 117.847 883.283 467.059
1219 0 64.0539 11.1625 715 120.084 882.276 464.627
1220 0 68.1024 10.4108 709 120.742 882.502 463.326
1221 0 69.0506 11.8609 819 119.281 880.778 460.494
1222 0 70.134 10.4229 731 121.546 881.664 462.161
1223 0 75.1207 12.6996 954 118.331 880.085 453.223
1224 0 78.1265 11.123 869 119.13 880.708 460.104
1225 0 81.0813 13.1103 1063 117.047 880.08 450.824
1226 0 84.187 12.9949 1094 116.967 880.885 451.248
1227 1 44.0464 8.05969 355 125.073 879.186 469.966
1228 0 46.0341 8.88472 409 124.257 880.384 465.621
1229 0 50.2113 12.7262 639 117.03 880.645 461.854
1230 0 51.068 13.903 710 115.892 880.52 460.076
1231 0 52.1271 12.8148 668 115.939 881.124 458.84
1232 0 54.1028 14.7127 796 112.379 880.868 457.22
1233 0 55.164 10.8042 596 118.815 881.8 457.057
1234 0 57.0855 13.3134 760 114.817 882.229 455.92
1235 0 56.0654 10.3629 581 122.365 881.8 457.053
1236 0 59.3958 11.7348 697 119.402 882.479 453.488
1237 0 61.1258 13.0714 799 116.605 882.725 453.094
1238 0 63.1446 12.5585 793 112.772 883.617 446.881
1239 0 66.3151 11.8223 784 114.01 885.323 445.062
1240 0 67.2028 11.6215 781 113.585 885.008 448.909
1241 0 72.3273 13.674 989 110.164 886.074 446.633
1242 0 72.1441 11.6018 837 113.142 886.127 450.395
1243 0 73.2108 11.4601 839 117.963 885.754 448.249
1244 0 76.1502 9.24488 704 118.44 885.598 450.23
1245 0 80.0912 11.799 945 115.185 885.496 447.03
1246 0 82.2062 9.96276 819 117.212 887.21 442.786
1247 0 84.2211 10.5318 887 117.824 886.54 441.559
1248 1 44.1766 11.5899 512 112.898 886.104 461.004
1249 0 44.0433 11.7385 517 111.497 884.907 463.613
1250 0 48.2502 11.544 557 118.662 888.686 465.576
1251 0 50.1053 13.4916 676 114.318 889.114 466.006
1252 0 49.082 10.0648 494 120.085 888.579 469.666
1253 0 49.0203 10.873 533 123.841 885.469 468.876
1254 0 53.0618 13.9272 739 117.097 885.355 470.627
1255 0 54.1131 11.6608 631 122.228 883.609 467.39
1256 0 55.1686 11.2926 623 124.191 883.73 465.467
1257 0 54.228 9.22033 500 129.292 882.798 469.274
1258 0 58.1328 11.9038 692 124.474 882.118 466.912
1259 0 63.1505 13.0007 821 121.393 883.002 466.482
1260 0 64.2286 14.5885 937 119.606 881.207 465.083
1261 0 64.2226 12.301 790 124.991 880.53 464.622
1262 0 67.2695 12.0709 812 126.819 880.382 461.882
1263 0 69.2683 14.3356 993 122.749 880.4 457.933
1264 0 73.3097 13.7908 1011 122.646 879.509 459.165
1265 0 76.2672 15.9439 1216 119.299 878.512 454.661
1266 0 76.1535 13.9849 1065 123.387 878.024 453.037
1267 0 78.251 14.2362 1114 123.232 878.825 451.317
1268 0 82.414 12.1824 1004 126.57 877.562 451.121
1269 0 85.3929 14.6148 1248 120.765 877.068 451.411
1270 1 44.0451 10.5574 465 129.194 876.757 470.626
1271 0 44.0939 10.7044 472 130.129 877.576 466.564
1272 0 47.1401 12.8553 606 126.868 877.289 464.558
1273 0 51.0604 13.5526 692 123.403 877.52 463.065
1274 0 51.232 13.8585 710 123.983 877.7 459.672
1275 0 51.1128 12.9322 661 126.404 878.663 456.337
1276 0 54.059 13.5408 732 123.24 878.613 458.149
1277 0 56.1863 13.9714 785 122.884 879.559 455.817
1278 0 58.0689 13.3807 777 123.125 879.969 455.286
1279 0 59.0822 14.2513 842 124.173 879.593 452.647
1280 0 59.0822 14.2006 839 134.148 879.602 452.665
1281 0 62.1104 14.4098 895 124.421 880.99 449.949
1282 0 66.071 13.6217 900 123.97 881.744 450.912
1283 0 66.071 13.6822 904 136.048 882.759 450.884
1284 0 69.1536 13.752 951 124.537 883.853 446.187
1285 0 72.1067 12.0377 868 127.611 882.84 443.71
1286 0 75.052 14.4167 1082 122.75 882.958 446.387
1287 0 74.0582 13.908 1030 123.944 884.891 444.847
1288 0 74.0582 13.935 1032 131.019 886.896 444.909
1289 0 84.1479 14.7122 1238 119.79 885.445 446.439
1290 0 86.1308 14.8263 1277 118.975 886.393 446.879
1291 0 87.1774 14.178 1236 122.919 886.759 442.548
1292 0 90.0982 12.4198 1119 125.797 885.259 440.886
1293 0 93.1091 15.0254 1399 118.977 886.164 446.3
1294 1 48.0368 10.9707 527 125.097 885.939 462.926
1295 0 51.0638 14.5113 741 114.81 885.534 464.939
1296 0 50.108 9.31987 467 126.026 885.002 464.983
1297 0 52.0461 9.53001 496 125.252 885.327 463.514
1298 0 58.0951 13.3746 777 116.959 885.115 463.914
1299 0 59.0625 11.8349 699 119.811 882.617 463.197
1300 0 63.1324 15.713 992 111.915 884.647 463.525
1301 0 63.0463 13.4663 849 115.595 882.212 462.83
1302 0 66.0643 13.9712 923 113.899 882.246 462.453
1303 0 68.1063 14.404 981 111.628 882.034 464.24
1304 0 70.1392 13.6585 958 113.71 880.567 458.795
1305 0 73.1632 11.6589 853 116.268 880.434 455.224
1306 1 248.074 8.26366 2050 127.234 881.5 398.588
1307 1 79.1503 10.8275 857 117.272 879.636 453.582
1308 0 89.4076 10.6591 953 117.501 877.675 447.965
1309 0 95.228 11.5407 1099 115.537 877.655 446.525
1310 1 47.1285 11.7975 556 113.698 876.808 466.914
1311 0 48.0523 12.1742 585 114.374 875.568 462.554
1312 0 51.0411 13.5969 694 113.689 875.533 462.762
1313 0 52.1874 14.2946 746 110.386 876.778 461.791
1314 0 53.0999 11.9021 632 114.479 875.589 461.54
1315 0 54.0609 10.8211 585 116.918 877.118 460.34
1316 0 59.0798 14.5227 858 110.486 877.027 451.886
1317 0 62.1536 15.51 964 108.744 878.02 456.16
1318 0 61.1668 13.1607 805 113.533 878.125 451.171
1319 0 64.1498 13.3438 856 111.739 879.585 450.681
1320 0 65.08 9.61893 626 117.144 879.034 451.669
1321 0 70.1296 15.1149 1060 107.472 880.31 451.733
1322 0 70.3656 13.373 941 111.851 880.116 447.666
1323 0 72.2137 12.7677 922 112.604 881.987 446.31
1324 0 74.1193 12.6688 939 112.839 882.673 440.873
1325 0 78.1215 10.5989 828 112.269 883.209 447.528
1326 0 82.377 13.2076 1088 110.099 884.062 440.639
1327 0 83.2533 11.0506 920 114.615 882.673 434.179
1328 0 89.1243 14.9566 1333 108.594 883.986 435.495
1329 0 92.3094 13.8122 1275 109.285 884.983 441.578
1330 0 92.4235 12.4319 1149 113.306 884.928 437.026
1331 1 46.1126 12.0358 555 109.445 885.049 462.652
1332 0 47.1911 11.57 546 110.969 885.897 459.273
1333 0 50.2142 13.0043 653 107.051 886.176 463.029
1334 0 52.2908 12.1628 636 109.351 885.247 464.289
1335 0 53.1871 12.8979 686 108.509 887.048 463.185
1336 0 53.1761 12.6373 672 109.31 885.981 461.17
1337 0 53.2043 9.52931 507 114.308 885.548 463.089
1338 0 58.1463 15.8394 921 104.805 885.674 467.102
1339 0 58.0883 11.4653 666 111.11 885 467.871
1340 0 62.2059 15.095 939 105.885 884.382 462.772
1341 0 63.3391 12.9146 818 108.104 884.434 466.153
1342 0 65.5439 16.1876 1061 104.577 883.635 462.66
1343 0 67.1437 11.7062 786 111.849 884.013 461.114
1344 0 72.19 13.0489 942 109.418 882.228 462.017
1345 0 72.1735 14.0356 1013 109.922 882.816 460.746
1346 0 75.2472 13.1699 991 111.96 881.801 458.347
1347 0 75.2735 11.9697 901 115.184 881.61 458.555
1348 0 82.5567 14.9352 1233 111.031 881.381 448.905
1349 0 86.3943 18.5198 1600 106.005 879.799 446.521
1350 0 86.1991 18.3297 1580 107.569 879.886 447.425
1351 0 91.2642 15.6797 1431 112.124 878.921 441.123
1352 0 90.2818 13.7902 1245 114.394 878.894 445.806
1353 0 93.489 13.7663 1287 116.127 878.138 441.075
1354 0 99.4561 13.4934 1342 116.091 879.07 440.582
1355 0 101.485 13.7163 1392 114.47 876.239 439.838
1356 0 99.2868 15.9034 1579 115.157 877.289 434.986
1357 1 54.1543 12.4644 675 116.914 879.227 461.05
1358 0 58.2402 12.1394 707 118.236 878.75 459.02
1359 0 58.2402 12.1909 710 138.204 877.744 459
1360 0 61.1475 11.6603 713 119.488 879.372 454.767
1361 0 63.2608 15.0804 954 114.865 880.459 446.227
1362 0 67.2019 12.7972 860 118.908 880.635 444.376
1363 0 69.4378 13.8109 959 118.471 880.997 441.541
1364 0 72.429 13.2958 963 118.503 881.209 441.774
1365 0 76.4585 15.6555 1197 113.579 882.674 438.973
1366 0 77.6469 12.3637 960 118.654 882.405 442.402
1367 0 79.1952 10.0132 793 123.187 884.509 441.009
1368 0 84.5092 13.5725 1147 117.416 885.106 437.931
1369 0 86.4896 15.4238 1334 115.995 885.544 434.984
1370 0 93.6296 13.3612 1251 121.149 885.174 438.02
1371 0 94.268 15.1165 1425 120.248 885.926 433.159
1372 0 98.9028 16.8448 1666 117.008 885.849 435.882
1373 0 99.4985 12.5329 1247 123.262 887.542 439.668
1374 1 49.3415 14.5314 717 117.013 886.869 458.032
1375 0 52.447 14.4336 757 117.145 888.309 454.563
1376 0 53.6247 14.9744 803 114.615 887.752 461.238
1377 0 51.4185 13.7694 708 118.578 887.48 462.886
1378 0 55.3927 13.4494 745 118.494 886.804 461.11
1379 0 57.3684 15.1303 868 114.649 887.422 465.309
1380 0 58.5669 14.1718 830 119.505 885.275 460.649
1381 0 60.0346 13.1258 788 121.501 885.841 461.572
1382 0 62.7036 12.2003 765 122.613 884.855 460.899
1383 0 64.6596 12.4189 803 122.342 886.286 460.534
1384 0 67.1831 13.9023 934 119.225 885.573 461.55
1385 0 67.0953 13.8907 932 133.565 884.574 461.731
1386 0 70.556 12.9826 916 122.51 883.623 456.527
1387 0 73.7937 14.2289 1050 119.788 884.35 455.081
1388 0 75.6094 12.7233 962 123.81 881.889 453.868
1389 0 77.6185 12.9351 1004 124.726 882.525 448.933
1390 0 77.6185 12.9222 1003 127.358 882.467 449.08
1391 1 39.37 12.4968 492 121.494 881.557 466.815
1392 0 45.5853 10.6833 487 121.29 881.624 467.977
1393 0 42.3259 11.0807 469 123.038 880.262 466.168
1394 0 45.4709 11.7878 536 122.603 879.418 464.632
1395 0 45.2691 11.7078 530 124.457 880.834 464.964
1396 0 47.1075 11.7603 554 125.058 879.904 465.334
1397 0 47.321 12.4046 587 125.257 881.032 461.6
1398 0 49.3918 13.8282 683 122.773 879.466 458.176
1399 0 50.1658 13.4155 673 124.532 881.232 456.765
1400 0 52.4266 13.6953 718 123.45 879.815 456.688
1401 0 54.2453 13.4758 731 125.107 880.079 451.405
1402 0 57.313 13.4176 769 124.748 880.363 450.332
1403 0 58.3896 12.2967 718 126.958 881.398 448.812
1404 0 58.3896 12.331 720 131.818 882.39 448.657
1405 0 63.3551 13.5111 856 123.925 882.609 447.403
1406 0 65.5095 12.731 834 126.801 882.85 445.077
1407 0 67.2549 13.4414 904 126.263 882.205 442.272
1408 0 72.4348 16.3043 1181 119.885 883.112 440.147
1409 0 72.2981 13.223 956 124.932 883.21 442.038
1410 0 76.3492 15.7827 1205 119.911 884.422 439.664
1411 0 78.421 13.7336 1077 124.037 884.883 439.621
1412 0 82.4345 13.3197 1098 124.616 885.441 437.843
1413 0 88.3498 14.0125 1238 123.132 885.903 435.048
1414 0 89.3726 12.6661 1132 125.95 886.187 437.299
1415 0 95.3479 14.4838 1381 120.744 887.421 438.663
1416 0 99.4796 15.6715 1559 118.643 887.177 436.199
1417 0 98.2741 13.3301 1310 125.714 888.415 430.621
1418 0 103.229 13.9592 1441 124.695 887.978 429.761
1419 0 106.27 13.9174 1479 124.13 888.076 430.477
1420 0 111.448 13.513 1506 124.444 888.089 430.141
1421 0 119.168 11.0516 1317 128.428 887.286 435.14
1422 0 118.286 14.651 1733 123.006 887.539 427.334
1423 0 121.337 14.7359 1788 123.669 886.96 425.898
1424 0 127.157 14.9264 1898 122.473 886.632 429.081
1425 0 133.362 12.3423 1646 126.568 887.339 427.448
1426 1 69.1301 11.7894 815 120.454 886.687 458.921
1427 0 74.1006 14.3319 1062 115.119 887.206 459.892
1428 0 76.2493 13.0099 992 118.747 885.849 457.977
1429 0 74.1689 11.0558 820 123.948 885.617 453.991
1430 0 80.1082 12.7328 1020 121.546 884.357 453.976
1431 0 82.1276 13.5399 1112 120.237 883.41 448.799
1432 0 84.132 12.9439 1089 121.836 882.986 444.718
1433 0 88.2295 16.1624 1426 115.558 883.287 449.768
1434 0 91.2071 14.5274 1325 118.684 881.532 443.703
1435 0 95.3561 13.8428 1320 119.884 881.987 440.815
1436 0 97.2318 12.2388 1190 122.837 880.035 440.733
1437 0 99.2264 12.6277 1253 122.53 881.135 439.743
1438 1 59.1393 11.4983 680 120.826 881.11 456.931
1439 0 59.0586 7.97512 471 126.098 879.764 458.828
1440 0 61.156 13.9806 855 117.422 880.488 454.544
1441 0 64.2308 14.1677 910 115.842 880.408 455.1
1442 0 65.5123 12.4099 813 118.474 877.577 452.665
1443 0 68.4362 13.5016 924 118.997 878.273 447.37
1444 0 69.4693 13.272 922 119.852 877.714 443.303
1445 0 71.6178 14.1026 1010 118.799 878.955 440.982
1446 0 71.5852 13.4246 961 119.484 879.154 442.634
1447 0 73.4253 10.8954 800 124.252 881.636 439.198
1448 0 77.5414 12.1612 943 121.347 879.092 440.569
1449 0 82.4437 13.9368 1149 117.748 880.766 439.392
1450 0 79.377 11.3257 899 124.532 882.873 435.237
1451 0 86.3623 12.656 1093 120.621 882.766 435.656
1452 0 87.6333 13.0316 1142 118.374 884.006 433.174
1453 0 90.5394 14.5903 1321 115.868 884.324 431.997
1454 0 90.5394 14.7118 1332 123.908 885.323 431.952
1455 0 96.779 13.2053 1278 118.594 885.178 425.735
1456 1 50.3911 11.7878 594 113.874 883.256 453.673
1457 0 46.2133 11.9013 550 108.809 886.044 446.702
1458 0 51.1254 8.80188 450 111.013 886.813 453.469
1459 0 51.1267 10.6794 546 107.832 885.954 447.368
1460 0 51.2597 9.03244 463 110.35 887.108 449.663
1461 0 53.209 11.3515 604 107.902 887.598 453.376
1462 0 56.2776 8.42254 474 117.338 887.302 457.854
1463 0 58.2195 11.2505 655 113.435 887.675 454.643
1464 0 57.1549 11.6176 664 112.069 887.155 460.584
1465 0 61.2698 12.7143 779 110.743 887.413 457.479
1466 0 63.1707 12.5058 790 112.38 888.246 455.973
1467 0 64.1367 11.8185 758 112.579 886.933 459.764
1468 0 67.3161 10.7701 725 114.154 886.434 456.223
1469 0 69.3123 12.2633 850 112.442 886.167 458.961
1470 0 72.2767 13.4068 969 111.444 885.739 454.589
1471 0 73.1345 12.3608 904 114.191 884.837 453.217
1472 0 76.2871 11.7582 897 115.27 884.593 453.297
1473 0 79.1597 14.1233 1118 111.666 882.796 454.198
1474 0 81.2573 11.9497 971 113.974 881.893 454.548
1475 0 86.197 14.5017 1250 111.116 881.704 453.018
1476 0 87.2249 13.299 1160 114.303 880.658 443.265
1477 0 90.1632 14.2408 1284 113.149 880.565 444.577
1478 1 51.1171 9.70321 496 115.81 880.325 465.645
1479 0 53.096 11.451 608 112.238 880.931 464.957
1480 0 51.4336 10.3629 533 114.503 877.135 459.12
1481 0 52.1484 9.85648 514 116.658 877.471 454.726
1482 0 55.0698 12.5659 692 111.871 877.192 456.389
1483 0 53.0952 11.9973 637 113.102 878.356 458.699
1484 0 58.292 11.837 690 112.039 877.462 453.668
1485 0 59.2886 12.8693 763 111.076 876.731 451.59
1486 0 59.2528 11.6619 691 113.013 878.178 452.039
1487 0 63.1633 10.6549 673 113.557 876.82 450.49
1488 0 65.1515 13.0926 853 111.57 876.416 444.951
1489 0 65.1515 13.2921 866 122.132 876.366 445.223
1490 0 67.2649 11.2837 759 115.736 877.282 441.474
1491 0 70.2266 13.6843 961 111.339 878.972 440.816
1492 0 71.2377 10.7527 766 115.727 879.638 440.05
1493 0 73.1783 15.0045 1098 108.363 879.927 442.25
1494 0 77.444 14.3975 1115 110.761 880.682 435.432
1495 0 79.2669 10.3322 819 117.718 881.171 436.408
1496 0 83.2595 13.1757 1097 112.337 882.354 437.675
1497 0 83.3246 12.2173 1018 114.863 882.743 435.816
1498 0 92.2644 13.7648 1270 111.006 881.991 439.457
1499 0 92.3231 12.4454 1149 114.019 884.29 434.396
1500 1 52.2706 7.86293 411 116.248 882.606 454.99
1501 0 51.14 13.3946 685 110.013 883.629 454.063
1502 0 50.0449 8.47239 424 116.7 886.37 461.12
1503 0 53.1092 13.4628 715 110.544 886.519 458.997
1504 0 58.0676 11.5038 668 110.283 886.654 461.954
1505 0 54.2861 12.8578 698 113.378 887.788 455.245
1506 0 57.1163 12.3082 703 113.518 888.764 459.74
1507 0 58.0584 11.8846 690 115.148 887.697 458.475
1508 0 61.0869 12.7687 780 112.137 888.508 461.526
1509 0 62.1279 10.1887 633 117.158 887.946 461.24
1510 0 64.1132 10.8402 695 118.263 888.092 456.2
1511 0 67.0666 16.4016 1100 108.937 886.052 460.407
1512 0 67.2262 13.7298 923 114.84 886.237 460.45
1513 0 68.1365 12.5043 852 118.327 886.303 458.201
1514 0 73.1063 15.0192 1098 113.697 886.412 460.005
1515 0 75.0927 15.1413 1137 114.974 884.2 453.902
1516 0 75.0927 15.1013 1134 132.784 883.205 453.867
1517 0 79.2076 13.6856 1084 118.089 882.451 458.739
1518 0 81.167 18.4311 1496 110.804 882.584 454.135
1519 0 85.1916 18.0417 1537 111.276 881.818 450.039
1520 0 84.1228 17.8311 1500 113.231 881.799 452.672
1521 0 87.2372 14.9592 1305 118.884 881.695 447.502
1522 1 46.1738 10.5688 488 125.211 881.648 466.783
1523 0 51.0557 11.1839 571 122.236 881.368 465.089
1524 0 52.054 10.8925 567 121.48 880.307 465.774
1525 0 52.1176 12.2416 638 121.36 880.047 460.644
1526 0 53.3105 12.0239 641 120.523 879.724 460.126
1527 0 54.0741 12.4089 671 120.618 879.504 459.66
1528 0 56.1048 12.441 698 121.216 880.05 455.639
1529 0 60.1375 13.8516 833 116.528 879.663 455.511
1530 0 63.1332 17.4076 1099 110.386 880.671 455.186
1531 0 63.1203 15.5576 982 114.372 879.787 449.712
1532 0 65.2084 13.7712 898 117.129 881.651 450.93
1533 0 65.1026 14.6692 955 117.032 882.031 448.143
1534 0 69.1288 15.652 1082 114.465 882.795 450.339
1535 0 71.1925 17.5019 1246 112.961 881.919 444.055
1536 0 70.0542 12.5902 882 123.118 884.024 442.872
1537 0 74.0631 14.3661 1064 118.934 884 442.41
1538 0 76.2736 12.8223 978 121.757 884.495 438.439
1539 0 80.1166 14.2667 1143 117.888 885.498 440.169
1540 0 81.188 12.8221 1041 121.12 885.31 439.934
1541 0 82.1158 13.006 1068 120.384 886.108 438.067
1542 0 84.1695 12.1065 1019 121.332 886.195 442.247
1543 1 48.2569 12.9101 623 112.404 886.278 463.368
1544 0 48.0702 9.9438 478 117.887 886.916 461.326
1545 0 47.0823 11.8728 559 112.81 888.068 461.748
1546 0 47.1887 10.1295 478 114.967 887.588 461.276
1547 0 49.0701 11.6364 571 112.76 886.951 462.128
1548 0 48.0393 9.55468 459 117.582 886.179 462.355
1549 0 49.1177 12.2359 601 113.206 883.852 459.706
1550 0 55.1647 10.3146 569 112.974 884.634 466.216
1551 0 50.0562 8.15083 408 119.218 883.9 463.015
1552 0 53.0721 9.6284 511 116.777 883.386 461.374
1553 0 57.2999 9.35429 536 115.291 883.224 461.804
1554 0 60.3042 13.3987 808 109.324 883.87 462.937
1555 0 62.198 11.5116 716 110.701 882.253 457.742
1556 0 65.0999 14.04 914 107.637 882.535 459.742
1557 0 65.0255 9.36555 609 114.984 882.215 466.483
1558 0 66.1233 10.3594 685 113.945 880.095 460.181
1559 0 68.1535 12.5599 856 111.657 879.964 457.648
1560 0 73.0908 11.3831 832 112.481 879.426 460.962
1561 0 72.0952 10.5832 763 114.636 878.818 458.805
1562 0 75.3058 12.6551 953 111.48 881.637 450.148
1563 0 80.1556 13.9978 1122 108.403 883.047 452.419
1564 0 82.2326 12.6349 1039 112.417 881.934 446.041
1565 0 84.2626 12.8171 1080 113.066 880.932 446.133
1566 0 84.2395 12.3932 1044 115.239 881.352 444.664
1567 1 43.0263 10.7376 462 114.879 882.338 465.42
1568 0 46.1149 13.3363 615 111.283 878.839 465.104
1569 0 48.1575 16.2176 781 106.795 877.143 462.367
1570 0 48.0994 10.0625 484 118.149 876.172 460.818
1571 0 50.0516 11.0086 551 117.053 877.018 460.352
1572 0 50.1247 14.8629 745 111.538 877.748 461.06
1573 0 51.2004 9.60931 492 120.205 877.628 460.919
1574 0 53.1296 13.5141 718 115.369 877.858 455.146
1575 0 55.1767 14.7889 816 113.402 878.912 455.018
1576 0 54.1204 10.9201 591 119.748 878.076 456.076
1577 0 56.0941 11.3024 634 119.935 879.5 454.798
1578 0 59.0823 13.5235 799 115.342 878.991 453.728
1579 0 59.0984 13.5706 802 129.052 878.005 453.796
1580 0 64.1751 13.8216 887 115.736 880.545 451.336
1581 0 65.0408 12.1616 791 120.272 881.345 446.689
1582 0 65.155 13.8132 900 118.312 880.759 445.227
1583 0 68.1658 11.1493 760 123.068 881.407 448.141
1584 0 70.0786 11.9009 834 122.39 882.09 445.025
1585 0 71.1184 10.2365 728 123.995 882.809 449.791
1586 0 76.092 15.3761 1170 117.605 884.072 443.373
1587 0 76.118 13.0981 997 122.82 882.72 444.542
1588 0 80.2115 10.597 850 126 883.322 448.324
1589 0 82.1307 13.2959 1092 122.128 885.155 443.021
1590 0 84.2043 11.9828 1009 122.096 884.584 450.48
1591 0 87.108 13.3972 1167 122.382 885.988 445.218
1592 1 45.0346 9.34836 421 127.112 885.119 464.594
1593 0 51.0483 14.2414 727 116.638 884.542 465.029
1594 0 50.0336 11.5522 578 122.478 883.901 464.379
1595 0 54.0692 16.8488 911 112.305 884.866 462.576
1596 0 54.1301 13.1166 710 119.483 883.814 467.248
1597 0 58.0978 15.1813 882 115.258 883.142 465.618
1598 0 56.0474 13.3459 748 121.344 882.92 465.722
1599 0 59.0408 12.5506 741 122.293 882.32 464.074
1600 0 63.1201 14.417 910 117.924 882.293 463.612
1601 0 64.1121 14.615 937 117.649 880.264 462.891
1602 0 65.1251 10.856 707 122.653 881.416 461.181
1603 0 65.0526 14.3576 934 117.358 880.293 461.03
1604 0 65.1375 13.1875 859 120.588 878.23 459.293
1605 0 69.1098 11.0549 764 122.983 877.767 463.323
1606 0 72.1023 13.4115 967 118.759 877.268 456.85
1607 0 71.1013 12.1376 863 120.739 878.205 458.611
1608 0 77.2275 13.4667 1040 118.77 876.785 452.748
1609 0 77.1836 12.0362 929 121.409 876.871 452.567
1610 0 81.1943 12.2792 997 121.951 877.673 450.02
1611 0 84.2092 16.459 1386 115.23 877.732 446.072
1612 0 85.1086 12.9482 1102 122.539 877.749 442.456
1613 1 44.0535 11.9854 528 121.384 876.472 465.036
1614 0 44.0462 13.2815 585 119.726 876.694 461.003
1615 0 46.0606 10.8336 499 123.691 876.633 455.591
1616 0 44.0951 9.00327 397 124.433 878.685 457.191
1617 0 49.1913 12.5429 617 116.718 878.755 454.718
1618 0 48.0431 11.3232 544 120.208 877.678 455.43
1619 0 50.14 13.9809 701 115.884 878.232 448.402
1620 0 51.0644 12.1024 618 119.186 879.574 445.377
1621 0 55.1306 13.3864 738 116.646 878.897 445.832
1622 0 58.0614 13.3996 778 116.533 879.848 443.23
1623 0 58.0614 13.3996 778 124.473 880.848 443.23
1624 0 60.0472 10.9914 660 120.861 880.479 445.617
1625 0 60.0434 12.0579 724 119.517 882.494 445.971
1626 0 63.1831 12.1235 766 119.561 882.992 444.273
1627 0 69.1208 12.413 858 117.753 883.726 441.296
1628 0 70.1325 11.8918 834 119.675 884.046 441.088
1629 0 70.1653 14.6654 1029 115.932 884.828 441.866
1630 0 75.0453 16.1369 1211 113.899 884.914 437.636
1631 0 77.1007 13.1257 1012 118.965 885.279 440.794
1632 0 77.1007 12.996 1002 134.41 885.278 440.738
1633 0 84.195 14.2764 1202 117.867 885.413 440.631
1634 0 85.1601 13.3513 1137 121.029 886.929 438.931
1635 0 86.1213 11.1355 959 126.093 885.888 438.178
1636 1 42.0677 7.22645 304 127.536 885.717 459.641
1637 0 48.4243 12.0807 585 122.369 886.644 464.222
1638 0 47.2725 12.6712 599 117.007 885.498 461.845
1639 0 51.2467 12.1764 624 122.553 885.859 462.926
1640 0 54.0688 14.2596 771 117.236 886.263 466.756
1641 0 54.1319 11.1949 606 122.35 887.224 467.535
1642 0 52.1394 10.4719 546 126.159 887.231 466.711
1643 0 58.0611 12.6591 735 120.679 885.778 464.107
1644 0 60.1771 13.5101 813 118.141 884.054 461.477
1645 0 62.1169 12.8951 801 120.338 882.639 463.473
1646 0 62.1169 12.9916 807 134.616 881.636 463.398
1647 0 68.0594 15.0898 1027 116.175 881.329 459.047
1648 0 69.0856 15.5459 1074 115.167 880.571 460.437
1649 0 71.04 11.3316 805 123.016 881.442 452.735
1650 0 72.1013 12.7182 917 121.438 879.698 454.544
1651 0 76.1266 12.7682 972 120.487 880.641 451.398
1652 0 78.0941 13.7654 1075 120.046 880.86 448.711
1653 0 80.1523 15.3707 1232 117.299 880.12 447.226
1654 0 83.1923 14.3403 1193 118.965 879.049 446.8
1655 0 85.1031 13.184 1122 120.915 879.11 441.66
1656 0 89.1536 14.9629 1334 116.593 878.488 441.45
1657 0 91.1638 16.4429 1499 113.829 879.193 437.549
1658 0 93.1615 16.1655 1506 114.839 879.41 437.777
1659 0 99.3217 15.0118 1491 115.539 879.308 433.675
1660 0 100.08 15.018 1503 116.146 879.601 430.082
1661 1 51.0591 11.9665 611 120.327 881.005 454.831
1662 0 60.1785 13.8588 834 114.695 881.457 450.27
1663 0 55.1184 9.97852 550 119.564 882.275 447.318
1664 0 56.4613 11.6717 659 117.812 880.285 442.948
1665 0 57.3953 9.65236 554 120.132 883.242 440.249
1666 0 62.3285 11.6961 729 116.202 883.126 440.226
1667 0 66.231 14.7363 976 110.051 883.672 441.977
1668 0 67.2612 13.4253 903 112.25 883.742 441.3
1669 0 69.2204 11.5717 801 115.458 885.394 435.155
1670 0 69.1717 10.351 716 118.662 884.934 438.075
1671 0 73.2101 10.3811 760 118.004 885.738 436.713
1672 0 78.2417 12.7809 1000 113.119 885.649 436.868
1673 0 81.2836 15.366 1249 108.161 886.259 443.008
1674 0 86.2246 12.5718 1084 112.917 885.713 440.839
1675 0 89.3956 16.2424 1452 108.167 885.874 437.916
1676 0 91.2564 13.0731 1193 113.566 886.096 440.109
1677 0 92.2934 12.4169 1146 137.176 886.107 440.483
1678 1 50.091 12.4374 623 111.265 884.475 460.628
1679 0 53.0845 13.3749 710 109.438 884.746 465.563
1680 0 57.0649 14.8778 849 107.157 884.009 464.87
1681 0 56.158 11.5567 649 115.328 883.237 464.854
1682 0 56.158 11.5211 647 137.529 882.241 464.89
1683 0 62.1969 15.3705 956 109.922 882.692 460.459
1684 0 63.2252 17.2874 1093 106.259 883.188 465.928
1685 0 62.2053 12.4909 777 133.448 883.203 461.587
1686 0 67.1088 13.113 880 115.217 881.003 457.765
1687 0 67.2572 11.7013 787 117.901 880.855 456.469
1688 0 74.4069 16.3291 1215 109.142 880.923 458.544
1689 0 72.1455 14.0827 1016 115.246 879.676 454.59
1690 0 77.2583 15.0016 1159 113.437 879.805 454.892
1691 0 78.5821 13.0564 1026 117.033 879.017 451.907
1692 0 81.2729 14.6789 1193 114.267 877.032 449.802
1693 0 80.3315 14.1787 1139 116.349 877.294 448.991
1694 1 44.1578 14.4708 639 111.524 877.854 469.966
1695 0 44.3489 12.3566 548 118.026 877.533 465.533
1696 0 46.1698 12.4757 576 117.549 876.521 464.102
1697 0 49.1319 13.9014 683 114.444 876.048 461.11
1698 0 49.1118 13.2962 653 115.176 875.326 459.614
1699 0 51.0249 14.1499 722 114.021 876.053 459.431
1700 0 55.0995 16.1163 888 110.244 876.783 456.966
1701 0 57.0668 15.806 902 111.152 877.284 456.153
1702 0 55.115 12.7551 703 114.489 877.814 454.189
1703 0 58.1941 13.5237 787 113.288 878.48 451.898
1704 0 60.2575 13.3261 803 112.979 877.507 451.006
1705 0 60.2113 12.7053 765 115.707 879.184 452.659
1706 0 63.1858 14.4811 915 113.155 878.876 444.996
1707 0 64.3263 11.3018 727 118.245 879.962 448.098
1708 0 68.2696 12.2456 836 115.529 880.197 440.914
1709 0 72.3084 10.8701 786 117.249 881.939 440.651
1710 0 73.2094 14.1239 1034 112.079 881.481 442.765
1711 0 75.1335 12.3913 931 115.47 882.49 439.874
1712 0 78.4584 10.974 861 118.21 882.377 435.123
1713 0 82.4402 12.3726 1020 115.415 882.108 439.366
1714 0 86.3186 15.8251 1366 110.229 883.602 430.368
1715 0 89.2278 12.9556 1156 114.195 885.093 441.687
1716 1 46.1632 11.6976 540 116.907 886.82 458.765
1717 0 46.1632 11.7626 543 124.018 887.784 458.762
1718 0 52.0588 10.4113 542 120.218 886.871 460.533
1719 0 52.0805 13.1719 686 116.625 887.889 460.519
1720 0 51.0293 9.28877 474 124.627 887.81 460.825
1721 0 56.0609 14.4129 808 115.446 887.416 463.016
1722 0 59.0848 11.3904 673 117.788 887.046 465.676
1723 0 59.0853 14.8768 879 113.784 887.236 462.337
1724 0 62.1392 12.3593 768 119.711 885.487 462.376
1725 0 62.1464 12.3097 765 128.42 883.461 462.4
1726 0 67.04 13.1862 884 117.119 886.081 464.786
1727 0 68.2686 13.1246 896 118.169 885.703 462.89
1728 0 70.0359 15.5206 1087 115.209 884.071 459.977
1729 0 72.1654 15.1319 1092 115.446 884.44 462.221
1730 0 75.162 12.8256 964 120.255 881.026 459.517
1731 0 73.1632 10.9071 798 125.721 882.464 456.464
1732 0 77.0552 11.3425 874 124.654 881.612 455.565
1733 0 81.177 17.3694 1410 113.129 881.45 456.399
1734 0 81.177 17.3694 1410 129.143 881.44 456.437
1735 1 42.1071 12.4682 525 121.989 881.672 470.703
1736 0 46.0415 11.9675 551 122.877 880.588 469.691
1737 0 47.0527 11.774 554 123.123 879.486 469.516
1738 0 48.2374 14.4287 696 119.034 878.925 467.328
1739 0 50.0512 14.9447 748 123.282 878.175 464.092
1740 0 49.0818 11.6948 574 123.3 878.172 467.563
1741 0 51.0609 13.4741 688 121.047 876.85 462.94
1742 0 54.1058 13.603 736 120.368 877.652 461.611
1743 0 55.116 11.9929 661 123.849 878.141 459.166
1744 0 57.2318 13.3143 762 121.975 876.857 455.521
1745 0 58.1713 12.2225 711 123.499 877.75 454.892
1746 0 61.0817 15.029 918 117.67 880.829 452.719
1747 0 63.1486 15.4556 976 116.575 880.804 454.859
1748 0 61.0999 13.4861 824 123.249 882.286 449.988
1749 0 65.2967 13.4463 878 121.664 883.097 449.811
1750 0 67.1059 10.9677 736 126.549 883.251 448.274
1751 0 70.1352 15.2135 1067 118.261 883.447 445.455
1752 0 70.117 13.9481 978 121.087 884.056 445.835
1753 0 76.1087 12.3245 938 121.983 883.908 446.965
1754 0 79.1611 14.5273 1150 116.053 884.894 450.421
1755 0 80.1452 14.9603 1199 117.882 884.76 445.603
1756 0 82.1345 14.5493 1195 119.926 884.341 441.154
1757 0 82.1345 14.5128 1192 129.566 884.347 441.034
1758 0 87.1469 15.1813 1323 119.104 885.28 437.355
1759 0 91.184 14.1253 1288 120.38 886.861 441.464
1760 1 49.178 11.9159 586 119.671 888.119 461.879
1761 0 49.1384 11.6406 572 121.407 888.254 463.205
1762 0 48.1373 10.1584 489 124.54 887.07 460.415
1763 0 52.1321 12.2957 641 119.718 887.741 459.607
1764 0 53.1196 14.6838 780 115.538 887.149 462.941
1765 0 56.051 15.2183 853 113.419 886.676 463.252
1766 0 56.2247 12.4856 702 117.258 886.939 462.799
1767 0 56.0963 12.8529 721 119.366 886.674 462.576
1768 0 61.164 15.1233 925 113.963 886.783 460.755
1769 0 65.1252 14.0038 912 114.519 886.874 463.349
1770 0 64.1708 13.8848 891 116.194 885.177 459.148
1771 0 66.173 14.1447 936 114.713 885.478 458.793
1772 0 73.118 14.5655 1065 112.768 883.945 456.221
1773 0 74.181 15.961 1184 110.639 884.63 457.419
1774 0 75.2691 13.9898 1053 113.959 882.198 453.504
1775 0 77.1384 13.573 1047 114.879 882.511 452.912
1776 0 80.202 15.6854 1258 111.796 880.849 447.342
1777 0 82.1519 15.7757 1296 111.259 880.688 446.613
1778 0 90.0852 14.3087 1289 111.929 879.493 448.554
1779 0 89.2986 15.4314 1378 111.71 879.606 444.665
1780 0 92.1959 16.6819 1538 109.328 878.989 445.248
1781 0 97.1851 15.8975 1545 109.621 878.295 445.816
1782 0 98.0778 14.9983 1471 112.39 878.755 438.532
1783 0 96.1026 11.9248 1146 117.616 878.357 442.135
1784 0 103.374 12.8465 1328 116.688 877.926 437.049
1785 1 58.381 12.624 737 112.125 876.076 452.16
1786 0 56.1852 12.441 699 111.024 876.064 458.505
1787 0 59.1289 13.293 786 109.936 876.532 456.556
1788 0 59.2733 11.2023 664 114.099 876.845 454.607
1789 0 61.3656 12.6129 774 112.331 877.398 450.944
1790 0 61.087 12.0156 734 114.632 877.745 450.097
1791 0 68.12 14.7093 1002 108.537 878.789 446.572
1792 0 72.1937 15.9432 1151 106.602 878.163 448.135
1793 0 71.1323 14.7331 1048 109.81 879.782 445.652
1794 0 73.1976 12.3638 905 115.123 879.53 441.054
1795 0 77.1621 12.5061 965 114.432 881.225 444.867
1796 0 80.1645 15.1439 1214 110.505 881.251 444.133
1797 0 83.2495 15.904 1324 114.248 882.634 441.505
1798 0 87.1606 16.4753 1436 113.31 883.561 440.345
1799 0 88.2429 11.593 1023 120.848 883.482 440.921
1800 1 44.0596 12.2788 541 115.168 883.608 459.896
1801 0 47.0435 11.5 541 113.131 884.312 465.152
1802 0 47.0435 11.3937 536 139.33 884.312 465.058
1803 0 50.1318 11.0908 556 113.453 884.466 461.899
1804 0 50.0757 12.9604 649 112.248 885.76 461.612
1805 0 53.0504 13.3835 710 110.844 885.858 460.287
1806 0 58.2828 11.2555 656 112.654 884.069 460.826
1807 0 60.0707 12.169 731 111.239 884.672 462.482
1808 0 57.2477 11.0922 635 114.685 884.734 456.227
1809 0 59.2356 14.6196 866 109.192 883.681 458.821
1810 0 60.5484 13.9723 846 110.121 883.104 463.098
1811 0 64.3105 14.5544 936 110.311 881.765 456.984
1812 0 67.4089 14.0041 944 110.808 882.593 457.722
1813 0 69.3187 13.4307 931 111.913 882.651 457.857
1814 0 70.2331 12.7718 897 113.968 881.747 455.672
1815 0 73.2532 15.5352 1138 110.557 880.999 454.743
1816 0 78.3106 18.9757 1486 104.538 880.924 455.738
1817 0 78.2918 11.2783 883 116.69 879.091 453.388
1818 0 82.2801 14.3291 1179 112.529 879.034 449.857
1819 0 83.215 15.0454 1252 112.427 878.859 447.609
1820 0 84.4576 13.7939 1165 114.96 878.319 446.376
1821 0 88.3274 11.4121 1008 118.688 878.535 444.892
1822 0 88.4066 12.7705 1129 118.024 877.273 442.117
1823 0 91.3727 15.497 1416 112.358 877.048 443.41
1824 0 94.4326 13.0993 1237 117.179 877.949 440.653
1825 1 51.321 10.3856 533 118.024 877.272 455.589
1826 0 50.287 10.5793 532 117.611 877.071 455.019
1827 0 51.2412 12.7437 653 116.292 876.952 448.793
1828 0 49.1416 8.95372 440 122.055 879.409 461.648
1829 0 55.0896 13.0152 717 113.335 879.339 459.05
1830 0 57.1514 12.3357 705 114.525 879.008 456.826
1831 0 59.1499 12.7135 752 113.731 879.041 454.29
1832 0 60.1529 14.0143 843 111.677 879.526 451.721
1833 0 63.0752 12.9528 817 112.982 879.542 455.394
1834 0 64.1898 14.1923 911 112.321 878.693 449.483
1835 0 67.2042 13.5855 913 113.704 881.099 448.447
1836 0 67.2419 11.6743 785 114.461 879.741 446.552
1837 0 70.1384 12.6464 887 112.08 881.545 430.576
1838 0 71.2023 11.671 831 113.432 881.037 428.923
1839 0 75.2203 10.9811 826 114.293 881.259 428.671
1840 0 74.4386 12.6144 939 112.3 881.43 439.915
1841 0 78.4501 12.0204 943 114.664 882.234 431.492
1842 0 82.3709 11.3511 935 112.06 882.562 439.217
1843 0 82.3415 10.7844 888 114.974 883.168 434.945
1844 0 84.1653 9.51699 801 116.468 884.573 434.458
1845 0 88.4676 12.1853 1078 112.848 883.992 429.747
1846 0 90.2224 12.58 1135 112.229 883.216 425.291
1847 0 94.372 11.603 1095 113.827 885.595 430.752
1848 0 97.2775 13.1582 1280 114.719 883.334 433.323
1849 0 100.284 13.3321 1337 116.242 885.194 430.485
1850 1 53.2931 11.2397 599 119.922 884.89 450.82
1851 0 56.2557 9.75902 549 117.55 884.8 457.202
1852 0 52.3102 9.29072 486 119.613 885.835 453.379
1853 0 57.2138 11.1686 639 116.074 884.474 455.379
1854 0 60.256 14.206 856 111.474 884.481 450.929
1855 0 60.1375 11.3407 682 116.245 884.667 451.133
1856 0 67.4097 12.2089 823 112.39 883.746 454.05
1857 0 66.1904 14.0504 930 111.8 884.274 450.234
1858 0 69.3468 11.7958 818 114.632 882.544 451.484
1859 0 72.4565 10.4615 758 117.466 881.545 451.223
1860 0 72.195 13.6298 984 113.083 881.069 449.185
1861 0 77.2128 13.0678 1009 114.685 880.249 444.101
1862 0 80.1794 13.8315 1109 113.768 879.587 446.032
1863 0 81.2316 13.4184 1090 115.279 877.643 444.265
1864 0 83.2697 13.1861 1098 116.167 877.68 443.855
1865 0 86.3059 15.5609 1343 112.773 878.152 439.256
1866 0 86.3059 15.5609 1343 128.407 878.14 439.244
1867 0 90.2215 11.372 1026 120.136 876.839 439.528
1868 0 95.471 11.8361 1130 119.156 876.385 437.134
1869 1 49.2303 9.24228 455 119.727 875.31 458.609
1870 0 48.1921 9.50363 458 121.131 875.172 456.166
1871 0 48.1921 9.58664 462 140.511 874.154 456.219
1872 0 51.1842 7.83445 401 123.878 876.022 453.925
1873 0 54.2559 13.7128 744 112.587 877.425 454.491
1874 0 53.1947 10.7529 572 117.189 875.072 456.061
1875 0 58.068 13.0364 757 120.683 874.797 452.413
1876 0 61.2707 17.3003 1060 112.308 876.445 453.909
1877 0 63.1252 13.2435 836 118.266 877.092 453.179
1878 0 66.1218 12.7492 843 120.619 877.075 449.332
1879 0 70.0944 19.3739 1358 108.099 878.143 450.447
1880 0 70.0883 19.4326 1362 118.014 878.164 450.5
1881 0 65.0924 10.6157 691 126.656 879.482 446.292
1882 0 65.0924 10.5542 687 146.279 879.467 446.354
1883 0 76.2417 13.5228 1031 121.09 881.086 441.084
1884 0 81.2184 12.5587 1020 121.392 882.179 443.693
1885 0 83.2602 12.2508 1020 121.69 882.754 442.674
1886 0 81.158 12.297 998 124.021 882.724 439.754
1887 0 84.1897 10.6545 897 126.91 882.983 436.647
1888 1 137.732 15.6754 2159 115.862 883.912 417.925
1889 0 140.754 12.7314 1792 122.256 883.89 415.203
1890 1 99.5836 14.0987 1404 117.848 884.988 438.791
1891 1 53.0361 13.2363 702 116.668 883.113 458.95
1892 0 55.1013 13.6113 750 115.221 884.371 458.615
1893 0 56.1404 15.3366 861 109.739 883.647 462.221
1894 0 56.1839 12.8507 722 114.348 884.152 463.587
1895 0 59.2858 13.359 792 113.212 883.354 463.164
1896 0 57.1376 11.7436 671 119.782 882.987 460.511
1897 0 60.1033 15.4567 929 112.06 883.069 462.617
1898 0 65.2231 13.7528 897 113.311 882.598 463.589
1899 0 65.1065 14.7604 961 112.951 882.844 463.233
1900 0 68.0864 13.3801 911 116.123 882.332 460.885
1901 0 70.1574 15.9641 1120 111.041 881.673 460.714
1902 0 71.1192 12.1486 864 119.123 879.922 458.3
1903 0 77.1457 15.0883 1164 113.975 879.504 454.46
1904 0 80.2216 14.7965 1187 115.046 878.605 454.483
1905 0 82.1836 14.4433 1187 115.549 878.177 453.469
1906 0 84.163 14.1036 1187 116.552 877.827 449.746
1907 0 88.1564 15.0074 1323 115.2 877.149 442.63
1908 0 92.0948 15.256 1405 113.781 876.112 446.478
1909 0 95.2393 16.2223 1545 112.807 876.445 441.753
1910 0 97.1787 16.9585 1648 112.847 874.865 439.198
1911 1 51.0453 7.64028 390 125.808 875.459 461.708
1912 0 52.158 11.3501 592 119.814 874.529 459.144
1913 0 55.0594 11.0063 606 117.231 875.262 458.8
1914 0 55.0815 12.1093 667 114.907 874.759 455.856
1915 0 57.0485 14.9872 855 105.077 877.891 451.861
1916 0 60.0798 10.5027 631 112.024 877.567 452.114
1917 0 62.1344 13.4547 836 107.508 878.512 448.824
1918 0 61.175 10.9522 670 113.212 877.93 449.182
1919 0 64.0555 11.2403 720 112.651 878.843 445.889
1920 0 66.0702 11.3818 752 113.394 879.497 442.754
1921 0 68.1912 12.025 820 113.663 878.643 442.478
1922 0 67.059 10.7815 723 116.104 879.087 441.397
1923 0 70.1145 14.5191 1018 110.392 880.188 443.121
1924 0 74.168 13.0515 968 112.774 879.621 441.63
1925 0 76.0873 11.8679 903 115.028 881.802 438.674
1926 0 76.1917 11.5236 878 115.732 882.342 437.774
1927 0 81.1327 14.0387 1139 111.547 882.728 437.376
1928 0 86.3942 18.0683 1561 104.372 883.236 437.763
1929 0 84.1057 13.9943 1177 112.575 883.781 434.512
1930 0 87.4763 12.792 1119 114.097 883.531 432.617
1931 0 94.1807 13.867 1306 111.319 884.77 432.022
1932 0 95.2132 13.6431 1299 112.581 884.926 430.547
1933 0 98.3088 13.6407 1341 113.036 884.467 432.129
1934 0 102.377 15.8824 1626 109.587 885.909 430.26
1935 0 105.471 11.7188 1236 116.043 886.106 429.614
1936 0 108.442 14.0813 1527 112.874 885.815 430.564
1937 1 57.2459 8.99628 515 115.697 885.973 455.049
1938 0 61.3053 9.10198 558 112.905 884.692 460.461
1939 0 62.1931 13.2008 821 112.9 884.183 452.722
1940 0 66.0829 11.2586 744 110.624 885.159 454.081
1941 0 68.0272 11.7159 797 110.652 884.443 457.379
1942 0 71.1444 12.6222 898 109.022 883.014 455.65
1943 0 73.2137 11.2001 820 111.339 882.207 454.327
1944 0 74.1312 11.682 866 111.912 879.709 451.725
1945 0 79.2152 17.4588 1383 105.872 882.04 460.424
1946 0 80.1472 14.3611 1151 112.422 881.63 451.128
1947 0 83.1703 14.2719 1187 112.618 879.312 448.519
1948 0 86.2036 13.3405 1150 113.273 879.75 453.61
1949 0 90.2532 12.476 1126 112.179 880.822 454.006
1950 0 90.1761 15.004 1353 112.78 879.138 446.067
1951 0 93.2034 11.7807 1098 115.068 878.596 449.124
1952 1 50.0216 10.4755 524 117.069 878.863 465.708
1953 0 50.0708 13.7405 688 112.001 878.529 465.153
1954 0 50.0549 11.6272 582 115.026 880.021 466.543
1955 0 56.0585 12.3799 694 112.487 879.05 462.774
1956 0 55.0539 10.6441 586 116.148 879.061 460.691
1957 0 58.2552 18.4189 1073 104.609 878.833 457.376
1958 0 61.0898 14.2413 870 109.892 878.336 457.912
1959 0 61.0898 14.2413 870 128.764 877.334 457.826
1960 0 64.1432 17.2271 1105 105.303 879.087 456.177
1961 0 64.0944 14.0262 899 111.187 880.324 454.116
1962 0 67.1128 17.3439 1164 106.108 879.558 448.152
1963 0 69.1337 12.7579 882 113.902 880.421 450.67
1964 0 70.1278 13.7606 965 113.138 880.531 445.007
1965 0 72.1944 13.9761 1009 114.443 878.868 442.91
1966 0 74.0652 15.5404 1151 110.733 879.523 445.275
1967 0 75.1974 12.2212 919 117.002 879.973 441.643
1968 0 76.3601 11.2755 861 117.726 881.132 443.782
1969 0 81.2011 11.022 895 117.202 881.13 446.346
1970 0 82.0909 12.1207 995 116.714 881.936 440.988
1971 0 84.1999 13.5748 1143 113.316 883.226 444.455
1972 0 91.1366 15.186 1384 111.741 882.957 439.466
1973 0 91.1394 10.1273 923 118.809 883.358 440.087
1974 0 96.2044 13.8247 1330 113.347 883.405 437.37
1975 0 100.202 12.0158 1204 114.238 883.305 436.897
1976 0 105.243 14.2908 1504 111.174 883.985 431.16
1977 0 108.542 10.8438 1177 114.381 883.602 434.108
1978 1 59.2562 9.78801 580 113.121 882.15 456.607
1979 0 61.0963 9.88604 604 113.031 885.046 457.457
1980 0 63.064 10.9254 689 109.628 884.776 461.12
1981 0 64.1076 10.7944 692 111.354 885.053 454.257
1982 0 68.1569 12.6033 859 106.097 884.619 454.709
1983 0 70.1751 11.6993 821 108.754 884.086 451.536
1984 0 73.125 12.2256 894 107.922 882.867 450.545
1985 0 75.3076 11.4597 863 109.713 883.9 454.086
1986 0 79.1389 13.0909 1036 107.486 882.368 453.334
1987 0 83.1808 13.4887 1122 106.75 882.66 451.492
1988 0 84.2455 12.9621 1092 108.511 880.622 444.741
1989 0 87.404 14.7247 1287 105.397 881.553 450.59
1990 0 88.4381 12.3476 1092 110.705 879.577 442.825
1991 0 90.2165 11.2618 1016 113.262 879.566 442.995
1992 0 96.2708 14.7605 1421 108.305 880.646 443.075
1993 0 97.4379 15.6715 1527 108.048 879.217 440.672
1994 1 51.2511 9.61931 493 111.568 878.531 467.225
1995 0 52.2522 10.0857 527 111.268 879.171 465.75
1996 0 54.264 9.91448 538 113.933 877.141 458.217
1997 0 55.1529 11.9305 658 110.266 877.57 457.909
1998 0 56.1424 7.53441 423 116.842 878.634 461.203
1999 0 59.0477 13.2435 782 109.334 878.045 454.445
2000 0 61.2354 11.2517 689 112.019 877.775 456.949
2001 0 60.1892 9.75257 587 114.584 878.591 456.61
2002 0 64.2744 10.7819 693 113.143 877.96 453.302
2003 0 63.1763 14.6257 924 106.427 878.02 455.402
2004 0 69.1207 12.6879 877 109.357 877.831 450.926
2005 0 70.3106 16.1853 1138 105.72 877.637 448.576
2006 0 73.1835 13.8693 1015 108.927 880.43 449.431
2007 0 76.1821 16.2637 1239 105.927 880.376 445.391
2008 0 76.1391 10.3232 786 115.288 881.023 447.275
2009 0 79.1801 13.2862 1052 110.961 881.813 441.375
2010 0 80.0868 10.6135 850 115.506 881.86 441.204
2011 0 83.1534 15.6458 1301 108.789 883.702 438.087
2012 0 84.1728 13.7693 1159 117.633 885.561 436.787
2013 0 89.1966 12.5005 1115 111.709 885.902 441.737
2014 0 94.0963 14.8996 1402 109.222 885.004 435.344
2015 0 93.1258 12.4348 1158 113.978 885.2 437.064
2016 0 99.1189 15.3755 1524 107.846 885.744 438.125
2017 0 102.378 14.1925 1453 108.507 886.266 440.072
2018 0 105.398 11.689 1232 113.796 885.808 432.738
2019 1 52.1645 11.1954 584 111.168 886.402 457.923
2020 0 53.0432 6.95659 369 114.645 885.867 458.648
2021 0 57.1323 10.4319 596 110.134 884.299 456.782
2022 0 60.0947 13.7616 827 104.201 884.388 456.915
2023 0 64.2721 12.8672 827 104.79 885.377 457.192
2024 0 63.1141 10.8692 686 108.786 884.923 456.612
2025 0 69.3456 13.4976 936 104.39 885.006 458.423
2026 0 70.0555 12.3188 863 106.173 883.611 457.542
2027 0 74.1847 13.6416 1012 104.746 885.138 455.096
2028 0 74.0949 13.4557 997 105.682 883.105 455.336
2029 0 74.0817 12.0408 892 126.842 881.112 456.91
2030 0 81.2298 16.0778 1306 102.4 882.285 454.418
2031 0 86.2625 17.2613 1489 100.623 880.425 456.219
2032 0 85.3126 15.1091 1289 104.643 879.838 454.294
2033 0 85.3126 15.2264 1299 135.871 877.841 454.238
2034 0 90.2306 14.064 1269 108.192 878.444 447.249
2035 0 90.2306 14.0086 1264 133.831 880.454 447.285
2036 0 97.3263 14.4051 1402 107.78 877.878 446.489
2037 0 97.6346 13.5198 1320 111.417 877.371 438.239
2038 0 102.168 17.1188 1749 108.71 877.895 421.464
2039 0 104.248 17.3721 1811 108.951 877.564 412.023
2040 0 105.367 13.9227 1467 114.217 877.845 416.203
2041 0 109.266 16.6291 1817 110.2 875.966 415.223
2042 0 112.202 15.0711 1691 112.87 877.982 415.336
2043 0 116.286 18.9361 2202 106.874 876.649 420.668
2044 0 118.477 17.7755 2106 110.443 875.488 418.689
2045 1 62.0955 13.7852 856 113.605 876.343 447.854
2046 0 63.3257 13.4385 851 112.452 877.623 442.716
2047 0 67.2678 16.189 1089 107.683 878.513 444.231
2048 0 70.138 12.2188 857 114.469 879.449 440.926
2049 0 72.3289 13.9363 1008 111.282 877.539 441.657
2050 0 74.3034 12.6912 943 115.242 879.606 437.166
2051 0 77.3214 14.8988 1152 110.537 880.392 437.267
2052 0 81.3062 14.3654 1168 111.971 880.33 433.087
2053 0 84.2715 15.4501 1302 110.67 880.574 431.974
2054 0 85.3944 14.7668 1261 112.408 881.823 430.688
2055 0 85.8089 10.7681 924 119.159 881.955 429.222
2056 0 89.4588 9.89282 885 120.261 883.887 427.47
2057 0 92.285 13.0574 1205 117.794 882.682 429.166
2058 0 97.3784 13.7505 1339 116.029 884.005 429.125
2059 0 99.3077 11.6507 1157 117.443 885.774 434.309
2060 0 99.2901 10.8873 1081 120.285 884.358 429.057
2061 0 109.397 14.0223 1534 114.456 884.372 425.109
2062 0 111.517 11.8905 1326 117.041 884.159 430.854
2063 0 116.289 13.5868 1580 115.085 885.053 426.67
2064 0 118.153 12.0353 1422 117.921 883.852 428.257
2065 1 60.1264 9.16402 551 119.33 884.637 456.506
2066 0 66.1588 12.2281 809 114.072 883.314 454.075
2067 0 70.5553 15.2788 1078 108.313 884.197 454.139
2068 0 69.2563 13.0818 906 114.587 884.248 451.223
2069 0 75.0514 13.7506 1032 112.206 884.804 452.748
2070 0 77.109 12.9687 1000 114.016 882.978 451.899
2071 0 80.1543 14.8339 1189 112.209 881.525 449.511
2072 0 81.1773 13.1317 1066 115.363 881.392 449.876
2073 0 87.2267 15.282 1333 111.132 879.877 448.098
2074 0 89.1758 16.1479 1440 110.938 878.91 445.68
2075 0 93.1835 14.8953 1388 113.239 876.782 442.211
2076 0 93.1952 11.3632 1059 117.808 877.047 441.463
2077 1 47.2074 12.6251 596 112.362 878.874 466.435
2078 0 47.1034 9.46854 446 115.747 878.8 469.904
2079 0 53.1486 13.3588 710 109.141 878.059 468.008
2080 0 52.1122 12.7801 666 111.005 878.321 467.156
2081 0 54.106 12.4755 675 112.033 877.806 467.489
2082 0 56.096 12.6925 712 112.306 877.163 463.034
2083 0 56.0509 13.8981 779 110.972 877.981 459.678
2084 0 59.1203 15.5277 918 108.975 877.971 458.79
2085 0 61.2528 13.3382 817 111.491 877.563 459.668
2086 0 61.1019 16.3006 996 108.761 877.325 455.149
2087 0 65.1444 15.6115 1017 109.675 877.463 453.921
2088 0 66.0679 13.3499 882 114.15 876.78 454.155
2089 0 66.3217 14.3995 955 113.797 879.052 449.413
2090 0 70.0673 15.428 1081 111.625 879.576 451.245
2091 0 74.3379 15.026 1117 112.477 878.849 449.694
2092 0 75.1744 17.5326 1318 107.863 880.365 451.126
2093 0 75.1744 17.7188 1332 133.149 881.331 451.279
2094 0 79.2426 14.7648 1170 115.262 882.61 444.009
2095 0 82.199 15.9613 1312 112.463 881.963 444.648
2096 1 40.2499 9.96276 401 125.943 883.621 458.613
2097 0 46.1032 12.9275 596 118.592 884.968 458.257
2098 0 46.1474 12.4817 576 121.576 884.488 455.307
2099 0 48.0582 13.7334 660 116.045 884.489 458.302
2100 0 50.1425 14.399 722 114.172 884.892 459.463
2101 0 51.374 15.8251 813 111.974 884.44 459.614
2102 0 52.0646 13.9058 724 117.233 886.354 457.652
2103 0 52.0646 13.9058 724 141.594 888.354 457.652
2104 0 54.0643 14.1683 766 117.406 885.368 456.539
2105 0 58.0718 16.5313 960 112.181 885.557 458.52
2106 0 61.0913 14.5029 886 114.642 885.86 458.12
2107 0 65.2752 17.342 1132 108.368 886.396 460.806
2108 0 66.1713 16.0644 1063 112.087 885.595 457.287
2109 0 69.0858 14.6484 1012 113.652 885.268 459.193
2110 0 70.1363 14.0583 986 114.436 885.856 455.776
2111 0 73.1506 14.0395 1027 115.297 884.292 458.115
2112 0 73.1752 12.6136 923 118.52 883.676 457.217
2113 0 80.2794 14.0509 1128 114.475 882.703 455.564
2114 0 81.0969 17.6579 1432 109.883 882.767 457.134
2115 0 85.2844 15.7708 1345 113.164 881.471 451.78
2116 0 88.1574 17.2759 1523 110.775 881.387 451.003
2117 0 92.3217 15.4243 1424 113.108 881.603 449.555
2118 1 47.029 9.65362 454 121.905 880.846 467.789
2119 0 50.0517 14.9246 747 114.585 880.845 463.641
2120 0 51.2492 11.2782 578 120.602 876.614 464.362
2121 0 52.0584 13.1775 686 118.408 876.797 462.536
2122 0 55.0718 14.127 778 115.072 876.013 465.215
2123 0 55.0636 15.473 852 112.746 877.377 463.545
2124 0 59.0853 14.5891 862 111.776 876.624 463.71
2125 0 58.1054 14.4049 837 114.336 874.922 462.014
2126 0 61.1197 16.0996 984 110.898 875.223 458.683
2127 0 62.0842 12.7247 790 117.163 876.435 456.835
2128 0 65.0698 17.0279 1108 109.313 875.773 454.954
2129 0 64.1074 18.235 1169 106.078 876.291 459.03
2130 0 69.1509 16.3845 1133 110.842 875.711 449.351
2131 0 70.1653 17.1737 1205 109.102 876.299 451.513
2132 0 71.0782 13.9424 991 114.923 877.243 446.437
2133 0 74.1275 15.19 1126 112.264 878.751 447.496
2134 0 74.1275 15.3249 1136 142.651 879.754 447.504
2135 0 78.0809 13.3195 1040 114.017 878.849 447.349
2136 0 80.1655 14.258 1143 113.902 879.731 438.883
2137 0 82.253 18.3945 1513 107.244 880.216 440.413
2138 0 87.2032 15.7678 1375 110.041 880.479 440.617
2139 0 87.3889 13.2511 1158 115.768 881.06 434.593
2140 0 89.2057 11.7369 1047 117.623 881.486 438.572
2141 0 95.1971 15.1475 1442 110.73 881.925 439.985
2142 0 97.2437 12.8029 1245 116.236 882.283 435.884
2143 0 99.2801 12.8122 1272 115.539 883.633 436.766
2144 1 56.2783 12.989 731 113.62 886.1 452.141
2145 0 57.1167 13.0084 743 113.051 886.314 453.271
2146 0 60.0801 13.1658 791 111.33 886.852 456.697
2147 0 63.0739 13.3811 844 111.36 886.251 454.075
2148 0 63.1111 16.9701 1071 106.938 886.529 452.284
2149 0 66.1592 14.9186 987 109.268 886.889 455.533
2150 0 69.1274 14.1912 981 110.249 886.834 456.209
2151 0 73.1368 21.5487 1576 100.594 886.923 454.423
2152 0 73.0871 12.4235 908 115.439 885.135 456.086
2153 0 75.0951 13.8225 1038 114.432 885.476 452.48
2154 0 76.1185 14.4512 1100 112.866 885.556 456.84
2155 0 81.1589 12.7528 1035 116.918 884.309 454.137
2156 0 81.1595 12.5925 1022 139.625 883.285 453.691
2157 0 82.1602 14.8856 1223 132.011 882.105 450.786
2158 0 89.2256 12.2947 1097 118.239 881.576 447.514
2159 0 92.3219 12.9222 1193 117.198 880.322 448.452
2160 0 95.4323 12.4696 1190 118.243 879.673 445.528
2161 1 49.5648 9.98692 495 118.943 878.208 467.414
2162 0 56.4307 11.4477 646 119.308 877.043 462.413
2163 0 57.384 15.9104 913 112.455 878.018 461.591
2164 0 58.3219 14.5571 849 115.392 878.006 457.955
2165 0 59.412 12.7415 757 119.337 876.886 455.664
2166 0 62.3659 13.3887 835 118.509 876.461 453.394
2167 0 62.4606 12.4238 776 121.584 877.92 450.483
2168 0 64.2328 12.0966 777 120.148 876.107 457.682
2169 0 70.1623 14.78 1037 115.813 878.844 455.245
2170 0 69.062 14.5232 1003 118.572 878.362 451.408
2171 0 72.0698 10.0319 723 125.253 878.408 451.582
2172 0 75.3489 13.6432 1028 119.708 878.856 448.348
2173 0 77.2706 14.2745 1103 119.475 878.344 445.694
2174 0 79.1653 14.0213 1110 120.968 879.943 445.171
2175 0 81.1506 15.7362 1277 118.423 879.907 443.027
2176 0 87.2274 15.3277 1337 116.66 879.849 444.094
2177 0 85.2056 12.2058 1040 125.745 881.073 437.391
2178 0 90.2807 16.9914 1534 117.079 880.151 436.582
2179 0 90.2235 13.0897 1181 124.937 881.369 428.153
2180 0 94.1657 14.8886 1402 121.164 882.229 434.39
2181 0 97.1895 14.8576 1444 122.098 881.625 429.945
2182 0 101.38 14.1152 1431 122.696 882.068 431.076
2183 0 106.2 15 1593 117.795 881.486 431.13
2184 1 57.0761 11.0554 631 122.279 883.39 451.67
2185 0 61.1424 12.3973 758 115.778 883.475 456.974
2186 0 58.1615 10.0238 583 141.098 883.489 454.009
2187 0 63.1111 14.1972 896 117.44 881.981 452.492
2188 0 62.2059 13.0052 809 121.63 884.863 451.404
2189 0 66.129 14.2751 944 118.153 884.284 453.938
2190 0 67.1266 12.2753 824 121.856 884.34 450.652
2191 0 74.1424 13.9057 1031 117.443 884.438 453.773
2192 0 75.3449 12.0512 908 121.978 883.942 451.847
2193 0 78.1886 14.465 1131 117.553 883.249 453.488
2194 0 78.0755 17.3678 1356 113.302 883.447 454.246
2195 0 83.1323 12.7508 1060 121.008 883.595 449.64
2196 0 83.22 10.7787 897 126.067 882.569 450.264
2197 0 88.1252 12.8794 1135 121.01 880.972 452.952
2198 0 89.0914 14.5581 1297 118.124 881.8 451.564
2199 0 96.2307 14.008 1348 120.045 881.279 447.865
2200 0 97.1944 11.1838 1087 124.75 880.533 445.142
2201 1 52.0859 9.71473 506 121.769 878.8 468.789
2202 0 55.071 11.1311 613 121.274 878.992 465.852
2203 0 56.077 9.36212 525 123.467 877.238 465.272
2204 0 58.252 11.8451 690 116.767 877.968 460.938
2205 0 58.1392 9.90726 576 123.238 877.306 455.807
2206 0 61.3029 10.3584 635 122.603 876.592 457.822
2207 0 61.2045 10.5711 647 122.142 875.402 456.26
2208 0 68.0716 10.9003 742 121.284 876.031 452.752
2209 0 66.3206 11.3992 756 121.435 875.635 450.385
2210 0 67.12 12.4106 833 119.407 875.088 447.951
2211 0 71.0948 11.4776 816 121.688 875.925 447.942
2212 0 72.117 12.2024 880 120.102 876.022 444.257
2213 0 74.3142 11.0208 819 122.589 876.221 441.139
2214 0 71.2439 10.8641 774 123.543 875.178 441.247
2215 0 79.1491 11.6742 924 120.586 877.214 438.608
2216 0 79.1681 11.6714 924 121.21 876.532 437.719
2217 0 83.2032 12.187 1014 119.48 877.484 437.488
2218 0 84.2567 13.7081 1155 117.277 877.57 435.663
2219 0 87.226 12.3587 1078 119.771 878.587 432.224
2220 0 88.2535 9.65401 852 125.404 878.498 426.135
2221 0 90.2108 10.6639 962 123.668 879.288 423.954
2222 1 48.029 9.55673 459 116.442 880.889 448.464
2223 0 49.0895 13.1596 646 110.732 881.529 446.868
2224 0 51.1342 9.75864 499 116.774 881.812 447.936
2225 0 53.2188 9.39518 500 119.274 880.874 447.844
2226 0 56.2476 10.6849 601 114.541 883.443 446.418
2227 0 58.3778 13.8751 810 108.426 882.51 450.09
2228 0 60.3356 14.668 885 114.199 886.035 453.437
2229 0 61.4515 13.7832 847 115.602 885.223 453.125
2230 0 62.4474 13.3873 836 115.585 887.343 454.35
2231 0 67.2743 12.397 834 116.077 886.24 453.795
2232 0 67.2743 12.397 834 128.933 885.253 453.778
2233 0 68.2935 11.6263 794 117.666 887.311 452.851
2234 0 70.2045 11.6802 820 117.324 886.993 451.93
2235 1 86.1394 16.5429 1425 104.724 885.401 444.97
2236 0 79.0986 12.1241 959 114.613 886.069 449.206
2237 0 81.3165 11.0187 896 116.882 884.113 449.758
2238 0 84.2569 11.37 958 115.852 885.116 451.271
2239 0 85.1222 11.5481 983 116.51 885.111 444.589
2240 0 91.2021 14.8461 1354 110.898 884.478 443.568
2241 0 91.2394 10.1272 924 119.407 883.662 444.378
2242 0 96.1219 14.492 1393 112.281 884.541 439.181
2243 0 100.186 14.5729 1460 111.379 881.933 432.742
2244 1 51.0716 12.8055 654 112.983 882.45 463.794
2245 0 50.1644 9.50874 477 118.249 881.08 463.482
2246 0 54.1453 13.593 736 113.712 880.371 461.633
2247 0 57.2623 15.0011 859 111.61 878.522 459.935
2248 0 60.2113 12.9544 780 114.44 877.624 461.276
2249 0 60.2449 16.3333 984 110.062 876.915 459.311
2250 0 63.1936 14.3685 908 113.102 877.687 457.159
2251 0 63.2351 12.3824 783 117.031 877.391 456.051
2252 0 66.5329 11.8588 789 116.062 877.663 449.016
2253 0 69.3937 19.8721 1379 104.189 876.394 448.243
2254 0 71.182 13.037 928 114.377 877.256 451.83
2255 0 67.3421 9.5928 646 123.153 877.8 448.864
2256 0 75.2873 15.0357 1132 113.871 878.245 443.829
2257 0 77.2749 15.0113 1160 114.235 878.105 443.028
2258 0 79.5121 16.1233 1282 112.174 878.02 438.48
2259 0 79.3451 14.6701 1164 117.073 878.068 439.653
2260 0 81.3121 15.0039 1220 116.106 879.321 442.134
2261 0 82.4745 15.4351 1273 117.555 878.548 435.68
2262 0 87.4496 15.4832 1354 117.066 879.798 436.747
2263 0 88.2466 17.9724 1586 113.46 879.196 435.624
2264 0 90.1608 16.3264 1472 117.289 879.838 435.278
2265 0 90.2396 16.9216 1527 116.229 881.223 434.413
2266 0 95.2922 13.9676 1331 121.563 881.361 430.555
2267 0 96.1354 12.1911 1172 124.293 882.474 432.594
2268 0 99.3839 15.4049 1531 120.23 883.379 427.675
2269 0 102.29 13.6768 1399 122.848 883.406 427.227
2270 0 105.455 15.7128 1657 119.46 883.931 425.282
2271 0 115.327 17.238 1988 115.294 884.601 424.469
2272 0 116.257 15.8614 1844 115.922 883.636 424.05
2273 0 121.437 14.5426 1766 117.031 883.991 421.967
2274 1 61.1503 12.085 739 123.548 885.345 446.284
2275 0 67.18 15.5701 1046 116.033 885.296 448.931
2276 0 70.14 15.4691 1085 113.539 885.075 451.924
2277 0 73.1337 14.535 1063 118.008 885.248 447.907
2278 0 77.1897 14.6522 1131 117.351 884.061 450.148
2279 0 80.2229 15.432 1238 114.253 884.083 445.242
2280 0 81.1397 14.6907 1192 116.89 883.037 447.855
2281 0 84.3217 12.8318 1082 119.268 883.836 449.932
2282 0 86.3274 15.9625 1378 115.534 883.872 448.608
2283 0 92.3126 15.6317 1443 117.118 882.592 447.515
2284 0 92.4352 11.9219 1102 124.062 882.27 449.644
2285 0 98.1588 17.9709 1764 112.099 881.496 451.04
2286 0 101.283 14.7706 1496 119.439 880.881 444.076
2287 0 106.122 16.9239 1796 115.651 880.948 441.441
2288 1 54.0109 10.0906 545 122.96 878.587 468.47
2289 0 59.2647 14.5449 862 117.399 878.687 457.891
2290 0 57.1465 11.9692 684 122.846 876.051 463.616
2291 0 62.169 14.0424 873 113.482 878.837 461.381
2292 0 64.1819 14.864 954 112.128 878.082 461.874
2293 0 66.2066 13.7751 912 115.345 878.135 457.2
2294 0 67.2786 14.4177 970 113.774 877.206 458.682
2295 0 69.249 12.8377 889 116.379 878.228 458.907
2296 0 73.3008 15.0203 1101 114.158 877.366 452.797
2297 0 75.3497 15.4082 1161 114.345 877.367 449.359
2298 0 79.2432 15.7111 1245 113.648 876.951 449.892
2299 0 79.1177 13.5621 1073 118.5 878.03 448.847
2300 0 80.1449 14.087 1129 118.364 878.446 445.413
2301 0 81.045 10.9816 890 123.104 877.803 444.581
2302 0 86.194 14.8038 1276 118.08 878.661 439.524
2303 0 88.1187 12.8463 1132 119.787 879.775 444.853
2304 0 91.1634 14.2272 1297 118.535 879.446 441.445
2305 0 93.1314 14.4956 1350 119.116 880.631 432.532
2306 0 95.4877 12.6194 1205 121.861 880.06 436.941
2307 0 100.439 14.586 1465 118.184 882.12 434.902
2308 1 55.0886 11.8718 654 115.778 881.645 460.575
2309 0 55.1575 15.9724 881 114.451 883.43 452.549
2310 0 58.3872 14.9348 872 113.959 881.49 455.932
2311 0 60.3906 17.9829 1086 112.29 882.991 452.11
2312 0 63.17 14.6588 926 120.253 884.132 449.916
2313 0 62.2482 13.4944 840 123.106 884.346 449.005
2314 0 64.2467 13.0746 840 123.932 883.76 449.92
2315 0 69.307 16.5063 1144 116.086 884.623 450.26
2316 0 69.3518 13.7127 951 123.529 883.968 446.267
2317 0 74.5403 14.9449 1114 120.163 886.008 447.758
2318 0 76.3232 13.7835 1052 122.332 885.71 450.625
2319 0 79.4032 16.7877 1333 117.78 886.082 447.434
2320 0 82.2953 15.7482 1296 116.894 886.231 447.043
2321 0 85.2647 18.7416 1598 113.504 885.372 443.242
2322 0 89.1614 14.2551 1271 121.127 885.317 445.554
2323 0 93.4365 16.7386 1564 116.988 883.91 444.967
2324 0 94.5853 17.7723 1681 116.629 884.394 444.416
2325 0 98.4243 18.6234 1833 115.391 883.279 443.52
2326 0 100.4 16.026 1609 119.835 882.527 444.378
2327 0 103.309 14.6357 1512 123.715 882.217 439.86
2328 0 108.322 14.7708 1600 122.989 879.802 435.22
2329 0 110.518 13.0477 1442 125.922 879.742 438.501
2330 0 117.304 13.4778 1581 121.482 879.719 441.788
2331 0 123.43 15.7012 1938 119.86 879.399 431.229
2332 0 126.47 12.8568 1626 125.258 878.862 431.228
2333 0 130.199 14.7543 1921 122.494 877.889 424.322
2334 0 135.436 15.2175 2061 120.298 878.28 429.13
2335 0 139.348 13.4627 1876 122.641 877.955 428.731
2336 0 145.357 15.7199 2285 119.576 878.468 420.85
2337 1 76.5319 12.1126 927 125.037 877.063 450.448
2338 0 81.1569 16.4496 1335 118.813 877.462 443.154
2339 0 85.2419 14.7815 1260 121.788 877.516 441.836
2340 0 86.3839 14.3314 1238 123.291 876.96 437.653
2341 0 89.1544 18.4848 1648 116.448 875.688 436.324
2342 0 89.2913 15.2759 1364 121.924 876.963 437.634
2343 0 93.2821 15.7586 1470 121.225 876.422 429.417
2344 0 97.3772 16.2358 1581 119.423 877.312 431.042
2345 0 100.453 15.888 1596 120.367 877.454 425.902
2346 0 103.271 15.5223 1603 120.477 878.501 422.46
2347 0 106.429 16.8656 1795 117.397 879.292 424.752
2348 0 109.443 17.4519 1910 116.906 879.383 418.502
2349 0 110.388 14.2589 1574 122.09 881.234 418.555
2350 1 64.3086 15.3479 987 119.865 879.591 440.715
2351 0 65.3091 15.7405 1028 118.377 881.476 442.835
2352 0 67.3913 14.9278 1006 121.89 881.703 437.818
2353 0 72.3454 14.7625 1068 119.419 882.373 440.416
2354 0 75.3795 15.4551 1165 117.411 882.309 438.591
2355 0 78.3138 16.6893 1307 115.361 883.394 435.425
2356 0 81.195 14.7669 1199 118.354 884.073 435.284
2357 0 81.3573 14.7621 1201 119.307 884.363 438.048
2358 0 86.2623 15.4181 1330 117.683 884.259 434.534
2359 0 89.1275 15.0459 1341 118.158 885.306 434.01
2360 0 95.3555 14.189 1353 119.23 884.203 434.467
2361 0 99.2953 15.892 1578 116.498 885.046 435.421
2362 0 104.292 16.1662 1686 115.748 885.592 436.291
2363 0 106.396 15.9123 1693 116.936 884.956 433.998
2364 0 111.32 13.4657 1499 120.349 883.911 435.333
2365 0 119.522 15.1855 1815 115.982 882.939 432.219
2366 1 82.1672 10.2596 843 121.274 883.531 454.893
2367 0 82.4142 7.74138 638 121.981 882.219 460.839
2368 0 80.649 21.6122 1743 99.9398 881.302 444.842
2369 0 84.926 15.437 1311 108.966 880.657 447.859
2370 0 81.4025 20.9699 1707 103.172 878.694 445.173
2371 0 76.2494 20.4723 1561 108.06 877.824 453.803
2372 0 79.3594 14.1886 1126 120.446 876.977 449.301
2373 0 79.3594 14.1634 1124 148.396 875.954 449.272
2374 0 82.3998 13.6044 1121 122.515 876.807 444.348
2375 0 86.2605 17.4819 1508 115.382 875.94 447.32
2376 0 91.259 16.0422 1464 117.637 875.234 442.914
2377 0 90.5955 13.1132 1188 123.086 874.316 443.458
2378 1 51.3091 12.298 631 115.501 874.539 462.04
2379 0 51.398 10.3895 534 119.433 874.131 456.979
2380 0 56.2473 10.6672 600 116.105 875.615 459.235
2381 0 57.4987 14.8003 851 112.176 875.318 456.919
2382 0 58.1557 14.7363 857 117.86 873.621 453.932
2383 0 57.541 11.6439 670 125.479 875.361 451.167
2384 0 63.4653 14.9688 950 118.892 875.882 450.696
2385 0 60.3624 13.071 789 123.223 874.695 452.744
2386 0 66.3886 18.1055 1202 112.146 876.105 455.309
2387 0 68.4375 14.0858 964 119.924 875.888 450.526
2388 0 69.3052 16.0305 1111 117.085 877.274 448.38
2389 0 71.7542 13.4905 968 122.264 877.848 448.943
2390 0 74.3456 14.0022 1041 121.337 877.142 445.324
2391 0 75.5167 14.0366 1060 121.246 878.909 443.216
2392 0 79.6312 16.4257 1308 116.256 879.536 441.934
2393 0 82.3166 11.8445 975 120.139 879.936 443.29
2394 0 86.2086 12.7598 1100 120.18 883.021 444.318
2395 0 86.3594 12.2743 1060 121.693 881.488 440.499
2396 0 93.2516 10.1553 947 122.492 881.948 444.796
2397 0 92.376 12.4816 1153 121.42 881.782 435.787
2398 0 97.3286 12.576 1224 119.967 881.792 437.212
2399 0 103.383 12.4779 1290 118.848 882.66 438.682
2400 1 58.1764 13.2184 769 111.218 883.916 462.922
2401 0 57.4802 12.6652 728 115.754 884.192 456.599
2402 0 61.133 12.6446 773 111.336 884.704 461.323
2403 0 64.0824 12.4527 798 111.055 885.198 463.244
2404 0 66.0458 15.6104 1031 107.195 884.304 462.017
2405 0 66.048 11.8399 782 117.688 883.494 462.049
2406 0 71.3354 12.294 877 114.504 883.146 461.553
2407 1 82.146 7.36493 605 119.914 883.107 460.205
2408 0 84.2158 9.0838 765 114.807 882.54 464.43
2409 0 86.3206 10.7854 931 112.722 882.209 458.834
2410 0 85.1709 11.9642 1019 109.581 881.005 461.1
2411 0 86.1474 14.5216 1251 108.747 879.679 452.97
2412 0 85.1133 11.9018 1013 113.016 880.045 452.707
2413 0 86.2611 13.4128 1157 110.766 879.13 452.172
2414 1 49.16 6.95688 342 115.187 877.904 471.672
2415 0 49.2151 11.4599 564 109.755 877.562 467.207
2416 0 52.2277 12.4072 648 109.4 876.603 463.714
2417 0 56.346 7.01026 395 115.716 877.319 468.782
2418 0 54.212 11.4919 623 112.514 876.925 461.97
2419 0 57.2084 9.92862 568 113.276 876.778 463.856
2420 0 55.1346 12.0251 663 110.048 876.857 462.647
2421 0 61.0813 12.4097 758 109.356 876.177 460.698
2422 0 62.1821 11.402 709 111.897 876.104 457.3
2423 0 65.1926 14.158 923 108.646 876.186 450.919
2424 0 68.2865 8.50827 581 115.966 876.432 454.664
2425 0 70.3158 10.723 754 114.153 876.122 449.899
2426 0 69.1401 10.2979 712 116.535 876.388 448.326
2427 0 73.3541 11.5058 844 114.408 876.831 449.719
2428 0 77.2749 12.8632 994 112.5 877.908 449.863
2429 0 83.31 13.0477 1087 113.445 877.84 442.67
2430 0 78.3171 10.432 817 118.541 878.146 437.481
2431 0 82.521 12.1908 1006 114.796 879.078 443.298
2432 0 87.1915 13.1894 1150 113.229 879.325 438.974
2433 0 96.2303 14.112 1358 111.099 879.337 437.859
2434 0 94.2367 15.8855 1497 109.49 880.047 432.541
2435 0 91.0885 12.5702 1145 115.394 880.361 436.395
2436 1 51.7417 13.0262 674 114.129 881.835 451.141
2437 0 54.5869 14.7654 806 111.382 881.356 448.135
2438 0 56.4751 12.4657 704 113.393 881.747 451.876
2439 0 60.7313 14.0125 851 109.405 881.374 453.128
2440 0 59.2352 12.29 728 115.093 881.082 450.301
2441 0 62.4681 12.8866 805 113.404 882.494 456.111
2442 0 62.4681 12.7745 798 141.431 883.487 456.108
2443 0 68.6171 15.0691 1034 111.685 883.114 452.056
2444 0 67.5499 12.3168 832 117.159 882.267 452.619
2445 0 71.41 11.749 839 118.242 883.834 452.392
2446 0 72.4295 12.8125 928 118.197 881.013 453.085
2447 0 76.4665 13.5223 1034 116.166 881.213 453.22
2448 0 76.4488 13.0676 999 118.251 881.928 448.384
2449 0 80.3736 13.711 1102 116.691 881.878 448.826
2450 0 84.2201 13.9397 1174 117.29 879.288 445.981
2451 0 88.6468 13.6722 1212 116.956 880.08 448.102
2452 0 88.2439 11.6269 1026 121.086 878.561 447.927
2453 0 98.3404 15.243 1499 114.35 877.911 447.866
2454 0 95.2761 11.7658 1121 123.797 877.101 442.302
2455 0 100.468 18.1351 1822 113.064 875.765 441.572
2456 0 103.48 15.4619 1600 117.6 875.795 437.584
2457 1 58.449 10.7957 631 121.629 875.201 458.559
2458 0 58.2791 11.0846 646 123.446 875.238 456.724
2459 0 63.396 14.3858 912 116.029 874.545 458.589
2460 0 66.2624 15.6499 1037 114.57 873.521 448.753
2461 0 65.2472 15.0198 980 116.672 872.786 453.613
2462 0 68.4489 12.754 873 120.262 873.128 452.496
2463 0 73.288 12.8125 939 119.541 874.368 448.228
2464 0 71.26 9.55655 681 127.241 874.106 446.024
2465 0 75.4581 16.3269 1232 115.035 874.009 442.818
2466 0 77.2423 13.982 1080 115.79 874.527 446.407
2467 0 80.2752 13.1298 1054 119.17 874.115 441.612
2468 0 84.1918 15.2034 1280 116.889 874.484 435.791
2469 0 84.3429 15.5318 1310 116.405 875.382 436.911
2470 0 88.4414 14.7329 1303 117.718 876.434 433.624
2471 0 91.4236 14.2961 1307 118.846 877.298 432.809
2472 0 96.2752 15.5284 1495 116.118 877.403 431.458
2473 0 95.4085 15.9944 1526 116.692 877.867 425.983
2474 0 100.581 17.6375 1774 114.083 878.038 426.8
2475 0 101.446 17.5463 1780 114.849 878.651 423.126
2476 0 104.36 14.0091 1462 121.254 880.726 422.633
2477 0 109.667 14.7173 1614 119.073 879.926 423.594
2478 0 114.34 18.2088 2082 113.354 881.147 425.019
2479 1 215.683 17.4052 3754 119.549 880.247 372.151
2480 0 222.379 17.6591 3927 116.963 882.855 374.204
2481 1 124.295 15.9299 1980 117.635 883.483 420.042
2482 0 131.264 18.6343 2446 111.482 883.793 425.996
2483 0 133.278 13.393 1785 121.831 882.762 418.929
2484 0 140.192 15.6214 2190 117.989 883.555 422.857
2485 1 80.1407 7.74887 621 124.467 882.939 450.597
2486 0 89.1537 13.9646 1245 113.676 883.51 452.494
2487 0 87.1303 12.2231 1065 119.998 882.518 445.764
2488 0 89.3278 13.8926 1241 118.839 882.666 442.951
2489 0 93.2232 14.0201 1307 117.765 882.556 445.787
2490 0 98.1773 13.3228 1308 115.641 882.984 445.606
2491 0 100.084 16.1864 1620 112.259 882.712 444.838
2492 0 105.224 18.3798 1934 107.992 881.813 449.859
2493 0 107.144 13.2718 1422 118.338 880.876 441.431
2494 0 113.198 13.3306 1509 118.378 879.713 441.667
2495 0 114.183 12.2259 1396 121.437 878.852 436.836
2496 1 65.1428 9.4101 613 120.176 879.294 451.488
2497 0 74.2466 14.6808 1090 108.961 878.332 461.311
2498 0 76.1025 11.2874 859 115.241 878.766 456.392
2499 0 80.2192 10.2095 819 114.602 878.683 454.993
2500 0 82.2282 17.4028 1431 104.088 876.447 454.883
2501 0 82.2282 17.4028 1431 114.872 875.44 454.898
2502 0 85.0941 12.3158 1048 113.093 876.47 447.712
2503 0 89.2395 13.4245 1198 110.625 876.788 451.531
2504 0 89.1913 11.5706 1032 115.891 875.837 440.737
2505 0 92.2696 12.6044 1163 114.899 875.455 437.74
2506 0 95.2473 12.1578 1158 115.103 876.367 442.244
2507 0 99.319 13.1093 1302 113.769 876.268 440.568
2508 0 99.3684 11.7744 1170 116.885 875.599 438.664
2509 0 101.325 10.2047 1034 120.112 876.94 432.512
2510 0 103.658 9.39626 974 123.335 877.215 426.401
2511 0 108.627 13.2288 1437 116.46 877.452 426.58
2512 0 109.573 11.3805 1247 122.832 878.626 426.173
2513 0 112.51 11.039 1242 121.633 877.514 423.116
2514 0 116.253 10.2535 1192 119.905 877.956 423.57
2515 0 120.209 12.3119 1480 116.63 876.818 415.074
2516 0 124.336 10.9542 1362 117.311 877.44 418.453
2517 0 128.295 10.85 1392 117.524 879.567 415.075
2518 0 128.295 10.8656 1394 119.542 881.567 415.101
2519 0 136.378 11.3655 1550 116.911 880.689 406.446
2520 0 136.451 11.0736 1511 118.822 882.418 399.248
2521 0 140.43 8.10369 1138 124.174 881.873 391.588
2522 0 151.458 8.2861 1255 123.065 882.536 396.158
2523 0 156.759 12.3055 1929 117.192 882.403 404.941
2524 0 149.522 6.80168 1017 128.561 883.814 380.576
2525 0 167.469 8.42542 1411 122.198 883.266 405.071
2526 0 169.588 11.2685 1911 120.115 882.591 396.228
2527 0 177.594 11.2898 2005 119.539 882.169 395.941
2528 0 184.702 8.04 1485 122.003 882.791 400.183
2529 0 184.707 8.15887 1507 127.512 884.775 400.269
2530 0 184.409 6.03549 1113 126.89 881.753 397.72
2531 0 186.577 6.29768 1175 121.203 882.003 419.046
2532 0 185.478 4.71754 875 124.933 880.798 416.203
2533 1 222.617 13.2559 2951 116.915 880.545 379.965
2534 0 227.537 10.0423 2285 122.174 877.957 379.807
2535 1 139.412 9.5329 1329 114.636 879.889 431.004
2536 0 129.301 9.06414 1172 117.035 879.414 428.956
2537 1 74.4702 9.13117 680 113.05 878.347 453.496
2538 0 76.204 9.89449 754 112.317 878.174 448.129
2539 0 74.2588 6.88134 511 117.241 877.916 452.474
2540 0 81.2165 11.2662 915 111.502 877.209 445.108
2541 0 83.089 11.6261 966 109.672 876.899 454.001
2542 0 86.0656 13.4084 1154 107.738 876.234 450.104
2543 0 89.2047 15.4028 1374 105.774 875.768 446.713
2544 0 92.2993 16.5115 1524 102.463 875.718 436.514
2545 0 93.2219 13.5269 1261 107.148 876.819 438.82
2546 0 96.2273 12.3354 1187 110.743 875.049 436.467
2547 0 97.123 10.7493 1044 118.775 876.985 438.825
2548 0 99.2671 11.0611 1098 119.94 877.017 430.568
2549 0 103.282 15.0655 1556 113.788 877.321 433.519
2550 0 108.262 14.2432 1542 114.996 877.449 424.85
2551 0 112.374 13.3749 1503 111.178 876.813 426.447
2552 0 115.258 15.9815 1842 108.111 878.802 422.947
2553 0 118.471 13.2944 1575 113.081 877.932 421.256
2554 0 120.364 11.1578 1343 116.393 879.585 422.538
2555 0 125.404 13.1415 1648 113.74 878.042 417.647
2556 0 128.359 13.509 1734 113.75 879.185 419.338
2557 0 131.446 10.9931 1445 120.844 879.102 407.249
2558 1 74.3572 11.0682 823 111.725 880.993 444.779
2559 0 78.3231 10.3418 810 110.819 880.665 444.377
2560 0 77.4435 9.54244 739 111.18 880.479 439.888
2561 0 81.3203 12.1003 984 108.285 880.135 433.976
2562 0 85.7898 11.6447 999 107.753 880.717 436.5
2563 0 88.3573 12.4834 1103 107.196 881.028 433.449
2564 0 89.3675 11.0107 984 109.241 880.951 435.919
2565 0 94.4371 13.0457 1232 106.791 881.931 433.843
2566 0 97.3236 13.7377 1337 106.42 882.414 430.541
2567 0 99.1362 11.1765 1108 109.362 881.964 437.049
2568 0 104.215 13.2899 1385 110.466 881.052 433.76
2569 0 108.146 12.104 1309 112.288 881.062 432.079
2570 0 111.277 12.8958 1435 111.088 880.288 431.294
2571 1 66.0735 11.6234 768 107.387 879.971 458.02
2572 0 69.1022 9.7392 673 110.703 880.125 456.217
2573 0 69.1387 10.0812 697 110.036 880.908 455.151
2574 0 72.3455 13.6705 989 103.836 879.71 459.653
2575 0 76.2722 11.5245 879 107.66 880.084 458.039
2576 0 76.4206 9.17292 701 111.412 878.709 457.612
2577 0 82.3668 14.7996 1219 103.926 877.961 454.925
2578 0 83.4271 12.0944 1009 108.681 877.095 449.121
2579 0 83.4271 12.0704 1007 127.391 876.124 449.157
2580 0 91.987 16.1218 1483 102.784 876.699 441.52
2581 0 94.6046 16.9759 1606 102.356 875.831 441.107
2582 0 94.6046 17.1345 1621 130.609 874.822 441.025
2583 0 99.8063 17.4037 1737 101.177 875.421 433.304
2584 0 101.275 14.7618 1495 105.312 874.911 435.347
2585 0 104.365 14.3822 1501 106.123 873.976 429.55
2586 0 107.447 12.8436 1380 107.659 875.722 423.609
2587 1 58.4656 12.3149 720 105.539 873.683 450.433
2588 0 57.3545 9.58949 550 109.096 875.436 452.342
2589 0 62.3982 14.728 919 102.637 874.647 446.594
2590 0 63.7991 12.6804 809 105.866 874.86 450.951
2591 0 68.5698 20.3151 1393 93.7523 874.635 456.48
2592 0 65.4204 10.7459 703 108.979 876.021 448.788
2593 0 70.9762 17.3861 1234 100.97 875.998 443.541
2594 0 73.8012 10.3792 766 109.114 876.333 443.295
2595 0 74.3756 12.2217 909 103.996 875.765 448.994
2596 0 82.3966 17.0031 1401 97.7523 876.913 442.932
2597 0 87.3664 17.9817 1571 96.3514 875.584 437.123
2598 0 88.3877 18.7922 1661 96.6123 876.691 441.706
2599 0 88.5351 17.5072 1550 96.9574 878.824 444.072
2600 0 88.5351 17.6088 1559 129.935 880.779 444.319
2601 0 94.8375 13.7393 1303 103.342 878.891 436.55
2602 0 92.5641 11.5596 1070 106.23 879.528 438.689
2603 0 96.5424 14.5118 1401 103.772 879.929 435.59
2604 0 102.687 13.8674 1424 104.074 880.939 437.305
2605 0 103.744 9.47527 983 111.413 880.532 434.167
2606 0 107.066 11.7218 1255 106.033 880.595 433.612
2607 1 67.5525 16.6833 1127 97.0834 879.566 458.176
2608 0 69.4964 11.6265 808 105.176 879.145 457.267
2609 0 69.3909 16.126 1119 99.4263 881.078 460.554
2610 0 72.2733 15.137 1094 101 881.856 455.778
2611 0 72.2116 12.7265 919 105.083 881.073 456.961
2612 0 76.1304 11.8481 902 104.743 881.682 457.242
2613 0 81.1371 11.8565 962 105.163 881.398 458.684
2614 0 86.4201 15.9338 1377 100.696 879.968 453.841
2615 0 88.315 16.0335 1416 101.066 880.103 452.561
2616 0 91.196 14.7923 1349 103.239 878.053 451.56
2617 0 99.2184 14.2917 1418 101.04 877.312 457.399
2618 0 99.4066 13.49 1341 105.423 876.434 447.712
2619 0 101.44 16.7586 1700 101.754 876.194 446.972
2620 0 104.546 12.4922 1306 107.858 875.835 446.364
2621 0 109.208 18.0574 1972 100.306 875.897 445.715
2622 0 111.244 18.5089 2059 101.807 875.664 439.662
2623 0 117.583 16.9582 1994 101.413 874.58 442.391
2624 0 117.583 16.9752 1996 144.696 874.542 442.528
2625 0 113.437 15.6122 1771 105.29 873.331 441.365
2626 0 112.404 12.6775 1425 110.182 873.552 439.771
2627 0 112.307 11.1035 1247 109.63 873.026 446.435
2628 0 111.674 11.1844 1249 110.194 873.862 443.9
2629 1 73.3451 12.7071 932 110.241 875.357 450.777
2630 0 79.4491 13.4803 1071 109.32 874.496 449.986
2631 0 83.1526 16.6321 1383 104.564 875.86 446.678
2632 0 82.1635 16.9418 1392 140.562 875.884 446.688
2633 0 84.2313 11.3141 953 113.651 875.923 444.092
2634 0 86.1986 13.5153 1165 112.081 876.345 441.667
2635 0 89.2485 12.6053 1125 114.293 875.716 438.21
2636 0 94.3376 17.0664 1610 105.405 875.802 443.819
2637 0 98.271 12.5673 1235 113.783 876.751 435.714
2638 0 97.2443 14.7669 1436 142.621 877.655 438.318
2639 0 104.293 16.9522 1768 107.045 878.278 437.115
2640 0 106.242 15.4082 1637 111.406 878.059 429.081
2641 0 111.457 15.7191 1752 108.719 878.787 435.982
2642 1 78.4293 10.3278 810 107.153 881.664 452.505
2643 0 80.4938 18.7468 1509 93.8323 882.528 452.788
2644 0 82.3479 12.1922 1004 104.469 882.676 455.349
2645 0 84.3482 14.5824 1230 101.376 881.029 443.589
2646 0 86.1502 11.3523 978 105.897 880.815 446.958
2647 0 92.2295 14.1929 1309 101.587 880.072 449.413
2648 0 93.4253 14.3965 1345 102.375 880.03 442.972
2649 0 93.376 12.7228 1188 103.773 879.944 449.862
2650 0 98.3066 16.8656 1658 98.9258 878.669 441.99
2651 0 100.248 13.0976 1313 103.395 879.133 447.128
2652 0 103.324 17.208 1778 99.4123 877.589 440.994
2653 0 109.705 14.0923 1546 102.254 877.115 446.296
2654 0 111.244 14.9222 1660 102.186 876.309 439.889
2655 0 112.329 14.4932 1628 103.092 874.966 436.961
2656 0 118.293 13.6356 1613 104.657 874.873 428.249
2657 0 118.394 14.4518 1711 103.835 874.663 435.171
2658 0 121.373 13.4874 1637 104.268 872.975 435.057
2659 0 121.373 13.578 1648 137.603 871.982 435.207
2660 0 130.33 16.1973 2111 101.085 872.543 425.466
2661 0 135.396 11.4848 1555 108.466 873.393 421.238
2662 0 139.278 9.59234 1336 110.545 873.028 420.183
2663 1 82.5546 11.0836 915 105.293 871.739 449.377
2664 0 84.4726 14.3479 1212 101.479 872.319 444.814
2665 0 85.4679 15.187 1298 102.329 872.384 439.273
2666 0 91.4225 16.0683 1469 99.6079 872.249 443.01
2667 0 93.4564 14.5629 1361 103.267 872.988 437.847
2668 0 96.4009 14.2945 1378 103.303 871.631 432.324
2669 0 92.2082 15.2698 1408 102.942 873.703 435.323
2670 0 98.7436 15.5757 1538 102.568 874.312 432.14
2671 0 101.485 13.2138 1341 106.751 875.508 426.798
2672 0 105.356 16.8382 1774 102.136 875.763 425.7
2673 0 107.664 15.2604 1643 104.235 876.435 423.192
2674 0 107.664 15.1582 1632 129.922 877.441 423.047
2675 0 113.559 16.4497 1868 103.811 877.221 413.953
2676 0 119.571 14.3262 1713 105.866 877.708 411.524
2677 0 125.762 12.7145 1599 107.301 877.831 416.713
2678 0 127.375 16.1492 2057 103.108 878.868 411.342
2679 0 135.539 17.7292 2403 100.696 879.244 409.882
2680 0 137.544 17.4926 2406 101.096 879.245 409.533
2681 1 76.436 10.1261 774 108.762 880.522 437.755
2682 0 76.1302 13.1091 998 107.547 878.829 435.226
2683 0 83.2783 11.8158 984 108.41 879.788 439.777
2684 0 86.243 13.346 1151 105.33 878.718 444.757
2685 0 85.2371 11.0515 942 110.67 880.61 439.959
2686 0 88.2744 19.2015 1695 98.508 879.87 444.816
2687 0 90.2226 13.8657 1251 106.6 879.954 438.914
2688 0 97.2387 15.3231 1490 100.246 878.576 445.656
2689 0 101.294 15.3612 1556 101.015 877.741 441.999
2690 0 105.424 13.792 1454 104.024 879.482 436.252
2691 0 110.489 18.0561 1995 99.2175 877.676 436.216
2692 0 109.227 17.2851 1888 100.577 877.862 439.157
2693 0 111.168 14.4916 1611 105.105 878.503 432.836
2694 0 119.353 13.7324 1639 105.798 877.146 430.769
2695 0 122.423 15.2259 1864 103.991 876.852 435.455
2696 0 126.363 14.8461 1876 106.158 877.031 429.802
2697 0 124.658 15.8914 1981 105.976 875.755 426.034
2698 0 130.34 16.4262 2141 102.928 875.301 434.852
2699 0 136.465 13.0436 1780 107.654 876.268 422.379
2700 0 138.244 13.8596 1916 108.782 875.371 416.127
2701 0 145.61 13.6391 1986 109.824 874.344 415.928
2702 0 146.469 15.0544 2205 94.7125 874.361 407.855
2703 0 154.603 12.2249 1890 99.8561 873.895 410.06
2704 1 90.1334 10.1849 918 99.1786 874.15 441.999
2705 0 89.1369 12.2508 1092 98.9835 873.475 441.771
2706 0 91.2106 11.1829 1020 101.666 871.73 430.712
2707 0 99.4799 17.3502 1726 92.8899 872.641 440.592
2708 0 102.741 14.4733 1487 97.4486 872.447 432.122
2709 0 105.612 11.1067 1173 101.76 872.174 430.232
2710 0 110.791 18.4672 2046 92.8387 873.118 431.032
2711 0 111.237 14.8601 1653 98.0387 873.213 428.584
2712 0 110.268 14.2743 1574 100.297 873.654 423.575
2713 0 114.545 14.7103 1685 99.7988 873.369 424.972
2714 0 123.387 18.5757 2292 94.4834 875.284 424.86
2715 0 123.387 18.6568 2302 129.135 877.254 424.924
2716 0 132.682 15.2922 2029 96.2967 875.78 427.928
2717 0 136.671 21.8407 2985 92.1216 876.124 414.198
2718 0 137.957 13.6202 1879 103.258 875.325 406.63
2719 0 145.856 10.5652 1541 103.687 877.939 410.944
2720 1 88.4067 14.4785 1280 95.3445 878.18 439.64
2721 0 89.4752 18.0273 1613 92.2858 879.384 436.314
2722 0 91.4846 12.9202 1182 98.5964 878.876 432.942
2723 0 94.2749 14.044 1324 97.0921 879.291 436.07
2724 0 97.6248 14.3611 1402 96.7518 880.258 436.536
2725 0 100.176 12.2984 1232 99.4083 879.93 435.498
2726 0 103.507 15.6318 1618 95.2219 880.323 432.844
2727 0 105.81 15.9626 1689 94.1871 880.046 437.503
2728 0 108.51 12.7546 1384 99.06 880.654 431.434
2729 0 111.572 12.6645 1413 99.443 880.818 426.633
2730 0 114.604 14.3624 1646 95.3208 880.143 437.592
2731 0 120.636 18.0543 2178 93.2006 880.255 426.53
2732 0 120.626 13.5958 1640 99.3793 880.536 419.235
2733 0 128.674 16.2115 2086 95.0887 879.798 425.956
2734 1 68.4368 10.959 750 99.748 879.903 453.705
2735 0 74.8681 13.437 1006 96.7624 880.013 453.777
2736 0 76.6237 15.2172 1166 93.8714 880.154 455.097
2737 0 78.69 14.8939 1172 93.82 878.311 448.802
2738 0 78.5005 15.605 1225 94.6963 878.994 448.047
2739 0 79.7042 12.1324 967 98.7322 877.821 449.451
2740 0 83.603 13.1455 1099 97.98 877.44 447.739
2741 0 88.9717 12.5096 1113 99.1464 876.338 444.105
2742 0 89.6169 18.5345 1661 92.6364 875.447 446.113
2743 0 94.6909 14.2358 1348 97.5223 876.41 445.654
2744 0 95.4592 15.7659 1505 95.8146 874.515 441.157
2745 0 98.4318 16.0212 1577 95.1382 874.86 443.646
2746 0 98.4318 16.0416 1579 133.553 874.856 443.483
2747 0 105.388 14.29 1506 97.929 872.711 434.04
2748 0 106.568 11.2979 1204 101.92 873.266 433.003
2749 0 109.443 15.2225 1666 97.6405 871.017 430.224
2750 0 110.65 12.282 1359 101.248 873.436 427.307
2751 0 112.35 17.0005 1910 95.4188 873.546 431.244
2752 0 118.48 14.3315 1698 98.8522 873.444 420.252
2753 0 118.417 14.525 1720 99.3378 873.696 420.128
2754 0 128.474 15.6685 2013 105.459 874.376 416.047
2755 0 124.277 14.9022 1852 107.699 874.553 414.406
2756 0 132.522 17.0386 2258 103.978 874.333 402.453
2757 1 68.3339 16.0535 1097 107.553 875.83 437.13
2758 0 71.2105 12.5403 893 112.674 875.368 437.218
2759 0 76.4873 13.5055 1033 110.676 878.457 435.148
2760 0 77.2289 19.9666 1542 101.714 877.551 429.643
2761 0 77.1434 13.6629 1054 112.083 879.083 429.125
2762 0 80.4346 15.4162 1240 107.55 878.668 435.265
2763 0 88.4393 19.7084 1743 101.611 878.535 431.315
2764 0 88.4004 15.8936 1405 107.749 880.389 426.463
2765 0 94.6131 14.3638 1359 109.02 880.674 429.706
2766 0 95.4202 12.7122 1213 112.97 882.36 422.607
2767 0 100.513 16.0377 1612 106.094 881.18 432.859
2768 0 100.513 16.0974 1618 139.971 879.168 432.9
2769 0 108.614 14.7034 1597 109.488 882.753 424.473
2770 0 106.806 12.2465 1308 115.025 881.405 422.261
2771 0 116.779 18.1026 2114 104.237 880.868 428.822
2772 0 120.587 16.486 1988 107 881.431 425.573
2773 0 120.683 15.7852 1905 107.099 881.466 431.534
2774 0 127.084 21.5134 2734 101.294 881.893 423.756
2775 0 127.576 11.5226 1470 115.551 881.444 423.957
2776 0 133.502 11.9174 1591 114.676 881.494 425.01
2777 0 140.477 19.2131 2699 104.796 880.831 416.866
2778 0 140.477 19.0565 2677 131.228 880.812 416.687
2779 0 150.019 16.0913 2414 109.365 880.867 416.143
2780 1 85.4243 9.3416 798 112.766 880.298 442.528
2781 0 90.3292 13.3401 1205 105.214 880.297 450.161
2782 0 92.5645 17.8146 1649 100.567 878.845 448.739
2783 0 95.2464 14.6462 1395 107.829 879.138 443.097
2784 0 96.2874 11.9434 1150 112.305 878.504 441.49
2785 0 100.537 13.2488 1332 110.509 878.55 436.996
2786 0 104.598 13.3846 1400 108.565 878.309 442.781
2787 0 107.492 12.5405 1348 111.037 877.263 436.55
2788 0 111.459 10.6586 1188 113.278 877.088 436.434
2789 0 116.408 12.3617 1439 111.748 876.044 431.354
2790 0 119.391 14.5488 1737 107.676 875.286 431.979
2791 0 125.185 12.6054 1578 109.511 875.266 427.375
2792 0 128.431 11.2434 1444 109.289 875.303 430.127
2793 1 76.4287 7.95513 608 103.222 874.691 449.168
2794 0 76.4287 7.8112 597 112.744 873.73 449.437
2795 0 87.1899 12.9143 1126 98.556 875.13 443.472
2796 0 90.2634 9.92651 896 102.42 874.646 439.923
2797 0 91.199 9.83564 897 103.543 873.606 434.284
2798 0 94.4507 12.6098 1191 99.843 874.71 432.982
2799 0 94.7322 6.40754 607 108.699 875.084 427.993
2800 1 18.0058 11.052 199 91.1658 874.256 471.588
2801 0 20.0469 11.9719 240 87.7667 876.588 471.883
2802 0 12.0463 4.89779 59 94.9492 876.017 473.203
2803 0 16.1098 9.74559 157 92.0191 877.732 470.592
2804 0 18.0608 3.65433 66 98.2273 877.515 470.045
2805 0 18.016 10.7682 194 88.3505 879.655 472.67
2806 0 16.0226 6.61567 106 94.217 879.632 473.292
2807 0 14.0031 5.57021 78 94.5513 880.795 473.897
2808 0 16.0072 5.68495 91 95.5824 881.494 472.308
2809 0 17.0471 4.86885 83 95.988 882.964 471.133
2810 0 19.009 10.2583 195 89.8103 883.318 474.195
2811 0 16.1 6.64597 107 93.8318 882.86 474.664
2812 0 18.1178 8.83108 160 91.5375 880.812 474.562
2813 0 25.0313 8.50934 213 92.6291 883.07 473.732
2814 0 22.119 4.43058 98 98.4694 882.857 472.816
2815 0 21.062 9.30586 196 92.0816 882.5 476.796
2816 0 18.0067 5.38689 97 95.1959 882.402 480.464
2817 1 94.2976 10.0427 947 102.779 882.344 430.081
2818 0 99.4974 10.8747 1082 102.763 883.634 439.906
2819 0 100.245 12.2999 1233 101.629 882.26 440.101
2820 0 105.42 12.5878 1327 101.827 883.006 438.073
2821 0 104.716 11.5646 1211 104.198 882.979 438.917
2822 1 193.722 12.074 2339 110.021 884 383.193
2823 1 111.49 8.46712 944 110.61 882.535 416.734
2824 0 116.428 10.4013 1211 107.661 882.359 430.438
2825 1 20.0741 10.4114 209 92.6364 884.794 480.129
2826 0 18.0613 4.5401 82 98.378 885.11 479.268
2827 1 125.541 8.82582 1108 112.481 880.512 409.405
2828 0 127.708 8.87964 1134 113.997 879.733 409.5
2829 0 134.688 13.6241 1835 106.961 878.039 418.537
2830 0 134.688 13.6241 1835 127.833 876.038 418.691
2831 0 139.706 13.2779 1855 108.458 878.855 411.587
2832 0 145.483 11.7058 1703 111.368 878.568 409.395
2833 0 146.634 11.0616 1622 113.602 878.808 400.295
2834 0 153.821 12.6121 1940 108.687 878.132 414.8
2835 0 158.351 14.1079 2234 109.177 877.936 391.701
2836 0 157.546 11.7299 1848 113.881 877.698 395.087
2837 0 165.703 12.0034 1989 113.497 876.94 396.991
2838 0 174.865 18.5343 3241 102.49 877.18 405.345
2839 0 178.884 14.4115 2578 110.36 877.519 387.364
2840 0 184.693 16.0862 2971 108.112 878.781 391.473
2841 0 186.52 15.505 2892 110.095 877.417 386.245
2842 0 184.502 12.9484 2389 138.662 876.358 378.2
2843 0 194.471 15.6887 3051 110.192 879.79 382.071
2844 0 199.651 12.9225 2580 114.287 878.267 381.487
2845 0 207.506 15.7345 3265 112.109 879.432 365.575
2846 0 207.506 15.8453 3288 136.06 880.436 365.564
2847 1 219.656 15.9477 3503 111.978 880.768 364.02
2848 0 226.563 17.046 3862 111.235 880.153 354.985
2849 0 234.016 13.3452 3123 116.654 881.664 358.729
2850 1 66.0338 13.3265 880 94.9716 882.945 449.681
2851 0 67.1158 12.1879 818 96.5746 882.09 442.632
2852 0 68.0396 11.6403 792 98.0871 881.604 445.576
2853 0 68.0748 13.397 912 96.2467 882.503 449.241
2854 0 71.0903 11.0986 789 99.8847 881.754 445.43
2855 0 71.1773 14.0635 1001 96.5574 882.894 448.452
2856 0 75.1449 12.4027 932 99.7876 880.22 445.941
2857 0 78.3634 13.7181 1075 98.5963 883.504 443.4
2858 0 79.0721 12.0776 955 101.03 883.861 443.207
2859 0 81.2467 9.58808 779 104.574 882.837 441.673
2860 0 84.1645 9.20815 775 105.234 883.245 444.403
2861 0 87.2859 13.1866 1151 99.775 884.091 446.646
2862 0 90.4321 14.6187 1322 98.4176 885.315 444.252
2863 0 88.2143 9.9417 877 105.526 885.806 439.684
2864 0 91.3078 12.8247 1171 101.266 885.254 446.744
2865 0 94.1893 7.08148 667 108.81 884.894 440.601
2866 0 99.3526 10.9106 1084 103.93 884.542 438.261
2867 0 100.366 8.10037 813 105.103 884.506 449.69
2868 0 106.646 11.3928 1215 102.777 884.044 438.053
2869 0 110.316 6.34543 700 106.349 883.154 443.191
2870 0 108.45 7.76395 842 109.972 880.888 426.178
2871 0 115.186 18.2401 2101 97.1942 879.854 429.089
2872 0 119.259 11.7224 1398 104.828 881.309 428.323
2873 0 122.637 14.0414 1722 102.665 879.968 426.686
2874 0 131.553 12.2232 1608 103.162 881.18 418.041
2875 0 133.684 19.7929 2646 94.8481 879.946 410.812
2876 0 126.359 11.5307 1457 104.138 879.491 430.596
2877 1 80.5242 23.5333 1895 86.1594 878.297 440.704
2878 0 88.2679 14.3427 1266 94.2757 878.68 446.407
2879 0 87.5611 20.2601 1774 89.195 878.246 441.888
2880 0 91.2599 21.3566 1949 87.8579 878.201 436.97
2881 0 90.2577 19.256 1738 90.6789 877.209 434.836
2882 0 93.4406 12.714 1188 97.6524 878.356 436.88
2883 0 93.4841 11.8951 1112 99.7851 876.372 438.942
2884 0 94.4765 13.8235 1306 98.1524 878.281 434.245
2885 0 97.9691 19.1489 1876 92.6434 878.357 435.131
2886 0 94.4015 9.97865 942 104.292 879.27 434.087
2887 0 96.2209 15.7242 1513 97.6001 878.968 434.36
2888 0 100.436 12.0873 1214 101.959 879.671 432.689
2889 0 100.247 15.4019 1544 99.6626 880.047 422.966
2890 0 102.756 16.145 1659 98.0952 880.061 430.609
2891 0 105.354 12.3204 1298 103.898 881.103 424.514
2892 0 108.514 14.4314 1566 100.644 881.631 425.546
2893 0 109.617 15.0798 1653 100.626 882.231 423.604
2894 0 113.317 11.7987 1337 104.479 882.017 421.535
2895 0 115.39 8.64889 998 109.266 882.562 416.983
2896 0 119.477 11.7847 1408 104.643 884.059 420.805
2897 0 126.426 11.6116 1468 104.068 883.27 414.339
2898 0 126.36 8.7053 1100 106.586 884.926 421.668
2899 1 79.1131 8.43097 667 100.561 884.006 446.453
2900 0 78.462 7.96564 625 100.87 883.419 439.277
2901 0 81.2707 14.0149 1139 93.4012 884.395 443.608
2902 0 83.2669 11.2169 934 95.2827 883.203 448.18
2903 0 85.2939 11.9235 1017 95.9616 884.546 438.958
2904 0 91.2979 10.9641 1001 96.6334 883.586 441.021
2905 0 92.3512 12.4308 1148 95.9504 882.739 439.338
2906 0 98.2732 14.3579 1411 93.0581 883.342 445.024
2907 0 97.2784 11.7087 1139 96.23 882.929 444.782
2908 0 96.3457 7.75333 747 102.088 882.791 438.604
2909 0 103.266 14.1964 1466 95.4325 883.634 439.104
2910 0 107.288 12.6947 1362 98.8928 882.656 439.346
2911 0 107.54 12.479 1342 97.4449 882.342 439.294
2912 0 112.493 12.8631 1447 98.3207 881.999 432.696
2913 0 113.567 10.1174 1149 102.655 880.767 429.216
2914 0 118.184 13.7582 1626 98.9889 878.977 427.186
2915 0 123.319 11.1824 1379 100.903 879.661 434.853
2916 0 124.22 13.621 1692 99.9787 878.581 428.429
2917 0 131.345 13.5141 1775 100.679 878.848 424.465
2918 0 132.192 14.8648 1965 100.531 877.319 418.207
2919 1 58.1112 10.5831 615 95.5919 875.837 459.938
2920 0 59.3121 9.17183 544 99.3879 875.763 455.022
2921 0 61.2989 11.6315 713 96.3675 875.582 454.356
2922 0 63.3566 14.9471 947 93.7159 876.087 455.313
2923 0 66.1326 10.4336 690 98.7739 876.977 457.262
2924 0 65.3736 8.39788 549 103.648 876.996 447.492
2925 0 68.1296 12.0506 821 99.7065 875.566 451.28
2926 0 70.2288 11.3201 795 101.162 875.987 448.245
2927 0 72.0721 11.988 864 101.538 875.63 445.2
2928 0 76.1678 13.1552 1002 100.118 878.124 445.155
2929 0 79.3486 14.5686 1156 98.8166 877.592 443.414
2930 0 76.2961 12.5826 960 137.71 876.47 439.906
2931 0 82.2904 17.9243 1475 92.1139 878.434 437.595
2932 0 81.2332 9.66354 785 104.29 879.93 434.987
2933 0 82.2254 12.3076 1012 101.078 879.558 430.782
2934 0 86.1407 9.44965 814 104.784 879.814 429.226
2935 0 87.174 11.609 1012 101.712 880.423 437.114
2936 0 90.1145 13.0723 1178 106.956 879.261 431.831
2937 0 93.1908 12.1686 1134 108.168 881.634 433.403
2938 0 95.133 9.71272 924 111.567 880.15 432.03
2939 0 102.175 13.1833 1347 104.954 883.87 437.318
2940 0 102.183 15.7365 1608 103.274 884.646 434.102
2941 0 103.214 21.1115 2179 97.4438 884.22 434.473
2942 0 105.218 12.2127 1285 109.619 886.148 431.157
2943 0 109.155 22.2802 2432 97.1505 885.383 433.903
2944 0 107.166 12.0187 1288 111.521 885.665 430.635
2945 0 111.204 15.6829 1744 106.307 885.516 430.022
2946 0 111.149 12.4698 1386 110.694 885.052 433.283
2947 0 112.426 15.3879 1730 107.506 885.064 430.649
2948 0 116.344 14.947 1739 107.656 884.782 433.215
2949 0 118.222 17.4503 2063 104.725 884.296 435.173
2950 0 117.529 20.4375 2402 101.794 884.294 429.107
2951 0 116.224 14.9539 1738 108.83 884.658 435.621
2952 0 120.136 17.2389 2071 104.985 883.733 437.483
2953 0 120.42 12.9712 1562 111.014 883.403 430.16
2954 0 124.365 16.8536 2096 104.607 883.586 437.378
2955 0 123.373 17.824 2199 104.57 882.502 434.568
2956 0 122.34 16.4787 2016 102.401 882.415 436.449
2957 0 122.405 12.7691 1563 107.807 880.93 436.052
2958 0 121.544 10.8603 1320 110.512 881.226 433.456
2959 0 123.182 12.932 1593 107.911 879.336 434.035
2960 0 125.34 15.039 1885 105.289 880.328 423.805
2961 0 125.234 13.2472 1659 107.696 879.931 425.807
2962 0 123.352 12.4927 1541 109.818 879.587 426.341
2963 0 123.225 9.98986 1231 112.277 878.658 432.756
2964 0 125.376 12.0198 1507 109.628 878.995 429.41
2965 0 126.19 12.077 1524 109.288 876.528 431.749
2966 0 125.625 17.5124 2200 102.87 875.982 427.185
2967 0 128.337 13.9399 1789 107.243 877.8 429.788
2968 0 130.71 14.4442 1888 105.994 876.974 426.301
2969 0 128.386 17.019 2185 102.996 877.416 415.722
2970 0 130.355 13.9695 1821 106.487 877.381 425.739
2971 0 132.264 16.4897 2181 102.701 879.505 425.517
2972 0 129.308 14.2141 1838 106.927 878.596 417.196
2973 0 130.367 14.4361 1882 106.07 877.164 422.963
2974 0 127.443 13.2451 1688 108.803 877.796 422.172
2975 0 131.559 13.6668 1798 107.894 878.3 420.376
2976 0 132.201 14.5157 1919 105.804 880.402 422.165
2977 0 131.467 12.8853 1694 108.513 880.493 419.871
2978 0 131.44 13.0782 1719 108.369 880.828 417.484
2979 0 131.326 13.0514 1714 108.228 882.178 418.349
2980 0 131.326 13.0743 1717 130.577 883.142 418.015
2981 0 133.526 13.6677 1825 106.613 882.41 420.807
2982 0 131.415 13.1492 1728 107.82 883.675 417.483
2983 1 217.495 12.6854 2759 112.212 884.26 380.204
2984 0 221.624 14.0102 3105 110.727 884.398 373.473
2985 0 224.908 11.8137 2657 113.013 885.156 377.959
2986 0 230.721 14.342 3309 109.489 884.05 379.502
2987 1 134.529 12.6516 1702 107.219 884.37 415.563
2988 0 132.445 11.3179 1499 108.863 884.138 420.875
2989 0 133.407 12.608 1682 107.144 884.698 426.878
2990 0 131.247 11.8936 1561 107.853 884.865 425.525
2991 0 132.207 11.5954 1533 108.267 884.855 422.984
2992 0 133.214 13.6998 1825 105.247 882.631 430.796
2993 0 134.523 13.3063 1790 106.188 883.286 428.187
2994 0 135.365 12.1523 1645 105.968 883.601 433.05
2995 0 136.422 15.4081 2102 102.941 883.444 420.963
2996 0 134.345 13.175 1770 105.674 883.564 424.585
2997 0 137.407 16.2729 2236 101.349 882.724 433.219
2998 0 135.322 11.1955 1515 108.253 882.195 426.466
2999 0 136.438 14.578 1989 104.11 880.796 427.341
3000 0 137.248 14.3463 1969 104.08 880.841 431.243
3001 0 133.355 10.2958 1373 113.495 879.645 426.642
3002 0 132.599 9.90955 1314 112.951 879.124 432.815
3003 0 136.462 16.0044 2184 106.357 879.328 426.942
3004 0 136.462 15.9165 2172 131.084 878.344 426.943
3005 0 133.562 13.6566 1824 110.371 877.881 425.712
3006 0 131.602 14.9314 1965 107.959 877.433 430.889
3007 0 134.476 14.6867 1975 107.198 875.392 433.638
3008 0 134.549 14.8421 1997 107.68 876.516 425.497
3009 0 134.501 13.7992 1856 108.008 875.752 431.333
3010 0 136.432 17.4812 2385 103.567 877.169 430.018
3011 0 133.764 12.6118 1687 109.324 875.675 432.143
3012 0 132.586 15.5221 2058 105.986 876.344 429.462
3013 0 133.427 15.3118 2043 106.792 876.377 421.862
3014 0 133.427 15.2593 2036 140.427 875.391 421.741
3015 0 131.282 11.5781 1520 111.454 876.526 418.557
3016 0 136.633 15.8966 2172 105.069 877.71 421.394
3017 0 131.408 11.8486 1557 110.317 876.163 416.29
3018 0 134.208 18.3447 2462 101.433 876.591 412.144
3019 1 188.707 14.0218 2646 106.851 876.136 395.238
3020 1 135.36 12.3818 1676 108.498 878.202 413.146
3021 0 131.334 8.35278 1097 112.789 878.81 417.591
3022 0 132.335 10.7606 1424 110.006 879.727 414.312
3023 0 134.362 12.5035 1680 109.26 880.724 414.647
3024 0 135.383 17.1735 2325 102.165 881.293 419.905
3025 0 132.28 11.8461 1567 109.835 881.542 418.788
3026 0 134.55 11.5794 1558 109.931 882.378 416.905
3027 0 132.466 14.215 1883 106.728 881.847 413.807
3028 0 137.382 13.3569 1835 107.819 881.275 412.638
3029 0 136.358 12.0565 1644 110.501 879.67 417.098
3030 0 134.4 14.4642 1944 106.461 881.977 409.718
3031 0 133.548 15.1332 2021 105.088 881.633 410.606
3032 0 136.623 14.3899 1966 103.123 883.103 421.983
3033 0 133.404 15.0071 2002 102.017 882.241 426.933
3034 0 132.411 12.2196 1618 107.504 882.203 419.244
3035 0 127.221 14.0621 1789 105.954 881.67 416.942
3036 0 135.392 10.7909 1461 106.345 881.518 422.676
3037 1 71.1379 9.89627 704 104.499 881.547 451.57
3038 0 76.2235 11.0465 842 107.944 881.882 459.258
3039 0 76.4276 12.5217 957 105.97 881.544 457.874
3040 0 76.425 12.7053 971 105.934 881.57 458.271
3041 0 71.1969 9.59311 683 111.321 880.581 455.559
3042 0 73.2821 10.5619 774 108.519 880.34 456.516
3043 0 75.6046 13.6367 1031 104.295 878.745 456.587
3044 0 74.4226 13.3024 990 104.659 878.57 460.456
3045 0 77.265 11.5964 896 107.1 876.374 453.031
3046 0 78.3577 15.174 1189 101.009 877.261 456.987
3047 0 77.5417 13.0124 1009 104.831 876.698 454.7
3048 0 76.222 12.8047 976 104.026 875.8 457.557
3049 0 71.1537 8.6292 614 111.963 876.295 451.278
3050 0 75.2865 11.423 860 107.692 875.823 451.364
3051 0 76.2532 15.3436 1170 101.491 875.073 451.448
3052 0 78.3191 13.2024 1034 103.234 875.333 454.574
3053 0 80.3631 16.9108 1359 98.5475 875.422 454.112
3054 0 77.1462 12.5346 967 105.213 875.155 451.049
3055 0 77.2173 13.0541 1008 103.561 875.7 451.676
3056 0 73.4753 11.4732 843 107.055 876.478 447.593
3057 0 80.4645 22.2458 1790 92.8687 874.597 452.138
3058 0 79.2579 14.3582 1138 101.338 875.567 446.123
3059 0 76.2624 12.0374 918 104.361 876.089 448.012
3060 0 77.4399 14.6307 1133 101.252 876.942 448.092
3061 0 78.2129 12.6322 988 104.094 878.067 445.777
3062 0 75.1632 11.7212 881 99.0613 877.283 442.824
3063 0 79.1423 13.5326 1071 96.0635 879.145 443.354
3064 0 75.1335 10.3948 781 97.8771 878.727 444.219
3065 0 72.1042 11.5111 830 99.3386 879.068 444.4
3066 0 78.201 14.1942 1110 94.1613 880.483 448.323
3067 0 77.3148 21.807 1686 87.8677 879.909 447.999
3068 0 80.142 13.2515 1062 96.4228 881.079 440.813
3069 0 78.2167 14.0635 1100 94.3264 881.638 448.747
3070 0 75.2569 10.5638 795 98.9522 881.257 447.473
3071 0 71.1722 12.6875 903 97.907 881.363 443.889
3072 0 74.2006 8.62527 640 100.189 881.364 450.847
3073 0 69.2875 10.4925 727 99.9546 882.461 446.604
3074 0 73.2706 16.5278 1211 93.2998 882.737 448.213
3075 0 72.1153 9.59574 692 100.61 883.175 444.767
3076 0 71.1792 17.0836 1216 92.3141 882.2 453.234
3077 0 74.2038 13.9885 1038 95.6879 881.847 451.691
3078 0 75.4411 14.7532 1113 93.0368 882.102 457.597
3079 0 73.1961 16.1211 1180 93.7203 881.449 453.239
3080 0 70.1333 12.134 851 97.255 881.512 456.692
3081 0 73.1583 9.26757 678 100.969 881.006 450.659
3082 0 77.181 14.1745 1094 94.3346 881.327 457.717
3083 0 74.1259 10.1449 752 99.9561 879.525 457.172
3084 0 72.1641 10.3237 745 99.749 879.028 450.619
3085 0 73.4554 11.8167 868 98.068 878.276 455.808
3086 0 78.1329 13.6178 1064 94.7462 879.75 458.88
3087 0 76.1243 12.2169 930 96.8473 877.668 457.696
3088 0 72.3375 11.8196 855 97.9836 877.179 457.264
3089 0 77.177 14.9915 1157 93.5194 877.338 456.575
3090 0 75.1997 11.024 829 98.3221 877.924 454.639
3091 0 72.3102 13.3868 968 96.9256 877.064 451.542
3092 0 71.4141 11.8604 847 98.856 875.154 446.479
3093 0 74.1383 11.2358 833 99.0024 874.998 454.615
3094 0 72.1137 12.2029 880 98.0625 874.182 443.267
3095 0 71.2142 12.0622 859 98.5867 874.224 450.903
3096 0 77.3189 12.5454 970 103.638 875.179 450.234
3097 0 74.4438 11.5523 860 104.962 873.96 447.39
3098 0 74.0693 14.77 1094 100.602 875.738 454.254
3099 0 77.3146 14.7579 1141 101.428 875.056 450.64
3100 0 80.1137 16.6888 1337 97.2565 875.042 449.957
3101 0 75.1674 12.9178 971 103.582 876.523 447.742
3102 0 73.208 10.2721 752 106.973 877.197 439.83
3103 0 78.4827 14.5637 1143 100.493 877.214 445.395
3104 0 75.1595 13.7707 1035 102.695 877.202 446.73
3105 0 74.1973 13.9897 1038 102.361 878.469 447.814
3106 0 77.1996 12.6814 979 103.442 877.477 440.873
3107 0 74.1912 16.8349 1249 99.1345 878.267 441.141
3108 0 77.2983 11.6044 897 104.732 878.457 447.069
3109 0 77.1554 11.8462 914 104.86 879.647 444.323
3110 0 75.1625 14.2092 1068 101.363 880.129 445.301
3111 0 75.1625 14.2358 1070 118.219 880.12 445.352
3112 0 75.1361 11.7387 882 104.712 879.417 446.949
3113 0 73.2968 11.9105 873 104.621 880.944 445.459
3114 0 76.4831 15.1798 1161 99.8648 880.438 448.48
3115 0 78.232 12.6035 986 102.669 882.307 449.264
3116 0 76.5218 11.1864 856 105.093 879.486 449.373
3117 0 77.1129 16.4045 1265 98.5763 882.281 448.87
3118 0 76.2567 11.9071 908 104.148 880.832 450.936
3119 0 72.4406 12.4516 902 100.498 881.765 449.161
3120 0 71.2065 10.954 780 102.163 881.38 450.177
3121 0 71.2065 10.94 779 113.712 881.376 449.858
3122 0 73.0903 16.5685 1211 96.128 880.919 451.415
3123 0 73.238 9.79 717 102.703 879.971 451.342
3124 0 75.1251 12.0333 904 100.369 879.918 451.865
3125 0 74.1027 9.52732 706 102.836 877.547 452.79
3126 0 76.1312 10.7315 817 100.523 879.962 453.426
3127 0 74.1791 13.9932 1038 97.7437 879.707 453.555
3128 0 73.2971 17.163 1258 93.9722 878.196 456.808
3129 0 74.1589 13.3362 989 98.4934 877.851 452.503
3130 0 74.1589 13.3362 989 115.987 876.851 452.503
3131 0 72.0883 12.5818 907 99.7255 875.955 453.334
3132 0 76.4172 10.3118 788 101.301 876.156 454.92
3133 0 74.1493 10.87 806 101.661 875.903 451.643
3134 0 76.2219 14.1036 1075 97.44 874.843 452.846
3135 0 79.2731 14.9862 1188 95.9933 873.697 449.763
3136 0 75.0919 15.1281 1136 95.8363 875.283 453.111
3137 0 73.088 10.2616 750 102.151 874.701 445.355
3138 0 76.2108 15.0372 1146 95.5428 874.878 453.789
3139 0 75.2414 12.0678 908 100.167 874.666 447.664
3140 0 76.0884 17.1117 1302 93.9877 874.8 451.758
3141 0 77.223 12.3409 953 99.4376 875.305 445.644
3142 0 73.1714 13.0379 954 96.3868 874.28 446.457
3143 0 76.4641 9.92623 759 100.041 876.096 445.018
3144 0 74.6319 10.5719 789 100.743 875.763 436.869
3145 0 75.2407 12.7325 958 96.6576 876.586 447.62
3146 0 75.2068 17.2857 1300 93.1346 875.571 443.586
3147 0 75.1954 13.0726 983 97.4262 875.799 443.703
3148 0 77.5682 14.2584 1106 95.0235 876.93 445.332
3149 0 76.2404 10.9391 834 98.5959 876.711 449.67
3150 0 72.4672 15.2207 1103 96.1106 877.797 440.725
3151 0 81.4271 16.7389 1363 95.7586 878.176 451.117
3152 0 80.4247 19.3224 1554 92.9427 877.774 444.787
3153 0 79.4999 13.1447 1045 101.041 879.055 449.161
3154 0 79.4999 13.0189 1035 134.995 881.04 449.212
3155 0 76.2257 13.893 1059 96.2946 879.071 448.083
3156 0 74.28 12.0759 897 97.9688 879.666 448.531
3157 0 76.1608 13.222 1007 97.565 880.047 443.823
3158 0 76.3537 13.5946 1038 97.7909 879.9 448.412
3159 0 75.0767 11.3617 853 100.531 879.24 453.482
3160 0 74.2107 14.2163 1055 97.6265 880.418 454.609
3161 0 72.2855 11.4407 827 101.654 879.866 453.383
3162 0 76.1764 14.3089 1090 97.6706 880.498 459.196
3163 0 75.1756 13.6746 1028 100.079 881.663 457.395
3164 0 77.3278 14.4191 1115 97.3399 881.452 462.689
3165 0 66.2065 8.14119 539 94.1596 881.219 465.321
3166 1 125.357 6.12651 768 104.732 880.47 425.233
3167 1 57.0372 8.22271 469 95.3539 880.345 467.145
3168 0 62.1051 10.2568 637 100.553 880.829 465.578
3169 0 70.0484 14.5185 1017 99.3314 880.758 465.635
3170 0 72.1397 13.557 978 101.563 881.193 463.339
3171 0 71.1355 9.6295 685 105.279 879.288 467.289
3172 0 73.273 13.6612 1001 100.222 879.166 461.255
3173 0 71.382 9.10594 650 107.262 878.106 459.638
3174 0 71.382 9.10594 650 116.389 876.106 459.638
3175 0 71.0916 12.3362 877 102.474 876.314 459.877
3176 0 76.507 14.6 1117 97.8236 877.476 463.519
3177 0 74.3213 11.3023 840 102.369 875.595 459.349
3178 0 73.1576 15.0497 1101 98.3733 876.334 459.276
3179 0 72.2147 12.7259 919 101.677 874.999 457.469
3180 0 72.3359 13.7 991 101.671 875.493 457.32
3181 0 74.2735 20.061 1490 93.2154 875.05 461.85
3182 0 73.372 12.7978 939 101.645 874.937 458.741
3183 0 75.2172 12.9492 974 100.726 875.593 460.407
3184 0 73.3784 14.7046 1079 98.3754 875.526 460.796
3185 0 72.1208 10.9261 788 103.879 875.387 459.495
3186 0 74.1393 14.0411 1041 98.878 875.236 457.826
3187 0 72.2285 13.5542 979 99.856 876.315 455.712
3188 0 76.1474 13.7759 1049 97.164 876.37 460.179
3189 0 75.2309 16.6421 1252 95.8674 875.916 446.226
3190 0 70.2037 7.80585 548 106.542 877.949 455.757
3191 0 72.165 13.8156 997 99.335 878.127 457.208
3192 0 70.0995 10.6705 748 104.575 877.048 452.79
3193 0 70.1546 10.2916 722 104.86 878.934 450.102
3194 0 70.1546 10.2488 719 121.814 880.915 450.007
3195 0 72.306 13.9822 1011 99.4481 879.749 455.674
3196 0 73.083 13.5462 990 100.147 878.909 456.04
3197 0 73.1008 15.4581 1130 96.8062 880.845 459.258
3198 0 70.2074 12.7052 892 102.266 880.617 452.078
3199 0 68.1334 9.20253 627 106.249 882.378 453.105
3200 0 73.4679 13.0942 962 100.029 881.055 456.82
3201 0 73.3856 8.8437 649 105.874 880.479 452.612
3202 0 74.1224 14.0713 1043 98.9204 882.048 459.517
3203 0 73.1738 12.8735 942 100.117 881.738 460.64
3204 0 71.2659 16.5577 1180 96.5441 880.509 459.106
3205 0 76.3006 12.2804 937 100.319 882.427 460.878
3206 0 76.3006 12.3197 940 134.894 884.443 460.767
3207 0 71.229 11.7368 836 102.2 881.935 462.093
3208 0 71.1338 9.64379 686 104.929 880.593 463.488
3209 0 72.2807 14.5405 1051 98.96 880.852 460.622
3210 0 71.14 11.4422 814 102.35 880.106 461.678
3211 0 77.3462 16.8851 1306 93.7642 880.366 467.678
3212 0 73.2351 12.2346 896 100.675 880.28 468.427
3213 0 72.1377 8.88579 641 104.629 879.671 467.666
3214 0 74.1676 13.6583 1013 98.2043 879.069 468.088
3215 0 76.3536 20.0121 1528 91.6728 878.12 464.603
3216 0 69.2128 12.83 888 95.5146 877.699 467.92
3217 0 73.1074 16.6878 1220 96.541 878.261 466.032
3218 0 71.1788 14.302 1018 99.0521 876.825 462.739
3219 0 72.142 16.0101 1155 97.3126 876.156 461.901
3220 0 76.1599 13.1303 1000 100.566 876.182 464.602
3221 0 70.1669 10.0475 705 101.811 874.272 462.139
3222 0 73.133 11.732 858 98.782 874.842 465.683
3223 0 73.3097 14.2682 1046 98.5574 875.757 461.742
3224 0 74.1908 14.9345 1108 94.3448 876.545 462.03
3225 0 72.2039 12.5339 905 101.435 875.337 462.031
3226 0 77.2113 11.3325 875 102.786 876.768 452.729
3227 0 74.1301 14.6499 1086 99.0691 874.365 457.704
3228 0 74.1618 11.003 816 97.1299 875.097 454.548
3229 0 75.0591 13.1763 989 100.481 875.714 452.727
3230 0 77.3323 13.7071 1060 99.0802 877.069 457.225
3231 0 76.263 16.666 1271 95.926 875.183 453.548
3232 0 77.1457 13.5717 1047 99.1671 877.142 455.212
3233 0 76.2273 15.7555 1201 96.6703 877.062 450.721
3234 0 76.4055 12.2112 933 101.807 876.848 447.392
3235 0 75.3815 12.8016 965 101.132 878.078 450.869
3236 0 75.1156 17.3998 1307 93.9556 878.791 448.407
3237 0 76.3864 13.1175 1002 99.7076 880.192 448.25
3238 0 74.2333 13.4306 997 99.678 880.728 448.581
3239 0 74.2443 18.4795 1372 93.4679 880.368 451.31
3240 0 70.193 11.1835 785 102.546 881.368 451.097
3241 0 74.3195 20.9636 1558 90.1553 879.728 457.153
3242 0 76.3901 15.0805 1152 96.6476 881.744 449.241
3243 0 75.3546 14.1995 1070 97.9411 882.308 452.401
3244 0 74.2082 12.2493 909 100.325 882.698 451.751
3245 0 74.3581 13.3408 992 98.7722 882.652 450.328
3246 0 75.167 14.7538 1109 96.8837 881.513 451.263
3247 0 72.0343 10.5644 761 101.673 882.129 449.77
3248 0 72.0343 10.5644 761 130.83 882.129 449.77
3249 0 74.0879 13.3625 990 98.1545 882.529 458.936
3250 0 69.1978 14.249 986 92.9594 882.745 456.32
3251 0 72.1851 9.64188 696 103.618 881.851 456.999
3252 0 70.1122 12.1947 855 100.818 883.274 455.565
3253 0 66.0742 11.1541 737 99.2076 881.689 454.088
3254 0 68.1263 14.9135 1016 94.0846 881.846 454.111
3255 0 64.0713 10.0201 642 99.6838 881.774 452.528
3256 0 68.4176 10.4359 714 97.028 881.214 453.304
3257 0 65.077 17.3641 1130 91.554 881.503 449.966
3258 0 63.1478 11.3227 715 100.354 881.252 454.737
3259 0 62.3277 12.2097 761 91.841 880.016 448.967
3260 0 62.3457 16.5208 1030 88.965 879.581 454.239
3261 0 61.1078 11.4879 702 95.9031 877.496 453.754
3262 0 61.1692 9.59634 587 98.3663 879.586 448.269
3263 0 63.1191 13.7201 866 95.1963 878.965 451.099
3264 0 64.2256 10.3074 662 103.817 878.769 451.675
3265 0 70.1804 12.7813 897 97.7503 877.935 454.311
3266 0 67.1488 15.6071 1048 95.7233 878.485 450.537
3267 0 62.1377 9.92956 617 99.9968 876.634 453.381
3268 0 62.1377 10.0422 624 112.526 874.638 453.205
3269 1 125.899 15.719 1979 94.1743 877.245 417.238
3270 1 111.689 11.0396 1233 88.562 876.729 437.994
3271 0 108.613 11.9323 1296 87.4313 876.365 440.365
3272 0 105.943 25.5514 2707 76.2833 874.662 417.365
3273 0 109.903 9.14445 1005 88.0418 876.335 419.363
