time division length width area intensity CMx CMy
0 0 34.1075 11.4344 390 142.859 740.236 468.974
1 0 35.0233 14.419 505 128.719 739.206 470.875
2 0 35.0233 14.3333 502 143.536 738.217 470.896
3 0 35.0233 14.2762 500 143.304 737.188 470.868
4 0 35.0198 14.2776 500 142.976 736.188 470.868
5 0 36.0199 12.7429 459 132.451 735.647 469.351
6 0 38.0587 14.7929 563 129.334 735.391 470.167
7 0 36.1085 13.5979 491 137.269 734.2 469.308
8 0 41.0536 15.6868 644 127.592 734.088 468.363
9 0 40.0533 13.4071 537 136.583 734.38 467.81
10 0 41.0716 12.9286 531 134.823 734.629 467.806
11 0 41.0252 11.8951 488 138.623 733.477 467.861
12 0 43.016 12.9487 557 136.58 733.792 466.174
13 0 46.0664 14.6528 675 130.917 732.495 462.342
14 0 46.0689 14.6737 676 140.675 731.456 462.433
15 0 47.0573 14.153 666 130.042 732.677 461.018
16 0 47.0257 14.2901 672 127.585 732.359 458.991
17 0 50.0241 14.2131 711 131.969 730.655 456.7
18 0 51.0846 14.1726 724 135.609 731.001 454.006
19 0 54.141 13.7973 747 125.452 731.112 456.845
20 0 54.1313 15.2592 826 129.022 732.191 452.34
21 0 57.1855 14.1644 810 127.627 732.231 452.152
22 0 59.06 16.0515 948 129.393 733.407 445.038
23 0 62.0762 15.481 961 126.095 739.62 445.072
24 0 64.0934 14.9001 955 127.689 739.35 446.178
25 0 66.1524 14.9957 992 125.244 742.564 445.795
26 0 68.1376 13.3406 909 128.212 742.852 443.265
27 0 71.1401 17.093 1216 122.572 741.85 440.627
28 0 71.1727 14.5421 1035 130.386 741.865 439.021
29 0 73.2196 17.1402 1255 123.346 741.897 437.285
30 0 76.0859 17.2699 1314 122.636 740.863 439.734
31 0 78.104 14.6856 1147 130.778 741.655 434.393
32 0 83.1148 17.554 1459 123.603 742.354 436.167
33 0 84.1116 17.3341 1458 139.748 743.332 436.181
34 1 45.0753 15.5961 703 125.528 742.863 452.023
35 0 46.0378 13.3803 616 133.448 742.888 451.894
36 0 51.0965 13.9931 715 128.183 745.25 452.789
37 0 50.054 13.0859 655 128.864 746.318 451.362
38 0 51.1221 13.1646 673 121.651 746.942 453.447
39 0 54.0453 13.2482 716 120.123 745.595 454.279
40 0 56.1498 17.2396 968 109.473 745.124 456.457
41 0 56.1443 13.5366 760 119.699 745.32 452.641
42 0 59.0689 14.4238 852 116.398 744.881 453.514
43 0 61.1729 14.7778 904 115.477 743.44 451.634
44 0 66.0916 15.6601 1035 113.801 743.321 448.348
45 0 68.0876 17.595 1198 109.236 742.991 453.138
46 0 69.0453 16.8006 1160 124.414 742.84 449.584
47 0 72.1746 14.839 1071 126.533 742.86 454.278
48 0 75.1286 15.8395 1190 124.418 742.378 448.35
49 0 78.1505 15.6493 1223 126.553 741.942 450.751
50 0 80.0928 16.2437 1301 128.144 741.724 449.709
51 0 83.25 14.3904 1198 129.59 740.199 448.179
52 0 85.1506 14.2219 1211 131.554 739.799 447.632
53 0 89.3929 15.0683 1347 134.129 739.024 439.578
54 0 92.3201 14.8938 1375 135.053 737.383 436.516
55 0 93.3035 15.4013 1437 133.485 737.705 434.091
56 0 100.189 15.351 1538 130.401 736.493 437.948
57 0 103.151 15.0071 1548 131.39 736.278 433.087
58 0 106.119 16.2553 1725 128.921 734.621 427.983
59 0 106.119 16.161 1715 153.038 733.62 427.945
60 0 117.453 14.9762 1759 128.764 734.463 426.456
61 0 120.385 17.5104 2108 121.407 733.857 424.448
62 1 63.1546 10.4347 659 122.14 732.53 450.375
63 0 67.2166 14.1632 952 116.452 733.274 446.977
64 0 69.2738 13.4106 929 117.257 731.715 448.344
65 0 70.2396 12.4858 877 124.412 732.905 442.173
66 0 73.1717 10.9742 803 126.138 732.87 441.552
67 0 78.2178 13.667 1069 119.205 732.926 440.773
68 0 78.2366 14.7373 1153 119.63 732.55 433.983
69 0 79.2879 10.6826 847 125 733.621 436.413
70 0 84.288 13.0149 1097 120.135 732.547 435.166
71 0 87.1857 12.1809 1062 117.259 735.257 431.602
72 0 90.2896 12.183 1100 116.158 735.644 433.71
73 0 92.355 14.0761 1300 115.33 737.073 431.78
74 0 92.3531 14.1414 1306 128.333 739.083 431.805
75 1 53.1138 11.8048 627 113.061 737.994 447.005
76 0 56.1832 13.4026 753 110.226 737.108 447.579
77 0 58.0725 12.3983 720 109.797 739.075 449.544
78 0 59.1675 10.9182 646 111.593 739.67 453.098
79 0 59.1675 10.9013 645 121.986 739.681 453.11
80 0 62.153 12.6301 785 111.423 741.479 450.647
81 0 65.0446 12.4223 808 112.119 740.361 449.173
82 0 66.0689 12.6837 838 110.922 740.826 451.993
83 0 67.1053 9.67137 649 115.809 740.462 448.98
84 0 70.2049 9.87111 693 114.302 741.69 453.717
85 0 70.2078 11.2523 790 112.13 740.96 454.428
86 0 76.161 13.3402 1016 109.875 741.603 451.211
87 0 79.103 11.8959 941 111.73 740.734 451.102
88 0 83.1524 11.6052 965 113.012 740.577 448.713
89 0 85.1031 12.8197 1091 111.631 739.075 448.33
90 0 89.1373 13.1483 1172 111.898 738.594 440.298
91 0 91.2158 14.2081 1296 110.073 738.564 444.434
92 0 96.2261 12.0653 1161 113.107 737.83 444.314
93 0 98.2846 11.8635 1166 113.367 737.044 441.443
94 1 54.1005 12.9943 703 111.226 737.044 464.782
95 0 54.1948 11.6801 633 112.51 734.63 462.967
96 0 54.0392 12.0098 649 107.721 735.157 462.693
97 0 56.2424 12.9617 729 106.235 734.018 462.683
98 0 54.0872 7.59884 411 114.572 733.946 462.491
99 0 58.1582 10.7809 627 109.931 733.694 460.203
100 1 123.304 12.1164 1494 115.369 733.352 431.084
101 0 128.415 12.0235 1544 116.518 731.467 420.959
102 0 135.492 14.3404 1943 111.959 731.806 424.425
103 0 137.458 12.6439 1738 118.135 731.743 413.48
104 0 143.347 13.4429 1927 117.243 732.161 414.407
105 0 147.821 11.7913 1743 120.017 731.224 414.547
106 0 153.432 13.4913 2070 118.55 730.821 408.258
107 1 77.0923 13.5811 1047 109.816 732.615 439.368
108 0 80.1941 11.9834 961 111.836 732.425 442.706
109 0 82.1548 9.90812 814 114.295 731.726 445.109
110 0 85.0967 9.74186 829 116.252 733.732 431.081
111 0 87.1262 13.0845 1140 111.21 732.43 436.742
112 0 91.2259 13.2967 1213 112.148 732.554 429.214
113 0 93.3278 12.6543 1181 114.899 733.584 429.104
114 1 46.5219 10.3822 483 114.857 734.041 450.582
115 0 40.151 7.07329 284 116.268 733.507 442.246
116 0 51.1165 14.5159 742 106.012 734.865 451.538
117 0 50.0739 6.43049 322 116.075 737.627 449.745
118 0 52.1522 14.4193 752 103.983 737.122 452.703
119 0 51.1134 11.406 583 110.894 737.298 448.707
120 0 53.2729 11.1501 594 110.214 736.601 452.562
121 0 55.1824 11.4348 631 111.108 738.342 448.979
122 0 57.0971 10.8937 622 111.248 739.296 453.011
123 0 60.1166 11.4777 690 110.223 740.823 452.19
124 0 61.0657 12.4456 760 110.305 739.179 450.143
125 0 63.0777 12.6194 796 110.832 740.014 450.428
126 0 63.1814 8.99 568 116 740.083 452.993
127 0 68.2714 11.6447 795 111.478 739.791 450.042
128 0 72.3367 16.6582 1205 103.629 740.151 450.53
129 0 72.3367 16.6444 1204 110.26 741.157 450.546
130 0 75.0884 10.7873 810 114.159 739.351 450.411
131 0 77.1628 13.9705 1078 110.778 737.62 448.101
132 0 82.3221 15.9617 1314 107.635 737.973 447.301
133 0 90.1671 10.5582 952 111.799 737.792 456.071
134 0 84.3653 9.80261 827 117.931 736.747 447.788
135 0 89.4355 14.6362 1309 110.529 736.899 449.688
136 0 93.1315 15.1291 1409 110.698 736.095 445.509
137 0 97.2662 15.216 1480 110.199 736.859 445.999
138 1 51.1009 10.8413 554 114.049 733.457 466.606
139 0 52.1382 10.4146 543 115.838 733.56 464.256
140 0 53.2068 12.3293 656 111.755 732.277 466.296
141 0 54.0879 11.7956 638 114.624 734.111 463.35
142 0 58.1563 15.6131 908 108.161 733.915 460.555
143 0 61.253 15.4605 947 109.044 732.791 457.944
144 0 63.1369 15.1259 955 108.438 731.977 457.169
145 0 63.181 16.3499 1033 106.382 729.623 459.203
146 0 66.1139 15.5792 1030 108.743 729.416 452.797
147 0 71.0726 16.0118 1138 106.376 730.822 453.374
148 0 70.2304 11.747 825 115.996 730.315 450.435
149 0 73.1011 11.7645 860 115.395 729.178 450.29
150 0 77.1871 16.5183 1275 109.46 730.465 445.826
151 0 82.0771 11.1724 917 116.585 729.726 446.626
152 0 82.2028 14.9022 1225 111.37 730.321 444.607
153 0 85.288 14.7031 1254 112.589 730.386 435.33
154 0 93.1355 11.5531 1076 115.202 730.678 442.328
155 0 92.0692 14.0438 1293 111.186 731.185 439.615
156 0 94.429 13.4069 1266 111.829 731.873 434.78
157 1 141.393 20.4465 2891 108.275 732.473 407.53
158 0 145.949 16.0878 2348 116.954 732.196 406.892
159 0 144.631 13.0954 1894 120.383 734.184 412.27
160 1 50.0306 12.0726 604 114.437 733.32 452.084
161 0 51.0659 13.8253 706 112.072 736.152 454.156
162 0 55.084 11.7639 648 114.645 735.579 452.486
163 0 56.0668 13.0558 732 111.225 737.544 453.041
164 0 57.0535 13.3734 763 112.332 737.49 450.95
165 0 56.0758 10.3966 583 117.449 738.057 452.724
166 0 60.1009 14.093 847 112.031 736.656 450.941
167 0 60.1134 12.0605 725 114.517 737.812 452.793
168 0 65.089 12.2755 799 113.849 738.542 452.36
169 0 65.043 17.0041 1106 103.071 738.24 459.458
170 0 69.0975 13.1553 909 111.837 737.974 453.191
171 0 72.1368 10.9098 787 114.62 738.837 453.889
172 0 72.264 13.6029 983 111.264 737.932 452.072
173 0 76.1948 12.9799 989 109.365 737.221 454.968
174 0 76.2326 11.6092 885 112.02 736.508 454.007
175 0 81.1949 12.2052 991 112.32 735.846 448.452
176 0 85.3681 14.2793 1219 109.802 737.044 447.36
177 0 88.4225 11.9766 1059 112.253 735.595 450.164
178 1 44.0594 10.622 468 114.908 734.699 468.278
179 0 46.0511 9.44603 435 117.977 735.299 467.29
180 0 48.2238 11.4259 551 113.701 734.506 466.822
181 0 51.1196 10.9156 558 115.918 734.95 463.701
182 0 53.1045 13.4264 713 112.039 733.534 463.621
183 0 55.2011 13.007 718 111.01 734.386 464.16
184 0 55.1428 14.3264 790 110.575 731.281 459.591
185 0 53.0327 10.503 557 117.993 732.646 459.61
186 0 55.1377 10.5372 581 116.945 731.976 458.783
187 0 58.1763 13.7341 799 111.605 729.388 457.947
188 0 61.2578 15.6062 956 108.537 729.582 456.936
189 0 60.1262 11.9914 721 114.412 729.68 452.877
190 0 62.1031 11.0783 688 115.435 729.22 453.932
191 0 65.287 11.1355 727 116.204 728.32 447.703
192 0 69.4312 13.8122 959 111.807 728.765 445.546
193 0 69.2603 14.0051 970 111.785 728.465 445.839
194 0 75.1494 15.4758 1163 108.61 728.67 444.869
195 0 75.3203 12.812 965 112.791 727.769 443.064
196 0 80.3631 15.43 1240 108.074 728.719 444.298
197 0 80.3631 19.0137 1528 116.37 729.669 441.552
198 0 84.3112 12.786 1078 114.757 729.209 435.058
199 1 45.0693 8.96397 404 112.881 728.916 459.245
200 0 44.0577 10.3274 455 114.171 729.593 455.56
201 0 45.0492 13.0302 587 110.48 730.324 453.828
202 0 46.072 12.3937 571 110.313 732.58 454.496
203 0 51.2386 15.4766 793 105.259 733.688 453.687
204 0 50.0689 11.3843 570 111.905 734.893 452.33
205 0 53.0992 11.9588 635 110.326 735.888 450.924
206 0 55.0677 15.2358 839 105.74 736.019 451.391
207 0 56.048 14.0951 790 108.319 736.852 454.562
208 0 55.1692 18.4161 1016 103.005 736.83 449.52
209 0 57.0554 12.9874 741 110.042 738.385 453.212
210 0 59.0937 14.9255 882 108.245 737.472 453.601
211 0 61.0596 13.9044 849 111.713 739.472 451.216
212 0 62.0479 16.2777 1010 108.917 738.723 454.04
213 0 64.1821 13.9447 895 108.93 735.806 459.378
214 0 65.0685 13.5549 882 112.448 735.887 455.092
215 0 68.1014 14.3756 979 111.145 737.104 457.388
216 0 69.1871 14.2078 983 112.45 738.372 454.884
217 0 72.2959 13.6799 989 114.882 738.14 452.707
218 0 74.2103 13.8929 1031 113.616 737.231 454.292
219 0 75.2708 12.4351 936 117.348 737.366 452.418
220 0 77.2856 13.0037 1005 114.517 736.082 456.876
221 0 83.3326 16.5362 1378 106.753 734.495 454.718
222 1 44.0586 13.0962 577 108.078 734.192 475.035
223 0 45.0865 9.20453 415 117.386 733.431 471.634
224 0 50.113 12.5117 627 112.4 733.027 469.919
225 0 50.0391 15.328 767 106.893 732.102 467.952
226 0 52.172 15.4489 806 112.543 732.306 466.447
227 0 52.244 12.4799 652 116.144 730.767 467.709
228 0 55.2756 12.2658 678 115.608 730.488 467.676
229 0 57.2639 13.8656 794 113.298 729.902 465.215
230 0 58.2607 13.6284 794 115.4 728.992 461.628
231 0 59.1069 18.052 1067 109.211 728.856 460.676
232 0 60.4584 15.2171 920 114.118 728.33 458.823
233 0 61.1426 15.8809 971 113.517 728.788 457.304
234 0 60.1612 12.9153 777 118.762 726.905 456.414
235 0 66.1446 14.8916 985 112.932 727.413 458.458
236 0 66.2051 13.292 880 117.859 728.042 453.401
237 0 71.1832 16.8439 1199 112.783 726.751 447.833
238 0 73.1797 17.1632 1256 111.675 727.186 449.02
239 0 76.3389 13.8068 1054 117.227 727.021 445.925
240 0 78.3067 15.5542 1218 115.176 728.623 442.177
241 0 79.1955 14.5463 1152 116.905 728.681 441.162
242 0 86.226 19.043 1642 108.12 729.412 443.356
243 0 87.1869 13.9356 1215 118.441 730.264 434.649
244 0 91.175 21.0145 1916 105.915 729.822 438.182
245 0 93.388 18.9639 1771 108.069 730.694 440.191
246 0 96.3631 15.7529 1518 114.011 730.412 435.24
247 0 98.2766 15.6802 1541 114.872 731.973 433.269
248 1 51.1832 14.4188 738 114.673 732.034 453.171
249 0 53.1368 12.1761 647 118.714 732.801 453.606
250 0 54.1088 12.5857 681 118.354 734.095 452.767
251 0 58.2343 15.7124 915 112.421 733.328 454.764
252 0 59.1519 14.3867 851 115.458 734.698 451.973
253 0 59.1519 14.4543 855 147.131 735.68 451.942
254 0 61.1864 13.892 850 117.507 734.895 452.801
255 0 63.2161 12.7025 803 120.127 735.364 452.153
256 0 64.1056 14.6009 936 116.408 734.69 452.616
257 0 67.0954 13.9056 933 118.151 736.721 452.581
258 0 69.1964 14.8274 1026 117.29 734.55 452.11
259 0 70.281 12.8057 900 120.386 734.252 449.212
260 0 73.2661 10.1138 741 123.814 733.833 454.054
261 0 76.1832 13.2706 1011 120.343 734.451 450.632
262 0 81.1023 16.1401 1309 113.765 733.806 453.037
263 0 83.201 15.9253 1325 113.576 733.454 456.058
264 0 84.2893 14.4028 1214 118.994 735.265 450.013
265 0 86.201 12.5056 1078 122.513 733.613 448.675
266 0 88.1404 13.2629 1169 120.877 733.141 448.75
267 1 49.157 11.2497 553 117.371 732.116 467.656
268 0 48.2192 8.56506 413 119.46 729.487 467.036
269 0 53.171 12.6761 674 113.091 730.315 467.079
270 0 50.0681 11.1248 557 115.697 729.321 465.668
271 0 54.1408 11.2484 609 113.223 729.46 466.81
272 0 53.0779 12.3404 655 113.49 729.983 461.043
273 0 57.1166 13.1135 749 111.76 727.903 459.437
274 0 57.1496 12.3535 706 111.809 727.953 461.625
275 0 60.1972 15.9144 958 107.61 727.346 456.752
276 0 64.0642 15.422 988 107.869 726.952 456.593
277 0 64.1094 11.4648 735 114.498 725.581 453.75
278 0 65.2096 11.302 737 114.813 725.942 452.423
279 0 69.1626 14.5454 1006 111.475 726.352 448.17
280 0 69.1626 14.4153 997 134.272 726.337 448.256
281 0 74.2648 15.5121 1152 112.313 726.085 447.615
282 0 77.0887 11.8305 912 119.146 726.123 444.416
283 0 79.1884 14.9264 1182 114.063 725.762 443.547
284 0 82.1713 13.2285 1087 118.898 726.356 442.132
285 0 83.1228 14.0395 1167 117.952 727.424 438.842
286 0 86.3534 16.3977 1416 115.132 727.91 435.796
287 0 91.2092 15.1301 1380 116.772 728.926 433.283
288 0 91.2044 12.5433 1144 122.689 728.884 429.996
289 1 54.047 14.7464 797 116.715 730.231 450.368
290 0 53.0671 12.0414 639 121.052 730.216 449.412
291 0 53.0404 9.72843 516 123.202 731.897 451.843
292 0 58.0251 13.6837 794 116.382 731.039 450.588
293 0 59.1476 14.1172 835 120.743 734.891 447.929
294 0 58.0726 12.6221 733 124.778 734.36 448.168
295 0 61.0438 15.4479 943 118.814 735.098 449.539
296 0 65.1036 14.1467 921 121.081 735.452 448.312
297 0 66.0617 15.5309 1026 118.989 736.005 449.45
298 0 66.0756 14.0143 926 123.021 737.185 448.026
299 0 67.2341 13.3414 897 127.438 736.463 445.078
300 0 70.1671 11.5724 812 129.437 736.055 450.877
301 0 74.1464 14.4983 1075 124.481 736.994 448.432
302 0 74.1434 13.2581 983 126.077 737.636 447.517
303 0 77.2505 12.6213 975 125.453 736.427 449.94
304 0 80.2058 14.388 1154 123.205 736.299 448.14
305 0 84.165 14.1983 1195 122.964 736.7 447.094
306 0 85.1344 15.0585 1282 121.748 736.022 443.798
307 0 88.0782 14.4076 1269 122.162 736.053 444.201
308 0 91.0982 13.5678 1236 123.11 735.09 444.794
309 0 94.355 14.0321 1324 122.47 734.833 440.832
310 1 49.0983 11.4668 563 118.78 732.851 466.794
311 0 47.0792 12.8082 603 116.468 733.055 466.541
312 0 49.1013 13.4009 658 115.871 732.304 467.079
313 0 47.0547 9.45708 445 123.265 731.503 468.121
314 0 50.0774 16.1749 810 111.591 730.759 466.923
315 0 48.071 7.36411 354 126.523 729.797 467.867
316 0 53.0622 9.32867 495 124.996 730.2 460.156
317 0 56.1105 12.4041 696 119.43 729.217 460.859
318 0 59.0592 18.3037 1081 109.879 728.944 455.876
319 0 60.195 13.0077 783 119.552 728.803 455.425
320 0 61.2007 13.5946 832 118.482 729.154 454.613
321 0 64.1268 12.1634 780 120.983 729.667 453.414
322 0 64.1586 10.7078 687 125.067 730.348 454.572
323 0 68.1368 13.4142 914 120.303 729.119 449.812
324 0 70.157 13.8974 975 119.797 729.251 446.874
325 0 71.326 11.2301 801 126.094 729.674 443.147
326 1 41.034 12.2094 501 123.635 728.894 458.76
327 0 43.0744 13.4419 579 118.883 730.278 460.466
328 0 44.0806 13.929 614 122.557 730.453 455.195
329 0 45.1619 14.1491 639 120.618 729.665 454.851
330 0 44.0864 11.6589 514 122.488 731.307 456.792
331 0 44.0906 12.6104 556 122.471 731.131 455.54
332 0 45.1282 11.2347 507 121.791 732.467 457.972
333 0 45.1051 9.99886 451 126.78 732.59 455.503
334 0 50.0937 12.0374 603 120.688 733.202 454.721
335 0 48.1437 11.7357 565 124.848 734.14 452.469
336 0 51.052 13.3002 679 119.716 734.434 453.92
337 0 54.1468 13.131 711 120.084 734.364 452.356
338 0 55.1398 15.361 847 116.701 734.505 452.55
339 0 58.036 16.4036 952 114.771 735.958 451.895
340 0 56.08 13.6769 767 121.557 737.548 449.988
341 0 58.1593 13.8585 806 122.017 736.351 449.305
342 0 63.1023 14.6746 926 117.668 738.193 452.775
343 0 65.0645 12.9256 841 119.943 738.6 452.888
344 0 66.0906 16.9767 1122 112.621 738.04 454.722
345 0 70.0956 13.7526 964 118.769 738.223 450.516
346 0 70.1526 14.4542 1014 118.838 738.05 450.328
347 0 72.1561 11.7939 851 121.485 737.489 455.659
348 0 75.1671 15.7915 1187 115.449 738.677 452.496
349 0 74.1792 16.1096 1195 131.89 739.671 452.324
350 0 80.1289 17.3221 1388 113.592 738.355 449.91
351 0 80.2899 11.3962 915 123.737 737.156 451.632
352 0 84.2343 12.0379 1014 122.565 735.804 452.054
353 0 86.337 14.8719 1284 119.338 734.76 446.886
354 0 88.1445 13.7275 1210 120.971 734.389 446.437
355 0 93.2771 14.398 1343 119.945 733.555 443.445
356 0 93.2583 11.5915 1081 124.6 732.953 447.507
357 0 99.2411 12.5351 1244 121.01 733.442 446.843
358 1 54.214 13.3176 722 121.363 732.674 462.755
359 0 52.0504 13.7943 718 121.84 732.46 458.316
360 0 53.104 11.8447 629 120.07 732.677 462.334
361 0 55.0913 13.9042 766 117.529 731.406 459.445
362 0 57.0662 9.72555 555 122.348 731.737 460.708
363 0 59.3329 17.1406 1017 112.292 731.248 454.741
364 0 62.121 13.4898 838 117.938 730.776 452.273
365 0 60.0557 10.9731 659 124.583 731.014 448.165
366 0 67.1321 12.9148 867 120.137 731.304 450.586
367 0 63.1346 13.1624 831 121.088 730.338 449.852
368 0 63.0866 13.0297 822 120.378 731.285 450.453
369 0 70.2333 13.085 919 122.614 730.274 443.47
370 0 71.0542 13.9612 992 120.791 731.554 443.149
371 0 76.0737 14.0916 1072 119.757 731.678 442.125
372 0 77.2732 13.5105 1044 122.089 732.873 437.464
373 0 77.2732 13.5105 1044 149.206 734.884 437.472
374 0 83.1544 12.555 1044 122.635 733.238 436.534
375 0 86.1558 14.0791 1213 119.94 734.438 434.007
376 0 90.26 13.727 1239 120.114 733.873 431.935
377 0 91.0898 14.3924 1311 117.873 735.233 433.977
378 0 91.0883 14.4256 1314 144.757 736.25 434.13
379 0 96.1138 13.2967 1278 121.744 735.908 423.769
380 0 107.175 17.0003 1822 113.018 737.535 429.149
381 1 59.0403 14.1259 834 115.321 736.857 447.552
382 0 58.0981 11.6355 676 120.348 738.553 446.7
383 0 63.12 13.0228 822 118.776 740.367 446.157
384 0 64.2983 14.8838 957 116.115 740.769 444.482
385 0 65.1932 14.6488 955 109.441 740.432 449.393
386 0 67.0724 12.8965 865 114.074 739.911 446.051
387 0 70.1205 15.017 1053 109.371 740.785 449.269
388 0 72.1145 10.2476 739 115.593 740.395 450.773
389 0 75.0975 10.7061 804 116.206 741.029 447.169
390 0 77.1874 13.9401 1076 112.435 740.489 446.254
391 0 78.2071 11.3928 891 117.719 738.85 445.029
392 0 79.1274 13.6868 1083 114.856 739.649 442.583
393 0 84.2866 14.427 1216 113.154 736.98 444.419
394 0 87.3054 10.847 947 118.916 737.019 445.849
395 0 87.2766 11.5037 1004 117.662 736.272 448.237
396 0 93.2021 16.2443 1514 112.055 736.952 440.686
397 0 96.2357 13.2799 1278 116.448 736.763 441.699
398 0 99.315 12.113 1203 120.8 735.814 430.867
399 0 101.074 13.0993 1324 120.092 735.884 439.792
400 1 56.1001 12.1747 683 116.858 735.242 460.496
401 0 57.2016 11.1885 640 117.831 734.741 461.983
402 0 59.1016 12.1147 716 116.507 734.11 458.063
403 0 60.0535 12.2224 734 113.396 731.586 459.301
404 0 58.1208 11.4245 664 114.108 731.044 461.411
405 0 60.267 9.73999 587 118.578 731.206 454.968
406 0 61.2029 11.421 699 115.31 730.049 456.961
407 0 65.1756 11.2312 732 116.311 729.351 453.69
408 0 65.0509 10.8992 709 117.526 728.175 451.221
409 0 65.0509 10.8069 703 138.535 727.162 451.151
410 0 70.1041 14.2074 996 114.338 729.207 444.116
411 0 74.1103 12.252 908 116.728 729.069 441.782
412 0 76.1787 13.7571 1048 113.884 729.463 442.099
413 0 76.2906 14.72 1123 113.652 729.921 439.029
414 0 79.1253 11.981 948 118.556 729.93 436.68
415 0 82.2624 8.37564 689 121.292 730.652 444.136
416 0 84.3731 11.7692 993 117.647 730.728 436.771
417 0 89.09 13.5706 1209 115.339 731.389 432.851
418 0 92.1861 12.887 1188 117.004 731.633 430.308
419 0 94.1997 14.1932 1337 113.971 732.382 434.034
420 0 97.2448 12.412 1207 118.959 733.656 426.536
421 0 101.214 12.1129 1226 118.552 734.86 428.241
422 0 104.165 12.7298 1326 116.882 735.48 420.751
423 0 107.192 11.0922 1189 118.789 736.172 426.477
424 0 107.194 11.0734 1187 129.319 737.178 426.317
425 1 58.1161 11.4082 663 114.416 738.056 449.282
426 0 59.1546 11.2755 667 115.445 738.672 448.276
427 0 63.1266 10.8829 687 115.132 738.847 449.623
428 0 62.1432 9.07581 564 118.44 740.966 451.942
429 0 66.1392 11.1432 737 114.559 740.931 451.243
430 0 68.0683 11.9292 812 115.416 740.438 449.159
431 0 70.2508 14.8468 1043 111.827 739.777 446.152
432 0 71.2991 8.24695 588 122.366 739.245 444.961
433 0 75.4265 11.9189 899 116.065 739.058 452.39
434 0 75.0811 10.522 790 121.453 738.673 449.023
435 0 76.2036 10.9444 834 121.717 738.606 451.345
436 0 82.2526 13.8719 1141 116.926 738.044 450.488
437 0 86.2395 11.7232 1011 121.669 738.138 449.667
438 0 83.0852 12.1081 1006 123.418 738.1 447.913
439 0 90.2289 11.8033 1065 122.617 737.247 448.852
440 0 91.2168 12.8704 1174 122.049 736.39 447.687
441 1 50.1372 13.842 694 120.061 735.866 465.503
442 0 52.0871 14.9173 777 119.039 736.086 463.345
443 0 51.0274 12.5619 641 119.526 735.337 463.769
444 0 52.017 12.246 637 119.625 735.804 464.008
445 0 54.0998 12.2551 663 120.262 733.299 461.116
446 0 55.0605 13.4216 739 116.721 733.451 464.065
447 0 59.0715 12.0193 710 121.455 732.949 460.232
448 0 59.045 11.6013 685 122.568 732.572 458.745
449 0 59.0858 12.4903 738 121.523 731.659 458.24
450 0 63.0566 15.1768 957 116.915 730.932 456.262
451 0 66.078 14.6645 969 118.366 731.348 452.322
452 0 68.1634 14.6853 1001 116.424 731.763 454.577
453 0 68.04 10.9347 744 124.695 731.606 452.445
454 0 71.0918 11.675 830 124.343 730.92 448.641
455 0 73.1742 15.0599 1102 118.419 730.039 446.63
456 0 74.1863 11.4846 852 125.701 730.137 446.839
457 0 78.1838 15.5787 1218 119.021 729.935 442.902
458 0 80.0818 11.8504 949 125.028 730.68 444.798
459 0 83.1825 13.1278 1092 122.941 730.951 443.282
460 0 86.2136 15.1368 1305 117.47 731.556 443.78
461 1 49.0659 11.3113 555 124.737 732.393 457.404
462 0 48.0664 12.8988 620 138.584 733.358 458.279
463 0 50.2314 12.4225 624 124.513 733.09 454.896
464 0 52.0693 14.6152 761 118.339 734.192 455.23
465 0 54.0896 12.9045 698 121.638 734.607 456.34
466 0 53.059 14.2483 756 121.481 736.103 454.999
467 0 54.1045 13.5663 734 122.099 735.811 457.023
468 0 58.1538 11.0225 641 126.126 735.672 459
469 0 58.2011 12.474 726 124.271 737.445 458.32
470 0 62.0801 14.2236 883 122.078 737.852 455.907
471 0 63.2805 12.1206 767 126.486 736.738 455.823
472 0 66.1624 14.1017 933 121.094 737.703 459.102
473 0 67.3243 12.5809 847 126.406 737.401 455.595
474 0 69.1093 14.0357 970 123.873 738.338 455.419
475 0 73.141 15.1351 1107 121.187 737.453 453.537
476 0 73.2004 12.377 906 127.008 738.063 458.057
477 0 77.2477 13.6574 1055 123.328 737.036 459.892
478 0 78.2149 13.1816 1031 124.878 736.717 459.915
479 0 82.1195 14.7712 1213 123.274 736.039 456.266
480 0 83.3291 11.5926 966 130.18 735.973 454.336
481 1 46.1244 11.9026 549 129.137 735.545 475.237
482 0 46.1265 10.5362 486 131.354 735.029 475.261
483 0 48.0401 10.1165 486 133.397 733.278 476.484
484 0 52.2556 12.1135 633 128.961 733.357 475.477
485 0 50.1329 11.3099 567 127.651 730.795 475.034
486 0 55.1329 12.0799 666 124.944 731.164 471.815
487 0 54.1706 12.1099 656 126.117 730.314 471.668
488 0 55.2218 11.155 616 128.455 730.396 471.218
489 0 58.1764 13.82 804 122.677 729.769 469.118
490 0 60.1497 12.6185 759 125.07 728.996 467.651
491 0 61.0664 12.1671 743 127.323 728.408 464.629
492 0 65.1172 13.1302 855 123.15 727.903 465.961
493 0 66.1301 13.5339 895 123.104 727.391 464.922
494 0 69.204 13.6553 945 122.666 726.588 462.647
495 0 71.0349 12.1349 862 126.838 727.448 459.089
496 0 74.2615 12.3617 918 124.971 727.578 459.129
497 0 76.1557 15.4027 1173 121.424 726.015 449.903
498 0 78.212 13.0159 1018 126.206 726.838 448.801
499 0 82.2877 13.2584 1091 124.707 727.79 447.6
500 0 82.2779 11.5705 952 128.774 726.362 444.728
501 0 88.325 12.4314 1098 124.793 727.53 446.386
502 0 88.3539 11.7369 1037 128.362 728.511 442.746
503 0 91.2427 10.8173 987 130.562 729.122 441.472
504 0 94.3142 13.1263 1238 126.405 728.889 438.216
505 0 99.3088 12.295 1221 126.947 730.486 436.966
506 1 54.1807 9.89282 536 131.907 730.815 457.108
507 0 55.1715 11.8902 656 128.611 731.143 456.274
508 0 54.1303 11.8972 644 127.859 732.295 454.759
509 0 57.195 10.6128 607 126.766 733.091 453.293
510 0 58.169 10.7961 628 124.226 733.575 457.425
511 1 114.592 10.2188 1171 132.442 733.003 430.438
512 1 62.0478 11.33 703 124.065 734.528 455.081
513 0 65.1241 12.7449 830 121.517 735.824 453.478
514 0 66.0586 11.1416 736 124.061 735.616 452.321
515 0 67.26 11.5373 776 122.972 737.192 453.354
516 1 137.438 15.156 2083 122.76 735.902 420.107
517 0 141.497 10.7352 1519 126.685 737.227 430.74
518 1 73.1264 10.1878 745 126.224 736.442 450.933
519 0 78.2883 11.8025 924 121.932 736.786 452.122
520 0 79.3747 11.6914 928 121.93 736.137 453.449
521 0 84.4034 11.7531 992 121.253 735.328 454.044
522 0 90.3563 10.359 936 121.843 735.894 453.967
523 0 91.3845 13.394 1224 118.617 734.85 446.966
524 0 98.2733 11.4985 1130 120.189 734.389 448.919
525 1 50.0531 11.1482 558 117.613 732.389 473.486
526 0 54.159 12.611 683 115.732 733.056 472.042
527 0 52.1093 10.6891 557 120.214 731.887 469.754
528 0 54.0764 10.0968 546 116.648 731.064 470.136
529 0 56.0918 12.7113 713 112.234 730.798 468.09
530 0 58.118 10.9605 637 114.655 728.334 469.322
531 0 58.2365 10.0452 585 117 729.262 467.361
532 0 60.0586 13.0706 785 112.561 727.204 464.392
533 0 61.141 9.76431 597 117.575 727.903 460.628
534 0 65.1775 11.1388 726 114.734 727.989 461.855
535 0 66.1456 9.93263 657 117.291 726.152 460.962
536 0 69.2759 12.2409 848 113.824 726.518 458.834
537 0 74.0857 11.3787 843 113.842 726.14 458.722
538 0 72.1549 12.9305 933 113.508 726.091 452.091
539 0 78.3817 12.4902 979 113.012 726.92 452.007
540 0 77.3867 13.103 1014 111.813 727.332 452.965
541 0 79.4242 9.66959 768 119.428 727.943 447.267
542 1 43.0452 12.7773 550 111.113 726.935 465.973
543 0 42.2431 8.23804 348 121.601 727.19 463.207
544 0 46.1375 13.2213 610 112.361 727.175 463.572
545 0 47.05 12.8799 606 115.124 727.959 459.29
546 0 48.1061 12.3061 592 109.77 725.752 460.529
547 0 47.0712 9.41128 443 114.668 728.53 457.804
548 0 46.1172 10.6901 493 113.779 727.763 458.327
549 0 50.0911 12.2776 615 110.475 729.616 458.187
550 0 52.023 12.5906 655 110.31 730.768 455.176
551 0 52.023 12.5714 654 115.391 731.778 455.161
552 0 56.1449 14.6585 823 106.656 731.002 454.295
553 0 58.0657 9.93701 577 114.291 731.678 456.09
554 0 57.1989 11.696 669 110.94 732.979 456.09
555 0 60.1328 12.1564 731 109.164 733.923 457.454
556 0 63.2014 10.4586 661 111.449 734.322 455.536
557 0 62.1098 10.1433 630 112.902 735.229 452.825
558 0 64.0937 9.95418 638 112.953 734.89 454.782
559 0 67.3278 13.8279 931 107.349 734.786 452.518
560 0 70.0502 10.9207 765 110.878 734.892 454.974
561 0 75.2359 13.4776 1014 105.527 735.188 458.741
562 0 79.1864 13.6513 1081 104.968 735.804 459.1
563 0 78.0742 11.963 934 110.634 734.813 453.031
564 0 78.0742 12.027 939 127.188 733.821 452.685
565 0 81.1496 10.2157 829 114.035 734.788 451.685
566 0 84.2122 12.7416 1073 110.973 733.659 450.236
567 1 48.1252 14.774 711 106.855 734.496 470.328
568 0 50.09 11.9585 599 111.204 734.275 472.77
569 0 49.0856 12.6106 619 113.725 733.399 470.921
570 0 50.0961 13.9532 699 107.675 731.164 472.259
571 0 49.1253 9.91343 487 115.953 730.762 470.891
572 0 52.1416 9.18653 479 113.977 729.196 474.983
573 0 53.1034 11.6753 620 113.145 729.536 469.285
574 0 56.2017 11.352 638 113.212 729.762 465.583
575 0 57.1121 12.4142 709 111.818 727.942 465.228
576 0 61.1138 11.814 722 111.929 728.012 466.184
577 0 61.2695 11.0169 675 114.348 727.828 462.022
578 0 63.2288 13.8861 878 110.261 726.286 461.206
579 0 62.11 9.83739 611 117.065 727.038 458.493
580 0 69.2572 15.1176 1047 106.766 725.925 461.596
581 0 69.2098 11.7324 812 113.862 726.308 457.647
582 0 70.279 11.3121 795 115.347 725.626 451.543
583 0 74.1752 9.72023 721 118.125 726.455 453.739
584 0 76.1423 10.2965 784 116.987 725.2 452.773
585 0 79.1643 9.38554 743 119.381 725.782 446.973
586 1 46.0466 12.5959 580 114.334 726.228 460.369
587 0 50.0163 11.9561 598 113.308 727.191 459.286
588 0 48.1345 9.74354 469 116.725 726.861 459.719
589 0 52.1173 13.0283 679 111.105 726.644 455.136
590 0 52.0362 11.6073 604 112.457 728.526 457.459
591 0 54.3028 14.014 761 108.318 730.593 451.141
592 0 56.1454 15.5489 873 106.05 730.602 456.159
593 0 56.1454 12.9307 726 121.722 730.709 454.477
594 0 59.1254 13.5982 804 109.369 731.498 454.72
595 0 61.0627 12.9703 792 110.813 731.884 452.465
596 0 60.3126 11.7223 707 112.433 733.477 452.188
597 0 63.141 12.3058 777 111.147 733.304 452.037
598 0 65.0891 13.2127 860 109.406 733.437 451.045
599 0 64.1647 10.5042 674 114.071 734.369 450.297
600 0 64.1647 10.5666 678 129.755 734.352 450.344
601 0 74.1124 12.3326 914 108.283 735.718 452.132
602 0 76.0991 13.1539 1001 106.5 736.856 452.48
603 0 77.0886 11.9084 918 108.593 736.845 451.82
604 0 78.1958 11.2922 883 109.644 736.824 449.035
605 0 80.1546 11.4653 919 109.678 735.404 449.035
606 0 86.3183 13.6587 1179 105.868 736.572 450.433
607 0 86.2212 10.1947 879 110.024 736.265 455.923
608 1 46.0722 8.79055 405 113.77 735.511 469.22
609 0 49.1691 12.2028 600 110.543 735.322 468.283
610 0 52.0365 13.9325 725 105.905 734.465 472.052
611 0 52.1545 13.3258 695 106.442 732.937 469.753
612 0 52.1545 13.2299 690 112.88 730.944 469.72
613 0 54.269 12.7144 690 108.062 732.384 466.262
614 0 54.1686 12.4057 672 108.326 731.004 466.515
615 0 57.0512 9.57036 546 111.423 729.958 471.324
616 0 56.0792 12.8568 721 108.656 728.888 466.473
617 0 62.1288 12.8443 798 107.177 729.898 467.229
618 0 64.0794 14.8566 952 105.766 728.603 461.933
619 0 66.1006 14.13 934 107.247 728.893 460.45
620 0 68.0715 11.7083 797 110.609 727.132 459.021
621 0 69.2092 11.5736 801 110.489 727.634 461.02
622 0 74.1696 13.6714 1014 108.477 726.699 456.404
623 0 76.2994 13.7223 1047 110.83 725.814 449.993
624 0 78.3225 11.6442 912 114.666 725.97 450.477
625 0 82.2611 12.0956 995 113.93 726.356 449.7
626 0 85.1388 12.415 1057 114.351 727.562 446.908
627 0 86.0844 14.056 1210 111.886 726.643 444.717
628 1 47.0732 9.68705 456 115.954 726.171 461.796
629 0 48.1402 12.9206 622 110.371 727.265 463.439
630 0 51.0623 12.8079 654 111.263 726.494 461.046
631 0 51.125 10.7384 549 116.443 728.14 459.217
632 0 54.1417 15.9951 866 108.479 728.318 455.094
633 0 56.0435 12.4725 699 114.335 730.844 454.371
634 0 58.1078 14.3698 835 111.733 728.879 453.416
635 0 58.1424 14.3097 832 113.475 731.004 453.72
636 0 62.0894 13.0296 809 116.179 730.616 452.618
637 0 66.2578 15.4548 1024 110.939 731.708 452.518
638 0 67.1675 14.7244 989 113.07 731.905 451.292
639 0 68.0697 14.1179 961 115.244 732.357 450.815
640 0 71.2272 14.882 1060 113.321 732.716 451.522
641 0 75.2 15.1596 1140 112.606 732.846 450.725
642 0 79.149 13.8473 1096 113.182 733.354 453.091
643 0 79.256 14.5352 1152 115.037 733.826 447.115
644 0 86.121 12.4592 1073 116.082 734.445 448.378
645 1 46.0779 8.46393 390 121.9 734.833 465.651
646 0 50.2314 13.4776 677 111.832 734.736 467.36
647 0 51.1983 12.0903 619 115.682 734.509 463.129
648 0 51.2733 13.4768 691 111.373 735.152 462.961
649 0 51.1716 15.6141 799 108.685 734.364 462.929
650 0 53.1375 13.8885 738 113.329 732.974 464.652
651 0 57.1391 14.701 840 111.445 732.461 464.945
652 0 58.0915 13.4787 783 113.688 733.188 465.958
653 0 61.0443 14.3011 873 112.502 733.375 466.018
654 0 62.049 14.9398 927 111.895 732.74 464.761
655 0 61.1125 12.7797 781 117.365 732.511 462.918
656 0 63.1642 14.5652 920 113.79 731.864 461.686
657 0 62.0715 10.6973 664 122.149 730.727 460.514
658 0 69.042 12.1231 837 117.67 730.971 460.584
659 0 72.0442 12.645 911 116.024 729.548 463.043
660 0 71.1262 10.3759 738 122.892 730.274 457.308
661 0 76.1437 11.5571 880 120.266 729.355 452.098
662 0 78.2922 13.6667 1070 117.211 729.496 453.879
663 0 81.3246 11.3496 923 121.706 728.397 451.866
664 0 84.4239 13.1361 1109 118.185 727.313 450.943
665 0 88.2214 16.1752 1427 110.136 728.25 453.465
666 0 87.2292 11.8653 1035 121.283 728.262 445.641
667 1 51.0834 13.8988 710 108.872 727.868 467.47
668 0 51.0524 8.99076 459 120 728.841 464.144
669 0 53.0348 11.0871 588 114.881 726.784 459.68
670 0 53.1655 12.7338 677 117.452 727.916 458.843
671 0 51.085 12.2345 625 117.29 729.014 460.502
672 0 56.0615 11.7906 661 117.793 728.708 457.23
673 0 60.1049 14.4248 867 113.734 729.483 453.656
674 0 61.1571 12.983 794 117.431 730.011 453.432
675 0 61.191 10.6225 650 122.191 729.775 453.106
676 0 62.1837 13.9104 865 117.784 730.869 451.36
677 0 66.1065 13.327 881 117.62 731.452 451.739
678 0 67.1624 10.3332 694 123.2 731.346 450.739
679 0 69.1209 11.299 781 121.06 731.529 449.827
680 0 71.1027 12.2358 870 120.098 734.101 447.23
681 0 75.0921 14.4756 1087 115.07 731.916 448.165
682 0 75.1812 12.144 913 121.096 732.859 442.982
683 0 77.1136 13.4218 1035 117.255 735.541 447.175
684 0 82.1242 13.5161 1110 117.64 735.212 445.175
685 0 82.1373 14.5123 1192 116.084 736.131 447.601
686 0 86.1259 12.7952 1102 119.841 735.378 445.315
687 0 87.2175 13.1969 1151 118.848 736.416 446.294
688 0 89.1586 11.687 1042 121.442 736.538 446.416
689 0 94.214 11.8454 1116 120.496 736.305 444.634
690 0 96.2622 14.1696 1364 117.901 736.113 441.652
691 0 101.286 11.2651 1141 121.656 736.039 441.558
692 0 106.317 16.479 1752 111.152 734.852 443.134
693 1 53.1124 9.92236 527 117.44 734.321 467.643
694 0 53.1124 9.90353 526 137.354 734.346 467.376
695 0 59.1478 13.8805 821 109.812 733.762 469.164
696 0 57.189 10.4566 598 117.167 732.286 467.687
697 0 62.1894 13.5554 843 109.791 732.828 467.432
698 0 64.1565 12.7812 820 111.073 731.873 466.624
699 0 65.0859 11.7076 762 112.098 730.589 467.841
700 0 65.2123 13.4177 875 111.314 729.542 463.2
701 0 70.2437 13.3678 939 110.805 729.152 462.475
702 0 69.1006 11.9536 826 112.678 728.276 463.334
703 0 69.1006 11.8812 821 124.734 728.276 463.475
704 0 79.1532 11.3451 898 112.807 727.002 458.1
705 0 79.1532 11.3451 898 134.903 725.012 458.12
706 0 79.1532 11.3451 898 134.361 723.024 458.184
707 0 86.1126 11.7753 1014 112.737 726.081 454.325
708 0 88.2042 12.7432 1124 112.541 727.075 448.941
709 0 87.279 11.7096 1022 112.62 726.975 457.182
710 0 88.1361 9.41725 830 115.852 725.602 455.726
711 1 56.0539 14.3969 807 109.337 726.473 465.937
712 0 56.1242 11.4924 645 114.383 725.181 465.926
713 0 57.1008 13.7651 786 112.71 727.083 460.156
714 0 59.0415 12.5505 741 109.865 726.488 461.08
715 0 58.0783 13.5679 788 108.124 727.398 459.674
716 0 59.176 13.2317 783 109.473 726.92 458.802
717 0 63.2089 13.8905 878 107.438 727.811 458.245
718 0 65.0661 10.6507 693 113.368 726.707 452.769
719 0 67.1178 10.7423 721 111.931 728.243 453.397
720 0 70.1252 15.1016 1059 106.136 728.01 451.185
721 0 73.2441 12.9294 947 109.127 728.5 451.438
722 0 74.1435 11.9498 886 112.036 727.992 450.362
723 0 75.2475 12.4522 937 111.414 729.803 445.789
724 0 80.2421 17.7961 1428 101.106 730.697 451.855
725 0 80.238 10.7555 863 114.308 731.133 445.41
726 0 79.2685 14.331 1136 109.702 731.752 444.482
727 0 88.3556 11.6574 1030 112.756 732.719 441.782
728 0 89.2617 11.9536 1067 112.046 732.817 445.274
729 0 93.4901 13.9373 1303 109.979 733.027 443.857
730 0 97.3317 12.9865 1264 112.738 734.992 441.877
731 0 102.382 14.3092 1465 113.571 734.623 439.968
732 0 103.487 13.3061 1377 113.936 735.412 440.339
733 1 58.1428 8.28993 482 112.712 735.149 468.988
734 0 61.3765 9.74314 598 111.761 735.525 463.485
735 0 62.1785 11.4026 709 107.698 736.526 461.74
736 0 65.6536 15.2162 999 103.643 735.47 462.393
737 0 62.4693 12.6622 791 103.971 735.686 463.583
738 0 67.3644 11.6234 783 107.962 733.741 455.194
739 0 68.4518 12.7535 873 105.979 735.631 458.15
740 0 69.2883 11.9501 828 108.292 734.104 457.525
741 0 72.2217 13.6524 986 106.653 733.916 453.02
742 0 73.4322 12.2017 896 109.365 731.75 454.742
743 0 77.3542 15.3838 1190 106.137 732.146 455.166
744 0 81.2584 14.1524 1150 109.157 731.737 452.606
745 0 82.6292 14.6074 1207 109.297 730.518 454.504
746 0 86.3329 15.7877 1363 112.128 729.438 447.232
747 0 87.5309 12.3271 1079 119.461 728.778 448.748
748 0 93.7215 18.8004 1762 105.272 727.79 450.669
749 0 93.549 15.1792 1420 112.886 728.956 441.93
750 0 93.7726 12.669 1188 117.69 728.023 438.662
751 0 98.5063 12.6083 1242 116.779 728.758 438.659
752 1 52.2373 10.8735 568 111.236 729.04 461.197
753 0 52.248 13.2254 691 108.667 729.101 462.001
754 0 56.3266 10.5989 597 113.422 728.529 460.662
755 0 55.1673 12.3261 680 108.36 729.326 452.704
756 0 61.1514 12.559 768 105.001 729.208 456.525
757 0 60.1688 16.4537 990 102.169 729.41 452.554
758 0 60.1802 12.529 754 108.584 729.412 447.863
759 0 64.1441 15.1066 969 103.618 730.222 449.809
760 0 65.2102 12.6361 824 107.864 730.813 445.982
761 0 69.2884 12.1521 842 107.584 730.821 446.582
762 0 69.5986 12.6008 877 106.978 732.318 441.171
763 0 72.2559 12.0267 869 108.358 731.81 437.574
764 0 72.2189 10.0805 728 111.603 732.595 436.648
765 0 76.2962 12.7398 972 105.861 732.596 444.459
766 0 80.3836 12.0796 971 105.097 733.982 444.106
767 0 79.3347 9.73093 772 112.286 734.241 435.004
768 0 85.2088 13.1324 1119 105.878 734.958 436.475
769 0 87.2536 12.0339 1050 108.124 734.447 432.75
770 0 91.447 12.5975 1152 112.332 733.359 442.069
771 0 92.1845 13.3428 1230 111.184 734.434 440.508
772 0 97.1089 11.3584 1103 116.011 734.819 435.793
773 0 99.1527 12.1025 1200 114.601 734.018 439.254
774 0 104.297 14.7751 1541 110.656 734.677 431.784
775 1 58.0563 7.63053 443 114.196 733.998 457.641
776 0 61.1431 9.84575 602 110.721 734.196 457.902
777 0 60.1468 10.6573 641 110.488 734.09 458.042
778 0 63.2507 13.7074 867 104.942 733.02 456.572
779 0 64.0742 10.9248 700 108.919 732.424 457.824
780 0 64.2556 11.6099 746 108.946 732.511 452.378
781 0 68.1295 9.99568 681 109.796 732.761 453.806
782 0 78.6705 19.6262 1544 97.0615 732.335 451.951
783 0 74.2714 12.6428 939 108.153 731.773 453.529
784 0 80.1013 14.5316 1164 104.844 731.677 452.869
785 0 80.1464 13.8122 1107 106.432 731.517 453.522
786 0 82.2383 12.7921 1052 107.858 731.665 450.968
787 0 84.1794 13.2336 1114 104.46 729.382 448.764
788 0 89.2093 13.9335 1243 101.728 729.705 452.452
789 0 90.3989 11.6705 1055 106.464 729.106 449.473
790 0 93.3438 13.0271 1216 106.226 729.464 443.882
791 0 96.501 14.9118 1439 103.949 729.092 439.258
792 0 100.441 12.3057 1236 107.758 729.679 442.316
793 1 53.1932 10.1517 540 109.643 728.52 463.08
794 0 56.3977 10.5501 595 108.082 728.916 457.14
795 0 59.408 11.0591 657 104.661 730.475 458.971
796 0 58.0659 9.66144 561 105.353 730.321 459.02
797 0 63.1873 13.278 839 101.623 729.304 451.596
798 0 64.204 13.2235 849 102.127 729.085 452.376
799 0 63.1457 10.0086 632 107.579 728.611 454.171
800 0 64.146 10.4449 670 117.979 727.579 453
801 0 69.2132 10.0559 696 105.292 729.058 446.649
802 0 72.2798 15.5368 1123 97.6999 730.14 449.345
803 0 73.1744 12.7504 933 102.314 731.072 441.282
804 1 144.797 12.1135 1754 112.144 731.749 407.823
805 0 150.537 12.5882 1895 112.315 731.469 401.337
806 1 81.2036 11.1694 907 105.492 732.284 437.765
807 0 83.2171 11.7163 975 106.211 733.495 434.812
808 0 84.124 11.5781 974 107.095 732.797 436.09
809 0 88.2562 13.4608 1188 104.097 733.67 437.753
810 0 94.171 15.3763 1448 101.789 735.94 436.864
811 0 95.2241 15.1957 1447 100.394 733.952 444.12
812 0 95.2815 9.38273 894 109.649 736.397 438.59
813 0 101.31 13.8584 1404 104.846 736.228 434.715
814 0 105.218 11.2433 1183 108.438 736.12 436.158
815 1 56.1968 8.43465 474 110.015 737.551 455.979
816 0 58.1788 12.0663 702 105.399 736.672 457.785
817 0 62.0453 12.0074 745 106.058 737.478 457.632
818 0 61.0841 9.72429 594 108.948 738.145 455.891
819 0 64.3394 8.05106 518 108.371 737.326 466.666
820 0 65.6686 12.3499 811 107.61 736.834 458.388
821 0 65.0767 11.1407 725 110.126 736.567 453.821
822 0 70.0426 11.8642 831 108.164 737.255 455.414
823 0 73.2101 13.7003 1003 105.508 737.285 456.597
824 0 75.2965 12.1652 916 109.287 734.234 458.591
825 0 75.3379 9.95515 750 114.065 734.661 454.684
826 0 80.176 12.3104 987 110.549 733.607 454.981
827 0 78.1409 10.7242 838 113.126 734.934 455.967
828 0 84.3921 12.0509 1017 113.159 734.142 450.679
829 0 87.212 15.3534 1339 107.593 733.409 453.86
830 0 88.284 13.7058 1210 112.336 731.702 447.771
831 0 92.0973 13.7463 1266 112.847 732.622 445.751
832 0 93.1194 13.6814 1274 114.389 731.719 443.166
833 1 54.0462 13.0814 707 111.793 731.724 466.031
834 0 55.0862 9.83913 542 115.494 730.59 466.245
835 0 54.136 11.3418 614 116.101 731.164 464.261
836 0 54.0812 11.5937 627 117.537 730.287 458.507
837 0 59.044 11.5846 684 117.477 729.67 460.2
838 0 59.044 11.6185 686 132.363 728.692 460.208
839 0 61.2112 13.3472 817 116.246 730.591 454.902
840 0 64.1616 15.1804 974 113.193 731.328 450.772
841 0 66.1341 15.5593 1029 112.524 730.794 448.792
842 0 67.1688 13.0418 876 117.469 730.586 449.707
843 0 71.24 13.6019 969 116.705 731.402 446.42
844 0 72.1143 14.2829 1030 116.292 732.024 443.783
845 0 75.1419 15.2911 1149 115.333 732.122 442.378
846 0 78.0875 17.8902 1397 111.118 732.243 443.404
847 0 82.0935 17.5044 1437 111.82 733.01 441.531
848 0 82.0897 12.9249 1061 121.086 734.439 441.518
849 0 84.1552 14.6159 1230 118.806 734.063 439.856
850 0 87.1827 14.5442 1268 120.001 733.661 436.723
851 0 89.1861 14.666 1308 119.956 734.161 435.567
852 0 94.2673 17.0579 1608 115.461 732.525 433.535
853 0 97.1618 15.7881 1534 117.594 735.209 434.988
854 0 100.127 17.9472 1797 115.031 735.125 430.559
855 0 103.174 15.9052 1641 118.979 735.41 434.732
856 0 107.269 14.9252 1601 121.229 735.22 431.297
857 1 55.1196 12.1191 668 123.343 737.521 457.871
858 0 57.1659 13.2247 756 123.321 736.581 455.134
859 0 59.1087 13.6021 804 121.131 736.94 454.563
860 0 60.2753 12.1443 732 121.878 736.169 455.105
861 0 61.0968 12.4065 758 125.203 735.793 455.565
862 0 65.0862 12.107 788 124.33 735.906 457.173
863 0 67.0773 13.7453 922 121.484 734.06 458.567
864 0 69.0933 12.7798 883 123.846 735.789 456.079
865 0 72.1294 15.1949 1096 118.517 736.034 456.411
866 0 72.2381 15.615 1128 118.801 737.501 454.754
867 0 76.2933 9.81737 749 128.895 736.186 455.63
868 0 78.2631 13.7868 1079 122.011 735.22 454.117
869 0 78.218 11.8259 925 127.256 735.349 452.613
870 0 81.2614 13.1182 1066 124.79 734.796 449.381
871 0 84.1798 14.8373 1249 121.335 734.397 449.879
872 0 87.2381 14.6725 1280 121.198 734.689 447.583
873 0 92.2744 17.0253 1571 116.131 732.11 448.964
874 0 92.2173 12.6657 1168 125.877 732.673 444.403
875 0 98.173 14.0161 1376 122.083 732.617 445.235
876 0 101.215 14.5631 1474 121.754 730.981 442.765
877 1 56.1598 9.93594 558 126.504 732.258 462.036
878 0 56.129 11.2598 632 123.203 730.476 462.239
879 0 57.1081 12.5551 717 119.114 731.932 459.255
880 0 60.0693 13.5177 812 116.562 731.432 458.438
881 0 63.3303 14.2112 900 114.333 730.78 457.61
882 0 67.1686 14.2626 958 114.742 730.414 453.793
883 0 67.2538 13.9026 935 115.013 731.32 454.855
884 0 69.2073 17.3103 1198 110.816 730.816 447.569
885 0 70.1534 16.2501 1140 112.341 731.056 450.253
886 0 74.1654 15.4385 1145 119.084 728.905 446.945
887 0 76.0892 13.0768 995 123.87 729.19 443.91
888 0 76.1939 11.602 884 126.91 730.474 444.654
889 0 78.2358 13.3059 1041 124.565 731.877 438.992
890 0 82.3007 12.8432 1057 125.75 733.003 438.368
891 0 84.1596 13.0585 1099 125.94 732.658 432.887
892 0 86.1252 11.4717 988 129.609 732.734 434.147
893 0 90.1865 12.9066 1164 126.006 734.338 432.587
894 0 92.1251 12.9498 1193 127.422 733.962 428.066
895 0 96.1786 14.8266 1426 123.259 736.078 430.932
896 0 100.21 13.5416 1357 125.88 736.539 429.797
897 1 52.1643 9.5851 500 126.38 737.544 455.396
898 0 53.0513 11.9695 635 123.072 736.854 452.494
899 0 56.1026 12.5306 703 120.639 736.238 451.518
900 0 58.1605 16.1622 940 110.138 736.321 455.092
901 0 60.0965 9.55131 574 121.364 736.869 454.066
902 0 59.0701 9.86963 583 120.554 738.238 455.844
903 0 64.1219 11.9928 769 116.77 738.52 453.385
904 0 65.1463 11.1134 724 117.804 737.983 452.869
905 0 68.2789 12.2732 838 115.686 737.654 452.189
906 0 70.102 12.0681 846 116.184 736.755 451.98
907 0 71.1424 12.2571 872 116.626 736.245 452.114
908 0 74.1575 10.3294 766 118.858 737.067 451.884
909 0 76.1705 12.1176 923 115.168 737.079 454.12
910 0 82.1801 10.7812 886 116.846 736.147 453.596
911 0 83.1935 15.4339 1284 110.305 735.554 450.822
912 0 86.131 11.529 993 116.025 736.224 446.881
913 0 90.0917 13.4419 1211 112.142 735.302 449.874
914 0 93.1165 11.6736 1087 114.118 733.696 452.087
915 0 97.1436 15.0602 1463 110.128 735.102 442.196
916 0 97.1779 10.1669 988 118.197 732.102 448.846
917 0 101.182 13.3917 1355 113.77 731.756 443.032
918 1 53.0668 11.3254 601 113.627 731.958 464.068
919 0 59.0824 12.508 739 111.158 730.564 464.148
920 0 58.1264 8.13744 473 118.518 730.452 463.023
921 0 61.1658 10.4143 637 116.959 729.929 457.199
922 0 65.1463 11.8963 775 113.206 729.172 459.355
923 0 68.099 13.1867 898 111.895 729.875 454.089
924 0 67.0905 10.1654 682 117.164 730.208 454.466
925 0 70.2424 11.8162 830 114.765 731.058 452.412
926 0 70.055 9.54964 669 116.359 730.251 455.013
927 0 74.0435 11.7093 867 114.939 729.386 447.934
928 0 74.1352 9.83339 729 118.458 728.719 446.65
929 0 80.1933 14.4027 1155 110.671 728.629 440.757
930 0 83.2139 13.4713 1121 112.717 729.261 439.384
931 0 85.264 12.1153 1033 115.555 728.784 440.089
932 0 88.1382 14.1709 1249 112.73 729.564 437.723
933 0 87.2595 10.761 939 119.829 730.007 431.784
934 0 94.4226 16.3202 1541 113.693 731.049 432.439
935 0 96.1683 14.2355 1369 117.958 731.375 431.529
936 0 98.3642 12.2911 1209 120.843 731.954 431.076
937 0 101.358 11.9872 1215 120.981 732.193 431.342
938 0 106.293 14.667 1559 116.65 732.524 426.859
939 0 111.356 14.7186 1639 114.46 733.189 427.982
940 1 58.0997 8.89849 517 117.132 733.911 450.282
941 0 58.0997 8.84686 514 134.689 734.912 450.239
942 0 69.5858 13.2786 924 112.645 734.669 451.914
943 0 69.5858 13.2786 924 134.686 734.727 452.047
944 0 73.1898 15.6853 1148 108.106 735.396 447.538
945 0 75.2474 17.5554 1321 104.855 735.75 448.325
946 0 74.3526 12.6156 938 113.915 735.81 450.388
947 0 78.203 13.8869 1086 112.459 735.129 449.572
948 0 79.3001 11.8159 937 117.356 736.319 446.291
949 0 80.1677 12.3366 989 117.381 735.98 444.647
950 0 85.1851 15.4252 1314 111.887 735.415 444.517
951 0 89.1768 17.0224 1518 107.621 735.107 451.526
952 0 87.1359 11.3042 985 120.518 734.54 444.968
953 0 93.1939 14.883 1387 113.735 734.822 444.702
954 0 94.1623 11.9793 1128 120.889 733.103 443.762
955 0 94.1623 12.0749 1137 150.361 731.098 444.021
956 0 100.203 12.4348 1246 121.05 732.572 440.188
957 0 104.323 15.0782 1573 115.497 731.111 445.298
958 0 106.267 11.2547 1196 122.955 730.846 444.796
959 0 110.141 15.1805 1672 118.237 729.284 440.386
960 0 110.163 12.4361 1370 124.065 729.299 436.845
961 0 117.233 13.9721 1638 120.715 728.194 435.222
962 1 64.0432 12.0544 772 118.991 732.461 457.578
963 0 67.3989 11.5877 781 117.061 729.462 456.242
964 0 69.3945 11.0816 769 119.654 730.161 459.486
965 0 71.2342 12.2553 873 120.018 731.518 455.494
966 0 73.1673 15.5534 1138 116.008 729.628 450.514
967 0 81.1817 11.0739 899 120.996 730.036 452.722
968 0 74.158 9.10219 675 128.308 729.981 447.33
969 0 83.2238 17.7353 1476 111.85 729.177 446.967
970 0 83.2238 17.6632 1470 126.054 728.178 446.942
971 0 86.2135 13.6405 1176 120.602 730.175 440.771
972 0 90.2008 13.1595 1187 120.569 731.45 441.243
973 0 91.3571 12.6099 1152 121.335 730.654 441.33
974 0 94.411 12.2337 1155 123.244 731.728 435.821
975 0 95.2599 13.4789 1284 121.885 731.129 435.21
976 0 99.379 11.5215 1145 125.728 731.828 431.16
977 1 57.1118 9.68276 553 121.711 731.372 451.602
978 0 56.1039 8.71597 489 123.086 733.434 452.898
979 0 58.0876 11.3105 657 119.065 733.358 447.122
980 0 64.1559 11.7994 757 113.921 734.005 453.24
981 0 62.095 12.7546 792 111.274 733.461 449.434
982 0 66.1695 13.0876 866 111.159 732.852 452.494
983 0 66.1756 11.2881 747 109.656 732.693 445.727
984 0 67.1899 14.2283 956 105.182 733.593 447.798
985 0 67.1731 10.5251 707 109.127 734.404 453.909
986 0 72.1807 17.1791 1240 99.496 735.148 447.202
987 0 75.1737 14.4332 1085 103.413 735.3 443.716
988 0 78.2471 13.7769 1078 103.039 735.707 446.035
989 0 78.2383 16.0919 1259 102.337 736.318 446.239
990 0 81.2949 16.9752 1380 101.081 735.39 443.919
991 0 86.3144 13.7636 1188 103.469 735.514 442.7
992 0 88.1129 17.5911 1550 97.7174 734.293 451.774
993 0 89.412 11.2289 1004 106.645 734.235 446.385
994 0 94.3867 13.6778 1291 104.451 734.772 445.36
995 0 98.2939 12.6254 1241 105.18 733.633 444.937
996 0 98.1839 10.8776 1068 108.515 734.521 445.249
997 0 102.315 10.7511 1100 112.075 734.341 446.325
998 0 107.31 13.7919 1480 110.676 732.786 439.324
999 1 58.0906 11.4476 665 112.131 732.435 466.277
1000 0 59.2783 12.9221 766 109.629 732.257 465.507
1001 0 60.08 14.5639 875 107.583 731.165 463.437
1002 0 60.0892 14.6116 878 111.192 729.173 463.442
1003 0 63.103 11.7427 741 113.7 729.659 459.167
1004 0 64.2628 13.7716 885 110.516 730.049 457.123
1005 0 68.1575 16.9901 1158 105.905 729.182 454.285
1006 0 70.2335 15.7617 1107 107.939 728.32 455.872
1007 0 71.2212 13.0439 929 112.858 727.636 455.684
1008 0 72.3679 13.3485 966 112.95 727.451 452.266
1009 0 75.2055 13.7623 1035 111.79 727.701 452.817
1010 0 77.2251 12.8585 993 111.454 727.581 450.065
1011 0 78.1832 11.6521 911 114.566 727.897 449.482
1012 0 82.4507 13.6688 1127 111.65 728.21 443.564
1013 0 85.3324 14.9416 1275 110.674 728.39 443.125
1014 0 88.3558 13.2419 1170 113.611 728.478 440.744
1015 0 93.6045 14.4117 1349 111.391 726.939 441.132
1016 0 96.3039 14.7658 1422 111.261 727.994 437.075
1017 1 50.1063 11.9147 597 115.553 723.616 454.786
1018 0 52.243 13.4563 703 113.617 723.723 456.519
1019 0 53.1287 11.8956 632 118.714 724.141 450.894
1020 0 55.1926 13.1358 725 116.614 724.705 451.359
1021 0 59.4406 15.5786 926 112.019 725.499 448.407
1022 0 58.3747 13.8074 806 115.091 725.763 450.934
1023 0 62.275 14.0987 878 114.167 726.833 449.005
1024 0 63.2252 14.8833 941 113.46 726.372 444.749
1025 0 67.2123 13.7772 926 114.339 728.186 448.052
1026 0 66.4189 14.3935 956 115.068 728.985 443.824
1027 0 68.3322 12.5856 860 117.352 730.838 446.291
1028 0 73.2931 12.8934 945 114.132 736.515 448.687
1029 0 74.344 15.0382 1118 112.069 736.144 442.995
1030 0 77.2936 14.4514 1117 112.966 736.336 444.665
1031 0 77.3081 14.19 1097 113.796 737.122 443.335
1032 0 80.2367 13.3979 1075 114.081 737.133 448.017
1033 0 84.2727 17.479 1473 107.372 738.037 446.653
1034 0 85.4969 17.2755 1477 108.484 736.269 446.951
1035 0 90.3282 16.119 1456 110.144 737.391 444.137
1036 0 92.5315 17.0645 1579 109.804 735.44 444.666
1037 0 92.2584 11.9122 1099 117.711 736.876 444.592
1038 0 99.3126 15.3254 1522 111.343 736.754 443.769
1039 1 56.221 9.35594 526 113.143 736.985 468.745
1040 0 56.3891 12.9812 732 111.406 735.825 465.716
1041 0 58.4546 11.1369 651 112.453 736.578 466.879
1042 0 61.4362 14.9423 918 105.379 735.186 464.161
1043 0 63.1068 14.8003 934 105.655 734.575 463.406
1044 0 66.2102 13.8951 920 106.404 733.539 462.365
1045 0 65.0889 12.5828 819 109.12 732.249 463.778
1046 0 70.1005 12.9814 910 109.142 732.864 459.299
1047 0 71.3189 13.1382 937 108.17 731.194 462.807
1048 0 71.1905 11.2515 801 118.382 731.13 454.593
1049 0 76.1667 12.3413 940 116.021 731.546 457.314
1050 0 80.1463 13.2633 1063 113.925 729.689 456.464
1051 0 82.2132 14.0245 1153 113.489 731.57 454.698
1052 0 83.1688 16.6889 1388 110.287 730.569 449.414
1053 0 85.2043 12.5463 1069 115.925 730.682 450.915
1054 0 88.1627 14.2577 1257 113.77 729.588 444.124
1055 0 92.1815 10.6637 983 119.17 730.608 443.179
1056 0 97.4092 13.8385 1348 113.152 731.206 443.371
1057 0 96.13 10.7459 1033 119.806 731.104 436.272
1058 0 101.197 15.0103 1519 112.92 731.044 438.283
1059 0 103.311 13.106 1354 116.739 732.016 437.103
1060 0 112.284 17.5893 1975 108.126 732.03 434.678
1061 1 57.1327 10.2743 587 120.448 732.012 451.961
1062 0 60.2029 15.8962 957 109.805 732.246 453.787
1063 0 60.2877 12.7555 769 115.618 731.273 453.127
1064 0 62.1753 13.6549 849 115.192 732.329 448.024
1065 0 65.2875 13.5861 887 114.477 732.864 449.78
1066 0 66.3928 15.5137 1030 111.688 733.053 448.464
1067 0 68.2714 12.5382 856 115.746 733.352 451.833
1068 0 70.191 13.7482 965 114.121 734.388 448.258
1069 0 74.2177 13.393 994 114.881 734.808 446.336
1070 0 76.2967 12.2286 933 116.832 735.138 443.334
1071 0 79.1717 13.2876 1052 114.961 736.462 435.696
1072 0 83.4649 13.946 1164 113.644 735.536 444.873
1073 0 79.2443 8.78296 696 124.073 736.616 438.861
1074 0 86.3029 13.6959 1182 113.617 737.163 444.169
1075 0 86.3029 13.7886 1190 129.771 736.163 444.06
1076 1 48.1145 11.9507 575 114.816 738.72 461.026
1077 0 53.2364 14.5014 772 108.9 737.984 465.171
1078 0 55.1484 11.2424 620 115.324 736.618 465.344
1079 0 55.433 14.035 778 112.12 737.181 461.506
1080 0 55.0617 12.0774 665 118.122 735.91 460.953
1081 0 58.3474 13.6938 799 113.69 737.309 464.794
1082 0 61.2422 12.5404 768 116.854 736.938 462.846
1083 0 60.1742 10.0708 606 121.752 737.665 463.074
1084 0 63.2515 12.5531 794 118.474 735.273 461.623
1085 0 68.567 13.928 955 115.12 734.662 459.283
1086 0 73.5386 17.1203 1259 107.898 734.609 465.551
1087 0 69.5182 13.0469 907 117.95 734.122 457.259
1088 0 70.348 15.068 1060 114.344 731.653 460.104
1089 0 73.3349 13.0088 954 116.204 731.55 457.94
1090 0 80.3321 14.1413 1136 110.899 729.55 460.931
1091 0 77.4251 11.9729 927 116.013 730.112 451.616
1092 0 83.337 13.8354 1153 112.761 730.755 453.43
1093 0 84.199 15.7365 1325 110.789 730.004 448.308
1094 0 87.3181 13.9375 1217 112.638 728.779 449.094
1095 0 92.5701 18.4185 1705 105.326 728.489 447.777
1096 0 90.1819 12.2197 1102 116.37 728.678 446.39
1097 0 96.4208 13.2751 1280 113.281 728.383 448.58
1098 0 98.3799 10.8355 1066 118.011 727.941 443.518
1099 1 54.4128 12.0192 654 110.674 727.301 461.998
1100 0 56.2213 14.0694 791 108.522 727.74 459.649
1101 0 57.2811 12.9886 744 110.953 727.999 458.286
1102 0 57.0815 12.2807 701 111.194 727.019 460.251
1103 0 61.1142 13.9411 852 109.61 729.018 453.296
1104 0 62.1586 10.2319 636 114.266 730.858 456.796
1105 0 64.2225 17.4082 1118 105.163 730.523 451.592
1106 0 64.2025 10.4202 669 115.901 731.134 452.173
1107 0 65.1621 12.1543 792 115.576 731.252 448.6
1108 0 65.1621 12.2617 799 133.451 732.282 448.642
1109 0 65.1424 12.2961 801 132.878 733.286 448.622
1110 0 76.1847 15.1737 1156 110.298 733.6 444.913
1111 0 75.2428 10.3797 781 118.484 734.432 446.825
1112 0 76.2249 11.1381 849 118.445 734.746 447.988
1113 0 80.3045 12.079 970 116.871 734.613 446.071
1114 0 83.0848 12.06 1002 118.078 734.432 444.736
1115 0 86.292 11.9362 1030 117.52 734.729 444.488
1116 0 88.2899 13.9767 1234 115.321 735.182 439.141
1117 0 92.2488 12.7806 1179 116.277 733.902 444.263
1118 0 99.2056 18.9102 1876 105.583 736.27 443.625
1119 0 99.3016 13.1317 1304 116.353 735.674 440.604
1120 0 100.189 12.167 1219 119.642 736.518 440.379
1121 0 103.18 12.4539 1285 119.714 736.142 438.812
1122 1 58.0417 12.8356 745 115.536 736.611 464.403
1123 0 59.2573 13.3654 792 115.774 735.725 464.625
1124 0 64.2111 14.3277 920 110.005 735.811 466.16
1125 0 62.1318 14.6141 908 113.209 735.865 461.691
1126 0 64.1469 10.5539 677 120.066 735.843 461.08
1127 0 67.1621 12.4922 839 118.043 734.866 463.373
1128 0 67.2539 11.0625 744 120.867 733.444 462.237
1129 0 70.2775 13.0767 919 116.754 732.371 464.676
1130 0 74.162 19.5518 1450 103.768 731.772 468.731
1131 0 76.1589 16.006 1219 112.078 730.846 461.879
1132 0 74.1966 9.51526 706 122.84 730.599 461.144
1133 0 80.1203 11.3579 910 120.162 730.371 458.352
1134 0 81.2399 12.9862 1055 118.89 729.208 454.489
1135 0 81.2518 12.8859 1047 116.02 729.2 454.601
1136 0 86.3484 12.0906 1044 120.379 729.317 448.445
1137 0 88.1749 14.8342 1308 117.047 729.504 447.763
1138 0 91.3321 12.7337 1163 120.952 727.923 445.696
1139 0 91.2946 12.1365 1108 122.026 726.894 446.866
1140 0 98.2874 13.2977 1307 120.731 728.113 442.043
1141 0 100.226 14.2778 1431 119.628 727.379 442.783
1142 0 102.288 14.2245 1455 122.343 725.586 437.26
1143 0 102.288 14.3418 1467 129.766 724.602 437.2
1144 1 58.0596 10.1792 591 124.487 727.579 456.519
1145 0 62.1109 13.0734 812 116.09 728.249 458.504
1146 0 63.1417 14.8713 939 113.039 728.692 454.973
1147 0 66.2293 17.0317 1128 109.526 729.597 454.44
1148 0 66.1186 13.0372 862 116.904 729.515 451.329
1149 0 67.1995 13.5269 909 117.091 730.75 447.169
1150 0 72.2569 15.5833 1126 112.885 729.684 447.303
1151 0 73.3379 15.0809 1106 113.84 730.757 449.146
1152 0 76.2807 14.5777 1112 115.022 732.239 445.445
1153 0 78.3551 13.9366 1092 117.598 731.451 442.947
1154 0 78.3551 13.6813 1072 128.917 730.494 442.694
1155 0 85.1864 13.5937 1158 116.523 732.543 444.731
1156 0 86.2918 14.8682 1283 115.221 733.17 443.672
1157 0 88.2538 12.0788 1066 120.079 733.963 437.41
1158 0 92.1485 14.3681 1324 116.326 733.295 439.421
1159 0 94.338 12.6566 1194 118.65 735.875 438.996
1160 0 99.4868 14.9769 1490 114.565 735.37 439.953
1161 1 56.0498 9.68781 543 120.112 737.562 458.333
1162 0 56.2172 11.42 642 118.184 735.833 459.769
1163 0 56.2172 11.4378 643 119.163 733.851 459.611
1164 0 62.2384 11.8737 739 116.583 736.322 456.512
1165 0 63.1004 12.6941 801 114.513 736.618 458.026
1166 0 64.0872 11.8276 758 116.761 736.335 457.574
1167 0 66.1482 11.1265 736 117.552 735.601 457.44
1168 0 69.1155 13.5715 938 112.368 734.705 460.029
1169 0 73.4739 15.9785 1174 108.232 734.269 456.169
1170 0 74.186 12.9 957 113.588 733.868 458.069
1171 0 76.1787 13.2452 1009 112.969 733.743 455.009
1172 0 81.3056 12.6191 1026 113.824 732.634 455.992
1173 0 84.1652 12.8081 1078 112.543 732.616 457.71
1174 0 84.3241 9.17887 774 118.535 732.102 459.813
1175 0 87.276 13.3141 1162 112.797 731.247 455.98
1176 0 91.2379 13.2182 1206 112.795 729.793 454.726
1177 0 94.5002 12.3703 1169 115.322 730.271 448.827
1178 0 98.5632 14.5085 1430 112.159 729.55 445.521
1179 0 98.3385 12.7926 1258 116.897 728.211 441.965
1180 0 105.452 14.0822 1485 112.98 728.818 443.501
1181 1 56.566 11.2081 634 116.12 727.017 461.738
1182 0 60.4746 10.0042 605 117.636 727.031 462.03
1183 0 61.0648 15.2788 933 105.42 727.833 461.882
1184 0 62.146 14.305 889 108.444 727.564 457.713
1185 0 63.1055 9.8565 622 113.452 728.719 457.783
1186 0 65.1933 15.7071 1024 104.616 728.165 458.834
1187 0 65.1056 13.5165 880 108.926 729.299 454.675
1188 0 70.2118 16.6496 1169 104.5 728.494 451.786
1189 0 69.177 13.4582 931 109.925 728.872 454.382
1190 0 73.1674 17.4258 1275 104.567 728.78 451.743
1191 0 74.1343 10.7777 799 115.035 729.884 451.17
1192 0 75.1221 12.4597 936 115.034 730.294 444.099
1193 0 80.2006 14.8503 1191 110.707 729.975 442.986
1194 0 82.1137 12.641 1038 114.675 730.903 440.481
1195 0 83.189 14.99 1247 111.533 730.686 437.463
1196 0 84.1118 10.7119 901 116.769 732.604 443.547
1197 0 90.2125 12.0604 1088 115.847 732.607 438.972
1198 0 90.2924 14.0654 1270 112.943 732.624 439.668
1199 0 93.2838 11.9206 1112 117.28 733.809 438.558
1200 0 96.1502 13.9469 1341 114.39 734.084 436.339
1201 0 97.3996 11.7044 1140 119.007 734.712 434.866
1202 0 100.176 9.52325 954 122.269 734.279 431.794
1203 0 106.36 15.7013 1670 112.932 736.072 428.808
1204 0 110.552 14.0838 1557 118.659 735.107 430.235
1205 0 113.562 14.6616 1665 115.944 735.544 429.806
1206 0 117.288 13.1727 1545 120.536 736.74 431.397
1207 0 122.432 9.81769 1202 124.09 735.136 429.052
1208 0 122.432 9.93204 1216 147.484 733.139 429.094
1209 1 71.2435 12.0432 858 116.504 735.322 455.277
1210 0 71.2263 13.0008 926 132.005 737.248 456.541
1211 0 76.2688 13.0722 997 118.481 735.403 454.096
1212 0 78.266 15.8178 1238 114.824 735.879 448.934
1213 0 80.2644 13.9165 1117 118.654 733.959 457.217
1214 0 83.4319 13.6638 1140 119.91 734.696 452.719
1215 0 87.4502 13.5048 1181 120.788 732.35 452.074
1216 0 90.5827 15.6211 1415 117.32 731.229 450.566
1217 0 93.2169 15.2118 1418 118.154 732.042 452.147
1218 0 95.3541 14.4933 1382 120.211 730.781 449.907
1219 0 96.5352 13.073 1262 123.736 729.754 445.587
1220 0 101.434 13.388 1358 123.222 729.859 443.602
1221 0 103.557 12.9398 1340 121.882 728.197 449.157
1222 0 106.217 15.7036 1668 118.622 728.788 443.957
1223 0 110.618 14.1116 1561 121.039 727.644 441.93
1224 0 113.227 15.0847 1708 120.641 727.892 440.307
1225 0 117.276 14.0438 1647 121.689 728.064 436.846
1226 0 119.286 14.4275 1721 122.31 728.26 433.596
1227 0 121.375 15.1514 1839 123.027 727.192 427.887
1228 0 128.213 16.2931 2089 119.846 727.159 424.038
1229 0 132.32 16.3996 2170 116.546 727.927 422.242
1230 0 135.459 12.3432 1672 124.468 727.425 419.764
1231 0 141.204 14.3197 2022 120.455 728.394 417.281
1232 1 78.4336 13.1959 1035 116.463 727.922 446.866
1233 0 79.4124 11.2703 895 119.453 728.409 443.094
1234 0 82.2066 14.6582 1205 113.456 729.202 444.206
1235 0 87.2734 13.727 1198 114.845 731.276 441.356
1236 0 91.1701 16.2553 1482 111.261 730.308 436.321
1237 0 91.1602 10.8381 988 120.704 732.246 433.355
1238 0 97.2916 15.5717 1515 111.384 732.25 435.124
1239 0 97.2387 13.688 1331 115.735 733.944 433.546
1240 0 101.19 13.0152 1317 117.8 733.55 430.056
1241 0 104.216 12.0711 1258 118.269 734.547 429.542
1242 0 108.213 15.0445 1628 113.501 734.907 428.186
1243 0 111.161 14.5915 1622 114.24 736.224 427.516
1244 0 115.372 13.0361 1504 118.048 735.774 419.517
1245 0 116.172 13.1271 1525 120.519 735.542 424.698
1246 0 120.289 12.3952 1491 118.659 736.472 421.897
1247 0 125.285 11.9887 1502 120.543 736.156 420.545
1248 0 129.297 13.7281 1775 117.345 735.763 424.487
1249 0 135.347 16.5131 2235 113.542 734.336 419.765
1250 0 140.382 14.9521 2099 116.129 735.278 419.957
1251 1 77.2159 15.774 1218 108.274 735.576 454.24
1252 0 81.083 13.4184 1088 116.121 737.498 450.389
1253 0 81.0909 10.5684 857 122.383 736.687 449.988
1254 0 85.1346 12.6388 1076 119.651 736.383 447.757
1255 0 91.218 21.8488 1993 104.392 735.449 445.374
1256 0 91.0966 11.5262 1050 121.996 735.31 449.358
1257 0 94.0951 17.7161 1667 113.062 734.764 448.824
1258 0 95.2963 10.5251 1003 120.459 731.225 454.983
1259 0 96.1786 13.9636 1343 117.213 732.025 449.54
1260 0 97.08 10.548 1024 124.743 729.957 447.058
1261 0 104.221 15.1697 1581 117.218 729.613 444.375
1262 0 106.101 12.375 1313 123.48 729.466 440.652
1263 0 108.266 13.67 1480 123.22 731.449 433.969
1264 0 115.383 14.3349 1654 119.857 730.695 436.154
1265 0 115.299 12.9316 1491 124.125 729.309 434.531
1266 0 120.311 15.1441 1822 120.094 729.373 433.39
1267 0 123.385 11.2007 1382 126.134 730.097 434.701
1268 1 72.131 11.2573 812 122.5 728.668 453.663
1269 0 72.1556 11.2812 814 123.485 728.135 449.365
1270 0 70.2042 10.0136 703 124.371 728.536 453.178
1271 0 77.3391 10.357 801 125.889 727.662 447.779
1272 0 75.3309 11.5358 869 125.399 727.426 444.535
1273 0 81.3885 17.3612 1413 115.517 727.958 440.696
1274 0 82.3871 14.3712 1184 121.637 727.464 441.496
1275 0 84.4654 11.8155 998 125.805 728.484 438.902
1276 0 87.3868 13.1484 1149 125.437 728.231 437.67
1277 0 88.1988 12.8913 1137 126.459 729.303 432.259
1278 0 91.3149 11.882 1085 127.537 730.077 435.98
1279 0 90.1978 11.8517 1069 130.156 729.539 430.393
1280 0 90.1978 11.9072 1074 142.194 729.545 430.349
1281 0 98.161 13.2028 1296 127.058 732.359 430.086
1282 0 106.285 16.0229 1703 119.721 733.253 431.341
1283 0 106.285 16.117 1713 129.378 734.259 431.435
1284 0 107.215 13.0112 1395 127.864 734.872 427.65
1285 0 111.296 19.3088 2149 117.192 733.359 420.917
1286 0 110.257 13.3778 1475 128.824 732.307 426.901
1287 0 116.248 14.2884 1661 126.157 735.113 419.374
1288 0 117.25 14.6695 1720 135.628 737.131 419.949
1289 0 125.235 18.3655 2300 118.052 736.025 422.675
1290 1 69.0586 9.51365 657 130.651 737.79 453.349
1291 0 73.1221 12.4723 912 124.438 737.853 450.322
1292 0 74.1877 11.6731 866 121.304 736.259 448.966
1293 0 78.0647 14.0653 1098 116.06 736.958 449.023
1294 0 82.2651 16.07 1322 110.592 737.209 450.123
1295 0 84.0858 13.177 1108 116.373 736.84 447.693
1296 0 86.1034 13.6464 1175 116.49 736.002 444.877
1297 0 90.1699 14.5503 1312 114.05 736.131 451.169
1298 0 91.1115 12.139 1106 119.252 735.856 449.521
1299 0 93.1798 11.6549 1086 119.915 733.382 446.599
1300 0 96.1349 11.6087 1116 120.182 734.931 445.665
1301 0 100.243 16.2705 1631 112.866 732.962 448.418
1302 0 104.207 11.909 1241 119.539 732.939 447.017
1303 0 105.258 11.429 1203 122.374 732.221 440.751
1304 0 108.223 12.2617 1327 120.623 731.056 445.904
1305 0 112.253 14.1289 1586 117.913 731.034 441.648
1306 0 114.27 14.7458 1685 122.69 732.034 439.966
1307 0 120.253 13.7959 1659 118.304 729.741 436.775
1308 1 72.0849 11.7917 850 118.916 727.399 455.788
1309 0 73.0438 16.497 1205 114.451 728.923 449.913
1310 0 75.1411 14.2399 1070 118.7 728.302 449.535
1311 0 78.1378 11.7613 919 122.767 727.419 443.719
1312 0 80.1707 11.5753 928 124.348 727.218 444.653
1313 0 87.1458 15.0323 1310 115.811 728.234 440.808
1314 0 88.1353 14.1941 1251 118.076 727.056 437.968
1315 0 90.1519 11.8578 1069 121.851 728.485 439.937
1316 0 94.1 14.4633 1361 117.519 728.425 434.957
1317 0 96.1051 11.5707 1112 123.547 729.337 430.237
1318 0 100.106 13.1461 1316 120.972 729.654 426.915
1319 0 103.337 17.1962 1777 113.308 730.956 429.017
1320 0 102.106 14.1912 1449 120.54 730.602 423.337
1321 0 107.164 12.2056 1308 122.37 731.785 427.31
1322 0 110.214 14.1179 1556 120.21 731.477 423.331
1323 0 111.216 12.3993 1379 123.371 733.213 420.574
1324 0 114.272 13.5728 1551 121.279 734.07 421.828
1325 1 64.0321 13.7587 881 113.731 732.057 448.701
1326 0 68.1924 13.0513 890 113.406 734.06 450.379
1327 0 66.2883 12.9736 860 115.97 732.946 440.93
1328 0 68.2881 10.69 730 120.415 734.066 444.262
1329 0 70.2065 10.113 710 121.237 733.528 449.511
1330 0 74.1074 12.8867 955 115.073 733.168 450.768
1331 0 76.1413 13.8427 1054 115.452 733.472 443.89
1332 0 80.08 15.6718 1255 111.454 733.13 446.57
1333 0 79.1394 11.1323 881 118.613 734.279 448.351
1334 0 83.1475 13.8549 1152 114.773 732.971 446.367
1335 0 85.2675 12.408 1058 117.706 734.68 445.054
1336 0 87.086 12.126 1056 118.118 733.516 442.555
1337 0 91.1852 12.9297 1179 116.514 733.146 446.737
1338 0 95.3239 15.1483 1444 113.4 733.406 444.778
1339 0 96.3393 11.9162 1148 119.181 733.433 437.899
1340 0 100.258 14.6622 1470 115.106 732 442.432
1341 0 101.342 13.6666 1385 117.878 732.1 435.53
1342 0 106.465 13.3471 1421 117.295 731.277 439.894
1343 0 108.34 13.6422 1478 116.648 731.779 436.629
1344 0 110.41 10.6512 1176 121.574 730.252 431.734
1345 1 64.1622 9.70977 623 112.576 731.913 464.085
1346 0 67.2995 11.8872 800 109.518 730.815 455.778
1347 0 68.2354 15.8715 1083 104.424 730.796 454.887
1348 0 71.1029 12.6718 901 108.94 729.779 455.15
1349 0 75.1601 12.7461 958 108.642 728.552 452.78
1350 0 74.0782 11.1099 823 112.815 728.84 450.615
1351 0 78.1088 12.7899 999 111.043 726.042 452.894
1352 0 78.121 12.8903 1007 114.694 724.039 452.997
1353 0 83.1326 15.1806 1262 108.308 725.777 446.303
1354 0 88.2274 13.2499 1169 109.504 727.097 446.082
1355 0 86.2444 14.1342 1219 111.66 724.961 439.918
1356 0 92.2413 14.2344 1313 109.454 726.255 442.122
1357 0 94.1544 14.4656 1362 109.76 727.684 439.349
1358 0 99.0729 12.617 1250 110.623 727.95 440.318
1359 0 99.0729 12.5463 1243 117.564 727.952 440.267
1360 1 60.1747 8.89078 535 115.234 728.009 453.697
1361 0 57.1693 7.45156 426 117.904 729.117 452.296
1362 0 57.0742 10.1097 577 113.293 728.045 450.213
1363 0 60.1889 11.5636 696 111.366 728.195 452.897
1364 0 63.2198 11.9108 753 113.252 729.835 444.906
1365 0 63.4413 11.9323 757 112.292 731.38 442.509
1366 0 66.2746 10.1547 673 115.106 731.29 444.688
1367 0 66.3781 13.634 905 110.961 733.019 442.214
1368 0 69.3836 11.3139 785 113.343 733.952 444.898
1369 0 72.4385 10.5745 766 115.422 733.838 437.252
1370 0 75.3142 12.5076 942 113.655 733.609 439.152
1371 0 76.1875 10.7498 819 114.068 734.968 447.405
1372 0 82.3659 14.5084 1195 107.526 735.358 444.15
1373 0 82.3984 10.3764 855 115.036 736.334 435.432
1374 0 84.2194 10.4014 876 114.65 735.592 442.049
1375 0 91.3836 13.2081 1207 109.232 736.435 440.845
1376 0 90.327 13.3294 1204 110.728 735.708 438.039
1377 0 95.2557 13.616 1297 109.588 735.811 442.37
1378 0 95.2 13.6555 1300 110.903 734.87 437.911
1379 0 98.1598 16.952 1664 106.2 735.464 440.717
1380 0 103.385 13.2998 1375 111.373 733.104 438.815
1381 0 105.246 11.4019 1200 114.266 733.821 441.1
1382 0 106.478 12.5096 1332 113.026 732.983 439.523
1383 0 109.329 14.7719 1615 108.334 734.586 442.688
1384 0 113.407 9.19695 1043 114.895 733.656 444.383
1385 0 113.407 9.26749 1051 136.452 731.639 444.314
1386 0 120.543 11.9957 1446 110.882 732.349 438.567
1387 0 124.343 14.1946 1765 110.805 732.738 425.436
1388 0 129.811 12.1638 1579 113.989 730.206 427.817
1389 1 73.2771 14.2882 1047 106.429 731.738 456.804
1390 0 74.0739 10.4085 771 110.292 731.709 454.064
1391 0 76.1282 15.0142 1143 103.732 729.652 450.796
1392 0 81.213 11.7469 954 107.317 729.282 446.158
1393 0 80.2592 10.815 868 109.525 727.975 447.581
1394 0 85.176 13.7832 1174 106.939 726.814 445.118
1395 0 87.2499 13.9828 1220 105.82 728.085 446.269
1396 0 95.2594 10.3297 984 111.197 727.022 445.152
1397 0 92.2288 11.6558 1075 111.406 728.207 441.145
1398 0 96.3015 11.952 1151 111.632 726.805 436.61
1399 0 99.3511 12.8735 1279 110.446 728.171 440.507
1400 0 102.359 15.1916 1555 108.898 726.869 432.985
1401 0 103.304 10.1255 1046 117.634 727.144 430.985
1402 0 110.473 11.3964 1259 117.622 727.273 429.5
1403 1 61.1262 11.8771 726 110.242 728.464 452.967
1404 0 61.1262 11.9589 731 121.606 729.482 452.947
1405 0 65.1543 13.2915 866 110.395 730.092 447.749
1406 0 69.1858 12.8928 892 110.372 731.156 448.016
1407 0 69.363 14.662 1017 109.021 730.39 447.035
1408 0 73.3163 13.8987 1019 109.896 731.305 446.261
1409 0 75.1784 13.1421 988 111.989 731.511 442.194
1410 0 77.2267 12.8971 996 112.669 732.917 439.285
1411 0 80.1502 14.6974 1178 108.421 733.183 443.066
1412 0 80.1495 12.8136 1027 113.688 733.524 438.462
1413 0 85.1506 12.8831 1097 113.112 733.949 438.413
1414 0 84.2268 11.2197 945 117.688 734.151 436.264
1415 0 90.3063 13.3435 1205 112.212 735.393 443.013
1416 0 91.314 11.6631 1065 117.898 734.962 438.453
1417 0 94.2383 12.2668 1156 116.951 736.276 440.074
1418 0 101.362 12.1248 1229 116.832 735.947 440.127
1419 0 100.147 10.3847 1040 121.926 735.856 435.325
1420 0 103.223 8.95147 924 123.361 735.756 439.168
1421 1 60.0772 10.0704 605 116.26 735.322 465.785
1422 0 61.0727 11.1506 681 115.032 735.78 460.752
1423 0 63.1115 12.5334 791 114.212 735.836 458.603
1424 0 65.0962 12.397 807 114.166 735.527 456.473
1425 0 66.1119 13.0839 865 112.664 735.801 460.856
1426 0 67.2387 11.1097 747 116.531 734.708 460.734
1427 0 70.1107 13.6784 959 112.668 735.138 459.082
1428 0 71.0594 12.1448 863 115.48 734.125 460.774
1429 0 74.0924 14.4414 1070 111.467 733.926 459.125
1430 0 75.0868 10.0018 751 119.35 732.569 454.101
1431 0 81.2797 13.2259 1075 113.558 731.717 453.763
1432 0 82.143 12.1982 1002 118.818 730.859 453.343
1433 0 87.0645 11.4628 998 119.529 732.007 450.947
1434 0 89.1221 14.2613 1271 115.364 730.061 446.683
1435 0 94.1821 17.2963 1629 109.211 730.616 448.041
1436 0 91.2473 11.4414 1044 120.063 728.115 444.632
1437 0 96.3268 13.6515 1315 115.105 727.493 448.258
1438 0 99.3454 11.5959 1152 119.398 726.904 447.981
1439 0 98.1431 10.2605 1007 121.003 725.379 444.394
1440 0 98.2374 8.71358 856 121.06 726.606 449.942
1441 1 109.331 11.2593 1231 121.645 726.291 435.076
1442 0 114.237 12.1851 1392 121.597 725.812 428.474
1443 0 118.457 14.7902 1752 118.381 726.336 422.985
1444 0 122.228 15.8965 1943 113.239 726.255 424.261
1445 0 124.219 11.9546 1485 120.383 727.332 422.313
1446 1 69.1897 15.8116 1094 110.631 726.993 445.254
1447 0 69.0905 11.1737 772 118.588 729.014 447.873
1448 0 71.1214 11.5437 821 118.719 727.01 444.976
1449 0 75.1224 12.8324 964 115.763 728.668 442.645
1450 0 78.1375 14.2825 1116 113.562 730.39 444.646
1451 0 79.1871 13.7396 1088 112.436 729.958 448.973
1452 0 80.2105 12.916 1036 116.674 730.725 439.292
1453 0 83.2169 13.8794 1155 115.587 731.276 437.524
1454 0 83.2169 13.8794 1155 128.031 732.276 437.524
1455 0 89.4105 15.1213 1352 114.701 733.485 435.348
1456 0 91.255 14.0595 1283 115.847 733.188 440.656
1457 0 95.2385 14.5214 1383 116.136 734.045 436.87
1458 0 95.1686 14.7318 1402 116.608 735.185 434.927
1459 0 99.2802 15.6124 1550 114.852 734.034 435.923
1460 0 102.253 17.975 1838 110.702 735.56 439.091
1461 0 106.316 14.344 1525 117.719 735.662 435.943
1462 0 107.217 17.2641 1851 113.401 734.492 433.053
1463 0 109.334 17.5975 1924 113.467 735.055 432.625
1464 0 109.27 12.071 1319 123.743 733.917 429.989
1465 0 114.337 13.88 1587 120.174 734.741 429.144
1466 0 119.394 17.0192 2032 115.241 735.871 426.577
1467 0 124.342 14.2188 1768 119.071 734.091 430.023
1468 0 126.308 17.1406 2165 115.327 733.833 422.464
1469 0 127.417 15.877 2023 117.543 733.326 425.385
1470 0 132.657 12.7924 1697 122.404 733.075 424.032
1471 0 133.269 13.2514 1766 123.268 732.107 420.924
1472 0 139.523 19.7601 2757 112.305 732.099 421.949
1473 0 139.503 10.6234 1482 127.862 730.317 416.339
1474 0 149.496 16.9168 2529 115.239 730.719 423.283
1475 1 220.485 11.6878 2577 128.7 730.3 386.362
1476 0 215.31 10.7705 2319 126.2 728.93 401.282
1477 0 214.56 11.9826 2571 123.72 729.149 402.5
1478 0 216.606 10.6276 2302 123.88 728.225 409.109
1479 0 213.636 12.3481 2638 125.038 727.92 394.196
1480 0 218.557 12.6924 2774 127.199 727.609 378.614
1481 0 227.469 16.2792 3703 121.132 727.502 372.927
1482 0 226.47 14.9512 3386 123.77 727.654 376.957
1483 1 185.233 14.7598 2734 124.116 727.97 382.324
1484 0 190.474 14.3169 2727 124.082 727.459 384.109
1485 0 200.306 15.6261 3130 121.575 726.815 379.403
1486 0 203.293 14.5947 2967 124.058 728.284 372.062
1487 0 212.585 16.8074 3573 119.751 727.161 368.232
1488 0 218.798 15.2881 3345 122.429 726.28 369.631
1489 0 218.798 14.9956 3281 151.419 725.254 368.816
1490 1 231.492 14.5448 3367 123.936 726.968 358.258
1491 0 241.857 17.2209 4165 118.88 728.639 359.294
1492 0 252.06 18.0354 4546 118.237 729.611 344.141
1493 0 258.575 18.8765 4881 117.598 730.032 338.517
1494 1 69.1812 13.0382 902 111.471 731.208 440.532
1495 0 75.1655 14.3949 1082 107.571 731.23 444.462
1496 0 74.0901 11.7155 868 113.741 730.456 440.935
1497 0 78.2217 16.8368 1317 105.264 730.967 440.598
1498 0 81.164 15.8321 1285 105.768 730.3 445.344
1499 0 83.1475 13.1934 1097 109.401 732.118 443.021
1500 0 84.1792 11.6775 983 111.74 731.732 441.332
1501 0 88.415 12.1812 1077 110.036 732.8 443.683
1502 0 91.188 11.9533 1090 111.306 733.636 440.183
1503 0 95.2069 12.2995 1171 109.855 733.761 441.412
1504 1 47.1906 11.337 535 107.976 734.789 463.51
1505 0 53.3774 12.983 693 104.95 735.206 461.727
1506 0 53.0323 12.7281 675 104.2 734.264 463.794
1507 0 52.3583 9.58778 502 108.179 733.486 466.532
1508 0 55.1382 9.17694 506 107.595 734.352 467.634
1509 0 56.1408 11.7383 659 104.305 733.631 468.995
1510 0 58.1309 11.1129 646 105.619 733.961 468.574
1511 0 60.1182 9.46469 569 109.712 731.947 466.555
1512 0 62.149 11.1506 693 107.863 732.613 468.19
1513 0 66.0855 12.1055 800 107.569 732.78 465.048
1514 0 66.2811 10.3348 685 111.073 733.377 466.48
1515 0 67.3833 11.0265 743 111.081 731.381 462.229
1516 0 67.3833 11.1304 750 131.923 729.36 462.148
1517 0 72.1543 15.1481 1093 104.298 729.089 463.941
1518 0 68.288 9.75281 666 112.018 729.002 465.64
1519 0 67.1778 9.61628 646 111.153 728.122 469.692
1520 0 70.2395 10.7205 753 110.641 728.372 467.935
1521 1 47.0356 11.5445 543 112.308 727.759 473.289
1522 0 48.1682 20.0963 968 102.054 726.838 469.944
1523 0 45.1059 12.4152 560 114.5 727.484 469.066
1524 0 47.3072 12.979 614 116.388 727.153 470.433
1525 0 53.2785 16.4607 877 108.967 726.108 469.977
1526 0 62.1346 19.3612 1203 102.033 725.682 461.526
1527 0 59.229 14.6381 867 112.933 724.96 461.894
1528 0 59.1069 17.3245 1024 111.425 725.865 459.662
1529 0 57.0655 16.0167 914 116.184 725.166 461.109
1530 0 58.5216 14.4049 843 120.037 726.415 460.069
1531 0 60.1915 15.9491 960 118.033 725.42 458.993
1532 0 62.2306 17.0334 1060 118.265 727.571 454.9
1533 0 63.3413 14.114 894 123.056 727.998 457.524
1534 0 66.428 16.5141 1097 119.849 728.849 455.876
1535 0 67.3314 18.4312 1241 118.694 728.34 452.098
1536 0 66.297 13.711 909 129.982 730.329 449.126
1537 0 69.2691 15.3026 1060 127.565 730.573 449.314
1538 0 73.4358 17.294 1270 123.396 731.206 448.091
1539 0 72.2702 14.9854 1083 129.36 732.198 447.72
1540 0 75.2034 17.7253 1333 123.446 732.128 450.047
1541 0 77.3961 15.117 1170 129.561 733.029 444.743
1542 0 78.3429 14.845 1163 130.329 733.354 445.443
1543 0 81.297 14.5516 1183 133.278 733.298 441.096
1544 0 84.1693 15.1599 1276 129.194 733.614 439.405
1545 0 90.5922 16.933 1534 125.31 734.353 440.628
1546 0 87.3288 16.123 1408 130.757 734.112 438.974
1547 0 92.2888 17.5536 1620 127.946 734.1 438.08
1548 0 95.3629 17.2394 1644 127.095 734.686 437.734
1549 0 97.3037 15.5801 1516 129.592 733.945 435.856
1550 0 102.369 15.112 1547 129.831 733.789 436.076
1551 0 106.552 14.6313 1559 130.823 733.823 436.847
1552 0 107.612 13.1862 1419 131.347 733.43 437.791
1553 1 58.1597 12.7236 740 128.964 733.685 465.815
1554 0 61.2046 14.6394 896 126.828 734.372 465.25
1555 0 64.0912 14.6042 936 124.902 732.536 463.491
1556 0 65.0698 16.2595 1058 122.145 732.811 460.386
1557 0 66.0581 13.8968 918 126.842 732.345 462.156
1558 0 69.1847 14.4541 1000 126.344 730.898 457.701
1559 0 72.202 16.9109 1221 120.581 730.765 460.481
1560 0 75.2785 12.2744 924 130.088 730.042 460.653
1561 0 78.4108 15.2913 1199 124.19 729.637 456.485
1562 0 80.238 15.5787 1250 124.537 729.955 455.691
1563 0 80.238 15.5288 1246 143.14 728.935 455.595
1564 0 86.4426 14.9348 1291 127.445 730.148 446.517
1565 0 89.3567 17.0552 1524 122.776 729.17 447.594
1566 0 89.291 14.0776 1257 129.478 729.494 445.729
1567 0 91.2259 15.4561 1410 126.709 729.307 445.438
1568 0 95.2664 14.9266 1422 127.645 728.389 441.75
1569 0 99.3948 16.188 1609 123.426 728.112 444.725
1570 0 99.4886 15.248 1517 127.858 727.296 441.247
1571 0 103.308 14.9456 1544 129.12 728.124 432.805
1572 0 106.339 14.9427 1589 129.4 728.592 432.885
1573 0 108.334 16.2184 1757 127.654 728.679 430.167
1574 0 114.553 15.0585 1725 129.883 728.398 425.241
1575 0 117.627 14.8435 1746 131.011 729.612 425.471
1576 0 120.391 20.8405 2509 119.171 729.04 423.725
1577 0 126.377 17.7959 2249 123.563 729.887 421.938
1578 0 130.373 16.2074 2113 126.283 729.564 419.796
1579 0 130.373 16.3071 2126 149.776 729.56 419.779
1580 0 139.852 14.8871 2082 129.981 730.864 413.036
1581 0 142.469 16.4667 2346 126.676 731.204 414.482
1582 0 145.365 16.0698 2336 129.155 731.086 409.558
1583 0 150.579 17.26 2599 126.713 731.943 411.372
1584 0 155.495 14.5342 2260 132.135 732.454 411.243
1585 0 163.647 17.6295 2885 126.94 733.343 405.137
1586 0 171.59 12.728 2184 135.646 734.144 407.692
1587 0 173.786 16.8655 2931 129.854 732.97 403.783
1588 0 178.638 15.0248 2684 134.655 733.725 401.476
1589 0 184.922 16.3095 3016 132.574 735.305 401.876
1590 0 190.691 16.5398 3154 131.825 735.072 404.799
1591 0 195.726 13.6824 2678 138.315 735.578 402.919
1592 0 204.742 18.3939 3766 130.263 734.657 390.459
1593 1 156.403 13.9383 2180 141.34 735.562 416.274
1594 0 162.9 16.6728 2716 136.254 734.933 409.777
1595 0 170.378 16.704 2846 135.501 735.695 411.074
1596 0 173.626 15.7349 2732 139.158 733.752 407.022
1597 0 180.617 16.8755 3048 136.906 733.667 403.108
1598 0 187.69 17.2572 3239 136.326 733.897 402.475
1599 0 196.434 20.7601 4078 128.689 733.235 395.527
1600 0 200.79 16.2309 3259 138.477 733.064 398.966
1601 0 207.53 17.2939 3589 137.084 731.015 387.909
1602 0 214.681 18.7767 4031 134.017 731.26 391.772
1603 1 175.457 17.8278 3128 137.742 730.22 410.493
1604 0 181.675 17.5973 3197 139.277 728.576 407.998
1605 0 187.812 18.1831 3415 137.766 728.268 407.198
1606 0 194.327 18.0932 3516 138.407 727.699 399.565
1607 0 198.566 16.0652 3190 144.243 728.551 393.87
1608 0 205.742 17.1039 3519 140.571 727.365 397.888
1609 0 212.707 17.7145 3768 140.928 727.301 385.806
1610 0 222.691 16.3949 3651 142.661 727.913 387.282
1611 1 54.3534 12.3635 672 145.743 728.274 457.812
1612 0 58.4184 15.834 925 135.35 728.578 458.08
1613 0 58.3254 13.1675 768 142.566 727.216 455.928
1614 0 63.4409 17.4493 1107 132.466 728.276 452.649
1615 0 64.4812 17.2453 1112 133.25 727.829 448.808
1616 0 66.1807 16.1528 1069 134.964 729.537 447.734
1617 0 70.4879 15.6055 1100 135.418 729.486 444.707
1618 0 70.5119 15.7846 1113 135.541 728.671 445.701
1619 0 75.3104 16.2394 1223 133.424 729.029 440.97
1620 0 77.3238 16.0365 1240 134.326 730.527 438.29
1621 0 81.3541 18.4133 1498 128.555 729.629 436.369
1622 0 83.6596 19.412 1624 126.446 730.447 434.347
1623 0 83.6596 19.5076 1632 134.183 731.459 434.252
1624 0 89.5374 15.7923 1414 132.774 731.048 433.941
1625 0 90.4415 15.5681 1408 135.042 732.725 431.469
1626 0 94.6235 18.6106 1761 127.716 733.35 431.209
1627 0 98.3139 15.9489 1568 132.27 734.192 428.305
1628 0 100.509 20.2469 2035 124.606 734.606 428.233
1629 0 103.566 15.005 1554 134.245 734.962 424.822
1630 1 57.3084 13.6455 782 132.075 735.252 451.54
1631 0 61.6956 15.0902 931 129.244 735.916 450.514
1632 0 61.6956 15.1389 934 147.391 735.944 450.606
1633 0 63.4293 13.0697 829 135.258 735.764 448.97
1634 0 67.4244 18.8063 1268 123.595 737.241 448.848
1635 0 69.3508 15.5009 1075 130.368 736.219 448.798
1636 0 71.3525 15.052 1074 130.995 736.134 450.217
1637 0 75.5572 15.2732 1154 130.503 735.514 449.083
1638 0 76.2309 15.0333 1146 131.592 734.883 449.883
1639 0 78.3305 14.1197 1106 135.184 734.931 446.878
1640 0 82.8417 15.1614 1256 132.428 734.42 446.697
1641 1 93.9104 22.958 2156 114.566 734.867 441.375
1642 0 93.9104 23.0326 2163 120.275 735.851 441.453
1643 0 90.4136 16.0706 1453 132.147 733.681 443.562
1644 0 91.259 13.8178 1261 139.252 731.835 440.975
1645 0 96.4321 15.6587 1510 134.124 730.478 442.428
1646 0 96.4321 15.6068 1505 156.196 728.467 442.312
1647 0 102.616 18.2233 1870 129.652 729.482 440.648
1648 0 102.342 14.647 1499 139.031 728.254 432.171
1649 0 105.698 14.8631 1571 139.24 729.281 432.084
1650 0 109.512 13.7793 1509 140.259 727.585 434.089
1651 0 112.38 17.9925 2022 132.38 728.732 429.389
1652 0 119.503 19.0038 2271 129.927 728.725 432.183
1653 0 121.413 16.5797 2013 136.055 727.697 423.823
1654 0 123.266 14.8298 1828 141.275 726.429 422.583
1655 0 131.375 16.9134 2222 136.121 726.453 417.66
1656 0 136.186 16.9988 2315 136.58 725.932 413.984
1657 1 75.411 8.1951 618 144.32 727.332 444.259
1658 0 81.4168 15.3408 1249 131.606 727.911 441.157
1659 0 80.5351 12.7522 1027 139.056 727.626 435.036
1660 0 85.4119 15.3726 1313 132.054 727.922 436.805
1661 0 85.2619 11.9631 1020 143.225 728.312 428.974
1662 0 91.3079 14.8618 1357 135.301 728.94 428.715
1663 0 94.5022 15.6928 1483 133.848 730.338 425.86
1664 0 95.5315 14.1315 1350 137.679 729.344 423.773
1665 0 99.4053 17.655 1755 130.939 731.874 421.711
1666 0 101.641 13.833 1406 139.427 731.685 419.756
1667 0 103.26 13.587 1403 139.829 732.235 418.717
1668 0 109.53 14.0053 1534 136.859 732.698 421.804
1669 0 113.51 13.9283 1581 137.864 733.901 415.227
1670 0 116.284 15.5309 1806 134.233 733.567 418.313
1671 0 121.258 14.6465 1776 136.092 734.352 409.298
1672 0 126.646 15.7052 1989 133.354 734.532 410.443
1673 0 128.554 13.1307 1688 137.97 735.367 411.358
1674 1 74.3709 13.0965 974 126.185 734.949 441.761
1675 0 74.2325 10.0091 743 133.19 734.505 439.599
1676 0 79.2793 12.4118 984 129.165 734.883 443.289
1677 0 82.2073 13.6728 1124 128.186 733.458 442.827
1678 0 85.2685 12.0326 1026 131.84 734.704 438.203
1679 0 91.1653 15.0276 1370 124.919 735.023 443.303
1680 0 93.4242 16.9442 1583 122.658 734.262 439.948
1681 0 94.526 13.1287 1241 130.588 733.47 436.844
1682 0 98.3448 13.8289 1360 128.212 734.037 437.699
1683 0 103.373 14.5106 1500 127.713 732.86 435.133
1684 0 103.363 14.5216 1501 142.001 731.85 435.016
1685 0 103.39 14.5372 1503 141.461 730.858 434.957
1686 0 113.43 15.7013 1781 126.679 731.245 431.97
1687 0 113.375 13.0011 1474 133.959 730.84 422.613
1688 0 118.439 14.3027 1694 131.303 730.698 425.641
1689 0 121.427 12.7401 1547 135.968 729.244 414.348
1690 0 127.594 15.0007 1914 131.222 729.7 420.645
1691 0 132.461 15.0308 1991 131.633 728.632 418.146
1692 0 132.531 14.8569 1969 132.727 726.437 416.38
1693 0 136.329 10.7754 1469 142.609 726.296 408.405
1694 1 76.3691 10.2528 783 131.333 725.988 446.195
1695 0 77.1647 6.2723 484 140.308 726.269 440.078
1696 0 79.2053 11.6028 919 131.808 726.414 438.728
1697 0 85.5393 14.4846 1239 126.015 726.54 436.916
1698 0 86.4556 10.8726 940 133.516 725.805 436.224
1699 0 91.5571 14.1223 1293 128.442 726.575 433.703
1700 0 91.3342 14.0583 1284 127.528 727.618 435.755
1701 0 96.8512 11.5745 1121 134.818 727.558 429.237
1702 0 99.5093 9.59709 955 138.158 726.873 427.237
1703 0 101.479 13.4215 1362 130.114 728.374 431.463
1704 0 104.542 13.7074 1433 133.628 727.147 420.687
1705 0 105.241 13.3693 1407 134.02 728.82 421.811
1706 0 107.67 11.9903 1291 137.465 728.311 417.936
1707 0 111.662 13.7289 1533 134.273 729.303 416.813
1708 0 114.35 10.1356 1159 141.577 729.895 412.852
1709 0 118.711 11.8355 1405 139.098 731.643 408.401
1710 0 122.516 14.1451 1733 134.591 731.065 404.067
1711 0 125.491 13.7221 1722 135.603 732.005 405.47
1712 0 131.521 12.8801 1694 137.286 732.246 403.758
1713 0 134.667 14.599 1966 134.321 732.35 398.696
1714 0 135.535 11.1189 1507 142.44 733.597 399.294
1715 0 141.364 13.5041 1909 136.672 733.723 401.731
1716 0 148.573 13.798 2050 135.508 734.496 399.234
1717 0 148.534 13.7006 2035 136.392 735.477 399.185
1718 0 153.554 12.4907 1918 139.649 734.258 396.132
1719 0 157.8 12.801 2020 139.04 735.552 397.691
1720 0 162.675 11.36 1848 141.78 735.119 395.348
1721 0 169.47 12.8754 2182 138.522 735.323 395.655
1722 0 179.72 16.3755 2943 130.946 734.795 398.57
1723 0 181.623 12.3332 2240 141.409 734.926 389.869
1724 0 187.831 14.5556 2734 136.642 733.452 394.926
1725 0 193.967 13.3218 2584 141.373 732.968 384.135
1726 0 195.617 14.007 2740 139.643 733.853 387.449
1727 1 207.14 14.8836 3083 137.894 733.297 383.433
1728 0 213.719 13.2604 2834 142.281 731.688 378.7
1729 0 221.549 14.2767 3163 141.244 732.027 367.463
1730 0 230.518 16.1853 3731 137.255 728.958 370.877
1731 0 235.818 14.8462 3501 141.241 730.357 363.344
1732 1 47.0349 3.59307 169 124.692 728.929 459.509
1733 0 51.0893 7.82943 400 116.218 728.225 463.37
1734 0 51.0893 7.82943 400 108.145 727.198 463.575
1735 0 48.0775 5.59513 269 123.491 728.803 459.212
1736 0 51.0484 10.0297 512 113.082 727.922 463.641
1737 0 51.063 10.0856 515 107.583 726.922 463.437
1738 0 52.1681 5.48228 286 119.874 727.171 462.636
1739 0 54.1043 7.22678 391 115.24 727.358 464.969
1740 0 56.0783 8.82695 495 116.246 727.855 455.887
1741 0 55.1684 8.64625 477 116.346 727.654 457.979
1742 0 56.0985 7.879 442 115.713 729.228 458.482
1743 1 23.1727 8.11299 188 107.319 728.936 472.011
1744 0 22.1111 4.88443 108 111.306 728.111 472.306
1745 0 22.1565 7.22137 160 109.988 726.725 473.444
1746 0 21.0999 6.25595 132 112.311 727.258 471.015
1747 0 11.0186 6.44368 71 113.169 728.014 477.183
1748 1 24.024 6.70163 161 115.994 729.236 468.988
1749 0 22.1504 7.8554 174 113.006 730.121 469.667
