time division length width area intensity CMx CMy
0 0 66.1296 12.8233 848 137.147 133.475 453.904
1 0 70.2376 14.1662 995 128.691 132.475 452.147
2 1 37.1935 14.3573 534 126.558 132.384 470.468
3 0 39.0607 16.4872 644 120.075 131.992 470.783
4 0 36.054 14.0622 507 152.481 133.254 468.523
5 0 40.0614 15.0519 603 120.158 129.652 468.249
6 0 40.0614 15.2766 612 136.449 125.688 468.258
7 0 40.1148 12.0903 485 129.173 128.054 469.586
8 0 40.212 12.6082 507 124.826 128.639 469.604
9 0 44.0356 15.2149 670 122.039 128.287 467.272
10 0 41.1853 12.4802 514 128.887 129.352 467.031
11 0 43.0841 12.7657 550 130.049 128.235 464.269
12 0 45.0596 13.8483 624 126.587 128.598 464.173
13 0 47.074 14.8914 701 121.743 127.418 462.616
14 0 49.137 15.2024 747 120.846 127.53 459.003
15 0 48.2246 11.9026 574 127.188 127.183 461.31
16 0 52.1471 12.0428 628 124.619 126.863 458.338
17 0 53.1624 17.4559 928 119.459 125.504 454.611
18 0 57.0912 14.5907 833 126.585 125.558 453.289
19 0 57.0915 14.1177 806 120.264 125.418 452.578
20 0 58.04 14.1626 822 126.043 126.297 449.56
21 0 60.0759 15.9132 956 120.773 126.617 449.078
22 0 61.0835 15.9945 977 124.909 127.728 447.273
23 0 69.1699 13.8933 961 122.602 133.908 446.589
24 0 71.2419 15.1877 1082 120.881 133.311 443.791
25 0 67.1374 13.3607 897 126.157 136.654 443.873
26 0 68.1101 14.9904 1021 122.308 137.032 442.872
27 0 74.1742 16.0972 1194 119.152 136.034 440.905
28 0 75.2382 17.2386 1297 118.537 136.58 438.294
29 0 76.3336 16.9519 1294 117.422 136.806 436.143
30 0 81.144 18.9786 1540 114.747 135.715 435.456
31 0 81.2704 14.5317 1181 122.296 136.233 435.71
32 0 86.1822 15.6645 1350 120.247 136.765 435.696
33 0 82.2286 12.7693 1050 124.902 136.659 433.988
34 0 82.247 13.0582 1074 126.708 137.464 432.096
35 0 92.2742 16.0825 1484 121.59 137.354 430.046
36 0 100.276 15.7765 1582 117.936 139.573 433.171
37 0 99.2014 17.7215 1758 114.044 139.75 429.239
38 0 102.389 14.6402 1499 118.409 140.716 426.108
39 0 107.292 16.581 1779 113.092 139.519 428.614
40 0 115.257 16.3721 1887 110.15 138.724 428.82
41 0 115.42 16.4616 1900 112.808 138.883 425.265
42 0 117.22 13.5045 1583 115.256 138.718 429.114
43 0 123.278 12.338 1521 113.225 137.036 428.333
44 1 63.2562 14.1172 893 111.548 136.834 451.879
45 0 67.1857 15.4497 1038 107.894 136.716 453.552
46 0 70.1812 15.118 1061 124.776 136.65 452.246
47 0 72.1078 15.6433 1128 124.059 136.814 452.865
48 0 75.1022 16.9636 1274 118.853 136.307 451.283
49 0 80.238 16.7252 1342 119.469 135.969 454.166
50 0 81.2059 17.0677 1386 122.198 135.62 447.538
51 0 84.179 16.0848 1354 122.64 134.117 446.298
52 0 87.1714 17.8843 1559 119.401 133.579 445.238
53 0 89.1484 19.3049 1721 115.898 132.595 448.56
54 0 92.1088 19.9872 1841 115.833 131.193 443.325
55 0 95.2777 18.3359 1747 118.803 131.095 436.004
56 0 98.0571 15.9907 1568 119.832 130.021 442.196
57 0 104.124 14.4827 1508 122.563 129.769 434.375
58 0 106.148 16.4393 1745 118.999 128.312 431.313
59 0 111.422 17.7793 1981 116.481 129.135 427.812
60 0 114.233 16.4576 1880 116.373 127.738 433.329
61 0 120.344 14.4835 1743 120.933 127.021 423.215
62 1 61.3489 16.0883 987 113.362 126.664 449.222
63 0 62.329 14.7925 922 116.498 127.246 445.213
64 0 64.1749 11.6245 746 122.574 126.043 447.678
65 0 67.2001 13.8393 930 118.982 126.205 444.342
66 0 71.1571 13.1118 933 119 127.031 443.696
67 0 73.1428 15.1074 1105 115.617 127.109 444.071
68 0 77.1691 15.1226 1167 116.441 126.501 437.547
69 0 80.3643 14.6334 1176 115.561 127.768 440.81
70 0 81.3637 15.8056 1286 115.715 126.711 435.174
71 0 83.2432 14.6198 1217 116.044 129.386 435.685
72 0 90.3369 9.35388 845 121.234 129.751 437.241
73 0 91.2897 14.2294 1299 116.64 131.212 430.972
74 0 94.4653 17.128 1618 113.86 130.911 429.896
75 0 95.4269 9.45226 902 120.502 132.37 435.234
76 0 99.1602 15.5002 1537 114.368 131.978 424.142
77 0 104.311 15.6934 1637 112.404 133.78 425.649
78 0 107.205 14.3183 1535 116.012 133.634 425.522
79 0 107.225 14.3343 1537 138.408 134.636 425.517
80 0 116.255 17.4616 2030 111.87 135.429 420.687
81 0 119.435 14.1583 1691 114.925 134.613 426.667
82 0 123.326 16.8821 2082 112.03 134.472 422.878
83 0 126.195 16.3715 2066 111.604 134.154 427.288
84 1 68.4085 11.6945 800 109.156 135.408 455.562
85 0 71.1337 16.5182 1175 102.303 134.569 456.63
86 0 73.3185 12.6707 929 107.523 135.157 455.031
87 0 76.2317 13.9837 1066 108.811 134.303 446.641
88 0 78.1396 11.9018 930 110.854 133.978 453.727
89 0 80.4577 13.8209 1112 109.461 132.475 453.653
90 0 84.3037 12.2177 1030 109.94 132.032 454.115
91 0 89.3539 13.1835 1178 109.274 132.452 450.508
92 0 91.4262 11.0143 1007 112.392 131.486 450.456
93 0 93.1604 14.6951 1369 108.513 130.765 446.662
94 0 98.6199 11.7218 1156 110.535 130.285 449.29
95 0 103.366 16.456 1701 104.626 128.848 446.327
96 0 106.306 14.4959 1541 106.576 129.182 441.549
97 0 111.36 17.8162 1984 103.424 128.033 439.457
98 0 111.451 12.6692 1412 109.999 127.901 434.864
99 0 116.272 12.2386 1423 113.105 127.325 437.628
100 0 119.399 14.8913 1778 110.088 127.071 428.573
101 0 123.32 17.256 2128 106.795 125.285 431.004
102 1 67.1377 17.5609 1179 105.751 125.596 454.332
103 0 71.2125 15.5591 1108 109.31 124.913 449.014
104 0 71.2761 14.058 1002 112.349 125.573 450.051
105 0 75.3261 13.9527 1051 113.069 124.554 446.865
106 0 76.4286 12.8617 983 115.707 124.214 446.439
107 0 80.198 13.9904 1122 113.786 125.768 442.906
108 0 83.189 12.0208 1000 115.299 126.37 447.1
109 0 85.3788 11.9351 1019 118.238 126.379 442.287
110 0 88.2657 13.4594 1188 114.654 127.25 439.43
111 0 96.4903 14.3745 1387 112.164 127.988 438.508
112 0 94.1702 14.6225 1377 114.6 128.033 431.534
113 0 97.3526 14.6786 1429 115.533 128.72 428.039
114 1 51.1411 12.1038 619 115.179 128.546 452.698
115 0 53.1162 14.7036 781 110.519 128.288 450.722
116 0 55.2966 12.7494 705 109.183 129.322 450.033
117 0 57.1155 12.2209 698 114.778 130.272 452.785
118 0 61.2625 12.7648 782 114.079 129.754 451.054
119 0 60.2556 12.7955 771 115.621 130.065 448.722
120 0 64.2635 13.2424 851 113.757 130.033 449.974
121 0 63.2257 12.3051 778 116.094 131.576 449.878
122 0 64.1813 10.6417 683 118.688 132.931 449.603
123 0 70.4374 14.6513 1032 111.558 134.314 449.552
124 0 72.2909 12.8093 926 114.266 133.018 449.407
125 0 69.1448 15.6628 1083 111.752 133.888 449.243
126 0 75.2405 14.859 1118 113.603 133.25 446.261
127 0 79.4674 14.6727 1166 111.89 133.485 448.545
128 0 83.1927 13.1141 1091 112.566 134.716 451.734
129 0 84.3472 17.428 1470 108.367 133.259 449.157
130 0 86.2211 15.9358 1374 112.847 133.426 443.953
131 0 93.4133 18.1559 1696 108.844 131.675 444.276
132 0 90.314 12.224 1104 119.317 132.178 442.673
133 0 97.2265 17.2895 1681 109.676 131.473 447.106
134 0 97.2265 17.2278 1675 140.938 130.47 447.047
135 1 50.3095 12.6417 636 113.774 131.234 467.516
136 0 54.1358 15.4981 839 108.248 131.322 466.934
137 0 49.0157 14.0567 689 107.672 130.869 468.036
138 0 52.1143 10.5921 552 113.087 129.464 469.846
139 0 50.26 12.6741 637 110.835 129.598 467.44
140 0 55.2785 11.6139 642 110.967 127.382 467.812
141 0 56.3084 13.8168 778 108.081 127.531 468.524
142 0 62.0833 20.0376 1244 97.6463 127.613 469.285
143 0 59.4017 11.9862 712 112.746 126.633 461.537
144 0 60.1572 12.0684 726 111.825 125.927 462.979
145 0 64.1545 15.8991 1020 106.971 124.258 456.465
146 0 66.2775 11.995 795 113.258 124.307 453.713
147 0 67.2139 14.0893 947 111.035 124.584 451.694
148 0 72.366 14.5372 1052 108.927 124.045 452.116
149 0 70.4666 12.3037 867 113.837 122.795 449.775
150 0 76.1544 11.109 846 113.65 124.777 451.829
151 0 79.1374 15.353 1215 108.449 124.037 446.116
152 0 80.2229 12.3905 994 109.927 124.724 441.262
153 0 86.2252 15.4595 1333 103.529 124.106 444.345
154 0 84.1502 9.19784 774 112.283 125.297 443.134
155 0 90.2898 13.4567 1215 107.254 125.454 437.883
156 0 92.6311 11.033 1022 115.213 125.465 431.497
157 1 46.6868 10.9453 511 109.806 125.002 453.354
158 0 50.0761 12.9004 646 104.81 124.878 454.531
159 0 50.1587 14.2348 714 105.653 128.73 454.405
160 0 50.0855 14.7947 741 106.236 128.401 451.746
161 0 53.2178 14.6943 782 105.338 131.533 454.651
162 0 53.1411 12.7397 677 108.78 130.812 450.923
163 0 57.2062 18.3372 1049 100.965 132.146 451.787
164 0 59.2663 17.2105 1020 103.179 132.55 450.05
165 0 58.2178 17.5376 1021 103.238 133.211 450.229
166 0 62.1861 16.5632 1030 103.598 131.82 451.414
167 0 59.1377 11.2788 667 112.637 133.099 454.366
168 0 62.1476 14.5621 905 110.099 133.994 449.559
169 0 66.0995 15.0077 992 109.356 133.306 453.049
170 0 67.2175 13.0472 877 112.288 133.309 454.363
171 0 68.1214 14.4008 981 110.368 134.211 454.83
172 0 69.2089 13.5676 939 113.597 133.096 453.715
173 0 72.2038 15.2485 1101 111.282 132.401 452.564
174 0 75.0768 16.5697 1244 108.882 132.287 455.749
175 0 76.1821 15.7255 1198 110.942 131.381 455.639
176 0 77.2374 14.0476 1085 116.254 132.158 450.924
177 0 79.3125 18.5595 1472 107.906 131.003 455.843
178 0 82.118 13.7242 1127 117.153 130.694 450.547
179 0 87.1284 16.8946 1472 110.292 130.905 451.799
180 0 87.1174 13.258 1155 118.158 129.14 447.151
181 0 92.1483 14.2488 1313 114.93 128.182 447.579
182 0 93.5011 13.9464 1304 117.45 127.044 445.14
183 0 97.2255 18.4211 1791 109.876 127.504 448.532
184 1 51.124 10.8755 556 119.076 122.667 465.761
185 0 52.326 17.3527 908 99.6773 125.439 464.196
186 0 54.3179 14.3783 781 106.68 124.679 456.27
187 0 52.1302 9.59137 500 111.332 123.476 456.728
188 0 54.2156 8.85354 480 112.85 122.527 455.769
189 0 58.1132 16.2958 947 103.278 122.815 455.772
190 0 58.1889 11.3939 663 108.294 122.226 456.551
191 0 62.1216 13.8277 859 103.951 122.257 457.783
192 0 67.2034 10.7286 721 108.086 122.842 453.495
193 0 65.131 10.2562 668 108.943 122.524 452.528
194 0 67.094 11.5957 778 105.761 121.699 452.282
195 0 70.2314 17.7698 1248 99.2396 122.267 451.606
196 0 73.1729 13.7209 1004 106.273 122.87 443.575
197 0 76.1734 15.9767 1217 103.289 122.965 443.788
198 0 82.188 13.5786 1116 107.352 124.125 438.585
199 0 84.1971 18.2667 1538 100.766 124.027 438.217
200 1 45.0435 16.3842 738 105.396 123.824 457.698
201 0 46.2344 14.1021 652 108.6 125.63 458.239
202 0 47.2308 13.2541 626 110.564 128.094 454.489
203 0 50.0881 14.8538 744 107.353 128.973 455.669
204 0 53.0469 15.9858 848 104.151 128.827 456.998
205 0 53.2503 11.3427 604 111.573 130.228 456.43
206 0 52.0913 12.4589 649 111.102 130.294 456.137
207 0 53.1254 12.4234 660 112.638 131.432 452.652
208 0 55.1703 12.543 692 110.698 131.626 454.879
209 0 58.2048 14.5692 848 108.547 132.907 452.966
210 0 60.208 12.0416 725 111.916 132.255 454.175
211 0 62.2515 16.2888 1014 106.251 133.779 454.077
212 0 62.1285 15.0816 937 108.571 133.404 454.902
213 0 67.1824 12.2056 820 110.567 132.615 455.617
214 0 69.1109 12.6174 872 110.874 132.53 453.659
215 0 74.292 15.8833 1180 105.064 133.318 457.71
216 0 71.1878 12.8533 915 112.116 132.956 452.683
217 0 76.1612 13.1694 1003 111.522 132.618 453.706
218 0 77.1535 14.6591 1131 109.381 131.645 452.037
219 0 81.2861 11.9455 971 112.342 131.815 455.623
220 0 83.3532 17.5638 1464 105.408 130.094 453.164
221 0 85.4413 14.3958 1230 109.08 129.033 454.924
222 0 88.6066 13.0013 1152 111.706 128.343 451.491
223 1 46.149 13.023 601 106.451 125.824 472.095
224 0 47.1563 16.6256 784 98.4707 125.314 471.494
225 0 49.099 12.3017 604 103.358 124.967 467.745
226 0 50.2039 12.9074 648 102.031 125.762 473.313
227 0 51.189 13.245 678 100.742 124.376 472.438
228 0 54.2748 15.5873 846 99.0307 123.985 469.077
229 0 55.0915 10.0378 553 104.794 123.971 470.848
230 0 55.1009 11.724 646 103.921 122.673 467.997
231 0 57.2183 16.1137 922 99.4219 122.425 466.223
232 0 58.1917 13.7477 800 102.548 122.234 463.062
233 0 61.0786 16.7653 1024 99.2793 122.473 459.394
234 0 63.3712 13.3026 843 103.269 121.059 458.72
235 0 65.1156 11.1955 729 103.018 121.892 462.219
236 0 68.3856 11.6252 795 104.701 121.777 455.65
237 0 66.2867 6.00422 398 107.003 120.706 463.322
238 0 75.1641 11.7343 882 103.313 120.946 452.209
239 0 74.2583 8.2819 615 109.35 120.673 444.652
240 0 78.2438 11.2469 880 105.98 122.477 443.788
241 0 84.3212 15.4054 1299 99.6336 121.741 447.792
242 0 86.3675 16.6614 1439 98.8992 122.981 444.779
243 0 86.2078 11.1359 960 106.835 123.716 442.892
244 0 90.4538 16.3509 1479 103.473 123.579 437.93
245 0 91.2915 17.2415 1574 102.971 124.471 438.599
246 0 94.3839 15.5959 1472 102.628 123.759 443.563
247 1 48.1632 12.9144 622 98.9373 125.498 463.613
248 0 50.3538 11.1412 561 103.626 126.592 458.717
249 0 51.0796 11.4723 586 103.674 126.761 459.241
250 0 51.1105 13.7545 703 101.34 128.164 459.979
251 0 52.1942 15.0974 788 98.8414 127.536 462.188
252 0 53.0642 14.3223 760 103.42 128.832 455.816
253 0 55.2102 13.6931 756 103.591 130.384 458.917
254 0 58.1738 12.9783 755 104.207 130.101 457.879
255 0 58.3465 14.7909 863 103.932 130.174 457.322
256 0 58.2702 11.9787 698 108.268 129.413 457.792
257 0 60.1081 14.0746 846 105.651 131.358 460.199
258 0 62.0755 18.2681 1134 101.815 129.402 456.437
259 0 62.1851 12.0608 750 110.111 129.212 458.947
260 0 65.3365 14.1728 926 107.432 128.583 457.778
261 0 69.1827 13.9341 964 107.996 129.119 457.535
262 0 71.3325 18.9535 1352 100.223 128.412 462.297
263 0 74.3278 16.1043 1197 106.15 127.95 455.317
264 0 75.5631 17.0189 1286 105.422 128.694 456.708
265 0 78.4005 13.9285 1092 110.316 127.043 455.32
266 0 80.3758 11.3467 912 115.291 127.328 456.723
267 1 43.2081 12.5902 544 108.046 126.504 471.371
268 0 43.0381 8.31822 358 113.911 126.299 473.469
269 0 49.1288 11.5004 565 108.062 125.035 473.773
270 0 49.0705 14.1225 693 106.47 125.195 471.364
271 0 51.0851 16.7759 857 100.233 125.027 469.456
272 0 55.2468 16.5801 916 102.483 124.087 468.954
273 0 51.3517 11.6646 599 112.419 122.012 464.618
274 0 54.1982 11.8454 642 112.047 121.983 463.445
275 0 58.2472 13.3912 780 108.56 121.374 461.577
276 0 57.2893 13.8246 792 108.551 121.227 459.787
277 0 59.3496 13.4794 800 108.088 119.816 457.759
278 0 63.4374 16.7567 1063 102.748 120.614 456.414
279 0 65.1515 17.1447 1117 102.766 120.699 454.035
280 0 64.2184 13.9368 895 111.153 119.23 450.998
281 0 67.2028 15.669 1053 108.555 120.431 448.059
282 0 70.5338 18.2749 1289 102.649 120.718 450.776
283 0 67.1549 11.466 770 114.847 120.718 446.442
284 0 70.2472 12.7407 895 112.876 121.526 443.917
285 0 75.1752 15.1779 1141 106.653 122.893 442.071
286 0 76.1498 14.7079 1120 110.621 123.153 438.222
287 0 79.2564 17.5128 1388 106.105 123.993 436.463
288 0 83.2959 15.2949 1274 106.535 124.421 438.723
289 0 86.2211 14.6136 1260 106.372 126.649 440.29
290 0 87.219 12.6005 1099 109.967 126.526 437.815
291 0 89.4599 13.0785 1170 108.737 127.479 437.224
292 1 49.1262 13.6384 670 107.724 127.522 453.549
293 0 49.0272 12.7684 626 109.391 129.928 450.882
294 0 52.1744 12.0174 627 109.096 131.155 454.147
295 0 54.1895 13.5082 732 107.835 131.273 453.526
296 0 57.1401 14.4557 826 107.053 132.222 452.404
297 0 56.1512 12.3773 695 110.505 132.842 454.63
298 0 57.1017 14.0451 802 109.062 133.667 452.308
299 0 58.1742 12.136 706 107.69 132.254 456.234
300 0 60.0693 9.58893 576 109.465 131.906 457.929
301 0 61.1028 14.1401 864 103.747 132.558 453.535
302 0 64.1828 11.0154 707 106.328 131.823 458.368
303 0 65.2929 13.3552 872 104.156 130.433 454.797
304 0 68.2748 13.5189 923 104.145 129.963 456.179
305 0 70.2053 9.88529 694 107.241 130.669 456.78
306 0 75.1856 13.6329 1025 103.067 129.858 450.693
307 0 76.326 10.2717 784 106.647 130.156 453.867
308 0 81.3172 16.1958 1317 99.003 129.109 449.032
309 0 81.0918 11.6041 941 104.235 128.854 450.049
310 0 85.0955 9.20142 783 106.437 127.692 453.626
311 0 90.2344 13.0216 1175 101.805 127.778 448.84
312 1 45.0361 12.1902 549 100.721 128.14 471.854
313 0 45.0802 11.5128 519 103.252 127.572 466.771
314 0 48.2558 9.38748 453 108.194 126.519 468.19
315 0 48.2198 9.91293 478 102.877 125.151 469.138
316 0 52.0915 16.4518 857 94.7678 125.524 463.978
317 0 53.4111 13.5927 726 98.365 124.478 462.631
318 0 55.2264 13.4718 744 98.9234 124.402 458.285
319 1 115.312 13.5892 1567 105.038 123.683 426.001
320 0 118.342 12.4639 1475 105.224 123.951 432.877
321 0 119.189 13.6338 1625 106.02 124.138 422.674
322 0 123.37 12.0369 1485 108.401 124.673 418.534
323 0 128.899 13.7084 1767 106.092 123.284 417.853
324 1 62.1354 12.859 799 101.919 124.129 448.158
325 0 65.2858 12.5602 820 102.429 124.337 449.166
326 0 66.2223 13.0772 866 102.679 123.269 443.643
327 0 70.233 13.384 940 101.468 124.514 446.614
328 0 72.3668 12.4366 900 103.139 124.849 445.262
329 0 73.2192 10.5164 770 106.294 124.043 444.988
330 0 79.2602 14.4461 1145 100.852 126.036 441.843
331 0 80.1457 11.5664 927 105.277 126.284 440.08
332 0 82.2273 11.5777 952 105.714 127.453 435.376
333 0 86.3457 12.7742 1103 103.73 127.542 437.769
334 0 94.3914 14.6306 1381 103.177 127.873 434.875
335 0 94.3134 17.1026 1613 101.338 128.488 431.692
336 1 45.2699 9.8741 447 107.237 129.676 454.365
337 0 49.3926 10.4672 517 106.151 129.046 454.81
338 0 49.6235 13.7032 680 102.678 128.637 451.09
339 0 50.2704 12.1742 612 105.956 130.853 452.642
340 0 53.0654 11.4953 610 105.328 133.223 456.269
341 0 55.0621 13.9842 770 103.486 131.858 452.153
342 0 53.3045 9.51139 507 111.546 133.957 453.067
343 0 59.2339 16.6965 989 98.8443 133.947 457.673
344 0 59.1539 14.3693 850 103.591 133.372 455.028
345 0 62.1906 12.2848 764 106.986 133.889 454.774
346 0 65.0616 12.419 808 106.203 133.616 457.387
347 0 66.1066 11.9655 791 108.613 133.3 455.396
348 0 69.166 13.3158 921 106.083 134.473 455.966
349 0 71.1264 23.7886 1692 92.6028 133.695 461.399
350 0 74.1117 12.6566 938 108.689 134.004 454.646
351 0 74.174 15.6659 1162 105.079 132.159 455.071
352 0 76.2402 14.6773 1119 107.601 130.614 454.608
353 0 77.6019 14.9352 1159 108.277 129.263 454.58
354 0 77.6634 22.3014 1732 98.7194 128.804 456.591
355 0 81.2384 14.402 1170 112.195 127.576 450.913
356 0 83.3327 14.0521 1171 112.759 127.354 450.522
357 0 87.3014 15.2231 1329 107.09 127.544 450.312
358 0 86.4105 13.3317 1152 112.815 127.192 451.724
359 0 89.2637 13.7122 1224 113.775 127.257 447.067
360 0 92.2782 14.012 1293 114.128 127.203 443.31
361 0 94.4316 13.3748 1263 115.625 125.584 442.765
362 0 95.4162 12.2725 1171 119.164 125.77 440.015
363 1 51.4068 15.212 782 109.464 125.824 461.44
364 0 53.3509 13.533 722 113.259 125.489 457.381
365 0 53.1444 13.8679 737 115.179 125.564 454.502
366 0 56.2107 11.7771 662 116.894 125.382 458.06
367 0 58.0982 18.6236 1082 106.053 124.069 454.387
368 0 64.2818 13.1764 847 117.249 124.56 452.165
369 0 61.1529 13.8669 848 119.241 123.483 450.17
370 0 64.0887 13.0756 838 119.154 124.97 450.58
371 0 67.1591 12.9841 872 120.818 125.003 446.316
372 0 69.1151 15.2065 1051 114.278 126.461 448.437
373 0 70.1014 13.8656 972 119.316 125.316 443.925
374 0 70.1497 12.958 909 121.201 126.879 442.965
375 0 74.1138 13.3308 988 119.888 127.367 442.636
376 0 76.1147 15.3321 1167 118.126 127.097 438.647
377 0 76.1525 13.6043 1036 121.533 128.548 439.364
378 0 76.1099 13.5593 1032 143.192 129.556 439.36
379 0 81.1573 13.0857 1062 122.18 128.764 437.6
380 0 83.2253 14.8993 1240 118.68 130.322 435.897
381 0 85.2374 17.6566 1505 114.888 130.015 434.467
382 0 89.2117 16.1638 1442 110.841 131.964 437.298
383 0 89.1501 11.9349 1064 117.315 133.124 439.508
384 0 92.2767 17.6101 1625 109.755 133.74 432.858
385 0 95.3085 12.7691 1217 116.165 133.841 435.741
386 0 97.2351 13.4931 1312 116.263 133.393 431.409
387 1 55.2402 14.4098 796 111.764 134.275 456.098
388 0 56.2275 12.9474 728 112.592 133.806 460.1
389 0 56.1111 13.2772 745 116.254 133.965 453.985
390 0 61.1784 14.7928 905 110.019 133.546 456.398
391 0 60.0889 12.5814 756 114.053 132.321 457.739
392 0 63.0589 11.8144 745 113.909 133.293 455.13
393 0 66.0946 13.7076 906 110.653 131.183 452.108
394 0 66.2108 14.333 949 110.084 131.897 459.878
395 0 72.1384 13.7929 995 112.544 131.312 452.881
396 0 72.1036 11.0258 795 116.404 131.85 456.454
397 0 76.1607 13.0382 993 115.054 132.147 451.946
398 0 79.1483 12.6345 1000 114.996 130.778 452.52
399 0 80.1776 15.0042 1203 112.632 131.679 450.401
400 0 80.1592 12.0011 962 119.037 129.889 446.463
401 0 85.3222 14.1347 1206 115.009 128.852 445.242
402 0 86.2725 10.8378 935 119.949 128.095 446.355
403 0 92.2574 13.3973 1236 115.997 126.778 443.627
404 0 92.3197 12.3484 1140 118.094 126.348 442.582
405 0 96.2995 12.3988 1194 116.75 126.254 443.483
406 1 51.2077 11.1311 570 117.77 124.642 460.758
407 0 53.0963 12.9764 689 114.244 125.081 459.624
408 0 60.1031 13.194 793 110.514 124.264 455.912
409 0 60.0955 14.4437 868 117.908 122.26 454.719
410 0 58.2075 13.9329 811 111.335 125.303 452.287
411 0 59.1083 11.7581 695 114.77 125.124 449.596
412 0 61.2055 11.0611 677 114.792 125.501 450.592
413 0 63.0837 10.811 682 115.93 125.872 446.906
414 0 67.0919 13.7125 920 110.484 125.786 446.616
415 0 72.1883 15.6258 1128 103.535 126.699 452.62
416 0 74.1813 12.3751 918 110.101 126.587 447.751
417 0 74.179 12.7529 946 112.907 127.074 440.111
418 0 75.2784 13.8021 1039 110.739 127.258 440.312
419 0 79.1616 13.7188 1086 111.454 127.8 437.973
420 0 79.2576 14.497 1149 108.854 128.775 440.34
421 0 84.5274 16.6573 1408 106.333 129.58 432.923
422 0 87.4634 13.0226 1139 111.765 129.778 435.546
423 0 89.5756 15.0264 1346 108.601 130.013 430.826
424 0 96.2839 15.4128 1484 104.813 131.091 431.247
425 0 99.4323 13.3558 1328 106.16 132.651 435.37
426 1 51.1606 12.0796 618 108.303 133.866 453.091
427 0 55.2623 14.9469 826 103.148 134.224 456.084
428 0 55.1248 12.0091 662 110.535 133.446 451.142
429 0 55.0481 12.1348 668 110.701 134.246 452.972
430 0 60.1355 12.3222 741 108.475 133.26 455.834
431 0 64.1161 14.3178 918 105.598 132.547 453.81
432 0 64.0877 12.9042 827 108.443 132.166 453.036
433 0 66.0956 13.0115 860 108.165 131.998 454.284
434 0 68.0663 13.3253 907 108.088 132.114 449.724
435 0 70.0962 14.366 1007 106.616 132.116 450.685
436 0 74.1276 13.4363 996 108.488 131.335 449.635
437 0 78.1487 17.6714 1381 101.077 131.773 452.403
438 0 77.2014 14.0542 1085 107.14 131.533 450.254
439 0 82.1724 11.4515 941 108.801 130.447 455.346
440 0 83.1167 13.0058 1081 108.904 129.606 449.703
441 0 87.1757 11.4711 1000 110.458 128.932 450.576
442 0 88.2153 12.7529 1125 109.071 128.003 448.873
443 1 49.0954 9.32878 458 112.013 127.797 466.406
444 0 51.0815 10.865 555 107.488 128.436 465.497
445 0 54.1247 11.2518 609 103.81 126.338 464.486
446 0 54.109 11.6617 631 102.65 126.09 463.691
447 0 57.1724 14.3251 819 98.9463 125.653 462.238
448 0 60.0685 14.4835 870 98.9299 125.354 460.649
449 0 59.2133 11.6021 687 103.431 124.734 458.105
450 0 62.1112 12.7674 793 101.831 123.787 458.293
451 0 64.1365 10.8675 697 103.352 126.699 456.231
452 0 65.0753 17.5028 1139 95.5716 125.444 454.802
453 0 70.2496 14.0499 987 99.7619 124.821 455.728
454 0 69.1723 11.8545 820 104.796 123.922 450.665
455 0 67.0972 13.5475 909 104.333 123.382 449.038
456 0 75.0968 12.637 949 103.76 123.663 446.344
457 0 80.3302 15.4736 1243 99.6162 123.208 446.12
458 0 79.2412 13.2633 1051 103.676 124.071 446.233
459 0 81.1728 13.3173 1081 103.823 124.458 442.319
460 1 42.091 11.6177 489 103.45 123.851 463.207
461 0 46.0659 12.6341 582 100.749 126.064 462.689
462 0 44.1304 12.735 562 103.578 125.181 457.445
463 0 47.083 10.3222 486 105.134 125.591 459.788
464 0 49.3017 13.3261 657 100.933 126.399 457.9
465 0 49.1203 13.6196 669 101.129 126.865 458.185
466 0 51.1447 16.1698 827 98.1608 127.976 459.077
467 0 53.0814 14.7509 783 99.9515 127.886 460.156
468 0 54.0726 20.3615 1101 93.0817 129.932 460.419
469 0 56.1062 15.0607 845 105.507 132.683 458.415
470 0 57.1265 13.8815 793 107.096 133.071 460.037
471 0 58.2089 12.4723 726 109.474 132.062 462.518
472 0 61.0736 12.4276 759 110.63 132.896 459.155
473 0 62.1028 16.0218 995 106.215 132.436 458.52
474 0 66.2002 15.9063 1053 103.897 133.415 463.995
475 0 66.1338 15.4989 1025 106.447 132.61 461.536
476 0 68.0968 13.4514 916 110.148 133.162 461.348
477 0 70.3273 15.3426 1079 109.184 131.961 459.065
478 0 73.3174 12.9301 948 112.16 131.455 462.156
479 0 75.2419 14.6594 1103 110.011 130.803 462.177
480 0 78.361 17.9298 1405 105.894 130.475 459.201
481 0 79.2701 15.1381 1200 110.902 129.46 461.058
482 0 81.1878 15.9014 1291 109.973 129.04 459.857
483 0 85.3709 14.4312 1232 113 127.028 458.373
484 1 47.144 12.4512 587 113.204 127.632 478.438
485 0 49.0872 12.5898 618 111.688 125.584 478.034
486 0 50.0715 14.6191 732 109.766 125.903 475.044
487 0 48.0296 13.9705 671 114.322 125.353 470.949
488 0 52.2571 17.0312 890 107.94 125.146 474.366
489 0 54.1298 16.0725 870 101.687 123.776 476.988
490 0 57.3842 16.1891 929 104.417 122.699 471.38
491 0 58.3786 15.8791 927 106.544 122.549 467.246
492 0 59.0783 12.8304 758 112.224 122.367 469.623
493 0 62.212 14.113 878 109.441 121.764 469.501
494 0 64.1803 16.2978 1046 105.69 120.651 464.838
495 0 67.1007 12.444 835 110.945 121.59 467.287
496 0 69.1237 11.993 829 112.352 121.793 462.246
497 0 70.1448 13.7715 966 109.538 120.402 455.765
498 0 73.1117 12.6929 928 111.301 121.336 454.251
499 0 76.0886 14.0626 1070 105.556 121.605 452.153
500 1 37.0364 10.7732 399 108.571 119.368 468.782
501 0 41.0229 12.359 507 106.775 120.588 465.471
502 0 42.1309 11.5592 487 106.411 121.887 466.361
503 0 43.2137 11.8018 510 106.827 121.863 465.592
504 0 43.1873 10.2113 441 113.717 121.195 463.766
505 0 45.1194 11.8131 533 111.739 122.726 460.659
506 0 49.2162 15.9297 784 103.578 123.033 462.311
507 0 50.2129 13.144 660 107.75 123.665 461.348
508 0 48.3525 9.18257 444 113.529 124.311 463.872
509 0 52.0964 15.6057 813 104.077 125.822 458.08
510 0 54.2094 13.5954 737 104.927 126.426 462.601
511 0 54.2175 14.3681 779 106.193 126.863 455.933
512 0 56.1337 15.2671 857 103.548 127.574 454.642
513 0 59.3432 16.4467 976 100.945 128.96 457.69
514 0 60.088 12.6148 758 106.22 128.689 458.761
515 0 61.1688 11.313 692 107.051 129.942 456.519
516 0 64.1605 15.96 1024 101.47 129.76 454.862
517 0 65.2445 14.3307 935 104.461 130.991 455.877
518 0 70.2048 15.3123 1075 101.462 130.317 458.865
519 0 70.3698 12.8891 907 104.974 131.255 460.619
520 0 74.0839 11.163 827 111.308 130.716 457.857
521 0 76.2779 10.9337 834 111.206 129.844 457.335
522 0 81.4002 12.9729 1056 107.046 130.443 454.231
523 1 39.1581 12.5134 490 106.596 129.569 476.373
524 0 44.0686 11.7771 519 107.455 129.264 477.179
525 0 45.0542 13.051 588 107.129 127.847 476.019
526 0 45.0542 13.1619 593 125.867 125.853 476.093
527 0 47.1218 10.8655 512 106.559 126.459 473.486
528 0 50.2371 14.0334 705 100.926 126.566 476.584
529 0 49.1175 10.5054 516 108.952 125.977 472.69
530 0 51.2989 12.6514 649 106.28 123.448 472.376
531 0 52.1564 14.1306 737 104.201 124.626 472.121
532 0 54.1551 14.8462 804 103.206 122.366 470.291
533 0 56.1612 16.7019 938 101.065 123.018 469.002
534 0 57.2218 13.6661 782 105.111 123.081 469.06
535 0 60.0766 13.6659 821 106.177 120.924 465.732
536 0 61.2343 13.1136 803 108.037 121.423 463.194
537 0 61.1758 14.8915 911 106.209 120.501 462.478
538 0 62.3158 13.4155 836 110.007 120.266 460.295
539 0 65.2193 12.435 811 116.602 120.102 454.192
540 0 71.276 16.7518 1194 108.343 121.076 455.32
541 0 72.19 14.074 1016 113.744 121.301 453.985
542 0 76.3008 17.929 1368 107.499 120.7 450.219
543 0 79.2464 14.6884 1164 113.657 121.047 446.735
544 0 80.1615 15.107 1211 113.405 120.888 446.732
545 0 84.1481 17.1602 1444 109.853 121.562 443.414
546 0 85.4297 13.4028 1145 116.548 121.938 441.42
547 0 89.1636 13.7164 1223 115.403 124.553 443.935
548 0 90.093 14.6071 1316 113.672 123.366 442.319
549 0 96.3986 13.4546 1297 114.039 125.461 441.218
550 0 97.1404 14.7004 1428 113.624 126.347 436.992
551 0 102.199 13.5911 1389 111.111 126.341 438.299
552 1 52.0693 11.5999 604 114.661 126.992 458.838
553 0 51.0597 10.5563 539 114.876 127.724 461.826
554 0 53.247 13.597 724 111.03 128.261 460.174
555 0 54.169 13.7163 743 108.984 128.308 459.147
556 0 58.1847 14.2133 827 110.06 129.716 459.164
557 0 61.4191 15.4024 946 107.471 130.721 458.539
558 0 62.1064 14.9904 931 109.116 130.45 457.148
559 0 65.2811 20.2049 1319 101.03 130.239 455.187
560 0 70.378 20.333 1431 99.3152 130.199 459.491
561 0 72.1547 16.5478 1194 105.795 130.616 456.745
562 0 72.2922 12.906 933 112.144 131.22 456.124
563 0 76.2916 17.4855 1334 104.199 129.953 457.875
564 0 76.0787 13.1311 999 111.674 128.073 456.872
565 0 84.2698 17.088 1440 104.466 128.601 455.184
566 0 83.3057 18.5341 1544 104.03 128.257 456.686
567 0 86.238 14.7383 1271 110.698 128.914 455.482
568 0 86.1998 15.1392 1305 110.638 128.467 454.755
569 1 48.1423 9.51346 458 114.015 128.282 476.262
570 0 49.0614 11.6385 571 111.412 126.904 474.632
571 0 51.1474 13.3731 684 108.529 126.598 472.306
572 0 51.0273 10.3474 528 115.934 124.398 473.055
573 0 53.3167 14.367 766 106.888 122.619 474.046
574 0 55.5117 13.8349 768 109.956 123.363 468.611
575 0 55.4853 12.8142 711 112.824 121.511 465.771
576 0 57.4165 12.0697 693 113.349 121.911 467.118
577 0 61.2796 12.2227 749 111.366 121.76 466.697
578 0 61.0586 13.2004 806 112.488 121.815 463.55
579 0 64.0912 12.1702 780 113.171 122.115 462.594
580 0 68.1739 14.5217 990 109.132 121.532 460.14
581 0 68.1 13.3333 908 111.468 121.557 458.654
582 0 71.0696 13.3109 946 110.784 121.795 456.789
583 0 76.218 15.7312 1199 108.299 122.345 453.194
584 0 76.1749 13.4821 1027 112.307 121.091 451.716
585 0 80.2482 14.2932 1147 110.298 120.035 450.637
586 0 83.5282 14.5939 1219 110.476 121.24 447.142
587 0 84.469 11.9334 1008 115.601 122.072 442.326
588 1 45.1134 11.194 505 110.848 120.293 465.079
589 0 45.1658 10.5168 475 110.347 120.242 464.044
590 0 46.0905 13.5169 623 106.701 121.072 459.165
591 0 49.0885 12.6506 621 111.831 122.129 460.95
592 0 48.0483 10.9889 528 117.034 122.784 458.828
593 0 50.0543 11.947 598 110.781 126.077 457.574
594 0 55.1821 13.7726 760 105.032 127.086 462.549
595 0 53.0845 12.8663 683 109.435 127.012 459.892
596 0 55.073 12.6196 695 107.381 128.804 463.282
597 0 54.1725 11.0942 601 112.579 128.409 460.255
598 0 59.1874 12.6378 748 108.59 128.512 459.698
599 0 60.207 13.7692 829 107 129.084 459.141
600 0 62.265 13.7637 857 107.2 130.736 458.449
601 0 66.2839 15.3733 1019 103.823 130.2 460.775
602 0 65.0688 13.7239 893 105.287 131.479 457.971
603 0 66.3865 13.8281 918 104.999 131.444 459.339
604 0 68.2014 12.3458 842 106.518 131.226 461.854
605 0 71.2126 12.3574 880 107.327 129.87 461.34
606 0 73.218 14.2998 1047 105.013 131.011 460.545
607 0 76.1725 12.8655 980 107.653 130.894 461.121
608 0 79.3452 15.7792 1252 103.242 129.866 456.304
609 0 82.234 13.036 1072 107.578 129.64 456.014
610 0 87.154 14.7096 1282 103.469 128.913 459.863
611 0 88.1909 14.7974 1305 104.582 127.307 454.118
612 1 48.0696 9.67348 465 109.189 127.301 478.843
613 0 50.1571 14.5144 728 103.089 127.023 477.018
614 0 50.0708 12.722 637 109.692 126.044 475.323
615 0 51.0914 13.7792 704 107.236 125.345 474.834
616 0 53.0824 14.355 762 107.031 123.789 470.97
617 0 54.1916 14.5226 787 108.541 124.884 472.323
618 0 56.1256 15.394 864 106.049 123.506 471.402
619 0 59.1022 14.1619 837 108.165 123.667 469.481
620 0 59.146 15.9774 945 104.213 122.707 469.359
621 0 63.0746 17.7092 1117 101.799 122.808 468.683
622 0 63.119 14.6548 925 106.581 121.934 466.875
623 0 65.3071 14.1485 924 109.344 120.951 463.09
624 0 68.2043 15.1603 1034 107.197 121.073 457.973
625 0 72.2436 15.2263 1100 106.485 121.458 457.511
626 0 74.2303 14.1721 1052 109.254 122.199 456.182
627 0 75.3704 14.2231 1072 108.62 120.732 455.616
628 0 83.5653 16.3704 1368 104.095 121.192 453.24
629 0 84.269 15.7353 1326 105.529 122.062 451.603
630 1 46.1628 12.6509 584 112.252 121.086 463.771
631 0 46.1416 13.2635 612 111.9 123.346 463.033
632 0 48.0504 12.9864 624 112.702 124.019 462.255
633 0 50.13 13.0261 653 113.926 125.983 460.934
634 0 50.1711 12.1783 611 115.99 122.781 461.051
635 0 53.1349 13.2117 702 115.443 125.006 458.728
636 0 53.2431 11.1188 592 120.054 124.463 456.752
637 0 56.119 17.4094 977 106.802 125.563 461.083
638 0 59.2227 13.3395 790 114.642 126.08 458.211
639 0 59.0912 17.0415 1007 108.604 126.278 458.989
640 0 60.1778 12.6957 764 116.277 126.864 457.245
641 0 64.096 15.7732 1011 110.509 127.01 455.669
642 0 66.1338 17.3134 1145 106.59 127.487 459.771
643 0 65.1463 11.4665 747 118.62 126.51 455.948
644 0 69.0926 15.2115 1051 110.717 127.3 454.764
645 0 74.1451 18.0862 1341 104.512 127.54 458.569
646 0 74.101 13.0497 967 113.246 126.983 457.648
647 0 78.1442 17.0326 1331 107.009 126.879 452.077
648 0 80.1442 15.0978 1210 109.502 127.388 453.102
649 0 84.2604 16.6982 1407 105.968 126.979 454.378
650 1 43.0886 9.8634 425 114.412 126.205 473.315
651 0 44.0782 11.6384 513 112.076 125.836 473.889
652 0 47.0572 12.7929 602 109.708 126.565 472.52
653 0 50.2256 12.3244 619 108.758 128.048 475.582
654 0 49.3342 11.7971 582 111.306 127.649 473.581
655 0 48.4404 10.8587 526 109.386 126.219 470.99
656 0 49.1554 12.2876 604 106.311 127.73 473.076
657 0 51.0739 12.8441 656 105.712 126.309 471.622
658 0 55.0726 13.0192 717 104.767 126.46 470.42
659 0 55.0424 10.6282 585 108.48 125.251 470.475
660 0 56.0834 14.8351 832 103.782 125.353 467.457
661 0 58.14 11.7303 682 107.355 124.661 469.306
662 0 60.1635 12.7818 769 107.291 124.631 466.406
663 0 62.1774 14.4586 899 105.506 123.314 462.43
664 0 66.2694 14.3505 951 105.462 122.615 463.425
665 0 68.1883 12.5535 856 107.091 122.544 462.447
666 0 69.0801 15.663 1082 103.861 121.924 457.223
667 0 72.178 17.8171 1286 100.963 120.823 452.55
668 0 75.2146 12.338 928 108.319 120.817 457.975
669 0 77.2843 15.8894 1228 105.068 119.344 453.151
670 0 79.1675 12.3915 981 110.105 120.27 453.44
671 0 81.4826 12.8862 1050 110.59 121.07 446.391
672 0 84.2216 11.1492 939 112.78 121.054 447.928
673 0 89.2356 15.3078 1366 107.274 121.971 444.674
674 0 90.1965 13.0604 1178 115.905 122.684 442.691
675 0 93.3343 14.8606 1387 111.74 122.498 439.894
676 0 97.5121 13.5778 1324 113.017 123.934 442.558
677 0 100.515 12.7941 1286 113.04 124.642 444.778
678 0 104.174 10.6457 1109 118.338 124.632 437.166
679 0 101.323 12.1394 1230 122.5 125.554 432.917
680 0 111.473 15.5464 1733 113.791 128.414 433.045
681 1 59.1028 15.4815 915 112.783 126.697 455.493
682 0 61.1185 13.3348 815 116.248 127.525 454.766
683 0 64.1835 13.5549 870 115.945 130.237 453.772
684 0 64.2252 13.6706 878 115.609 129.719 457.574
685 0 65.182 12.0125 783 119.243 130.587 458.195
686 0 69.0478 12.122 837 118.839 130.042 457.792
687 0 71.2009 14.6066 1040 115.351 130.971 455.144
688 0 71.122 12.4012 882 119.222 131.29 459.104
689 0 74.1323 13.6783 1014 118.675 130.954 454.018
690 0 75.2775 12.8458 967 120.763 130.771 453.559
691 0 80.168 15.3677 1232 115.703 130.515 455.739
692 0 83.2257 17.5907 1464 111.495 129.314 457.932
693 0 85.3271 13.9815 1193 119.33 129.79 458.137
694 0 87.3124 19.3329 1688 111.075 128.854 455.572
695 0 90.4028 16.4375 1486 116.277 129.065 454.984
696 1 48.2083 11.0769 534 121.109 128.073 475.234
697 0 52.0943 11.9591 623 120.721 128.745 474.035
698 0 51.1104 13.8719 709 115.403 127.9 476.897
699 0 52.1062 12.5513 654 120.26 126.784 474.43
700 0 55.0626 15.1646 835 108.668 125.265 475.358
701 0 55.255 13.2296 731 113.599 124.591 474.246
702 0 57.2127 14.8394 849 112.595 124.4 472.529
703 0 57.2127 14.8743 851 132.871 124.402 472.565
704 0 59.2708 13.0925 776 115.47 123.006 470.219
705 0 60.1422 9.89323 595 120.948 123.133 471.57
706 0 64.286 14.0466 903 115.503 123.37 466.386
707 0 66.2121 12.4902 827 117.259 121.992 467.94
708 0 67.0956 13.1603 883 116.655 122.941 465.362
709 0 68.2494 11.2382 767 119.807 123.111 465.72
710 0 72.2298 13.9278 1006 115.733 121.524 460.566
711 0 75.1601 11.8148 888 119.218 122.894 462.708
712 0 76.2468 13.8366 1055 116.632 121.119 458.748
713 0 80.2454 12.2873 986 119.086 123.532 456.441
714 0 80.2677 12.0846 970 121.332 121.914 451.15
715 0 84.1036 15.3858 1294 115.725 122.719 449.005
716 0 87.3867 13.343 1166 119.779 122.266 447.065
717 0 89.1738 13.2438 1181 118.904 123.317 447.884
718 0 93.2088 14.5802 1359 116.619 122.285 443.362
719 0 96.2147 14.4572 1391 116.017 123.667 444.857
720 1 50.0465 10.1306 507 121.012 124.152 466.363
721 0 54.148 13.6293 738 113.434 125.051 464.47
722 0 53.1268 12.3666 657 119.388 123.971 462.939
723 0 57.0738 12.9131 737 116.626 126.014 462.433
724 0 59.1585 13.0666 773 122.003 124.605 459.587
725 0 60.1751 13.1283 790 121.197 125.008 461.024
726 0 59.1029 13.0281 770 124.762 125.299 454.884
727 0 63.16 11.7004 739 125.287 126.367 457.843
728 0 67.1038 13.1885 885 120.941 126.629 457.668
729 0 67.2871 12.2906 827 124.449 125.573 455.128
730 0 71.1067 12.1789 866 123.648 128.6 458.275
731 0 74.1966 14.9333 1108 118.06 127.032 457.734
732 0 76.2034 13.1228 1000 121.714 128.575 458.672
733 0 76.3751 12.4124 948 123.745 129.132 458.909
734 0 79.1797 13.3241 1055 123.843 128.98 452.003
735 0 82.1654 13.911 1143 121.003 127.727 456.456
736 0 88.2535 14.6057 1289 118.247 129.178 458.295
737 0 88.278 11.611 1025 125.52 129.154 453.1
738 0 92.2263 12.7296 1174 123.355 127.471 452.756
739 1 50.0282 12.493 625 118.811 130.462 476.002
740 0 52.1072 11.2268 585 120.624 129.251 474.205
741 0 55.1589 11.2946 623 121.218 129.424 470.533
742 0 53.145 11.478 610 123.138 126.4 471.259
743 0 58.0524 16.3645 950 112.009 126.804 471.152
744 0 57.0956 14.2743 815 119.375 127.472 471.838
745 0 59.0726 11.7483 694 124.986 125.693 470.017
746 0 62.1533 12.9358 804 121.261 125.58 466.867
747 0 63.0675 12.5897 794 122.764 125.102 466.325
748 0 64.0583 13.8312 886 121.841 123.554 462.244
749 0 71.2335 19.8221 1412 107.222 124.348 464.964
750 0 69.076 13.0146 899 122.264 124.067 459.863
751 0 72.1034 14.4376 1041 118.727 124.37 460.122
752 0 74.1843 14.3561 1065 118.137 124.379 461.254
753 0 75.2232 12.5094 941 123.608 123.751 454.07
754 0 79.2651 13.8144 1095 120.94 122.577 450.009
755 0 82.1473 14.3523 1179 119.19 123.659 450.837
756 0 85.152 16.0302 1365 116.374 123.307 444.076
757 1 47.1954 12.1198 572 118.276 124.063 466.278
758 0 47.2311 12.2801 580 119.4 124.193 463.85
759 0 47.1243 9.9524 469 122.343 124.414 464.36
760 0 52.0948 14.4736 754 114.911 125.658 460.98
761 0 52.3624 12.1652 637 118.983 124.452 464.121
762 0 56.4301 16.1439 911 111.007 126.296 459.573
763 0 56.1337 15.4453 867 112.291 127.191 457.27
764 0 58.0921 15.682 911 113.036 127.816 455.236
765 0 57.0539 13.1805 752 117.555 128.035 458.566
766 0 62.1277 14.0678 874 114.809 129.228 457.238
767 0 63.102 13.391 845 117.756 129.718 456.265
768 0 64.259 14.0525 903 115.257 129.1 455.602
769 0 63.3787 9.94025 630 125.467 126.862 457.79
770 0 67.4553 13.016 878 121.167 127.411 453.401
771 0 69.3137 15.1774 1052 116.604 128.376 454.343
772 0 71.1955 12.88 917 120.545 129.114 452.539
773 0 75.3559 14.5178 1094 116.626 128.423 454.599
774 0 79.4494 15.6326 1242 114.03 129.124 453.874
775 0 80.3667 16.0141 1287 114.325 129.158 452.235
776 0 83.3154 17.9919 1499 109.775 128.689 455.233
777 0 87.3585 16.0145 1399 113.372 128.793 451.185
778 0 87.2511 13.0314 1137 120.108 127.821 449.699
779 0 90.4063 13.4946 1220 117.77 126.878 451.367
780 0 94.3459 14.574 1375 116.06 127.076 450.614
781 0 97.2916 14.0197 1364 117.34 127.298 447.005
782 1 49.1532 11.515 566 118.876 125.866 470.974
783 0 54.0653 11.782 637 116.884 126.093 470.286
784 0 54.1214 11.5666 626 114.784 125.342 470.696
785 0 53.0938 12.299 653 111.043 125.181 471.387
786 0 58.2422 14.6457 853 106.118 125.79 465.902
787 0 59.1378 13.9674 826 106.329 123.326 468.37
788 0 60.2095 15.2136 916 104.978 123.716 464.29
789 0 60.3283 9.66379 583 114.158 123.099 463.767
790 0 62.3735 11.2227 700 110.657 123.226 466.211
791 0 64.3031 10.4661 673 111.961 122.646 462.785
792 0 66.1966 11.4356 757 110.556 123.35 463.577
793 0 71.2569 15.0442 1072 104.691 122.286 459.7
794 0 74.218 14.3227 1063 105.135 122.173 459.038
795 0 74.1082 10.2688 761 110.353 122.319 460.221
796 0 76.2925 15.0605 1149 106.037 122.083 452.705
797 0 81.1436 11.4365 928 112.222 121.122 450.414
798 0 78.0902 10.3214 806 113.53 120.79 449.893
799 0 82.1113 12.7388 1046 109.045 120.402 450.518
800 0 86.3133 11.9564 1032 111.617 121.783 445.847
801 0 91.2553 12.8102 1169 109.43 121.558 444.501
802 0 95.2823 13.9375 1328 107.251 122.248 442.709
803 0 97.3333 12.1027 1178 110.194 123.51 439.809
804 0 102.403 12.8415 1315 108.282 124.5 438.329
805 1 55.4465 14.3021 793 104.662 124.052 458.462
806 0 53.2507 11.1736 595 101.689 125.188 451.652
807 0 58.343 9.66697 564 102.066 127.975 454.842
808 0 56.2244 11.5252 648 103.188 127.085 453.826
809 0 60.117 12.7917 769 102.255 127.897 454.473
810 0 62.2788 11.593 722 103.528 129.964 452.846
811 0 61.2588 11.835 725 104.254 128.171 455.097
812 0 66.2454 12.5745 833 102.684 130.375 453.579
813 0 67.4381 11.7441 792 103.198 130.205 454.33
814 0 70.2496 12.4271 873 102.203 129.962 452.582
815 0 73.4468 12.4171 912 101.743 131.143 451.28
816 0 77.3567 19.6234 1518 93.3116 130.314 449.831
817 0 80.2966 14.9321 1199 98.4037 132.42 447.71
818 0 80.3983 12.5127 1006 102.303 132.257 449.237
819 0 84.2377 13.7943 1162 100.932 131.925 450.877
820 0 89.2246 12.3172 1099 102.712 130.899 451.678
821 0 91.4051 14.1021 1289 100.045 130.343 454.274
822 1 44.1211 9.24727 408 106.51 131.483 470.449
823 0 47.3868 11.7965 559 103.653 131.195 471.186
824 0 45.0708 10.783 486 105.245 129.757 473.689
825 0 47.1123 15.0067 707 100.182 129.147 473.137
826 0 51.3015 14.3661 737 93.7436 127.202 469.935
827 0 51.2861 10.9776 563 99.9751 128.352 464.678
828 0 52.2418 13.0738 683 97.4041 127.556 465.687
829 0 50.5819 9.60819 486 102.43 126.743 464.704
830 0 54.2698 11.406 619 100.349 125.59 465.111
831 0 54.3971 10.9013 593 101.046 125.966 462.96
832 0 58.2205 12.0404 701 100.081 124.952 460.786
833 0 58.2182 13.2776 773 101.625 124.031 458.494
834 0 58.2619 11.946 696 100.329 123.277 457.805
835 0 63.4776 12.1933 774 98.9871 124.058 456.274
836 0 62.2084 8.76088 545 104.028 123.55 451.363
837 0 69.121 13.773 952 104.053 122.243 457.852
838 0 67.0749 9.01977 605 110.719 122.987 450.674
839 0 71.2112 12.3857 882 106.92 123.277 449.991
840 0 78.3176 14.5561 1140 101.48 124.219 451.414
841 0 77.2085 13.0037 1004 104.949 123.228 446.976
842 0 80.4263 12.3467 993 105.875 124.321 445.558
843 0 84.2853 13.4899 1137 104.376 125.258 441.769
844 0 87.2963 12.028 1050 105.944 126.212 443.418
845 0 91.593 17.6433 1616 97.8082 126.005 441.736
846 0 94.3063 12.0989 1141 106.068 125.977 436.29
847 0 91.592 12.0535 1104 107.36 126.746 435.342
848 0 97.3674 14.0396 1367 104.574 127.661 430.584
849 0 98.3129 13.1417 1292 104.8 127.534 429.132
850 0 103.386 13.377 1383 104.255 127.241 429.079
851 0 105.793 11.4469 1211 107.239 127.36 428.713
852 1 56.212 11.6523 655 98.826 127.197 459.127
853 0 55.0968 13.1405 724 98.192 129.599 454.122
854 0 57.1427 11.8475 677 98.9823 129.687 457.118
855 0 59.2493 10.9031 646 100.418 129.941 458.293
856 0 62.1878 14.2632 887 96.5355 129.894 454.986
857 0 64.0965 14.915 956 95.7479 131.014 455.586
858 0 65.0885 12.9209 841 99.1534 130.369 454.888
859 0 69.2582 15.1318 1048 97.0363 130.602 452.145
860 0 71.1483 11.0755 788 100.978 130.924 457.055
861 0 73.177 11.5883 848 100.32 131.934 456.761
862 0 76.1764 12.8649 980 99.1582 131.885 456.661
863 0 79.2577 13.2984 1054 99.5854 129.916 456.615
864 0 80.3746 11.0234 886 103.898 131.878 452.19
865 0 83.1814 14.5104 1207 99.7051 131.577 451.145
866 0 87.1602 15.3166 1335 98.5678 131.728 451.157
867 1 46.1808 14.0968 651 99.5745 130.651 474.243
868 0 50.1266 15.7002 787 97.7065 130.573 465.737
869 0 48.1973 14.3577 692 102.211 130.367 464.347
870 0 51.1486 10.3424 529 106.495 130.208 466.198
871 0 51.1764 13.4242 687 102.888 129.281 467.822
872 0 51.0851 11.4319 584 106.134 129.587 469.69
873 0 52.0597 13.1772 686 105.354 127.061 466.573
874 0 56.356 17.1765 968 98.8399 126.999 465.719
875 0 58.2916 11.9743 698 105.835 127.029 465.725
876 0 59.182 16.0015 947 100.288 125.195 467.788
877 0 60.2459 11.6356 701 107.223 125.75 464.325
878 0 61.205 13.7571 842 106.061 124.004 459.89
879 0 63.2683 14.2568 902 104.84 125.644 457.378
880 0 65.1924 13.0537 851 106.357 125.013 458.076
881 0 69.1592 13.7509 951 105.785 124.958 454.312
882 0 69.3294 15.2893 1060 104.017 124.381 454.502
883 0 72.1916 16.7748 1211 100.922 124.836 455.667
884 0 75.118 15.2294 1144 104.647 124.328 446.436
885 0 81.1416 17.1429 1391 99.6988 124.669 453.512
886 0 82.2209 19.8733 1634 98.9712 124.205 444.161
887 0 81.2138 13.4829 1095 108.529 124.316 445.064
888 0 86.0973 19.6986 1696 100.06 124.971 438.324
889 0 88.163 16.9005 1490 103.944 125.141 439.074
890 0 93.4373 15.4542 1444 104.922 126.886 442.064
891 0 94.2137 14.3822 1355 107.222 127.001 438.559
892 0 99.3272 15.9473 1584 104.161 126.824 439.317
893 1 51.0356 12.1288 619 109.107 129.11 456.402
894 0 51.3822 11.288 580 103.888 128.024 457.647
895 0 52.3082 10.6675 558 105.729 128.754 451.805
896 0 53.338 12.9176 689 108.759 128.66 448.245
897 0 59.155 17.9697 1063 102.315 130.583 455.522
898 0 59.0379 15.4308 911 107.441 130.483 453.46
899 0 62.0417 14.4097 894 108.85 130.56 451.056
900 0 65.1056 14.4995 944 106.832 132.235 455.513
901 0 70.1138 16.6586 1168 103.273 132.558 455.254
902 0 71.203 18.7352 1334 101.516 131.921 454.704
903 0 74.1487 13.8101 1024 108.842 132.481 453.689
904 0 76.065 12.1081 921 110.41 132.052 456.575
905 0 76.1651 11.8558 903 113.229 131.972 452.585
906 0 79.0521 10.7651 851 113.897 131.98 455.838
907 0 84.1048 15.1716 1276 107.487 131.394 455.659
908 0 87.1834 13.4429 1172 110.986 131.601 454.843
909 0 88.1125 12.2117 1076 114.69 131.156 449.643
910 1 47.118 11.6092 547 111.046 129.463 474.194
911 0 51.0417 14.1453 722 108.317 128.429 470.514
912 0 52.079 16.7822 874 102.703 130.47 472.741
913 0 56.4505 16.4746 930 104.045 129.373 469.651
914 0 55.1257 14.9114 822 108.467 127.912 468.443
915 0 58.1335 12.3853 720 112.511 129.761 469.065
916 0 59.0645 16.101 951 108.055 126.552 466.436
917 0 63.0853 15.8199 998 107.368 126.248 468.077
918 0 64.2261 14.2466 915 109.127 126.106 469.645
919 0 65.135 14.6465 954 111.936 123.805 465.454
920 0 66.1683 13.7528 910 114.213 124.571 463.173
921 0 64.0783 12.9529 830 118.108 123.827 461.282
922 0 70.1178 14.2189 997 114.038 124.294 459.961
923 0 72.3853 15.68 1135 113.174 124.396 453.936
924 0 74.4385 15.946 1187 113.65 124.585 453.489
925 0 76.3105 14.4017 1099 117.515 125.187 451.102
926 0 77.1117 14.8486 1145 117.87 124.824 449.79
927 0 79.2399 15.6234 1238 118.863 124.206 444.361
928 0 83.3064 14.1166 1176 120.36 124.452 448.881
929 0 84.2304 14.496 1221 120.909 123.76 447.541
930 0 93.6828 17.1003 1602 112.381 124.478 450.858
931 0 93.318 14.1666 1322 120.97 124.213 444.715
932 0 97.2879 18.0701 1758 114.367 124.685 439.593
933 1 51.1551 13.0192 666 119.955 125.006 461.553
934 0 49.0715 10.3726 509 125.739 126.242 460.544
935 0 49.3276 14.8395 732 118.307 125.768 455.802
936 0 53.207 12.1037 644 123.301 126.661 455.379
937 0 53.1165 14.2517 757 119.189 127.934 456.189
938 0 54.0879 12.1284 656 123.186 128.169 455.012
939 0 57.0629 14.6856 838 118.831 128.409 451.566
940 0 59.1931 16.6404 985 113.635 129.257 453.972
941 0 59.035 13.9409 823 120.64 130.061 453.899
942 0 63.0903 16.833 1062 115.827 129.72 455.251
943 0 65.1858 14.7271 960 120.255 130.02 449.503
944 0 67.1745 14.0827 946 121.833 130.757 453.077
945 0 70.09 15.6085 1094 118.511 131.334 453.153
946 0 73.0943 15.8426 1158 118.376 131.867 452.33
947 0 76.2644 15.302 1167 119.302 131.156 452.509
948 0 77.1219 14.1335 1090 122.903 132.35 450.682
949 0 82.0979 22.5706 1853 107.947 131.712 449.268
950 0 81.1333 15.0616 1222 122.392 131.297 452.629
951 0 84.1491 14.9734 1260 123.413 131.102 452.764
952 0 88.1914 15.2736 1347 122.553 130.581 451.507
953 0 88.2457 14.5276 1282 125.021 130.803 450.126
954 0 91.1784 15.4094 1405 123.271 129.051 447.036
955 0 95.149 18.4763 1758 116.438 128.617 445.569
956 0 96.1679 14.5163 1396 122.351 128.567 442.142
957 0 100.194 15.5698 1560 122.453 126.887 439.838
958 1 56.0495 17.77 996 115.264 126.869 469.985
959 0 58.0388 13.9389 809 123.152 125.672 468.714
960 0 60.0629 13.2528 796 121.966 126.367 464.658
961 0 60.1103 13.4253 807 120.6 124.898 463.44
962 0 64.0939 12.8873 826 120.611 125.748 464.839
963 0 67.0318 13.2773 890 119.747 124.383 461.951
964 0 66.1076 13.7352 908 120.714 125.349 460.791
965 0 63.0761 11.5733 730 127.04 125.268 457.022
966 0 68.0758 13.1324 894 123.989 123.79 456.726
967 0 72.0712 13.556 977 124.557 124.13 452.282
968 0 76.078 13.6176 1036 124.102 123.755 453.618
969 0 79.042 17.3452 1371 116.375 123.066 452.202
970 0 79.1396 15.3905 1218 120.738 124.384 452.539
971 0 83.0681 13.6755 1136 123.985 124 448.714
972 0 86.1737 13.8557 1194 123.648 125.485 444.172
973 1 48.0574 10.6955 514 126.36 124.842 462.144
974 0 48.0687 12.9606 623 121.398 126.329 463.018
975 0 51.1665 14.228 728 121.144 123.878 458.556
976 0 52.2133 12.6788 662 124.116 125.976 458.591
977 0 52.1155 12.4339 648 125.718 123.628 455.983
978 0 58.1889 16.4808 959 115.024 126.438 456.782
979 0 56.3323 13.8286 779 118.964 126.276 455.412
980 0 61.1168 15.2004 929 113.516 127.959 458.009
981 0 62.1121 13.0892 813 119.145 128.464 454.907
982 0 63.1413 13.9687 882 120.963 128.78 451.389
983 0 67.152 14.3406 963 114.617 129.14 452.52
984 0 66.1835 10.1083 669 121.61 130.093 453.142
985 0 70.16 14.5239 1019 114.371 130.761 452.667
986 0 71.1432 11.7228 834 115.724 131.283 454.37
987 0 77.1886 15.4686 1194 111.45 131.052 447.223
988 0 79.4024 12.9971 1032 115.19 131.081 452.127
989 0 78.4838 14.4871 1137 112.34 131.971 450.155
990 0 84.3395 15.3309 1293 110.969 130.862 445.978
991 0 86.2829 15.8896 1371 109.432 131.43 445.463
992 0 90.4904 14.5982 1321 111.237 130.673 448.488
993 0 94.5022 17.1636 1622 106.683 130.541 450.331
994 0 95.3512 15.0706 1437 112.126 130.834 447.048
995 0 98.294 12.6457 1243 119.15 129.221 445.196
996 0 100.66 11.5339 1161 120.723 129.539 441.4
997 0 103.528 14.7399 1526 118.803 129.501 437.503
998 0 108.477 13.0258 1413 118.858 128.488 439.262
999 0 111.445 13.962 1556 113.785 127.332 437.977
1000 0 111.541 8.9922 1003 121.994 128.003 445.768
1001 1 65.1875 13.0853 853 112.211 127.746 468.004
1002 0 64.1765 10.362 665 117.411 127.292 466.783
1003 0 64.1148 9.24904 593 119.361 126.462 461.209
1004 0 68.196 11.6136 792 115.912 126.431 460.244
1005 0 71.3869 12.089 863 117.509 125.414 460.848
1006 0 72.1932 13.2838 959 114.604 124.506 457.772
1007 0 73.1192 12.336 902 119.105 123.831 454.602
1008 0 74.3535 11.5798 861 121.319 123.872 454.863
1009 0 78.1062 11.9581 934 119.999 123.824 454.597
1010 1 40.2826 9.58229 386 121.658 124.176 471.58
1011 0 44.0403 11.6711 514 115.255 124.185 472.304
1012 0 43.0632 10.8213 466 120.594 124.345 466.76
1013 0 49.0792 13.7329 674 113.136 124.32 466.344
1014 0 46.0294 13.5783 625 114.909 124.378 464.95
1015 0 46.0985 11.5188 531 120.49 122.153 463.586
1016 0 49.166 12.6103 620 113.744 123.042 457.21
1017 0 51.4429 11.5662 595 115.187 119.094 456.422
1018 0 51.2033 11.386 583 118.079 119.089 453.029
1019 0 51.2097 9.68567 496 120.692 119.766 457.548
1020 0 55.2267 12.9466 715 115.115 120.221 454.214
1021 0 57.2009 14.0557 804 113.483 120.613 450.175
1022 0 56.1196 13.1327 737 115.782 121.065 450.551
1023 0 59.2361 13.2858 787 115.081 121.928 451.108
1024 0 63.1502 13.6342 861 112.76 121.525 451.574
1025 0 65.2216 13.8144 901 113.537 123.075 447.918
1026 0 65.2246 12.158 793 117.069 123.744 446.135
1027 0 67.104 14.9022 1000 111.389 125.664 447.681
1028 0 71.2551 14.5955 1040 109.795 131.372 450.022
1029 0 71.0945 13.4328 955 113.74 130.341 442.036
1030 0 74.259 12.82 952 114.988 130.065 442.777
1031 0 79.4427 11.5807 920 115.997 130.466 443.097
1032 0 79.2647 11.9347 946 116.07 130.887 442.988
1033 0 84.1636 14.2936 1203 110.871 131.734 443.51
1034 0 87.5868 12.1023 1060 114.819 130.194 442.347
1035 1 46.1759 13.7518 635 108.157 130.975 465.34
1036 0 47.2626 10.8543 513 113.52 128.55 467.969
1037 0 50.0975 11.6772 585 112.786 130.547 464.631
1038 0 52.2458 13.3982 700 109.386 130.477 463.623
1039 0 50.0752 10.5841 530 116.787 129.36 462.03
1040 0 55.1731 11.9261 658 112.62 129.746 468.207
1041 0 55.3073 13.3255 737 115.471 129.459 464.331
1042 0 58.444 12.6959 742 115.841 128.31 466.047
1043 0 61.2877 11.7805 722 116.68 127.633 465.86
1044 0 63.096 12.9961 820 115.155 126.384 465.105
1045 0 63.2438 14.8157 937 115.574 125.448 461.425
1046 0 64.2125 12.1472 780 119.959 125.626 462.014
1047 0 69.1286 13.5255 935 116.88 124.154 463.256
1048 0 72.168 14.6187 1055 115.549 123.622 461.386
1049 0 73.1591 16.6213 1216 112.826 124.146 461.215
1050 0 73.1026 12.8723 941 121.912 122.099 454.821
1051 0 78.2582 18.7201 1465 111.016 123.944 454.991
1052 0 79.115 14.9024 1179 118.551 122.874 452.955
1053 0 82.1653 14.3978 1183 118.789 123.576 454.545
1054 0 87.1035 19.4596 1695 109.402 122.314 452.224
1055 1 44.0321 13.5129 595 118.197 124 472.017
1056 0 44.0726 11.3676 501 122.623 124.729 469.453
1057 0 48.0559 13.4635 647 118.19 124.471 466.853
1058 0 46.0753 11.4378 527 122.844 124.328 466.973
1059 0 50.1158 14.1073 707 117.123 125.506 465.777
1060 0 50.4173 14.8163 747 116.819 125.652 462.624
1061 0 54.1865 12.8814 698 118.504 125.05 463.388
1062 0 55.0637 12.1132 667 121.72 126.264 459.462
1063 0 54.0503 12.1368 656 122.552 125.707 458.157
1064 0 61.3261 17.2683 1059 108.428 126.858 461.771
1065 0 57.0469 13.2522 756 120.401 127.351 457.631
1066 0 59.2888 13.021 772 120.833 127.657 456.477
1067 0 60.125 12.0582 725 122.43 127.557 456.772
1068 0 63.2165 13.0188 823 119.287 128.746 457.157
1069 0 66.3703 14.9012 989 117.396 128.888 453.36
1070 0 70.1868 13.5068 948 118.138 129.34 453.05
1071 0 73.2297 16.141 1182 113.399 130.883 450.912
1072 0 77.2427 15.6131 1206 113.803 129.455 451.612
1073 0 76.3534 14.2626 1089 116.338 130.651 453.627
1074 0 81.2715 16.9801 1380 112.675 130.965 447.287
1075 1 43.1261 13.9591 602 115.749 129.962 470.352
1076 0 42.1773 13.135 554 120.146 132.092 469.82
1077 0 42.1773 13.0402 550 133.705 134.089 469.825
1078 0 46.1879 12.9904 600 119.567 129.972 470.042
1079 0 43.0562 12.8205 552 120.897 130.127 472.716
1080 0 47.0357 12.3948 583 119.317 128.578 474.962
1081 0 50.0597 14.203 711 116.422 129.821 473.875
1082 0 48.1719 9.79823 472 125.186 129.572 472.729
1083 0 54.2061 13.7992 748 116.687 129.693 469.414
1084 0 57.207 13.4075 767 116.694 127.502 470.89
1085 0 54.0738 12.261 663 121.196 127.578 469.112
1086 0 60.236 15.9871 963 112.366 127.352 472.54
1087 0 62.164 14.9443 929 114.161 126.507 469.997
1088 0 63.196 13.5768 858 117.033 124.435 469.124
1089 0 67.1828 15.0783 1013 113.861 124.384 465.067
1090 0 70.1697 14.1229 991 115.652 122.214 465.886
1091 0 71.2442 13.3765 953 116.919 122.896 462.573
1092 0 73.1333 14.4394 1056 115.156 123.554 462.176
1093 0 74.1234 15.6496 1160 113.574 122.94 457.578
1094 1 38.148 12.1631 464 120.869 121.123 474.037
1095 0 39.0122 12.0988 472 119.271 121.367 475.314
1096 0 41.0997 13.2604 545 116.809 121.648 476.572
1097 0 42.0229 12.4932 525 121.99 121.59 473.76
1098 0 44.1266 13.8465 611 114.478 121.921 471.637
1099 0 43.1522 12.1431 524 117.265 122.815 469.038
1100 0 46.1499 13.1745 608 116.099 122.98 465.826
1101 0 47.0973 13.2916 626 115.85 122.992 465.49
1102 0 48.1369 13.3785 644 115.898 121.88 463.755
1103 0 48.071 13.064 628 124.567 122.256 465.691
1104 0 50.1612 13.5962 682 117.24 123.839 458.839
1105 0 55.2046 11.4483 632 119.536 123.818 460.245
1106 0 51.1811 10.668 546 128.458 123.965 463.251
1107 0 58.1131 14.5234 844 120.41 125.059 460.121
1108 0 57.0701 15.4021 879 120.098 126.234 456.809
1109 0 59.0935 14.0286 829 121.634 125.758 459.786
1110 0 60.2204 14.0816 848 123.691 127.291 455.473
1111 0 65.2224 16.3747 1068 117.227 128.293 458.256
1112 0 66.2613 16.1784 1072 118.845 128.482 457.325
1113 0 69.0367 13.8043 953 123.328 128.493 456.27
1114 0 72.1481 13.9158 1004 124.951 128.683 452.675
1115 0 76.2641 13.0337 994 125.936 129.123 452.388
1116 0 75.1166 14.604 1097 124.672 129.982 452.807
1117 0 79.4219 13.5479 1076 127.251 128.365 450.338
1118 1 42.0487 14.6735 617 124.927 131.259 465.916
1119 0 46.0783 14.5622 671 123.128 130.167 466.735
1120 0 44.1543 13.6567 603 127.919 130.942 467.058
1121 0 51.5384 16.6672 859 116.834 130.782 469.568
1122 0 45.0371 13.9885 630 130.008 130.259 467.456
1123 0 49.0878 12.9156 634 130.009 130.191 472.237
1124 0 51.1313 13.0644 668 130.882 129.596 470.641
1125 0 54.0357 14.9531 808 126.557 129.781 469.748
1126 0 55.0289 14.5015 798 128.538 129.797 470.218
1127 0 56.089 14.2274 798 130.345 129.419 471.69
1128 0 58.0881 14.6157 849 130.279 127.942 468.278
1129 0 60.0612 12.3707 743 133.833 127.743 471.265
1130 0 62.0765 14.8365 921 130.705 127.559 465.302
1131 0 64.097 13.6668 876 132.404 126.07 467.527
1132 0 66.1984 14.2602 944 132.363 124.632 465.288
1133 0 69.0608 12.7279 879 135.644 124.403 462.621
1134 0 69.1092 12.9216 893 136.717 123.3 459.904
1135 0 69.1189 12.9053 892 156.109 122.293 459.909
1136 1 36.0403 10.4882 378 135.328 123.775 475.286
1137 0 36.0854 12.8861 465 129.439 123.978 477.492
1138 0 39.1052 13.0929 512 129.254 121.668 472.416
1139 0 40.203 14.7004 591 125.638 120.294 471.029
1140 0 44.0254 15.6273 688 125.249 122.384 471.231
1141 0 40.1259 11.3393 455 132.455 121.791 473.826
1142 0 42.0531 12.8171 539 130.083 119.64 473.199
1143 0 46.059 13.8735 639 126.908 120.671 470.257
1144 0 44.0669 12.5491 553 130.935 120.344 469.541
1145 0 46.1189 14.3542 662 126.855 122.394 468.893
1146 0 49.1069 15.0488 739 125.712 122.076 464.87
1147 0 51.1664 11.9805 613 125.68 122.953 464.816
1148 0 53.1569 13.1874 701 123.853 122.695 461.341
1149 0 54.1826 15.4662 838 120.918 124.15 459.937
1150 0 55.1265 13.6595 753 125.297 122.831 457.758
1151 0 57.1473 13.8764 793 124.063 124.072 457.551
1152 0 58.2347 14.1153 822 124.028 125.617 453.359
1153 0 59.1083 12.5532 742 128.088 125.05 454.985
1154 0 60.167 13.1135 789 124.256 126.54 460.33
1155 0 64.2689 14.7039 945 124.187 126.378 456.924
1156 0 68.0742 14.7192 1002 122.105 126.924 454.701
1157 0 69.1997 13.8006 955 125.325 127.772 452.506
1158 0 71.124 13.2445 942 127.141 127.207 452.948
1159 0 73.2179 13.8627 1015 125.335 129.736 453.838
1160 0 77.2796 14.7904 1143 122.967 129.328 455.551
1161 0 79.252 14.8514 1177 123.034 130.637 451.902
1162 0 83.1763 13.7058 1140 124.766 128.86 452.812
1163 0 82.1601 13.778 1132 130.279 127.881 452.676
1164 1 47.0461 13.6037 640 122.659 130.072 471.909
1165 0 47.0577 10.7527 506 128.095 128.597 473.198
1166 0 48.0407 14.6334 703 123.677 129.97 470.657
1167 0 50.1989 15.1796 762 121.692 129.164 470.668
1168 0 51.0862 12.1364 620 127.4 128.358 472.747
1169 0 53.0387 12.2363 649 127.747 127.961 472.459
1170 0 54.0463 10.8426 586 128.599 127.56 476.654
1171 0 57.0535 13.4786 769 124.56 127.242 472.588
1172 0 59.2626 14.1236 837 123.556 126.063 470.973
1173 0 61.0621 13.216 807 125.757 125.991 468.983
1174 0 64.1139 14.4742 928 122.336 125.725 472.208
1175 0 67.0579 13.4958 905 123.738 125.118 470.495
1176 0 70.1578 13.997 982 120.873 123.46 464.524
1177 0 70.0922 12.9829 910 125.834 124.254 467.284
1178 0 72.1157 11.9114 859 124.1 123.256 466.152
1179 0 76.2656 12.2729 936 124.897 121.934 458.085
1180 0 81.0914 13.8856 1126 120.722 122.768 460.754
1181 0 82.1544 14.2902 1174 121.127 120.652 456.401
1182 0 85.127 15.4005 1311 118.582 120.938 457.316
1183 0 89.0803 13.9088 1239 121.03 121.094 456.434
1184 0 90.2929 14.2868 1290 122.633 121.119 452.642
1185 0 92.1489 15.3013 1410 121.673 121.316 448.062
1186 1 44.0726 13.8635 611 121.998 121.9 474.182
1187 0 45.0318 12.5911 567 123.723 122.697 472.711
1188 0 45.0472 13.7412 619 122.887 121.774 470.548
1189 0 48.0437 15.4859 744 119.34 122.306 468.18
1190 0 47.1191 13.0733 616 125.029 122.287 466.856
1191 0 50.1171 11.6926 586 125.857 123.563 466.631
1192 0 53.0381 14.1596 751 121.407 123.583 464.22
1193 0 56.1205 16.5358 928 117.345 123.238 460.97
1194 0 57.1093 13.3604 763 123.021 124.113 461.153
1195 0 58.1973 14.1244 822 122.319 123.989 457.596
1196 0 59.1192 15.0205 888 120.046 125.61 455.503
1197 0 61.0981 15.2214 930 120.704 125.749 456.196
1198 0 63.1518 14.3147 904 123.124 125.7 454.019
1199 0 66.2649 16.0568 1064 118.466 126.883 457.909
1200 0 67.1504 16.1429 1084 118.989 127.392 456.74
1201 0 69.1058 14.9481 1033 122.673 128.402 453.036
1202 0 72.1944 14.0177 1012 123.649 127.91 455.242
1203 0 73.1079 15.7986 1155 121.315 130.022 454.582
1204 0 75.1358 14.933 1122 124.976 129.172 453.522
1205 0 79.1069 14.6005 1155 125.513 129.6 454.255
1206 0 80.1186 14.2788 1144 126.982 130.472 454.324
1207 0 83.2345 13.1796 1097 128.998 128.841 455.265
1208 0 83.2345 13.1796 1097 152.191 127.825 455.207
1209 0 87.2532 13.8448 1208 129.401 128.711 455.414
1210 0 91.3134 16.0874 1469 126.12 129.246 452.413
1211 0 94.429 14.6036 1379 129.065 128.745 449.069
1212 0 101.304 17.709 1794 126.092 129.483 449.988
1213 0 104.231 16.3195 1701 130.369 127.45 446.566
1214 1 56.3399 14.2705 804 129.769 127.933 469.91
1215 0 59.2528 13.1808 781 133.795 125.816 466.832
1216 0 56.2078 11.3329 637 139.95 124.967 463.573
1217 0 62.2768 13.8414 862 134.72 125.642 459.703
1218 0 66.3401 14.5463 965 133.948 124.095 445.705
1219 0 64.3278 13.0581 840 138.685 123.288 443.773
1220 0 66.2307 14.9025 987 135.532 123.299 442.294
1221 0 70.3184 15.0459 1058 134.128 121.664 442.443
1222 0 73.2953 15.6081 1144 131.453 122.515 444.687
1223 0 75.1918 15.5735 1171 132.592 121.357 440.161
1224 0 79.5508 15.9898 1272 130.153 121.697 443.543
1225 0 78.2595 16.2536 1272 130.196 121.722 441.59
1226 0 82.3563 16.3436 1346 130.551 122.039 439.832
1227 0 86.6149 14.8473 1286 133.998 121.069 436.856
1228 0 87.3229 14.7728 1290 134.108 121.133 443.119
1229 0 91.423 18.5511 1696 125.16 121.319 443.118
1230 0 94.29 15.919 1501 130.849 121.334 441.998
1231 0 98.4805 16.1352 1589 128.866 121.923 439.602
1232 0 101.258 18.0726 1830 126.272 121.898 430.956
1233 1 54.0647 12.6885 686 125.818 123.577 462.94
1234 0 55.2649 12.6301 698 124.587 124.367 459.632
1235 0 57.0674 14.7194 840 121.569 125.596 455.871
1236 0 57.129 12.6031 720 124 124.579 454.833
1237 0 60.1517 12.8508 773 122.026 126.36 455.32
1238 0 62.586 11.2965 707 126.95 126.301 450.174
1239 0 65.1278 15.5387 1012 118.531 127.961 449.726
1240 0 69.2774 14.5069 1005 119.657 127.528 450.942
1241 0 71.3335 15.8411 1130 118.042 128.503 448.083
1242 0 71.1616 11.9165 848 124.923 128.967 450.758
1243 0 76.2424 16.9853 1295 115.035 130.124 451.295
1244 0 77.4649 13.8902 1076 121.284 130.09 448.504
1245 0 79.1612 13.542 1072 121.664 129.8 448.569
1246 0 82.324 13.046 1074 122.695 130.579 448.371
1247 0 85.235 12.5066 1066 124.057 130.493 448.4
1248 0 88.2258 12.9441 1142 122.77 130.946 448.566
1249 0 88.269 16.9935 1500 118.045 129.489 445.166
1250 0 93.555 12.4419 1164 125.471 130.539 445.704
1251 0 98.7487 13.8432 1367 122.625 131.071 444.05
1252 1 50.4636 10.7999 545 124.78 130.655 468.928
1253 0 55.1243 14.2405 785 116.033 130.014 470.115
1254 0 56.1607 12.393 696 118.394 129.901 470.845
1255 0 57.0621 11.0581 631 118.906 129.065 468.577
1256 0 59.0984 10.8294 640 123.108 128.898 468.197
1257 0 60.1936 10.7985 650 121.177 128.368 463.043
1258 0 66.0661 12.9264 854 115.69 127.505 467.554
1259 0 67.0914 12.6246 847 117.087 128.226 463.639
1260 0 68.1371 11.5062 784 119.379 126.251 464.119
1261 0 71.1671 11.8875 846 116.702 125.615 466.535
1262 0 77.1357 16.0496 1238 110.562 125.525 461.536
1263 0 75.2899 11.7413 884 118.643 125.359 457.346
1264 0 79.1368 13.6725 1082 115.524 123.45 453.647
1265 0 81.3757 13.6896 1114 115.665 122.523 450.838
1266 1 41.1975 11.2628 464 112.099 122.028 473.345
1267 0 45.5558 11.6341 530 110.809 122.97 471.562
1268 0 46.2608 11.6513 539 110.534 121.703 469.252
1269 0 48.3306 12.0628 583 111.091 120.933 467.832
1270 0 48.3118 8.65213 418 117.081 120.873 469.73
1271 0 51.092 11.6652 596 111.46 121.468 465.94
1272 0 54.1772 14.1203 765 106.373 120.915 465.527
1273 0 55.1732 11.7086 646 111.659 121.05 459.958
1274 0 54.1804 12.8829 698 110.308 120.458 459.064
1275 0 59.3963 14.8999 885 108.172 121.531 457.758
1276 0 60.1751 12.4138 747 112.143 120.9 455.648
1277 0 62.1 11.9646 743 113.285 122.424 452.775
1278 0 63.3218 12.0654 764 112.685 122.685 451.586
1279 0 65.4965 13.4511 881 111.686 122.079 450.6
1280 0 68.5111 13.7934 945 109.734 123.528 447.613
1281 0 69.5189 12.644 879 111.821 123.521 446.365
1282 0 71.9138 13.1407 945 111.657 124.469 443.891
1283 0 72.5279 12.3676 897 112.65 125.192 445.371
1284 0 77.4474 15.6881 1215 107.623 126.328 441.717
1285 0 78.5708 12.3074 967 113.234 125.514 442.912
1286 0 81.5673 13.6574 1114 111.414 125.494 443.198
1287 0 82.2904 12.4437 1024 114.941 127.473 437.644
1288 1 43.1286 11.4077 492 111.626 127.937 461.122
1289 0 45.3086 10.1085 458 113.183 128.162 460.93
1290 0 47.1002 14.5647 686 109.926 130.776 462.679
1291 0 49.2398 12.7539 628 115.424 131.457 463.146
1292 0 50.1746 12.895 647 115.839 129.839 461.952
1293 0 47.1919 8.20056 387 125.057 130.953 462.778
1294 0 49.1469 10.7433 528 120.328 131.112 464.748
1295 0 54.4469 12.8933 702 116.286 130.566 461.303
1296 0 55.1722 11.5819 639 117.099 129.977 464.67
1297 0 58.4558 12.6762 741 114.302 130.472 463.671
1298 0 60.2222 12.4871 752 113.096 129.995 465.289
1299 0 61.211 11.2888 691 115.876 127.386 464.582
1300 0 63.1962 12.2476 774 114.138 128.783 462.943
1301 0 63.2551 9.05856 573 116.836 127.349 467.536
1302 0 71.3044 12.8884 919 113.328 126.639 458.928
1303 0 72.1771 10.5712 763 116.742 124.586 454.48
1304 0 75.5641 14.5307 1098 110.151 123.169 457.884
1305 0 76.3762 12.0849 923 114.745 123.376 450.592
1306 0 79.346 11.7208 930 115.085 121.985 455.195
1307 0 84.1967 12.6133 1062 113.816 122.105 449.74
1308 0 94.4774 13.4212 1268 113.61 121.777 449.554
1309 1 47.062 12.5154 589 113.144 123.161 467.757
1310 0 49.1233 11.9699 588 114.286 122.651 466.77
1311 0 52.1115 11.7249 611 113.92 120.899 465.319
1312 0 52.1042 13.4346 700 113.75 121.121 461.25
1313 0 57.0493 14.1457 807 109.722 122.591 461.887
1314 0 57.3657 13.9456 800 109.54 121.572 463.289
1315 0 58.1011 11.8931 691 113.35 122.786 460.198
1316 0 58.0579 12.0742 701 113.31 122.76 459.844
1317 0 63.2359 14.011 886 109.654 123.624 458.05
1318 0 63.1332 12.6083 796 112.849 123.75 454.824
1319 0 65.1111 14.4829 943 109.378 124.681 453.473
1320 0 63.209 12.4033 784 110.477 123.967 451.342
1321 0 67.2588 12.9351 870 108.67 125.238 450.63
1322 0 68.1491 13.0449 889 108.883 124.947 451.881
1323 0 71.1257 14.2846 1016 107.869 126.334 447.504
1324 0 75.33 11.3766 857 111.239 127.2 448.992
1325 0 76.0954 12.5763 957 109.987 127.462 446.619
1326 0 79.2344 12.8227 1016 109.73 128.661 447.818
1327 0 83.1831 10.9397 910 112.775 127.181 443.246
1328 1 47.0817 11.5331 543 110.818 128.761 462.4
1329 0 43.1673 9.35894 404 116.2 130.272 465.641
1330 0 50.0506 15.6242 782 105.387 129.813 461.031
1331 0 52.1678 13.1115 684 109.186 130.49 462.637
1332 0 50.2048 12.2698 616 111.589 129.968 461.581
1333 0 51.0577 10.1846 520 114.094 131.113 464.458
1334 0 55.1343 13.4036 739 109.957 129.712 463.824
1335 0 55.3582 10.405 576 114.188 131.665 464.53
1336 0 56.1388 11.5606 649 112.408 129.698 465.277
1337 0 60.0711 13.4674 809 108.307 129.64 468.057
1338 0 61.1183 12.9748 793 110.741 129.712 462.736
1339 0 65.1283 12.2681 799 109.367 129.499 467.581
1340 0 67.1359 14.1355 949 108.338 128.531 465.946
1341 0 67.0684 10.2135 685 115.261 128.696 464.512
1342 0 70.2468 12.8404 902 111.826 127.187 459.086
1343 0 72.0997 14.5077 1046 107.905 127.706 464.18
1344 0 73.1344 10.8431 793 115.192 126.282 462.644
1345 0 76.2044 10.708 816 116.326 126.717 458.489
1346 0 75.2792 10.5607 795 116.455 125.675 459.535
1347 1 46.0683 14.2614 657 109.239 126.064 472.379
1348 0 50.1673 13.3354 669 108.528 124.854 473.75
1349 0 48.1971 12.2207 589 112.579 122.878 469.149
1350 0 47.3182 11.0528 523 116.516 120.56 466.488
1351 0 52.0761 13.3459 695 110.822 119.469 467.994
1352 0 50.2468 10.4484 525 118.728 119.192 467.878
1353 0 52.1593 12.9411 675 113.698 118.707 468.102
1354 0 54.0976 13.4387 727 114.906 119.818 462.813
1355 0 55.0752 18.6654 1028 106.583 118.089 463.656
1356 0 58.1805 16.0707 935 110.302 118.982 460.501
1357 0 60.3392 15.7941 953 110.939 120.454 461.577
1358 0 61.0703 12.2318 747 118.309 120.138 457.47
1359 0 61.2258 12.5601 769 118.137 120.324 458.635
1360 0 67.2214 17.3159 1164 109.234 120.1 458.791
1361 0 65.1433 10.4846 683 123.471 120.921 453.351
1362 0 68.1024 14.5076 988 115.952 121.5 452.053
1363 0 68.112 12.7584 869 119.494 121.93 449.687
1364 0 71.1234 14.2007 1010 115.366 122.013 452.7
1365 0 74.0978 12.0246 891 121.716 123.57 443.997
1366 1 39.0741 12.7194 497 120.732 122.61 459.819
1367 0 42.0964 9.57326 403 122.479 125.156 465.404
1368 0 44.1338 12.5754 555 118.351 125.542 460.456
1369 0 45.0666 12.2485 552 118.752 126.13 461.413
1370 0 45.1298 12.874 581 120.876 126.194 460.399
1371 0 46.4044 10.6671 495 111.414 128.927 458.337
1372 0 48.2635 10.422 503 109.555 129.68 460.543
1373 0 49.1105 10.1608 499 111.93 131.493 457.621
1374 0 47.209 8.89661 420 114.574 129.833 459.145
1375 0 52.0695 10.4284 543 116.506 128.659 464.171
1376 0 55.1733 12.0892 667 113.279 128.279 463.843
1377 0 53.2016 10.432 555 115.564 127.753 467.252
1378 0 58.2734 12.2526 714 113.301 127.559 462.978
1379 0 60.4448 15.1543 916 108.988 128.033 464.302
1380 0 61.0886 12.4409 760 113.126 126.824 468.312
1381 0 63.2139 11.6905 739 115.085 126.801 467.08
1382 0 67.5131 13.0938 884 112.618 125.848 464.059
1383 0 69.2101 15.8503 1097 107.884 127.278 465.189
1384 0 69.2102 11.7179 811 116.64 126.543 463.814
1385 0 73.1699 12.9971 951 113.87 126.263 462.151
1386 0 73.2639 12.5574 920 115.292 125.179 461.676
1387 0 75.2664 14.5483 1095 113.042 125.765 457.227
1388 0 78.4428 12.9904 1019 115.144 123.387 459.96
1389 0 81.3513 16.6439 1354 111.126 124.362 451.727
1390 0 83.3168 14.0308 1169 115.311 124.212 448.632
1391 0 84.2613 12.0933 1019 118.791 122.973 453.549
1392 0 86.257 14.6771 1266 115.429 122.924 452.543
1393 0 88.3442 13.5832 1200 118.518 121.63 446.81
1394 0 93.3169 15.0348 1403 116.542 120.713 444.092
1395 0 94.5433 14.1628 1339 118.692 122.026 442.532
1396 0 94.3678 14.3905 1358 119.339 121.66 440.982
1397 0 99.457 13.6642 1359 119.96 122.413 441.326
1398 0 100.306 12.0731 1211 124.924 120.453 439.369
1399 0 105.531 13.541 1429 123.156 122.498 432.627
1400 0 106.516 15.9506 1699 119.441 121.005 432.196
1401 0 108.315 12.4267 1346 126.528 122.333 436.392
1402 0 113.453 13.7414 1559 124.465 122.107 431.633
1403 0 119.601 15.1922 1817 123.555 123.409 421.816
1404 0 121.535 14.8023 1799 125.314 123.521 427.758
1405 0 126.552 16.3569 2070 124.019 124.427 420.652
1406 1 65.1959 10.5528 688 130.722 125.624 450.924
1407 0 66.0836 12.9079 853 127.821 124.829 449.407
1408 0 68.2069 13.1658 898 124.919 124.204 444.543
1409 0 71.1819 13.6552 972 122.063 124.493 439.85
1410 0 73.1223 13.3202 974 116.914 126.449 439.993
1411 0 76.2661 12.5744 959 116.319 126.855 444.26
1412 0 78.1682 13.9443 1090 115.173 127.41 439.424
1413 0 80.2838 11.4469 919 119.522 127.839 440.101
1414 0 83.121 13.2458 1101 116.897 128.007 437.582
1415 0 87.1347 13.657 1190 115.931 129.058 437.699
1416 0 91.2522 15.1448 1382 112.998 128.848 437.082
1417 0 94.2533 16.9755 1600 111.076 129.835 436.729
1418 0 97.3117 15.2089 1480 117.49 128.843 437.23
1419 0 99.1647 14.3297 1421 117.426 128.846 447.838
1420 0 104.175 13.0838 1363 121.564 128.868 443.409
1421 0 109.316 13.9229 1522 119.668 128.162 444.738
1422 1 60.303 13.6312 822 116.513 127.785 462.156
1423 0 64.0761 15.4816 992 113.916 127.062 465.245
1424 0 66.0854 11.9391 789 120.995 126.64 462.061
1425 0 67.2221 17.286 1162 111.05 127.357 464.954
1426 0 70.333 13.6778 962 117.568 126.339 464.004
1427 0 71.0734 14.6468 1041 116.347 127.032 461.723
1428 0 72.2629 16.606 1200 114.113 125.525 459.488
1429 0 76.2129 15.483 1180 114.876 125.429 460.476
1430 0 78.2042 13.7205 1073 118.884 123.938 461.853
1431 0 80.3389 12.8829 1035 120.93 123.295 454.364
1432 0 83.5824 14.9314 1248 116.869 122.721 456.401
1433 0 88.2548 14.7301 1300 117.235 123.228 451.522
1434 0 90.1493 17.9924 1622 111.454 121.538 448.734
1435 0 93.193 15.7523 1468 114.841 122.018 448.747
1436 0 96.2613 15.7904 1520 115.626 120.139 446.451
1437 0 97.1497 14.524 1411 118.187 121.937 448.247
1438 1 51.1199 11.2481 575 120.513 121.197 467.078
1439 0 55.1283 11.5004 634 118.7 120.776 465.11
1440 0 57.0444 12.7445 727 118.208 121.857 463.503
1441 0 59.1191 13.8872 821 116.363 121.549 462.504
1442 0 58.0645 11.7456 682 118.578 121.371 457.79
1443 0 58.1352 11.9377 694 118.958 121.95 456.069
1444 0 62.0697 12.8243 796 115.647 121.717 456.617
1445 0 63.1597 12.4288 785 117.452 122.978 453.657
1446 0 65.1459 13.2165 861 115.564 123.482 452.199
1447 0 66.1437 13.9847 925 115.411 125.663 448.488
1448 0 68.1149 11.4659 781 119.983 123.572 448.396
1449 0 72.0919 13.8712 1000 114.902 124.964 447.921
1450 0 73.1315 12.1699 890 118.951 125.247 448.388
1451 0 75.2038 11.05 831 120.659 126.578 444.421
1452 0 77.1925 13.2137 1020 117.964 126.829 439.873
1453 0 83.1041 15.4024 1280 114.608 127.749 443.971
1454 0 83.2148 11.981 997 121.398 129.298 440.063
1455 0 87.1853 16.918 1475 112.178 129.292 441.443
1456 0 91.3432 15.4253 1409 115.64 128.505 436.112
1457 0 95.3102 16.5775 1580 112.972 128.923 438.428
1458 1 54.0836 11.815 639 116.307 130.12 461.072
1459 0 53.15 10.7996 574 116.847 130.307 461.997
1460 0 57.125 10.9409 625 117.789 131.763 460.37
1461 0 57.1008 14.343 819 113.875 131.75 459.944
1462 0 61.0237 15.1744 926 112.302 130.419 459.449
1463 0 60.1205 13.7557 827 115.326 130.969 459.143
1464 0 62.1235 12.0566 749 117.964 130.1 462.996
1465 0 65.0995 17.9418 1168 109.64 130.483 458.905
1466 0 67.1407 15.1473 1017 112.892 131.746 464.114
1467 0 67.2798 13.8377 931 117.863 129.945 458.945
1468 0 71.1299 15.5631 1107 113.9 129.518 459.176
1469 0 71.0687 11.5944 824 120.854 129.312 463.806
1470 0 73.0689 12.9877 949 118.238 128.865 460.065
1471 0 75.1751 15.1247 1137 115.892 127.658 459.3
1472 0 78.1417 13.0788 1022 119.583 127.532 455.083
1473 0 80.1346 11.9174 955 122.368 125.966 456.85
1474 0 82.0951 13.5696 1114 118.883 125.496 454.161
1475 0 86.2104 14.6734 1265 117.225 124.999 453.989
1476 0 90.4242 14.5315 1314 117.182 123.638 452.131
1477 1 46.0103 8.30249 382 124.377 124.529 472.84
1478 0 51.0298 12.8552 656 116.562 123.483 472.116
1479 0 50.2973 13.5395 681 113.435 121.269 463.47
1480 0 50.2863 12.1106 609 112.892 121.995 461.565
1481 0 52.4334 9.57404 502 118.873 121.647 459.458
1482 0 53.3269 11.5889 618 115.71 121.903 459.275
1483 0 54.2054 12.7663 692 114.419 122.46 456.835
1484 0 56.2472 11.5917 652 115.81 122.06 455.87
1485 0 57.1411 12.7929 731 113.967 121.488 454.714
1486 0 60.3588 12.873 777 114.445 123.022 451.136
1487 0 60.1212 10.8115 650 119.323 121.695 446.077
1488 0 60.1984 11.4289 688 119.217 120.846 444.738
1489 0 63.2232 10.2178 646 119.867 122.661 446.712
1490 0 67.3583 12.7972 862 115.545 121.299 443.02
1491 0 66.1847 10.0023 662 122.393 123.446 438.852
1492 0 71.3334 12.2383 873 117.976 124.544 437.021
1493 0 72.1354 11.3814 821 119.301 125.001 439.005
1494 0 73.1407 10.7874 789 121.978 125.477 435.483
1495 0 80.2564 12.3728 993 117.492 125.802 435.16
1496 0 80.2579 11.9614 960 119.411 127.014 431.603
1497 0 85.1167 12.4652 1061 118.06 127.792 432.664
1498 1 44.1036 10.362 457 111.867 126.794 456.171
1499 0 45.141 9.21556 416 115.346 126.505 454.885
1500 0 48.2073 11.5128 555 115.049 125.584 456.005
1501 0 51.1501 12.2189 625 111.734 126.509 460.83
1502 0 52.0973 13.1677 686 111.599 127.328 458.109
1503 0 53.0346 10.7288 569 117.875 130.199 462.271
1504 0 54.0678 12.9282 699 114.385 130.016 461
1505 0 58.0581 16.1734 939 108.55 129.732 460.203
1506 0 57.0262 12.5206 714 116.123 130.36 461.962
1507 0 57.0686 12.8792 735 114.876 130.356 464.201
1508 0 57.0686 12.7741 729 129.765 129.385 464.215
1509 0 62.0894 10.195 633 118.068 130.48 464.125
1510 0 63.0619 9.54618 602 120.13 130.679 462.234
1511 0 68.176 14.4039 982 111.606 128.465 461.651
1512 0 66.1769 11.2728 746 118.232 128.701 461.247
1513 0 70.2226 12.5173 879 116.166 128.708 460.622
1514 0 73.0571 11.9085 870 115.786 128.967 460.775
1515 0 77.1858 12.4893 964 114.767 127.113 460.307
1516 0 79.0648 11.8004 933 116.741 126.239 459.931
1517 0 81.1057 14.1914 1151 113.986 124.963 455.301
1518 0 84.0924 12.7241 1070 116.874 125.626 453.958
1519 0 89.3534 15.075 1347 111.745 124.806 453.623
1520 1 48.3057 11.9448 577 117.977 125.179 471.036
1521 0 48.0942 13.7854 663 114.155 124.839 470.069
1522 0 50.288 14.7351 741 113.236 122.337 466.262
1523 0 50.2635 14.3444 721 112.652 121.692 463.395
1524 0 53.0838 13.5823 721 112.23 122.406 468.767
1525 0 54.2517 12.313 668 115.025 121.618 467.148
1526 0 54.124 13.5799 735 113.442 120.497 466.325
1527 0 58.1815 14.386 837 116.982 119.534 459.752
1528 0 58.2172 12.419 723 120.242 120.212 461.9
1529 0 61.1254 13.5623 829 118.054 119.779 458.814
1530 0 61.2546 12.4072 760 121.314 120.787 455.311
1531 0 65.0351 14.2231 925 115.871 119.656 457.715
1532 0 67.1211 12.3806 831 120.715 121.557 453.684
1533 0 69.1433 18.7726 1298 109.297 122.359 454.645
1534 0 69.0901 13.0699 903 120.369 123.219 453.33
1535 0 72.2151 13.4875 974 119.759 122.134 450.872
1536 0 74.1235 14.3139 1061 119.211 124.553 447.769
1537 0 76.3647 15.7272 1201 117.878 124.9 444.384
1538 0 78.1046 13.085 1022 122.93 125.233 444.126
1539 0 80.3182 13.3594 1073 123.231 126.641 440.362
1540 0 86.211 15.1257 1304 118.577 126.686 443.405
1541 0 86.2088 12.0405 1038 125.171 127.878 442.301
1542 1 46.1464 11.3768 525 121.177 129.036 462.646
1543 0 45.0982 10.6434 480 123.102 129.179 464.798
1544 0 48.0253 12.5767 604 119.096 129.889 462.447
1545 0 49.2482 14.1731 698 116.42 129.718 460.891
1546 0 52.2665 12.5893 658 119.669 129.09 463.555
1547 0 50.4033 12.8166 646 120.735 129.124 464.235
1548 0 53.2966 12.3648 659 121.748 129.583 464.66
1549 0 55.2104 13.7655 760 118.884 128.728 465.561
1550 0 56.1938 14.3788 808 117.033 128.804 468.63
1551 0 57.3708 13.1077 752 121.658 128.485 466.121
1552 0 59.2685 16.13 956 116.077 128.086 466.313
1553 0 60.2571 13.376 806 120.914 127.965 465.002
1554 0 64.2722 14.7809 950 117.697 128.649 467.58
1555 0 64.3193 15.8895 1022 116.891 126.236 464.992
1556 0 66.2616 13.7787 913 120.601 126.982 467.203
1557 0 69.3017 16.623 1152 115.562 126.976 465.608
1558 0 71.3736 22.3892 1598 107.369 125.278 459.768
1559 0 74.4473 16.2128 1207 117.214 125.009 464.099
1560 0 71.3463 12.7967 913 126.294 124.43 462.984
1561 0 78.5198 14.3276 1125 122.356 123.739 458.504
1562 1 41.2678 12.2614 506 118.152 123.984 478.976
1563 0 39.1282 12.344 483 121.702 125.029 477.159
1564 0 39.1893 12.682 497 121.926 124.151 476.256
1565 0 42.2031 12.3688 522 121.632 123.398 476.138
1566 0 42.0521 12.0327 506 123.291 124.061 475.433
1567 0 44.1454 13.7727 608 119.016 123.873 472.951
1568 0 46.1454 14.9744 691 117.826 122.839 469.747
1569 0 45.0635 14.2466 642 120.559 122.508 470.509
1570 0 48.0645 15.3544 738 116.554 121.896 470.176
1571 0 49.0439 13.9263 683 119.24 122.977 468.145
1572 0 51.2707 15.4669 793 118.401 122.706 463.502
1573 0 52.2103 15.5142 810 118.885 122.396 461.61
1574 0 52.5476 13.4925 709 123.121 121.979 461.377
1575 0 54.4259 16.132 878 118.255 123.019 459.087
1576 0 55.3809 14.9149 826 120.084 122.663 457.643
1577 0 58.2963 17.8227 1039 113.816 123.277 458.812
1578 0 60.2069 15.0813 908 119.934 123.341 455.382
1579 0 63.2447 18.9265 1197 111.776 123.895 457.243
1580 0 65.2667 17.0991 1116 115.015 124.17 456.162
1581 0 66.2354 15.7771 1045 118.091 124.553 454.83
1582 0 66.2656 14.8946 987 121.967 124.698 450.657
1583 0 66.2144 11.795 781 128.051 125.291 452.686
1584 0 71.2231 11.3868 811 125.668 125.425 455.745
1585 0 72.1723 14.1051 1018 124.209 126.774 450.67
1586 0 76.284 17.5135 1336 117.26 127.456 452.833
1587 1 40.0747 12.8011 513 125.973 125.31 467.577
1588 0 43.2523 15.6754 678 119.941 127.052 467.544
1589 0 42.4784 11.6765 496 127.363 129.337 466.776
1590 0 45.203 13.6717 618 112.257 129.006 469.736
1591 0 45.2737 12.4576 564 120.413 128.796 468.431
1592 0 45.1728 9.96176 450 124.422 127.776 469.656
1593 0 49.1421 13.3287 655 125.559 128.518 471.35
1594 0 49.0539 13.2507 650 126.98 127.045 466.157
1595 0 53.1536 13.2634 705 125.847 127.702 467.079
1596 0 54.1138 13.8042 747 124.823 125.839 469.776
1597 0 53.0486 11.2727 598 131.232 125.714 467.614
1598 0 59.0337 15.8892 938 121.693 126.029 466.301
1599 0 58.2322 14.2361 829 124.16 125.429 471.285
1600 0 61.0474 14.6444 894 123.729 125.274 466.06
1601 0 60.1651 12.4989 752 128.499 123.122 465.391
1602 0 63.1646 14.391 909 125.616 123.518 460.67
1603 0 65.1721 16.0345 1045 121.347 122.691 464.127
1604 0 67.2355 17.2825 1162 120.898 120.955 458.7
1605 0 69.077 13.1737 910 127.251 120.802 465.52
1606 0 70.082 13.4985 946 128.838 120.207 457.552
1607 0 74.1814 14.5454 1079 126.193 121.479 451.481
1608 0 75.3893 16.05 1210 121.393 120.936 448.755
1609 0 78.3382 15.2671 1196 121.342 121.064 449.631
1610 0 79.1623 16.2325 1285 121.832 121.409 444.381
1611 0 82.3425 13.9782 1151 124.997 121.377 440.025
1612 0 83.3699 15.2693 1273 123.505 121.415 441.288
1613 0 87.3884 14.4184 1260 124.739 120.237 445.69
1614 0 88.3844 13.1358 1161 128.501 121.235 446.821
1615 0 93.1181 16.1515 1504 122.791 120.819 441.861
1616 0 94.1866 16.3081 1536 123.077 122.434 440.754
1617 0 96.7171 13.3585 1292 129.366 122.52 435.591
1618 0 103.5 13.7392 1422 127.507 121.65 436.482
1619 1 57.4475 16.1887 930 121.616 122.252 454.989
1620 0 58.1688 15.2144 885 126.944 123.875 454.114
1621 0 61.1054 15.6287 955 125.939 123.384 454.285
1622 0 64.2106 18.7041 1201 117.118 124.196 451.008
1623 0 65.0774 15.4893 1008 123.316 123.082 453.202
1624 0 68.3793 16.1599 1105 121.442 124.707 450.645
1625 0 71.2482 15.6636 1116 120.964 126.633 455.234
1626 0 72.132 13.8357 998 124.946 127.242 453.603
1627 0 77.2657 14.586 1127 122.901 128.138 450.058
1628 0 78.4359 12.6218 990 126.836 128.335 450.282
1629 0 79.1786 11.8593 939 128.04 129.145 451.101
1630 0 85.3061 16.3177 1392 120.391 129.042 445.305
1631 0 85.2217 14.0457 1197 123.722 129.699 449.717
1632 0 89.2314 15.1516 1352 122.93 130.092 446.047
1633 0 95.2628 19.8188 1888 113.774 129.638 443.924
1634 0 96.264 14.4187 1388 122.451 131.44 447.615
1635 0 98.2968 15.5244 1526 121.362 129.972 445.867
1636 0 103.413 14.3598 1485 123.169 129.835 444.648
1637 1 53.1281 14.7756 785 121.382 129.223 468.231
1638 0 52.1353 16.8791 880 120.043 128.406 467.978
1639 0 55.1886 18.3009 1010 117.194 128.786 463.823
1640 0 58.3123 16.7032 974 118.39 128.123 460.418
1641 0 57.3017 17.0501 977 119.157 128.941 460.256
1642 0 57.3017 17.0152 975 139.949 129.928 460.162
1643 0 63.182 15.9381 1007 120.793 127.126 466.165
1644 0 62.148 14.3206 890 125.416 124.852 465.166
1645 0 66.1991 14.7736 978 124.728 123.439 461.953
1646 0 66.1958 14.7139 974 148.396 121.44 461.946
1647 0 73.1016 20.8477 1524 113.575 122.033 458.835
1648 0 75.0502 14.3637 1078 127.007 122.264 454.75
1649 0 78.1127 17.3595 1356 121.451 123.196 453.69
1650 0 79.1288 15.9613 1263 125.008 121.276 454.771
1651 0 85.1965 16.1626 1377 124.223 122.431 452.109
1652 1 42.0422 11.7739 495 136.069 122.442 469.41
1653 0 44.1057 16.0297 707 128.751 121.668 464.369
1654 0 46.0814 13.78 635 132.627 120.742 464.805
1655 0 46.1314 14.7188 679 131.934 120.473 462.529
1656 0 49.0812 15.6068 766 126.782 119.551 461.444
1657 0 48.1146 14.4031 693 131.96 120.83 458.16
1658 0 52.1832 16.0971 840 127.218 121.157 457.036
1659 0 54.2297 14.2726 774 131.05 121.213 455.513
1660 0 57.2132 14.6994 841 128.448 121.42 454.738
1661 0 57.2354 13.3309 763 134.578 122.134 450.902
1662 0 61.4201 14.7509 906 129.623 122.501 448.832
1663 0 62.2779 15.8162 985 127.788 123.928 447.163
1664 0 67.3918 17.6579 1190 123.093 123.161 446.017
1665 0 68.2206 15.8017 1078 127.541 125.403 446.218
1666 0 72.1909 16.6364 1201 126.172 125.685 441.67
1667 0 72.2833 15.8958 1149 128.637 126.195 443.405
1668 0 75.1969 16.5698 1246 127.481 126.463 439.791
1669 0 79.2274 17.5318 1389 124.821 127.753 438.663
1670 0 80.3706 15.3414 1233 130.439 127.517 440.358
1671 0 84.404 18.1508 1532 123.686 128.167 438.968
1672 1 40.1414 12.4062 498 135.369 128.458 459.819
1673 0 44.1886 13.3745 591 130.961 129.602 460.746
1674 0 44.0399 12.9655 571 135.73 129.419 459.023
1675 0 45.0245 14.3255 645 131.282 129.789 460.935
1676 0 47.1138 15.3671 724 127.547 129.593 464.231
1677 0 50.0982 14.4317 723 129.152 128.174 464.441
1678 0 53.2262 17.1344 912 121.809 129.42 465.086
1679 0 52.1604 13.8803 724 131.076 129.428 468.327
1680 0 52.1497 13.2311 690 134.113 128.497 465.222
1681 0 54.378 14.3256 779 131.908 127.828 463.502
1682 0 57.1897 15.5098 887 129.249 128.282 460.342
1683 0 59.1948 14.3763 851 133.119 126.974 459.853
1684 0 60.1696 14.3096 861 133.297 127.553 459.467
1685 0 60.1696 14.2098 855 153.352 127.522 459.45
1686 0 67.2869 16.556 1114 128.684 125.278 456.002
1687 0 64.2216 13.0953 841 138.095 125.329 456.313
1688 0 68.1343 13.855 944 136.247 125.044 455.788
1689 0 75.1598 16.4583 1237 127.148 123.599 454.876
1690 0 75.368 14.4358 1088 134.507 123.876 450.902
1691 0 77.3484 14.2731 1104 134.75 122.841 449.689
1692 0 81.335 15.5652 1266 131.094 120.667 447.459
1693 0 83.1632 15.656 1302 131.502 120.807 443.616
1694 1 42.2632 11.594 490 139.308 121.331 461.239
1695 0 46.1912 13.1194 606 134.337 121.025 461.624
1696 0 48.1485 13.666 658 131.869 121.26 462.459
1697 0 49.1952 13.4159 660 132.582 121.088 456.917
1698 0 53.2536 12.6752 675 132.781 120.247 455.671
1699 0 53.2136 18.0405 960 122.53 120.907 454.395
1700 0 53.294 13.7164 731 128.93 121.197 451.419
1701 0 55.1848 12.739 703 130.822 121.543 452.903
1702 0 59.3697 14.0476 834 128.542 120.737 448.061
1703 0 59.1445 13.4078 793 129.687 122.247 450.042
1704 0 61.2229 13.41 821 130.577 121.062 445.938
1705 0 63.3228 13.1864 835 131.899 122.878 439.425
1706 0 68.2655 14.5901 996 127.907 122.172 442.303
1707 0 66.1646 13.6327 902 131.772 123.163 443.657
1708 0 70.3562 14.7961 1041 127.552 124.072 436.942
1709 0 73.3507 14.0285 1029 128.224 125.624 436.547
1710 0 74.5034 14.8718 1108 126.933 124.831 433.754
1711 0 78.337 14.5014 1136 127.063 125.967 434.078
1712 0 82.323 13.69 1127 127.723 126.129 434.594
1713 0 85.4377 16.5032 1410 121.112 126.079 434.094
1714 0 85.4011 11.6275 993 130.825 127.598 428.426
1715 0 91.3421 13.641 1246 124.502 127.556 435.541
1716 0 93.4271 13.5186 1263 125.461 128.367 429.954
1717 0 96.404 13.7339 1324 123.495 127.968 434.451
1718 0 98.3539 11.3874 1120 126.653 128.304 434.409
1719 1 58.1706 13.7527 800 118.955 130 459.63
1720 0 58.1428 13.0369 758 116.558 129.987 458.793
1721 0 59.2306 12.4429 737 116.278 128.665 461.985
1722 0 61.0712 11.9041 727 115.177 129.586 465.598
1723 0 70.1625 12.5138 878 114.392 129.964 462.51
1724 0 70.1273 13.2473 929 114.562 128.44 461.871
1725 0 70.1289 13.2328 928 117.803 127.447 461.857
1726 0 74.1147 10.9965 815 117.034 128.869 461.083
1727 0 77.0876 12.3496 952 115.059 128.209 459.438
1728 0 82.2939 14.1323 1163 113.218 126.551 454.752
1729 0 81.2195 8.82793 717 122.204 126.901 455.056
1730 1 45.0798 10.3372 466 115.208 124.122 478.983
1731 0 43.1208 12.0128 518 113.019 125.869 474.759
1732 0 45.1494 10.2991 465 117.546 125.049 474.028
1733 0 45.0245 11.1051 500 113.118 124.798 474.7
1734 0 49.1062 13.2774 652 109.41 123.462 471.79
1735 0 48.1592 12.0226 579 113.149 124.105 469.551
1736 0 50.1366 11.0299 553 114.564 123.174 469.571
1737 0 49.0959 10.0823 495 118.261 123.03 469.887
1738 0 53.0795 10.8705 577 114.593 122.137 470.305
1739 0 54.0401 12.3797 669 113.277 122.214 466.813
1740 0 52.0996 8.3302 434 119.68 122.212 468.069
1741 0 54.0892 9.72467 526 119.506 121.646 464.019
1742 0 59.1971 10.5073 622 116.99 122.474 461.651
1743 0 59.0924 11.5582 683 115.501 122.247 461.862
1744 0 64.3003 15.0855 970 109.569 121.741 458.201
1745 0 65.2757 11.7195 765 116.157 122.837 455.048
1746 0 65.0985 12.5195 815 115.767 123.421 451.887
1747 0 68.1259 12.0806 823 116.125 123.225 452.769
1748 0 68.2845 10.1341 692 118.981 124.87 449.175
1749 0 73.1014 14.9792 1095 111.735 125.445 445.388
1750 0 75.0559 13.7231 1030 113.592 125.773 446.647
1751 0 76.1894 9.48951 723 118.591 126.317 450.322
1752 0 84.1726 14.102 1187 111.449 126.69 444.425
1753 0 85.2309 12.8122 1092 113.761 126.495 445.139
1754 0 88.2296 13.6576 1205 113.18 127.15 440.998
1755 0 90.221 13.3339 1203 115.436 127.439 439.37
1756 0 91.3235 11.6618 1065 118.485 126.935 440.625
1757 0 99.3064 13.4735 1338 115.003 127.856 437.861
1758 0 99.4084 9.5163 946 122.726 127.386 432.929
1759 0 101.66 11.6172 1181 123.521 128.498 431.851
1760 0 103.343 11.2925 1167 121.744 129.736 440.153
1761 0 105.493 14.1526 1493 118.006 129.894 439.658
1762 0 113.476 10.8393 1230 124.403 129.025 435.343
1763 0 116.325 11.5108 1339 122.523 129.543 435.53
1764 1 60.1059 10.6479 640 117.339 129.731 463.473
1765 0 64.0442 9.16554 587 117.337 128.319 465.806
1766 0 67.262 9.66371 650 116.146 128.637 465.314
1767 0 70.0635 12.9597 908 111.836 128.159 464.546
1768 0 68.1437 9.70009 661 116.319 128.631 464.52
1769 0 74.1519 11.3955 845 113.55 129.036 463.298
1770 0 75.1193 9.73119 731 117.644 127.289 460.454
1771 0 81.3494 14.0259 1141 110.719 127.802 459.06
1772 0 82.2398 8.91295 733 117.506 126.909 459.267
1773 0 87.156 12.9653 1130 111.143 126.783 455.79
1774 0 86.3456 9.78626 845 115.388 122.782 455.236
1775 1 49.1544 12.0844 594 109 122.348 473.71
1776 0 48.1294 10.9081 525 119.53 120.512 469.874
1777 0 51.1075 13.0705 668 114.169 121.313 470.491
1778 0 54.0837 14.4221 780 111.822 119.341 470.467
1779 0 55.1897 12.6835 700 114.93 119.434 468.803
1780 0 56.1329 12.0429 676 115.704 118.466 468.663
1781 0 55.1746 13.6476 753 114.831 118.108 466.656
1782 0 58.2828 12.9541 755 115.013 118.648 466.155
1783 0 58.2058 12.4386 724 116.674 118.523 464.465
1784 0 61.1371 16.5202 1010 110.198 118.21 463.299
1785 0 63.2094 15.2509 964 111.101 117.934 464.334
1786 0 64.0995 13.2762 851 117.155 118.497 458.931
1787 0 65.1204 14.4502 941 116.208 118.962 454.048
1788 0 65.1096 11.2887 735 122.781 119.098 452.833
1789 0 67.271 11.7881 793 122.511 119.512 450.193
1790 0 71.1027 15.0346 1069 116.955 119.943 451.673
1791 0 75.1667 13.5831 1021 118.236 120.755 450.371
1792 0 73.2372 11.9611 876 123.997 120.486 445.895
1793 0 79.2569 14.0808 1116 118.77 122.096 444.858
1794 1 39.0315 7.42989 290 129.2 121.01 463.362
1795 0 44.1181 11.7185 517 121.012 122.747 461.729
1796 0 46.0333 10.7965 497 122.036 122.652 463.932
1797 0 48.0598 13.0046 625 117.528 123.936 462.898
1798 0 46.1101 10.6484 491 118.727 124.615 462.191
1799 0 49.2433 12.9967 640 113.833 124.825 461.655
1800 0 51.2138 14.3711 736 111.497 125.671 459.583
1801 0 53.1802 15.7766 839 108.024 126.292 460.684
1802 0 55.2161 17.0602 942 105.022 126.72 460.864
1803 0 54.1937 12.8982 699 114.436 126.289 460.624
1804 0 57.1372 12.7588 729 114.665 126.609 461.385
1805 0 57.0994 14.0632 803 112.808 127.6 462.568
1806 0 60.1735 12.3809 745 115.364 126.413 464.196
1807 0 62.1662 12.2896 764 115.423 126.696 461.898
1808 0 64.1344 14.8282 951 111.136 126.992 464.614
1809 0 66.141 14.6052 966 111.912 126.213 464.147
1810 0 68.1476 15.7746 1075 110.174 126.177 462.194
1811 0 70.2154 14.1707 995 112.698 124.395 462.989
1812 0 72.1544 14.5798 1052 112.615 125.304 460.375
1813 0 75.1829 15.7882 1187 110.264 125.564 459.372
1814 0 75.1753 12.8899 969 112.407 124.847 460.882
1815 0 78.3494 15.1629 1188 108.761 124.801 453.208
1816 0 81.4544 13.6518 1112 110.524 124.574 454.44
1817 0 83.1846 16.7218 1391 106.523 122.538 455.946
1818 0 89.2335 15.79 1409 107.123 122.307 452.509
1819 1 46.2013 11.9477 552 110.833 121.716 471.56
1820 0 50.136 11.1696 560 111.221 121.221 471.03
1821 0 49.0506 14.6787 720 107.514 121.078 468.082
1822 0 49.16 11.5744 569 112.378 119.851 470.547
1823 0 49.3226 10.8672 536 114.847 119.968 465.55
1824 0 53.1526 13.2825 706 110.695 120.356 466.286
1825 0 54.21 13.4293 728 110.025 120.632 463.622
1826 0 56.1144 11.9934 673 112.596 120.202 463.082
1827 0 60.4862 15.3423 928 106.984 119.498 461.961
1828 0 61.3994 13.8601 851 110.383 120.336 458.479
1829 0 61.1651 12.082 739 114.004 120.647 457.82
1830 0 65.1853 13.7148 894 110.813 120.765 457.312
1831 0 66.038 12.826 847 114.46 120.894 454.429
1832 0 68.0894 17.0364 1160 107.462 121.547 454.177
1833 0 73.24 16.0568 1176 107.097 121.384 455.245
1834 0 74.1341 13.1518 975 115.903 120.899 445.86
1835 0 78.2038 14.0914 1102 112.439 123.319 448.524
1836 0 78.2426 14.0077 1096 115.308 121.109 438.658
1837 0 83.2632 14.0158 1167 114.066 123.168 441.386
1838 0 85.3586 12.6525 1080 118.731 123.931 430.548
1839 0 88.1265 16.3288 1439 112.24 124.849 431.486
1840 0 92.1098 13.1908 1215 116.546 124.646 438.14
1841 0 99.1108 16.5976 1645 116.156 126.228 436.255
1842 1 46.0606 13.2 608 118.416 126.535 462.794
1843 0 51.0987 17.3977 889 108.079 127.069 464.655
1844 0 52.0209 14.052 731 115.186 128.644 462.233
1845 0 53.1092 14.9315 793 113.718 128.218 462.194
1846 0 54.4633 13.8075 752 115.735 127.572 461.336
1847 0 59.1484 16.0613 950 109.672 129.465 458.394
1848 0 58.1929 12.407 722 118.144 128.127 464.126
1849 0 58.148 14.7727 859 116.438 129.284 461.587
1850 0 60.0793 12.4835 750 119.721 129.099 463.212
1851 0 63.0913 16.1354 1018 113.538 129.243 461.698
1852 0 66.1554 15.5996 1032 113.409 129.307 464.919
1853 0 68.4356 14.3931 985 117.31 128.204 461.875
1854 0 70.1032 14.2504 999 119.978 128.328 457.114
1855 0 72.2435 15.2955 1105 118.201 128.849 459.395
1856 0 76.2125 15.3781 1172 118.239 127.973 457.848
1857 0 76.1807 13.9668 1064 119.011 128.34 461.68
1858 1 38.0407 10.7779 410 122.38 126.598 475.861
1859 0 39.0948 12.6359 494 120.399 125.777 478.178
1860 0 42.0482 11.1301 468 123.632 125.299 474.782
1861 0 45.0742 12.9342 583 122.341 123.988 477.206
1862 0 47.121 15.0676 710 119.406 123.679 474.482
1863 0 48.1475 14.7671 711 120.139 121.989 473.253
1864 0 50.1988 12.6099 633 125.784 121.855 471.692
1865 0 49.2533 14.6589 722 121.043 122.094 473.299
1866 0 49.2533 14.6792 723 149.242 122.1 473.201
1867 0 52.0434 13.9691 727 123.695 121.234 468.631
1868 0 55.0685 13.1473 724 125.605 120.744 466.442
1869 0 58.0492 14.6427 850 120.699 121.145 467.154
1870 0 61.0959 16.024 979 118.373 120.464 463.839
1871 0 63.1279 16.522 1043 117.653 121.277 461.077
1872 0 65.1104 15.5275 1011 119.155 120.289 458.053
1873 0 65.0647 15.0773 981 121.498 121.432 456.048
1874 0 68.1192 15.1646 1033 120.26 120.307 455.046
1875 0 70.0828 17.3224 1214 117.408 120.533 451.398
1876 0 72.0902 13.7744 993 123.768 122.023 450.122
1877 1 35.0198 10.0515 352 129.369 122.369 465.227
1878 0 40.0682 14.5252 582 115.632 122.699 466.842
1879 0 37.0891 9.76029 362 128.959 123.182 464.771
1880 0 40.0764 13.8985 557 117.424 123.883 462.241
1881 0 41.3573 11.6303 481 125.254 124.168 461.753
1882 0 43.3344 16.2919 706 116.373 124.276 461.074
1883 0 46.1922 11.7769 544 123.11 125.908 460.39
1884 0 45.4796 13.7424 625 121.525 126.491 458.427
1885 0 48.0951 14.9703 720 117.939 127.117 457.525
1886 0 48.4517 12.8582 623 121.22 126.963 459.116
1887 0 51.2983 15.79 810 115.301 127.225 459.832
1888 0 54.2977 15.9123 864 114.23 127.676 457.311
1889 0 53.1243 15.7555 837 116.965 127.493 455.079
1890 0 55.2507 13.3211 736 121.182 129.033 454.817
1891 0 55.1987 12.772 705 122.915 127.252 455.444
1892 0 58.415 12.3256 720 122.39 128.886 457.556
1893 0 60.4017 13.5592 819 121.154 128.654 454.789
1894 0 64.4034 14.9526 963 116.48 129.329 455.2
1895 0 66.7169 13.9245 929 120.197 127.608 453.92
1896 0 69.4985 17.0363 1184 114.671 127.404 453.02
1897 0 71.4293 15.3719 1098 114.5 127.599 452.614
1898 1 38.2382 10.7222 410 120.537 127.417 471.488
1899 0 40.3157 11.782 475 120.206 127.648 470.842
1900 0 41.1967 13.1807 543 118.792 126.68 468.411
1901 0 41.5219 12.7644 530 121.151 125.491 471.23
1902 0 44.7456 16.158 723 112.398 123.906 472.635
1903 0 47.1583 12.3414 582 121.124 124.062 473.366
1904 0 45.0367 11.1909 504 126.361 123.611 471.665
1905 0 49.1758 13.5636 667 119.72 123.079 471.874
1906 0 50.2832 13.424 675 120.289 122.742 469.956
1907 0 51.1742 16.7272 856 114.759 122.651 465.287
1908 0 52.0901 13.1119 683 121.744 121.744 468.019
1909 0 56.2101 13.8943 781 119.163 121.703 465.708
1910 0 57.2723 15.208 871 116.983 120.061 463.673
1911 0 58.2591 15.1221 881 136.266 118.096 463.762
1912 0 60.3997 12.914 780 122.769 120.654 460.608
1913 0 62.3399 15.3834 959 117.658 121.097 457.194
1914 0 66.0872 15.8881 1050 115.443 120.258 456.561
1915 0 65.2679 13.6361 890 121.454 120.908 453.401
1916 0 66.4087 15.51 1030 117.413 120.193 454.514
1917 0 70.5843 15.6267 1103 117.045 121.11 448.775
1918 0 71.4109 13.3593 954 121.814 120.649 448.889
1919 0 75.5928 13.6653 1033 121.32 121.244 445.222
1920 0 75.6333 13.3803 1012 123.65 122.656 437.883
1921 0 75.6614 10.7981 817 129.791 122.698 438.853
1922 0 81.8665 14.4137 1180 121.553 123.014 436.456
1923 0 82.5683 14.9815 1237 121.728 124.115 432.581
1924 0 87.5078 13.176 1153 124.337 123.586 433.126
1925 0 91.3928 14.4869 1324 122.408 125.281 430.02
1926 1 44.4352 11.815 525 124.497 125.535 451.227
1927 0 48.255 13.0764 631 120.352 125.49 458.781
1928 0 47.4511 9.29377 441 129.712 125.327 454.957
1929 0 52.2405 15.3903 804 117.978 127.224 458.449
1930 0 54.215 11.7864 639 125.459 127.341 457.753
1931 1 107.903 11.8811 1282 129.6 128.359 429.197
1932 0 111.63 10.8394 1210 128.612 128.241 432.109
1933 0 119.387 12.3716 1477 123.923 127.8 429.916
1934 0 123.746 14.8449 1837 119.075 129.205 425.474
1935 0 123.694 9.96008 1232 128.695 129.481 428.769
1936 1 65.2288 11.4673 748 126.303 129.479 454.559
1937 0 69.4674 13.1141 911 122.186 129.629 456.762
1938 0 70.2818 11.7385 825 125.526 128.807 457.762
1939 0 74.2607 14.1259 1049 120.405 128.014 457.184
1940 0 78.3715 13.7167 1075 120.89 128.9 457.753
1941 0 77.4382 12.6036 976 124.775 127.75 456.147
1942 0 78.4152 11.3371 889 128.056 126.45 455.062
1943 0 79.2205 10.4645 829 126.129 125.552 460.457
1944 0 89.5787 12.0564 1080 125.217 122.548 454.032
1945 1 42.5064 10.7278 456 125.092 123.118 470.059
1946 0 47.3421 11.9133 564 121.209 122.385 469.307
1947 0 50.4396 11.9351 602 122.171 121.051 469.228
1948 0 51.3409 12.68 651 120.644 120.682 468.197
1949 0 54.3524 14.2772 776 116.692 121.366 469.503
1950 0 55.3708 13.9243 771 117.927 120.006 469.772
1951 0 56.3791 14.101 795 117.815 119.257 468.64
1952 0 57.3622 12.8656 738 121.389 118.992 466.057
1953 0 58.2806 14.4473 842 119.306 118.806 464.166
1954 0 62.4297 14.4322 901 116.748 120.198 466.392
1955 0 63.3131 14.7679 935 117.265 119.41 463.704
1956 0 63.3163 14.2301 901 118.376 119.438 461.838
1957 0 64.5005 16.1394 1041 115.294 119.482 460.042
1958 0 66.1428 13.9244 921 118.516 118.771 458.304
1959 0 66.1428 13.9244 921 140.307 118.795 458.219
1960 0 72.6608 14.2855 1038 116.608 119.645 454.026
1961 0 74.4496 14.9094 1110 116.413 121.007 449.583
1962 0 74.4077 15.9392 1186 114.415 120.573 450.368
1963 0 78.4733 13.648 1071 119.138 121.336 444.235
1964 0 81.4756 14.8388 1209 116.284 122.618 441.249
1965 0 83.5747 12.8029 1070 119.308 122.453 443.905
1966 1 45.2109 11.1699 505 112.113 120.828 463.35
1967 0 48.241 13.6399 658 109.182 121.93 459.187
1968 0 48.241 13.5984 656 128.5 122.947 459.122
1969 0 51.2365 13.0376 668 109.68 123.662 458.945
1970 0 51.3139 12.6282 648 111.535 124.532 458.02
1971 0 54.2479 14.3784 780 108.354 125.776 457.976
1972 0 54.5834 11.1572 609 114.593 125.194 458.486
1973 0 59.502 13.7979 821 109.029 125.949 458.412
1974 0 60.2762 12.957 781 111.616 125.809 457.876
1975 0 58.3929 12.7584 745 114.439 125.679 458.566
1976 0 62.2439 15.873 988 108.084 126.07 459.248
1977 0 61.181 12.3568 756 115.817 126.206 458.84
1978 0 66.3041 16.4846 1093 108.742 125.428 458.132
1979 0 67.1829 16.4774 1107 108.811 126.248 458.787
1980 0 70.4274 15.2356 1073 110.788 125.277 458.234
1981 0 73.2932 16.8638 1236 107.579 125.608 460.763
1982 0 75.2843 15.9396 1200 109.573 125.682 460.652
1983 0 77.3464 11.623 899 118.868 125.367 454.665
1984 0 77.2892 13.1972 1020 117.644 124.116 453.8
1985 0 81.2174 14.1226 1147 114.874 125.047 454.486
1986 0 84.3727 12.67 1069 117.902 123.901 453.354
1987 0 84.2752 11.3319 955 120.61 124.179 454.445
1988 0 88.2257 12.8534 1134 119.001 123.771 449.985
1989 0 95.6334 13.5308 1294 116.126 123.998 452.273
1990 0 100.436 16.6574 1673 109.616 122.189 452.315
1991 0 101.363 13.6342 1382 115.563 121.716 447.925
1992 1 53.2707 14.8487 791 107.211 121.147 468.784
1993 0 54.1675 13.126 711 111.633 119.695 466.968
1994 0 56.2018 12.2594 689 112.199 118.538 466.977
1995 0 57.2822 13.2153 757 110.347 119.325 467.38
1996 0 59.2097 13.562 803 109.595 118.061 465.792
1997 0 60.3055 13.216 797 110.711 118.616 460.937
1998 0 59.1707 12.3034 728 112.732 118.696 462.051
1999 0 64.1828 13.4927 866 110.098 118.425 459.361
2000 0 67.439 12.9599 874 109.82 118.132 458.478
2001 0 68.2142 13.3403 910 110.355 118.995 454.698
2002 0 70.2095 15.4822 1087 105.66 118.373 456.011
2003 0 73.2644 16.2698 1192 103.992 118.27 456.407
2004 0 73.3245 14.129 1036 108.876 118.661 449.144
2005 0 76.3341 13.0217 994 111.003 118.498 447.25
2006 0 78.2541 11.1687 874 113.831 121.182 443.601
2007 0 83.2281 14.226 1184 108.918 121.456 441.684
2008 0 84.1961 12.5659 1058 109.556 121.733 447.041
2009 0 88.2759 13.084 1155 110.38 123.168 436.202
2010 1 44.1093 12.401 547 108.417 122.287 458.753
2011 0 47.1064 10.6567 502 110.181 123.918 460.143
2012 0 47.1064 10.7841 508 131.886 125.886 460.189
2013 0 49.2874 11.2402 554 112.975 125.632 458.157
2014 0 50.0926 11.6584 584 114.012 124.517 458.086
2015 0 51.037 12.6379 645 113.278 124.919 457.929
2016 0 54.0462 12.6188 682 111.965 125.664 458.828
2017 0 55.136 13.6753 754 110.589 126.138 458.111
2018 0 56.1079 11.4957 645 113.14 125.678 460.569
2019 0 59.0994 15.144 895 107.184 126.189 461.465
2020 0 62.2676 12.8799 802 109.097 127.03 463.327
2021 0 61.1095 13.0094 795 111.803 125.689 459.728
2022 0 62.0488 13.2154 820 112.127 125.943 459.061
2023 0 65.1659 12.2764 800 112.93 126.249 462.044
2024 0 70.2903 14.1983 998 109.185 125.915 461.608
2025 0 71.2605 12.8402 915 112.6 125.823 461.087
2026 0 75.1763 11.0673 832 115.661 124.317 457.075
2027 0 76.169 12.1047 922 112.253 125.984 463.121
2028 0 83.1783 15.5089 1290 107.69 124.243 459.839
2029 1 40.1158 11.392 457 112.333 123.422 478.562
2030 0 44.414 13.6218 605 108.179 123.499 473.909
2031 0 44.0392 13.6696 602 110.005 121.223 475.711
2032 0 46.088 14.9931 691 106.81 120.485 476.557
2033 0 47.0728 14.9131 702 108.987 120.085 474.058
2034 0 46.071 11.6125 535 113.94 118.914 473.228
2035 0 47.0177 14.803 696 109.928 119.464 470.762
2036 0 48.0885 10.6262 511 113.943 118.93 472.74
2037 0 50.1506 12.961 650 109.215 117.866 471.189
2038 0 49.1835 11.5282 567 112.24 118.194 468.27
2039 0 52.0883 12.3636 644 110.826 117.866 469.14
2040 0 50.4338 10.489 529 114.667 118.074 467.779
2041 0 54.3049 12.3009 668 111.433 116.317 466.446
2042 0 56.1322 11.7223 658 110.347 118.305 465.751
2043 0 57.1811 10.5454 603 112.632 116.897 465.914
2044 0 59.2486 11.2408 666 112.895 116.542 459.998
2045 0 61.3136 15.0211 921 107.81 117.156 457.444
2046 0 63.1857 11.4425 723 112.775 118.658 454.712
2047 0 65.1694 13.3498 870 109.99 119.401 454.938
2048 0 66.0692 13.1226 867 110.825 120.068 453.97
2049 0 67.1774 12.1469 816 113.914 118.414 450.379
2050 0 71.2978 12.7774 911 111.155 120.356 450.546
2051 1 39.1225 11.6046 454 111.392 120.59 464.736
2052 0 41.1483 14.2655 587 108.317 121.218 459.526
2053 0 41.224 14.1422 583 108.338 121.28 461.208
2054 0 41.1077 13.4281 552 111.263 122.62 464.045
2055 0 43.0699 13.9309 600 111.39 122.468 461.887
2056 0 42.0587 12.221 514 113.883 124.21 461.498
2057 0 46.091 14.0592 648 108.576 123.228 465.799
2058 0 50.1362 15.3582 770 107.21 124.675 461.127
2059 0 47.0889 14.3558 676 111.333 126.237 460.834
2060 0 53.2367 14.1068 751 109.403 124.615 464.445
2061 0 53.0567 13.5704 720 110.801 124.96 465.3
2062 0 53.0433 13.3664 709 113.33 125.774 464.42
2063 0 54.0875 13.7185 742 113.07 126.858 464.43
2064 0 56.0748 17.1913 964 108.701 125.789 463.131
2065 0 56.0305 13.9031 779 114.2 126.679 466.463
2066 0 59.1007 14.3991 851 113.818 124.924 463.965
2067 0 62.1639 13.0783 813 115.069 125.77 464.609
2068 0 64.0903 14.6668 940 113.128 126.1 463.121
2069 0 65.1335 13.2651 864 115.369 126.697 461.97
2070 0 67.1202 16.7312 1123 109.751 124.771 463.039
2071 0 70.109 13.6787 959 114.113 123.469 462.687
2072 0 75.2278 12.934 973 113.526 123.593 465.546
2073 0 76.252 20.7995 1586 103.673 121.799 460.315
2074 0 78.1364 11.8255 924 117.487 121.004 458.483
2075 1 43.0589 12.1926 525 114.461 118.83 475.733
2076 0 44.0422 12.4199 547 114.962 119.152 474.702
2077 0 46.3763 12.2476 568 113.863 120.414 474.588
2078 0 48.3405 14.0255 678 111.412 119.786 471.204
2079 0 48.1901 13.5298 652 108.636 120.301 471.738
2080 0 51.083 15.7782 806 106.395 121.009 468.532
2081 0 49.1083 9.36704 460 117.309 120.557 467.191
2082 0 51.1808 12.915 661 110.891 118.284 469.014
2083 0 57.1591 10.1821 582 113.485 119.184 467.938
2084 0 57.0776 15.0146 857 106.942 119.096 464.603
2085 0 57.2196 12.4433 712 111.32 117.871 458.789
2086 0 61.2381 14.4191 883 107.915 117.586 458.171
2087 0 63.1312 16.4578 1039 104.882 117.949 454.317
2088 0 63.1476 12.2253 772 110.756 116.788 456.784
2089 0 64.2339 12.2988 790 110.991 119.104 456.184
2090 0 67.1311 13.5258 908 109.774 120.033 449.542
2091 0 72.2955 10.6507 770 114.455 119.282 451.557
2092 0 68.141 9.30423 634 117.216 120.804 451.461
2093 0 75.2131 13.9072 1046 110.356 122.067 445.701
2094 0 76.1989 13.1498 1002 111.938 122.518 446.78
2095 0 78.1382 13.105 1024 113.042 122.137 444.538
2096 0 80.1952 12.507 1003 115.303 123.968 439.284
2097 0 85.2622 13.5465 1155 113.397 125.028 438.77
2098 0 89.3453 13.9795 1249 112.235 124.291 438.732
2099 1 49.1018 12.8101 629 112.39 123.56 458.644
2100 0 49.261 9.09442 448 119.989 124.491 458.248
2101 0 50.0647 13.922 697 110.879 124.544 458.898
2102 0 53.0657 13.2477 703 110.871 126.576 461.175
2103 0 53.3196 12.9971 693 112.668 126.264 460.668
2104 0 54.1294 13.8742 751 112.003 125.794 460.495
2105 0 57.2087 17.0079 973 105.793 126.09 460.987
2106 0 60.2181 14.5471 876 110.164 126.296 459.921
2107 0 64.1165 14.614 937 109.259 127.118 462.114
2108 0 66.1667 13.2544 877 111.689 125.987 459.287
2109 0 68.2451 14.023 957 110.274 125.729 459.111
2110 0 71.0768 14.618 1039 109.342 126.509 459.98
2111 0 75.1042 15.3786 1155 108.744 124.993 456.55
2112 0 76.1593 13.7869 1050 111.407 124.402 456.86
2113 0 82.2388 14.7497 1213 108.878 123.661 457.49
2114 0 86.66 14.5396 1260 109.748 123.575 454.624
2115 0 89.4631 14.8218 1326 108.442 122.452 453.611
2116 0 93.5208 16.499 1543 106.599 122.675 453.463
2117 1 52.2822 14.6895 768 107.241 122.501 472.994
2118 0 50.1926 10.3003 517 110.503 121.128 464.482
2119 0 53.1042 16.1569 858 99.3065 122.226 467.472
2120 0 54.1709 12.0175 651 105.702 120.664 465.651
2121 0 57.1686 14.9033 852 102.235 121.196 464.217
2122 0 57.0727 11.9497 682 108.054 120.167 462.185
2123 0 61.1147 13.4174 820 104.613 121.34 461.876
2124 0 61.1147 13.3356 815 123.341 122.344 461.881
2125 0 64.1172 13.6937 878 106.11 118.156 456.651
2126 0 65.1991 12.7763 833 108.333 118.403 454.193
2127 0 64.4158 9.85783 635 114.191 119.339 451.833
2128 0 69.2211 13.8686 960 107.03 118.403 453.204
2129 0 70.3087 12.9998 914 109.53 119.498 448.871
2130 0 73.2931 14.8309 1087 107.441 118.523 445.719
2131 0 78.3554 9.20166 721 115.055 118.617 448.233
2132 0 78.2752 14.2957 1119 108.218 119.881 443.951
2133 0 78.2151 12.7085 994 111.787 121.626 441.05
2134 0 78.1692 9.90159 774 114.78 120.729 445.74
2135 0 85.39 12.8821 1100 111.128 121.946 432.942
2136 0 85.4697 9.31324 796 117.1 122.362 440.036
2137 0 93.6771 12.9167 1210 109.918 122.514 438.637
2138 1 50.5267 12.2509 619 107.204 123.262 455.525
2139 0 51.2509 13.8339 709 105.968 124.299 452.058
2140 0 50.2696 12.4926 628 108.255 125.027 450.699
2141 0 52.4532 11.3625 596 107.453 124.606 453.485
2142 0 56.1212 16.9633 952 100.584 124.86 448.629
2143 0 56.1483 11.3628 638 107.699 126.525 452.045
2144 0 57.177 15.6357 894 102.282 127.306 449.856
2145 0 61.5669 13.3188 820 105.604 126.982 450.139
2146 0 61.6109 12.7575 786 108.349 127.782 447.128
2147 0 62.2104 13.7115 853 107.674 127.45 448.59
2148 0 65.3646 12.3767 809 110.037 127.81 448.355
2149 0 68.2274 13.2205 902 108.955 128.032 448.549
2150 0 71.2801 14.0432 1001 107.788 127.88 449.872
2151 0 72.45 14.3547 1040 108.026 128.344 454.459
2152 0 76.3284 13.7433 1049 109.779 126.197 456.358
2153 0 79.366 13.4314 1066 112.437 127.099 449.6
2154 0 83.4682 14.197 1185 110.326 126.948 449.432
2155 0 86.3521 15.9348 1376 108.273 125.509 444.572
2156 0 89.7914 14.5003 1302 111.065 124.947 446.984
2157 0 89.7914 14.4669 1299 139.795 123.945 446.98
2158 1 51.4033 11.3417 583 112.24 123.225 466.552
2159 0 52.3077 10.8015 565 111.641 121.798 469.094
2160 0 55.1568 11.7664 649 112.119 121.917 460.468
2161 0 53.1148 7.98271 424 115.09 121.075 463.538
2162 0 59.1105 13.7201 811 105.497 119.804 458.412
2163 0 62.1232 14.3264 890 104.266 120.422 457.883
2164 0 63.1975 14.1461 894 108.869 119.951 463.126
2165 0 65.1711 11.5389 752 113.128 118.91 466.266
2166 0 67.1539 11.1833 751 111.82 118.306 462.246
2167 0 72.2636 12.2192 883 109.381 119.761 460.591
2168 0 70.1442 11.4621 804 111.877 118.347 459.78
2169 0 73.1648 12.2053 893 111.442 119.828 453.821
2170 0 76.1652 13.4445 1024 108.317 119.668 455.356
2171 0 78.2958 15.7097 1230 105.853 119.666 450.475
2172 0 85.3493 16.9656 1448 102.499 120.456 446.693
2173 0 84.1355 12.5393 1055 109.998 120.168 446.554
2174 0 85.1384 13.202 1124 109.806 121.545 445.949
2175 0 91.3458 17.2203 1573 104.648 121.647 441.272
2176 0 92.2357 11.7308 1082 113.627 121.558 435
2177 0 93.2543 15.1521 1413 108.495 122.607 438.493
2178 0 96.4362 12.5368 1209 112.172 121.736 439.415
2179 1 51.1962 12.9697 664 108.307 121.916 458
2180 0 54.3732 10.9797 597 111.241 122.477 458.911
2181 0 55.0623 9.08063 500 115.668 122.196 456.462
2182 0 59.1122 14.7178 870 108.316 122.477 456.57
2183 0 59.1456 11.3111 669 116.375 122.145 454.381
2184 0 61.2793 14.5237 890 111.053 123.516 453.273
2185 0 62.1782 10.0196 623 117.234 124.024 453.953
2186 0 64.1992 13.0375 837 112.76 125.507 454.975
2187 0 65.1369 12.8959 840 114.092 125.625 452.038
2188 0 68.2881 13.3991 915 112.828 126.948 453.556
2189 0 69.1886 14.0197 970 112.6 126.437 451.168
2190 0 74.3534 16.2064 1205 107.507 127.69 451.61
2191 0 74.1691 15.613 1158 109.577 128.161 453.591
2192 0 76.1141 19.9043 1515 103.166 127.461 455.121
2193 0 79.2425 15.3074 1213 110.467 126.943 450.498
2194 0 83.5246 14.1276 1180 111.358 127.062 455.092
2195 0 87.168 13.0897 1141 113.629 127.577 453.344
2196 0 85.4566 13.3167 1138 116.711 126.285 449.265
2197 0 91.4482 15.0249 1374 112.387 124.675 451.953
2198 0 96.3346 13.1002 1262 115.495 125.313 448.75
2199 0 97.2369 11.1069 1080 115.947 125.375 447.363
2200 0 100.358 15.8034 1586 108.473 124.741 446.975
2201 1 51.2009 11.3475 581 110.448 123.473 473.639
2202 0 53.2621 11.0397 588 109.932 124.566 473.747
2203 0 56.1014 13.3865 751 107.581 120.446 466.802
2204 0 56.1378 15.8004 887 104.641 119.601 465.842
2205 0 58.2203 13.4833 785 107.448 119.373 462.898
2206 0 60.2584 12.7617 769 108.498 119.112 463.347
2207 0 62.1536 12.4208 772 109.666 118.074 460.952
2208 0 62.2291 11.6344 724 111.717 118.909 457.903
2209 0 66.2014 14.1689 938 107.623 118.278 459.409
2210 0 68.221 15.8602 1082 105.783 117.829 455.757
2211 0 69.1982 12.3269 853 111.743 118.593 454.866
2212 0 71.3212 13.0957 934 110.986 118.201 456.511
2213 0 74.1673 14.7909 1097 109.126 118.816 449.14
2214 0 74.1984 10.0002 742 117.282 117.445 450.775
2215 0 77.2271 14.8652 1148 109.533 119.384 449.131
2216 0 80.1686 13.8458 1110 110.966 118.894 448.863
2217 0 83.3577 15.3795 1282 108.97 120.253 441.064
2218 0 83.2358 13.3236 1109 113.151 120.05 443.688
2219 0 86.4563 14.1343 1222 112.052 121.391 437.929
2220 0 89.6303 12.1945 1093 113.992 122.478 441.661
2221 0 90.2649 10.4138 940 117.839 123.223 436.481
2222 0 94.2224 15.9516 1503 109.273 123.889 433.99
2223 1 51.0459 12.4006 633 112.03 125.523 458.166
2224 0 52.1373 12.1218 632 113.674 126.196 457.369
2225 0 55.0779 13.7442 757 111.536 125.668 455.203
2226 0 55.083 11.3102 623 116.051 127.95 453.902
2227 0 58.0639 11.4357 664 114.542 127.191 456.485
2228 0 61.0673 15.049 919 108.72 129.005 454.036
2229 0 65.094 12.5818 819 112.272 128.557 456.516
2230 0 65.1238 13.1903 859 112.031 130.709 456.327
2231 0 67.0506 11.7971 791 115.176 129.389 452.772
2232 0 69.0912 12.0131 830 114.418 129.223 453.618
2233 0 72.103 12.7595 920 114.023 130.079 452.173
2234 0 75.2442 15.2038 1144 109.228 129.893 453.882
2235 0 78.1584 12.8713 1006 113.69 128.797 455.548
2236 0 82.0806 15.0706 1237 109.662 128.132 455.036
2237 0 82.184 14.3459 1179 116.909 126.849 456.506
2238 0 85.3234 13.15 1122 120.714 127.653 454.691
2239 0 90.1122 13.2834 1197 120.871 128.442 452.678
2240 0 92.1548 14.2912 1317 119.313 127.382 452.318
2241 0 95.0772 13.8519 1317 121.244 126.573 449.038
2242 1 51.0971 12.486 638 117.292 128.201 474.346
2243 0 50.0633 12.8637 644 118.652 125.795 472.343
2244 0 51.0295 12.5026 638 121.227 125.494 470.055
2245 0 54.1241 10.5129 569 123.079 123.545 470.608
2246 0 55.118 13.8249 762 113.894 123.825 471.714
2247 0 58.0314 12.6483 734 115.722 122.824 467.193
2248 0 59.1004 15.7867 933 109.841 121.922 463.249
2249 0 63.0463 14.4973 914 112.488 121.474 463.711
2250 0 66.1455 15.6473 1035 107.513 122.161 467.333
2251 0 67.1265 14.5993 980 111.009 121.806 463.348
2252 0 68.0982 12.7022 865 115.346 121.824 460.657
2253 0 68.1271 12.5207 853 116.583 120.477 458.366
2254 0 67.1696 12.4759 838 118.334 121.391 454.844
2255 0 71.1915 13.0634 930 116.849 122.171 455.599
2256 0 76.1499 16.7696 1277 108.6 122.171 454.237
2257 0 75.1538 13.0399 980 115.988 121.897 452.16
2258 0 77.1191 13.3171 1027 116.247 121.507 448.387
2259 0 82.1292 13.5518 1113 115.326 121.65 448.062
2260 0 84.1813 14.837 1249 113.396 122.903 446.942
2261 0 89.3604 12.0859 1080 119.324 121.836 441.183
2262 0 90.1825 13.384 1207 116.756 123.048 446.695
2263 1 47.0699 12.1096 570 117.039 123.861 461.372
2264 0 49.0188 10.8122 530 119.381 124.772 460.945
2265 0 51.0771 12.2168 624 116.979 126.09 461.801
2266 0 49.0236 13.4425 659 114.835 126.663 457.332
2267 0 51.0545 13.848 707 114.403 127.601 458.847
2268 0 55.0607 11.9505 658 116.476 127.892 458.992
2269 0 54.113 12.4739 675 117.499 127.904 455.923
2270 0 56.0736 12.3409 692 116.772 126.997 461.685
2271 0 54.0603 12.2641 663 119.667 128.985 457.127
2272 0 58.0773 15.2039 883 112.686 128.114 453.908
2273 0 61.0267 11.5523 705 117.989 128.973 454.696
2274 0 65.1611 14.9169 972 111.189 130.256 455.917
2275 0 64.3937 13.8833 894 114.682 129.874 455.475
2276 0 69.0807 12.7966 884 115.929 130.164 458.584
2277 0 69.0732 12.1176 837 118.832 130.607 458.931
2278 0 73.1503 15.2152 1113 114.332 129.313 457.12
2279 0 75.0856 13.9707 1049 116.801 129.173 458.168
2280 0 81.5068 17.336 1413 110.26 127.606 458.554
2281 0 82.4597 13.1579 1085 118.853 128.154 456.923
2282 0 83.2593 13.524 1126 119.828 128.148 458.583
2283 0 86.5363 13.4394 1163 120.3 126.966 455.117
2284 1 50.2645 9.80811 493 125.404 125.732 473.538
2285 0 52.366 9.4145 493 126.32 123.045 468.497
2286 0 53.0994 11.9775 636 124.374 121.803 466.451
2287 0 56.5022 15.2737 863 117.732 123.408 468.134
2288 0 56.5436 12.3621 699 124.735 120.857 467.323
2289 0 60.5782 15.2365 923 116.677 120.841 467.693
2290 0 61.3671 15.171 931 119.06 118.419 464.121
2291 0 63.372 13.8862 880 121.119 120.014 463.966
2292 0 63.4961 13.0717 830 123.74 119.429 463.849
2293 0 66.336 14.2607 946 120.702 119.367 461.482
2294 0 67.2969 14.488 975 122.028 118.572 457.823
2295 0 68.2794 12.0534 823 126.587 119.379 457.979
2296 0 71.3267 15.6744 1118 119.937 119.062 453.964
2297 0 72.3505 13.1996 955 125.592 118.891 453.565
2298 0 76.3016 14.0495 1072 122.763 118.567 451.801
2299 0 79.3524 13.5976 1079 122.861 119.301 453.481
2300 0 80.2842 13.9504 1120 122.514 119.862 449.299
2301 1 43.0089 11.3697 489 118.44 118.413 470.732
2302 0 45.0209 12.6164 568 117.62 118.495 468.484
2303 0 42.1012 10.9023 459 125.58 119.697 463
2304 0 46.1369 11.856 547 120.762 119.581 464.132
2305 0 47.0636 14.1086 664 114.898 120.937 463.435
2306 0 49.1899 15.7553 775 113.965 120.418 462.846
2307 0 49.0845 17.6838 868 112.43 122.55 460.765
2308 0 51.0454 15.594 796 114.58 122.195 459.9
2309 0 51.1834 13.5396 693 118.73 123.805 459.502
2310 0 53.0914 13.8064 733 119.63 122.142 457.622
2311 0 55.2117 13.7109 757 120.007 123.362 458.565
2312 0 57.2012 17.2024 984 113.236 124.779 456.798
2313 0 57.1085 18.0008 1028 112.944 124.834 456.7
2314 0 57.1328 14.335 819 119.394 124.825 458.22
2315 0 59.0768 13.8464 818 120.801 125.675 456.221
2316 0 62.1021 12.415 771 122.729 125.106 458.021
2317 0 64.0463 12.4441 797 123.216 126.954 457.31
2318 0 66.0867 15.2073 1005 117.653 126.646 457.45
2319 0 67.1322 14.7023 987 119.713 127.069 456.541
2320 0 69.101 17.1344 1184 115.802 126.959 455.668
2321 0 72.2162 17.2537 1246 114.835 126.255 459.315
2322 0 74.1557 12.9727 962 123.424 126.204 456.43
2323 0 76.2863 14.2621 1088 121.636 124.53 453.982
2324 1 40.0216 9.99459 400 123.85 125.645 475.708
2325 0 41.1526 11.0564 455 120.466 124.402 477.099
2326 0 42.2891 11.5633 489 117.853 124.299 467.998
2327 0 44.0316 9.87928 435 114.428 123.995 471.777
2328 0 47.2115 13.1747 622 109.977 121.518 468.505
2329 0 46.0755 10.5696 487 115.538 121.774 465.374
2330 0 49.0814 12.7747 627 111.282 121.534 466.764
2331 0 51.2157 13.0624 669 110.529 121.433 468.504
2332 0 52.3866 11.4533 600 114.293 121.05 467.155
2333 0 50.1536 10.0691 505 116.705 120.127 465.646
2334 0 56.1431 12.2722 689 112.372 120.79 465.023
2335 0 57.219 12.391 709 113.63 120.317 461.502
2336 0 57.1447 11.6546 666 116.329 120.713 460.171
2337 0 63.2301 14.4077 911 111.01 119.43 458.791
2338 0 61.1509 13.0497 798 112.798 119.675 459.93
2339 0 64.164 11.6109 745 117.012 119.746 457.345
2340 0 66.0872 13.0434 862 114.814 119.231 454.955
2341 0 67.2691 13.275 893 116.263 118.054 451.121
2342 0 69.12 12.3698 855 117.412 119.607 447.118
2343 0 71.0862 14.7989 1052 113.71 119.054 446.946
2344 0 73.1096 11.0519 808 119.962 120.512 443.078
2345 0 79.1276 14.4956 1147 113.059 120.759 440.251
2346 0 78.1261 13.8878 1085 116.305 121.665 436.089
2347 0 80.2101 15.048 1207 113.542 121.789 439.487
2348 0 82.203 13.5761 1116 116.268 121.918 440.49
2349 0 85.26 14.1684 1208 115.719 123.971 438.05
2350 1 46.0713 11.4388 527 116.152 122.956 455.14
2351 0 46.055 12.8108 590 121.139 125.663 457.541
2352 0 49.158 14.667 721 117.516 125.806 456.23
2353 0 49.1466 14.0803 692 115.205 125.659 450.052
2354 0 51.2675 13.1467 674 116.766 125.929 450.779
2355 0 54.1825 13.7498 745 114.991 126.631 453.29
2356 0 55.2189 13.7453 759 115.569 127.474 454.196
2357 0 57.314 14.3595 823 114.644 127.742 453.888
2358 0 59.061 13.2575 783 116.285 127.517 455.176
2359 0 63.227 15.2467 964 112.362 128.453 450.881
2360 0 63.297 12.8916 816 117.262 126.866 448.36
2361 0 65.3121 13.6116 889 116.655 127.902 450.325
2362 0 66.4536 11.0754 736 120.898 128.591 450.616
2363 0 70.278 14.1865 997 115.266 128.181 453.698
2364 0 75.297 13.7456 1035 115.186 126.962 454.103
2365 0 77.2154 16.6288 1284 111.238 126.089 449.094
2366 0 79.1085 13.8544 1096 116.454 127.051 445.584
2367 0 82.2948 14.1078 1161 115.596 126.181 446.656
2368 0 88.0825 14.0096 1234 115.75 124.388 449.054
2369 0 90.297 12.5807 1136 118.157 123.887 451.228
2370 0 93.2007 13.5192 1260 117.602 122.122 447.941
2371 1 49.179 11.753 578 116.163 121.336 475.457
2372 0 52.1445 15.7639 822 111.9 119.938 470.659
2373 0 52.0679 11.4658 597 120.985 119.323 474.869
2374 0 51.1704 11.1002 568 124.028 119.56 469.572
2375 0 56.1654 13.7807 774 116.632 118.855 465.795
2376 0 59.102 13.8574 819 118.04 118.136 466.376
2377 0 61.1763 14.1068 863 117.425 117.439 462.023
2378 0 63.1112 13.8486 874 117.832 117.825 463.857
2379 0 65.1737 13.0114 848 119.237 117.479 462.554
2380 0 66.0707 14.7115 972 117.591 117.497 458.335
2381 0 69.2678 15.5339 1076 117.155 117.507 455.103
2382 0 73.243 13.8716 1016 118.893 116.344 453.928
2383 0 74.1674 14.0088 1039 119.193 118.305 453.513
2384 0 77.379 15.7278 1217 115.412 118.5 453.11
2385 0 78.2407 15.0944 1181 118.439 117.801 448.784
2386 0 78.2648 11.2822 883 125.331 118.586 448.727
2387 0 85.3524 13.8953 1186 118.846 118.532 448.073
2388 0 88.1948 13.2661 1170 121.356 120.095 444.579
2389 0 91.4093 14.8453 1357 123.142 120.859 443.755
2390 0 94.3725 13.9553 1317 125.498 120.244 439.462
2391 0 94.3388 11.9887 1131 128.267 121.756 442.08
2392 1 52.2325 10.1278 529 128.132 121.282 458.756
2393 0 55.074 13.7452 757 119.86 121.001 459.83
2394 0 58.0128 16.8239 976 109.772 123.947 460.459
2395 0 57.1342 13.7046 783 116.705 122.18 455.05
2396 0 61.2632 13.0258 798 116.687 122.892 456.396
2397 0 63.4676 12.4946 793 119.961 123.079 452.715
2398 0 65.0838 14.1356 920 115.752 123.141 453.635
2399 0 68.1497 12.0323 820 118.362 123.834 456.512
2400 0 70.2525 15.9852 1123 115.03 125.025 455.006
2401 0 74.2727 16.1432 1199 114.019 125.276 454.016
2402 0 76.358 16.0036 1222 115.227 125.112 453.939
2403 0 77.2324 13.9449 1077 120.838 125.805 456.297
2404 0 82.4666 14.7817 1219 118.658 124.843 453.642
2405 0 83.2799 15.3819 1281 117.123 123.794 457.475
2406 0 87.0826 13.8489 1206 119.829 123.736 453.304
2407 0 91.4034 12.9207 1181 120.301 123.531 448.646
2408 1 50.1004 11.0977 556 123.727 122.433 468.435
2409 0 51.1156 7.25806 371 128.922 122.399 471.205
2410 0 55.1751 13.9737 771 117.722 121.278 469.073
2411 0 59.4927 14.506 863 115.643 121.285 467.713
2412 0 58.2469 12.9621 755 117.804 122.122 462.493
2413 0 62.2994 13.9327 868 118.847 121.638 466.217
2414 0 63.4599 14.6864 932 116.263 120.681 468.441
2415 0 65.2666 12.8856 841 120.565 120.593 463.545
2416 0 68.2978 19.0489 1301 109.635 119.693 462.759
2417 0 67.5762 12.8152 866 121.876 120.053 458.44
2418 0 72.4161 13.74 995 119.782 119.565 456.634
2419 0 74.429 12.9654 965 121.316 119.707 451.978
2420 0 76.4287 14.7196 1125 117.257 118.653 451.837
2421 0 76.3813 13.197 1008 120.896 119.326 446.956
2422 0 82.2308 14.2526 1172 116.536 118.864 446.012
2423 0 84.55 15.1626 1282 114.822 118.724 438.604
2424 0 83.5673 13.8571 1158 117.77 118.872 439.442
2425 0 91.5395 18.0578 1653 109.204 118.33 438.524
2426 0 94.4926 13.0169 1230 117.447 118.999 437.085
2427 0 96.6321 14.7363 1424 115.848 119.624 428.412
2428 0 97.2581 14.2302 1384 117.983 120.333 430.14
2429 1 47.2242 7.07264 334 124.611 121.015 452.686
2430 0 55.2432 11.024 609 115.745 121.038 449.834
2431 0 56.2015 13.843 778 106.35 121.276 450.477
2432 0 57.2894 10.9619 628 112.283 121.855 449.882
2433 0 60.1602 11.3031 680 110.047 121.631 450.738
2434 0 63.2237 11.9101 753 108.899 122.286 449.054
2435 0 60.1598 10.9043 656 112.244 123.159 446.951
2436 0 67.0911 13.2059 886 117.351 125.301 451.991
2437 0 69.1266 13.9744 966 115.393 124.608 451.075
2438 0 68.4743 11.508 788 121.088 125.419 448.345
2439 0 74.2217 13.5944 1009 115.787 125.174 450.143
2440 0 76.544 18.2771 1399 109 124.693 449.518
2441 0 77.5675 12.3119 955 118.394 126.182 450.617
2442 0 82.3312 13.4093 1104 116.659 125.601 451.804
2443 0 86.255 17.4715 1507 109.836 126.964 452.135
2444 0 82.3095 11.0801 912 123.802 126.049 446.648
2445 0 89.3427 11.842 1058 120.817 127.602 451.922
2446 0 92.3133 15.7399 1453 115.054 124.821 450.171
2447 0 96.2411 14.4533 1391 113.364 124.84 455.111
2448 0 101.166 14.0067 1417 115.711 126.683 448.835
2449 0 105.123 18.2739 1921 108.811 126.314 451.148
2450 0 107.205 14.9153 1599 115.627 123.693 442.737
2451 1 59.1894 8.29541 491 117.061 122.597 466.766
2452 0 62.2066 11.7029 728 109.742 122.137 459.805
2453 0 62.1241 11.8312 735 113.407 122.584 468.644
2454 0 65.1702 9.59027 625 113.603 121.043 460.885
2455 0 71.3366 10.6397 759 109.96 119.639 464.095
2456 0 71.1724 10.8188 770 111.348 118.014 459.665
2457 0 74.1908 12.1309 900 109.646 117.371 456.387
2458 0 76.3848 11.429 873 111.585 118.789 450.935
2459 0 76.5078 11.2015 857 113.197 117.847 447.334
2460 0 84.5102 10.7088 905 110.75 116.629 452.165
2461 0 85.4507 15.0262 1284 107.643 116.595 444.198
2462 0 87.291 12.3953 1082 112.171 116.278 445.345
2463 0 84.3727 9.30396 785 120.585 118.166 435.693
2464 0 92.5613 12.3918 1147 114.928 117.405 439.966
2465 0 94.5022 13.2272 1250 112.827 117.202 441.618
2466 1 53.0654 12.7578 677 107.843 118.084 458.025
2467 0 54.3228 11.8735 645 110.75 118.104 459.589
2468 0 56.0543 12.7376 714 111.646 119.328 460.924
2469 0 58.1567 12.6211 734 111.858 120.189 459.546
2470 0 57.4031 11.7067 672 115.202 121.21 460.475
2471 0 58.2237 9.6696 563 118.162 121.977 461.675
2472 0 60.2008 13.4882 812 114.025 121.936 456.654
2473 0 64.1916 10.3129 662 115.592 122.456 461.548
2474 0 66.1269 12.1584 804 116.026 122.665 455.103
2475 0 66.1795 10.804 715 116.453 123.371 458.27
2476 0 67.177 13.9184 935 114.253 124.912 454.097
2477 0 71.0978 11.9694 851 118.121 124.047 450.456
2478 0 75.1818 11.4522 861 115.333 125.617 457.748
2479 0 76.5064 14.1426 1082 115.483 123.636 449.91
2480 0 78.1204 13.812 1079 117.131 125.741 447.825
2481 1 43.0818 9.98102 430 119.058 126.309 468.87
2482 0 46.0935 11.8021 544 114.95 126.546 469.522
2483 0 47.0934 12.3372 581 114.509 126.236 469.415
2484 0 48.1398 12.8376 618 115.555 126.602 471.709
2485 0 52.1518 13.6908 714 118.431 125.735 468.527
2486 0 51.2572 11.5691 593 121.381 126.442 472.476
2487 0 55.1668 15.2084 839 116.331 125.625 467.943
2488 0 57.3188 15.0387 862 115.296 125.519 469.481
2489 0 59.2726 15.5553 922 115.874 125.395 469.833
2490 0 61.2378 14.2722 874 118.7 125.635 469.159
2491 0 60.2337 11.6214 700 125.15 125.584 467.239
2492 0 64.2428 13.4178 862 121.103 123.636 468.61
2493 0 65.3768 13.0474 853 122.089 122.919 467.686
2494 0 66.3547 12.2373 812 125.044 121.651 465.145
2495 0 70.4334 12.0823 851 124.759 120.974 464.96
2496 0 73.2601 14.5099 1063 120.274 120.65 462.367
2497 0 76.3868 14.204 1085 120.645 119.893 459.654
2498 0 80.2812 17.227 1383 114.122 119.905 460.143
2499 0 80.3041 10.9459 879 125.422 120.383 460.423
2500 0 90.4573 11.066 1001 123.939 117.971 456.828
2501 0 88.3328 12.2944 1086 122.932 117.831 453.049
2502 0 91.5093 13.7909 1262 120.259 117.681 450.66
2503 1 49.0551 12.2515 601 116.729 119.113 472.912
2504 0 49.127 12.1318 596 116.935 118.664 470.794
2505 0 52.4654 14.4667 759 113.049 116.599 468.341
2506 0 50.1726 9.98553 501 122.633 119.206 465.579
2507 0 51.0743 11.3952 582 120.796 119.213 463.17
2508 0 55.1737 10.7479 593 119.732 118.528 465.008
2509 0 57.1079 13.028 744 117.207 119.941 460.851
2510 0 56.1219 14.4507 811 115.623 120.29 458.111
2511 0 57.1056 11.6626 666 120.895 120.853 458.254
2512 0 63.0875 10.6519 672 120.254 121.996 459.182
2513 0 63.0796 12.73 803 117.186 121.172 456.526
2514 0 61.0751 16.4715 1006 113.227 121.685 453.956
2515 0 67.1819 13.1583 884 115.572 121.917 455.741
2516 0 69.2627 14.611 1012 114.206 122.173 451.504
2517 0 73.0702 16.3268 1193 110.162 123.75 450.412
2518 0 73.1893 12.7341 932 115.506 124.529 452.63
2519 0 76.2156 15.0494 1147 112.558 124.849 451.488
2520 0 80.2833 14.7851 1187 113.293 126.274 447.845
2521 0 84.12 13.3381 1122 115.82 125.75 446.589
2522 0 84.1716 12.8547 1082 116.327 126.612 446.756
2523 0 86.2417 14.6217 1261 114.443 126.41 446.57
2524 1 46.1841 9.46213 437 120.085 127.835 468.151
2525 0 50.1763 13.333 669 111.374 126.918 471.635
2526 0 50.2558 12.1379 610 115.202 125.882 468.093
2527 0 55.4056 13.5365 750 111.163 124.228 467.856
2528 0 52.411 9.84525 516 119.424 125.306 466.008
2529 0 56.3218 11.9669 674 115.831 124.684 464.423
2530 0 59.2397 15.3276 908 109.82 125.688 469.409
2531 0 63.2468 13.2813 840 111.763 125.992 468.979
2532 0 62.195 13.1039 815 112.088 124.924 470.739
2533 0 64.0526 11.4749 735 114.759 124.347 468.623
2534 0 67.0984 14.5011 973 110.409 121.973 466.63
2535 0 68.2045 16.7878 1145 106.239 122.943 468.555
2536 0 71.2123 13.6212 970 112.258 122.967 463.011
2537 0 75.208 14.6394 1101 109.312 121.639 462.881
2538 0 76.1732 13.0098 991 113.259 121.746 458.866
2539 0 81.3166 14.3144 1164 109.844 120.918 460.984
2540 0 83.2866 11.1663 930 114.256 120.355 460.759
2541 0 88.5297 17.4405 1544 105.063 118.622 457.453
2542 0 90.2445 19.4804 1758 102.514 118.372 456.38
2543 0 94.2565 14.3014 1348 109.932 117.973 452.266
2544 0 96.3779 15.9995 1542 107.628 118.119 449.841
2545 0 100.427 14.3188 1438 111.098 119.248 443.951
2546 0 103.285 14.2131 1468 110.615 117.504 444.367
2547 1 58.2248 15.2856 890 106.645 118.744 464.401
2548 0 57.476 16.4242 944 105.335 118.078 461.828
2549 0 59.3401 11.7796 699 106.452 117.422 463.069
2550 0 62.3615 11.8663 740 105.62 117.546 462.738
2551 0 65.2995 14.2727 932 102.163 118.069 459.621
2552 0 67.2364 13.7425 924 102.672 119.957 457.083
2553 0 69.3877 12.0627 837 104.177 118.843 458.643
2554 0 77.2318 19.1243 1477 94.1801 120.307 450.23
2555 0 76.1999 18.2152 1388 96.3278 119.287 448.438
2556 0 76.3194 10.443 797 106.748 120.971 445.167
2557 0 81.3093 18.5711 1510 95.8901 121.205 446.855
2558 0 83.124 14.4242 1199 100.724 123.591 448.103
2559 0 86.3076 14.738 1272 100.648 122.696 444.466
2560 0 88.2359 14.2459 1257 101.01 123.801 446.007
2561 0 93.2235 14.1595 1320 102.539 123.016 442.883
2562 0 97.2091 14.3196 1392 102.18 124.491 439.744
2563 1 55.046 12.8983 710 100.063 124.677 462.355
2564 0 57.0852 10.5281 601 101.531 125.394 467.281
2565 0 59.2575 12.2685 727 100.594 124.139 461.953
2566 0 59.2788 11.117 659 101.906 124.652 464.498
2567 0 60.2599 13.3256 803 100.648 124.735 462.283
2568 0 66.2457 14.8991 987 96.6059 124.143 468.18
2569 0 67.1821 12.2949 826 101.535 124.122 464.564
2570 0 70.27 11.897 836 102.391 123.441 464.817
2571 0 73.2061 13.8513 1014 100.422 123.71 463.941
2572 0 77.7865 18.5508 1443 94.7602 123.871 462.721
2573 0 80.3668 12.978 1043 102.027 122.123 464.557
2574 0 82.1518 13.9376 1145 101.078 121.197 465.142
2575 0 88.2833 14.7593 1303 102.061 121.267 459.795
2576 0 88.2698 13.0056 1148 105.47 119.72 458.997
2577 0 92.2816 12.8953 1190 106.486 119.872 457.118
2578 0 95.2191 13.0961 1247 105.504 118.774 459.484
2579 1 51.1917 18.2256 933 96.3398 119.116 477.898
2580 0 52.051 13.4868 702 104.259 117.912 473.319
2581 0 52.2096 15.5144 810 101.712 117.068 476.244
2582 0 53.225 11.8741 632 108.07 116.653 469.652
2583 0 56.1673 12.5696 706 107.591 116.807 471.303
2584 0 59.2679 19.6059 1162 97.2986 116.079 471.524
2585 0 60.3153 13.8771 837 104.693 114.886 469.78
2586 0 61.1683 13.6018 832 106.107 116.766 464.203
2587 0 62.2002 13.1511 818 105.744 114.575 467.493
2588 0 62.2474 14.0729 876 107.784 116.498 461.816
2589 0 64.167 15.0389 965 104.595 115.705 464.725
2590 0 68.2276 14.5982 996 105.115 116.365 462.02
2591 0 68.26 15.9244 1087 103.902 117.121 460.442
2592 0 71.1634 15.2888 1088 105.835 117.749 455.826
2593 0 73.1826 12.8719 942 109.482 118.121 455.811
2594 0 74.2578 14.7325 1094 107.519 118.484 453.009
2595 0 74.2786 13.0993 973 110.558 118.372 447.401
2596 0 77.1223 14.0167 1081 108.494 119.697 450.469
2597 0 81.1464 15.0962 1225 107.352 118.753 449.401
2598 0 79.1745 13.2871 1052 111.856 119.49 445.452
2599 0 83.2336 13.4201 1117 109.653 121.594 445.574
2600 0 85.119 13.8394 1178 109.696 121.074 442.196
2601 0 91.3612 15.5755 1423 106.42 122.347 443.387
2602 0 95.3969 15.881 1515 104.615 122.828 443.954
2603 0 96.4352 14.1961 1369 108.321 123.25 438.488
2604 0 98.2335 14.3128 1406 108.59 124.263 434.967
2605 0 104.534 11.6518 1218 110.557 123.771 441.669
2606 0 108.476 13.9293 1511 105 124.107 440.494
2607 0 109.658 17.2171 1888 101.54 123.798 441.66
2608 0 116.323 15.3796 1789 106.248 123.036 430.534
2609 1 67.3282 13.9763 941 102.834 124.225 458.117
2610 0 70.7558 13.8081 977 106.35 123.834 456.328
2611 0 72.2842 20.7929 1503 97.1989 122.88 459.416
2612 0 74.3025 13.5123 1004 105.958 123.003 453.536
2613 0 76.0765 17.8636 1359 100.757 122.439 452.594
2614 0 76.1136 12.6916 966 108.746 121.513 456.334
2615 0 81.2936 14.7367 1198 105.754 121.81 451.856
2616 0 85.4108 13.6517 1166 106.936 119.761 452.622
2617 0 89.4347 16.0676 1437 104.096 118.908 448.086
2618 0 91.2084 15.6455 1427 103.28 118.142 450.849
2619 1 49.1515 11.1289 547 106.271 117.724 470.464
2620 0 53.1519 11.4954 611 104.399 117.702 467.583
2621 0 55.1745 12.7414 703 103.788 118.499 452.626
2622 0 58.1099 12.201 709 103.144 118.439 447.542
2623 0 58.1937 12.1663 708 101.956 117.066 451.069
2624 0 60.1883 14.4713 871 100.098 117.986 453.541
2625 0 61.096 14.3381 876 100.892 117.588 452.152
2626 0 60.1 11.1647 671 105.179 117.852 454.224
2627 1 128.234 13.3662 1714 104.243 116.639 422.13
2628 1 69.1504 16.8184 1163 97.2382 117.739 451.666
2629 0 69.0938 17.0638 1179 96.9746 117.997 444.085
2630 0 72.4411 16.8551 1221 98.0033 117.062 446.389
2631 0 74.4972 13.5039 1006 101.498 117.604 446.328
2632 0 79.3664 15.1576 1203 98.7714 117.229 440.367
2633 0 82.3364 16.1775 1332 97.5158 119.504 441.419
2634 0 85.2584 16.3386 1393 98.0474 119.779 440.111
2635 0 88.3055 16.6468 1470 97.6503 119.069 434.342
2636 0 88.2171 13.7728 1215 102.508 119.652 435.776
2637 0 94.2967 13.8499 1306 101.759 120.468 434.636
2638 0 97.5096 15.3831 1500 99.864 120.856 433.328
2639 0 102.692 19.2323 1975 93.3575 121.564 440.275
2640 0 104.535 18.3001 1913 97.4522 121.437 428.054
2641 0 106.373 14.2705 1518 102.375 122.318 424.977
2642 1 72.2479 14.7824 1068 93.5056 125.434 450.872
2643 0 77.5829 13.1343 1019 93.7125 125.865 446.667
2644 0 75.2213 14.1981 1068 97.0037 126.146 446.441
2645 0 83.1477 15.8032 1314 91.5624 124.993 453.116
2646 0 85.5078 16.9926 1453 92.3985 124.349 447.688
2647 0 84.333 12.5692 1060 97.6594 124.103 445.834
2648 0 86.3764 9.34283 807 100.239 124.006 439.482
2649 0 89.092 11.359 1012 98.5326 124.295 442.566
2650 0 93.1519 14.9755 1395 93.3133 122.409 451.626
2651 0 98.2246 13.8662 1362 96.1072 122.941 444.297
2652 0 100.368 9.67442 971 101.144 121.554 443.069
2653 0 106.349 15.0355 1599 95.5153 120.847 444.091
2654 0 110.514 13.9983 1547 97.477 119.885 435.198
2655 0 109.695 10.8756 1193 101.64 118.604 427.681
2656 0 118.238 16.8897 1997 94.1873 118.077 431.821
2657 1 61.156 9.61475 588 93.4864 117.216 461.517
2658 0 61.0953 8.90413 544 94.2647 115.279 464.478
2659 0 61.0953 9.00233 550 128.693 113.253 464.456
2660 0 67.2158 13.0922 880 95.175 114.114 461.826
2661 0 70.1804 12.8098 899 96.0356 115.247 459.998
2662 0 71.2148 19.1954 1367 90.038 115.086 458.71
2663 0 77.3742 13.7772 1066 93.8584 113.384 461.74
2664 0 75.2514 15.1625 1141 94.1218 114.142 455.729
2665 0 79.6616 19.1309 1524 90.7014 113.648 454.089
2666 0 81.5719 13.0805 1067 98.1574 113.958 452.146
2667 0 81.2475 13.1819 1071 99.5388 114.705 446.999
2668 0 85.4728 11.0912 948 101.604 113.136 446.358
2669 0 87.3532 17.6181 1539 95.2144 115.228 441.982
2670 0 91.3433 13.0497 1192 99.7324 116.072 445.587
2671 0 96.6109 17.2548 1667 95.2454 117.243 442.227
2672 0 96.4375 18.779 1811 93.7057 117.63 441.705
2673 0 96.5303 15.2491 1472 97.678 118.22 442.226
2674 0 101.349 12.6494 1282 102.185 118.005 430.62
2675 0 106.421 11.3418 1207 103.16 119.212 434.777
2676 0 110.483 18.4191 2035 96.3116 119.352 427.234
2677 0 112.474 12.2606 1379 103.456 119.719 428.914
2678 1 61.1755 12.08 739 101.756 119.811 452.317
2679 0 66.1376 14.1674 937 96.8879 120.709 455.016
2680 0 70.3537 14.5977 1027 94.7001 120.266 446.904
2681 0 70.2925 13.7568 967 95.3909 121.652 447.678
2682 0 71.1518 10.9765 781 98.105 120.853 454.958
2683 0 75.2004 15.851 1192 93.5923 123.123 447.654
2684 0 76.2885 17.211 1313 92.604 122.791 449.296
2685 0 79.1807 10.2677 813 98.6285 124.732 454.445
2686 0 80.4531 11.4352 920 97.5946 123.862 455.527
2687 0 84.448 9.48513 801 98.985 123.694 456.512
2688 0 86.4112 14.3153 1237 94.3015 122.508 457.856
2689 0 90.2764 13.7356 1240 95.2387 121.335 454.946
2690 0 90.3274 12.4104 1121 98.2971 122.996 448.033
2691 0 95.6273 13.9395 1333 97.0443 121.11 448.563
2692 0 99.7546 11.1373 1111 97.8407 120.806 452.001
2693 0 104.426 14.1919 1482 95.7294 121.605 445.172
2694 0 110.526 11.5177 1273 99.7007 119.796 435.91
2695 0 112.398 15.7476 1770 93.2887 118.941 447.314
2696 1 64.5856 11.628 751 93.6911 119.868 462.997
2697 0 64.3011 9.73545 626 98.516 119.022 460.732
2698 0 68.4282 16.236 1111 94.7192 118.814 467.157
2699 0 72.4323 15.3661 1113 94.6622 119.208 459.642
2700 0 73.5163 17.9008 1316 90.3868 118.564 466.546
2701 0 74.4164 20.4525 1522 89.9869 117.336 462.822
2702 0 75.2417 16.5201 1243 84.5036 118.351 452.474
2703 1 89.1497 11.3629 1013 90.2725 118.581 448.536
2704 0 89.291 11.9609 1068 87.9064 117.275 455.337
2705 0 90.1763 12.2981 1109 90.0063 118.049 447.602
2706 0 88.1502 22.8133 2011 81.9925 116.231 446.814
2707 0 90.2595 12.9516 1169 89.8982 116.941 443.496
2708 0 93.1534 12.9679 1208 89.5637 116.496 447.08
2709 0 94.2928 14.5186 1369 89.0993 116.765 443.022
2710 1 58.0817 10.0376 583 91.7667 117.571 457.358
2711 0 56.2858 13.467 758 90.2955 116.9 452.003
2712 0 57.5811 19.0861 1099 83.8362 117.236 457.134
2713 0 63.2123 16.3101 1031 84.8089 115.921 460.355
2714 0 62.2385 18.5416 1154 85.6438 117.73 452.467
2715 0 64.2905 9.98592 642 92.0872 118.129 454.447
2716 0 64.1902 12.1202 778 92.0617 119.195 449.013
2717 0 69.3563 14.1732 983 90.4741 119.464 444.976
2718 0 70.2782 14.8552 1044 90.0498 118.964 441.146
2719 0 76.2904 12.5311 956 89.4351 121.086 449.143
2720 0 82.4617 20.3367 1677 85.3924 120.792 453.5
2721 0 80.2106 13.8635 1112 91.8966 122.683 452.304
2722 0 82.5035 12.9692 1070 94.2729 121.91 446.785
2723 0 84.1596 10.4801 882 96.229 122.87 446.713
2724 0 92.2953 16.7397 1545 89.2414 123.324 447.616
2725 0 95.4922 25.5099 2436 83.0041 121.993 445.956
2726 0 93.1309 11.2745 1050 94.6943 124.062 447.012
2727 0 101.338 15.4137 1562 91.2119 123.483 442.149
2728 0 103.135 14.0107 1445 90.7329 123.669 442.565
2729 1 57.113 13.1319 750 90.8427 123.752 465.704
2730 0 56.3377 10.8098 609 94.092 123.141 460.289
2731 0 61.238 19.6283 1202 85.3686 122.932 462.225
2732 0 56.1109 11.0852 622 96.3344 122.14 466.54
2733 0 65.6263 13.8969 912 90.1776 122.571 471.51
2734 1 122.696 10.7012 1313 94.6093 122.299 445.745
2735 1 66.181 12.7831 846 94.6088 122.735 461.957
2736 0 70.4133 12.5402 883 93.419 122.681 467.058
2737 0 66.2236 8.24479 546 98.7308 120.934 463.379
2738 0 74.2977 11.4808 853 94.612 121.461 463.471
2739 0 75.2285 12.8276 965 93.8238 120.535 462.678
2740 0 78.3163 18.9743 1486 89.3062 120.077 457.077
2741 0 77.5172 12.5004 969 95.2301 119.194 460.513
2742 0 80.3753 13.7107 1102 94.2432 118.175 458.548
2743 0 80.3196 12.4005 996 96.6637 119.053 452.941
2744 0 86.3168 18.212 1572 90.3448 117.073 452.204
2745 0 88.1318 16.3278 1439 92.9375 117.53 451.998
2746 0 90.4479 16.5067 1493 93.3061 116.215 446.66
2747 0 95.5317 13.4615 1286 95.5451 115.041 451.166
2748 0 99.1771 11.6055 1151 98.5204 115.381 445.747
2749 0 102.472 17.0486 1747 93.233 113.011 443.044
2750 1 59.102 14.0774 832 91.4219 115.067 466.565
2751 0 55.2449 7.63872 422 100.28 115.581 462.294
2752 0 61.3265 14.17 869 93.2635 115.402 460.918
2753 0 63.3892 12.4311 788 95.2614 116.076 462.044
2754 0 64.106 13.9612 895 102.012 117.215 459.356
2755 0 68.0945 14.289 973 101.612 117.261 456.489
2756 0 71.1457 17.162 1221 97.1589 116.821 454.53
2757 0 74.3716 15.9604 1187 98.9276 117.979 450.138
2758 0 80.5913 15.5104 1250 98.172 117.45 452.256
2759 0 75.0941 19.349 1453 92.7915 120.796 448.738
2760 0 80.337 11.987 963 100.152 120.256 448.945
2761 0 85.3313 14.2035 1212 99.5685 121.941 444.904
2762 0 87.6 21.3813 1873 92.1778 121.268 440.257
2763 0 85.186 14.2042 1210 100.331 121.921 442.346
2764 0 89.2606 13.2533 1183 101.469 123.903 440.799
2765 0 95.3979 14.7907 1411 100.591 124.108 432.969
2766 0 100.291 15.6644 1571 99.2686 125.929 431.603
2767 0 100.208 16.4258 1646 98.8785 124.304 431.657
2768 0 105.422 17.7193 1868 97.6617 126.661 435.426
2769 1 59.3881 11.8037 701 100.605 126.367 458.596
2770 0 59.1343 12.6492 748 100.575 124.948 459.702
2771 0 58.4079 11.7621 687 101.084 124.266 457.208
2772 0 59.3859 10.255 609 105.586 124.452 452.355
2773 0 66.3007 15.8973 1054 96.8112 124.448 456.22
2774 0 64.4226 13.0855 843 102.913 124.553 455.355
2775 0 68.2288 17.5439 1197 100.404 123.637 458.085
2776 0 72.3996 15.3868 1114 102.623 124.298 457.846
2777 0 73.4789 14.0585 1033 104.599 123.529 457.018
2778 0 77.4379 13.0815 1013 104.935 124.347 459.343
2779 0 80.3199 16.4094 1318 101.764 123.388 455.264
2780 0 83.4385 18.8282 1571 98.2508 122.866 446.716
2781 0 86.4884 17.1584 1484 101.083 122.974 451.436
2782 0 87.2765 14.815 1293 104.199 121.479 451.609
2783 0 85.4989 14.7487 1261 104.861 122.097 449.9
2784 0 92.4077 14.804 1368 105.113 121.167 446.258
2785 0 94.2881 12.3027 1160 107.884 121.181 442.346
2786 0 96.3363 13.702 1320 107.114 120.675 442.465
2787 0 102.247 17.6141 1801 101.016 119.732 435.484
2788 1 55.1461 14.2893 788 102.89 120.103 462.192
2789 0 52.1624 13.7264 716 104.429 118.955 461.872
2790 0 60.1841 13.7744 829 102.552 118.533 462.396
2791 0 61.2044 16.1916 991 100.569 118.266 457.659
2792 0 64.1379 17.5871 1128 96.4193 118.217 461.689
2793 0 63.1892 11.6792 738 105.614 117.843 452.858
2794 0 69.0866 13.7943 953 101.444 119.914 448.418
2795 0 67.1226 11.7993 792 105.119 118.376 448.319
2796 0 69.2638 11.8965 824 105.689 118.244 444.926
2797 0 69.196 17.1542 1187 99.4692 116.988 443.112
2798 0 76.3369 15.7067 1199 101.082 117.898 438.762
2799 0 75.3604 14.6231 1102 103.585 118.555 438.854
2800 0 77.2309 12.2619 947 106.823 117.808 437.932
2801 0 77.1685 12.9975 1003 106.628 120.019 434.788
2802 0 80.297 16.962 1362 101.645 119.554 431.574
2803 0 85.2421 15.5909 1329 103.119 120.783 429.286
2804 0 91.2856 15.3365 1400 102.375 121.458 431.081
2805 0 91.3758 16.941 1548 102.026 123.252 430.74
2806 0 95.234 14.8266 1412 104.8 121.998 430.002
2807 0 94.3647 14.0943 1330 106.893 123.507 425.542
2808 0 100.135 15.1596 1518 105.501 123.818 424.766
2809 0 96.3333 12.1453 1170 110.564 125.205 421.205
2810 1 63.3677 8.03249 509 101.611 125.939 454.815
2811 0 59.2184 12.0064 711 103.114 125.712 446.75
2812 0 62.3016 12.8247 799 103.631 124.648 443.85
2813 0 62.3016 12.921 805 136.046 123.621 443.87
2814 0 65.1645 9.6218 627 106.4 124.545 448.614
2815 0 69.2339 11.425 791 105.556 124.432 447.917
2816 0 74.1617 15.6145 1158 99.525 124.339 455.255
2817 0 74.2342 10.9922 816 107.279 123.462 453.781
2818 0 78.3206 16.2537 1273 100.804 124.717 450.985
2819 0 79.2755 11.9205 945 106.844 123.605 448.951
2820 0 83.1163 12.4404 1034 106.52 124.366 446.51
2821 0 86.449 14.5404 1257 104.224 124.256 445.791
2822 0 86.2571 10.9092 941 108.136 124.911 455.064
2823 0 88.196 14.8419 1309 105.025 123.643 445.046
2824 0 96.3079 12.5535 1209 105.94 123.402 447.586
2825 0 96.5405 17.0809 1649 100.964 124.143 446.105
2826 0 98.5399 12.1068 1193 107.666 123.072 446.412
2827 0 102.428 12.2525 1255 107.888 122.078 442.047
2828 0 109.342 13.6178 1489 105.584 121.224 443.344
2829 0 108.275 13.789 1493 106.443 119.354 434.409
2830 0 110.323 16.3067 1799 101.833 120.24 438.285
2831 1 124.464 10.5252 1310 107.849 119.976 436.233
2832 0 122.29 14.989 1833 101.099 119.684 438.825
2833 0 128.442 16.8947 2170 101.213 120.088 425.558
2834 1 75.1682 11.4144 858 105.668 118.382 451.42
2835 0 77.1875 12.8518 992 104.335 118.321 450.788
2836 0 81.176 12.4791 1013 105.73 117.991 448.085
2837 0 84.0777 12.5836 1058 105.784 117.244 441.388
2838 0 87.1254 16.2639 1417 101.136 117.522 446.439
2839 0 92.2451 18.9604 1749 97.96 117.76 438.735
2840 0 93.1896 13.2311 1233 106.57 119.288 433.091
2841 0 98.3799 15.7349 1548 103.372 119.44 433.786
2842 0 101.506 20.6884 2100 97.5919 120.301 429.996
2843 0 103.454 12.7109 1315 107.756 121.778 431.29
2844 0 105.386 14.8787 1568 105.828 120.217 429.507
2845 0 110.385 14.3951 1589 106.585 121.568 426.639
2846 0 113.59 17.2375 1958 102.366 121.499 426.462
2847 0 115.162 10.4114 1199 110.252 122.937 423.322
2848 0 121.445 13.2323 1607 104.432 122.485 429.189
2849 0 123.306 12.4731 1538 106.464 123.812 422.336
2850 1 76.2507 9.78352 746 102.733 125.212 448.834
2851 0 75.1387 10.4074 782 101.315 125.295 448.39
2852 0 78.0384 11.3406 885 101.591 125.773 448.201
2853 0 76.236 11.2283 856 99.6939 126.244 447.598
2854 0 78.2147 10.6502 833 101.527 125.294 441.689
2855 0 82.3211 11.6738 961 99.2008 126.343 447.012
2856 0 84.291 14.8177 1249 97.0865 124.51 445.29
2857 0 86.1668 12.2437 1055 100.084 126.898 440.887
2858 0 91.609 15.0859 1382 97.2988 126.968 440.606
2859 0 91.0879 12.4385 1133 101.022 126.104 437.939
2860 0 93.2886 9.66892 902 104.284 126.337 432.073
2861 0 104.294 12.4551 1299 100.333 126.477 438.361
2862 0 106.377 12.6531 1346 98.8707 127.042 440.973
2863 0 107.245 11.1147 1192 101.506 127.575 435.742
2864 0 111.234 11.9567 1330 101.215 126.875 433.538
2865 0 113.421 10.8181 1227 102.931 126.333 428.959
2866 0 114.369 12.2236 1398 101.541 125.647 440.745
2867 0 117.441 13.6494 1603 105.199 124.834 431.002
2868 0 122.494 15.1355 1854 102.376 124.599 438.489
2869 0 128.325 13.2399 1699 105.699 123.341 431.969
2870 0 134.378 15.6499 2103 102.749 123.176 433.718
2871 0 131.581 13.4822 1774 103.67 120.533 441.66
2872 0 141.28 15.1755 2144 105.23 121.411 422.807
2873 1 79.3212 11.4976 912 105.991 121.143 456.594
2874 0 83.2852 15.2128 1267 101.946 121.998 452.515
2875 0 85.3426 12.3854 1057 105.897 119.952 451.321
2876 0 88.1395 14.6472 1291 103.686 119.949 447.869
2877 0 91.2511 12.504 1141 106.946 118.506 445.836
2878 0 95.1778 15.5919 1484 102.052 118.823 445.181
2879 0 92.2292 15.3314 1414 101.087 118.656 451.983
2880 0 98.3744 20.6354 2030 97.9182 119.212 439.382
2881 0 103.252 15.4283 1593 104.411 117.835 435.293
2882 0 108.378 12.7609 1383 107.095 118.534 434.704
2883 0 111.689 14.9164 1666 104.318 116.799 433.142
2884 0 114.375 16.4984 1887 103.872 118.836 427.42
2885 0 116.166 16.8724 1960 103.287 119.647 429.289
2886 0 121.219 15.6493 1897 105.27 119.865 419.539
2887 0 124.461 16.5594 2061 103.648 119.889 422.409
2888 1 68.2106 10.966 748 106.674 120.279 449.702
2889 0 71.2382 13.2794 946 103.17 120.437 448.126
2890 0 71.3736 14.1509 1010 99.995 120.767 451.968
2891 0 77.3442 14.0411 1086 97.4319 122.475 448.017
2892 0 78.3156 17.0464 1335 93.4712 122.863 446.09
2893 0 83.524 16.3306 1364 95.2273 123.433 444.691
2894 0 84.2358 15.3972 1297 94.0062 123.783 440.737
2895 0 89.2444 16.4828 1471 92.794 124.281 439.24
2896 0 90.1368 11.6046 1046 98.8987 125.745 434.674
2897 0 88.2386 9.96163 879 101.644 126.154 441.439
2898 0 95.1853 13.3319 1269 96.9582 127.372 438.956
2899 0 94.3151 12.1402 1145 98.6804 127.399 441.021
2900 0 100.397 12.8689 1292 98.4017 127.358 437.527
2901 0 101.66 13.0337 1325 98.2083 128.422 433.451
2902 0 107.306 12.1056 1299 99.8199 127.287 427.891
2903 0 112.22 16.0309 1799 94.9672 127.8 436.38
2904 0 112.26 10.9834 1233 101.207 126.502 430.32
2905 0 118.444 12.4363 1473 99.463 125.566 435.236
2906 0 122.175 11.3771 1390 102.213 126.14 433.34
2907 0 128.555 23.7409 3052 90.5967 125.414 422.49
2908 0 133.589 12.0743 1613 102.238 125.219 425.907
2909 0 137.51 13.0681 1797 101.194 126.172 423.763
2910 1 72.4567 9.02608 654 99.6254 124.803 455.22
2911 0 74.34 17.7293 1318 89.5144 124.866 459.46
2912 0 76.2385 11.8969 907 96.1367 124.08 454.596
2913 0 83.6001 13.0502 1091 93.8753 122.642 457.308
2914 0 80.4171 11.602 933 97.8478 121.822 449.371
2915 0 82.3598 13.9874 1152 94.8802 122.11 449.078
2916 0 86.2912 11.2758 973 97.6208 121.442 449.168
2917 0 90.3051 12.7678 1153 95.0755 121.514 456.278
2918 0 94.3434 18.9202 1785 90.3305 120.407 441.692
2919 0 93.1978 8.95944 835 101.157 120.537 445.132
2920 0 98.2694 14.4908 1424 94.8357 120.964 446.421
2921 0 102.368 13.5296 1385 96.1661 121.305 441.987
2922 0 100.344 9.1286 916 101.211 120.903 439.558
2923 0 106.309 13.3008 1414 98.3932 120.441 431.948
2924 0 108.238 9.4329 1021 102.476 120.823 436.003
2925 0 110.24 9.45209 1042 103.783 119.409 426.632
2926 0 115.322 18.0018 2076 93.7775 120.528 432.253
2927 0 119.413 10.9033 1302 101.15 120.386 429.776
2928 0 126.448 17.1612 2170 95.6636 121.174 421.126
2929 0 129.27 11.5649 1495 101.874 121.45 425.33
2930 0 132.522 15.3862 2039 99.0559 121.396 417.834
2931 0 137.564 13.1866 1814 100.787 122.186 420.291
2932 0 141.593 11.4271 1618 102.875 123.86 412.579
2933 0 146.518 14.3396 2101 98.1185 123.209 420.757
2934 0 152.576 13.5408 2066 100.562 123.594 403.644
2935 0 158.926 16.7751 2666 97.3353 123.471 393.413
2936 0 160.772 10.5055 1689 104.455 122.978 393.642
2937 0 167.869 13.6416 2290 101.026 125.146 389.693
2938 0 172.385 11.8282 2039 103.715 124.083 384.193
2939 0 179.469 19.034 3416 95.0711 124.88 396.258
2940 0 181.896 14.0355 2553 100.653 125.847 393.805
2941 0 188.593 15.0907 2846 100.228 125.751 383.253
2942 0 194.769 13.3389 2598 102.896 127.498 376.244
2943 0 204.138 13.922 2842 102.486 127.168 382.562
2944 0 209.65 15.7167 3295 98.6212 127.111 394.989
2945 0 216.49 13.2477 2868 103.528 127.319 377.637
2946 0 221.531 10.9285 2421 106.98 126.749 367.625
2947 1 173.847 12.9654 2254 101.342 126.536 406.839
2948 0 178.454 13.8523 2472 101.87 126.661 403.851
2949 0 184.422 14.1361 2607 101.565 126.102 397.071
2950 0 191.17 10.9013 2084 101.673 126.551 413.1
2951 0 194.339 11.2998 2196 104.854 126.494 384.855
2952 0 308.597 24.1221 7444 90.6463 125.074 323.961
2953 0 300.306 31.9841 9605 86.7112 125.306 331.748
2954 0 302.093 21.5265 6503 96.061 124.407 334.524
2955 0 303.825 20.6237 6266 97.4866 123.624 322.8
2956 0 306.127 12.3576 3783 109.294 124.926 331.54
2957 0 312.572 15.1869 4747 103.496 123.396 347.598
2958 0 308.918 9.89583 3057 109.497 123.723 340.211
2959 1 53.0744 9.87293 524 90.8721 123.305 463.095
2960 0 51.1345 10.9124 558 92.7186 123.097 456.769
2961 0 58.4627 14.4194 843 88.79 122.192 458.107
2962 0 56.2678 9.97017 561 94.0481 122.524 457.365
2963 0 65.3724 13.7979 902 95.3991 121.956 461.016
2964 0 64.2397 12.9048 829 97.5609 122.21 458.454
2965 0 66.3038 11.1758 741 100.05 120.854 455.406
2966 0 69.412 12.9084 896 98.1205 119.992 453.34
2967 0 69.9584 10.3347 723 101.134 120.892 456.831
2968 0 74.0428 10.602 785 100.628 120.181 452.417
2969 0 77.5761 11.8593 920 99.5185 120.274 443.515
2970 0 79.8199 11.8642 947 99.471 120.346 442.486
2971 0 83.8165 11.2269 941 100.103 122.471 442.963
2972 0 80.3307 11.3157 909 99.308 122.327 443.824
2973 1 115.75 7.42115 859 98.8684 121.19 441.186
2974 0 113.66 19.0217 2162 85.5601 120.52 417.055
2975 0 136.169 15.848 2158 86.183 120.736 396.697
2976 0 121.676 27.0144 3287 79.7152 120.143 384.403
2977 1 105.524 20.185 2130 89.6333 123.54 384.435
2978 0 104.371 15.2532 1592 95.6903 124.574 380.511
2979 1 60.0698 11.8695 713 95.3647 125.388 400.321
2980 0 59.3081 14.079 835 94.788 125.695 399.859
2981 0 60.1814 11.9472 719 96.8331 126.09 402.641
2982 0 61.1105 11.2747 689 99.8636 127.097 403.001
2983 0 60.4657 11.6595 705 98.7192 128.203 411.762
2984 0 67.1601 14.2942 960 95.4052 128.273 416.82
2985 0 67.2768 12.7087 855 97.5111 128.956 419.344
2986 0 70.2925 13.0882 920 95.9924 127.735 424.289
2987 0 70.4244 14.0292 988 95.7652 126.98 424.12
2988 0 73.3254 14.5107 1064 91.8647 127.063 431.346
2989 0 75.4594 16.7375 1263 93.2201 126.86 425.485
2990 0 76.604 13.3805 1025 96.5785 127.209 425.832
2991 1 155.152 15.4365 2395 98.0334 127.001 399.249
2992 0 155.389 13.2313 2056 100.859 125.534 406.4
2993 1 86.0732 15.6843 1350 92.7089 125.722 441.659
2994 0 87.4602 17.6423 1543 91.4757 125.296 445.086
2995 1 47.1972 21.781 1028 84.5311 124.018 469.505
2996 0 48.2535 12.9317 624 93.8894 124.304 470.628
2997 0 58.1541 9.25128 538 94.9833 123.329 479.595
2998 0 53.1893 13.5178 719 93.815 122.979 475.021
2999 0 54.1457 12.7434 690 95.8261 122.278 472.833
3000 0 57.205 16.8517 964 91.0768 122.29 472.215
3001 0 57.2322 11.9513 684 97.0088 121.57 469.765
3002 0 60.1977 11.9938 722 96.3504 121.024 471.44
3003 0 62.2256 15.3635 956 93.3828 121.105 466.73
3004 0 62.398 13.0613 815 95.1939 120.104 470.136
3005 1 123.253 14.8475 1830 94.5153 120.114 437.238
3006 0 122.449 14.2917 1750 94.2531 119.719 435.591
3007 1 70.2377 15.5899 1095 89.9973 117.675 458.827
3008 0 67.1268 12.3051 826 94.3305 119.14 457.718
3009 0 72.1565 12.7778 922 93.1226 118.467 454.285
3010 0 71.3041 11.5982 827 95.5877 119.976 450.028
3011 0 74.166 10.6248 788 98.0102 118.944 443.844
3012 0 74.2354 12.7298 945 95.9143 119.514 443.077
3013 0 79.3569 14.4033 1143 93.839 119.319 445.127
3014 0 83.2382 20.3032 1690 88.5899 118.937 445.373
3015 0 85.8603 10.9014 936 98.0833 119.928 442.428
3016 0 83.2236 13.0011 1082 98.2052 120.921 435.775
3017 0 92.6105 12.9683 1201 101.033 120.196 445.545
3018 0 100.293 14.1286 1417 95.3028 120.315 440.356
3019 0 102.955 21.0091 2163 89.2071 118.959 431.534
3020 0 101.376 12.498 1267 95.4041 121.667 435.545
3021 0 101.31 12.0126 1217 98.424 122.243 424.825
3022 1 57.6956 14.8365 856 90.2079 122.786 452.311
3023 0 57.1095 10.7688 615 94.5138 123.767 454.262
3024 0 55.0969 13.7031 755 93.0821 124.107 452.972
3025 0 61.1552 15.1254 925 91.0746 124.744 451.116
3026 0 60.2493 11.7844 710 93.0338 125.513 456.821
3027 0 64.3205 10.2922 662 96.1616 124.781 453.193
3028 0 61.2877 13.1021 803 92.7808 124.939 455.61
3029 0 67.2472 17.339 1166 88.4571 123.288 457.492
3030 0 71.1661 14.7261 1048 91.8884 124.96 451.391
3031 0 70.1315 11.1647 783 96.8467 124.533 450.086
3032 0 74.2759 12.7094 944 94.6843 125.758 449.827
3033 0 78.3369 11.1442 873 93.6369 125.186 456.725
3034 0 77.4773 11.0613 857 97.4772 125.074 447.229
3035 0 81.1103 13.0563 1059 95.0737 124.717 447.835
3036 0 85.4354 14.1627 1210 92.7694 124.721 450.451
3037 0 88.2721 17.8992 1580 90.6013 125.012 443.99
3038 0 89.3802 12.3294 1102 96.6261 124.366 442.066
3039 0 93.1958 15.9449 1486 92.1857 124.417 451.052
3040 0 97.2597 9.41809 916 99.643 124.105 441.564
3041 0 110.053 15.4017 1695 90.7894 122.973 449.355
3042 0 103.366 10.574 1093 99.2013 122.601 438.457
3043 1 52.3409 8.92228 467 96.0878 120.424 468.128
3044 0 54.1256 9.08998 492 96.8089 121.037 464.195
3045 0 55.1812 13.1385 725 93.2041 119.677 461.119
3046 0 61.3027 11.1414 683 92.5359 121.422 468.583
3047 0 59.171 10.833 641 96.4602 120.842 459.364
3048 0 65.2117 10.8263 706 95.2521 119.639 459.513
3049 0 68.064 11.9887 816 92.6299 120.824 463.466
3050 0 66.153 11.6246 769 93.1782 120.004 461.596
3051 0 72.2766 9.10391 658 91.8951 118.436 459.9
3052 0 70.4312 10.5493 743 93.4105 117.996 447.816
3053 0 73.1869 8.56711 627 94.9155 118.231 449.517
3054 0 78.3005 10.6257 832 92.7151 117.857 444.809
3055 0 82.321 15.4153 1269 90 117.087 453.585
3056 0 82.3031 15.6495 1288 91.0613 118.615 448.311
3057 0 86.441 10.2151 883 95.2877 116.801 453.19
3058 0 88.4475 11.7471 1039 94.3263 117.306 450.127
3059 0 89.3223 13.3897 1196 93.8252 117.91 441.572
3060 0 92.3823 10.1318 936 96.6015 117.601 444.504
3061 0 96.3191 18.4906 1781 87.2268 118.65 448.568
3062 0 100.517 14.0274 1410 94.1603 119.077 435.121
3063 0 102.539 13.2828 1362 95.0154 120.904 435.275
3064 0 104.343 10.1396 1058 97.7023 121.262 441.172
3065 0 110.119 13.4037 1476 93.2961 123.03 443.668
3066 0 114.296 11.2777 1289 97.0784 124.62 434.545
3067 1 60.1612 10.9207 657 92.8341 125.119 465.114
3068 0 63.2028 14.05 888 92.1678 125.49 455.883
3069 1 125.417 11.7369 1472 97.2072 125.558 433.393
3070 0 129.417 13.7772 1783 96.1015 124.704 419.966
3071 0 133.651 12.1585 1625 96.4062 125.28 434.975
3072 0 133.409 8.08038 1078 100.398 124.993 433.302
3073 0 144.47 18.2391 2635 90.4979 125.375 421.75
3074 0 144.667 17.0875 2472 91.5987 125.833 428.966
3075 0 147.231 12.2257 1800 96.6667 126.824 429.507
3076 0 156.261 18.6099 2908 90.0533 125.411 429.477
3077 0 163.331 15.9737 2609 92.4726 125.131 428.212
3078 0 163.346 8.76664 1432 101.889 125.506 422.677
3079 0 171.512 13.9349 2390 97.1515 124.595 412.225
3080 1 88.2534 18.8321 1662 89.6715 124.837 449.847
3081 0 90.2926 13.2901 1200 95.3583 124.681 457.619
3082 0 95.1738 13.9324 1326 94.9133 125.072 454.793
3083 0 96.3014 11.1421 1073 99.0634 123.466 451.926
3084 0 101.415 17.9361 1819 91.1001 122.496 444.399
3085 0 103.431 15.9817 1653 93.5209 121.662 445.29
3086 0 106.355 13.3798 1423 96.1722 123.136 448.659
3087 0 110.321 12.1191 1337 103.358 122.021 447.233
3088 0 115.266 18.3662 2117 95.5295 121.299 447.68
3089 1 61.1948 11.4552 701 101.469 121.74 471.282
3090 0 63.1063 11.5519 729 101.94 122.317 468.018
3091 0 67.2223 11.9306 802 100.617 121.832 469.223
3092 0 68.1522 12.6628 863 95.7567 119.065 468.308
3093 0 71.1305 15.6332 1112 92.5576 118.768 465.629
3094 0 71.0733 12.255 871 98.3582 118.153 462.134
3095 0 73.1795 12.7495 933 97.7685 118.175 463.2
3096 0 78.2563 18.3116 1433 91.4047 118.123 460.583
3097 0 76.2102 8.77835 669 103.638 117.378 458.269
3098 0 79.2657 11.1524 884 101.671 118.722 455.843
3099 0 84.4371 17.3857 1468 94.5327 117.822 448.895
3100 0 86.43 13.213 1142 97.7469 117.798 452.959
3101 0 87.1687 15.5102 1352 97.2012 119.447 450.407
3102 0 91.2432 13.9079 1269 98.6824 120.323 449.337
3103 0 96.3026 13.5926 1309 100.233 120.064 439.3
3104 0 100.242 14.2954 1433 99.2638 120.337 442.789
3105 0 100.242 15.7817 1582 98.7788 121.483 439.404
3106 0 104.3 13.0968 1366 101.302 120.717 443.736
3107 0 103.301 15.0628 1556 101.319 121.589 435.319
3108 0 104.356 16.3287 1704 100.813 121.33 436.949
3109 0 110.375 17.1416 1892 99.1871 122.395 434.657
3110 0 111.426 14.3055 1594 103.131 122.605 429.812
3111 0 115.659 21.1225 2443 95.4998 123.027 433.194
3112 0 117.526 15.0945 1774 101.16 121.944 431.741
3113 0 121.538 13.8146 1679 103.686 123.421 424.759
3114 0 124.378 13.9655 1737 102.837 122.222 428.605
3115 0 128.312 16.9742 2178 98.9398 123.456 424.694
3116 0 127.392 11.6648 1486 108.615 120.86 419.227
3117 0 132.392 14.729 1950 103.902 123.65 418.454
3118 0 142.297 15.6293 2224 100.973 122.428 427.166
3119 0 143.732 18.778 2699 98.2745 122.548 423.428
3120 0 146.221 15.9759 2336 102.863 122.376 414.35
3121 0 147.37 12.757 1880 107.237 121.49 416.619
3122 0 155.601 10.7775 1677 105.543 122.603 417.843
3123 1 89.599 9.55368 856 100.197 122.38 457.423
3124 0 91.1209 14.157 1290 96.8465 121.923 453.746
3125 0 92.2072 11.626 1072 99.5718 118.969 445.145
3126 0 96.2532 11.4386 1101 99.4768 121.195 446.428
3127 0 98.4165 12.5182 1232 98.4984 121.08 449.53
3128 0 106.532 14.9438 1592 96.1438 119.657 446.633
3129 1 56.1618 11.823 664 99.8855 121.199 476.072
3130 0 59.0918 9.59523 567 102.935 120.679 474.109
3131 0 62.0686 14.0973 875 96.6366 119.141 473.706
3132 0 64.1107 17.8753 1146 92.664 118.963 471.46
3133 0 62.1077 14.2494 885 98.1571 119.085 465.902
3134 0 68.1268 15.6913 1069 95.565 118.121 465.993
3135 0 69.109 14.7593 1020 96.9226 116.93 463.637
3136 0 73.2728 13.4566 986 97.5882 118.662 462.288
3137 0 74.3336 13.0089 967 98.3133 117.755 459.884
3138 0 78.2198 13.1552 1029 97.9903 118.321 458.816
3139 0 80.3233 12.736 1023 98.61 117.856 457.351
3140 0 86.2554 14.5382 1254 96.134 118.255 455.99
3141 0 89.1923 11.1108 991 101.136 118.483 451.407
3142 1 44.0718 9.68874 427 101.059 118.141 471.649
3143 0 45.049 12.0979 545 99.7413 118.879 466.886
3144 0 45.4952 12.6607 576 95.6944 117.12 463.521
3145 0 48.2164 15.6378 754 90.2666 118.586 464.513
3146 0 51.2642 14.7081 754 91.9496 119.167 460.767
3147 0 49.0952 11.773 578 95.8633 119.689 461.211
3148 0 51.1925 14.0841 721 93.5784 120.502 460.123
3149 0 51.1691 7.52407 385 101.629 120.655 458.977
3150 0 54.3062 11.564 628 95.2404 121.514 459.255
3151 0 56.0286 14.6711 822 93.1277 121.305 455.545
3152 0 57.225 10.8868 623 98.1637 121.091 454.859
3153 0 56.1166 9.8723 554 99.9765 122.206 455.3
3154 0 62.1206 13.7153 852 94.2864 121.947 454.482
3155 0 64.1509 14.3568 921 91.8545 122.307 460.851
3156 0 61.0838 13.0804 799 96.0125 123.141 452.91
3157 0 66.1344 12.5048 827 96.4946 123.572 455.272
3158 0 65.2329 9.84166 642 100.539 123.249 454.326
3159 0 69.1962 11.3734 787 98.4498 122.596 449.534
3160 0 72.2768 12.632 913 97.1709 123.215 454.118
3161 0 71.0817 12.9569 921 98.1466 122.65 452.903
3162 0 75.2064 11.5549 869 99.2002 123.109 453.824
3163 0 79.32 11.939 947 97.7054 123.727 454.933
3164 0 77.2344 10.0344 775 101.492 123.272 452.415
3165 0 84.4201 13.5394 1143 97.0621 122.742 453.227
3166 0 86.192 13.0639 1126 98.0071 122.81 451.704
3167 0 87.2181 13.3917 1168 98.3639 121.59 451.826
3168 0 92.2315 14.4094 1329 97.0308 122.007 448.04
3169 0 92.2936 14.6164 1349 98.1594 122.1 433.88
3170 1 46.103 13.1879 608 94.3701 122.461 462.345
3171 0 51.1179 13.3808 684 95.8333 120.889 465.57
3172 0 54.206 9.31631 505 100.101 120.661 468.42
3173 0 58.1384 14.0871 819 91.4762 118.995 473.733
3174 0 59.1606 16.8355 996 88.7028 117.963 474.663
3175 0 58.2575 19.2765 1123 88.3695 116.99 466.321
3176 0 63.2509 14.0709 890 92.1596 118.081 467.778
3177 0 64.1327 14.7351 945 92.1079 116.315 465.431
3178 0 63.1922 10.0329 634 98.1073 117.38 459.249
3179 0 68.2752 11.5269 787 95.6442 116.342 460.022
3180 0 68.5306 9.77666 670 97.5269 116.76 458.743
3181 0 74.2208 13.2443 983 94.4059 116.324 454.497
3182 0 76.4218 13.0722 999 94.7287 116.066 455.304
3183 0 76.2853 13.4888 1029 96.3664 116.661 456.626
3184 0 82.3775 15.4168 1270 94.9835 116.046 457.394
3185 0 85.1821 17.2219 1467 92.4015 115.596 460.472
3186 0 87.3549 14.0919 1231 97.6361 115.563 451.046
3187 0 91.3782 18.3413 1676 93.565 116.394 448.302
3188 1 46.3024 12.3104 570 98.6263 115.553 469.905
3189 0 51.2543 11.8429 607 100.297 115.814 467.969
3190 0 52.1814 13.6639 713 98.1529 117.496 468.603
3191 0 51.2858 12.9471 664 99.7003 120.119 466.328
3192 0 52.16 12.8451 670 101.706 119.087 460.103
3193 1 109.338 19.0053 2078 95.4081 120.24 443.529
3194 1 58.419 16.7069 976 96.1773 119.913 465.986
3195 0 61.2181 23.0651 1412 87.9972 120.71 468.317
3196 0 58.1048 11.6686 678 103.313 121.164 464.202
3197 0 61.131 15.9167 973 98.1326 122.513 461.011
3198 0 67.0814 19.0515 1278 93.741 122.494 463.469
3199 0 68.1832 20.7969 1418 91.8865 123.641 463.759
3200 0 68.1233 16.7931 1144 97.993 122.966 464.005
3201 0 71.2269 13.3938 954 102.727 122.064 460.636
3202 0 73.2185 13.6304 998 102.831 123.97 458.421
3203 0 75.1384 16.8356 1265 99.0854 123.428 457.594
3204 0 78.5055 15.069 1183 100.757 122.901 459.118
3205 0 81.5852 15.6156 1274 100.078 124.361 456.176
3206 0 81.5852 15.4807 1263 129.833 125.375 456.018
3207 0 86.5935 15.6594 1356 100.663 122.926 456.346
3208 0 90.3077 22.2129 2006 93.4277 121.214 456.768
3209 1 45.0539 9.87706 445 104.324 120.735 477.458
3210 0 49.1555 10.8228 532 103.929 120.094 473.878
3211 0 49.1781 16.9791 835 97.6575 120.654 474.36
3212 0 50.2727 12.2134 614 102.542 119.638 478.746
3213 0 54.1303 15.2964 828 98.9831 119.621 475.504
3214 0 56.1064 13.5814 762 100.911 118.646 472.026
3215 0 54.0524 14.7079 795 99.0755 119.477 477.169
3216 0 57.1189 14.9338 853 97.9156 119.627 474.348
3217 0 57.2387 12.4217 711 102.404 120.674 472.602
3218 0 60.2739 12.9741 782 100.813 119.001 473.159
3219 0 64.1644 12.0628 774 103.282 118.558 472.298
3220 0 67.1894 12.7252 855 102.291 118.519 469.454
3221 0 69.1009 12.7929 884 102.309 116.031 470.421
3222 0 72.1333 12.4076 895 103.285 116.802 466.964
3223 0 73.1778 15.4692 1132 100.363 117.493 463.319
3224 0 76.1159 14.9772 1140 100.425 118.217 464.717
3225 0 79.1752 16.0783 1273 99.9756 117.112 461.991
3226 0 80.3383 12.7336 1023 104.762 116.943 451.694
3227 0 84.465 11.638 983 105.472 114.316 453.404
3228 0 88.4843 12.2508 1084 102.62 115.093 456.347
3229 0 90.192 13.1608 1187 103.36 115.892 448.193
3230 1 48.0777 11.107 534 107.369 116.384 464.684
3231 0 51.1669 13.9934 716 102.556 116.256 468.303
3232 0 52.3185 10.6463 557 107.084 117.837 466.711
3233 0 52.1555 14.8211 773 100.312 118.175 457.203
3234 0 56.3146 14.4723 815 99.3141 117.814 458.847
3235 0 55.2262 10.9006 602 104.56 118.839 460.498
3236 0 57.5004 13.2869 764 102.556 120.132 455.046
3237 0 58.2855 10.603 618 106.228 121.668 451.438
3238 0 59.2841 11.1666 662 105.214 121.822 456.373
3239 0 61.212 14.899 912 100.264 121.509 454.831
3240 0 63.2862 14.6478 927 100.488 122.26 454.297
3241 0 68.3518 14.3815 983 99.4201 121.363 457.879
3242 0 64.2773 9.87906 635 106.202 123.235 452.934
3243 0 71.2544 15.4096 1098 98.8679 123.35 453.876
3244 0 71.4638 13.0975 936 102.679 124.103 449.393
3245 0 77.2609 12.9043 997 102.291 124.23 450.415
3246 0 80.5211 13.4002 1079 102.463 123.214 442.474
3247 0 82.4164 12.813 1056 101.634 123.598 448.298
3248 0 84.6984 14.3568 1216 102.049 123.637 441.347
3249 0 86.6474 13.0298 1129 101.911 123.608 451.355
3250 0 88.3669 11.4523 1012 105.431 123.782 449.743
3251 1 48.3308 12.0627 583 95.9297 121.813 471.122
3252 0 49.2621 12.5451 618 99.8916 125.796 474.851
3253 0 50.0745 15.3571 769 97.2913 124.277 474.343
3254 0 52.0805 10.3878 541 103.1 124.854 473.664
3255 0 54.0298 17.4903 945 95.3026 124.417 471.961
3256 0 57.3638 13.7369 788 99.3096 123.914 471.35
3257 0 57.0459 11.4294 652 102.681 124.813 470.698
3258 0 59.1807 13.0279 771 101.346 123.689 469.018
3259 0 61.2862 15.6968 962 98.5572 122.243 465.422
3260 0 63.2342 14.0588 889 100.2 122.17 468.837
3261 0 64.1243 14.3627 921 101.705 119.781 462.903
3262 0 68.3428 14.398 984 100.585 121.686 463.258
3263 0 70.1499 11.8888 834 98.9772 120.349 462.508
3264 0 71.1067 12.7555 907 99.9857 120.047 455.703
3265 0 74.2601 14.328 1064 98.4051 119.533 457.256
3266 0 75.1633 11.2023 842 102.678 120.297 451.296
3267 0 77.1211 11.0216 850 103.275 118.209 451.469
3268 0 79.1623 11.5333 913 102.24 119.415 451.033
3269 0 84.1436 16.0083 1347 97.8597 119.445 447.414
3270 0 82.2194 12.0166 988 103.953 118.881 444.662
3271 0 87.2556 14.5091 1266 102.444 119.098 444.408
3272 0 92.3331 12.7365 1176 99 117.81 452.516
3273 0 92.1962 10.6837 985 105.97 119.139 441.495
3274 0 96.1872 14.0663 1353 101.874 119.873 442.753
3275 0 99.258 12.8856 1279 103.927 119.539 436.796
3276 0 102.235 12.5202 1280 102.096 118.986 435.118
3277 0 102.334 10.5342 1078 107.444 120.784 425.573
3278 0 105.263 11.5805 1219 107.007 120.491 428.122
3279 0 109.272 11.6041 1268 108.123 122.47 426.685
3280 0 115.181 12.502 1440 106.683 121.945 427.77
3281 0 122.295 17.1062 2092 99.9718 122.631 431.808
3282 0 123.446 14.719 1817 104.894 123.971 421.368
3283 0 128.871 14.4176 1858 105.268 124.192 421.346
3284 0 131.422 13.9855 1838 105.336 124.774 419.764
3285 0 140.551 17.0329 2394 101.112 125.151 422.239
3286 1 83.2229 13.2536 1103 103.621 124.446 443.257
3287 0 88.2461 13.7683 1215 103.759 124.151 442.735
3288 0 98.5015 18.9845 1870 96.2519 123.935 439.395
3289 0 97.2876 17.9468 1746 98.8809 124.674 440.449
3290 0 100.325 15.8684 1592 102.106 126.266 439.546
3291 0 103.143 26.0901 2691 91.9814 125.912 436.039
3292 0 104.305 16.7682 1749 102.751 125.778 436.208
3293 0 108.546 24.2385 2631 94.0179 125.039 443.847
3294 0 110.584 15.183 1679 104.202 125.441 442.98
3295 0 115.411 15.4578 1784 105.517 125.113 435.813
3296 0 117.453 14.4823 1701 107.888 123.827 428.941
3297 0 125.596 14.3874 1807 107.213 124.213 433.391
3298 0 126.465 12.541 1586 109.509 124.547 435.972
3299 0 129.349 12.7871 1654 109.925 124.03 430.325
3300 0 134.401 12.857 1728 109.688 124.12 428.834
3301 0 140.606 14.4304 2029 108.209 122.535 422.49
3302 0 147.592 18.0226 2660 103.098 121.83 422.293
3303 0 151.66 15.5215 2354 107.26 122.278 415.922
3304 0 157.385 15.9482 2510 105.903 122.022 417.684
3305 0 166.671 19.7815 3297 101.758 122.058 408.103
3306 1 65.2348 11.8342 772 104.741 120.769 458.904
3307 0 69.3637 14.2726 990 101.012 121.217 459.476
3308 0 70.2431 11.3036 794 107.261 121.781 456.474
3309 0 76.4802 13.3368 1020 103.447 121.95 456.161
3310 0 77.6483 20.6572 1604 95.4994 121.361 453.256
3311 0 78.6667 11.9237 938 107.146 120.758 447.471
3312 0 83.3111 14.92 1243 102.776 120.409 446.967
3313 0 85.4855 14.0843 1204 103.958 120.204 446.487
3314 0 91.6317 17.4939 1603 99.7342 121.116 442.745
3315 0 94.4962 12.1592 1149 106.663 120.432 443.186
3316 0 97.7037 13.6433 1333 105.782 121.356 440.469
3317 0 98.6422 12.0233 1186 108.517 122.605 437.848
3318 1 54.2277 15.9881 867 98.3564 121.865 458.532
3319 0 54.3647 11.9563 650 105.074 123.857 455.234
3320 0 54.1947 11.2742 611 106.923 123.267 456.628
3321 0 57.1994 11.0141 630 104.651 122.695 445.944
3322 0 58.2409 14.6632 854 99.8126 123.403 441.417
3323 0 62.6078 17.5857 1101 96.4896 124.263 446.466
3324 0 69.639 14.9054 1038 97.5029 123.817 440.511
3325 0 73.5462 15.011 1104 97.3044 124.607 438.534
3326 0 71.3531 17.953 1281 95.242 126.469 437.747
3327 0 70.3529 17.2985 1217 97.8661 124.549 440.876
3328 0 73.555 14.2886 1051 102.265 124.947 439.532
3329 0 75.2784 16.0737 1210 99.8281 125.426 442.711
3330 0 76.2106 13.3052 1014 103.77 125.8 442.724
3331 0 75.234 14.0761 1059 104.852 126.846 440.255
3332 0 85.6447 17.1873 1472 99.2534 124.419 437.248
3333 0 85.6447 17.199 1473 134.61 123.445 437.184
3334 0 86.4693 15.1846 1313 102.013 127.417 443.023
3335 0 90.7602 14.8413 1347 102.744 128.283 439.905
3336 0 91.4073 15.1082 1381 106.618 125.422 438.127
3337 0 95.4423 14.7943 1412 108.925 125.448 437.793
3338 0 98.5495 16.479 1624 105.703 125.706 440.076
3339 1 52.1979 10.3836 542 108.648 125.934 460.928
3340 0 57.1844 11.8214 676 109.109 123.342 455.392
3341 0 57.3054 15.2342 873 104.394 125.094 457.328
3342 0 62.0788 15.1743 942 101.716 123.054 448.337
3343 0 63.1969 14.4153 911 105.418 122.559 455.526
3344 0 66.2288 13.7705 912 105.491 122.109 455.041
3345 0 68.1019 18.9275 1289 97.7448 121.604 458.289
3346 0 70.229 12.8295 901 107.02 121.314 451.383
3347 0 72.101 23.5087 1695 92.9782 121.022 453.994
3348 0 74.1217 14.3143 1061 104.661 120.317 449.27
3349 0 75.183 14.2985 1075 106.178 119.699 444.401
3350 0 80.2437 15.8642 1273 102.618 120.902 445.967
3351 0 82.2059 17.9184 1473 100.299 120.175 444.063
3352 0 84.0846 14.3189 1204 105.298 119.65 436.543
3353 0 88.1699 17.5343 1546 101.09 121.36 433.49
3354 0 93.1297 17.5454 1634 100.418 120.369 435.085
3355 0 95.0934 14.8065 1408 104.717 120.398 434.569
3356 0 98.157 16.1782 1588 102.527 120.377 429.46
3357 0 101.392 14.3502 1455 105.785 120.19 428.984
3358 0 104.424 16.5383 1727 101.993 121.843 430.259
3359 1 57.164 13.47 770 99.8727 122.37 452.66
3360 0 57.16 15.6753 896 100.879 122.754 449.429
3361 0 59.1088 12.384 732 100.734 122.959 449.462
3362 0 64.1561 13.0931 840 97.9929 124.062 452.904
3363 0 63.1199 11.6287 734 108.01 123.331 454.082
3364 0 66.0749 17.011 1124 99.4333 123.996 455.596
3365 0 68.0685 13.839 942 104.598 124.84 451.669
3366 0 71.1611 14.6428 1042 103.192 124.67 449.809
3367 0 74.2507 14.0201 1041 103.493 126.109 452.856
3368 0 75.1214 15.3352 1152 103.536 126.461 448.01
3369 0 76.1069 11.2473 856 109.919 126.63 447.648
3370 0 80.1676 15.2056 1219 104.6 126.834 446.802
3371 0 83.2348 13.6121 1133 102.707 126.97 442.197
3372 0 83.4213 13.6056 1135 103.415 126.965 440.915
3373 0 87.3163 13.5828 1186 103.116 126.661 439.366
3374 0 90.3443 17.4554 1577 97.6151 127.197 441.829
3375 0 92.3724 14.5823 1347 102.336 126.684 437.235
3376 0 95.1356 13.896 1322 103.179 126.872 438.717
3377 0 101.277 14.959 1515 102.138 126.457 432.555
3378 0 103.123 14.6039 1506 102.565 127.005 431.333
3379 0 102.116 10.7427 1097 113.797 125.695 439.412
3380 1 57.1349 14.2295 813 107 126.421 464.081
3381 0 58.0784 11.7944 685 105.324 124.201 461.885
3382 0 61.1932 14.5931 893 107.581 123.448 462.847
3383 0 63.0439 13.3875 844 109.265 123.011 461.352
3384 0 63.2225 11.594 733 112.082 123.889 461.608
3385 0 68.1884 13.2281 902 107.803 123.343 463.366
3386 0 69.1545 17.5549 1214 100.959 122.75 464.476
3387 0 71.1523 11.9462 850 110.619 123.366 458.715
3388 0 75.191 13.5522 1019 108.064 121.762 457.36
3389 0 75.172 14.8992 1120 106.618 122.878 456.171
3390 0 78.0803 15.9323 1244 105.8 122.006 454.606
3391 0 82.3502 18.6885 1539 100.722 120.761 454.272
3392 0 84.2035 15.8782 1337 105.346 120.348 450.562
3393 0 83.1434 13.6271 1133 109.534 120.753 447.589
3394 0 85.257 13.5121 1152 109.18 119.772 445.164
3395 0 92.2652 15.0002 1384 106.218 120.475 445.189
3396 0 94.5737 16.2519 1537 104.671 119.085 439.646
3397 0 98.2698 19.3244 1899 99.0732 119.375 438.004
3398 0 101.445 15.0919 1531 103.664 121.003 439.033
3399 0 104.83 12.5155 1312 106.986 120.853 437.873
3400 1 52.3261 13.5114 707 105.463 121.344 457.894
3401 0 54.0601 10.3033 557 109.26 119.553 457.555
3402 0 58.1613 14.2363 828 102.438 120.446 455.903
3403 0 56.2126 16.3309 918 100.063 119.106 457.536
3404 0 60.065 14.4177 866 102.766 119.99 449.945
3405 0 62.1072 14.0724 874 103.252 120.217 448.978
3406 0 63.3709 12.4505 789 105.103 120.529 447.753
3407 0 65.2316 13.2298 863 104.007 121.723 445.627
3408 0 68.1286 14.1057 961 101.964 121.939 444.13
3409 0 72.0743 15.6505 1128 98.9548 121.427 447.142
3410 0 75.2101 17.0722 1284 95.9556 121.837 448.221
3411 0 77.1152 15.0295 1159 98.9638 121.404 444.764
3412 0 78.1853 13.775 1077 100.843 123.875 441.011
3413 0 83.126 13.5698 1128 99.7846 124.316 443.381
3414 0 87.1622 15.3736 1340 97.756 125.717 441.468
3415 0 88.2483 15.5017 1368 98.0512 125.83 440.912
3416 1 46.1921 11.1707 516 100.178 125.984 462.019
3417 0 49.1566 15.6846 771 94.5888 125.399 462.507
3418 0 48.0786 16.473 792 93.7412 125.58 463.341
3419 0 52.4108 12.7836 670 95.5657 124.2 461.412
3420 0 54.1466 16.6215 900 91.2622 124.831 461.886
3421 0 54.1327 16.0347 868 91.8433 124.494 463.335
3422 0 59.3828 19.0459 1131 87.7118 124.474 464.215
3423 0 61.3738 16.2936 1000 90.857 124.174 462.911
3424 0 60.179 16.6503 1002 91.3742 124.955 463.347
3425 0 60.1003 12.4791 750 97.2173 125.196 459.168
3426 0 65.2795 20.8794 1363 88.0748 124.731 455.371
3427 0 67.1569 13.0441 876 96.9715 124.839 461.163
3428 0 67.1199 15.4798 1039 95.1732 124.973 457.189
3429 0 71.3468 14.6468 1045 95.6603 124.544 460.166
3430 0 72.2506 15.4186 1114 95.0296 122.574 458.456
3431 0 75.2288 16.842 1267 93.2762 121.852 459.199
3432 0 73.2252 9.2318 676 103.536 121.475 461.172
3433 0 75.1621 11.3089 850 101.794 121.078 455.574
3434 0 81.1598 11.0892 900 101.227 121.85 456.656
3435 0 82.2067 17.6871 1454 94.4553 122.686 451.382
3436 0 84.2725 13.6462 1150 99.6687 121.202 450.257
3437 0 85.3467 11.3537 969 101.98 121.978 455.131
3438 0 88.5683 15.9312 1411 95.7236 120.64 454.621
3439 0 90.1519 14.6198 1318 100.874 119.46 440.229
3440 0 93.2994 12.8297 1197 101.407 120.155 447.959
3441 0 98.1996 14.2669 1401 99.3176 120.799 444.85
3442 0 100.211 20.7163 2076 94.5048 122.131 439.599
3443 0 98.1734 11.1334 1093 105.141 121.51 441.226
3444 1 72.3992 14.8758 1077 97.559 122.229 459.612
3445 0 67.2221 13.4033 901 98.424 122.562 462.158
3446 0 65.3571 12.8984 843 103.707 122.349 455.911
3447 0 64.083 14.9494 958 101.81 121.527 451.427
3448 0 66.2462 15.382 1019 101.445 122.921 450.492
3449 0 68.1344 18.5809 1266 97.56 122.626 451.34
3450 0 70.2538 14.7323 1035 102.998 123.04 450.143
3451 0 72.186 16.8177 1214 100.532 121.804 449.198
3452 0 76.5154 14.2063 1087 103.99 124.44 448.155
3453 0 77.2242 13.804 1066 106.019 124.892 444.439
3454 0 80.1982 14.2771 1145 105.138 126.021 440.523
3455 0 83.3093 14.2841 1190 105.797 126.482 438.079
3456 0 87.2847 18.7204 1634 99.6928 125.407 441.892
3457 0 91.3168 17.7185 1618 100.111 125.53 443.198
3458 0 90.4708 13.905 1258 106.133 125.771 440.078
3459 0 95.1884 17.9644 1710 99.4123 124.64 442.786
3460 1 56.0504 16.2532 911 100.539 124.742 462.05
3461 0 57.1016 12.9594 740 104.469 124.928 461.516
3462 0 57.0577 13.057 745 103.745 125.55 463.038
3463 0 60.0941 13.5121 812 103.362 124.899 461.243
3464 0 64.1634 17.3931 1116 98.1022 124.851 461.821
3465 0 67.1191 16.9549 1138 98.964 125.34 459.804
3466 0 66.1225 12.3559 817 106.258 124.963 461.752
3467 0 71.0998 14.9227 1061 102.94 125.27 459.379
3468 0 77.2575 12.7625 986 104.665 124.7 461.498
3469 0 77.3477 20.4402 1581 96.136 125 458.478
3470 0 79.0701 12.7608 1009 106.378 124.131 460.931
3471 0 83.1888 20.1349 1675 97.8257 123.768 461.309
3472 0 87.4157 14.2652 1247 106.893 124.466 454.671
3473 0 91.4317 16.3401 1494 103.655 122.833 454.114
3474 0 92.2178 13.0452 1203 108.329 122.119 452.466
3475 0 95.2565 18.172 1731 101.528 121.533 443.351
3476 0 101.278 24.5365 2485 93.4612 120.325 444.012
3477 0 106.716 20.906 2231 96.2824 119.65 446.237
3478 1 53.2352 14.4265 768 89.3333 118.677 462.428
3479 0 54.2346 8.44479 458 90.9716 118.952 469.928
3480 1 107.434 14.5392 1562 87.0173 119.679 443.325
3481 0 101.714 9.49719 966 92.8799 120.517 442.639
3482 1 55.2815 12.4635 689 89.0464 119.255 464.509
3483 0 54.0454 15.8015 854 87.2342 118.441 460.418
3484 0 54.4143 13.3788 728 89.0014 119.662 460.735
3485 0 56.5653 13.1706 745 87.2604 119.419 464.408
3486 0 55.55 13.4473 747 87.3481 118.534 461.379
3487 0 55.6484 11.8781 661 89.3646 119.761 462.188
3488 0 55.7271 14.0506 783 88.8493 120.188 458.517
3489 0 55.5277 15.6138 867 85.9492 120.268 465.855
3490 0 53.1985 12.1996 649 89.9877 120.475 459.924
3491 0 50.1022 14.7099 737 89.7693 121.258 458.102
3492 0 51.2584 6.67207 342 96.0906 120.205 456.684
3493 0 51.1078 16.612 849 87.6254 121.035 455.317
3494 0 51.0932 8.10284 414 95.0024 121.379 458.338
