time division length width area intensity CMx CMy
0 0 43.0721 13.8373 596 127.931 210.273 474.317
1 0 47.0227 16.4814 775 118.563 210.089 471.808
2 0 49.1031 16.0275 787 121.645 209.277 474.287
3 0 48.09 11.6656 561 125.517 208.392 473.014
4 0 48.09 11.7072 563 147.455 207.403 472.906
5 0 48.2006 14.3567 692 122.236 207.52 473.354
6 0 49.1629 15.5808 766 121.847 206.939 470.689
7 0 52.0975 15.4134 803 124.888 206.323 471.154
8 0 54.2367 12.9433 702 126.574 205.211 472.531
9 0 55.2077 14.1647 782 125.624 203.696 470.036
10 0 58.1403 17.9738 1045 116.776 203.533 465.921
11 0 61.2702 15.9131 975 122.761 202.525 462.419
12 0 61.1458 17.6463 1079 120.896 202.572 464.943
13 0 64.1856 15.7824 1013 125.164 202.421 462.912
14 0 66.0844 15.2683 1009 127.697 201.801 460.438
15 0 67.1908 14.1239 949 129.929 201.388 455.501
16 0 70.1082 16.175 1134 121.371 201.284 454.034
17 0 74.217 14.9831 1112 125.888 201.711 456.225
18 0 75.1616 14.9145 1121 125.633 202.228 453.384
19 0 79.3317 16.639 1320 123.987 202.762 452.47
20 0 83.2792 18.8042 1566 116.305 201.746 447.877
21 0 85.193 17.0554 1453 116.475 202.771 447.197
22 0 87.1312 14.9086 1299 126.386 202.648 443.644
23 1 178.498 28.4653 5081 96.6934 208.047 395.287
24 1 46.1165 16.0897 742 118.202 216.549 461.497
25 0 48.0443 13.9038 668 122.147 216.744 458.534
26 0 50.2953 12.0687 607 122.977 215.979 460.853
27 0 49.0379 12.6025 618 125.005 215.997 458.817
28 0 52.075 16.9179 881 117.983 214.701 456.602
29 0 55.192 18.0823 998 113.207 214.309 458.265
30 0 55.2332 13.796 762 121.852 215.706 455.663
31 0 59.1251 19.8393 1173 112.722 214.382 454.227
32 0 58.1847 14.4196 839 121.614 215.241 452.451
33 0 65.0857 14.8266 965 120.276 216.891 453.92
34 0 66.2679 16.2371 1076 117.191 216.907 452.822
35 0 69.1241 16.6078 1148 117.227 217.294 453.733
36 0 68.1173 15.0476 1025 118.104 216.618 454.796
37 0 71.1936 13.7372 978 119.79 218.585 453.99
38 0 74.1453 16.0226 1188 115.758 216.625 452.679
39 0 74.1352 13.4754 999 119.743 217.653 452.969
40 0 81.3147 18.3362 1491 109.626 216.135 450.135
41 0 83.1757 15.0765 1254 116.087 215.616 453.272
42 0 85.079 15.9969 1361 113.344 215.145 453.298
43 0 89.3942 17.8423 1595 110.515 214.789 450.794
44 0 93.2485 15.6249 1457 116.044 213.968 450.262
45 0 94.272 20.112 1896 105.43 214.403 454.496
46 0 98.1458 12.0433 1182 131.695 212.893 455.022
47 1 52.2049 11.9721 625 130.784 211.264 472.578
48 0 55.0739 14.1628 780 124.337 210.404 470.591
49 0 58.1233 13.3853 778 125.526 209.757 469.517
50 0 59.0633 16.8294 994 121.951 209.784 470.677
51 0 63.0829 13.3634 843 128.238 208.064 466.974
52 0 63.0511 14.7817 932 125.01 207.597 467.205
53 0 64.2114 12.3187 791 130.109 206.499 464.766
54 0 67.1612 13.7728 925 130.417 206.556 463.434
55 0 71.2143 13.326 949 128.26 205.638 463.617
56 0 77.4438 16.1536 1251 120.58 205.333 463.769
57 0 78.162 14.6107 1142 124.748 205.433 459.92
58 0 80.1408 15.4229 1236 123.194 205.555 455.694
59 0 82.2326 14.2279 1170 125.544 204.527 452.147
60 0 84.1125 16.787 1412 120.997 205.387 451.734
61 0 87.1806 15.6457 1364 119.636 204.74 450.765
62 0 91.1771 13.6767 1247 122.158 203.475 448.994
63 0 95.3189 13.0719 1246 122.636 202.868 445.806
64 0 99.3227 17.2871 1717 116.227 203.687 441.229
65 0 103.364 15.8372 1637 117.081 203.792 440.711
66 0 105.104 13.1394 1381 118.941 203.81 437.596
67 1 57.3281 12.8733 738 116.159 203.699 455.931
68 0 58.3103 11.3359 661 118.481 204.466 456.094
69 0 63.036 14.9756 944 113.644 205.529 454.612
70 0 64.1072 15.942 1022 110.139 205.707 456.615
71 0 66.064 12.6393 835 115.097 204.754 452.879
72 0 68.2312 14.0845 961 111.801 206.072 453.622
73 0 70.2971 13.9835 983 112.043 206.463 453.381
74 0 70.1724 12.4265 872 115.521 207.625 452.631
75 0 76.397 12.3565 944 114.141 208.115 451.514
76 0 79.2177 14.8199 1174 112.497 209.276 444.405
77 0 83.2199 15.5732 1296 112.731 208.886 446.076
78 0 84.1605 14.8526 1250 114.679 209.354 445.85
79 0 88.1957 14.2524 1257 115.835 210.154 444.252
80 0 93.207 13.8938 1295 116.849 211.525 446.941
81 0 96.1994 11.9439 1149 123.087 211.69 441.557
82 0 99.1533 14.9163 1479 116.74 211.767 444.753
83 0 101.431 14.601 1481 117.736 211.23 442.228
84 0 107.267 12.9583 1390 119.44 210.599 443.315
85 1 55.1142 9.36238 516 118.833 210.349 471.081
86 0 58.1264 12.3868 720 122.1 209.061 465.753
87 0 61.1186 14.5291 888 120.247 208.598 467.816
88 0 62.1966 13.6985 852 122.712 208.442 467.989
89 0 69.159 14.5173 1004 119.896 208.982 468.269
90 0 67.094 13.2948 892 123.854 207.889 466.09
91 0 70.1695 13.0684 917 123.402 207.164 466.86
92 0 73.1814 14.1019 1032 120.834 208.156 466.04
93 0 75.3654 14.2638 1075 121.226 207.46 462.156
94 0 79.1119 15.813 1251 117.673 205.752 463.93
95 0 82.2197 15.7991 1299 117.064 206.483 463.38
96 0 84.207 17.4689 1471 113.864 204.766 463.655
97 0 86.2755 15.7287 1357 118.989 205.537 456.881
98 0 87.2929 13.6437 1191 123.647 203.956 455.528
99 0 94.4507 18.4223 1740 114.936 203.483 454.49
100 0 96.2341 15.587 1500 121.733 203.629 447.723
101 0 101.321 16.808 1703 118.106 202.654 451.785
102 0 103.22 15.0746 1556 122.723 201.881 444.295
103 1 53.0632 12.2684 651 122.097 202.442 468.444
104 0 54.1565 14.1257 765 118.518 201.655 465.735
105 0 56.406 14.3602 810 116.291 201.1 463.769
106 0 54.269 12.6592 687 120.32 203.003 463.459
107 0 62.4776 19.0948 1193 106.407 202.225 465.89
108 0 61.22 14.162 867 116.668 202.383 459.472
109 0 63.389 13.9614 885 116.68 203.297 461.006
110 0 68.3113 13.9508 953 115.608 203.727 458.763
111 0 66.6927 12.1003 807 121.706 203.957 454.912
112 1 145.409 14.5245 2112 120.637 203.735 419.705
113 0 148.431 14.0604 2087 121.583 203.83 418.058
114 0 154.32 14.0422 2167 120.798 205.476 415.034
115 0 156.28 13.1175 2050 122.046 204.992 403.143
116 1 78.189 13.5185 1057 113.842 206.033 449.158
117 0 82.4184 13.5892 1120 114.495 206.616 444.072
118 0 84.1478 12.9534 1090 115.796 207.883 446.161
119 1 48.2062 13.3593 644 111.502 207.057 464.312
120 0 49.2934 12.6386 623 113.657 208.315 464.167
121 0 51.1488 16.3836 838 108.18 208.89 463.025
122 0 50.1217 12.5495 629 108.175 209.835 468.884
123 0 53.2012 12.3117 655 109.011 209.305 467.292
124 0 54.1229 14.9105 807 107.143 210.405 467.463
125 0 54.0959 15.4171 834 107.727 210.042 465.556
126 0 54.0875 9.55859 517 116.147 210.507 468.135
127 0 57.0842 10.283 587 116.634 211.201 468.099
128 0 60.1145 12.6592 761 115.741 209.601 464.219
129 0 61.1648 13.014 796 115.322 211.175 464.805
130 0 62.2236 12.5194 779 115.318 209.9 467.032
131 0 66.3168 13.2998 882 112.135 210.13 470.264
132 0 70.3144 15.0751 1060 109.872 209.081 469.287
133 0 67.2361 10.9168 734 116.546 209.132 471.33
134 0 68.1327 11.1987 763 119.094 209.339 465.506
135 0 73.4879 10.2874 756 119.151 208.597 468.028
136 0 82.3979 18.35 1512 104.694 208 467.262
137 0 76.2868 11.601 885 116.601 205.603 464.881
138 0 81.1386 15.8125 1283 111.046 206.541 461.112
139 0 84.16 14.1278 1189 112.008 204.481 461.823
140 0 86.3824 10.7314 927 117.09 205.507 460.196
141 0 89.209 11.5683 1032 114.05 203.788 460.667
142 1 46.0937 11.2597 519 113.204 203.877 478.123
143 0 47.3776 13.5296 641 110.321 200.094 470.331
144 0 50.2716 12.9298 650 111.374 202.86 471.755
145 0 53.1614 15.0673 801 107.3 201.86 471.64
146 0 52.1422 11.6412 607 114.18 202.489 469.293
147 0 55.0649 12.2764 676 110.592 200.886 471.722
148 0 55.2535 12.1983 674 112.018 201.415 466.657
149 0 57.056 11.6377 664 113.895 201.417 465.654
150 0 58.4681 12.3999 725 112.028 200.372 464.212
151 0 61.2912 15.2714 936 108.459 201.395 462.553
152 0 63.1511 14.7899 934 108.478 200.702 461.999
153 0 61.4284 13.821 849 105.555 201.618 461.635
154 0 66.4764 12.0494 801 109.377 201.635 460.272
155 0 65.4875 12.9185 846 111.18 200.702 456.669
156 0 70.4601 18.9895 1338 101.834 201.582 453.194
157 0 70.2058 13.3607 938 109.036 202.537 454.238
158 0 75.3019 19.1761 1444 101.31 202.993 452.944
159 0 76.4009 13.6648 1044 109.115 202.864 449.499
160 0 80.2885 14.0244 1126 107.829 203.817 447.127
161 1 43.2101 13.4459 581 103.003 204.99 466.065
162 0 45.2801 15.1943 688 100.163 206.272 465.077
163 0 43.0515 10.3365 445 104.98 203.391 466.139
164 0 43.0658 12.3764 533 106.111 207.368 465.205
165 0 46.1298 12.118 559 104.347 207.603 468.002
166 0 47.0843 12.2121 575 103.972 209.123 467.687
167 0 52.1965 14.8286 774 99.9548 208.893 468.518
168 0 49.0924 14.3607 705 103.974 208.562 464.07
169 0 50.166 12.1596 610 104.874 208.574 468.677
170 0 51.1345 12.7311 651 106.318 208.682 465.783
171 0 52.1248 11.8178 616 107.495 208.227 465.679
172 0 53.2032 10.1498 540 109.648 208.85 470.263
173 0 56.3905 12.5376 707 106.914 207.842 471.025
174 0 58.4056 12.4474 727 106.758 207.204 470.275
175 0 62.4149 16.2621 1015 102.778 207.381 468.968
176 0 65.3574 14.9945 980 104.089 206.316 466.931
177 0 62.4645 15.6889 980 104.784 206.248 467.387
178 0 64.3319 12.7309 819 109.018 205.462 467.524
179 0 66.1904 14.0655 931 106.915 203.933 466.724
180 0 69.1895 11.6058 803 110.227 203.77 465.26
181 0 73.2191 14.6683 1074 105.779 202.667 465.101
182 0 73.2101 13.632 998 108.955 201.974 459.857
183 0 79.2004 13.4595 1066 108.182 201.155 461.458
184 0 80.1906 12.2957 986 109.622 201.498 458.915
185 0 83.2502 15.0991 1257 107.846 200.349 452.392
186 0 89.3346 14.2834 1276 104.828 199.413 459.348
187 0 87.1422 15.7329 1371 103.467 200.048 455.881
188 0 88.3917 8.41708 744 107.23 199.474 463.091
189 0 85.3727 5.02502 429 110.061 197.345 461.834
190 1 51.5126 10.5411 543 102.669 196.558 467.81
191 0 49.1354 14.918 733 100.709 197.255 468.393
192 0 52.1018 12.7827 666 104.896 197.084 463.556
193 0 53.1234 18.2782 971 97.5366 196.798 469.112
194 0 56.2112 16.9005 950 99.1663 196.788 466.089
195 0 55.2387 9.32317 515 108.072 197.61 466.557
196 0 58.1007 12.5644 730 105.555 197.875 463.495
197 0 61.1999 15.5392 951 101.655 198.335 456.22
198 0 62.088 13.4326 834 106.089 199.101 460.006
199 0 63.3641 16.6183 1053 103.006 199.526 454.763
200 0 68.2159 14.6007 996 107.08 199.715 454.388
201 0 73.4094 15.9925 1174 104.94 200.676 453.206
202 0 70.2753 14.1017 991 108.906 200.552 453.948
203 0 73.0926 12.9972 950 111.788 200.929 448.388
204 0 76.0864 12.8012 974 111.66 202.396 450.859
205 0 79.0622 15.7724 1247 109.508 202.63 445.82
206 0 83.1432 17.4037 1447 105.885 204.013 446.997
207 0 84.1238 14.5975 1228 110.707 203.962 445.771
208 0 89.223 14.828 1323 108.936 204.622 449.748
209 1 51.0535 12.4184 634 107.472 204.494 467.552
210 0 51.1492 10.2445 524 110.265 205.731 467.563
211 0 52.1564 14.4182 752 104.138 205.065 460.205
212 0 55.301 12.7484 705 104.087 206.077 470.428
213 0 54.1262 14.8172 802 103.771 206.58 468.921
214 0 54.0792 11.6126 628 108.675 205.161 468.847
215 0 58.4002 12.5171 731 106.553 204.999 471.261
216 0 59.0949 15.4836 915 104.026 205.617 467.715
217 0 60.1379 12.9702 780 107.7 204.597 466.892
218 0 65.1512 13.3842 872 105.9 204.43 470.716
219 0 65.3525 13.7103 896 107.227 205.035 466.867
220 0 68.3934 12.9691 887 108.115 203.897 467.408
221 0 70.3856 14.179 998 106.49 203.039 466.969
222 0 72.3084 12.6403 914 108.909 203.105 466.08
223 0 75.0541 14.7094 1104 107.184 201.786 465.297
224 0 76.3261 10.4158 795 112.808 200.979 464.526
225 0 85.653 17.3607 1487 104.034 199.737 464.913
226 1 43.0743 11.306 487 110.031 198.226 482.016
227 0 47.2918 11.6088 549 110.352 198.295 478.73
228 0 45.1142 8.35657 377 113.149 196.565 480.894
229 0 51.2558 12.8766 660 102.697 195.864 477.48
230 0 50.0895 13.9949 701 104.412 196.725 476.698
231 0 53.1076 10.9965 584 105.146 198.015 480.473
232 0 53.1231 13.2146 702 104.024 197.123 471.588
233 0 54.3196 10.3462 562 108.667 197.372 472.738
234 0 58.2301 14.5114 845 109.06 198.373 467.219
235 0 60.1251 16.1829 973 106.023 197.492 469.823
236 0 60.2517 11.3026 681 114.749 197.507 465.956
237 0 62.1242 13.0062 808 112.515 196.918 464.259
238 0 63.3447 20.6174 1306 102.4 196.294 461.678
239 0 63.286 11.2663 713 114.993 197.54 460.683
240 0 66.2475 11.5023 762 116.446 195.78 457.542
241 0 70.4212 13.5613 955 111.391 197.725 457.639
242 0 75.375 18.2554 1376 104.367 198.039 458.678
243 0 73.227 12.3998 908 114.162 197.793 456.544
244 0 78.4705 18.8988 1483 105.505 198.577 449.881
245 0 78.535 17.2789 1357 108.224 198.645 450.746
246 1 41.0907 10.1726 418 115.196 201.809 467.057
247 0 43.3056 11.9846 519 112.042 200.143 465.578
248 0 50.1622 13.4563 675 101.616 200.994 468.698
249 0 48.0782 15.9116 765 99.8431 202.443 466.464
250 0 46.0917 12.4751 575 104.697 202.386 467.104
251 0 49.2052 14.0839 693 100.886 202.941 464.28
252 0 49.0579 11.7412 576 104.991 203.932 462.884
253 0 52.0348 13.3757 696 104.315 204.586 464.034
254 0 51.03 14.3053 730 103.285 204.858 465.186
255 0 57.082 12.3156 703 106.302 203.165 466.074
256 0 53.1169 11.4088 606 106.477 203.393 463.764
257 0 59.1858 14.6826 869 101.663 203.755 465.398
258 0 62.0649 14.2915 887 108.336 203.641 465.224
259 0 60.2119 11.227 676 114.691 204.244 464.385
260 0 63.11 11.8523 748 111.182 203.726 470.023
261 0 62.1145 11.2051 696 114.945 202.655 465.708
262 0 68.3182 15.0911 1031 108.415 202.986 463.491
263 0 68.1477 12.649 862 111.952 203.376 466.218
264 0 72.2728 13.7811 996 109.657 202.616 466.211
265 0 72.1763 12.3863 894 112.962 203.054 465.294
266 0 76.2626 12.7717 974 110.232 202.126 468.921
267 0 77.269 13.9901 1081 111.645 202.334 459.373
268 0 78.2509 12.4216 972 113.836 201.354 462.865
269 0 81.4058 13.1195 1068 113.875 200.554 457.587
270 0 83.3624 14.5869 1216 111.924 199.238 455.48
271 0 88.3539 14.1929 1254 111.754 198.223 458.53
272 0 91.3961 15.8541 1449 110.004 198.481 452.3
273 0 93.3109 11.8421 1105 116.11 198.54 455.031
274 0 95.5723 12.2316 1169 115.947 197.93 449.784
275 1 48.3984 12.4384 602 110.977 196.008 472.571
276 0 50.3584 12.8678 648 109.941 195.215 471.485
277 0 50.2744 20.3881 1025 100.219 196.304 471.66
278 0 52.2656 12.2069 638 112.423 195.679 467.292
279 0 53.0766 14.3754 763 110.151 195.157 465.856
280 0 54.0739 11.4103 617 114.394 194.305 465.219
281 0 56.103 13.5109 758 111.144 193.881 464.087
282 0 58.111 14.7821 859 110.495 197.545 462.709
283 0 59.1256 11.873 702 113.036 198.321 462.387
284 0 63.0956 19.4625 1228 101.529 198.833 461.805
285 0 64.3076 11.756 756 113.653 199.348 454.669
286 0 67.2753 17.0345 1146 106.335 200.024 453.369
287 0 67.2012 14.97 1006 110.579 200.078 451.513
288 0 70.4041 17.8825 1259 105.191 200.523 453.625
289 0 72.3541 16.2396 1175 109.031 201.026 448.576
290 0 73.2847 13.0314 955 113.032 203.051 452.915
291 0 77.2283 15.4218 1191 110.23 202.134 449.966
292 1 41.0432 12.5234 514 112.237 205.255 462.617
293 0 44.0257 12.311 542 109.256 203.976 465.157
294 0 44.1088 9.74863 430 111.777 204.507 465.219
295 0 48.1151 10.8282 521 107.689 204.472 463.115
296 0 48.0643 16.3739 787 99.8043 206.264 464.875
297 0 50.2821 13.8021 694 103.785 208.762 465.128
298 0 53.169 14.8207 788 102.529 207.159 462.931
299 0 54.2876 14.0548 763 103.418 208.384 463.51
300 0 51.1863 10.0808 516 109.556 208.605 468.492
301 0 53.1358 11.8564 630 108.452 207.806 469.927
302 0 58.1741 15.6083 908 104.412 207.584 466.866
303 0 60.1627 15.3251 922 108.703 207.055 465.308
304 0 61.4174 17.3729 1067 105.444 206.707 466.764
305 0 63.3156 14.404 912 109.901 206.491 465.198
306 0 64.2587 16.0445 1031 109.089 206.238 465.456
307 0 68.1294 15.1477 1032 110.941 204.523 464.074
308 0 70.2588 14.717 1034 110.195 205.342 466.25
309 0 70.2801 13.432 944 114.073 204.249 464.411
310 0 74.312 12.9858 965 114.617 204.751 465.866
311 0 76.3017 15.0718 1150 111.832 203.512 462.557
312 0 82.1492 20.8645 1714 102.756 201.971 462.153
313 0 84.3974 16.6948 1409 109.59 201.743 457.887
314 0 87.2757 24.3481 2125 100.347 201.372 455.094
315 1 48.054 12.8189 616 108.872 202.101 478.998
316 0 44.0799 10.6851 471 110.822 201.278 475.418
317 0 45.0671 11.2499 507 108.444 199.789 466.452
318 0 48.307 13.3314 644 111.932 200.339 471.234
319 0 53.2332 12.1729 648 111.502 199.597 473.404
320 0 53.326 16.8586 899 104.415 199.301 473.157
321 0 53.1381 12.7027 675 113.89 199.876 467.673
322 0 53.1093 15.5905 828 109.947 198.911 467.961
323 0 58.3625 14.2386 831 111.272 198.017 464.668
324 0 59.3455 16.901 1003 107.562 197.42 463.586
325 0 57.2577 11.6142 665 117.553 197.155 461.961
326 0 61.4275 15.1886 933 111.2 197.533 460.597
327 0 61.3345 13.141 806 114.231 198.236 459.264
328 0 63.21 12.1342 767 116.498 198.558 455.168
329 0 67.5044 18.1766 1227 106.047 199.723 457.681
330 0 69.1967 15.2753 1057 110.845 199.75 453.668
331 0 68.4252 12.3346 844 115.051 201.137 451.482
332 0 73.7248 16.5073 1217 105.094 201.014 451.28
333 0 77.2368 13.9441 1077 107.63 201.433 451.384
334 0 75.2474 11.9871 902 113.517 202.704 444.198
335 0 79.2752 13.8253 1096 106.114 203.348 448.932
336 0 85.2282 16.3678 1395 104.72 204.507 444.829
337 0 86.275 12.9817 1120 108.63 204.333 443.349
338 0 90.5646 17.667 1600 103.072 205.562 444.891
339 1 47.2015 14.364 678 100.121 207.246 465.673
340 0 53.4466 12.6481 676 102.383 206.056 464.561
341 0 50.054 12.7862 640 103.806 207.327 461.47
342 0 53.176 18.2789 972 96.1111 206.945 465.191
343 0 53.2412 15.9463 849 100.849 205.876 465.647
344 0 57.2989 22.3739 1282 93.0679 208.001 467.901
345 0 57.2349 16.441 941 101.898 208.005 463.564
346 0 60.236 13.0819 788 104.379 206.909 467.453
347 0 62.5219 14.235 890 103.724 207.638 465.766
348 0 64.2457 14.5224 933 103.314 206.411 466.779
349 0 67.1783 12.2659 824 106.352 206.414 467.365
350 0 70.3393 16.5199 1162 102.766 205.511 462.022
351 0 72.1669 14.9099 1076 104.431 204.867 461.827
352 0 71.2404 14.1633 1009 106.665 204.53 463.159
353 0 74.4198 14.0688 1047 107.309 204.343 459.86
354 0 77.2938 15.6675 1211 104.739 204.176 460.634
355 0 81.3602 14.4051 1172 106.964 202.755 457.839
356 0 83.2995 14.898 1241 105.433 202.802 458.426
357 0 90.4843 15.9254 1441 104.532 202.325 454.455
358 0 88.4305 15.0061 1327 107.837 202.175 451.427
359 0 91.5496 14.9099 1365 108.593 201.276 448.956
360 0 97.531 22.0853 2154 99.0255 200.757 451.987
361 0 101.758 16.9029 1720 104.575 201.17 448.594
362 1 55.3935 11.8967 659 111.021 201.706 462.73
363 0 56.4202 14.1793 800 105.476 200.966 461.455
364 0 57.1008 12.6093 720 108.994 199.018 458.808
365 0 59.4263 13.1592 782 104.925 200.591 457.212
366 0 60.1499 14.148 851 103.958 201.056 457.214
367 0 61.4186 12.0973 743 107.899 200.871 449.937
368 0 64.4354 10.6463 686 110.296 200.953 450.173
369 0 66.1376 9.79776 648 110.628 200.599 449.682
370 0 73.1665 11.0023 805 109.075 201.268 445.078
371 0 72.2362 11.6285 840 108.343 202.26 445.376
372 0 71.2898 11.0254 786 110.648 201.735 441.122
373 0 77.1339 17.7224 1367 100.506 202.489 446.45
374 0 79.1826 13.6899 1084 106.043 203.938 439.979
375 0 79.356 10.8372 860 111.291 204.579 434.363
376 0 84.2958 10.8902 918 108.24 204.39 439.374
377 0 91.3248 14.1035 1288 105.008 204.113 433.449
378 0 92.2435 12.9332 1193 105.946 205.405 437.574
379 1 48.1242 10.369 499 102.242 206.076 452.649
380 0 48.1346 10.7615 518 100.193 205.965 458.1
381 0 54.1343 10.6217 575 102.56 207.456 456.631
382 0 52.0956 10.5575 550 103.002 208.393 457.16
383 0 50.1051 8.04309 403 107.568 208.092 452.452
384 0 54.2046 12.4713 676 100.533 208.324 459.91
385 0 54.211 9.79507 531 105.887 207.326 457.028
386 0 58.0939 10.4658 608 106.66 208.788 455.515
387 0 60.1518 9.97477 600 102.587 209.918 461.563
388 0 62.1332 12.9721 806 102.079 210.636 457.438
389 0 66.1381 15.5584 1029 98.8435 210.009 458.198
390 0 65.1374 10.0557 655 106.727 209.366 456.055
391 0 69.1955 9.49484 657 106.108 209.588 459.406
392 0 69.2134 9.83914 681 108.14 208.871 455.715
393 0 76.2533 19.3697 1477 96.2234 208.494 460.256
394 0 78.2517 13.8655 1085 103.662 207.637 454.193
395 0 76.1169 10.3919 791 107.834 207.635 459.429
396 0 80.2189 13.6875 1098 104.63 207.193 457.324
397 1 177.894 20.4391 3636 102.329 207.502 414.814
398 1 87.152 14.0329 1223 105.137 205.473 451.99
399 0 93.2356 16.7318 1560 101.599 204.11 454.24
400 0 93.3437 14.8805 1389 106.14 203.39 449.519
401 0 101.412 17.8185 1807 100.552 203.576 453.642
402 0 100.371 12.0453 1209 110.203 202.472 446.218
403 0 104.159 16.2157 1689 106.461 201.838 441.516
404 0 108.222 16.1519 1748 106.37 201.57 445.256
405 0 111.338 16.0681 1789 107.335 200.302 441.681
406 0 115.166 13.1897 1519 111.855 201.024 436.831
407 0 120.46 15.9721 1924 108.044 200.214 432.746
408 0 125.318 17.4676 2189 105.678 200.809 428.664
409 0 131.404 17.8989 2352 102.64 199.756 440.669
410 0 134.519 13.9682 1879 111.335 200.133 423.879
411 0 142.621 16.4632 2348 112.461 198.761 417.662
412 0 147.561 15.3564 2266 114.278 198.306 418.782
413 1 80.2643 17.6791 1419 106.437 199.135 453.046
414 0 81.2133 17.5341 1424 106.182 200.079 454.607
415 0 85.6697 13.0735 1120 114.737 200.366 441.204
416 0 86.3859 14.5626 1258 112.068 201.032 442.082
417 0 93.3885 13.8026 1289 112.171 201.701 441.072
418 0 96.5456 14.8738 1436 110.779 202.588 438.962
419 0 101.606 17.2922 1757 104.026 205.131 440.847
420 0 104.378 16.2007 1691 108.135 205.211 438.17
421 0 107.392 14.312 1537 110.425 205.221 433.299
422 0 108.47 13.8103 1498 111.623 206.599 433.628
423 0 115.327 14.9748 1727 111.342 207.36 427.169
424 1 57.2675 9.27228 531 111.299 207.512 459.646
425 0 59.1166 11.7395 694 108.079 207.687 458.617
426 0 59.2708 10.2074 605 112.116 209.848 455.494
427 0 63.2449 12.4437 787 108.95 210.483 460.712
428 0 66.515 11.7567 782 114.59 209.844 456.478
429 0 69.276 17.3942 1205 105.081 209.706 457.937
430 0 68.4591 12.4016 849 113.734 210.118 455.995
431 0 72.3903 18.4003 1332 104.886 209.986 456.72
432 0 72.4527 10.9037 790 115.877 209.973 459.089
433 0 76.6748 12.703 974 113.764 210.076 456.39
434 0 79.3677 12.1082 961 114.524 209.81 457.378
435 0 79.4001 13.9924 1111 110.539 209.066 453.914
436 0 83.2605 16.1421 1344 107.388 208.956 455.516
437 0 87.1835 17.8474 1556 104.573 208.189 455.984
438 0 92.6039 17.0619 1580 102.998 208.04 460.933
439 0 91.5258 14.8592 1360 107.59 208.028 457.843
440 0 93.3837 15.2596 1425 109.606 207.1 449.676
441 0 96.235 11.5966 1116 112.665 206.733 451.972
442 0 99.177 16.1025 1597 103.946 206.071 450.895
443 0 100.164 12.5294 1255 109.037 205.035 450.591
444 0 105.354 17.1042 1802 103.625 204.391 452.519
445 0 107.344 13.2286 1420 111.718 205.425 439.205
446 1 60.2068 14.2343 857 103.291 203.317 466.368
447 0 62.0671 13.6787 849 102.305 202.748 467.204
448 0 63.1436 14.9659 945 102.351 203.123 462.201
449 0 70.2464 13.2533 931 105.824 202.91 465.378
450 0 68.1858 12.0993 825 106.124 201.602 465.688
451 0 70.2011 12.4499 874 106.569 200.831 460.257
452 0 71.0869 13.2373 941 106.995 200.179 455.451
453 0 74.2986 13.1766 979 106.845 199.648 454.193
454 0 78.4838 14.5125 1139 103.888 199.932 455.568
455 0 79.3144 15.344 1217 104.376 199.757 451.829
456 0 80.342 12.1356 975 113.141 199.137 450.815
457 0 85.4971 13.3806 1144 111.183 200.141 451.788
458 0 88.5255 14.7415 1305 110.798 200.228 447.253
459 0 93.3255 14.2726 1332 109.443 200.62 450.443
460 0 94.6159 13.7503 1301 112.299 200.885 447.261
461 0 97.3083 11.7153 1140 113.685 201.468 446.539
462 1 55.2545 7.36591 407 117.673 201.624 463.143
463 0 57.4841 11.8642 682 109.748 201.047 459.94
464 0 58.3876 14.438 843 104.357 202.571 461.597
465 0 61.4068 11.8391 727 106.587 203.878 456.546
466 0 63.2454 13.5346 856 101.209 203.713 459.565
467 0 63.2361 11.6389 736 101.808 204.016 465.72
468 0 63.3831 15.1775 962 98.7952 204.754 464.394
469 0 68.197 15.9098 1085 99.9641 205.679 457.23
470 0 69.3618 10.6687 740 105.451 205.895 460.534
471 0 71.2971 12.9739 925 104.175 207.253 456.097
472 0 72.493 11.5735 839 105.51 206.931 461.281
473 0 78.3149 15.4121 1207 104.203 206.717 457.74
474 0 81.3258 13.3783 1088 106.052 206.606 460.644
475 0 83.3648 23.0193 1919 94.4299 207.21 464.395
476 0 83.3371 14.1474 1179 106.293 206.412 462.24
477 0 89.5593 15.5204 1390 105.568 206.712 455.123
478 0 90.6301 12.8213 1162 110.602 206.408 447.767
479 0 92.5159 12.1817 1127 111.471 205.285 453.228
480 1 51.3475 14.7816 759 103.133 205.44 473.511
481 0 55.555 11.1421 619 105.721 204.667 480.546
482 0 53.6886 11.2128 602 109.821 203.453 476.488
483 0 56.3342 17.0767 962 106.551 203.149 480.608
484 0 58.5206 14.4906 848 110.718 201.597 477.925
485 0 61.3923 12.9658 796 116.758 201.253 478.775
486 0 61.276 12.7619 782 118.573 199.904 476.488
487 0 65.3809 12.0372 787 114.637 199.954 474.451
488 0 68.3671 12.8863 881 108.689 199.797 478.62
489 0 68.3799 11.7725 805 114.99 198.524 470.704
490 0 74.3349 17.4346 1296 103.05 197.404 474.699
491 0 78.2142 12.2868 961 110.873 198.344 470.475
492 0 77.4239 15.4474 1196 106.349 197.501 471.462
493 0 80.3049 16.126 1295 106.799 197.223 465.939
494 0 79.2475 12.2654 972 112.265 196.53 462.108
495 0 82.2474 12.1584 1000 112.345 195.73 460.055
496 0 87.2206 14.7213 1284 108.085 195.234 457.886
497 0 90.4564 13.3324 1206 108.829 194.958 454.687
498 0 96.4685 16.8863 1629 102.669 193.971 453.239
499 0 98.3431 18.3643 1806 100.88 194.033 451.613
500 0 103.471 15.7243 1627 103.878 195.766 449.535
501 1 52.3231 10.1676 532 104.56 195.953 469.445
502 0 55.2185 16.2446 897 96.8462 196.682 466.634
503 0 54.0674 12.0035 649 101.02 196.453 469.789
504 0 59.6056 14.0926 840 107.408 198.733 466.273
505 0 57.6365 13.3596 770 110.131 198.396 460.256
506 0 61.4971 15.7243 967 105.589 200.116 462.207
507 0 61.7809 15.0208 928 108.663 200.192 457.899
508 0 63.4221 14.6952 932 107.718 201.626 461.837
509 0 62.3922 14.3768 897 109.852 201.39 458.718
510 0 66.5833 15.0488 1002 108.592 202.255 457.424
511 0 68.3096 15.4444 1055 107.817 203.19 456.946
512 0 69.7003 14.4189 1005 109.421 203.535 455.653
513 0 72.6236 15.8488 1151 107.692 204.544 456.007
514 0 75.5572 15.26 1153 108.164 204.062 456.886
515 0 75.8399 15.124 1147 109.628 203.727 453.123
516 0 76.5226 13.2118 1011 113.045 205.072 452.652
517 0 82.8515 15.1717 1257 109.395 205 452.498
518 0 82.7558 13.1955 1092 113.076 206.279 454.714
519 0 88.6025 17.3246 1535 107.452 205.513 451.358
520 0 92.6602 15.2493 1413 104.478 204.421 455.841
521 0 91.2815 13.0366 1190 108.528 204.282 452.982
522 0 97.3314 13.4283 1307 107.943 204.152 454.399
523 0 100.464 18.0562 1814 101.631 203.332 451.888
524 1 50.4342 11.5794 584 104.813 202.469 474.007
525 0 54.2612 15.7755 856 99.2336 203.104 477.954
526 0 54.2613 13.4534 730 103.256 202.577 471.723
527 0 58.482 12.8074 749 103.904 201.286 477.1
528 0 60.1666 14.7756 889 104.898 199.648 480.863
529 0 61.1328 12.5628 768 107.859 198.599 478.172
530 0 62.1728 14.1863 882 107.189 197.414 474.694
531 0 65.2529 13.44 877 109.441 195.937 470.472
532 0 65.3012 19.1115 1248 100.47 195.646 476.459
533 0 67.3955 13.2056 890 109.092 194.904 468.555
534 0 66.3161 12.5309 831 111.201 194.195 466.409
535 0 68.3199 11.8267 808 111.634 194.944 470.173
536 0 77.7391 16.5425 1286 102.363 194.462 471.562
537 0 80.6126 18.868 1521 100.11 194.47 469.101
538 0 80.6132 14.6006 1177 106.528 195.028 464.953
539 0 84.5517 14.1807 1199 106.227 195.885 462.967
540 0 84.5927 11.6913 989 112.065 196.862 451.057
541 0 89.8043 13.329 1197 108.963 194.707 448.577
542 0 93.6281 19.5027 1826 100.506 194.538 451.088
543 1 50.2252 10.4927 527 106.355 197.283 471.427
544 0 52.4032 14.1403 741 101.646 198.306 466.031
545 0 53.1122 16.8888 897 99.8763 197.013 471.341
546 0 57.3619 14.9925 860 100.119 197.787 470.408
547 0 56.5536 15.3659 869 101.115 196.54 465.031
548 0 58.1413 15.8923 924 101.859 198.411 466.192
549 0 61.2806 13.5279 829 101.275 198.123 467.976
550 0 64.6934 15.9058 1029 99.517 198.709 466.056
551 0 65.3404 16.6819 1090 100.243 200.599 461.263
552 0 68.545 14.8807 1020 103.355 200.881 459.944
553 0 69.5525 15.2834 1063 103.74 200.22 455.233
554 0 70.3796 14.2087 1000 105.257 200.886 461.088
555 0 71.3157 14.0081 999 109.067 201.289 457.367
556 0 75.4165 12.8884 972 110.189 202.343 459.699
557 0 79.4082 15.6407 1242 107.194 203.779 454.403
558 0 80.56 16.8446 1357 105.818 204.977 456.532
559 0 84.3505 13.3135 1123 110.612 204.534 456.603
560 0 86.2253 14.8564 1281 110.24 204.839 455.343
561 0 90.4338 14.8838 1346 109.67 205.818 457.303
562 0 90.5381 12.0502 1091 115.091 205.442 452.805
563 0 91.3475 15.1181 1381 111.376 205.606 457.201
564 0 96.3121 10.2064 983 116.38 204.12 457.651
565 1 55.2228 9.74236 538 110.682 202.535 477.803
566 0 56.0646 15.8924 891 103.797 204.08 479.059
567 0 57.1433 16.0999 920 104.235 202.686 479.241
568 0 57.2006 11.5034 658 110.552 202.321 481.058
569 0 59.3054 14.7204 873 108.739 201.86 476.522
570 0 61.2285 12.6575 775 111.781 201.174 476.532
571 0 63.1756 13.5812 858 111.714 199.851 474.666
572 0 65.2758 19.6244 1281 105.057 199.936 473.26
573 0 65.1626 13.2745 865 113.947 199.212 475.827
574 1 131.413 14.755 1939 117.818 198.691 442.652
575 1 73.2685 14.0442 1029 114.731 198.458 471.536
576 0 71.2429 14.4014 1026 123.945 197.332 465.455
577 0 75.249 15.7079 1182 121.234 197.364 465.39
578 0 79.1165 16.5452 1309 119.253 197.688 465.134
579 0 79.2107 12.8266 1016 129.449 196.763 459.16
580 0 82.3009 16.4883 1357 121.932 197.258 457.889
581 0 88.1787 17.4078 1535 118.427 197.832 456.838
582 0 89.3174 16.4134 1466 122.035 198.335 452.027
583 1 47.0682 10.5804 498 125.833 198.072 473.56
584 0 47.1597 10.7719 508 125 199.063 474.571
585 0 49.1726 14.3169 704 121.621 197.192 469.361
586 0 52.5209 10.6434 559 121.372 198.34 469.621
587 0 52.1555 11.5232 601 121.153 198.351 468.855
588 0 56.1441 12.3432 693 118.362 200.427 469.013
589 0 58.1915 13.0947 762 119.269 199.774 466.672
590 0 59.3487 14.8445 881 119.787 199.308 463.388
591 0 60.4185 11.9003 719 124.847 200.178 464.078
592 0 63.2577 14.5753 922 120.29 200.479 462.024
593 0 67.3553 14.4161 971 120.956 200.665 459.538
594 0 68.3476 12.612 862 124.131 202.276 458.393
595 0 71.1658 13.6864 974 123.849 200.813 458.755
596 0 74.0835 15.8335 1173 119.286 200.854 458.194
597 0 75.288 16.6162 1251 118.596 203.013 460.904
598 0 76.2266 11.5839 883 128.519 203.196 456.094
599 0 80.6252 13.0728 1054 125.097 203.023 454.39
600 0 83.264 10.9051 908 128.216 203.71 455.399
601 0 87.3627 14.0335 1226 122.092 205.073 455.813
602 0 90.3279 12.6539 1143 122.599 204.816 453.494
603 0 93.4817 15.265 1427 116.685 204.718 452.644
604 1 46.1982 12.6845 586 118.338 207.666 477.442
605 0 47.1068 12.5672 592 119.444 207.443 478.475
606 0 49.134 12.6389 621 117.473 207.127 479.414
607 0 49.1697 12.6907 624 118.346 205.74 478.537
608 0 52.0984 14.4534 753 116.244 206.329 478.389
609 0 54.361 10.9085 593 119.845 205.417 481.833
610 0 56.4098 11.2392 634 121.885 204.678 477.353
611 0 57.2576 8.83726 506 123.955 203.953 480.423
612 0 60.3617 12.4582 752 120.005 204.037 473.6
613 0 63.4761 11.7525 746 124.603 203.287 474.685
614 0 68.2981 13.7046 936 119.948 202.847 474.745
615 0 70.2935 14.3399 1008 119.087 201.599 472.065
616 0 71.3866 12.0611 861 123.355 201.859 471.508
617 0 70.3995 9.55973 673 127.009 200.731 474.116
618 0 75.4452 16.8864 1274 116.174 199.75 465.457
619 0 78.3235 15.9084 1246 116.242 198.46 465.492
620 0 79.3149 11.9902 951 123.234 198.577 463.798
621 0 84.3367 16.612 1401 113.981 197.945 462.388
622 0 87.4784 14.4493 1264 118.791 197.284 460.138
623 1 41.2438 8.89832 367 124.455 198.665 480.196
624 0 44.2607 9.73777 431 124.944 198.295 476.561
625 0 47.0797 12.1921 574 118.42 197.735 476.61
626 0 47.1096 10.4862 494 123.263 197.717 475.37
627 0 48.4868 9.8171 476 124.122 197.086 471.246
628 0 50.1872 12.7722 641 118.087 199.2 472.949
629 0 51.2339 11.3597 582 120.6 198.115 470.921
630 0 56.2062 15.1229 850 112.32 199.631 469.564
631 0 56.0619 12.843 720 117.469 200.165 467.61
632 0 61.3473 17.295 1061 106.85 201.43 469.73
633 0 59.2277 13.0176 771 118.724 200.226 463.732
634 0 61.1843 13.9252 852 115.933 201.514 458.984
635 0 64.1749 14.1021 905 114.823 201.04 464.014
636 0 66.3499 13.3384 885 117.067 201.677 458.918
637 0 66.261 14.5636 965 115.774 201.408 456.313
638 0 68.49 15.4767 1060 113.932 202.892 458.665
639 0 70.4115 14.3869 1013 114.534 202.667 460.024
640 0 74.39 17.3141 1288 109.621 203.252 455.55
641 0 76.1791 14.374 1095 113.753 203.335 457.01
642 0 80.4508 12.0943 973 118.08 205.161 453.283
643 0 79.5883 12.6526 1007 117.705 204.633 457.802
644 0 82.537 13.7878 1138 116.193 205.112 453.598
645 0 84.5402 12.3137 1041 119.596 205.228 451.852
646 1 47.7281 12.3617 590 113.085 205.264 475.071
647 0 45.4649 10.4916 477 118.352 205.241 471.275
648 0 48.6407 10.3617 504 117.403 205.831 474.054
649 0 47.4717 11.5226 547 116.519 204.448 470.665
650 0 51.1031 13.2086 675 109.639 202.119 476.733
651 0 52.048 11.9121 620 112.269 201.769 478.223
652 0 54.1287 10.863 588 113.461 202.06 478.548
653 0 54.0377 10.7703 582 113.438 201.78 480.588
654 0 55.069 9.49718 523 117.73 201.839 476.946
655 0 57.1063 12.3104 703 113.151 200.64 475.525
656 0 60.0409 12.9079 775 112.116 200.601 475.455
657 0 59.1752 11.9814 709 117.096 200.945 473.319
658 0 61.278 13.9854 857 114.176 200.313 471.792
659 0 63.3459 13.1027 830 115.757 200.661 474.172
660 0 65.5639 10.9359 717 120.328 198.579 473.024
661 0 70.2801 16.1497 1135 112.19 198.424 467.07
662 0 71.2005 14.6347 1042 116.199 197.736 469.037
663 0 69.2399 10.5719 732 124.038 197.485 465.033
664 0 73.3631 11.777 864 121.716 196.534 464.164
665 0 74.2154 11.1837 830 122.759 196.325 462.495
666 1 44.08 9.77767 431 117.617 194.849 480.696
667 0 46.1572 9.14266 422 117.244 195.491 480.055
668 0 47.0981 11.2956 532 116.581 195.032 476.056
669 0 47.3858 15.8908 753 108.916 196.023 475.086
670 0 50.1444 12.3244 618 105.136 196.625 475.036
671 0 51.0701 16.0172 818 100.311 196.262 473.374
672 0 51.1392 14.001 716 101.786 196.767 465.427
673 0 53.0572 12.8352 681 107.555 196.806 470.75
674 0 55.2405 14.8804 822 104.474 197.047 470.833
675 0 57.1934 16.0683 919 105.187 198.557 463.572
676 0 58.1736 12.5487 730 111.052 198.292 465.922
677 0 61.1055 12.1102 740 110.903 199.088 467.395
678 0 61.349 12.812 786 111.684 199.686 463.56
679 0 63.2509 12.3002 778 117.536 201.938 462.253
680 0 65.2345 14.0876 919 113.751 201.713 464.345
681 0 67.2238 11.2311 755 119.83 203.389 460.868
682 0 72.3357 14.3912 1041 113.469 203.736 462.519
683 0 72.3549 15.6866 1135 113.195 203.684 456.999
684 0 75.364 21.9336 1653 104.375 204.542 455.91
685 0 76.2806 12.1918 930 118.342 205.795 459.923
686 0 79.2612 12.3768 981 118.168 204.856 460.305
687 0 82.333 13.2875 1094 117.605 204.739 456.112
688 0 87.217 16.5335 1442 111.075 205.437 459.375
689 0 88.2507 13.8696 1224 116.13 204.322 458.197
690 0 92.3826 17.1136 1581 110.923 204.168 456.939
691 1 47.1965 11.0178 520 115.437 203.962 477.467
692 0 53.6406 14.5971 783 101.86 206.328 477.877
693 0 49.2225 14.729 725 102.003 203.858 479.226
694 0 50.4182 12.7533 643 105.846 202.611 478.442
695 0 52.2716 15.3238 801 102.594 202.042 480.126
696 0 52.1923 14.6382 764 103.274 202.292 480.899
697 0 54.0641 12.5407 678 108.749 201.864 479.264
698 0 57.2039 10.7335 614 111.262 204.557 481.891
699 0 56.1402 15.4969 870 106.687 202.68 477.713
700 0 57.125 16.4376 939 105.037 202.556 479.676
701 0 58.2861 9.55632 557 114.715 201.971 479.442
702 0 62.0664 12.7928 794 107.703 200.354 480.753
703 0 64.1931 10.6553 684 112.37 200.779 475.235
704 0 66.2869 12.114 803 110.205 199.964 471.626
705 0 68.0591 12.401 844 109.389 198.922 473.238
706 0 72.2179 13.667 987 107.084 198.875 471.678
707 0 73.2527 12.5729 921 110.174 198.771 465.148
708 0 75.2706 8.7418 658 113.802 198.09 467.064
709 1 41.3434 9.84437 407 110.939 198.324 483.744
710 0 41.3069 14.0654 581 106.597 196.726 475.85
711 0 45.2046 12.4324 562 109.13 196.943 474.886
712 0 44.1542 11.7769 520 111.49 196.077 476.65
713 0 48.0725 14.5198 698 106.679 194.198 473.314
714 0 50.1474 10.7683 540 110.731 196.144 475.006
715 0 50.1602 14.035 704 103.909 195.777 472.119
716 0 52.1535 13.2685 692 105.374 197.237 472.759
717 0 51.0771 11.4337 584 107.462 196.635 472.925
718 0 54.0694 10.2831 556 108.622 196.514 468.531
719 0 57.246 11.5641 662 105.627 195.669 470.272
720 0 58.1587 22.559 1312 95.6113 197.929 464.599
721 0 57.3782 9.42867 541 112.713 198.634 469.66
722 0 60.1846 11.9133 717 108.467 198.948 466.201
723 0 61.3599 8.83314 542 112.389 199.273 462.672
724 0 64.3779 11.1218 716 108.402 200.524 467.074
725 0 68.2871 18.4808 1262 101.132 201.231 462.958
726 0 67.2117 12.0515 810 111.084 201.752 462.586
727 0 73.3233 14.7975 1085 107.432 202.639 461.099
728 0 75.2299 14.9276 1123 107.567 203.048 462.126
729 0 79.281 17.6839 1402 103.282 203.363 462.546
730 0 81.2033 16.4895 1339 105.641 203.146 458.283
731 0 84.2204 16.4212 1383 105.952 203.385 457.342
732 0 86.5503 13.1138 1135 109.901 203.261 463.78
733 1 46.0456 11.9447 550 113.098 202.998 477.251
734 0 48.1413 12.0686 581 115.814 204.921 476.083
735 0 50.3969 12.7389 642 109.727 205.436 479.184
736 0 49.47 10.6934 529 112.389 205.437 482.408
737 0 52.2468 8.47899 443 112.456 205.928 484.165
738 0 52.4079 10.1893 534 110.758 205.558 480.502
739 0 56.2133 12.666 712 107.205 203.645 478.778
740 0 57.1691 12.2094 698 106.821 202.837 479.162
741 0 61.1122 12.6161 771 107.066 202.003 476.553
742 0 63.3264 13.2172 837 103.571 202.198 480.605
743 0 64.2691 11.6074 746 106.883 200.757 475.641
744 0 67.5229 13.8768 937 104.489 199.478 470.353
745 0 68.285 6.98542 477 110.935 199.711 481.021
746 0 69.2117 11.4142 790 108.413 199.524 468.458
747 0 74.3528 10.2081 759 110.037 198.379 468.797
748 0 78.7465 13.4355 1058 105.7 198.924 466.547
749 1 40.0302 9.31796 373 110.257 196.777 481.635
750 0 43.1665 11.5136 497 108.797 197.332 481.519
751 0 43.2193 11.8928 514 107.868 196.411 480.767
752 0 46.5367 13.0435 607 105.206 196.843 476.31
753 0 46.1592 10.1605 469 111.446 198.107 474.62
754 0 43.2149 9.34863 404 116.205 199.173 471.899
755 0 46.2295 16.5262 764 102.562 198.043 473.704
756 0 48.2341 14.3674 693 108.137 198.186 468.42
757 0 51.3191 11.4577 588 113.303 199.02 465.854
758 0 50.1842 10.6807 536 115.433 198.922 465.513
759 0 52.028 13.4351 699 110.594 199.83 465.08
760 0 55.2472 12.9599 716 112.148 199.806 463.108
761 0 53.16 11.5689 615 115.511 200.746 460.774
762 0 60.63 16.1801 981 104.689 200.798 464.288
763 0 63.5569 10.5889 673 115.253 201.92 458.004
764 0 65.5117 14.5165 951 107.791 202.471 459.712
765 0 61.2804 10.9497 671 116.867 202.553 457.128
766 0 67.4355 14.7252 993 109.974 202.512 455.988
767 0 67.2769 12.6343 850 113.847 203.015 456.2
768 0 71.3057 12.9162 921 112.151 203.698 457.736
769 0 69.1293 11.2398 777 119.83 203.835 458.266
770 0 75.2895 12.9633 976 114.316 204.075 458.017
771 0 77.264 14.1592 1094 110.139 204.808 455.916
772 1 161.774 11.0772 1792 120.635 204.952 418.839
773 0 160.678 10.1321 1628 121.994 205.291 419.658
774 1 82.4223 14.1709 1168 112.478 205.552 449.447
775 0 90.6172 15.56 1410 109.769 205.146 448.26
776 1 47.2679 13.3918 633 106.73 205.645 470.483
777 0 48.4515 12.3422 598 104.515 204.761 472.266
778 0 46.2139 10.6462 492 110.232 204.752 469.039
779 0 54.0529 14.1898 767 111.229 202.977 474.129
780 0 50.1506 10.6679 535 118.267 202.991 474.596
781 0 55.1481 11.6232 641 115.665 203.378 475.456
782 0 59.1492 14.6071 864 109.556 202.714 474.88
783 0 56.0904 9.71645 545 119.846 202.455 474.325
784 0 61.1803 14.1058 863 111.597 202.102 472.692
785 0 60.2247 13.2836 800 114.499 201.411 472.019
786 0 64.1228 13.864 889 113.282 200.378 469.504
787 0 63.2506 14.3082 905 112.812 201.328 469.278
788 0 67.0712 12.2705 823 115.968 199.656 467.445
789 0 71.2764 17.3129 1234 106.996 199.553 467.172
790 0 73.3564 12.9096 947 112.736 198.405 466.067
791 0 76.1293 15.8809 1209 109.995 199.222 461.044
792 0 77.2298 14.6964 1135 111.043 198.039 460.673
793 0 78.0671 11.298 882 116.993 198.884 458.788
794 0 84.2694 16.4235 1384 107.777 197.934 457.762
795 0 86.1077 19.6847 1695 103.596 197.127 456.373
796 1 42.1983 12.773 539 110.494 197.232 472.089
797 0 46.1383 20.742 957 100.095 198.32 472.087
798 0 46.1183 9.86592 455 115.064 198.105 471.299
799 0 48.1192 11.5754 557 114.032 199.057 470.774
800 0 50.0732 13.4603 674 112.415 198.242 468.537
801 0 52.1 13.5317 705 110.647 199.875 468.838
802 0 55.2778 11.795 652 113.36 198.813 465.149
803 1 109.343 13.5628 1483 110.924 198.852 439.237
804 0 116.328 15.7399 1831 108.979 199.803 436.978
805 0 118.339 14.1881 1679 111.404 200.625 432.967
806 0 120.562 13.3209 1606 113.524 200.768 430.813
807 0 123.631 14.5271 1796 111.439 201.193 431.654
808 0 128.276 14.5234 1863 111.768 203.77 425.364
809 1 68.2245 15.2145 1038 106.45 204.412 453.835
810 0 69.3615 13.4513 933 110.317 205.169 454.427
811 0 74.146 15.7122 1165 106.376 206.13 457.44
812 0 75.3513 12.6209 951 111.565 205.742 452.265
813 0 78.5124 14.2398 1118 108.312 206.228 454.337
814 0 80.4287 9.48666 763 114.005 207.185 456.248
815 0 82.1576 13.3646 1098 109.393 207.071 456.808
816 0 86.5293 10.6322 920 112.421 207.524 457.745
817 0 89.3366 13.7905 1232 111.402 206.475 447.527
818 0 92.5439 15.1928 1406 109.619 206.616 450.334
819 0 90.5497 9.70738 879 114.406 206.691 455.835
820 0 99.9092 14.5832 1457 109.031 207.066 442.331
821 0 93.3205 14.6806 1370 108.798 206.753 443.15
822 1 52.5038 12.0563 633 109.455 205.69 465.948
823 0 50.1263 13.3862 671 107.325 204.937 467.65
824 0 55.2077 14.056 776 106.71 205.362 465.907
825 0 60.3203 12.7486 769 107.797 204.767 465.254
826 0 60.2555 11.0529 666 112.372 205.512 465.378
827 0 62.2278 14.3987 896 111.366 203.881 462.56
828 0 69.4395 16.2875 1131 106.973 203.604 461.818
829 0 69.4055 15.1717 1053 109.263 202.1 464.724
830 0 70.3705 13.301 936 113.542 202.799 458.513
831 0 72.4244 13.9456 1010 113.652 201.981 458.792
832 0 76.3965 14.7258 1125 112.263 201.47 455.988
833 0 77.2851 14.0777 1088 114.186 200.613 452.787
834 0 79.4438 11.5805 920 117.109 200.543 455.699
835 0 83.6443 14.1791 1186 113.245 200.347 454.829
836 0 87.2284 13.7914 1203 113.675 200.935 455.268
837 0 89.2765 13.923 1243 115.129 201.009 449.906
838 1 48.0682 15.8317 761 105.757 200.721 469.514
839 0 45.1613 10.23 462 115.617 198.483 462.102
840 0 50.0438 12.4491 623 104.387 198.339 461.822
841 0 50.0378 10.9517 548 106.555 199.445 458.522
842 0 52.1547 12.9614 676 112.259 199.08 466.04
843 0 54.2385 14.5284 788 109.085 198.57 467.563
844 0 55.0701 13.8187 761 113.217 198.276 464.781
845 0 57.1495 12.6335 722 117.891 197.62 460.738
846 0 61.1003 12.1603 743 119.221 197.413 459.738
847 0 63.1435 13.1763 832 116.139 199.159 461.483
848 0 63.0942 13.3451 842 117.603 199.508 458.57
849 0 71.1661 16.1453 1149 109.436 200.057 461.574
850 0 66.1731 12.6638 838 119.153 201.512 452.561
851 0 72.2767 14.9979 1084 112.535 201.881 460.288
852 0 74.0862 15.6305 1158 114.655 203.033 455.235
853 0 74.1636 12.2971 912 121.044 202.033 456.145
854 0 79.3532 13.1312 1042 119.14 204.181 452.436
855 0 81.2333 15.4863 1258 113.91 203.576 454.902
856 0 86.1542 16.3544 1409 113.432 203.987 453.727
857 1 50.2177 14.5765 732 112.138 206.523 467.135
858 0 50.1986 15.1598 761 112.394 207.477 467.39
859 0 53.2014 15.6763 834 111.145 207.892 469.122
860 0 51.1968 14.9033 763 114.625 205.453 471.114
861 0 52.0665 12.3112 641 119.036 204.396 470.396
862 0 54.0593 14.7246 796 116.476 204.697 469.204
863 0 57.1197 15.8439 905 113.043 205.012 469.841
864 0 57.1137 11.6084 663 120.762 204.078 471.858
865 0 60.0711 16.2807 978 112.408 203.315 469.972
866 0 61.0691 10.6601 651 122.424 202.877 470.151
867 0 64.0576 13.8469 887 116.591 203.701 469.462
868 0 66.1736 12.165 805 119.889 203.21 466.506
869 0 68.1747 14.4335 984 115.875 201.943 465.927
870 0 69.1695 13.8934 961 117.485 201.446 464.41
871 0 72.1131 13.3679 964 117.038 200.582 462.991
872 0 73.1966 12.3913 907 120.24 199.182 460.813
873 0 78.5146 15.2328 1196 113.671 199.239 463.384
874 1 44.0373 11.4676 505 113.717 198.111 478.8
875 0 42.3909 9.97856 423 116.567 198.087 478.404
876 0 46.2483 12.5626 581 116.42 201.814 479.074
877 0 45.5763 14.7006 670 114.403 200.313 474.913
878 0 46.0743 13.3697 616 116.823 202.62 474.381
879 0 47.0705 11.0048 518 121.1 200.691 476.475
880 0 48.0648 12.4415 598 118.666 201.719 473.266
881 0 51.1633 13.3103 681 117.571 199.972 471.956
882 0 52.085 13.2092 688 117.855 200.497 469.907
883 0 55.1619 12.4542 687 117.719 200.913 471.295
884 0 58.1692 12.7387 741 116.711 201.563 469.969
885 0 58.0608 12.6075 732 119.113 201.589 465.775
886 0 59.0852 13.7429 812 117.917 201.824 463.924
887 0 59.1949 12.349 731 121.529 201.454 461.438
888 0 62.1218 14.6969 913 117.304 201.617 461.33
889 0 64.1395 12.925 829 120.607 203.036 460.318
890 0 69.3014 17.5321 1215 111.359 202.086 455.281
891 0 68.1333 14.589 994 118.132 203.08 452.937
892 0 67.0437 13.3644 896 121.009 204.609 452.792
893 0 73.0648 14.2203 1039 117.725 204.542 455.957
894 0 76.0955 15.6908 1194 116.297 205.34 452.539
895 0 77.1348 13.3014 1026 119.161 205.5 455.356
896 0 79.1945 13.2711 1051 121.873 205.582 452.98
897 0 83.1406 15.0709 1253 117.883 206.251 450.477
898 0 85.3289 14.0984 1203 115.084 205.111 453.39
899 0 87.1967 12.2367 1067 118.243 203.888 451.773
900 1 47.0605 12.6646 596 116.898 203.356 469.144
901 0 49.0534 13.0674 641 110.328 203.431 470.348
902 0 52.2401 15.8882 830 103.954 204.841 472.317
903 0 53.2118 14.6208 778 113.145 204.465 470.415
904 0 54.0335 12.3442 667 117.886 205.684 471.133
905 0 56.113 13.9183 781 115.008 204.841 468.599
906 0 60.1095 18.3998 1106 106.335 205.491 473.874
907 0 59.0977 12.2678 725 118.458 204.538 471.137
908 0 61.1653 11.4934 703 119.724 203.599 473.791
909 0 59.077 12.306 727 122.195 204.432 471.142
910 0 64.0866 13.513 866 119.2 203.43 471.969
911 0 69.2342 13.9093 963 117.977 203.85 472.155
912 0 69.0529 12.5122 864 121.292 203.492 468.486
913 0 75.0879 15.8614 1191 114.348 202.793 469.762
914 0 74.094 12.7946 948 119.662 202.299 472.124
915 0 78.0528 15.2077 1187 115.65 200.553 467.297
916 0 78.1872 13.57 1061 118.923 200.861 467.186
917 1 42.0859 14.0427 591 113.878 199.907 483.074
918 0 41.1073 9.17112 377 121.053 198.223 484.382
919 0 42.1274 8.80663 371 121.596 198.663 480.922
920 0 44.0712 11.9806 528 116.477 198.188 481.062
921 0 48.1698 12.8088 617 112.663 198.728 480.712
922 0 50.1988 13.2673 666 113.158 198.15 477.892
923 0 51.0346 13.6182 695 112.547 198.03 476.455
924 0 49.2795 12.5204 617 116.23 197.271 471.572
925 0 52.1608 14.8579 775 111.225 197.253 470.363
926 0 56.3844 15.3766 867 109.238 196.893 470.3
927 0 57.4325 12.9718 745 113.863 197.393 468.482
928 0 62.0696 13.3882 831 110.485 197.456 463.07
929 0 60.4448 12.5073 756 114.079 199.766 464.582
930 0 63.6104 14.0543 894 109.906 199.183 467.059
931 0 63.3066 12.084 765 113.294 201.196 466.165
932 0 64.2707 15.388 989 109.356 200.74 464.522
933 0 68.4906 13.2573 908 110.623 201.315 462.093
934 0 70.4291 18.3163 1290 103.457 201.29 462.972
935 0 70.3226 16.3674 1151 108.646 202.066 456.133
936 0 71.3988 14.44 1031 111.786 202.744 456.718
937 0 76.407 16.4252 1255 109.447 202.59 454.343
938 0 77.4213 15.4609 1197 113.143 203.171 449.142
939 0 81.4305 14.7856 1204 114.194 203.091 448.585
940 0 85.6169 16.3636 1401 110.019 203.677 451.587
941 0 86.7327 16.8218 1459 110.293 203.35 451.906
942 0 89.6373 18.1844 1630 108.509 204.846 447.891
943 0 88.2125 14.4764 1277 112.713 206.259 449.552
944 0 86.2323 12.5823 1085 117.383 206.945 445.554
945 0 91.1561 14.0199 1278 113.532 206.872 447.844
946 0 99.6252 13.33 1328 114.09 206.032 443.948
947 0 98.2682 12.3336 1212 117.589 207.233 440.716
948 1 52.409 12.5169 656 111.584 206.404 466.537
949 0 53.2836 14.8639 792 109.638 205.553 467.098
950 0 51.2077 10.4867 537 116.441 204.315 465.155
951 0 60.3063 14.7248 888 107.734 205.02 467.563
952 0 57.2371 15.4445 884 108.827 205.423 468.636
953 0 60.3308 9.0501 546 117.89 203.658 468.877
954 0 63.3196 16.3614 1036 107.585 203.889 468.716
955 0 68.3813 14.2437 974 110.623 203.753 466.195
956 0 69.4397 13.1481 913 112.295 203.354 466.851
957 0 70.2179 13.7429 965 113.188 202.237 463.687
958 0 70.2179 13.7144 963 140.796 200.216 463.589
959 0 75.4783 15.5144 1171 108.626 200.899 465.442
960 0 78.2623 15.9464 1248 109.05 199.315 459.571
961 0 80.3036 11.0331 886 117.806 199.581 453.356
962 0 81.3797 14.3648 1169 111.275 197.62 459.861
963 0 81.2358 14.0948 1145 110.293 198.747 458.563
964 0 82.3857 11.0577 911 116.856 197.184 453.29
965 0 86.2164 13.7213 1183 113.205 196.938 451.074
966 0 87.157 13.0339 1136 115.262 197.854 447.732
967 0 91.118 13.1039 1194 114.883 197.933 444.147
968 0 96.2352 12.6045 1213 115.054 197.782 441.413
969 0 98.2628 13.0263 1280 114.422 198.335 441.605
970 0 101.269 17.0733 1729 109.034 197.535 437.506
971 0 101.399 20.9273 2122 104.637 197.863 437.714
972 0 104.367 14.2669 1489 112.649 197.854 430.369
973 0 111.193 14.4163 1603 112.603 199.101 429.806
974 0 118.33 15.2539 1805 110.766 198.067 429.165
975 0 117.505 16.2887 1914 110.04 199.858 428.001
976 0 120.401 14.1111 1699 112.964 198.813 422.448
977 0 127.428 11.2377 1432 116.283 199.749 420.956
978 1 69.3669 16.2037 1124 101.967 199.085 453.823
979 0 67.152 14.7873 993 99.6636 201.562 452.685
980 0 71.1596 19.3227 1375 94.7156 201.2 451.527
981 0 75.4076 11.7893 889 104.083 202.486 442.757
982 0 76.2166 11.5329 879 106.013 202.511 449.567
983 0 80.224 13.6244 1093 98.2223 203.366 450.759
984 0 81.604 8.78633 717 103.134 204.593 446.36
985 0 82.1501 10.14 833 102.582 204.533 452.593
986 0 89.137 18.1631 1619 93.5973 205.363 443.395
987 0 89.3213 11.2403 1004 99.1375 204.975 454.032
988 0 95.1977 11.744 1118 103.194 206.256 440.672
989 0 99.3225 12.6255 1254 101.293 207.091 439.486
990 1 51.1061 8.02253 410 103.5 206.788 466.132
991 0 56.311 17.8651 1006 98.6958 205.956 465.651
992 0 54.319 10.4752 569 107.36 205.958 471.517
993 0 57.1576 17.0581 975 98.4062 205.506 469.742
994 0 60.2492 19.7845 1192 96.932 205.162 467.721
995 0 63.24 17.7578 1123 97.7596 204.932 470.874
996 0 68.3205 15.4127 1053 102.698 203.951 471.289
997 0 67.0472 16.123 1081 103.679 203.573 473.121
998 0 69.2115 16.5435 1145 105.311 203.691 468.938
999 0 71.1797 12.9531 922 107.829 203.206 471.289
1000 0 76.2394 17.668 1347 102.591 202.149 466.981
1001 0 75.1776 13.1954 992 110.21 200.48 463.666
1002 0 81.2414 16.7895 1364 103.99 200.637 467.376
1003 0 80.1832 17.5598 1408 106.038 199.499 458.964
1004 0 81.2205 12.0413 978 113.334 198.835 465.624
1005 0 87.4847 17.3973 1522 106.696 198.921 460.426
1006 0 87.1603 16.2115 1413 109.836 198.372 455.29
1007 0 89.4078 11.9565 1069 116.347 197.868 458.728
1008 0 89.3669 12.0514 1077 117.892 197.417 454.115
1009 1 48.1948 13.072 630 112.514 197.633 477.557
1010 0 51.2893 12.1273 622 112.659 197.248 473.457
1011 0 51.2893 12.1468 623 142.734 198.252 473.419
1012 0 51.1974 12.4616 638 108.831 196.688 466.981
1013 0 55.0738 15.2704 841 99.9405 196.309 463.194
1014 0 52.0479 10.9515 570 107.367 196.411 463.802
1015 0 59.3126 15.6291 927 98.4283 197.512 464.458
1016 0 58.1346 13.6752 795 102.639 197.713 463.723
1017 0 61.4157 11.3163 695 110.845 195.427 458.153
1018 0 60.1192 9.96355 599 115.496 197.446 454.244
1019 0 62.0735 9.50486 590 116.039 194.632 450.937
1020 0 63.0779 12.001 757 112.584 195.299 450.744
1021 0 66.1749 11.0918 734 113.512 195.313 450.02
1022 0 66.0682 10.8676 718 113.673 195.582 449.673
1023 0 69.0688 14.3191 989 108.567 195.702 448.061
1024 0 69.1122 11.9082 823 112.588 196.273 443.789
1025 0 78.3097 12.425 973 110.802 197.951 448.162
1026 0 77.1268 12.1748 939 111.905 198.322 445.473
1027 0 76.1252 13.018 991 136.475 199.37 446.19
1028 0 84.1546 13.2019 1111 117.374 197.897 445.88
1029 0 85.1177 12.3124 1048 117.382 199.205 450.728
1030 0 90.1144 13.272 1196 116.911 200.453 449.418
1031 1 44.0791 8.34863 368 116.207 200.821 471.394
1032 0 48.0422 10.4075 500 113.458 199.698 470.982
1033 0 47.0552 11.6459 548 112.509 201.005 464.628
1034 0 51.2315 11.0674 567 111.52 201.755 468.672
1035 0 52.0986 13.0714 681 110.289 200.448 466.222
1036 0 51.1167 10.6619 545 114.974 201.314 467.029
1037 0 57.214 12.4795 714 113.105 199.332 469.353
1038 0 59.0851 12.6259 746 115.621 200.269 468.655
1039 0 62.0723 14.5798 905 112.161 198.951 470.012
1040 0 65.153 14.5043 945 113.108 199.439 469.902
1041 0 65.1502 12.617 822 119.055 199.608 467.35
1042 0 68.0453 12.2859 836 119.894 198.726 468.237
1043 0 71.2007 12.0504 858 120.452 198.17 469.15
1044 0 73.1043 13.9663 1021 117.817 197.138 466.179
1045 0 76.1166 12.7173 968 120.9 196.756 466.28
1046 0 76.0839 14.8126 1127 118.321 197.105 464.831
1047 0 80.1561 14.0601 1127 119.004 197.863 462.635
1048 0 84.1799 14.374 1210 118.291 198.171 461.188
1049 0 90.1966 15.178 1369 115.134 194.359 462.95
1050 0 90.1071 13.2287 1192 119.178 194.87 458.196
1051 1 48.0382 10.4292 501 119.844 193.459 476.701
1052 0 48.0844 12.7068 611 113.157 192.646 477.913
1053 0 48.1409 9.43064 454 115.359 192.26 474.291
1054 0 51.2512 10.5558 541 112.009 193.804 472.438
1055 0 52.0873 13.2086 688 107.661 197.138 474.997
1056 0 53.1383 14.4905 770 105.703 196.904 472.812
1057 0 56.18 12.6202 709 108.485 198 470.372
1058 0 62.2025 11.9127 741 107.159 198.182 470.028
1059 0 60.2295 14.9096 898 104.285 198.641 468.218
1060 0 66.264 22.2896 1477 95.6303 198.997 465.343
1061 0 64.4013 15.0929 972 111.53 199.746 463.316
1062 0 65.5556 13.7441 901 115.354 198.418 458.866
1063 0 66.4912 12.4528 828 116.908 200.26 458.534
1064 0 67.3706 12.3199 830 117.989 200.547 454.596
1065 0 69.3143 11.3252 785 118.231 202.196 458.313
1066 0 72.4194 13.1042 949 117.453 201.551 455.168
1067 0 77.3133 13.2189 1022 116.517 203.114 454.207
1068 0 78.3183 15.5009 1214 113.301 202.141 454.713
1069 0 79.1464 12.7864 1012 118.215 202.629 452.337
1070 0 82.2729 15.0353 1237 113.93 204.135 452.686
1071 1 169.667 15.3064 2597 116.195 204.825 415.775
1072 1 86.3995 11.5278 996 119.094 204.468 451.083
1073 0 89.1958 12.3212 1099 117.405 206.325 455.055
1074 1 52.1527 12.0799 630 111.04 207.376 473.808
1075 0 51.0538 13.0451 666 109.989 207.949 473.363
1076 0 51.1032 12.0932 618 111.521 207.272 471.372
1077 0 55.079 11.075 610 105.118 206.43 468.702
1078 0 57.1896 10.7012 612 112.542 205.641 469.252
1079 0 58.2164 12.3333 718 110.65 204.877 473.274
1080 0 60.1813 13.4427 809 107.339 205.66 475.501
1081 0 61.346 12.6822 778 110.392 203.837 473.67
1082 0 65.4854 14.4612 947 106.623 204.391 473.697
1083 0 65.4663 13.5031 884 109.23 202.669 467.77
1084 0 69.6693 14.5975 1017 106.694 203.363 466.497
1085 0 67.6406 9.96443 674 130.769 204.134 472.369
1086 0 71.5565 17.287 1237 104.351 202.388 466.975
1087 0 74.6435 13.2095 986 110.157 200.494 465.955
1088 0 75.4711 13.9789 1055 109.461 201.077 464.101
1089 0 76.3468 16.3858 1251 106.214 199.811 463.284
1090 0 80.8552 13.1099 1060 110.114 200.846 458.092
1091 0 82.9264 17.7869 1475 104.447 199.88 456.52
1092 0 85.6361 15.344 1314 107.937 198.328 455.689
1093 0 88.5221 13.6576 1209 110.423 197.967 457.634
1094 0 89.4118 11.777 1053 113.976 197.123 453.687
1095 0 89.7231 11.2791 1012 116.394 197.239 448.64
1096 1 49.4789 11.1563 552 113.576 196.625 469.554
1097 0 50.483 9.98356 504 111.282 197.47 469.833
1098 0 52.5164 10.5301 553 113.244 198.092 473.508
1099 0 56.6338 12.1659 689 110.385 197.544 473.507
1100 0 54.3088 11.5267 626 112.22 197.904 468.851
1101 0 59.257 14.1249 837 106.049 197.634 468.953
1102 0 59.2205 12.4281 736 109.621 198.543 467.204
1103 0 63.5243 14.8132 941 106.142 198.652 464.394
1104 0 67.7638 13.1191 889 105.268 198.425 462.897
1105 0 68.7199 13.8242 950 107.333 199.145 456.962
1106 0 70.2271 12.4026 871 109.331 199.238 454.295
1107 0 71.5046 12.3069 880 109.66 200.197 455.449
1108 0 76.1801 12.7461 971 106.111 199.268 455.521
1109 0 77.7559 15.6516 1217 103.163 201.465 451.073
1110 0 78.4997 14.2548 1119 105.124 201.278 455.299
1111 0 84.9602 21.2099 1802 97.6193 201.315 447.251
1112 0 85.601 13.2826 1137 107.193 201.429 443.183
1113 0 88.5624 16.9824 1504 101.62 202.662 446.684
1114 0 91.5286 16.3883 1500 103.776 202.784 444.157
1115 0 91.4328 13.3541 1221 108.21 204.593 446.306
1116 0 100.296 17.6078 1766 100.144 203.285 449.138
1117 0 100.649 12.3995 1248 108.084 204.709 445.467
1118 0 105.023 15.9679 1677 102.571 203.456 450.038
1119 1 56.3356 10.8635 612 103.015 204.144 471.474
1120 0 58.1717 10.0049 582 106.473 204.703 472.533
1121 0 59.2721 12.7716 757 103.353 204.061 470.07
1122 0 62.2478 12.7394 793 104.484 205.219 470.735
1123 0 65.3567 12.5771 822 104.762 204.821 471.203
1124 0 68.2235 18.0876 1234 99.3971 204.315 469.255
1125 0 73.5799 18.8503 1387 97.1247 204.435 472.256
1126 0 74.2859 14.1211 1049 103.602 204.293 472.013
1127 0 71.1282 12.3439 878 107.295 203.177 469.815
1128 0 76.2141 12.2418 933 106.954 203.167 468.989
1129 0 79.2672 12.3632 980 107.132 202.717 468.336
1130 0 81.1506 12.7294 1033 107.701 200.706 463.907
1131 0 83.515 13.0875 1093 108.241 200.095 464.526
1132 0 86.2915 13.466 1162 108.084 200.47 461.63
1133 0 88.3075 10.5654 933 112.971 198.77 458.751
1134 0 89.3288 14.0716 1257 107.958 199.964 460.632
1135 0 92.2096 15.1503 1397 104.601 197.688 458.004
1136 0 95.3226 10.2494 977 109.013 197.931 461.93
1137 0 96.3781 12.866 1240 108.715 197.441 450.881
1138 0 100.402 13.8942 1395 107.117 196.667 453.063
1139 0 105.756 14.6374 1548 106.085 196.892 453.747
1140 0 98.6015 8.2656 815 112.141 194.858 456.703
1141 1 62.6435 13.4571 843 102.509 194.215 468.817
1142 0 59.2776 7.37209 437 111.641 196.014 468.568
1143 0 63.182 12.0762 763 113.611 196.499 465.005
1144 0 65.1406 15.0904 983 108.597 197.61 465.587
1145 0 64.2049 10.2329 657 117.798 197.545 461.163
1146 0 70.3951 14.3334 1009 110.36 197.575 459.896
1147 0 71.2555 11.9429 851 114.011 197.062 459.632
1148 0 73.2983 10.7097 785 116.697 197.71 457.238
1149 0 76.2942 13.7756 1051 112.83 197.118 454.418
1150 0 80.6814 16.0136 1292 108.204 199.583 454.776
1151 0 81.4891 13.5724 1106 112.67 199.208 453.11
1152 0 81.4508 13.1859 1074 114.142 199.85 451.541
1153 0 86.835 13.3241 1157 113.229 201.694 452.282
1154 0 86.7047 14.486 1256 113.116 201.641 445.278
1155 0 85.6817 11.5894 993 119.764 202.265 444.466
1156 0 89.8863 11.6481 1047 117.622 203.015 448.211
1157 0 95.6561 10.7782 1031 120.714 203.161 442.314
1158 0 99.091 12.2917 1218 117.358 204.227 441.539
1159 0 101.934 12.5767 1282 116.927 205.366 436.892
1160 1 55.8262 12.7718 713 112.827 205.719 464.129
1161 0 58.7083 11.8552 696 113.529 204.075 463.774
1162 0 57.5857 11.3396 653 113.723 206.142 457.657
1163 0 59.3306 10.1297 601 107.602 203.245 467.356
1164 0 62.2932 10.1295 631 108.526 204.002 463.986
1165 0 65.5121 14.4096 944 102.96 204.018 467.135
1166 0 67.5705 14.7994 1000 103.899 202.975 465.709
1167 0 66.4919 10.3321 687 111.116 203.603 463.592
1168 0 72.3273 12.5264 906 107.365 203.578 467.531
1169 0 72.2795 8.5363 617 113.684 203.399 466.797
1170 0 77.2503 13.8252 1068 107.698 203.605 467.402
1171 0 81.5112 14.452 1178 107.564 201.829 462.389
1172 0 81.4 12.0762 983 111.474 201.749 462.033
1173 0 85.4417 14.7703 1262 107.926 201.025 461.4
1174 0 88.3803 12.5254 1107 110.459 199.669 460.148
1175 0 94.3459 16.1533 1524 104.168 199.482 460.869
1176 0 93.4151 12.7067 1187 110.757 198.949 453.552
1177 0 97.4676 12.9582 1263 108.904 197.684 458.337
1178 0 100.322 13.7557 1380 108.413 196.842 451.672
1179 1 53.4857 14.4151 771 102.031 196.067 476.246
1180 0 55.4333 11.0583 613 106.369 195.76 477.188
1181 0 59.2091 14.6261 866 101.544 196.094 475.119
1182 0 60.2296 13.8304 833 103.162 196.041 469.738
1183 0 63.219 24.7236 1563 91.5298 196.301 471.427
1184 0 63.2748 15.8515 1003 101.746 196.478 465.833
1185 0 63.0884 14.4718 913 106.299 196.584 467.885
1186 0 66.2574 16.3755 1085 103.586 196.612 464.353
1187 0 68.1391 13.9568 951 104.219 196.254 470.701
1188 0 63.058 9.84808 621 115.942 197.232 463.266
1189 0 70.1467 16.2089 1137 104.78 197.165 465.562
1190 0 71.1337 12.3992 882 111.024 197.443 463.641
1191 0 71.1811 12.405 883 114.069 197.308 457.315
1192 0 78.1538 15.7382 1230 106.861 198.092 459.598
1193 0 77.0871 10.8578 837 113.703 198.582 461.254
1194 0 81.0789 15.1334 1227 109.902 199.102 454.734
1195 0 84.3434 15.1642 1279 109.711 200.004 453.618
1196 0 85.2079 13.0622 1113 114.268 199.964 453.221
1197 0 90.1524 12.7895 1153 113.821 200.063 451.824
1198 0 92.1855 15.1434 1396 110.019 199.857 451.985
1199 1 55.4441 10.7496 596 112.685 200.495 473.126
1200 0 53.1518 13.7342 730 108.718 201.693 467.308
1201 0 55.2145 12.4243 686 109.557 201.889 464.7
1202 0 59.2331 13.3034 788 107.562 203.022 461.077
1203 0 61.2193 13.6232 834 107.711 203.544 466.023
1204 0 58.104 12.9939 755 111.715 204.539 471.034
1205 0 64.2584 13.8659 891 109.943 205.391 469.515
1206 0 64.1132 12.6027 808 114.965 205.881 467.275
1207 0 67.1929 12.3376 829 115.758 206.647 466.104
1208 0 71.2279 13.0146 927 113.756 206.825 468.918
1209 0 75.437 14.1443 1067 111.002 206.736 471.177
1210 0 72.1276 13.9891 1009 115.485 206.136 463.983
1211 0 76.1436 12.5815 958 116.763 207.126 468.553
1212 0 74.2957 10.3505 769 122.031 206.287 465.35
1213 0 80.1928 14.4776 1161 114.289 206.1 466.308
1214 0 84.0883 13.2123 1111 117.009 204.545 466.19
1215 0 85.1656 12.7281 1084 117.887 204.805 464.918
1216 0 92.2298 14.8 1365 113.371 203.779 464.7
1217 1 51.0511 13.7705 703 113.807 202.127 485.91
1218 0 52.0391 10.2615 534 120.307 201.496 481.551
1219 0 53.1308 13.0621 694 116.264 200.703 480.512
1220 0 52.3269 11.0651 579 118.048 198.396 476.309
1221 0 53.2401 10.4996 559 114.66 199.288 471.061
1222 0 56.0509 13.684 767 108.211 196.027 476.417
1223 0 59.1865 14.0066 829 110.188 196.211 468.662
1224 0 59.0756 13.9821 826 110.433 195.665 469.726
1225 0 60.062 11.4382 687 114.434 195.282 468.793
1226 0 62.0731 11.8892 738 113.611 194.333 465.866
1227 0 64.0861 13.7003 878 110.606 195.412 467.8
1228 0 66.059 10.6874 706 115.596 195.273 464.656
1229 0 70.2047 17.0929 1200 105.973 195.188 460.812
1230 0 71.0658 15.2675 1085 107.336 195.645 464.478
1231 0 74.1446 14.148 1049 110.764 195.953 456.389
1232 0 78.1423 14.5248 1135 109.779 196.043 451.501
1233 0 77.1173 13.1229 1012 112.944 196.479 452.396
1234 0 80.1384 13.0025 1042 113.654 197.366 447.669
1235 0 84.4097 13.6596 1153 115.063 196.918 449.095
1236 0 88.2576 16.4518 1452 108.944 198.47 449.477
1237 0 91.1358 12.9477 1180 114.487 199.553 446.694
1238 0 91.142 11.8167 1077 118.079 199.741 439.973
1239 0 96.238 11.4196 1099 117.512 199.065 443.377
1240 0 98.1709 14.9128 1464 112.093 200.759 443.723
1241 0 103.641 15.1387 1569 109.177 201.341 440.788
1242 1 56.2542 12.4257 699 107.737 201.421 463.987
1243 0 57.1259 11.8685 678 106.779 202.305 461.566
1244 0 61.3415 14.0036 859 111.57 203.573 464.86
1245 0 59.2771 10.9486 649 113.535 202.77 467.82
1246 0 62.2281 13.0488 812 111.61 203.778 465.888
1247 0 64.3546 10.9549 705 112.557 204.753 468.301
1248 0 66.2144 12.822 849 110.362 204.863 467.869
1249 0 68.1777 13.3621 911 110.167 205.593 465.102
1250 0 70.2644 13.2073 928 109.122 204.796 467.588
1251 0 72.4091 13.6309 987 109.765 205.028 465.498
1252 0 72.3584 11.6365 842 115.134 203.671 462.284
1253 0 76.2611 12.313 939 113.579 204.218 463.626
1254 0 79.1941 14.938 1183 110.303 202.948 463.748
1255 0 82.1986 13.3336 1096 113.089 202.93 462.206
1256 0 86.3013 13.2559 1144 116.258 202.681 460.48
1257 0 90.2354 14.2849 1289 113.911 202.502 463.812
1258 0 92.4561 12.8493 1188 117.48 200.765 460.269
1259 0 95.2615 14.0875 1342 115.886 200.566 458.925
1260 1 49.184 12.7074 625 115.429 199.368 478.298
1261 0 54.1831 10.4276 565 117.232 198.958 481.31
1262 0 56.176 14.8818 836 109.782 198.264 481.185
1263 0 54.4636 11.8244 644 117.548 197.632 475.865
1264 0 58.2931 13.8095 805 113.133 197.529 476.75
1265 0 59.1357 14.5259 859 112.658 197.816 474.328
1266 0 62.1446 14.3053 889 112.917 196.799 474.809
1267 0 63.6249 13.0766 832 113.963 195.704 471.181
1268 0 64.3861 16.6962 1075 109.024 195.827 471.544
1269 0 65.2236 15.2705 996 112.538 195.58 467.405
1270 0 68.3128 15.59 1065 110.693 195.7 471.123
1271 0 72.2686 14.9996 1084 111.443 195.305 466.874
1272 0 72.6043 13.3325 968 115.695 196.563 461.531
1273 0 74.2297 12.8924 957 117.301 196.282 456.338
1274 0 76.2904 13.6977 1045 116.154 196.798 459.38
1275 0 80.3557 13.602 1093 115.457 196.133 456.363
1276 0 83.4075 13.3921 1117 114.915 197.209 455.44
1277 0 85.635 13.1839 1129 116.978 197.442 450.151
1278 1 53.5176 14.7989 792 106.918 199.437 468.66
1279 0 49.5669 11.7417 582 113.723 200.369 467.225
1280 0 50.5931 12.8674 651 114.015 200.444 464.264
1281 0 55.6937 14.9209 831 109.262 201.292 464.36
1282 0 54.7231 11.8414 648 116.407 202.29 462.006
1283 0 56.3171 10.3876 585 108.737 203.186 467.503
1284 0 59.2166 16.1272 955 101.849 203.841 463.41
1285 0 61.1737 14.5814 892 104.594 204.498 462.799
1286 0 63.3314 14.3847 911 103.027 205.593 466.154
1287 0 63.136 15.0786 952 103.768 205.346 462.643
1288 0 66.3726 16.7539 1112 102.703 205.361 462.762
1289 0 68.2485 12.9966 887 106.937 206.667 465.295
1290 0 70.1871 16.1426 1133 104.809 206.479 462.609
1291 0 75.3301 17.4698 1316 103.445 206.383 461.943
1292 0 74.2559 13.0225 967 110.179 206.927 464.369
1293 0 76.3872 15.1858 1160 110.721 206.228 462.733
1294 0 80.1789 20.5166 1645 103.235 205.506 459.147
1295 0 82.2369 18.471 1519 106.276 204.623 460.112
1296 0 83.1238 14.5927 1213 112.552 205.849 463.579
1297 0 86.1081 13.7153 1181 114.931 205.612 461.227
1298 0 92.1197 16.7825 1546 110.42 205.753 460.596
1299 0 93.2561 16.3314 1523 112.779 205.896 455.609
1300 0 94.3111 14.6642 1383 116.967 204.448 457.151
1301 0 100.402 17.2507 1732 111.768 204.434 455.539
1302 0 104.422 14.7 1535 113.751 202.917 459.194
1303 0 107.65 17.1017 1841 110.613 201.946 454.975
1304 0 110.324 14.6025 1611 115.022 201.461 452.748
1305 1 62.1201 13.2324 822 113.353 200.91 476.365
1306 0 61.2573 11.9822 734 118.042 200.999 469.969
1307 0 64.2829 13.6117 875 116.033 200.727 473.425
1308 0 71.3963 14.0484 1003 117.517 197.557 460.692
1309 0 72.2742 13.3519 965 118.67 198.347 459.791
1310 0 77.2673 17.3036 1337 112.467 198.131 458.408
1311 0 79.3755 14.3369 1138 116.508 197.617 459.357
1312 0 81.4403 13.7279 1118 117.694 196.962 456.04
1313 0 85.47 15.6195 1335 113.386 196.712 452.511
1314 0 87.5224 18.9209 1656 109.013 196.806 446.446
1315 0 89.2933 12.0838 1079 117.784 196.614 446.7
1316 0 93.726 15.0118 1407 114.173 197.453 441.026
1317 0 99.604 17.3587 1729 110.459 197.134 434.729
1318 0 102.454 13.4792 1381 115.996 198.092 434.341
1319 1 53.2488 11.2115 597 115.966 198.704 455.461
1320 0 57.3652 12.9521 743 112.777 199.058 450.626
1321 0 58.2316 14.2019 827 110.16 198.029 450.994
1322 0 62.3241 13.9593 870 109.495 199.679 450.921
1323 0 64.374 15.2235 980 108.685 199.421 452.376
1324 0 69.2787 15.517 1075 107.403 201.18 448.692
1325 0 68.4707 15.8316 1084 107.724 202.259 451.73
1326 0 68.2806 18.2629 1247 104.808 201.601 452.321
1327 0 71.4213 13.2453 946 111.297 203.242 451.675
1328 0 76.2661 12.9809 990 111.179 203.018 451.188
1329 0 77.4598 14.2138 1101 109.868 203.791 452.126
1330 0 79.3049 14.2866 1133 110.694 204.061 451.939
1331 0 79.224 14.9828 1187 110.443 203.935 454.072
1332 0 83.5513 13.7041 1145 111.759 204.702 452.521
1333 0 86.2699 15.9615 1377 107.785 203.341 455.977
1334 0 96.7927 14.4949 1403 108.251 204.957 455.236
1335 0 93.2729 14.7524 1376 110.271 204.71 453.852
1336 0 96.2545 16.5499 1593 107.895 204.65 449.167
1337 0 99.2543 15.0321 1492 110.483 204.803 449.652
1338 0 102.257 14.1018 1442 112.193 203.466 448.377
1339 0 104.346 13.5031 1409 111.972 203.8 452.626
1340 0 110.341 15.6968 1732 110.434 203.333 447.223
1341 1 60.1077 11.4129 686 112.243 201.724 473.015
1342 0 60.1049 10.0824 606 109.652 202.365 472.941
1343 0 62.0716 12.9528 804 105.772 201.553 470.108
1344 0 65.0548 11.7286 763 107.081 200.263 467.463
1345 0 65.1844 10.9689 715 107.176 198.13 471.09
1346 0 68.2137 9.70479 662 111.653 198.624 464.104
1347 0 70.0669 14.7002 1030 104.376 197.34 464.701
1348 0 75.1765 13.0759 983 107.061 196.909 460.53
1349 0 74.2624 12.5501 932 107.799 197.093 460.63
1350 0 77.0851 16.3585 1261 103.652 196.536 459.61
1351 0 83.1289 13.858 1152 105.884 196.641 456.94
1352 0 82.0884 13.8387 1136 108.325 195.457 452.805
1353 0 87.2469 17.4333 1521 102.901 196.555 451.332
1354 0 86.3078 12.3396 1065 111.359 195.633 450.043
1355 0 90.2805 15.2414 1376 107.682 196.084 450.249
1356 0 94.3611 14.7624 1393 108.747 195.947 446.172
1357 0 96.1135 14.1499 1360 109.538 195.842 444.376
1358 0 100.236 17.0298 1707 105.997 195.066 441.661
1359 0 104.184 15.847 1651 107.384 195.212 443.248
1360 0 106.313 17.5614 1867 105.218 196.161 445.438
1361 0 106.226 14.6574 1557 111.1 196.547 435.545
1362 0 111.392 14.6151 1628 110.285 197.001 436.653
1363 0 115.248 15.1239 1743 110.89 197.974 425.398
1364 0 120.196 14.5262 1746 110.574 198.955 432.919
1365 0 122.181 16.7865 2051 108.752 198.656 431.682
1366 0 126.347 15.9482 2015 111.544 200.205 427.293
1367 0 130.375 18.1169 2362 107.768 200.647 428.288
1368 0 133.612 21.727 2903 101.847 201.04 429.843
1369 0 142.132 16.0977 2288 108.231 202.171 427.879
1370 1 79.3378 12.5917 999 109.251 202.772 456.909
1371 0 81.3347 13.1063 1066 108.879 202.893 450.228
1372 0 86.7349 13.2357 1148 110.658 203.871 448.034
1373 0 88.4016 15.1129 1336 108.774 203.566 444.646
1374 0 91.4356 14.8848 1361 108.481 204.114 448.012
1375 0 93.2694 13.3377 1244 111.447 204.135 445.192
1376 0 98.4301 14.9751 1474 108.6 205.119 447.374
1377 0 99.4043 17.1824 1708 105.704 205.331 447.841
1378 0 104.517 16.3418 1708 107.096 204.41 444.906
1379 0 105.586 13.0226 1375 111.918 202.488 443.1
1380 0 111.523 14.571 1625 110.695 203.566 443.63
1381 1 59.3774 10.829 643 107.302 203.35 476.776
1382 0 63.4278 13.6218 864 106.931 203.759 466.682
1383 0 68.1081 13.7135 934 106.89 203.011 472.199
1384 0 69.2686 16.833 1166 103.985 203.92 466.734
1385 0 76.8938 15.5669 1197 105.074 202.619 468.058
1386 0 73.1228 10.667 780 112.54 201.165 472.821
1387 0 78.3574 12.443 975 110.749 199.766 468.533
1388 0 80.1063 16.6154 1331 105.532 200.446 465.807
1389 0 85.2197 18.8102 1603 102.831 199.727 462.143
1390 0 85.2197 19.0332 1622 121.922 198.713 462.099
1391 0 85.1359 12.298 1047 113.622 198.996 457.808
1392 0 89.3804 15.8872 1420 109.664 199.466 456.873
1393 0 93.2198 17.9146 1670 106.511 199.371 458.37
1394 0 92.44 14.5608 1346 112.952 199.527 451.987
1395 0 95.4394 15.35 1465 112.276 198.783 449.719
1396 0 95.3415 11.936 1138 119.733 198.363 448.888
1397 0 97.3836 15.1463 1475 115.047 197.121 449.473
1398 0 100.499 14.2191 1429 116.061 198.46 450.804
1399 0 102.247 14.9539 1529 117.105 197.462 445.25
1400 0 105.415 16.8003 1771 114.707 198.403 446.011
1401 0 106.311 14.0908 1498 119.021 198.23 445.645
1402 0 106.421 14.095 1500 121.06 198.016 438.361
1403 0 112.561 15.1563 1706 117.731 197.617 437.199
1404 0 115.685 16.5189 1911 116.538 198.055 432.425
1405 0 117.354 15.9006 1866 117.881 198.304 431.073
1406 0 123.337 14.7239 1816 118.687 199.452 434.311
1407 0 128.237 21.429 2748 109.879 200.455 427.793
1408 0 131.578 17.8297 2346 116.155 200.344 422.572
1409 1 73.3926 16.3913 1203 114.244 200.285 452.17
1410 0 75.4518 14.6186 1103 116.923 200.127 452.125
1411 0 82.5048 16.193 1336 111.127 201.403 450.562
1412 0 80.1721 13.2091 1059 118.112 201.731 444.871
1413 0 83.419 21.8296 1821 105.601 202.108 451.207
1414 0 83.5494 13.7523 1149 120.42 203.155 445.111
1415 0 86.1511 15.5192 1337 115.475 203.827 453.512
1416 0 90.2087 12.2605 1106 120.032 204.361 449.81
1417 0 92.2619 13.5809 1253 118.516 204.489 446.403
1418 0 98.1633 15.026 1475 115.998 204.338 447.405
1419 0 101.286 12.1142 1227 119.974 204.078 444.921
1420 1 57.0402 11.0974 633 114.536 205.136 472.852
1421 0 59.1327 12.9539 766 113.832 204.992 471.034
1422 0 62.1201 15.6793 974 109.498 204.533 468.7
1423 0 64.062 13.0186 834 112.338 204.531 468.518
1424 0 66.1903 11.4367 757 116.217 204.481 466.536
1425 0 69.2723 12.5014 866 115.924 203.283 467.875
1426 0 71.1565 16.007 1139 109.865 202.793 469.55
1427 0 72.1159 11.2042 808 119.379 201.264 466.85
1428 0 75.1597 15.1943 1142 113.32 202.387 467.149
1429 0 77.1794 12.918 997 116.525 200.602 466.404
1430 0 79.1973 10.3918 823 120.32 201.605 461.306
1431 0 83.3466 11.0502 921 116.552 199.782 458.516
1432 0 85.2957 10.235 873 120.722 200.027 452.435
1433 0 89.1612 13.8064 1231 114.862 198.242 453.641
1434 0 91.3496 10.8703 993 120.766 199.205 448.592
1435 0 95.1113 13.7523 1308 119.107 196.091 454.306
1436 1 53.035 13.1234 696 112.315 198.358 475.037
1437 0 56.0688 15.3205 859 105.983 196.837 473.297
1438 0 55.305 11.4818 635 120.603 198.011 470.778
1439 0 55.0579 13.5857 748 115.566 196.972 472.418
1440 0 56.0865 12.5699 705 118.652 196.279 468.024
1441 0 59.1031 13.248 783 117.788 196.728 467.305
1442 0 58.177 11.4822 668 121.97 197.654 466.51
1443 0 61.0537 11.2196 685 123.331 196.658 461.388
1444 0 64.1823 12.5424 805 120.754 197.711 460.884
1445 0 66.1448 13.9089 920 118.496 198.048 458.612
1446 0 67.3453 10.8545 731 123.617 199.356 458.101
1447 0 70.1279 11.5361 809 123.906 199.947 451.143
1448 0 74.2161 15.657 1162 116.123 201.09 448.06
1449 0 76.3823 14.1525 1081 118.448 200.315 451.054
1450 0 75.3823 13.5443 1021 120.632 200.666 446.466
1451 0 86.2367 14.7153 1269 114.825 202.45 453.247
1452 0 82.2642 13.408 1103 132.482 203.543 450.672
1453 0 87.1898 11.8936 1037 123.61 203.605 447.201
1454 0 87.2181 12.3369 1076 123.678 203.233 446.848
1455 0 93.2748 13.2619 1237 121.008 203.233 445.957
1456 0 93.3966 12.024 1123 124.679 204.732 444.432
1457 0 95.4111 11.3509 1083 126.438 204.49 437.181
1458 0 101.251 12.79 1295 126.083 204.276 441.939
1459 0 104.244 12.4803 1301 126.143 204.865 442.456
1460 0 109.389 14.7547 1614 121.535 204.775 440.616
1461 0 111.559 11.6351 1298 125.873 205.371 442.228
1462 0 111.416 11.4256 1273 128.434 205.463 435.855
1463 1 64.3735 12.909 831 118.468 205.301 466.389
1464 0 64.3664 12.9571 834 116.155 204.4 460.687
1465 0 68.3748 13.2066 903 114.31 204.586 458.687
1466 0 67.2877 9.54111 642 123.31 204.603 452.305
1467 0 72.4517 12.3669 896 116.619 204.481 460.22
1468 0 72.3778 14.0651 1018 113.139 203.548 464.346
1469 0 73.3536 13.1691 966 118.334 203.766 458.713
1470 0 78.3501 11.7294 919 119.546 203.126 459.085
1471 0 79.3014 12.8875 1022 118.462 202.903 456.959
1472 0 83.5339 15.2393 1273 114.632 201.618 456.335
1473 0 81.2743 12.3901 1007 120.604 201.314 457.536
1474 0 87.3966 16.5681 1448 113.222 199.874 452.886
1475 0 88.3623 15.4704 1367 115.831 200.295 447.242
1476 0 90.3812 15.5231 1403 116.689 200.058 448.637
1477 0 93.4207 12.6846 1185 120.606 198.946 451.057
1478 0 96.3854 15.1371 1459 117.264 197.881 447.264
1479 0 98.4092 13.4337 1322 119.79 197.017 449.767
1480 0 99.1 10.4743 1038 124.448 196.944 447.958
1481 0 102.274 10.6772 1092 124.129 197.474 446.919
1482 0 110.408 14.9265 1648 116.088 197.034 443.272
1483 1 61.1442 13.2801 812 110.23 196.227 466.6
1484 0 61.2742 11.7178 718 116.106 197.001 464.68
1485 0 65.2132 12.4055 809 115.397 197.452 463.617
1486 0 67.2815 12.1281 816 115.873 196.607 460.414
1487 0 72.3523 13.9871 1012 110.366 197.24 454.805
1488 0 72.4289 13.1163 950 110.336 197.876 452.479
1489 0 73.3522 14.5599 1068 109.026 198.019 453.928
1490 0 73.192 10.7799 789 115.966 199.106 448.373
1491 0 77.3644 15.6661 1212 106.71 199.125 450.408
1492 0 80.3353 13.3192 1070 110.403 199.746 446.642
1493 0 84.4773 12.9147 1091 110.188 200.744 445.747
1494 0 88.2847 11.8933 1050 110.401 200.379 443.274
1495 0 91.5011 13.8359 1266 108.177 201.864 444.536
1496 0 91.1732 16.1232 1470 106.721 202.782 442.324
1497 0 93.1702 10.8404 1010 112.515 202.605 448.219
1498 0 96.3203 14.3687 1384 109.808 203.588 443.226
1499 0 101.193 12.5403 1269 112.839 203.779 441.623
1500 0 104.228 13.2977 1386 111.735 205.278 435.712
1501 0 104.283 11.0948 1157 115.849 204.623 433.768
1502 1 57.2801 11.7493 673 116.698 205.195 453.686
1503 0 58.4874 13.6782 800 113.336 203.54 457.919
1504 0 61.4923 13.4163 825 113.912 203.628 462.154
1505 0 62.1422 10.7656 669 119.091 206.759 458.865
1506 0 68.1314 14.1785 966 112.797 206.594 456.199
1507 0 71.1887 14.286 1017 112.503 207.088 462.152
1508 0 73.1261 12.3896 906 115.652 206.325 462.359
1509 0 72.1339 9.21896 665 122.227 205.83 460.214
1510 0 79.2371 15.5356 1231 111.147 204.203 464.267
1511 0 77.1098 12.9945 1002 117.1 205.238 460.025
1512 0 81.1369 13.1876 1070 116.351 205.334 461.412
1513 0 83.1416 12.3524 1027 117.924 204.024 462.631
1514 0 85.0623 12.3792 1053 119.274 203.325 459.712
1515 0 88.2175 14.7023 1297 116.249 202.969 458.893
1516 0 94.0842 15.5286 1461 114.051 201.488 452.157
1517 0 95.1788 18.439 1755 110.393 201.765 456.663
1518 0 99.1104 16.4463 1630 113.984 201.077 454.009
1519 1 55.1351 13.9476 769 113.952 201.1 474.441
1520 0 55.1651 8.75553 483 121.634 200.348 471.656
1521 0 57.0523 12.1643 694 113.298 199.207 471.79
1522 0 58.1316 13.2286 769 108.592 198.064 470.02
1523 0 59.1347 14.2556 843 106.547 197.052 471.463
1524 0 64.3407 13.1798 848 107.896 195.539 465.718
1525 0 64.4266 13.8607 893 107.466 195.458 465.704
1526 0 65.242 15.9713 1042 105.052 194.795 463.454
1527 0 67.1819 10.226 687 113.588 195.09 462.636
1528 0 69.2077 11.3716 787 112.123 195.684 461.748
1529 0 72.4095 13.7137 993 109.419 195.973 458.1
1530 0 74.3726 14.6425 1089 108.281 195.626 458.574
1531 0 75.2992 11.6203 875 113.079 197.097 455.182
1532 0 78.1554 14.2025 1110 109.709 197.057 448.755
1533 0 78.2881 15.0725 1180 109.001 197.914 450.455
1534 1 158.544 14.3998 2283 114.716 197.67 410.74
1535 1 87.2472 14.2927 1247 108.936 197.976 447.854
1536 0 90.3592 16.7664 1515 104.657 197.99 452.341
1537 0 91.3357 13.5544 1238 111.907 199.883 444.48
1538 0 94.3326 16.4524 1552 107.876 199.68 444.653
1539 0 98.3117 14.6575 1441 111.03 200.299 441.312
1540 0 101.452 12.6366 1282 119.04 200.424 442.211
1541 0 104.155 15.4769 1612 112.719 202.373 442.218
1542 0 105.204 9.71447 1022 118.183 203.387 448.524
1543 0 111.38 12.4439 1386 115.088 203.665 441.029
1544 1 60.1216 13.7721 828 111.493 201.821 462.448
1545 0 61.3217 11.6272 713 114.833 202.384 458.816
1546 0 67.2474 17.1159 1151 105.281 202.756 463.697
1547 0 68.2122 14.7628 1007 110.025 202.743 464.665
1548 0 68.1703 12.8648 877 114.514 202.186 465.381
1549 0 69.2523 10.8588 752 117.439 202.411 465.093
1550 0 71.2438 12.8011 912 114.808 202.414 462.189
1551 0 72.2437 11.9872 866 117.492 202.282 465.029
1552 0 77.185 12.5672 970 116.109 201.67 461.563
1553 0 79.1866 13.8155 1094 114.689 202.325 459.554
1554 0 82.1754 12.4246 1021 116.18 201.629 466.08
1555 0 86.2374 14.6224 1261 112.698 201.588 462.969
1556 0 89.2048 13.0374 1163 114.578 201.175 462.824
1557 0 91.2874 17.4504 1593 108.441 200.903 461.154
1558 0 94.2362 14.5273 1369 110.614 200.107 461.019
1559 0 96.3481 12.0293 1159 113.861 199 457.171
1560 0 100.328 15.1403 1519 109.289 198.962 452.521
1561 1 54.218 9.94136 539 117.325 197.584 475.019
1562 0 56.2638 13.7566 774 111.42 197.496 473.634
1563 0 58.348 14.6192 853 109.533 195.597 475.499
1564 0 58.2775 12.6979 740 114.289 195.695 471.389
1565 0 62.1044 13.9604 867 113.277 195.559 470.351
1566 0 63.1769 14.1191 892 115.586 194.642 472.654
1567 0 66.1497 13.4543 890 117.585 193.672 468.58
1568 0 66.1735 14.3411 949 117.782 195.027 463.148
1569 0 69.1893 17.3582 1201 112.176 194.813 463.216
1570 0 71.2768 13.6791 975 118.291 195.409 466.009
1571 0 74.3326 19.1975 1427 109.094 194.21 460.093
1572 0 73.4096 13.0501 958 119.868 194.521 460.377
1573 0 78.3644 14.8409 1163 116.544 194.73 459.202
1574 0 80.2863 14.4483 1160 117.649 195.603 456.861
1575 0 81.1603 12.6909 1030 121.565 195.617 453.996
1576 0 85.2762 13.8608 1182 119.524 196.02 448.069
1577 0 90.2774 15.8179 1428 115.111 197.35 449.737
1578 0 89.4218 14.1017 1261 120.613 198.518 444.365
1579 0 92.4004 14.2748 1319 120.157 198.674 444.422
1580 0 95.2581 13.7101 1306 121.31 198.974 443.413
1581 0 101.316 18.8915 1914 112.423 199.533 443.074
1582 0 103.24 12.7277 1314 122.174 200.831 439.784
1583 0 111.475 25.4586 2838 101.64 201.843 435.745
1584 0 110.733 16.4811 1825 114.966 202.45 437.918
1585 0 111.544 15.3482 1712 116.518 202.875 439.124
1586 0 112.36 14.7116 1653 117.271 202.721 431.121
1587 1 61.4364 11.3939 700 112.194 205.391 461.054
1588 0 64.3259 12.5766 809 114.67 203.917 462.01
1589 0 65.257 12.6423 825 114.434 204.068 460.056
1590 0 68.409 13.7117 938 112.882 203.736 460.258
1591 0 71.2597 15.2541 1087 110.306 203.618 462.718
1592 0 73.3463 14.8474 1089 111.6 203.761 462.12
1593 0 74.2421 11.8262 878 116.867 203.478 459.823
1594 0 81.2373 13.8729 1127 112.916 202.775 459.877
1595 0 82.2825 12.214 1005 115.911 201.924 458.276
1596 0 87.3911 14.4408 1262 113.859 202.842 458.866
1597 0 90.2478 13.4075 1210 115.411 202.055 463.05
1598 0 92.3965 13.5611 1253 116.283 201.499 457.658
1599 0 94.3148 17.9611 1694 109.156 201.225 457.345
1600 1 46.1152 10.8641 501 115.056 198.216 482.216
1601 0 52.2423 10.9873 574 116.38 197.962 482.791
1602 0 52.2015 12.854 671 116.796 197.747 477.73
1603 0 56.2147 16.1523 908 110.798 197.509 476.228
1604 0 55.2802 13.2959 735 116.884 198.08 475.05
1605 0 54.5487 11.6227 634 122.538 198.008 476.409
1606 0 57.4209 13.1137 753 118.928 197.331 476.048
1607 0 58.3673 13.1923 770 120.018 196.653 472.562
1608 0 59.3202 12.5421 744 121.292 196.817 470.888
1609 0 63.2681 15.9322 1008 114.283 197.042 471.556
1610 0 63.3953 15.6952 995 115.259 196.505 469.453
1611 0 67.6464 16.468 1114 114.675 196.917 465.869
1612 0 67.3489 12.903 869 121.864 196.59 461.441
1613 0 71.3845 20.1864 1441 108.12 196.487 466.6
1614 0 75.2576 14.8424 1117 117.617 195.251 461.447
1615 0 74.6921 12.5315 936 121.929 196.318 461.697
1616 0 83.4485 24.0028 2003 103.288 195.362 453.207
1617 0 82.434 15.8794 1309 116.795 195.734 453.117
1618 0 84.2173 15.6737 1320 117.73 196.641 451.452
1619 0 86.3165 15.9297 1375 112.985 197.844 456.662
1620 1 47.2305 13.974 660 114.252 197.524 468.032
1621 0 47.0987 13.9494 657 112.979 197.371 459.661
1622 0 50.5607 14.8534 751 111.667 200.41 457.88
1623 0 50.7027 13.8849 704 115.776 202.034 461.172
1624 0 50.0855 12.7981 641 122.179 200.279 467.618
1625 0 53.1664 11.8308 629 121.709 199.668 469.984
1626 0 54.1506 12.576 681 120.53 200.673 466.405
1627 0 56.1694 16.1832 909 114.734 200.937 467.031
1628 0 58.2752 15.8558 924 115.653 201.785 467.037
1629 0 60.0354 12.8091 769 120.965 202.345 466.811
1630 0 62.1006 15.5071 963 115.996 202.61 469.162
1631 0 63.0845 13.3947 845 120.612 202.884 464.51
1632 0 66.1264 13.943 922 118.754 202.696 466.245
1633 0 67.2091 16.0395 1078 115.77 203.445 467.04
1634 0 70.3616 16.3299 1149 115.487 203.135 465.409
1635 0 71.0836 16.0937 1144 115.647 204.26 467.22
1636 0 72.0983 17.3513 1251 114.129 202.542 465.417
1637 0 84.2026 22.7547 1916 101.403 202.51 465.05
1638 0 81.3444 16.0921 1309 111.968 203.578 462.247
1639 0 84.1994 17.3517 1461 109.914 203.02 463.003
1640 0 84.1575 19.8081 1667 107.454 203.056 456.549
1641 0 83.2334 13.324 1109 120.202 201.179 462.025
1642 0 86.1452 17.2964 1490 114.269 201.528 460.618
1643 0 88.2063 16.2233 1431 115.79 200.843 457.573
1644 0 92.3232 17.1463 1583 114.042 200.241 460.641
1645 0 95.4851 17.3011 1652 114.219 199.533 451.905
1646 0 103.348 19.8747 2054 106.984 198.215 446.064
1647 0 102.46 19.715 2020 108.211 198.225 445.679
1648 0 100.356 13.3226 1337 119.096 198.756 447.304
1649 0 104.315 14.2549 1487 116.484 197.773 447.777
1650 0 108.39 14.4939 1571 117.708 198.144 445.661
1651 1 60.2102 13.1041 789 116.061 196.592 469.199
1652 0 63.1629 12.2065 771 118.942 196.601 462.394
1653 0 64.1877 12.5102 803 117.401 196.075 464.508
1654 1 79.5004 21.1697 1683 100.669 195.258 454.1
1655 0 85.3241 17.5566 1498 103.822 194.975 451.204
1656 0 82.6015 27.5903 2279 94.1145 194.684 449.309
1657 0 87.5134 22.3509 1956 98.9381 194.446 446.971
1658 0 90.7397 26.835 2435 95.152 194.737 450.943
1659 0 87.6125 20.4423 1791 104.123 195.52 443.726
1660 0 90.588 16.8676 1528 110.265 196.101 445.827
1661 0 83.3763 13.8648 1156 118.651 196.367 441.764
1662 0 90.5894 13.9199 1261 118.126 195.695 441.521
1663 0 93.3727 15.1543 1415 117.242 196.948 438.837
1664 0 97.665 16.0754 1570 114.672 198.743 439.399
1665 0 99.4414 16.5927 1650 115.645 198.28 434.351
1666 0 106.341 15.77 1677 117.41 199.63 429.903
1667 0 108.621 16.8107 1826 117.258 199.584 430.891
1668 1 60.6448 14.3788 872 119.05 200.283 455.909
1669 0 59.431 12.2495 728 120.538 200.078 457.827
1670 0 65.2879 13.5707 886 118.567 201.143 457.806
1671 0 66.2625 14.1256 936 115.188 200.967 455.995
1672 0 69.4559 14.0665 977 114.136 201.531 457.646
1673 0 72.3517 10.6425 770 122.727 202.113 455.553
1674 0 74.4203 12.9534 964 118.073 203.243 456.267
1675 0 77.3003 13.1306 1015 114.855 203.772 456.939
1676 0 74.3509 10.2622 763 120.223 201.844 453.817
1677 0 80.3547 12.9177 1038 115.86 202.681 455.241
1678 0 83.3389 12.8871 1074 115.431 203.529 458.149
1679 0 82.6726 13.1241 1085 116.947 202.768 455.351
1680 0 94.6107 17.8838 1692 106.02 201.015 450.87
1681 0 92.2318 15.3635 1417 111.692 200.606 450.719
1682 0 92.4615 10.3502 957 121.926 200.272 447.387
1683 0 98.401 12.8657 1266 116.155 199.919 454.39
1684 0 98.6785 10.7217 1058 120.872 200.16 450.415
1685 0 105.851 14.0859 1491 114.905 199.812 450.954
1686 1 59.3131 14.9883 889 110.126 198.369 471.83
1687 0 60.1729 14.5913 878 112.075 199.454 470.174
1688 0 58.1718 9.33441 543 116.376 198.262 467.355
1689 0 63.489 10.1277 643 114.386 198.694 468.009
1690 0 64.384 12.5497 808 112.15 197.282 462.282
1691 0 65.25 11.5096 751 114.647 197.053 461.481
1692 0 64.4395 7.43333 479 121.23 197.259 461.998
1693 0 67.3101 11.3802 766 116.431 196.309 455.234
1694 0 69.2374 11.5833 802 115.903 196.153 453.458
1695 0 78.3757 12.708 996 112.806 195.426 454.503
1696 0 78.2273 13.4096 1049 112.675 195.553 455.573
1697 0 82.5137 15.864 1309 111.607 196.559 456.703
1698 0 85.3561 14.0705 1201 114.828 194.276 452.624
1699 0 86.3397 13.9913 1208 114.257 193.7 455.011
1700 0 92.3034 15.0699 1391 111.682 194.458 448.904
1701 0 91.299 12.7931 1168 118.132 194.515 446.191
1702 0 94.5582 11.7917 1115 116.784 196.915 439.359
1703 0 100.225 13.4697 1350 111.615 195.947 444.872
1704 0 102.401 11.3866 1166 114.463 197.503 436.977
1705 0 107.309 12.4128 1332 111.992 196.638 436.611
1706 1 61.1502 11.3327 693 108.776 197.332 461.374
1707 0 63.2168 13.256 838 107.111 199.532 461.033
1708 0 64.3751 14.8194 954 110.982 199.962 459.743
1709 0 67.3398 13.3947 902 113.682 199.412 457.478
1710 0 68.4182 13.4906 923 114.297 200.524 455.595
1711 0 67.6466 11.7966 798 118.274 201.315 452.262
1712 0 71.363 10.6778 762 118.147 201.457 452.45
1713 0 79.3757 14.8408 1178 110.151 202.593 454.533
1714 0 79.3661 13.7968 1095 112.222 202.865 454.059
1715 0 80.4239 14.4733 1164 111.76 203.475 453.832
1716 0 83.4252 12.2745 1024 115.618 204.515 451.848
1717 0 85.3841 13.3866 1143 114.716 204.004 448.968
1718 0 88.4434 10.4361 923 120.109 204.512 450.878
1719 0 91.2976 13.5381 1236 115.546 204.497 445.684
1720 0 98.3881 16.4349 1617 110.192 204.664 449.102
1721 0 99.4329 16.1516 1606 111.791 204.146 446.809
1722 0 101.257 11.1104 1125 120.448 204.275 453.479
1723 0 101.305 10.6016 1074 120.264 203.099 445.232
1724 0 107.186 12.5856 1349 116.795 203.015 447.613
1725 0 113.327 14.3743 1629 112.427 202.411 445.736
1726 0 117.481 11.704 1375 115.066 201.186 447.481
1727 0 119.29 14.033 1674 111.417 201.297 444.224
1728 0 124.328 12.6842 1577 114.202 201.343 438.737
1729 0 125.178 10.2894 1288 118.079 199.621 438.825
1730 0 135.299 13.8139 1869 112.778 199.358 435.588
1731 0 140.229 14.8614 2084 112.241 197.536 432.973
1732 0 142.42 14.3659 2046 113.84 198.086 429.545
1733 0 145.526 12.2796 1787 122.037 197.491 425.846
1734 1 74.3034 11.7222 871 115.964 196.563 463.977
1735 0 78.5016 14.7768 1160 109.797 194.995 466.184
1736 0 78.289 12.5433 982 114.648 196.06 462.537
1737 0 82.4111 10.4476 861 117.815 195.256 463.83
1738 0 84.4633 13.0116 1099 114.022 195.364 460.637
1739 0 87.5724 14.9476 1309 112.089 195.084 456.478
1740 0 90.3419 15.3196 1384 112.225 194.668 451.623
1741 0 93.5896 15.4184 1443 111.928 195.933 452.606
1742 0 93.5036 15.3898 1439 112.034 195.183 451.618
1743 0 97.4909 16.4733 1606 111.284 195.044 440.995
1744 1 63.3571 10.4961 665 118.762 195.162 461.558
1745 0 65.316 11.6051 758 116.33 195.342 462.013
1746 0 62.3236 8.93722 557 123.32 195.645 455.56
1747 0 62.2393 10.9416 681 117.808 196.537 461.698
1748 0 61.4469 14.9397 918 112.444 196.179 459.87
1749 0 71.1185 10.7708 766 109.902 198.371 460.499
1750 0 68.9156 12.5081 862 107.988 198.655 458.824
1751 0 69.2793 15.5169 1075 108.413 199.332 454.869
1752 0 71.2884 15.0656 1074 110.23 199.954 451.144
1753 0 71.6404 14.0563 1007 111.035 200.708 454.063
1754 0 73.3919 14.2114 1043 110.48 201.437 456.651
1755 0 76.4366 14.1293 1080 112.578 202.147 452.644
1756 0 78.3698 12.0199 942 112.554 202.057 455.227
1757 0 78.3147 10.3812 813 117.748 202.333 450.855
1758 0 86.5218 12.8407 1111 110.607 203.896 456.068
1759 0 85.8736 13.3685 1148 114.153 203.62 453.23
1760 0 88.5375 13.4632 1192 113.659 203.837 451.581
1761 0 93.2932 14.4812 1351 113.395 203.574 446.464
1762 0 95.3659 14.7852 1410 113.421 204.162 445.755
1763 0 100.491 14.668 1474 114.037 203.996 447.501
1764 0 99.3184 12.1629 1208 117.96 203.741 450.32
1765 0 106.46 15.5457 1655 113.166 203.022 444.659
1766 0 109.489 12.0195 1316 118.184 202.914 444.045
1767 0 111.373 10.5232 1172 120.625 202.642 443.011
1768 1 62.5602 8.51979 533 122.495 201.972 463.88
1769 0 66.302 10.9801 728 118.648 201.473 457.849
1770 0 71.485 14.7444 1054 111.124 202.394 458.681
1771 0 70.4638 11.4101 804 116.96 200.69 454.405
1772 0 75.2498 12.5183 942 116.39 199.407 466.304
1773 0 73.2982 12.1831 893 115.108 199.263 465.254
1774 0 76.3038 13.1186 1001 115.029 199.48 461.351
1775 0 84.3241 14.9661 1262 111.521 198.868 462.424
1776 0 86.4356 14.103 1219 112.491 198.382 452.851
1777 0 88.5175 11.9073 1054 115.594 197.953 448.903
1778 0 88.7226 10.1553 901 118.296 197.065 449.471
1779 0 91.4464 10.3558 947 117.746 196.61 451.341
1780 0 97.489 14.0939 1374 111.205 196.239 450.598
1781 0 103.764 16.8556 1749 106.543 197.511 449.523
1782 1 59.5882 15.3218 913 101.143 197.194 472.311
1783 0 60.5446 11.1323 674 106.496 197.295 468.745
1784 0 61.3787 10.5574 648 106.431 197 467.62
1785 0 58.4239 11.8273 691 109.072 197.395 462.747
1786 0 63.2641 11.9499 756 109.011 196.566 462.819
1787 0 67.2713 16.4855 1109 102.603 197.069 459.56
1788 0 67.113 13.5443 909 106.833 196.561 459.938
1789 0 69.1491 11.6415 805 109.106 197.417 460.22
1790 0 73.2539 14.2655 1045 107.398 198.86 454.123
1791 0 74.2065 12.6404 938 110.31 199.453 449.622
1792 0 78.5678 12.677 996 110.387 200.302 451.18
1793 0 78.357 10.2735 805 116.867 200.113 449.183
1794 0 80.2611 13.182 1058 113.198 201.215 446.805
1795 0 84.3203 14.3856 1213 110.567 201.115 445.697
1796 0 90.3826 13.0888 1183 111.002 201.705 440.251
1797 0 90.2325 12.2794 1108 113.529 201.918 439.949
1798 0 93.4807 15.6503 1463 107.828 203.193 443.394
1799 0 97.5208 8.72634 851 119.508 203.271 440.861
1800 0 99.278 9.73025 966 117.644 203.689 445.758
1801 0 103.601 12.5095 1296 115.549 204.662 441.802
1802 0 109.413 14.6234 1600 112.23 204.412 441.221
1803 0 111.475 12.1552 1355 116.317 204.497 441.635
1804 0 111.236 13.5837 1511 117.637 203.704 440.266
1805 1 58.0547 11.2997 656 119.384 204.643 461.655
1806 0 63.3425 10.8142 685 119.844 203.597 458.286
1807 0 65.1257 9.15154 596 122.586 205.247 462.173
1808 0 66.0324 10.5403 696 122.437 204.455 458.537
1809 0 72.1263 12.9495 934 116.486 205.354 461.186
1810 0 75.0442 13.2589 995 115.895 204.513 465.199
1811 0 76.2422 14.5195 1107 113.891 204.702 464.028
1812 0 79.1163 11.7549 930 119.091 203.903 461.702
1813 0 82.2808 15.7266 1294 112.448 204.001 458.839
1814 0 92.3055 15.6004 1440 108.444 202.37 468.015
1815 0 87.233 12.9424 1129 117.804 201.676 457.911
1816 0 90.3158 11.0058 994 121.377 201.041 457.674
1817 0 92.1661 11.7397 1082 120.733 200.799 452.8
1818 0 96.3273 14.3158 1379 116.245 199.604 452.996
1819 0 101.162 15.6679 1585 113.379 198.346 452.349
1820 1 56.0998 11.9965 673 110.874 200.104 476.71
1821 0 56.1372 11.2403 631 113.859 198.983 471.029
1822 0 58.2853 10.0712 587 113.012 198.785 472.605
1823 0 59.3983 10.5559 627 110.356 197.96 471.463
1824 0 59.2927 14.7404 874 106.23 196.695 466.701
1825 0 62.4062 11.4412 714 111.22 197.176 464.78
1826 0 66.2969 13.2284 877 108.122 197.924 464.83
1827 0 65.3496 13.2059 863 113.48 197.167 462.112
1828 0 68.2189 11.5364 787 115.675 196.972 461.835
1829 0 72.4493 13.7751 998 111.87 196.951 460.779
1830 0 71.3256 10.7114 764 118.141 197.87 458.781
1831 0 72.33 13.4384 972 115.082 197.025 453.958
1832 0 75.245 14.1405 1064 112.877 196.82 452.695
1833 0 78.3148 13.4457 1053 114.622 197.011 448.019
1834 0 79.2181 16.3978 1299 109.831 198.681 449.077
1835 0 78.5397 10.5679 830 121.03 198.478 446.658
1836 0 87.3908 14.0289 1226 112.449 199.857 450.577
1837 0 84.4469 12.5049 1056 117.601 199.918 443.536
1838 0 86.3957 13.6928 1183 116.045 200.902 439.76
1839 0 93.5587 14.1622 1325 113.133 200.62 444.58
1840 0 96.4605 15.9236 1536 111.594 201.275 440.143
1841 0 98.3402 14.1549 1392 115.675 201.247 437.394
1842 1 54.1003 8.33637 451 117.849 202.998 460.093
1843 0 56.1696 10.1122 568 115.007 202.701 460.648
1844 0 57.433 11.9966 689 110.84 201.466 461.626
1845 0 59.6745 11.4119 681 111.223 201.589 461.593
1846 0 57.1186 11.5899 662 108.846 201.003 457.787
1847 0 60.0321 9.79476 588 111.012 200.872 462.085
1848 0 59.0516 11.5153 680 107.41 202.447 462.665
1849 0 57.1746 10.7215 613 110.754 201.809 460.289
1850 0 59.0928 12.8611 760 108.008 200.932 461.304
1851 0 64.1035 11.107 712 113.419 201.664 459.414
1852 0 65.0479 9.90039 644 116.158 200.958 460.36
1853 0 69.1464 13.1894 912 110.228 201.346 459.16
1854 0 70.1883 11.5119 808 110.851 200.897 459.088
1855 0 68.0525 12.6373 860 110.762 200.533 456.369
1856 0 73.0934 15.4734 1131 106.166 200.387 457.562
1857 0 75.2421 11.8684 893 111.892 198.615 455.785
1858 0 79.3117 12.7598 1012 112.746 198.473 455.449
1859 0 83.0767 14.5649 1210 107.867 197.24 454.654
1860 0 86.2899 12.4696 1076 114.631 196.244 452.12
1861 0 92.2095 12.3198 1136 117.627 196.199 453.376
1862 0 99.2004 14.5161 1440 113.447 195.56 453.522
1863 0 98.2033 14.3172 1406 113.036 195.747 454.367
1864 0 110.579 19.0994 2112 104.012 194.633 438.351
1865 1 59.3251 13.0299 773 110.505 194.014 469.028
1866 0 53.187 8.15989 434 123.306 194.085 463.318
1867 0 58.1245 9.80654 570 120.528 193.989 460.598
1868 0 59.072 10.1571 600 120.228 194.173 460.108
1869 0 60.1647 12.5821 757 115.301 196.067 463.428
1870 0 60.2067 12.2744 739 116.313 195.659 461.494
1871 0 65.3558 12.4396 813 115.18 195.162 459.422
1872 0 67.4046 12.017 810 114.623 194.456 458.626
1873 0 67.4684 11.8426 799 116.753 194.464 455.627
1874 0 70.6251 11.3699 803 118.391 195.34 451.874
1875 0 70.2856 12.6057 886 113.428 195.396 450.67
1876 0 65.2076 11.6091 757 118.547 196.042 444.152
1877 0 70.4084 12.7115 895 116.876 196.504 444.396
1878 0 75.3417 11.5076 867 116.941 197.144 444.416
1879 0 77.3561 11.8931 920 117.616 198.095 437.918
1880 0 80.296 13.8986 1116 114.385 199.004 436.426
1881 0 81.4224 10.9429 891 120.864 199.18 434.146
1882 0 89.4534 13.9179 1245 116.188 199.708 439.218
1883 0 93.3389 11.1743 1043 119.619 200.02 437.549
1884 0 94.5955 10.7722 1019 118.754 200.428 440.888
1885 0 97.8465 12.7036 1243 116.039 200.053 437.348
1886 1 55.119 12.9901 716 112.5 198.334 457.718
1887 0 48.0916 8.35905 402 123.985 200.627 456.266
1888 0 54.1575 10.3771 562 118.352 200.137 458.226
1889 0 54.1575 10.2663 556 124.009 199.169 457.987
1890 0 53.4048 8.35131 446 119.935 202.98 454.022
1891 0 52.3419 9.87736 517 117.805 203.662 455.816
1892 0 58.5935 9.91578 581 118.222 202.349 457.454
1893 0 58.4352 12.7149 743 114.168 202.349 459.288
1894 0 65.3094 10.902 712 118.695 201.779 456.565
1895 0 65.3587 10.297 673 120.088 202.256 458.309
1896 0 66.3331 13.191 875 115.314 201.789 458
1897 0 71.3121 10.0965 720 120.512 201.915 458.469
1898 0 72.3909 13.4824 976 115.068 201.398 455.934
1899 0 75.4783 11.6987 883 117.738 201.362 454.18
1900 0 79.3477 13.2329 1050 115.119 200.108 455.276
1901 0 84.2688 16.1863 1364 109.438 199.504 450.833
1902 0 81.3906 13.7485 1119 116.792 199.419 448.069
1903 0 83.5561 10.8789 909 121.045 198.376 454.57
1904 0 82.4714 12.1618 1003 119.509 197.561 447.037
1905 0 88.5799 11.6731 1034 118.598 196.783 448.261
1906 0 97.8262 13.1253 1284 118.294 196.51 450.752
1907 0 102.746 13.9567 1434 116.448 196.872 447.47
1908 0 102.651 9.92683 1019 119.447 196.47 444.723
1909 0 106.561 9.20604 981 116.818 196.282 444.63
1910 0 110.39 12.7639 1409 111.41 196.546 444.808
1911 0 112.56 11.2118 1262 114.109 195.723 438.189
1912 0 118.299 9.94932 1177 114.948 195.889 440.206
1913 1 69.2472 12.5204 867 105.34 195.163 464.567
1914 0 69.2472 12.6214 874 113.18 194.143 464.584
1915 0 71.3903 12.4247 887 105.507 195.667 458.26
1916 0 74.5611 14.9944 1118 101.144 196.26 460.827
1917 0 73.4307 8.60676 632 111.665 195.69 455.714
1918 0 77.2698 13.5887 1050 104.17 197.045 454.066
1919 0 79.3273 15.6314 1240 102.081 196.398 448.593
1920 0 84.3276 13.2222 1115 104.649 197.104 451.464
1921 0 83.5306 11.4569 957 108.253 197.307 449.96
1922 0 87.5181 16.3966 1435 100.131 197.538 444.884
1923 0 93.3315 13.3824 1249 103.176 196.972 436.588
1924 0 97.2954 16.2803 1584 100.804 199.44 442.492
1925 0 96.4479 13.0122 1255 105.528 199.603 441.88
1926 0 100.514 11.093 1115 108.888 200.517 439.415
1927 0 108.666 14.9081 1620 101.68 200.77 446.096
1928 0 107.238 14.9854 1607 105.227 201.019 440.466
1929 0 109.4 12.2943 1345 108.372 200.731 434.364
1930 1 59.2428 10.5836 627 106.888 201.179 461.431
1931 0 58.2166 11.0278 642 109.287 201.684 455.978
1932 0 63.3178 14.2298 901 103.526 202.216 457.88
1933 0 65.4191 17.2427 1128 99.3874 203.355 459.26
1934 0 63.4282 12.0294 763 109.178 203.358 452.499
1935 0 66.312 17.8248 1182 100.931 202.497 458.697
1936 0 68.5543 16.2061 1111 103.339 202.827 460.923
1937 0 69.4125 12.188 846 109.335 201.981 464.952
1938 0 71.3282 14.1178 1007 108.54 202.337 460.996
1939 0 76.3417 16.675 1273 108.463 201.668 453.701
1940 0 79.6022 14.4092 1147 110.794 200.443 459.895
1941 0 81.4546 14.1674 1154 112.469 200.912 459.28
1942 0 83.6688 13.4698 1127 113.737 200.82 459.02
1943 0 85.2718 14.1313 1205 113.332 199.66 457.898
1944 0 89.4423 18.1346 1622 105.69 199.92 454.901
1945 0 89.3209 15.0805 1347 112.056 197.312 452.604
1946 0 93.3731 16.0967 1503 108.682 197.845 454.902
1947 0 93.2698 12.7694 1191 114.612 196.505 453.98
1948 0 97.1661 16.5696 1610 107.07 196.077 456.625
1949 0 100.241 15.0337 1507 109.606 195.678 450.717
1950 0 103.366 16.6882 1725 106.867 196.063 441.094
1951 0 106.361 11.8653 1262 113.335 194.466 447.946
1952 0 111.403 16.2474 1810 106.313 194.286 451.078
1953 1 62.3248 12.5953 785 110.991 193.924 467.234
1954 0 66.3877 12.7433 846 107.194 193.664 472.254
1955 0 68.2804 11.8043 806 108.908 194.277 467.212
1956 0 67.2169 14.8177 996 103.351 193.439 460.99
1957 0 71.3225 11.6513 831 105.534 193.103 463.063
1958 0 73.4246 18.536 1361 98.5753 194.366 459.176
1959 0 72.2567 12.7324 920 107.245 194.696 455.672
1960 0 77.3437 16.0323 1240 101.033 195.085 451.891
1961 0 78.3577 9.62254 754 108.664 194.651 454.619
1962 0 82.4932 13.6375 1125 103.891 195.302 452.992
1963 0 83.1316 15.2409 1267 102.766 195.615 449.892
1964 0 86.4362 14.5309 1256 103.803 195.899 445.086
1965 0 90.1346 19.4598 1754 97.5348 197.172 442.425
1966 0 91.6237 11.5254 1056 109.21 197.05 439.662
1967 0 93.4417 13.5379 1265 106.601 198.428 436.837
1968 0 98.5209 15.3673 1514 103.958 198.91 436.485
1969 0 102.559 15.4643 1586 103.481 199.476 438.281
1970 0 105.644 15.0506 1590 104.594 200.329 436.482
1971 0 106.258 11.6039 1233 111.265 200.672 432.032
1972 0 110.901 14.5175 1610 105.913 201.208 434.999
1973 0 114.191 12.3565 1411 110.021 200.503 427.449
1974 0 118.842 13.8504 1646 106.655 201.221 435.693
1975 1 65.2087 10.7194 699 109.987 201.385 459.132
1976 0 69.372 13.6943 950 106.162 201.288 456.145
1977 0 69.4533 11.8641 824 109.636 202.302 452.405
1978 0 74.6693 15.1602 1132 104.375 202.835 449.845
1979 0 76.3809 15.5536 1188 102.617 202.11 456.655
1980 0 78.3761 10.322 809 112.307 201.628 447.44
1981 0 84.8242 15.2904 1297 102.744 202.03 453.883
1982 1 157.788 11.376 1795 110.935 201.543 416.906
1983 1 88.8006 14.9323 1326 105.299 200.76 451.928
1984 0 92.5645 13.839 1281 105.6 201.489 455.788
1985 0 98.984 16.2249 1606 102.044 200.75 452.742
1986 0 100.687 17.8771 1800 99.545 201.054 451.541
1987 0 103.889 17.8075 1850 100.498 198.464 447.061
1988 0 103.628 13.3748 1386 107.882 198.396 440.334
1989 0 107.702 12.5996 1357 110.281 196.387 444.167
1990 0 108.332 13.9202 1508 108.597 197.239 433.475
1991 0 113.506 13.6733 1552 107.903 196.401 432.073
1992 0 115.277 15.0941 1740 106.001 195.533 433.309
1993 0 121.629 13.7549 1673 106.944 195.252 435.352
1994 1 62.1179 9.57856 595 109.536 194.516 460.119
1995 0 63.2514 9.89702 626 109.126 193.837 458.743
1996 0 65.1925 12.3787 807 105.537 194.055 451.275
1997 0 68.1526 12.4867 851 105.85 193.062 450.655
1998 0 76.0914 14.1672 1078 101.564 193.044 453.039
1999 0 74.1879 13.2367 982 103.875 192.054 450.744
2000 0 77.1313 12.9131 996 104.813 192.408 448.97
2001 0 75.1094 11.4899 863 108.466 191.521 443.393
2002 0 79.1437 11.9024 942 106.69 192.869 451.243
2003 0 84.1366 15.4511 1300 102.094 193.043 446.532
2004 0 82.1418 12.5028 1027 108.245 194.702 437.52
2005 0 86.1383 11.6557 1004 110.206 195.212 434.152
2006 0 90.1185 12.3726 1115 106.9 194.042 439.283
2007 0 92.2734 12.0945 1116 109.306 195.524 436.721
2008 0 93.103 17.2605 1607 100.93 196.412 439.315
2009 0 98.1139 12.6893 1245 109.19 197.456 431.847
2010 0 98.1467 17.0968 1678 104.337 199.182 430.057
2011 0 98.3098 14.5255 1428 108.927 199.522 428.3
2012 0 106.404 11.5786 1232 112.877 200.45 426.019
2013 0 111.311 14.1226 1572 109.039 199.872 428.835
2014 0 115.289 17.3217 1997 104.475 201.162 417.127
2015 0 118.222 14.7266 1741 108.298 200.732 431.435
2016 1 65.1126 15.4655 1007 99.9384 200.961 456.603
2017 0 66.0945 13.8892 918 101.102 200.612 451.169
2018 0 74.6714 14.6642 1095 97.8091 202.22 454.766
2019 0 71.1661 16.7636 1193 97.4753 202.647 453.557
2020 0 71.1353 13.2002 939 103.634 201.797 448.964
2021 0 78.5034 15.5662 1222 99.27 201.903 446.409
2022 0 80.1278 12.3677 991 103.597 201.916 451.508
2023 0 83.1437 12.6889 1055 103.797 201.469 449.987
2024 0 87.2038 13.3022 1160 102.342 201.24 454.465
2025 0 89.2024 13.5871 1212 104.243 200.032 450.474
2026 0 93.1588 11.9044 1109 107.285 201.62 456.356
2027 0 95.19 10.5788 1007 112.02 200.472 457.39
2028 0 99.3341 12.4731 1239 108.31 199.911 459.525
2029 0 99.2897 13.0527 1296 108.002 202.354 459.458
2030 0 102.285 13.345 1365 109.404 200.918 449.413
2031 0 107.452 11.9867 1288 111.089 201.142 452.386
2032 0 111.259 15.0639 1676 107.329 200.569 446.46
2033 0 115.637 13.8624 1603 109.936 199.49 445.436
2034 0 119.709 15.7715 1888 107.749 198.175 440.74
2035 0 112.25 13.7817 1547 107.502 197.788 433.297
2036 0 121.489 10.6182 1290 111.497 197.714 435.005
2037 1 192.481 8.86842 1707 115.748 197.511 408.382
2038 1 72.2894 8.97781 649 104.724 196.706 456.103
2039 0 76.2071 11.4425 872 100.409 196.347 458.216
2040 0 76.1379 5.00408 381 106.929 195.22 451.837
2041 0 81.2737 10.9137 887 103.257 196.833 450.108
2042 0 83.3604 12.0321 1003 102.756 196.259 446.413
2043 0 81.301 11.4267 929 104.751 196.477 445.491
2044 0 87.3698 12.0408 1052 102.497 195.778 445.639
2045 0 87.31 13.3089 1162 101.707 195.645 443.809
2046 0 83.1724 11.8549 986 105.232 195.937 439.842
2047 0 89.5092 13.6299 1220 103.093 196.655 437.344
2048 0 95.3568 8.94535 853 108.302 197.385 434.762
2049 0 93.3542 10.4762 978 138.358 198.261 437.011
2050 0 99.4267 9.73582 968 108.87 198.716 430.063
2051 0 103.273 15.58 1609 101.378 199.476 431.72
2052 0 104.354 12.0551 1258 106.064 199.021 431.304
2053 0 111.349 12.4025 1381 104.195 199.795 433.647
2054 0 112.349 14.0366 1577 104.973 200.632 428.709
2055 0 114.555 12.2997 1409 107.39 202.355 427.318
2056 0 119.335 13.24 1580 106.071 201.666 426.795
2057 0 122.253 11.5744 1415 108.089 203.017 426.18
2058 0 122.253 11.6807 1428 135.362 204.004 425.982
2059 1 71.1215 10.7562 765 110.655 202.813 451.95
2060 0 75.1015 11.4911 863 107.636 201.829 451.138
2061 0 76.264 10.6079 809 111.031 202.078 448.206
2062 0 79.1805 11.7201 928 107.269 202.684 451.27
2063 0 83.3892 10.0972 842 110.866 202.715 447.252
2064 0 86.4221 11.305 977 109.529 203.856 447.376
2065 0 85.3118 12.929 1103 108.505 202.5 444.162
2066 0 94.1512 12.618 1188 108.509 203.237 446.875
2067 0 97.2842 11.2557 1095 110.948 201.512 448.78
2068 0 101.277 12.0066 1216 110.75 201.864 446.198
2069 0 105.341 10.4423 1100 113.664 200.981 443.45
2070 1 57.2709 12.502 716 105.189 200.806 465.556
2071 0 61.1936 8.2525 505 112.291 199.523 468.62
2072 0 62.3274 10.5892 660 111.698 198.782 459.492
2073 0 63.3173 10.9449 693 140.433 197.981 460.391
2074 0 71.0718 12.9306 919 110.201 201.465 466.891
2075 0 74.0367 13.6824 1013 109.446 199.717 465.926
2076 0 71.2768 13.3424 951 110.453 198.525 468.75
2077 0 75.0824 18.4997 1389 102.813 198.634 466.837
2078 0 79.2618 14.4963 1149 109.628 197.445 463.812
2079 0 78.1068 12.15 949 114.372 197.785 460.485
2080 0 83.1186 14.8463 1234 109.77 197.083 458.157
2081 0 82.0631 12.0639 990 115.522 197.538 454.722
2082 0 89.1893 20.5742 1835 101.878 197.123 449.717
2083 0 91.2268 17.5606 1602 106.178 196.909 453.592
2084 0 92.1204 15.382 1417 110.457 196.781 454.256
2085 0 92.1643 12.5103 1153 115.04 196.828 449.597
2086 0 94.2007 12.5371 1181 116.047 197.088 448.576
2087 0 100.086 14.7773 1479 111.997 196.808 447.758
2088 0 100.209 13.0328 1306 116.224 198.613 440.384
2089 0 101.158 13.7804 1394 115.335 198.227 437.247
2090 0 103.158 12.1755 1256 117.921 198.506 438.008
2091 0 106.248 10.8802 1156 118.705 200.151 442.707
2092 1 60.13 7.25095 436 121.709 200.968 459.633
2093 0 62.0938 11.7081 727 116.11 200.773 454.9
2094 0 64.0738 9.67634 620 119.532 199.955 456.621
2095 0 68.8283 12.5384 863 114.968 200.452 449.374
2096 0 70.2541 13.8497 973 112.024 199.416 451.741
2097 0 69.4118 11.05 767 118.441 200.557 449.426
2098 0 73.5838 14.0656 1035 113.322 201.876 448.324
2099 0 78.0816 13.1401 1026 113.04 204.396 455.187
2100 0 79.092 15.4377 1221 108.984 204.575 456.658
2101 0 80.1619 11.9882 961 115.083 205.458 455.428
2102 0 84.2469 15.1222 1274 111.217 205.615 451.023
2103 0 88.0796 14.3734 1266 111.832 206.387 453.165
2104 0 90.1717 14.1951 1280 112.391 206.878 453.527
2105 0 94.0956 16.4514 1548 108.871 206.037 452.968
2106 0 94.1421 11.9606 1126 116.571 207.081 452.084
2107 0 99.1943 13.6197 1351 113.821 205.546 451.429
2108 0 105.145 19.4875 2049 104.738 204.783 449.679
2109 1 59.0391 12.3816 731 110.542 205.858 473.595
2110 0 55.3139 8.75006 484 119.983 203.434 469.138
2111 0 62.1804 14.667 912 104.94 204.138 471.189
2112 0 62.1903 10.3392 643 110.796 203.543 473.082
2113 0 65.3747 10.8758 711 110.163 203.278 472.752
2114 0 66.2312 12.4866 827 109.065 201.495 471.786
2115 0 71.3471 18.7534 1338 98.1801 200.889 473.368
2116 0 71.2641 12.573 896 106.735 199.507 469.064
2117 0 76.298 14.0371 1071 104.321 198.883 466.167
2118 0 76.1161 13.3612 1017 106.87 199.549 467.809
2119 0 81.171 17.9251 1455 100.326 199.366 467.514
2120 0 82.2578 15.4393 1270 104.511 198.718 462.431
2121 0 85.1507 14.2336 1212 106.771 197.385 461.212
2122 0 88.1748 12.5092 1103 107.802 197.135 462.552
2123 0 89.3877 15.1699 1356 104.743 196.617 459.59
2124 0 90.3577 14.2102 1284 109.034 197.424 452.248
2125 1 52.104 13.1276 684 114.092 197.942 466.035
2126 0 55.2653 11.5986 641 115.992 196.791 462.524
2127 0 57.1444 14.3146 818 113.531 196.719 461.34
2128 0 59.4882 16.6419 990 110.702 195.582 457.389
2129 0 60.2226 13.3173 802 112.231 194.014 457.68
2130 0 63.3313 14.6689 929 108.818 194.834 451.084
2131 0 62.1001 11.9001 739 113.992 194.261 450.812
2132 0 65.1282 13.5886 885 111.373 195.033 450.092
2133 0 70.2394 19.9603 1402 100.646 195.683 450.46
2134 0 66.2984 16.7123 1108 107.548 196.542 457.935
2135 0 69.2074 14.4638 1001 111.383 196.573 461.088
2136 0 71.3171 15.382 1097 114.624 197.454 457.498
2137 0 72.1714 14.6318 1056 116.723 198.099 456.912
2138 0 73.447 14.1735 1041 118.001 199.175 454.232
2139 0 76.2442 13.4961 1029 119.504 199.597 452.091
2140 0 79.3703 14.7536 1171 117.608 200.148 453.286
2141 0 79.2755 12.1854 966 122.867 200.76 451.854
2142 0 84.2465 12.5109 1054 122.299 201.925 452.91
2143 0 87.2254 14.6402 1277 116.71 201.25 454.512
2144 0 90.1578 18.1238 1634 111.819 201.876 448.14
2145 0 91.309 14.4454 1319 117.045 203.342 453.465
2146 0 94.1721 14.1018 1328 118.444 203.281 451.584
2147 0 98.4051 19.4705 1916 109.957 204.669 447.75
2148 0 101.177 14.5092 1468 117.776 202.888 450.991
2149 0 102.183 14.2098 1452 120.444 203.478 443.521
2150 0 108.211 15.6269 1691 114.17 202.727 445.164
2151 1 59.6931 11.9779 715 118.606 201.295 472.669
2152 0 62.1317 13.2621 824 115.961 201.061 472.221
2153 0 65.5031 13.5871 890 110.333 202.712 466.527
2154 0 66.236 12.6668 839 113.886 202.207 462.779
2155 0 68.2217 13.5587 925 112.111 201.886 467.132
2156 0 70.337 12.5112 880 112.586 201.489 468.327
2157 0 70.2752 11.8392 832 115.345 200.409 465.287
2158 0 73.4482 11.1507 819 115.733 198.717 463.016
2159 0 79.3683 11.3395 900 111.801 198.718 461.979
2160 0 80.1109 12.7823 1024 110.482 197.609 449.677
2161 0 82.3282 12.4745 1027 111.668 197.879 448.212
2162 0 87.2787 13.1647 1149 108.924 197.229 451.475
2163 0 89.6059 13.5259 1212 106.285 196.77 456.517
2164 0 93.5066 16.1593 1511 105.823 197.075 444.935
2165 0 93.4758 14.1427 1322 109.225 195.584 441.701
2166 0 100.644 15.4802 1558 103.8 196.074 449.743
2167 0 96.4036 13.4953 1301 110.732 195.44 437.625
2168 0 100.344 13.0451 1309 110.991 196.999 439.343
2169 0 104.237 12.8073 1335 111.257 195.322 435.614
2170 0 107.521 13.0207 1400 111.961 196.315 433.901
2171 1 60.3809 11.4937 694 109.847 196.732 460.193
2172 0 61.303 17.1443 1051 103.198 196.429 457.474
2173 0 65.4635 11.2429 736 109.774 197.447 458.189
2174 0 65.4589 16.0406 1050 104.902 197.234 455.994
2175 0 66.362 13.4716 894 109.951 197.031 461.447
2176 0 70.5513 15.8325 1117 105.118 197.572 457.228
2177 0 70.2513 15.6438 1099 107.24 197.932 449.403
2178 0 72.3657 11.8012 854 115.44 198.502 454.336
2179 0 72.252 14.0619 1016 113.969 198.044 445.715
2180 0 77.4337 14.9289 1156 111.741 199.888 446.063
2181 0 78.4971 15.0961 1185 111.617 201.23 447.773
2182 0 81.4037 13.6235 1109 112.96 201.319 451.428
2183 0 84.5854 16.1139 1363 110.891 202.109 450.316
2184 0 83.5029 18.6461 1557 106.616 202.39 453.529
2185 0 86.7313 13.4323 1165 116.444 202.579 447.153
2186 0 90.6055 15.3192 1388 113.974 202.809 446.276
2187 0 93.7167 15.1947 1424 113.815 203.894 447.956
2188 0 94.4427 16.4862 1557 112.663 204.272 447.177
2189 0 95.3784 16.1567 1541 113.888 204.792 441.676
2190 0 100.508 14.576 1465 116.915 204.979 443.936
2191 0 104.504 13.2148 1381 117.886 204.314 448.296
2192 0 108.494 15.0607 1634 115.998 203.834 441.739
2193 0 110.416 14.0107 1547 117.805 204.255 442.212
2194 0 116.615 14.7579 1721 115.873 203.626 442.486
2195 0 121.582 15.5697 1893 115.122 202.635 439.557
2196 0 125.344 13.5308 1696 118.855 203.193 433.249
2197 0 130.403 14.0871 1837 117.596 203.352 439.465
2198 0 132.448 13.9376 1846 119.484 202.141 436.939
2199 0 140.269 16.0335 2249 115.027 201.686 438.758
2200 0 143.311 13.7533 1971 118.179 200.317 442.827
2201 0 150.42 15.5498 2339 117.071 200.486 430.853
2202 0 152.462 13.9182 2122 119.872 197.632 432.894
2203 0 158.277 16.1995 2564 116.979 198.513 425.94
2204 1 91.1498 11.1026 1012 117.73 198.345 462.871
2205 0 96.1123 14.7848 1421 113.496 197.4 459.202
2206 0 96.314 10.9226 1052 119.579 197.731 455.853
2207 0 101.311 11.5486 1170 120.02 196.985 452.314
2208 0 104.264 13.178 1374 117.968 196.441 451.289
2209 1 58.1642 12.2068 710 115.425 195.834 473.23
2210 0 59.3071 15.6474 928 105.288 196.105 471.157
2211 0 58.2938 10.3956 606 111.924 195.482 465.64
2212 0 62.3816 13.0968 817 114.758 195.213 462.58
2213 0 65.4158 13.2995 870 116.193 194.284 462.274
2214 0 66.446 13.2589 881 109.149 194.549 467.207
2215 0 67.1752 13.9039 934 109.172 193.102 463.768
2216 0 70.1683 13.9094 976 109.728 195.314 463.517
2217 0 70.2439 9.52396 669 114.945 194.19 463.369
2218 0 73.4971 11.3202 832 112.196 195.356 463.769
2219 0 76.2491 15.1608 1156 108.647 195.429 456.7
2220 0 79.4064 15.8048 1255 106.416 196.689 458.348
2221 0 80.2781 14.6117 1173 108.948 197.251 454.598
2222 0 82.7221 12.0766 999 110.854 197.014 458.564
2223 0 86.455 12.307 1064 112.101 198.152 453.332
2224 0 87.5376 13.9026 1217 110.748 199.04 450.029
2225 0 92.4663 13.3238 1232 111.206 200.519 449.878
2226 0 93.5307 12.1137 1133 114.4 200.358 446.458
2227 0 95.456 11.6808 1115 114.847 201.019 449.801
2228 0 94.3905 12.4059 1171 117.092 200.402 444.374
2229 1 56.1542 11.415 641 110.735 202.988 459.179
2230 0 57.2149 10.714 613 118.17 202.835 468.741
2231 0 61.2623 13.5973 833 112.777 204.03 468.251
2232 0 61.2623 13.6952 839 136.12 206.05 468.194
2233 0 65.1324 13.6031 886 110.05 202.356 468.223
2234 0 68.1059 13.3469 909 109.638 203.13 468.727
2235 0 67.293 13.2852 894 112.189 203.893 467.792
2236 0 69.5321 11.7931 820 113.748 202.832 468.359
2237 0 70.1531 9.97817 700 115.019 202.969 472.254
2238 0 75.205 13.1374 988 111.793 201.563 466.371
2239 0 77.249 13.7736 1064 110.904 201.877 468.5
2240 0 80.3128 14.3439 1152 109.93 201.297 468.189
2241 0 82.3568 10.1024 832 116.353 200.593 469.607
2242 0 86.234 12.1298 1046 113.954 199.26 464.284
2243 0 89.2968 15.0397 1343 110.86 199.815 457.234
2244 0 93.288 11.8343 1104 114.602 197.677 458.788
2245 0 94.4545 10.8306 1023 115.833 197.442 459.644
2246 0 99.4001 11.8209 1175 114.863 197.005 452.854
2247 0 106.048 13.8899 1473 110.811 197.414 451.743
2248 0 108.396 13.2293 1434 111.963 197.734 445.519
2249 0 107.499 10.5396 1133 116.164 197.135 445.026
2250 0 114.61 12.6167 1446 111.363 196.806 443.88
2251 1 63.6206 12.7474 811 110.068 196.742 461.328
2252 0 67.1359 13.3312 895 108.447 195.99 461.703
2253 0 65.142 9.96285 649 114.72 195.689 459.957
2254 0 69.1096 11.1273 769 112.618 194.684 456.814
2255 0 69.2735 12.5156 867 110.152 194.572 457.077
2256 0 72.1257 12.3534 891 110.097 194.851 456.895
2257 0 72.1257 12.4921 901 134.822 194.879 456.967
2258 0 79.1823 14.0309 1111 107.515 195.986 450.47
2259 0 80.2223 14.9086 1196 106.223 195.553 453.119
2260 0 83.1273 17.5875 1462 103.097 196.411 450.291
2261 0 82.2088 13.4049 1102 109.548 196.985 446.457
2262 0 88.2552 14.5147 1281 107.938 197.108 444.427
2263 0 90.1302 14.9451 1347 107.134 197.644 445.717
2264 0 93.1446 14.0427 1308 110.031 198.743 440.128
2265 0 93.1717 13.1692 1227 111.936 199.375 441.253
2266 1 56.8527 16.1294 917 98.3511 199.049 465.966
2267 0 58.2415 14.1308 823 102.763 198.592 458.793
2268 0 56.4402 12.4911 705 106.19 199.156 460.593
2269 0 57.328 14.0595 806 107.748 202.984 463.536
2270 0 58.2867 12.0954 705 109.382 201.96 458.556
2271 0 61.1967 15.1479 927 103.272 202.019 450.78
2272 0 63.1312 16.4578 1039 101.722 203.459 460.814
2273 0 64.288 11.8529 762 108.106 203.346 464.756
2274 0 65.1426 13.7698 897 104.637 203.487 468.687
2275 0 67.3017 14.0412 945 105.769 203.911 463.309
2276 0 71.4495 11.2247 802 109.12 204.474 465.738
2277 0 71.153 10.6109 755 109.768 203.673 468.75
2278 0 82.6585 18.0502 1492 98.9129 205.483 462.34
2279 0 79.279 14.5057 1150 106.309 204.8 457.365
2280 0 83.5833 19.0828 1595 100.07 205.166 459.476
2281 0 85.4356 14.5958 1247 107.525 202.729 456.394
2282 0 88.2267 11.5611 1020 113.009 203.588 456.746
2283 0 90.518 13.9199 1260 110.904 202.823 459.4
2284 0 92.6609 12.5943 1167 114.585 202.931 453.178
2285 0 95.3161 14.1319 1347 111.647 201.051 455.901
2286 0 101.419 16.6438 1688 106.601 200.171 457.05
2287 0 102.479 15.6325 1602 108.323 199.465 454.504
2288 0 115.569 18.3787 2124 103.602 199.657 444.62
2289 0 112.559 15.3875 1732 110.289 198.158 446.936
2290 0 110.593 12.9032 1427 114.163 198.879 449.668
2291 0 106.714 13.1661 1405 117.779 197.263 441.999
2292 0 110.549 16.7799 1855 111.617 197.417 445.009
2293 0 113.396 15.2563 1730 114.698 196.329 443.538
2294 0 114.584 12.5235 1435 119.251 196.285 441.965
2295 0 116.486 16.7746 1954 113.56 195.454 439.234
2296 0 114.306 13.7525 1572 119.807 196.876 438.066
2297 0 115.337 18.537 2138 111.884 196.863 441.323
2298 0 118.679 15.445 1833 116.91 197.081 438.118
2299 0 118.619 15.6299 1854 116.546 196.828 438.71
2300 0 115.231 13.2082 1522 121.405 196.755 434.763
2301 0 118.538 15.9948 1896 117.583 197.328 435.008
2302 0 114.392 18.795 2150 111.346 197.569 435.496
2303 0 115.691 14.1412 1636 123.014 197.583 432.655
2304 0 116.504 15.6905 1828 120.347 198.835 435.135
2305 0 112.402 19.0476 2141 116.547 199.068 433.077
2306 0 115.541 18.4524 2132 117.102 199.506 433.184
2307 0 112.535 19.825 2231 116.137 199.079 435.281
2308 0 111.373 21.2977 2372 114.807 201.022 431.097
2309 0 114.292 13.7105 1567 126.395 200.786 432.276
2310 0 117.369 18.6506 2189 117.768 202.488 429.209
2311 0 118.482 14.8715 1762 122.639 202.275 433.924
2312 0 120.442 13.8656 1670 123.537 202.422 433.987
2313 0 123.664 16.6904 2064 118.283 202.844 434.939
2314 0 124.459 15.2339 1896 120.292 204.418 434.655
2315 0 127.345 14.5588 1854 120.463 204.645 434.216
2316 0 133.604 14.0415 1876 120.102 205.474 431.17
2317 1 72.3589 13.3778 968 117.923 204.78 455.5
2318 0 76.2462 13.299 1014 116.582 204.455 459.93
2319 0 78.3259 14.9504 1171 114.774 203.644 455.332
2320 0 82.2509 17.7627 1461 108.832 203.346 457.07
2321 0 81.47 14.6066 1190 111.778 202.161 454.187
2322 0 84.1686 11.8928 1001 115.918 202.158 451.788
2323 0 89.2323 14.367 1282 111.895 201.959 450.482
2324 0 95.4185 15.3744 1467 114.804 201.19 451.948
2325 0 97.2002 12.9012 1254 119.885 200.683 453.046
2326 0 102.195 15.6954 1604 115.508 200.186 452.278
2327 0 106.202 14.4442 1534 117.907 199.666 451.606
2328 0 111.213 15.9694 1776 116.619 198.753 446.019
2329 0 119.385 16.4258 1961 111.662 198.665 445.535
2330 1 64.1641 12.8109 822 117.502 197.153 466.682
2331 0 67.1319 10.7847 724 121.083 197.406 466.043
2332 0 69.1869 14.2368 985 116.972 196.125 463.23
2333 0 73.1384 13.9051 1017 117.138 195.952 463.97
2334 0 75.1818 20.4039 1534 105.122 194.487 467.089
2335 0 75.1511 14.717 1106 116.037 194.85 461.136
2336 0 81.116 18.2208 1478 108.639 194.213 460.873
2337 0 81.1347 17.5634 1425 111.971 194.658 453.76
2338 0 84.1241 14.7401 1240 115.865 194.851 450.027
2339 0 87.3095 13.2288 1155 118.712 193.661 449.855
2340 0 88.1839 14.9687 1320 117.151 193.808 440.32
2341 0 92.4122 13.9808 1292 118.721 195.138 442.935
2342 0 92.2915 14.1508 1306 119.658 194.557 442.018
2343 0 97.2732 15.328 1491 117.437 195.207 437.666
2344 0 98.6721 15.9316 1572 117.368 196.028 433.872
2345 0 102.487 15.319 1570 117.835 196.624 432.209
2346 0 105.424 21.6649 2284 108.184 197.017 428.134
2347 0 110.516 16.0158 1770 116.42 197.362 428.669
2348 0 113.711 17.0257 1936 113.024 198.721 427.608
2349 0 114.491 13.7739 1577 118.806 198.578 426.882
2350 1 58.7115 10.3217 606 119.998 201.165 456.718
2351 0 60.1156 14.2559 857 115.748 201.145 454.66
2352 0 61.3003 13.3441 818 118.523 201.171 451.848
2353 0 67.2813 14.6698 987 115.157 201.411 452.254
2354 0 65.451 11.627 761 120.047 201.792 454.824
2355 0 68.0828 12.7345 867 117.25 202.595 455.424
2356 0 72.2697 14.183 1025 114.82 202.604 452.171
2357 0 75.3224 14.4844 1091 114.172 203.271 453.178
2358 0 77.3774 12.691 982 118.284 204.263 453.01
2359 0 78.2679 12.5978 986 120.15 203.993 449.762
2360 0 83.2695 13.7265 1143 117.684 204.254 451.515
2361 0 82.4622 12.8301 1058 121.096 203.26 447.174
2362 0 88.2623 14.015 1237 117.541 204.084 451.149
2363 0 91.2116 13.9017 1268 118.023 202.259 451.26
2364 0 94.2697 13.2492 1249 119.948 203.382 443.677
2365 0 102.277 13.1017 1340 118.671 201.845 446.569
2366 0 107.259 13.3229 1429 117.84 201.093 446.278
2367 1 61.1562 12.4599 762 116.759 200.072 468.853
2368 0 61.1701 11.9176 729 118.449 200.187 465.765
2369 0 67.3194 13.8445 932 112.382 198.396 468.021
2370 0 69.4019 14.1207 980 112.85 197.835 466.28
2371 0 74.2297 14.738 1094 110.645 197.499 464.536
2372 0 75.3171 11.9628 901 115.933 196.332 461.901
2373 0 77.2168 12.8729 994 114.715 196.216 460.177
2374 0 79.2201 13.3552 1058 113.577 194.549 461.039
2375 0 82.2755 16.1166 1326 109.433 194.87 457.808
2376 0 84.5469 14.146 1196 114.043 194.499 452.246
2377 0 86.343 18.855 1628 106.616 194.057 449.711
2378 0 86.332 17.8149 1538 103.891 193.992 449.443
2379 0 89.2815 15.9944 1428 113.521 193.31 446.206
2380 0 93.7335 15.1067 1416 113.809 193.597 450.697
2381 0 97.522 16.9193 1650 110.954 194.396 446.846
2382 0 97.522 17.0526 1663 138.046 194.375 446.842
2383 0 103.518 16.2774 1685 110.884 193.812 445.446
2384 0 104.345 14.4041 1503 116.262 193.717 440.263
2385 0 105.441 12.2722 1294 120.223 195.066 438.505
2386 0 108.618 16.581 1801 112.632 195.248 434.625
2387 0 112.52 15.6061 1756 114.274 196.806 430.738
2388 0 119.606 14.3805 1720 115.069 195.758 432.445
2389 0 119.394 10.0591 1201 123.314 196.675 424.818
2390 0 126.603 16.8796 2137 110.682 196.225 432.572
2391 1 71.5197 15.7859 1129 107.68 196.166 454.329
2392 0 73.3006 13.7516 1008 107.913 196.065 457.903
2393 0 74.4817 16.0039 1192 111.984 198.001 450.714
2394 0 74.2888 12.936 961 122.032 198.618 437.36
2395 0 80.3874 15.1889 1221 117.002 199.009 437.135
2396 0 83.6735 14.1502 1184 118.504 199.258 440.887
2397 0 83.4514 13.2173 1103 120.952 200.417 442.976
2398 0 90.5513 16.8192 1523 113.864 201.16 447.114
2399 0 90.8598 13.0201 1183 119.485 201.56 443.655
2400 0 92.376 15.1121 1396 117.8 201.684 442.241
2401 0 95.484 12.5047 1194 122.525 201.644 440.839
2402 0 97.475 13.5317 1319 116.428 200.208 442.625
2403 0 105.537 15.7954 1667 112.485 199.364 444.516
2404 0 108.632 11.9946 1303 118.157 200.213 442.81
2405 0 112.345 14.3487 1612 114.591 199.978 441.612
2406 0 117.586 13.9047 1635 115.191 199.296 439.88
2407 1 69.4642 12.0206 835 111.75 198.392 461.735
2408 0 71.2896 13.5784 968 112.083 199.842 467.385
2409 0 71.2888 10.5066 749 121.072 200.037 457.652
2410 0 77.5853 13.9073 1079 114.234 198.886 461.017
2411 0 80.5478 14.9601 1205 112.525 198.714 463.251
2412 0 81.3577 11.0131 896 119.094 196.03 458.738
2413 0 84.2398 14.5062 1222 114.748 196.729 455.475
2414 0 91.3185 13.3489 1219 115.04 196.133 458.8
2415 0 91.3947 12.9876 1187 116.71 196.576 455.367
2416 0 95.319 13.0299 1242 115.235 194.94 455.907
2417 0 97.2446 14.263 1387 115.063 195.035 450.639
2418 0 101.364 13.0815 1326 117.059 194.609 450.015
2419 0 104.467 14.3969 1504 115.499 193.994 444.765
2420 0 106.493 15.3625 1636 111.68 193.867 451.348
2421 0 107.254 12.6708 1359 119.923 193.843 435.829
2422 0 115.321 13.9003 1603 116.732 194.497 436.16
2423 1 63.132 10.486 662 115.133 194.403 463.215
2424 0 67.3943 12.9833 875 111.075 193.968 460.761
2425 0 64.3475 12.9143 831 105.096 194.2 452.286
2426 0 67.2754 10.3009 693 108.025 194.547 448.723
2427 0 66.1805 7.20756 477 113.421 194.826 447.719
2428 0 72.3274 10.8258 783 107.11 195.227 446.991
2429 0 76.3402 12.6932 969 103.732 194.486 448.503
2430 0 79.3565 12.0721 958 103.832 195.954 447.253
2431 0 80.2462 8.03776 645 108.55 196.771 445.989
2432 0 83.2841 12.0911 1007 103.333 197.184 444.418
2433 0 82.2731 8.77565 722 109.666 198.234 437.777
2434 0 81.3135 9.24816 752 109.515 198.019 439.823
2435 0 89.1699 9.54358 851 108.293 197.545 439.47
2436 0 93.6878 12.0934 1133 105.793 198.692 433.755
2437 0 94.3296 10.4421 985 110.587 199.891 440.869
2438 0 98.3386 6.9759 686 112.38 199.138 444.201
2439 0 101.326 10.4317 1057 109.193 200.407 438.508
2440 0 102.272 13.2881 1359 105.403 201.56 440.508
2441 0 110.423 11.7095 1293 105.077 200.693 446.787
2442 0 113.395 15.0359 1705 103.206 201.505 439.293
2443 0 113.395 15.0624 1708 119.15 202.5 439.196
2444 0 121.144 8.24639 999 112.533 201.467 444.796
2445 0 125.589 8.20134 1030 115.834 199.395 436.052
2446 1 74.2441 13.2401 983 104.507 199.446 465.691
2447 0 77.2094 14.9075 1151 102.97 200.884 462.912
2448 0 78.3393 13.2245 1036 105.985 198.708 461.852
2449 0 83.2234 9.74485 811 109.677 197.308 468.031
2450 0 87.3075 12.8053 1118 107.186 198.496 460.757
2451 0 90.2908 13.6559 1233 106.848 197.358 460.094
2452 0 92.3732 14.7121 1359 105.677 197.086 461.581
2453 0 95.2165 12.1933 1161 111.294 195.966 453.536
2454 0 100.274 16.3252 1637 104.858 195.256 458.944
2455 0 100.451 11.1597 1121 114.351 194.472 454.823
2456 0 105.374 13.9408 1469 109.791 193.794 452.893
2457 0 109.511 14.9574 1638 107.838 192.797 456.261
2458 0 109.285 13.5426 1480 112.338 191.555 449.086
2459 0 112.395 11.3439 1275 116.37 192.296 446.882
2460 0 112.326 10.3983 1168 119.587 193.043 441.353
2461 1 65.2172 11.4387 746 113.887 192.373 467.696
2462 0 67.204 11.9933 806 113.412 193.973 465.61
2463 0 65.1991 8.74246 570 118.861 192.167 462.363
2464 0 72.3416 11.8051 854 113.556 193.213 463.374
2465 0 72.4891 11.8638 860 114.423 193.798 458.322
2466 0 75.29 14.4375 1087 110.906 193.426 456.57
2467 0 74.4681 10.8503 808 118.561 194.173 453.16
2468 0 76.4058 12.0541 921 117.094 194.183 451.24
2469 0 79.4194 14.7571 1172 112.476 195.625 451.247
2470 0 81.4007 15.4544 1258 111.6 195.209 448.31
2471 0 84.4631 13.8285 1168 112.908 195 451.058
2472 0 87.4178 13.4755 1178 115.105 195.173 445.348
2473 0 87.408 12.619 1103 116.199 195.892 447.516
2474 0 95.288 14.8707 1417 111.396 196.704 441.855
2475 0 97.3635 19.2475 1874 102.729 197.612 429.847
2476 0 97.4391 12.0999 1179 116.937 198.321 439.551
2477 0 99.2311 13.9271 1382 113.559 199.041 436.579
2478 0 107.356 16.0308 1721 111.532 198.597 440.691
2479 0 107.297 12.8522 1379 113.803 199.753 442.492
2480 1 60.1441 7.59842 457 124.665 198.066 460.175
2481 0 61.1506 11.2346 687 116.035 199.261 464.537
2482 0 64.3591 13.2693 854 111.456 199.534 461.321
2483 0 68.4122 13.4187 918 112.041 200.627 460.369
2484 0 66.2057 11.1018 735 118.242 198.722 458.86
2485 0 71.3398 10.485 748 118.68 200.257 459.964
2486 0 75.5243 14.2338 1075 112.003 200.247 455.275
2487 0 78.4602 13.5355 1062 113.097 199.945 457.545
2488 0 76.3028 15.0584 1149 112.44 199.536 455.717
2489 0 84.4775 16.2528 1373 108.256 200.181 457.157
2490 0 83.4143 11.1132 927 118.216 199.426 453.315
2491 0 90.3276 15.1117 1365 110.672 198.226 455.705
2492 0 92.5014 14.1836 1312 113.529 198.393 456.335
2493 0 97.625 14.5864 1424 112.879 198.157 453.811
2494 0 99.3802 11.2497 1118 120.608 197.073 447.589
2495 0 101.318 11.607 1176 119.906 196.138 452.006
2496 0 109.5 13.8905 1521 112.655 195.432 462.451
2497 0 110.516 13.4822 1490 118.366 195.617 446.603
2498 0 115.481 13.5434 1564 118.359 193.895 443.556
2499 0 118.394 15.6258 1850 114.95 193.511 447.085
2500 1 69.0941 12.1139 837 116.756 192.539 468.62
2501 0 71.0991 12.5177 890 117.617 191.575 465.762
2502 0 72.0554 13.9892 1008 115.974 191.323 462.688
2503 0 75.0952 14.8478 1115 114.708 191.302 462.267
2504 0 77.2347 12.7145 982 118.941 191.195 459.94
2505 0 79.0578 17.1014 1352 112.156 192.202 456.541
2506 0 79.0566 13.5346 1070 120.051 192.021 452.356
2507 0 84.137 14.2149 1196 116.655 192.021 457.288
2508 0 86.2437 14.9344 1288 116.701 192.263 452.874
2509 0 86.1183 15.9316 1372 114.825 192.016 453.087
2510 0 90.2681 17.0492 1539 114.371 192.507 444.643
2511 0 93.1154 14.2404 1326 118.646 192.937 447.371
2512 0 94.0909 12.1584 1144 123.593 193.894 443.672
2513 0 96.2581 14.3053 1377 121.218 195.076 439.679
2514 0 99.1556 12.4047 1230 122.667 195.397 439.315
2515 1 59.2839 12.398 735 118.403 195.786 463.05
2516 0 62.2092 13.2617 825 118.122 196.526 459.335
2517 0 62.2731 14.1955 884 115.476 197.147 461.813
2518 0 66.3709 13.9218 924 118.298 197.799 460.997
2519 0 67.3035 14.0112 943 119.566 198.171 459.819
2520 0 71.4777 15.7112 1123 115.017 198.816 460.232
2521 0 69.3423 12.6041 874 122.025 199.706 462.66
2522 0 72.3017 13.9831 1011 119.461 199.809 460.882
2523 0 74.3118 14.8563 1104 118.566 200.786 460.629
2524 0 76.5275 12.6098 965 122.793 199.734 460.953
2525 0 81.2364 14.784 1201 118.077 200.078 459.926
2526 0 84.3432 16.4803 1390 114.935 199.891 458.88
2527 0 85.3255 13.2317 1129 120.384 199.083 460.807
2528 0 89.6848 12.2317 1097 120.847 199.296 460.954
2529 0 93.6707 13.8357 1296 117.568 199.11 459.84
2530 0 97.5553 14.4738 1412 116.023 199.702 460.366
2531 0 101.323 13.3435 1352 118.963 198.476 455.868
2532 0 105.433 16.5319 1743 113.476 198.333 455.893
2533 0 106.443 15.163 1614 116.052 197.859 454.942
2534 0 112.454 15.4552 1738 114.96 197.54 450.829
2535 0 112.39 17.8842 2010 111.559 196.336 452.29
2536 0 113.481 12.2663 1392 119.9 195.726 446.856
2537 0 121.318 13.6254 1653 117.22 195.586 448.839
2538 0 124.555 13.6967 1706 119.193 194.559 433.081
2539 1 71.1892 11.1815 796 114.671 194.945 468.087
2540 0 76.5439 15.1416 1159 110.783 194.431 457.941
2541 0 79.3551 11.1146 882 118.201 194.702 460.175
2542 0 82.3189 16.9584 1396 108.534 193.859 451.585
2543 0 84.5138 15.4531 1306 111.57 194.27 446.437
2544 0 85.493 10.2698 878 120.27 193.115 444.892
2545 0 90.5422 12.4031 1123 117.024 193.576 445.323
2546 0 94.5639 12.5629 1188 116.348 194.974 451.892
2547 0 95.3212 13.3968 1277 115.795 193.709 444.431
2548 0 98.3598 14.7418 1450 113.518 193.681 448.065
2549 0 103.166 14.3748 1483 113.79 193.578 443.664
2550 0 103.177 12.2024 1259 117.052 193.425 446.371
2551 0 103.229 11.9637 1235 119.51 193.712 439.721
2552 0 111.213 13.2989 1479 116.746 192.583 437.956
2553 0 116.173 13.1872 1532 115.14 194.971 440.651
2554 0 118.449 11.6506 1380 119.203 194.225 434.61
2555 0 123.213 15.6071 1923 112.159 195.899 435.751
2556 0 128.311 12.9607 1663 116.294 196.221 429.865
2557 0 132.414 17.7776 2354 107.024 196.717 433.637
2558 1 76.1628 10.9371 833 115.405 196.731 453.828
2559 0 79.2861 12.2594 972 112.717 198.282 452.357
2560 0 85.3119 13.9136 1187 108.763 199.052 453.834
2561 0 85.4155 15.688 1340 106.816 199.978 451.666
2562 0 92.3551 14.1519 1307 107.64 200.221 452.927
2563 0 94.2621 15.7327 1483 105.744 200.62 450.943
2564 0 94.282 10.161 958 114.555 201.069 448.331
2565 0 103.265 14.2061 1467 107.562 199.983 448.966
2566 0 106.733 13.0325 1391 109.733 201.303 449.075
2567 0 109.505 14.4468 1582 108.069 200.635 448.515
2568 0 110.408 13.0969 1446 111.216 200.522 446.94
2569 0 116.497 15.5883 1816 107.14 199.11 448.18
2570 0 119.334 18.4943 2207 103.209 198.079 443.876
2571 1 68.2287 11.7985 805 110.728 199.263 471.448
2572 0 72.2426 12.3473 892 109.392 197.982 469.355
2573 0 80.5784 13.9367 1123 104.651 198.686 473.701
2574 0 75.3259 14.7891 1114 107.35 197.828 468.814
2575 0 78.2369 10.6472 833 113.544 196.96 467.505
2576 0 84.355 14.2019 1198 107.988 196.652 466.553
2577 0 85.4162 17.3503 1482 104.265 196.455 463.728
2578 0 87.3575 13.3932 1170 110.374 196.318 463.467
2579 0 91.2576 13.9057 1269 109.435 194.837 457.339
2580 0 97.3285 15.2576 1485 106.873 194.368 456.098
2581 0 102.489 16.2261 1663 104.666 195.113 460.058
2582 0 99.3125 14.7816 1468 109.468 194.062 453.971
2583 0 103.346 15.0465 1555 108.611 193.952 455.734
2584 0 111.471 17.6009 1962 103.685 193.168 443.27
2585 0 111.425 18.8287 2098 102.969 194.426 447.233
2586 0 111.387 16.6267 1852 107.261 192.884 442.471
2587 0 114.455 13.6473 1562 111.057 193.737 444.102
2588 0 117.298 14.6465 1718 108.128 192.981 445.212
2589 0 120.452 16.0562 1934 104.872 194.596 447.787
2590 0 127.561 16.2197 2069 104.633 194.44 444.137
2591 0 129.428 18.4504 2388 103.183 194.626 436.589
2592 0 132.291 14.7856 1956 105.538 194.769 425.641
2593 0 136.323 11.9569 1630 110.192 194.554 419.661
2594 0 139.39 13.2506 1847 106.409 194.859 430.169
2595 1 80.3425 12.733 1023 102.307 196.306 453.058
2596 0 82.1113 11.9959 985 101.499 195.632 452.642
2597 0 83.233 10.4886 873 105.069 196.466 444.021
2598 0 84.209 11.5308 971 102.709 197.478 444.05
2599 0 92.3115 14.2236 1313 97.5019 197.775 445.48
2600 0 93.3228 12.6336 1179 99.81 198.265 444.679
2601 0 98.4637 14.4216 1420 97.6486 198.216 439.411
2602 0 100.251 13.9849 1402 98.3524 198.751 439.827
2603 0 104.499 13.426 1403 99.3877 199.554 439.051
2604 0 106.473 14.4262 1536 98.4486 200.755 439.9
2605 0 113.282 16.7193 1894 94.7254 200.562 441.601
2606 0 117.19 15.2829 1791 95.4288 200.868 434.349
2607 0 119.709 14.9112 1785 98.4717 199.793 437.057
2608 0 125.5 15.7051 1971 99.0863 199.695 439.792
2609 1 138.624 13.6556 1893 101.691 199.732 431.715
2610 0 135.426 19.8854 2693 94.5485 199.479 426.898
2611 1 79.5579 14.6811 1168 94.5043 198.467 466.747
2612 0 81.6231 10.6955 873 99.543 198.532 467.368
2613 0 83.589 13.0161 1088 97.7426 198.596 466.58
2614 0 89.3378 14.406 1287 95.4779 198.305 465.904
2615 0 95.2057 13.287 1265 95.7281 197.004 463.396
2616 0 97.5295 19.2352 1876 91.3833 196.277 456.321
2617 0 100.368 16.549 1661 94.7032 196.17 464.468
2618 0 100.258 12.2584 1229 101.763 195.535 461.251
2619 0 106.22 14.1594 1504 99.1562 195.172 460.117
2620 0 110.32 19.0083 2097 93.8846 195.001 450.87
2621 0 118.549 18.0854 2144 93.2108 195.201 451.712
2622 0 117.565 13.3373 1568 101.368 194.79 444.797
2623 0 120.503 13.4271 1618 99.7726 194.528 448.098
2624 0 126.664 14.6135 1851 100.482 193.515 436.553
2625 1 75.3395 12.9945 979 99.0603 193.367 462.984
2626 0 72.2892 11.2603 814 101.181 192.931 461.238
2627 0 76.3544 10.9751 838 101.187 193.764 461.934
2628 0 80.154 14.7341 1181 95.8493 193.92 464.431
2629 0 82.1994 13.9417 1146 97.3909 193.776 458.647
2630 0 87.1659 14.134 1232 97.0081 195.416 460.416
2631 0 87.2868 16.9212 1477 94.6337 195.116 452.993
2632 0 93.3129 16.8037 1568 93.7902 195.573 454.234
2633 0 94.4063 13.3677 1262 94.5626 195.467 455.769
2634 0 100.479 16.4611 1654 94.633 195.89 451.294
2635 0 97.2194 14.0713 1368 99.1681 195.393 449.306
2636 0 102.46 15.0791 1545 98.2738 196.614 447.814
2637 0 101.184 15.0913 1527 101.028 196.44 441.061
2638 0 106.473 21.414 2280 92.9618 196.812 448.768
2639 0 111.342 15.1875 1691 100.821 195.891 444.775
2640 0 113.606 19.0219 2161 97.5234 198.184 439.451
2641 0 118.547 15.3103 1815 100.467 198.084 445.143
2642 1 82.4821 19.8346 1636 86.4639 199.604 446.512
2643 0 87.6761 13.6639 1198 90.1586 200.268 461.785
2644 0 87.429 18.1176 1584 89.8314 200.614 453.005
2645 0 88.2348 13.6567 1205 93.1195 200.418 458.536
2646 0 95.464 16.6869 1593 90.2856 200.532 458.244
2647 0 95.2225 12.0455 1147 95.5414 199.685 450.849
2648 0 96.3515 12.9007 1243 93.066 198.936 462.519
2649 0 98.3309 11.624 1143 96.5722 198.612 453.076
2650 0 101.332 14.1514 1434 94.0188 198.017 447.528
2651 0 106.375 14.9472 1590 94.3981 197.21 455.668
2652 0 111.301 22.0213 2451 89.2611 197.529 451.37
2653 0 119.463 16.3063 1948 92.229 195.71 446.695
2654 0 114.286 12.1449 1388 99.8984 194.946 430.687
2655 0 117.403 12.4869 1466 100.609 194.181 429.018
2656 0 122.445 14.7985 1812 97.0579 193.568 438.146
2657 0 129.463 19.1637 2481 92.5889 193.412 436.996
2658 0 134.436 17.2796 2323 94.7374 193.35 433.8
2659 0 137.481 20.4828 2816 92.2038 191.936 430.754
2660 1 75.3809 11.0107 830 97.0337 191.972 459.527
2661 0 79.2786 11.0622 877 96.1927 190.761 459.12
2662 0 88.9038 20.854 1854 88.7087 190.32 460.465
2663 0 88.1953 13.1866 1163 97.8745 190.393 457.083
2664 0 86.5145 10.9808 950 102.287 189.82 449.274
2665 0 92.2238 15.7877 1456 97.329 190.283 456.152
2666 0 95.2692 14.3908 1371 97.9745 190.174 452.826
2667 0 99.5119 21.0025 2090 92.3053 190.387 446.523
2668 0 100.26 20.8957 2095 92.7838 191.422 447.716
2669 0 103.295 15.1121 1561 100.155 191.119 445.09
2670 0 103.147 13.379 1380 102.401 193.725 446.95
2671 0 107.665 18.1304 1952 97.3724 193.345 442.199
2672 0 110.274 13.3213 1469 103.55 193.088 436.378
2673 0 117.491 21.0824 2477 95.1441 192.841 428.29
2674 0 120.254 17.9371 2157 97.4613 194.08 437.729
2675 0 122.508 23.9495 2934 92.7754 195.771 435.181
2676 0 128.208 20.2093 2591 96.2412 196.51 432.506
2677 0 127.465 13.18 1680 105.842 196.632 430.521
2678 0 132.419 13.5177 1790 106.02 196.926 429.658
2679 0 139.341 16.413 2287 102.066 198.514 423.385
2680 0 144.729 20.4243 2956 96.5369 198.491 431.724
2681 0 144.729 20.4865 2965 124.515 199.469 431.99
2682 1 227.695 16.6978 3802 102.098 199.702 394.444
2683 0 235.805 15.0336 3545 105.184 199.879 384.473
2684 0 242.969 14.829 3603 103.535 200.012 395.487
2685 0 248.008 14.0681 3489 103.717 198.077 362.168
2686 1 176.231 20.1156 3545 91.967 199.005 423.672
2687 0 178.718 20.5072 3665 93.4625 198.426 411.644
2688 0 180.775 13.8846 2510 99.8857 198.923 410.423
2689 0 187.493 12.9285 2424 101.946 199.155 399.317
2690 0 195.892 13.8086 2705 99.8628 197.234 408.02
2691 0 201.827 22.6233 4566 92.6967 197.953 393.967
2692 0 206.827 17.8265 3687 96.5378 198.445 404.543
2693 0 209.683 13.8638 2907 103.224 198.295 396.793
2694 0 214.732 16.7884 3605 100.091 197.561 387.298
2695 0 219.831 17.0358 3745 99.9738 196.732 386.739
2696 0 220.791 11.7396 2592 104.446 196.489 394.799
2697 0 363.776 18.9457 6892 99.4499 195.836 301.678
2698 0 374.757 25.5312 9568 93.2772 194.662 301.791
2702 0 298.769 32.5704 9731 77.7219 192.915 357.536
2703 0 305.987 25.3899 7769 81.7626 192.314 332.244
2704 1 68.4608 11.7878 807 79.8116 191.838 474.829
2705 0 70.1519 11.7602 825 80.8424 191.49 473.892
2706 0 328.559 24.8935 8179 84.0646 191.263 341.132
2707 0 341.151 20.5187 7000 86.7659 190.897 320.413
2708 0 351.654 29.2787 10296 82.7617 190.732 312.333
2709 0 358.693 30.2264 10842 81.9295 190.515 292.5
2710 0 368.937 29.1812 10766 83.037 191.459 311.737
2711 0 143.851 14.3481 2064 86.8726 192.682 426.93
2712 1 88.5229 15.3068 1355 81.6716 191.105 446.886
2713 1 55.1829 17.6867 976 77.1619 191.942 472.171
2714 0 52.3592 7.04748 369 82.3333 193.97 472.772
2715 0 55.3355 16.5716 917 78.9411 192.18 464.855
2716 0 58.1777 22.861 1330 75.1301 191.773 461.939
2717 0 56.1139 13.1875 740 82.8527 192.735 467.322
2718 0 56.2146 10.0686 566 84.0654 193.912 465.148
2719 0 57.2076 9.3519 535 83.8093 194.05 470.338
2720 0 61.2598 15.5567 953 82.0997 194.877 464.735
2721 0 61.5236 9.21597 567 85.2998 194.476 472.517
2722 0 64.5344 26.7454 1726 76.0782 196.077 466.626
2723 0 68.332 15.9076 1087 82.5078 195.715 466.728
2724 0 70.3998 10.6819 752 87.2846 195.924 464.765
2725 0 69.3047 9.68188 671 88.7735 196.088 464.583
2726 0 74.6313 17.6736 1319 82.0895 196.2 461.911
2727 0 80.8172 25.1927 2036 76.8762 197.042 462.099
2728 0 78.3885 25.5395 2002 76.4016 197.701 455.953
2729 1 92.8211 29.1205 2703 73.4184 197.491 455.425
2730 0 87.7379 22.3279 1959 79.1588 198.354 444.448
2731 0 80.9155 12.9147 1045 87.3943 197.274 446.904
2732 0 84.4715 15.52 1311 85.5698 197.703 443.371
2733 0 87.7323 17.5648 1541 84.2278 197.516 440.819
2734 0 87.7764 12.2584 1076 89.0697 197.863 439.199
2735 0 93.7381 17.4956 1640 84.0579 197.81 443.359
2736 0 96.5618 14.3949 1390 86.0432 197.138 443.029
2737 0 93.5209 9.12096 853 91.422 196.587 438.678
2738 0 100.692 13.2185 1331 87.722 196.63 438.54
2739 0 97.4076 11.4775 1118 89.5098 196.022 438.1
2740 0 104.384 15.0885 1575 87.0794 194.514 441.146
2741 0 108.306 20.359 2205 82.6862 194.117 447.938
2742 0 109.165 12.0826 1319 90.0379 192.755 443.615
2743 0 110.263 12.3977 1367 89.3124 192.394 439.037
2744 0 119.272 14.404 1718 86.4709 192.075 448.098
2745 1 63.1923 3.972 251 98.6693 190.661 464.143
2746 0 66.1698 8.08526 535 91.4393 191.542 466.11
2747 0 74.2836 13.8792 1031 83.6887 191.56 474.418
2748 0 73.3943 17.2766 1268 85.112 190.886 457.637
2749 0 77.1718 9.78337 755 92.302 191.257 458.352
2750 0 80.5348 17.0113 1370 85.1095 190.254 460.434
2751 0 78.4082 16.0953 1262 87.0341 191.328 456.758
2752 0 84.1804 18.1277 1526 85.1533 190.676 453.924
2753 0 89.7143 14.9363 1340 88.3 190.767 446.772
2754 0 88.4077 13.1436 1162 97.3563 192.092 452.004
2755 0 89.1523 9.85954 879 101.314 191.423 447.809
2756 0 95.373 14.9518 1426 95.9222 192.955 441.653
2757 0 101.351 16.6056 1683 93.6988 192.794 445.917
2758 0 102.328 20.6786 2116 90.5747 193.608 448.905
2759 0 103.416 19.262 1992 92.4091 194.219 443.749
2760 0 107.812 18.8755 2035 93.8703 195.298 437.458
2761 0 109.26 11.1843 1222 101.262 196.14 437.028
2762 0 114.583 14.4874 1660 97.5753 196.093 439.055
2763 0 120.927 13.2642 1604 97.9445 197.825 439.325
2764 0 122.422 25.7879 3157 88.0554 198.112 430.055
2765 0 127.282 17.7245 2256 93.2199 198.577 437.53
2766 1 75.1639 13.2777 998 94.1743 197.333 460.997
2767 0 75.8101 14.998 1137 92.7001 199.313 461.329
2768 0 72.1568 11.5166 831 98.7521 198.046 453.965
2769 0 79.2414 21.7185 1721 86.9448 198.301 463.191
2770 0 81.1611 18.3709 1491 89.8444 199.038 462.124
2771 0 85.4066 12.9849 1109 95.9297 198.443 457.67
2772 0 90.2251 18.5425 1673 90.2116 198.55 460.048
2773 0 89.0819 17.1078 1524 92.8241 198.517 457.105
2774 0 95.2288 19.5844 1865 89.57 199.233 459.448
2775 0 100.108 22.3459 2237 87.4743 199.017 455.824
2776 0 99.545 17.7809 1770 92.0006 198.738 460.429
2777 0 100.268 15.8874 1593 94.3007 198.839 457.733
2778 0 104.432 15.3115 1599 95.6098 199.329 456.956
2779 0 108.333 18.8309 2040 91.573 198.272 459.303
2780 1 60.3507 16.139 974 91.384 198.225 477.773
2781 0 61.2293 14.7152 901 95.0377 198.558 463.098
2782 0 64.3281 12.7161 818 96.3301 198.144 464.302
2783 0 66.1781 13.2068 874 97.341 197.113 460.93
2784 0 67.1134 16.5094 1108 92.8339 196.44 467.511
2785 0 70.1872 16.57 1163 93.0267 195.699 469.067
2786 0 70.1756 15.3615 1078 95.8636 195.436 466.674
2787 0 76.3962 16.0872 1229 93.5484 194.585 466.194
2788 0 77.1254 10.9043 841 99.6445 193.76 459.956
2789 0 80.1216 16.475 1320 94.2727 193.725 460.88
2790 0 78.177 18.5477 1450 92.6648 194.051 460.099
2791 0 81.4921 13.0197 1061 96.7813 193.254 459.007
2792 0 86.1957 13.9566 1203 96.4863 193.285 451.23
2793 0 88.4461 13.4998 1194 97.2353 192.93 450.972
2794 0 94.7 21.2672 2014 88.7234 192.721 457.21
2795 0 95.3406 16.6036 1583 93.0543 192.623 455.901
2796 0 98.207 17.5955 1728 94.3652 192.916 454.077
2797 0 104.437 19.5045 2037 92.5022 193.211 447.729
2798 0 104.147 22.8139 2376 91.3931 193.436 444.226
2799 0 110.522 25.7596 2847 88.0393 193.919 444.655
2800 0 109.329 15.3848 1682 98.78 195.042 435.425
2801 0 115.275 19.692 2270 93.2115 194.789 440.332
2802 0 118.288 13.6193 1611 99.7058 196.122 433.759
2803 0 122.427 15.356 1880 97.9245 196.26 434.303
2804 1 66.1905 14.005 927 96.6235 197.355 463.348
2805 0 72.1345 14.6393 1056 97.1439 197.719 459.245
2806 0 74.114 14.1269 1047 99.9771 198.633 454.308
2807 0 78.286 15.801 1237 97.0776 199.388 461.188
2808 0 79.173 12.6558 1002 102.918 199.201 456.986
2809 0 81.2505 17.6614 1435 97.531 199.217 455.466
2810 0 84.2978 13.2744 1119 102.545 199.605 454.994
2811 0 87.2893 14.9847 1308 99.685 200.369 459.133
2812 0 92.3413 15.4644 1428 100.022 200.459 455.657
2813 0 94.3191 19.4552 1835 96.0414 200.551 454.949
2814 0 94.3728 13.2771 1253 104.168 200.626 453.662
2815 0 96.5166 20.3281 1962 97.3848 201.235 448.686
2816 0 101.408 20.5211 2081 96.9524 200.716 451.812
2817 0 109.365 20.3173 2222 95.6805 201.913 447.228
2818 0 108.552 21.0498 2285 96.1974 201.289 451.521
2819 0 111.471 19.4669 2170 97.4189 201.435 453.791
2820 0 112.425 14.1784 1594 104.463 200.351 450.316
2821 0 119.712 24.1997 2897 92.0987 200.355 450.41
2822 0 120.429 14.9549 1801 104.129 199.436 443.724
2823 0 126.666 17.8344 2259 100.37 199.705 442.289
2824 0 132.526 17.6418 2338 100.232 199.225 441.069
2825 1 78.2234 14.3563 1123 101.623 198.598 468.012
2826 0 80.1791 14.3678 1152 103.852 198.858 461.279
2827 0 80.0656 12.2525 981 107.235 196.828 458.857
2828 0 87.1356 13.5306 1179 103.293 196.134 463.339
2829 0 88.24 18.801 1659 97.7462 196.802 460.616
2830 0 92.4469 18.3024 1692 98.3304 195.784 456.684
2831 0 95.2043 23.0452 2194 94.5606 195.461 450.236
2832 0 96.1868 14.9293 1436 102.233 194.581 455.134
2833 0 99.2132 13.4962 1339 104.082 194.256 452.243
2834 0 101.287 15.5005 1570 103.661 194.431 442.168
2835 0 107.387 15.2625 1639 103.181 193.738 448.119
2836 0 113.282 16.9753 1923 104.278 193.625 445.766
2837 0 115.662 26.2403 3035 94.4244 193.571 441.59
2838 0 117.217 21.2257 2488 99.09 194.297 440.253
2839 0 121.588 18.2008 2213 101.713 194.26 438.072
2840 0 128.503 20.5987 2647 98.3109 194.355 430.334
2841 0 133.297 17.6748 2356 97.2937 195.429 443.737
2842 0 136.528 21.6951 2962 92.8569 195.088 433.548
2843 0 145.377 17.066 2481 97.4422 195.86 426.019
2844 0 145.377 17.0866 2484 145.619 195.843 425.772
2845 1 89.3809 15.3948 1376 96.3677 197.572 452.344
2846 0 89.2439 13.0765 1167 99.5596 198.558 453.866
2847 0 94.1105 17.1394 1613 96.5511 197.969 448.389
2848 0 100.378 21.2098 2129 91.8638 199.506 450.623
2849 0 105.173 22.2491 2340 90.7162 199.392 450.996
2850 0 100.255 10.4533 1048 102.76 201.052 450.676
2851 0 110.365 15.0773 1664 99.7073 201.564 445.888
2852 0 112.585 12.3107 1386 104.536 201.183 439.109
2853 0 117.59 16.0303 1885 101.279 201.404 437.678
2854 0 119.354 24.8002 2960 95.2811 202.318 438.624
2855 0 125.416 20.444 2564 99.4337 202.477 433.159
2856 0 128.345 17.9594 2305 100.708 203.234 442.195
2857 0 131.45 13.8379 1819 107.159 202.446 435.738
2858 0 137.793 16.5466 2280 103.423 203.259 438.139
2859 0 149.661 23.6067 3533 94.5638 203.061 421.478
2860 0 154.687 21.7536 3365 96.6496 203.24 422.77
2861 0 157.908 22.3484 3529 95.0445 203.447 425.881
2862 0 160.522 19.0317 3055 99.1208 202.882 428.324
2863 0 160.377 18.469 2962 100.583 201.964 425.559
2864 0 164.541 16.7375 2754 102.701 202.389 429.217
2865 0 171.347 15.6875 2688 105.837 202.025 423.973
2866 0 177.61 18.8953 3356 101.192 201.44 421.102
2867 0 182.822 22.273 4072 96.6112 201.242 421.857
2868 0 192.489 23.8248 4586 95.2357 200.646 419.306
2869 0 194.835 19.1752 3736 101.27 199.642 410.484
2870 0 200.945 15.1186 3038 104.248 198.715 420.99
2871 0 209.027 16.7969 3511 103.934 199.111 403.666
2872 0 216.891 32.0806 6958 90.0164 197.946 399.311
2873 0 215.512 16.245 3501 103.419 198.464 403.684
2874 0 209.542 9.43487 1977 109.428 196.574 408.027
2875 1 307.286 12.2557 3766 103.104 195.815 399.048
2876 1 190.686 19.8599 3787 100.053 195.56 406.041
2877 0 197.659 17.1609 3392 103.173 195.647 402.098
2878 0 203.95 16.3962 3344 104.411 195.519 393.561
2879 0 216.377 22.202 4804 96.5062 194.6 403.757
2880 0 221.999 24.4506 5428 95.3537 194.252 392.149
2881 1 62.2005 12.6848 789 100.859 195.345 461.493
2882 0 69.6238 19.7346 1374 93.2067 194.114 456.39
2883 0 70.3087 13.1136 922 101.002 195.324 461.035
2884 0 72.229 18.8705 1363 94.6845 194.415 459.483
2885 0 75.3082 17.2093 1296 96.8997 196.049 455.292
2886 0 77.2135 14.557 1124 99.5036 195.271 454.374
2887 0 78.3426 16.8236 1318 98.0721 196.715 449.252
2888 0 81.1659 16.7188 1357 97.9816 197.623 447.5
2889 0 87.3674 19.4237 1697 92.8886 196.609 452.91
2890 0 88.5425 16.173 1432 98.3806 197.96 440.675
2891 0 92.315 15.6421 1444 99.0873 198.244 444.299
2892 0 93.5022 25.0262 2340 91.0077 198.75 438.872
2893 0 98.4484 17.339 1707 97.7493 199.499 440.279
2894 0 102.296 16.247 1662 99.0403 199.906 435.874
2895 0 104.485 16.4618 1720 99.0616 200.638 433.412
2896 1 58.1477 11.8319 688 103.19 200.286 458.385
2897 0 63.1874 15.7152 993 98.3011 200.783 461.333
2898 0 64.0895 15.806 1013 99.1945 201.765 458.441
2899 0 64.2969 12.8155 824 101.16 202.765 460.828
2900 0 68.161 15.6394 1066 97.334 202.563 457.028
2901 0 70.2565 16.5252 1161 95.2274 202.392 460.474
2902 0 72.1775 17.9003 1292 93.8646 202.933 457.126
2903 0 72.149 13.486 973 99.7996 202.188 459.526
2904 0 77.2284 15.9786 1234 96.1126 202.459 457.551
2905 0 77.2162 16.3308 1261 96.0817 202.274 457.847
2906 0 80.1629 14.5454 1166 98.0755 201.047 454.907
2907 0 85.4661 16.8956 1444 94.2147 201.898 458.547
2908 0 89.1499 20.4263 1821 91.1829 201.456 457.117
2909 0 89.239 14.9262 1332 96.9002 201.171 453.408
2910 0 97.6275 16.5015 1611 94.0186 201.432 457.855
2911 0 94.5951 17.8656 1690 95.6544 201.205 447.743
2912 0 97.1136 18.8027 1826 94.4518 200.646 450.758
2913 0 102.508 26.2517 2691 88.4731 199.498 446.71
2914 0 103.434 17.731 1834 95.7972 198.929 448.102
2915 0 108.504 21.1328 2293 93.1239 197.726 438.788
2916 0 112.468 15.2666 1717 99.2842 198.141 431.719
2917 0 116.36 20.6257 2400 93.1779 197.799 443.523
2918 1 67.4029 14.8955 1004 99.8147 197.721 459.69
2919 0 70.2356 16.8576 1184 93.6875 196.17 458.296
2920 0 69.1969 13.122 908 98.1101 195.924 453.482
2921 1 135.646 15.6731 2126 95.4746 195.251 434.196
2922 0 134.449 14.3029 1923 100.842 196.054 425.815
2923 0 139.93 15.958 2233 98.6225 195.568 423.79
2924 0 146.839 13.1573 1932 100.824 195.311 423.75
2925 0 152.383 15.658 2386 97.0557 196 423.096
2926 1 166.292 13.4282 2233 99.4447 196.257 416.48
2927 0 162.801 15.2395 2481 98.3906 196.59 413.865
2928 0 167.557 20.1961 3384 93.3109 195.975 411.397
2929 1 91.5473 17.5975 1611 96.1018 196.912 440.669
2930 0 99.6174 22.0443 2196 91.1475 197.49 440.021
2931 0 97.9294 17.2675 1691 96.974 196.714 435.315
2932 0 103.635 18.3046 1897 95.1365 196.655 438.118
2933 0 105.552 15.9352 1682 98.4477 197.506 436.742
2934 0 108.225 12.705 1375 103.327 197.828 430.825
2935 0 111.736 13.3798 1495 102.681 199.656 430.637
2936 0 119.558 14.7543 1764 100.492 200.964 427.457
2937 0 121.464 18.8863 2294 95.6473 200.003 429.627
2938 0 126.518 16.5827 2098 99.1978 202.061 423.382
2939 0 128.462 15.779 2027 100.48 201.477 421.873
2940 0 136.685 16.2344 2219 98.8846 202.453 426.332
2941 0 141.516 17.8001 2519 99.1131 202.348 419.744
2942 1 74.3302 11.1529 829 106.811 202.811 449.06
2943 0 78.4469 13.78 1081 102.399 203.79 452.031
2944 0 81.2665 15.4799 1258 99.8911 203.984 448.678
2945 0 81.4787 13.9914 1140 102.272 203.919 449.036
2946 0 90.4794 23.8397 2157 90.6676 204.048 450.63
2947 0 89.7304 21.8767 1963 92.4203 202.65 452.192
2948 0 91.6149 14.4518 1324 101.329 203.062 449.818
2949 0 91.527 11.625 1064 105.181 202.944 449.166
2950 0 95.7564 15.6856 1502 101.13 202.545 443.652
2951 0 99.4602 14.267 1419 102.195 201.979 445.099
2952 0 102.539 14.5603 1493 102.487 202.536 447.531
2953 0 108.963 20.117 2192 96.2322 202.621 443.689
2954 0 112.76 15.4221 1739 102 201.569 440.89
2955 0 114.727 15.3931 1766 102.117 202 441.661
2956 0 122.323 24.5008 2997 92.6496 199.705 436.124
2957 0 122.717 16.9904 2085 100.931 200.065 436.301
2958 0 124.494 16.5069 2055 100.588 198.333 438.901
2959 0 130.604 18.5063 2417 97.3335 198.849 435.853
2960 0 132.543 16.704 2214 100.388 198.75 427.423
2961 0 137.576 20.178 2776 94.6848 197.948 439.407
2962 0 142.004 17.1545 2436 100.369 197.218 424.51
2963 0 147.127 16.394 2412 101.291 197.948 421.968
2964 0 151.629 14.4894 2197 103.41 196.133 414.716
2965 0 156.663 18.6515 2922 99.129 197.147 414.866
2966 0 164.66 18.438 3036 98.9565 196.709 409.666
2967 0 167.932 20.0676 3370 98.089 196.331 399.85
2968 0 169.739 18.3459 3114 100.462 197.432 402.365
2969 1 80.4963 12.2242 984 104.375 195.452 439.18
2970 0 88.8951 18.9324 1683 95.6096 195.885 447.819
2971 0 89.3808 19.8924 1778 94.2694 195.46 442.237
2972 0 89.816 22.4793 2019 92.3888 197.577 441.296
2973 0 92.5961 11.7284 1086 102.654 197.697 443.808
2974 0 100.017 17.2171 1722 96.6365 197.479 440.992
2975 0 98.7705 12.4936 1234 104.188 198.04 431.271
2976 0 103.26 13.19 1362 102.822 198.302 434.461
2977 0 108.73 19.2403 2092 96.1386 200.04 435.381
2978 0 114.691 16.8453 1932 98.3121 200.216 434.487
2979 0 115.952 18.2489 2116 98.8648 200.624 425.51
2980 0 121.595 22.2625 2707 93.5611 200.935 435.151
2981 0 124.613 14.1719 1766 103.526 201.257 426.575
2982 0 128.709 16.8442 2168 99.7911 202.324 430.335
2983 1 66.2684 14.6073 968 96.5579 201.228 460.856
2984 0 63.3827 18.4593 1170 95.2872 202.631 457.593
2985 0 72.1933 17.2731 1247 93.9511 202.237 462.447
2986 0 70.4793 15.0115 1058 99.258 202.874 460.23
2987 0 74.2467 13.7919 1024 100.177 203.243 460.787
2988 0 75.5008 14.6621 1107 99.9747 203.306 459.55
2989 0 77.1799 9.08267 701 105.582 202.845 460.877
2990 0 80.3743 14.1214 1135 100.518 203.213 460.558
2991 0 83.1528 18.9651 1577 96.2099 202.637 455.57
2992 0 84.3572 16.0508 1354 99.4357 203.111 456.286
2993 0 87.3934 23.1482 2023 89.9733 202.427 467.022
2994 0 92.4499 20.5949 1904 94.781 202.357 454.9
2995 0 93.6047 12.3819 1159 104.747 201.561 452.401
2996 0 99.7063 18.9156 1886 96.6156 200.584 455.638
2997 0 101.193 13.8547 1402 102.663 201.18 448.391
2998 0 103.561 16.3189 1690 100.469 200.848 449.907
2999 0 105.272 15.4647 1628 103.205 200.146 451.764
3000 0 110.663 15.2536 1688 103.1 198.975 447.374
3001 0 112.983 15.374 1737 103.601 198.336 448.215
3002 0 113.636 16.6321 1890 101.452 197.938 450.966
3003 0 119.424 14.1763 1693 105.928 196.812 442.57
3004 0 121.609 14.8591 1807 105.383 197.385 442.426
3005 0 126.345 18.4812 2335 101.705 195.788 431.511
3006 0 129.488 18.3029 2370 101.716 195.541 436.16
3007 0 139.342 17.4822 2436 99.9429 195.835 441.25
3008 0 140.878 19.9038 2804 98.811 195.517 432.041
3009 0 144.547 15.3722 2222 104.798 195.712 423.833
3010 0 149.488 16.2889 2435 103.925 194.384 425.603
3011 0 154.504 18.5108 2860 101.659 194.483 417.47
3012 0 157.852 19.1318 3020 101.573 194.35 415.575
3013 0 160.464 16.7078 2681 104.669 194.854 413.527
3014 0 168.957 20.4609 3457 100.565 194.79 406.59
3015 0 172.598 16.0546 2771 105.093 194.911 403.512
3016 0 179.715 25.6073 4602 95.8494 194.78 401.131
3017 0 184.54 18.9173 3491 101.953 195.801 403.235
3018 0 189.019 18.3368 3466 102.896 195.492 401.879
3019 0 194.397 17.8603 3472 103.907 196.95 390.698
3020 0 201.897 18.9057 3817 102.296 197.298 397.635
3021 0 209.912 18.2791 3837 101.991 198.379 403.37
3022 0 213.817 18.2773 3908 103.658 198.724 389.623
3023 0 225.197 26.6123 5993 94.5633 198.944 396.637
3024 0 234.408 20.0079 4690 100.064 199.632 393.759
3025 1 178.81 19.5459 3495 101.33 200.13 401.921
3026 0 185.705 15.0615 2797 105.559 201.163 405.444
3027 0 192.95 17.305 3339 104.004 202.225 402.353
3028 0 201.781 14.8676 3000 105.845 201.933 401.6
3029 0 215.691 21.8646 4716 97.1607 202.908 407.636
3030 0 212.722 16.7214 3557 104.996 201.606 396.205
3031 0 222.912 13.8081 3078 108.347 202.919 388.719
3032 0 235.646 22.2919 5253 98.0308 202.606 398.604
3033 0 240.175 17.9869 4320 103.244 202.191 388.998
3034 0 248.715 19.7897 4922 101.023 202.51 388.38
3035 0 256.667 18.7597 4815 102.348 201.832 378.461
3036 1 343.938 21.1841 7286 99.1884 201.884 352.464
3037 1 314.473 18.7011 5881 102.402 201.473 357.747
3038 0 315.429 17.2939 5455 103.987 201.142 359.042
3039 0 314.921 17.0964 5384 102.592 199.934 365.493
3040 0 316.405 10.3791 3284 106.308 200.3 395.266
3041 0 317.467 25.0073 7939 95.6099 199.219 359.953
3042 0 326.741 18.9906 6205 101.971 199.09 351.892
3043 1 354.75 9.64904 3423 106.924 199.086 393.339
3044 1 72.537 14.2686 1035 99.3478 198.244 471.017
3045 0 72.4425 14.1215 1023 100.659 198.401 469.897
3046 0 75.6743 17.8528 1351 96.1503 196.432 473.596
3047 0 78.3223 13.5211 1059 102.393 196.625 466.539
3048 0 80.3403 14.1399 1136 100.998 196.636 471.043
3049 1 106.627 29.214 3115 82.6549 195.7 456.174
3050 0 102.965 16.054 1653 95.8996 195.506 459.723
3051 0 94.5671 16.676 1577 97.6944 194.886 458.55
3052 0 94.3564 18.1758 1715 96.9994 195.361 459.673
3053 0 95.6048 14.9888 1433 101.546 195.167 455.902
3054 0 97.4536 15.1354 1475 100.732 195.078 455.879
3055 0 100.428 18.1224 1820 97.3835 195.291 456.797
3056 0 101.568 16.6983 1696 100.099 194.697 450.606
3057 0 107.454 14.4061 1548 102.398 196.417 450.963
3058 0 154.507 11.1257 1719 103.133 196.023 445.93
3059 0 157.258 12.1965 1918 101.337 196.559 449.691
3060 0 157.748 13.4455 2121 99.7166 197.824 450.975
3061 0 157.146 19.0969 3001 93.8004 197.498 422.136
3062 0 164.066 21.0037 3446 91.3741 197.261 415.635
3063 0 171.123 23.714 4058 89.5633 197.224 420.523
3064 0 164.57 24.5305 4037 90.1454 197.717 413.677
3065 0 160.749 25.1137 4037 91.7847 197.469 415.713
3066 0 151.942 26.4773 4023 92.5958 197.887 412.087
3067 0 151.097 20.1394 3043 100.689 199.445 417.123
3068 0 151.154 27.6275 4176 93.6295 199.182 412.575
3069 0 154.823 23.711 3671 97.9545 200.25 409.475
3070 0 153.912 24.7155 3804 99.0683 201.703 422.146
3071 0 152.379 23.0675 3515 102.448 201.714 422.752
3072 0 157.449 19.8477 3125 105.942 201.513 426.207
3073 0 164.767 20.1982 3328 105.48 201.028 412.898
3074 0 168.908 22.1481 3741 103.745 201.637 411.021
3075 0 172.657 19.6227 3388 107.419 200.592 422.233
3076 0 181.804 18.2285 3314 108.962 200.578 417.603
3077 0 176.699 12.8071 2263 117.901 201.787 419.599
3078 0 186.704 16.4539 3072 112.489 201.113 414.937
3079 0 188.971 14.8541 2807 115.834 200.701 414.656
3080 0 188.583 14.1954 2677 117.081 200.357 418.278
3081 1 206.74 22.5065 4653 104.915 200.132 408.311
3082 0 213.875 18.6511 3989 110.097 199.758 409.388
3083 0 219.645 19.0261 4179 110.257 200.178 404.378
3084 0 226.724 17.6955 4012 111.751 199.775 400.178
3085 0 236.57 20.5563 4863 108.129 198 391.4
3086 0 236.57 20.3999 4826 136.417 197.004 391.349
3087 1 253.398 21.5195 5453 105.764 198.509 387.323
3088 1 196.977 18.5352 3651 112.558 197.918 411.719
3089 0 200.558 17.4214 3494 114.403 196.455 399.491
3090 0 207.544 16.1797 3358 116.121 195.747 397.665
3091 0 215.668 15.9412 3438 114.949 194.851 403.565
3092 0 220.66 16.1107 3555 114.313 194.942 400.525
3093 0 226.81 17.8651 4052 111.57 193.721 390.311
3094 0 232.855 20.3217 4732 108.198 192.654 382.921
3095 1 313.202 13.4003 4197 112.513 193.092 380.221
3096 0 311.076 16.3401 5083 109.945 192.331 353.139
3097 0 311.967 12.7353 3973 112.422 193.773 382.066
3098 0 306.978 13.128 4030 111.76 193.134 384.775
3099 1 214.55 19.3475 4151 109.058 193.777 391.742
3100 0 223.134 19.3516 4318 108.086 194.881 391.12
3101 0 229.799 18.081 4155 109.708 194.398 383.87
3102 0 236.476 21.2791 5032 105.897 193.423 376.818
3103 0 248.56 26.4524 6575 100.173 193.633 363.761
3104 0 252.788 26.4134 6677 100.122 194.782 369.279
3105 1 262.902 24.0812 6331 101.889 195.888 369.958
3106 0 271.955 21.316 5797 104.031 197.024 371.803
3107 0 280.577 20.3652 5714 105.151 196.898 356.554
3108 0 290.861 19.2944 5612 107.012 197.947 338.63
3109 0 300.164 17.7503 5328 108.15 197.902 345.654
3110 0 308.542 24.7487 7636 100.857 197.765 336.612
3111 0 320.046 25.4932 8159 99.8783 198.07 336.252
3112 0 324.188 20.6763 6703 104.824 199.677 331.029
3113 0 339.17 24.0882 8170 101.661 200.319 330.49
3114 0 354.172 29.9741 10616 96.1927 198.641 334.449
3115 0 359.258 22.4658 8071 103.928 198.53 314.18
3116 0 372.004 19.3277 7190 107.041 199.761 310.729
3117 0 375.977 26.1266 9823 101.08 198.63 300.845
3120 0 381.203 34.4252 13123 95.2808 198.839 301.123
3122 0 380.335 27.2392 10360 101.815 199.254 298.249
3124 0 386.073 21.1463 8164 107.768 197.975 299.012
3126 0 384.102 29.1798 11208 100.402 198.103 297.615
3127 0 387.313 28.0187 10852 101.768 197.908 295.331
3131 0 335.228 21.5555 7226 107.791 195.376 333.008
3132 0 343.966 32.3753 11136 96.9134 194.665 323.664
3133 0 357.802 26.4699 9471 103.066 194.699 314.429
3134 0 367.064 27.5838 10125 102.377 193.399 310.966
3135 0 376.847 20.2469 7630 111.431 193.606 291.599
3137 0 382.545 23.0326 8811 109.57 192.972 291.903
3138 0 377.235 27.7599 10472 104.93 192.975 292.675
3139 0 340.043 18.3242 6231 115.956 193.297 310.848
3140 0 349.699 18.6961 6538 114.392 194.11 315.091
3141 0 363.416 24.9411 9064 105.688 192.697 292.431
3145 0 357.038 18.0485 6444 111.917 193.029 280.44
3146 0 367.509 33.6889 12381 95.2542 194.137 291.06
3147 0 363.567 27.7803 10100 99.9003 194.025 285.307
3148 0 355.347 25.3977 9025 102.698 194.17 283.684
3149 0 366.295 19.9429 7305 107.675 194.373 283.376
