time division length width area intensity CMx CMy
0 0 39.1355 13.4661 527 129.793 135.457 475.799
1 0 38.2277 11.3269 433 123.358 134.746 481.788
2 0 38.1119 13.6703 521 126.785 134.104 478.259
3 0 39.0488 14.3666 561 122.362 133.287 479.936
4 0 38.0519 13.1399 500 141.818 132.31 480.742
5 0 41.0167 15.2377 625 122.45 132.171 476.555
6 0 40.0239 14.2415 570 126.918 131.584 476.382
7 0 42.0853 12.9974 547 132.252 131.011 476.294
8 0 45.0953 14.6579 661 125.947 130.371 476.455
9 0 45.2035 13.4945 610 128.825 128.659 475.857
10 0 47.1139 16.0674 757 122.083 128.32 474.022
11 0 48.0692 15.6441 752 125.403 127.457 474.134
12 0 49.1147 13.5397 665 129.991 127.669 473.125
13 0 50.0769 13.3395 668 129.515 127.928 471.301
14 0 51.0467 12.2045 623 131.782 127.225 469.912
15 0 54.1316 16.2936 882 124.577 126.717 462.992
16 0 57.1171 15.2144 869 120.159 126.682 465.25
17 0 60.0751 15.0645 905 123.922 126.952 462.497
18 0 59.1891 12.6037 746 126.598 127.637 463.068
19 0 62.2382 14.0749 876 126.833 127.816 458.741
20 0 67.1581 17.4067 1169 116.904 127.056 456.145
21 0 70.0535 15.3311 1074 117.677 127.642 451.913
22 0 71.2152 14.4211 1027 124.417 127.941 453.906
23 1 173.068 13.4051 2320 103.628 137.869 447.175
24 1 118.433 10.7571 1274 135.628 141.597 405.626
25 1 80.153 16.2315 1301 117.986 141.57 447.001
26 1 42.054 12.0559 507 124.28 141.572 463.602
27 0 48.1605 18.8121 906 111.194 141.386 462.904
28 0 46.0487 16.3305 752 116.5 140.512 460.943
29 0 48.1543 13.5606 653 119.158 139.776 459.841
30 0 46.0293 14.556 670 118.397 140.76 458.342
31 0 49.1111 14.2534 700 118.361 139.444 459.624
32 0 50.1291 13.2857 666 118.538 140.467 460.826
33 0 52.2291 14.7236 769 118.055 141.978 457.458
34 0 53.199 15.5642 828 115.19 142.001 458.915
35 0 57.1765 17.9444 1026 112.053 142.459 460.053
36 0 58.0516 16.2442 943 113.355 141.697 456.915
37 0 62.2057 17.5707 1093 109.71 143.409 457.759
38 0 61.1081 15.3662 939 114.673 141.471 456.497
39 0 66.283 18.949 1256 105.221 142.334 464.287
40 0 68.2585 14.6941 1003 109.505 140.737 461.061
41 0 69.2735 16.1534 1119 112.438 140.374 456.444
42 0 72.1256 13.5458 977 114.83 139.736 456.728
43 0 73.11 16.3042 1192 108.992 139.511 459.497
44 0 78.1141 14.8373 1159 113.488 138.352 457.94
45 0 82.2292 16.2838 1339 107.042 138.981 458.771
46 0 80.1702 11.2511 902 130.29 137.677 459.542
47 0 87.2531 14.945 1304 125.583 136.482 453.528
48 0 91.2033 16.5235 1507 120.117 135.397 450.309
49 0 93.4091 13.1036 1224 124.79 134.768 455.576
50 0 97.1573 15.8815 1543 124.229 134.756 452.734
51 0 103.352 15.1328 1564 127.258 133.17 447.582
52 0 106.267 18.2277 1937 121.772 132.42 447.65
53 0 110.363 16.5363 1825 122.3 131.147 443.265
54 0 115.333 12.9192 1490 126.938 131.095 442.999
55 1 58.0716 15.6014 906 117.987 130.334 468.492
56 0 60.1115 13.8243 831 119.319 130.154 468.41
57 0 60.059 13.4201 806 119.924 129.84 466.026
58 0 64.0783 13.4523 862 119.787 129.969 462.397
59 0 66.1353 15.4683 1023 116.591 129.001 462.683
60 0 70.2249 16.7747 1178 111.067 129.688 467.332
61 0 69.0687 12.7554 881 119.944 129.356 458.31
62 0 71.1285 13.7498 978 120.01 128.553 453.058
63 0 76.0666 16.078 1223 114.589 127.928 452.619
64 0 80.2371 14.6815 1178 114.503 128.853 453.131
65 0 79.3096 12.9493 1027 118.294 128.956 451.757
66 0 85.3492 16.3798 1398 112.667 128.625 448.226
67 0 88.2244 13.2843 1172 116.434 129.342 444.178
68 0 91.2386 13.0646 1192 116.884 129.37 444.107
69 0 94.4255 12.2425 1156 117.927 129.82 443.489
70 0 99.3385 13.3483 1326 117.677 131.241 439.479
71 1 49.0767 13.1019 643 112.467 130.462 465.585
72 0 53.0536 12.5533 666 115.203 131.868 459.144
73 0 57.0915 13.8024 788 114.263 132.129 458.811
74 0 58.1774 19.8015 1152 105.627 132.958 460.094
75 0 58.2136 10.513 612 118.453 133.42 460.729
76 0 62.1435 13.8389 860 112.592 134 459.756
77 0 61.3711 12.1718 747 118.78 133.78 456.932
78 0 65.1987 13.7119 894 116.159 134.291 455.845
79 0 69.3168 15.0757 1045 114.763 134.536 454.997
80 0 72.1863 15.9033 1148 113.537 136.189 457.244
81 0 72.3729 12.6981 919 120.243 136.672 454.864
82 0 75.3091 13.1325 989 121.559 136.817 455.624
83 0 79.0632 14.4441 1142 119.884 136.327 454.347
84 0 80.2914 14.0986 1132 120.443 135.386 455.878
85 0 83.2919 13.6748 1139 123.463 135.721 450.503
86 0 87.2098 13.6911 1194 124.449 135.25 447.801
87 0 92.1182 16.7502 1543 118.88 134.586 452.442
88 0 92.3123 12.4469 1149 127.007 133.701 452.466
89 0 98.3167 14.7889 1454 123.165 134.466 451.739
90 1 54.1767 11.3702 616 122.594 133.505 474.391
91 0 53.3548 13.4383 717 116.474 131.695 468.622
92 0 55.1883 15.1119 834 116.465 132.88 471.747
93 0 56.0945 11.5519 648 120.026 132.052 474.252
94 0 58.0856 14.031 815 115.013 129.899 473.225
95 0 59.1388 14.6097 864 114.358 130.552 471.637
96 0 60.0451 10.8419 651 120.376 128.896 468.078
97 0 64.2285 12.4867 802 117.515 129.875 468.066
98 0 68.2655 14.1213 964 113.808 128.165 467.398
99 0 68.2118 14.2937 975 113.876 127.602 467.479
100 0 72.135 12.7539 920 116.64 128.228 463.71
101 0 73.2549 13.4325 984 115.49 127.444 461.748
102 0 76.1219 12.9923 989 118.059 126.815 456.015
103 0 80.1037 14.9806 1200 113.808 126.449 456.882
104 0 83.1353 15.3846 1279 113.194 126.401 450.453
105 0 87.1524 15.8229 1379 113.196 126.662 451.67
106 0 88.1969 13.4132 1183 116.659 127.088 454.293
107 0 89.2681 13.1962 1178 118.915 126.475 449.285
108 0 91.2476 12.8003 1168 121.396 126.739 445.348
109 0 99.3267 14.9104 1481 115.243 127.668 446.711
110 0 101.442 14.9642 1518 117.584 127.676 438.599
111 0 109.688 17.0483 1870 115.86 127.437 440.416
112 0 109.256 14.5621 1591 117.197 127.979 433.626
113 0 113.322 13.6337 1545 118.073 127.509 432.156
114 1 59.1581 11.7144 693 115.789 128.352 459.952
115 0 63.1023 14.2784 901 111.336 128.448 452.176
116 0 60.1885 14.2718 859 113.244 128.596 453.957
117 0 64.2744 17.4408 1121 108.269 129.095 455.634
118 0 65.1837 17.0135 1109 110.593 130.72 453.72
119 0 67.1352 19.3639 1300 107.284 130.913 454.374
120 0 69.1446 13.479 932 116.29 132.223 453.724
121 0 69.226 12.6831 878 117.784 132.023 454.271
122 0 71.2409 16.2407 1157 112.144 132.441 454.826
123 0 75.2009 15.811 1189 111.841 132.004 456.167
124 0 76.1371 15.0912 1149 114.694 133.191 452.382
125 0 79.2318 11.4727 909 120.564 132.884 454.494
126 0 84.2833 15.0919 1272 114.476 133.266 454.27
127 0 86.1686 11.6864 1007 120.299 133.486 453.786
128 0 88.2232 13.5565 1196 118.967 132.015 447.672
129 0 94.1067 14.7173 1385 116.09 133.711 447.155
130 0 98.2367 12.7854 1256 118.838 132.249 447.213
131 0 102.35 14.9976 1535 113.707 132.945 450.958
132 0 102.117 8.87218 906 121.137 132.269 445.125
133 0 112.264 13.7533 1544 112.265 132.842 448.129
134 1 58.1194 13.8508 805 106.588 132.337 472.252
135 0 60.1428 15.1473 911 104.985 131.247 474.001
136 0 61.2062 12.9072 790 107.643 130.796 471.149
137 0 60.1734 11.7328 706 110.501 129.459 469.113
138 0 65.1672 13.2889 866 107.846 130.804 466.791
139 0 67.0561 15.0024 1006 105.073 128.293 465.184
140 0 70.3536 14.2992 1006 104.979 129.037 464.466
141 0 73.4162 15.3236 1125 103.372 127.497 463.229
142 0 75.1332 13.2831 998 107.245 127.311 460.859
143 0 77.2643 14.8322 1146 103.809 126.578 462.639
144 0 83.1215 16.0488 1334 102.536 126.641 459.294
145 0 83.286 14.096 1174 105.701 125.243 454.527
146 0 88.151 13.5676 1196 106.945 125.777 454.421
147 0 91.437 13.5831 1242 107.341 124.378 448.12
148 0 94.2245 13.1494 1239 107.715 124.28 449.973
149 0 96.1206 13.3998 1288 109.256 124.442 445.68
150 1 54.1301 11.7495 636 109.509 123.987 466.505
151 0 56.0488 12.0431 675 111.864 123.753 464.098
152 0 60.0984 12.6958 763 111.866 122.661 460.588
153 0 61.2146 15.1271 926 106.476 123.62 457.521
154 0 62.2997 13.4511 838 110.042 123.883 456.463
155 0 63.262 14.9063 943 107.776 123.407 459.545
156 0 66.2705 18.7263 1241 100.898 125.546 461.168
157 0 67.21 14.8936 1001 109.799 126.613 451.923
158 0 70.4454 13.7837 971 111.161 127.779 453.539
159 0 73.3644 17.011 1248 107.627 127.152 447.692
160 0 74.1498 14.3763 1066 111.673 129.006 447.467
161 0 75.2885 12.1798 917 116.818 128.944 446.026
162 0 81.201 11.9826 973 115.101 130.26 450.303
163 0 83.3121 15.2799 1273 110.764 129.007 446.728
164 0 87.3432 17.1164 1495 109.525 130.471 443.963
165 0 90.3248 13.6286 1231 113.877 130.833 445.703
166 1 51.1612 13.2327 677 105.908 133.001 467.792
167 0 51.1778 13.1502 673 106.386 132.516 468.941
168 0 54.1049 13.3075 720 107.824 131.694 461.868
169 0 55.0821 17.4649 962 100.189 131.317 465.696
170 0 56.0382 14.2581 799 105.135 131.865 466.217
171 0 58.1227 14.7791 859 103.82 131.573 467.629
172 0 58.0788 9.28049 539 111.547 131.989 469.839
173 0 60.0884 14.2457 856 105.153 130.82 469.021
174 0 63.129 13.7021 865 105.72 129.487 467.277
175 0 63.1351 9.58262 605 112.441 130.734 464.203
176 0 67.0641 13.3753 897 106.236 129.707 466.458
177 0 71.4523 19.3416 1382 97.3509 129.786 469.556
178 0 69.2275 13.7951 955 105.848 128.883 466.414
179 0 70.1619 14.3668 1008 105.154 127.59 464.858
180 0 76.2132 13.9871 1066 103.981 127.568 464.395
181 0 78.1359 14.4236 1127 104.392 127.005 462.477
182 0 81.2083 14.1734 1151 105.424 126.957 456.326
183 0 84.2747 12.0439 1015 107.436 126.121 461.018
184 1 45.1274 10.836 489 107.166 126.812 475.421
185 0 42.069 12.7172 535 105.187 125.299 473.368
186 0 45.2627 12.3059 557 103.977 123.174 475.693
187 0 47.1258 10.228 482 100.537 122.598 473.079
188 0 49.1492 14.8731 731 96.3228 124.005 469.56
189 0 49.0978 18.2289 895 92.0089 123.049 473.257
190 0 55.6648 16.6353 926 92.6156 121.112 469.737
191 0 53.1699 13.0525 694 97.3285 120.986 469.844
192 0 53.1589 11.8136 628 100.354 121.166 463.935
193 0 56.1863 13.4374 755 97.3589 121.351 465.828
194 0 55.0305 12.7202 700 98.0914 121.38 467.143
195 0 61.1225 14.2992 874 96.4966 121.475 463.186
196 0 61.1441 13.9997 856 97.5526 121.829 459.8
197 0 61.1215 11.7962 721 99.9209 121.68 457.27
198 0 65.1267 11.9766 780 98.9474 123.068 459.477
199 0 68.214 15.1582 1034 96.0155 123.205 455.601
200 0 62.1655 6.40226 398 107.053 124.085 456.113
201 0 70.1693 8.77877 616 102.534 124.912 458.323
202 0 72.2849 10.8875 787 100.961 125.126 456.626
203 0 71.1641 6.2391 444 105.959 125.259 451.041
204 0 77.1085 15.355 1184 96.8345 127.294 449.272
205 0 79.1623 13.2134 1046 98.0201 127.273 450.051
206 0 84.2159 12.0405 1014 99.3343 128.749 452.06
207 0 89.2448 13.3341 1190 98.4866 128.889 449.102
208 1 47.0613 9.75324 459 99.2266 128.525 467.85
209 0 45.0832 10.5361 475 97.9768 129.086 471.893
210 0 49.0609 12.4539 611 95.9002 130.679 469.718
211 0 47.1129 11.0798 522 97.3985 130.644 467.299
212 0 49.1726 5.87726 289 100.353 129.415 475.962
213 0 51.0685 12.121 619 96.1745 130.289 469.572
214 0 51.0305 8.99462 459 98.7386 129.754 473.969
215 0 51.2515 13.4435 689 93.6981 130.006 476.784
216 0 56.2767 12.1542 684 94.7836 130.308 476.425
217 0 57.1893 10.8587 621 95.5378 129.477 478.412
218 0 58.1339 11.3531 660 96.8167 129.242 470.126
219 0 59.1969 13.6494 808 95.7475 129.818 468.131
220 0 64.3083 17.5405 1128 91.6046 129.121 468.933
221 0 63.0602 10.4503 659 98.5053 129.31 473.061
222 0 69.0734 17.257 1192 93.1997 129.463 466.075
223 0 68.0952 10.5441 718 101.196 128.306 469.802
224 0 69.2169 9.59303 664 102.352 127.459 469.384
225 0 74.4712 12.2329 911 98.6301 125.903 467.722
226 0 75.3545 12.1426 915 99.5792 125.003 465.59
227 0 80.228 14.035 1126 99.3037 124.968 461.671
228 0 88.1911 9.40005 829 100.768 123.164 466.995
229 0 86.4607 10.5944 916 100.067 122.206 463.743
230 0 87.1092 15.0845 1314 98.5601 122.094 459.37
231 0 91.4649 12.7262 1164 100.375 122.144 457.826
232 1 46.1507 15.406 711 93.5232 121.073 479.603
233 0 50.3186 11.1688 562 100.431 120.593 474.95
234 0 50.1474 11.4662 575 99.7113 120.4 477.6
235 0 52.0505 19.8845 1035 92.7275 121.162 475.393
236 0 56.3943 13.1574 742 99.7453 121.193 470.951
237 0 55.058 11.1882 616 104.349 121.703 467.365
238 0 59.2717 14.5601 863 98.3928 121.294 469.165
239 0 62.253 16.0153 997 97.4604 122.163 466.12
240 0 62.4171 13.3297 832 102.337 120.429 461.97
241 0 62.3019 12.7444 794 104.297 122.242 460.758
242 0 66.166 13.6777 905 103.036 122.243 460.938
243 0 67.315 12.9392 871 104.056 121.85 461.472
244 0 69.3776 13.722 952 104.337 123.192 457.659
245 0 71.2735 14.1006 1005 103.378 122.686 458.942
246 0 73.1305 14.4673 1058 103.099 124.851 458.936
247 0 73.2407 11.8104 865 108.317 123.136 452.243
248 0 78.2799 18.1273 1419 99.1226 123.416 451.752
249 0 81.3158 9.73981 792 108.038 125.245 455.284
250 0 81.7482 14.6303 1196 105.401 125.479 446.836
251 0 86.1536 13.1741 1135 105.828 126.452 447.786
252 0 91.3033 18.2907 1670 98.6317 126.622 450.13
253 0 94.3692 14.1148 1332 107.459 127.027 445.628
254 0 98.1463 14.7841 1451 105.661 127.583 440.306
255 1 52.0617 11.3903 593 105.211 126.174 469.349
256 0 54.4868 11.9111 649 103.783 127.612 467.461
257 0 54.3187 13.7706 748 102.437 128.392 466.92
258 0 57.0751 16.8199 960 100.71 128.289 468.115
259 0 58.1292 13.9173 809 104.067 128.646 466.331
260 0 58.1918 12.5447 730 105.627 127.899 469.252
261 0 59.0602 12.191 720 107.19 126.378 470.792
262 0 62.1572 13.498 839 105.849 126.602 466.484
263 0 64.1317 11.4764 736 108.751 126.668 469.595
264 1 131.512 18.1961 2393 104.592 126.141 439.85
265 1 68.351 14.1622 968 105.059 126.142 470.071
266 0 70.1884 14.9597 1050 104.219 125.063 467.898
267 0 74.3201 13.5226 1005 105.914 125.192 466.612
268 0 76.2944 12.3993 946 108.302 123.706 464.852
269 0 77.2787 12.6684 979 107.941 123.265 464.582
270 0 80.186 12.9574 1039 108.484 122.284 460.295
271 0 84.1028 13.3408 1122 108.88 121.295 457.717
272 0 86.2061 12.0409 1038 110.494 121.382 458.426
273 0 87.2874 12.3271 1076 111.322 121.518 451.993
274 0 88.2201 10.8252 955 112.175 120.913 455.748
275 0 89.285 12.1409 1084 109.316 120.207 458.501
276 1 51.1105 11.0741 566 110.723 118.337 470.521
277 0 55.0488 13.4971 743 101.83 119.592 470.28
278 0 54.0864 13.5154 731 104.2 120.264 469.495
279 0 57.0492 14.4963 827 102.628 119.115 462.459
280 0 58.0798 13.9636 811 104.379 119.049 460.348
281 0 59.1834 13.078 774 105.041 118.519 462.425
282 0 60.0868 11.6665 701 107.428 119.324 461.195
283 0 61.1566 9.59831 587 110.184 119.538 459.526
284 0 65.0531 12.2669 798 103.258 120.764 460.643
285 0 66.1222 11.388 753 105.081 121.317 459.456
286 0 67.0984 12.5934 845 107.291 122.219 451.548
287 0 68.0725 8.34405 568 112.426 122.509 454.12
288 0 72.2005 13.1024 946 106.557 123.28 450.648
289 0 76.0921 17.1371 1304 100.831 124.002 451.883
290 0 76.2022 15.3933 1173 105.361 125.844 448.361
291 0 81.1684 14.1065 1145 106.636 126.005 447.822
292 0 82.3908 10.7536 886 112.666 127.748 446.973
293 0 87.224 14.457 1261 107.849 128.822 443.941
294 0 93.4132 16.4217 1534 104.885 130.147 444.177
295 0 95.1771 13.4381 1279 112.333 128.664 443.903
296 1 50.034 12.5115 626 110.26 129.471 462
297 0 52.0684 14.6538 763 106.535 130.543 463.013
298 0 55.1197 12.7178 701 104.051 130.384 465.21
299 0 55.0686 13.7828 759 103.619 131.211 463.726
300 0 55.136 13.6753 754 105.282 131.497 464.757
301 0 57.5185 12.7611 734 112.149 130.15 466.087
302 0 58.1072 13.4235 780 111.305 130.319 464.747
303 0 61.1758 16.5098 1010 106.336 130.767 466.428
304 0 61.2637 12.7971 784 112.585 130.548 466.406
305 0 64.1401 14.1877 910 110.31 130.397 463.408
306 0 65.2147 13.8772 905 113.357 130.034 462.73
307 0 68.4346 14.7148 1007 111.657 128.385 464.064
308 0 69.1917 13.6866 947 114.247 129.472 463.51
309 0 69.4813 14.0901 979 113.554 128.314 462.824
310 0 73.7126 15.4112 1136 111.492 128.732 464.948
311 0 76.1562 17.2146 1311 108.858 127.596 463.312
312 0 79.3286 12.7823 1014 115.525 126.123 460.791
313 0 80.2117 17.1671 1377 107.32 125.924 463.363
314 0 85.2285 19.0664 1625 104.664 125.83 461.471
315 0 87.2354 14.2259 1241 112.977 125.122 454.554
316 1 46.0874 10.4584 482 112.919 125.504 473.967
317 0 49.0632 15.103 741 103.649 123.418 472.001
318 0 48.0707 15.1444 728 102.911 122.299 470.492
319 0 50.1298 12.707 637 105.972 121.334 471.688
320 0 52.1293 13.831 721 105.483 121.569 464.953
321 0 53.3468 12.7468 680 106.344 121.468 466.844
322 0 54.1385 13.2807 719 105.713 121.747 463.47
323 0 58.2021 14.6902 855 102.856 121.935 463.833
324 0 57.3944 14.6356 840 104.582 121.524 458.563
325 0 62.1857 12.4144 772 106.584 121.022 459.917
326 0 63.1966 11.8836 751 107.971 121.274 457.15
327 0 67.3277 12.5951 848 106.255 122.399 457.495
328 0 67.2055 12.5585 844 107.111 122.581 453.398
329 0 66.1374 13.5929 899 110.132 125.44 451.22
330 0 72.1948 14.7656 1066 108.045 125.744 447.442
331 0 77.107 12.2687 946 110.337 127.239 448.575
332 0 81.1367 10.8089 877 110.719 126.382 448.977
333 0 85.3834 15.8345 1352 104.172 126.925 447.828
334 1 48.1875 13.4267 647 103.835 128.742 463.207
335 0 47.0222 14.2911 672 103.676 128.384 465.192
336 0 47.117 11.949 563 103.996 127.369 461.561
337 0 48.0772 14.1023 678 101.842 130.075 458.971
338 0 49.2183 13.0033 640 104.53 131.192 462.216
339 0 53.0239 11.7871 625 102.542 131.688 464.659
340 0 53.1801 11.6585 620 103.956 130.75 464.945
341 0 53.1951 10.8281 576 106.892 133.438 464.132
342 0 57.093 15.8513 905 100.106 132.273 461.369
343 0 60.2274 15.8234 953 100.797 132.04 464.112
344 0 59.2097 14.1362 837 104.246 134.332 463.951
345 0 64.1226 13.2403 849 105.534 134.271 462.856
346 0 65.0772 13.0461 849 105.011 133.378 464.267
347 0 66.266 14.7889 980 103.972 134.104 464.063
348 0 66.3618 13.7127 910 106.757 132.733 462.36
349 0 68.1613 11.3261 772 109.188 133.315 466.791
350 0 71.2201 14.9958 1068 105.544 131.795 462.34
351 0 72.1647 11.0719 799 110.353 131.368 461.924
352 0 75.1462 14.7313 1107 104.589 130.989 463.787
353 0 80.1233 13.0798 1048 107.161 130.49 461.182
354 0 82.282 13.077 1076 106.613 129.956 462.667
355 0 83.1895 14.461 1203 107.302 128.418 457.397
356 0 90.3139 13.9846 1263 107.415 128.741 457.178
357 0 90.2521 15.08 1361 107.499 128.105 453.004
358 1 49.0691 16.4869 809 102.76 127.844 473.883
359 0 51.1763 17.1368 877 100.861 126.597 474.742
360 0 55.0578 13.949 768 103.496 124.189 471.99
361 0 53.2519 10.4785 558 108.815 124.647 471.525
362 0 59.1368 23.471 1388 93.7803 125.104 467.004
363 0 61.17 15.8575 970 102.234 124.542 467.447
364 0 60.1852 13.0929 788 107.114 123.777 464.382
365 1 116.488 14.2761 1663 110.459 124.24 441.161
366 1 66.1585 13.1049 867 107.346 124.384 458.742
367 0 67.3104 19.0164 1280 100.698 124.084 457.061
368 0 68.1628 10.871 741 111.489 124.296 456.25
369 0 69.3573 12.0103 833 112.876 124.061 455.188
370 0 75.3553 14.5842 1099 106.08 124.791 452.686
371 0 75.3862 12.111 913 109.88 125.923 447.961
372 0 80.267 17.3795 1395 101.85 125.295 450.214
373 0 83.2955 14.9588 1246 106.365 126.208 445.091
374 0 86.3002 12.8621 1110 106.582 127.098 447.525
375 0 87.4318 9.81336 858 112.061 127.338 445.287
376 0 92.4341 13.1769 1218 108.369 127.94 440.544
377 1 49.2289 13.7521 677 105.083 127.038 461.871
378 0 47.0782 11.1941 527 110.723 128.486 459.694
379 0 52.0896 10.9235 569 116.299 129.395 458.134
380 0 55.2278 16.4229 907 103.24 129.925 462.11
381 0 56.0973 10.874 610 109.661 133.477 458.261
382 0 59.1416 15.9955 946 99.555 134.201 463.134
383 0 58.1239 15.8627 922 100.991 134.735 460.928
384 0 58.2204 14.3936 838 102.079 132.977 465.953
385 0 60.1159 13.4407 808 106.213 132.272 456.983
386 0 63.1464 14.9652 945 103.099 133.331 462.628
387 0 64.2137 16.4918 1059 101.867 133.986 461.68
388 0 64.3265 12.6231 812 107.767 134.317 459.041
389 0 69.4522 13.2321 919 102.799 133.813 467.522
390 0 67.3378 13.2021 889 105.766 132.829 464.577
391 0 72.2398 11.2403 812 107.116 133.41 464.352
392 0 73.3799 11.42 838 108.493 132.661 458.971
393 0 74.2993 13.4591 1000 106.6 132.629 458.059
394 0 80.2125 20.2462 1624 97.0677 131.538 462.934
395 0 84.2763 17.0392 1436 101.666 132.05 460.01
396 0 86.2328 13.4404 1159 105.247 131.074 459.894
397 0 90.4908 14.565 1318 104.274 131.353 458.261
398 0 91.1615 11.518 1050 108.29 129.245 454.633
399 0 96.1942 13.8262 1330 104.623 127.815 456.058
400 1 55.1218 13.1346 724 103.091 126.366 474.412
401 0 54.0973 14.6403 792 101.336 126.736 473.591
402 0 55.1181 12.7726 704 106.135 125.572 469.622
403 0 59.1417 10.6524 630 112.668 125.378 468.029
404 0 57.1063 12.2053 697 110.973 123.78 465.187
405 0 58.0631 10.2647 596 113.148 122.502 465.404
406 0 65.1935 13.2835 866 107.686 123.283 462.685
407 0 64.2385 10.57 679 112.622 122.501 463.087
408 0 64.0429 13.4441 861 108.143 123.257 460.135
409 0 68.0843 14.4233 982 104.154 122.081 464.247
410 0 67.1167 12.6198 847 109.401 122.305 457.197
411 0 72.1086 13.5629 978 107.788 121.652 453.854
412 0 75.1031 17.0166 1278 101.841 121.519 456.998
413 0 77.1335 15.7 1211 104.54 122.405 451.219
414 0 77.1609 12.2212 943 109.329 123.437 450.264
415 0 80.2362 14.0834 1130 107.377 123.939 443.434
416 0 84.2551 13.4354 1132 106.394 124.17 447.503
417 0 85.3778 12.3803 1057 108.851 124.584 441.511
418 0 91.0919 12.9649 1181 107.968 125.693 436.314
419 1 47.1498 13.1496 620 99.1613 126.915 464.132
420 0 48.0464 16.0262 770 95.1779 126.823 463.509
421 0 51.2745 15.0172 770 96.4779 128.751 462.156
422 0 54.4056 12.0576 656 103.407 131.838 460.988
423 0 54.0263 13.6045 735 103.476 132.693 454.543
424 0 58.2445 15.5723 907 100.128 131.745 458.147
425 0 58.0867 13.8069 802 103.716 132.706 454.263
426 0 60.1251 12.5405 754 104.589 134.907 454.391
427 1 112.256 8.26681 928 112.275 134.02 436.173
428 0 118.477 14.5091 1719 103.23 133.991 436.066
429 1 63.1395 14.8402 937 101.218 134.596 456.356
430 0 63.0645 13.7478 867 103.486 135.294 452.684
431 0 64.1345 10.4936 673 103.996 135.158 459.615
432 0 67.0616 14.5538 976 99.5697 134.743 454.614
433 0 71.1056 11.2931 803 102.802 135.177 459.354
434 0 75.1563 14.064 1057 98.7578 135.025 462.978
435 0 75.2902 12.9233 973 101.554 134.176 457.037
436 0 75.2261 12.6286 950 102.703 134.231 458.485
437 0 78.1945 14.8092 1158 99.0354 132.797 461.022
438 1 43.0654 15.0933 650 98.2892 132.817 475.442
439 0 45.0464 11.3882 513 102.653 133.019 477.177
440 0 43.0517 12.7057 547 100.821 132.675 477.664
441 0 42.132 10.657 449 101.321 131.793 476.138
442 0 45.098 16.2313 732 94.5806 131.245 473.034
443 0 48.2082 15.6197 753 93.8858 130.4 477.388
444 0 50.0792 14.0977 706 96.7975 129.231 472.174
445 0 50.0792 14.0977 706 115.773 128.231 472.174
446 0 52.0693 12.1761 634 99.2114 128.746 471.08
447 0 56.5124 17.6421 997 92.319 128.35 466.849
448 0 55.1044 12.4491 686 98.2376 128.004 466.372
449 0 55.0744 13.2729 731 99.4405 127.45 466.123
450 0 55.1967 14.7473 814 98.4607 127.709 465.975
451 0 58.1372 11.6621 678 101.248 127.058 466.429
452 0 61.1625 11.821 723 100.75 126.066 464.249
453 0 61.0995 11.3094 691 102.902 125.964 458.844
454 0 64.177 16.0182 1028 96.7704 125.942 460.906
455 1 136.457 13.147 1794 106.725 125.478 421.914
456 0 141.764 12.4221 1761 107.851 125.143 425.491
457 0 148.781 15.7345 2341 104.817 125.871 420.144
458 0 150.39 13.332 2005 106.214 125.84 419.984
459 0 155.742 14.6974 2289 106.202 126.249 403.506
460 1 80.2579 10.4164 836 104.478 127.402 452.313
461 1 43.0813 8.89017 383 104.603 128.05 467.755
462 0 42.1154 9.40274 396 103.131 128.5 468.088
463 0 45.2849 11.3724 515 99.2311 127.342 466.93
464 0 43.1867 6.48347 280 104.575 125.389 468.157
465 0 48.1049 11.1423 536 98.9049 127.157 464.892
466 0 50.1485 12.0442 604 97.9354 128.498 464.298
467 0 53.1682 20.012 1064 90.015 128.135 466.827
468 0 54.0833 14.9584 809 95.3028 129.628 463.052
469 0 54.1739 12.7737 692 97.4538 130.147 465.513
470 0 53.0571 11.4782 609 100.112 130.581 463.67
471 0 56.1655 10.6115 596 100.289 130.81 467.517
472 0 59.1188 7.64563 452 103.816 130.268 462.92
473 0 62.1629 13.5451 842 98.4715 130.597 461.116
474 0 62.1066 15.1514 941 97.5717 129.881 462.699
475 0 66.3237 14.0372 931 98.4758 130.213 462.602
476 0 67.0821 16.5022 1107 96.5926 128.973 462.914
477 0 70.1573 13.4697 945 99.0423 129.658 463.982
478 0 72.0618 12.1979 879 100.456 128.495 465.142
479 0 78.253 13.0474 1021 99.4594 127.761 463.387
480 0 77.2963 9.48299 733 103.784 128.046 465.876
481 0 80.1332 12.3544 990 101.309 127.054 467.096
482 0 85.1631 12.6111 1074 102.587 125.9 462.046
483 0 88.3859 14.1652 1252 101.661 125.943 462.388
484 1 46.1705 12.2806 567 100.328 124.039 481.451
485 0 49.1446 11.3136 556 106.745 123.101 482.556
486 0 48.0517 11.009 529 106.138 121.998 484.694
487 0 51.0667 13.1005 669 104.857 122.012 480.305
488 0 51.0494 13.8493 707 104.699 121.809 476.85
489 0 51.1647 13.7009 701 101.803 121.1 478.559
490 0 49.111 10.6697 524 105.282 119.626 480.372
491 0 52.1044 14.0679 733 102.262 121.141 475.999
492 0 53.0844 11.6983 621 104.338 120.047 478.544
493 0 57.135 14.6845 839 101.173 120.17 474.662
494 0 58.0699 11.4 662 103.684 119.059 477.716
495 0 59.0943 13.3346 788 102.624 118.816 475.331
496 0 63.1958 10.5387 666 104.559 117.985 475.042
497 0 64.4706 17.4653 1126 98.0275 118.535 467.94
498 0 64.1475 13.1728 845 103.691 117.617 464.069
499 0 67.2385 12.5226 842 104.209 118.093 463.685
500 0 67.1981 11.042 742 106.691 119.515 461.787
501 0 76.2433 18.4541 1407 98.2822 119.742 458.694
502 0 75.3108 15.4161 1161 100.727 120.454 460.336
503 0 78.4887 19.0218 1493 97.9605 120.831 455.911
504 1 42.0583 10.2001 429 110.545 120.776 472.252
505 0 44.2168 13.3207 589 103.426 120.873 472.092
506 0 46.2148 15.5578 719 100.114 122.666 471.533
507 0 44.4293 12.3567 549 109.441 125.727 465.352
508 0 49.0371 11.8889 583 108.127 123.858 469.377
509 0 48.1973 14.8349 715 105.495 124.147 467.292
510 0 51.0975 14.169 724 105.895 125.308 467.126
511 0 53.1076 14.0846 748 106.626 125.889 466.734
512 0 53.212 16.8195 895 103.031 126.889 465.56
513 0 54.1083 14.5819 789 106.622 127.92 464.895
514 0 57.3136 15.4588 886 104.998 127.757 466.353
515 0 57.2235 15.7278 900 104.938 127.613 467.032
516 0 56.1473 10.2587 576 112.655 128.891 466.726
517 0 61.1809 10.706 655 112.289 128.916 467.466
518 0 62.2813 13.439 837 108.137 130.044 469.735
519 0 65.0805 13.4449 875 108.824 129.402 469.003
520 0 67.1141 17.2393 1157 103.479 128.9 467.877
521 0 68.1993 11.8916 811 110.592 128.577 470.292
522 0 72.2696 14.1553 1023 107.55 128.52 471.136
523 0 76.2595 15.8406 1208 105.677 127.706 466.45
524 0 76.1919 14.1091 1075 108.481 127.068 467.448
525 0 80.1978 12.4193 996 108.559 127.279 471.791
526 0 84.1917 16.0586 1352 104.288 126.678 468.011
527 0 83.2471 14.2227 1184 109.241 125.91 461.778
528 0 83.2471 14.1386 1177 135.952 124.884 461.724
529 0 90.0765 16.1862 1458 107.024 123.776 460.673
530 0 94.1653 14.4958 1365 109.26 122.044 463.573
531 1 49.1632 10.7397 528 108.265 119.568 476.86
532 0 52.0447 15.5828 811 107.174 119.857 479.539
533 0 54.1742 17.6652 957 101.412 119.125 480.75
534 0 55.0763 12.4191 684 109.07 118.594 476.709
535 0 57.1849 12.4508 712 109.086 118.355 479.24
536 0 59.268 13.8523 821 106.843 117.924 476.308
537 0 60.1631 11.6018 698 110.232 117.711 472.974
538 0 63.103 17.511 1105 102.779 118.114 469.494
539 0 63.1359 20.3212 1283 100.283 118.685 468.759
540 0 61.1764 14.2212 870 108.349 119.162 467.639
541 0 68.0895 13.1004 892 107.474 117.102 463.609
542 0 70.1179 15.7164 1102 103.527 116.993 464.951
543 0 72.2868 11.2469 813 109.936 119.877 463.86
544 0 81.3082 20.2686 1648 98.8422 121.081 456.291
545 0 78.3484 17.7796 1393 102.854 121.427 455.714
546 0 83.3977 12.8301 1070 106.98 122.221 457.976
547 0 83.1027 11.2752 937 107.514 121.368 450.309
548 0 87.182 12.8123 1117 105.034 122.847 451.486
549 0 89.2594 11.3938 1017 107.551 124.994 449.251
550 0 94.233 14.1776 1336 103.874 124.999 448.901
551 0 96.1085 12.4755 1199 106.043 126.386 446.622
552 0 103.34 14.8926 1539 102.741 126.222 442.796
553 0 105.497 15.2326 1607 103.286 125.497 436.595
554 0 110.334 16.5498 1826 100.9 126.27 445.354
555 0 112.343 16.9303 1902 101.156 126.451 445.462
556 0 115.234 13.503 1556 106.925 127.48 437.311
557 0 119.168 12.6964 1513 107.428 128.982 439.349
558 0 124.501 14.7951 1842 105.529 128.768 438.372
559 0 130.528 14.0966 1840 105.752 128.059 439.952
560 0 133.634 16.6051 2219 104.959 127.814 430.365
561 0 140.614 15.7737 2218 105.826 128.583 432.813
562 0 142.583 16.4115 2340 106.604 128.632 424.462
563 1 227.465 16.0816 3658 109.765 129.24 394.809
564 1 152.776 13.0715 1997 110.917 128.234 426.842
565 0 158.726 14.5093 2303 107.99 128.113 428.756
566 0 164.687 19.0907 3144 104.111 127.997 423.459
567 0 167.543 12.5281 2099 112.172 126.554 422.404
568 0 174.652 10.7757 1882 114.469 127.239 421.084
569 1 99.2628 14.92 1481 106.974 127.276 453.737
570 0 104.364 15.6472 1633 104.425 126.93 460.156
571 0 106.38 15.9335 1695 107.095 125.135 455.284
572 0 109.238 14.9856 1637 107.171 125.852 457.135
573 0 112.529 16.6179 1870 106.872 124.901 448.767
574 0 115.437 19.5518 2257 103.364 124.044 453.674
575 0 120.508 14.1484 1705 114.585 123.54 447.3
576 0 123.531 15.6479 1933 114.427 122.129 437.724
577 0 130.644 14.4362 1886 115.654 122.138 437.44
578 0 133.591 14.7764 1974 115.115 122.626 434.375
579 0 135.649 13.5276 1835 117.622 121.944 428.811
580 0 141.753 15.7386 2231 114.358 121.972 424.216
581 0 146.653 13.699 2009 116.301 121.15 427.809
582 0 153.517 15.4445 2371 114.018 121.1 424.128
583 1 74.7559 13.3769 1000 113.823 120.488 458.322
584 0 77.3864 13.9947 1083 114.066 122.292 455.982
585 0 80.3872 16.1095 1295 105.569 122.438 462.727
586 0 84.3573 14.6994 1240 107.611 121.696 457.243
587 0 88.482 14.9635 1324 108.371 122.38 453.018
588 0 89.2988 13.9084 1242 110.13 123.81 451.289
589 0 91.1528 13.7242 1251 110.431 123.766 445.572
590 0 95.1687 15.3096 1457 108.9 123.725 445.105
591 0 97.1637 16.1377 1568 109.251 124.013 444.05
592 0 99.2716 13.6091 1351 112.968 125.07 443.485
593 0 99.2478 12.101 1201 116.334 124.924 439.604
594 0 111.26 11.7382 1306 118.755 126.427 442.304
595 0 111.296 14.4121 1604 117.183 127.137 437.58
596 0 115.195 18.3948 2119 107.873 127.235 441.835
597 0 115.508 14.631 1690 118.879 129.317 436.135
598 0 121.379 14.7719 1793 117.48 129.644 434.958
599 0 123.264 14.4811 1785 119.864 129.486 431.692
600 0 127.431 14.2508 1816 119.695 130.39 428.224
601 1 72.2847 12.5199 905 112.916 132.114 458.383
602 0 74.2208 11.7757 874 114.082 132.082 459.676
603 0 75.0621 13.4822 1012 108.271 131.492 465.725
604 0 77.1205 14.043 1083 110.225 131.804 461.585
605 0 80.1067 14.6305 1172 110.526 131.532 459.132
606 0 81.1227 11.6737 947 114.937 131.153 456.576
607 0 88.1221 14.514 1279 109.818 130.201 460.452
608 0 91.1218 12.9936 1184 114.248 131.084 458.356
609 0 92.1817 11.1627 1029 117.998 129.791 453.553
610 0 94.1734 13.4433 1266 114.58 129.386 456.331
611 0 98.3201 12.6932 1248 114.776 129.113 457.341
612 0 102.208 15.351 1569 113.793 129.255 450.034
613 0 105.17 12.437 1308 117.974 127.983 452.246
614 0 109.161 12.4312 1357 118.696 125.559 449.363
615 0 113.219 15.2536 1727 114.164 124.631 447.939
616 0 114.312 13.8656 1585 115.154 125.83 448.376
617 0 115.201 11.7795 1357 118.649 123.814 442.759
618 0 123.257 13.6058 1677 115.685 123.476 440.717
619 0 127.329 12.1967 1553 116.583 121.594 439.524
620 0 133.547 12.6098 1684 116.612 121.139 434.951
621 1 72.3288 10.2034 738 117.362 121.768 461.161
622 0 78.2181 13.4112 1049 112.231 123.329 460.888
623 0 79.24 14.7148 1166 112.045 122.918 459.208
624 0 82.069 12.9769 1065 116.357 122.839 453.997
625 0 84.1381 10.9106 918 118.295 122.404 456.169
626 0 87.1632 11.9661 1043 116.982 122.091 455.93
627 0 90.1819 13.4839 1216 114.345 123.201 454.396
628 0 92.1434 13.9022 1281 113.997 124.198 448.554
629 0 97.0943 13.9246 1352 114.052 122.879 445.274
630 0 98.2217 13.1743 1294 114.902 123.991 446.607
631 0 103.399 14.0911 1457 113.625 124.27 443.622
632 0 104.355 11.4801 1198 118.156 125.729 443.623
633 0 109.351 14.577 1594 114.558 124.009 439.146
634 1 58.0974 6.24812 363 122.488 126.749 458.815
635 0 62.1101 13.0736 812 109.867 123.415 462.948
636 0 62.1733 15.8589 986 103.353 125.873 458.206
637 0 62.0967 13.8333 859 105.775 124.951 458.632
638 0 64.1286 12.0539 773 108.759 125.902 462.771
639 0 63.2824 10.3188 653 110.231 125.666 465.734
640 0 68.1435 14.7043 1002 104.047 126.842 463.527
641 0 69.1401 11.7298 811 108.825 126.487 463.065
642 0 72.1132 9.99816 721 112.434 128.287 460.484
643 0 74.1001 8.92037 661 115.002 127.356 458.989
644 0 78.052 12.0304 939 110.2 128.048 457.108
645 0 83.1856 15.3993 1281 107.411 128.311 458.191
646 0 87.1627 13.6182 1187 112.248 127.567 457.333
647 0 89.0734 12.5065 1114 114.954 127.484 453.975
648 0 91.2052 13.201 1204 111.662 128.592 453.146
649 0 92.1904 12.1054 1116 114.703 128.256 456.982
650 1 54.1672 11.6676 632 110.07 127.277 475.228
651 0 55.0646 14.2741 786 106.196 127.29 477.043
652 0 56.1237 14.2186 798 106.817 128.271 476.145
653 0 56.0799 11.9651 671 110.295 126.632 473.963
654 0 52.0762 11.6752 608 108.576 128.863 477.336
655 0 57.1268 10.1529 580 108.884 128.788 477.181
656 0 59.1776 12.3864 733 106.477 128.873 473.086
657 1 115.335 11.5403 1331 112.987 126.352 451.566
658 1 62.064 13.0349 809 106.503 127.037 471.99
659 0 64.1879 13.3203 855 106.836 127.888 470.885
660 0 66.1771 11.0763 733 108.95 124.881 474.962
661 1 132.539 11.7098 1552 114.177 123.944 441.303
662 0 135.736 12.9442 1757 114.381 123.07 428.744
663 0 139.524 15.1372 2112 111.297 122.044 434.217
664 0 142.487 10.1764 1450 117.794 121.531 436.028
665 0 146.815 10.9389 1606 118.613 121.693 420.98
666 0 150.517 11.6332 1751 117.74 122.207 417.272
667 1 80.1113 13.7808 1104 110.242 123.073 455.251
668 0 82.1095 14.5294 1193 109.245 120.801 455.189
669 0 85.1465 10.3234 879 112.115 120.862 462.132
670 0 88.2062 12.4935 1102 108.868 121.415 456.272
671 0 91.3474 10.5641 965 109.173 120.748 456.596
672 0 95.1035 13.9848 1330 106.406 121.413 447.435
673 0 98.2504 11.8676 1166 109.082 122.123 451.243
674 0 98.2909 10.1128 994 112.706 121.951 444.787
675 0 107.425 13.3488 1434 103.638 123.636 455.894
676 1 57.131 11.6224 664 106.05 123.524 465.896
677 0 59.3569 13.6126 808 102.978 125.897 465.103
678 0 60.1602 12.7493 767 104.331 126.389 459.352
679 0 65.2705 17.8182 1163 98.6715 127.425 460.715
680 0 64.1471 15.823 1015 101.403 127.334 462.716
681 0 64.1168 10.8396 695 107.883 129.538 463.201
682 0 68.2457 12.8946 880 104.814 130.047 457.594
683 0 70.2012 14.5724 1023 102.933 129.734 461.246
684 0 71.1043 13.3466 949 105.356 130.554 459.339
685 0 76.2584 10.3857 792 107.345 131.396 462.734
686 0 77.4873 12.9957 1007 105.383 130.9 456.776
687 0 82.185 12.4719 1025 104.78 130.765 457.844
688 0 83.3197 13.8503 1154 104.148 130.355 453.34
689 0 85.1378 14.5529 1239 103.863 130.525 458.321
690 0 90.3019 12.8458 1160 106.077 130.209 454.326
691 0 92.1658 12.9332 1192 107.245 129.275 450.986
692 0 98.236 15.3406 1507 103.97 130.233 455.169
693 0 101.543 20.4445 2076 97.9355 129.158 453.845
694 0 103.184 17.241 1779 104.234 128.233 452.665
695 1 55.0882 9.02189 497 112.318 126.934 476.775
696 0 53.0499 3.67578 195 113.113 128.482 478.605
697 0 54.1459 8.31088 450 108.164 128.176 481.364
698 0 58.1499 8.65006 503 109.352 128.547 476.421
699 0 61.0909 12.2113 746 105.35 127.19 474.971
700 0 65.0496 12.6673 824 104.017 127.149 474.869
701 0 65.1655 14.0412 915 104.358 126.328 472.421
702 1 131.441 15.2388 2003 106.831 124.678 445.203
703 1 72.1747 12.2204 882 105.98 125.117 473.595
704 0 73.1369 11.3622 831 106.823 124.341 471.923
705 0 79.3043 14.312 1135 103.568 122.952 464.252
706 0 78.1474 13.6921 1070 104.403 123.106 461.499
707 0 81.0795 14.5536 1180 105.475 123.051 456.558
708 0 83.2277 11.8831 989 107.789 122.358 462.157
709 0 88.087 12.4082 1093 107.398 122.264 455.831
710 0 90.321 13.9613 1261 105.208 122.857 458.065
711 0 91.3129 11.1266 1016 109.389 122.674 460.943
712 0 95.2197 13.6316 1298 107.992 122.851 455.653
713 0 97.2532 16.3594 1591 106.083 120.445 448.837
714 0 101.404 13.885 1408 108.804 122.55 448.001
715 1 57.4126 14.2478 818 104.731 121.656 471.858
716 0 58.4237 14.0183 819 107.43 122.537 466.828
717 0 58.3446 9.87238 576 106.161 122.127 471.356
718 0 61.0748 13.9992 855 102.006 122.426 467.667
719 0 61.19 11.0802 678 106.543 122.097 465.353
720 0 63.1778 14.6412 925 103.511 123.53 463.323
721 0 66.1274 11.13 736 108.853 124.792 463.285
722 0 70.1409 13.6297 956 104.637 124.926 461.313
723 0 74.216 14.7812 1097 102.676 125.065 460.184
724 0 72.2138 10.5105 759 108.663 126.192 459.053
725 0 78.2411 15.9251 1246 102.449 126.643 459.271
726 0 79.2021 18.5222 1467 100.413 127.292 457.495
727 0 81.2923 13.3223 1083 107.536 128.384 455.669
728 0 86.2924 14.2655 1231 106.619 128.612 452.35
729 0 88.2691 13.0397 1151 108.124 128.693 457.959
730 0 92.2904 14.9636 1381 105.403 128.335 458.734
731 0 93.3089 12.3354 1151 110.829 128.896 454.793
732 0 96.2369 14.8696 1431 108.467 128.887 455.888
733 0 100.261 20.4367 2049 102.191 129.699 452.921
734 1 55.0432 9.5198 524 113.792 128.733 479.916
735 0 58.0923 12.0498 700 110.421 128.686 476.966
736 0 61.1827 14.4976 887 106.551 127.967 475.837
737 0 61.0618 10.6613 651 115.18 129.863 477.963
738 0 63.1011 14.7382 930 113.086 129.484 473.739
739 0 66.2131 11.0401 731 117.13 127.856 476.488
740 0 71.2417 12.4786 889 115.386 129.017 471.403
741 0 71.1058 13.065 929 114.165 127.85 473.084
742 0 73.1826 13.9104 1018 113.667 128.361 467.743
743 0 78.244 18.5062 1448 104.25 126.514 473.461
744 0 80.1493 19.7881 1586 104.153 125.17 469.917
745 0 81.335 13.6227 1108 114.629 125.451 461.337
746 0 85.1649 14.0786 1199 113.427 124.659 463.485
747 0 87.6071 14.234 1247 113.135 123.565 462.652
748 0 87.4233 11.2327 982 117.783 124.04 461.474
749 0 93.4031 13.6933 1279 115.195 123.004 453.109
750 0 97.2996 14.8408 1444 112.846 123.315 456.955
751 1 49.1725 11.9986 590 111.668 122.008 480.212
752 0 51.3406 13.1475 675 110.519 121.901 474.84
753 0 52.158 11.5802 604 106.035 123.288 474.575
754 0 52.3479 9.58969 502 111.287 123.54 474.95
755 0 55.074 14.1991 782 104.043 122.431 470.217
756 0 58.3137 15.7939 921 102.672 122.848 468.658
757 0 59.1307 13.7661 814 105.181 123.442 467.014
758 0 57.1033 9.71922 555 110.915 123.989 469.117
759 0 61.1438 12.5933 770 114.183 126.01 465.701
760 0 62.1468 13.8382 860 110.55 125.416 468.533
761 0 68.0882 13.6 926 111.755 126.674 463.154
762 0 69.1724 13.2712 918 112.541 126.602 460.557
763 0 70.1794 12.7958 898 113.215 127.37 459.673
764 0 74.2692 14.0974 1047 111.605 127.053 458.61
765 0 76.3006 14.456 1103 111.289 126.838 458.16
766 0 78.2017 13.9639 1092 113.352 126.48 458.021
767 0 78.3934 12.2714 962 116.878 127.422 456.983
768 0 83.586 14.7752 1235 112.223 128.565 456.351
769 0 83.7325 13.9492 1168 113.009 129.653 457.871
770 0 87.4561 11.48 1004 115.846 129.953 457.783
771 1 49.0617 10.8639 533 113.319 131.525 472.163
772 0 51.0725 11.376 581 113.711 130.909 471.666
773 0 51.1465 10.5384 539 115.508 131.942 470.846
774 0 54.1105 10.0905 546 115.062 131.544 472.353
775 0 57.2752 16.4469 942 101.031 130.519 469.479
776 0 56.0561 13.7362 770 105.266 131.168 473.412
777 0 58.2484 14.4038 839 104.42 130.077 473.341
778 0 60.0623 11.6213 698 106.309 130.563 472.418
779 0 66.1639 16.7463 1108 100.18 129.795 474.591
780 0 64.2733 11.6067 746 109.795 130.075 471.987
781 0 67.0747 13.403 899 106.669 130.069 472.517
782 0 67.1445 14.9826 1006 107.19 129.207 472.634
783 0 67.1624 11.0032 739 114.179 129.329 470.632
784 0 70.1102 11.2965 792 111.672 129.029 473.836
785 0 73.1395 13.4401 983 109.754 128.119 472.172
786 0 75.1218 12.3799 930 111.837 127.082 470.367
787 0 79.1576 12.1403 961 109.314 127.689 475.246
788 0 81.0662 13.4828 1093 109.857 125.858 468.658
789 0 85.3301 13.1607 1123 112.17 125.227 462.89
790 0 86.423 11.8487 1024 114.491 124.249 461.967
791 0 90.2421 13.353 1205 114.539 125.063 456.99
792 0 95.3585 14.65 1397 114.505 124.383 453.435
793 0 99.4456 13.9976 1392 115.092 124.828 454.959
794 0 102.615 14.4715 1485 113.682 123.727 454.072
795 1 54.351 14.1672 770 107.152 122.292 476.575
796 0 52.1327 10.4733 546 109.965 122.352 474.482
797 0 54.5552 15.2323 831 111.205 123.161 466.905
798 0 58.2922 15.834 923 109.268 123.654 467.061
799 0 58.2697 14.2956 833 109.154 123.726 471.531
800 0 59.1949 12.4335 736 112.45 123.158 470.626
801 0 62.1867 17.0294 1059 105.165 124.516 464.663
802 0 65.2135 17.9717 1172 103.201 123.437 465.1
803 0 65.1223 12.4842 813 112.938 123.422 459.79
804 0 70.1113 16.2884 1142 108.736 124.382 458.735
805 0 70.1519 12.5727 882 114.395 124.889 457.727
806 0 77.1167 12.5135 965 113.896 124.95 457.208
807 0 78.1315 13.8228 1080 113.281 125.131 456.933
808 0 78.3642 14.5857 1143 113.294 127.668 452.113
809 0 81.2207 12.5214 1017 114.853 127.472 455.114
810 0 85.4307 12.5248 1070 117.836 128.34 452.239
811 0 87.1717 13.1924 1150 117.591 129.517 447.656
812 0 91.6489 15.7994 1448 112.222 128.575 450.403
813 0 95.354 14.7031 1402 113.231 129.011 451.144
814 0 97.2953 13.2792 1292 115.577 130.076 451.753
815 0 100.532 11.5088 1157 118.739 129.827 446.353
816 1 52.0855 14.3226 746 112.668 130.583 471.013
817 0 52.0854 13.7467 716 111.757 131.589 471.251
818 0 58.1427 17.1475 997 109.188 129.898 471.531
819 0 59.2999 14.7892 877 113.521 130.079 471.365
820 0 61.1825 16.0667 983 110.099 130.937 469.913
821 0 61.2372 13.8968 851 114.011 131.046 471.921
822 0 67.2125 20.5765 1383 103.997 129.689 470.691
823 0 66.1406 16.9336 1120 109.89 129.047 466.924
824 0 67.297 13.4181 903 115.746 129.596 466.99
825 0 73.2195 15.1462 1109 115.597 128.235 466.528
826 0 76.1484 15.1809 1156 116.783 128.674 464.89
827 0 78.1718 14.0972 1102 114.075 128.118 465.37
828 0 82.2511 14.9907 1233 110.517 128.006 471.005
829 0 82.21 16.0808 1322 113.266 126.252 466.878
830 1 38.0299 10.4392 397 122.033 126.599 481.358
831 0 43.1218 12.4995 539 116.699 125.673 481.16
832 0 45.0623 9.80865 442 120.887 126.394 478.344
833 0 46.329 15.023 696 113.289 125.105 475.608
834 0 49.2554 11.9378 588 116.272 124.806 475.997
835 0 49.0532 13.4955 662 113.64 125.267 476.298
836 0 48.0935 12.2262 588 117.929 124.403 475.738
837 0 52.0657 15.442 804 112.295 124.566 474.413
838 0 52.3829 13.0386 683 110.515 124.324 466.261
839 0 55.2964 12.6952 702 111.128 123.437 464.509
840 0 56.1009 15.1869 852 105.817 122.838 463.289
841 0 56.0989 13.0484 732 108.597 123.985 459.889
842 0 59.1193 11.536 682 111.628 123.982 460.663
843 0 61.2046 14.7538 903 107.621 123.801 455.966
844 0 64.3187 13.5575 872 109.862 123.867 458.747
845 0 66.3001 13.1674 873 115.346 123.9 460.129
846 0 67.1646 13.0277 875 116.921 124.333 457.998
847 0 70.0653 12.103 848 119.248 125.671 454.93
848 0 75.1296 14.881 1118 112.956 126.309 457.335
849 0 74.3302 12.0543 896 119.412 126.513 452.316
850 0 78.1655 21.2754 1663 105.398 127.307 451.711
851 0 80.2787 12.058 968 118.27 128.259 449.963
852 0 83.1334 18.8973 1571 108.215 128.39 453.623
853 0 85.1587 13.9035 1184 116.779 128.36 447.52
854 0 91.2303 14.0743 1284 114.491 130.185 450.127
855 1 48.0904 14.847 714 113.543 128.987 469.894
856 0 49.0581 12.9031 633 118.057 129.643 469.171
857 0 50.0933 14.0737 705 116.715 128.549 466.922
858 0 53.2125 17.0824 909 108.613 130.876 468.483
859 0 53.1005 14.2372 756 110.063 130.365 468.442
860 0 55.0615 14.6745 808 113.236 130.422 470.679
861 0 55.1692 14.7727 815 110.777 131.506 470.533
862 0 58.1609 15.3711 894 111.351 131.15 468.05
863 0 60.2164 14.0992 849 114.852 131.669 466.956
864 0 63.2664 17.2445 1091 109.291 130.878 465.661
865 0 65.1826 14.3904 938 113.106 129.811 468.358
866 0 67.4545 16.2776 1098 110.143 129.299 466.898
867 0 68.167 12.484 851 116.377 129.958 465.353
868 0 72.3766 15.0463 1089 109.746 129.32 459.161
869 0 75.2515 16.1857 1218 108.232 128.515 456.19
870 0 75.1667 12.4523 936 115.297 128.016 452.518
871 0 78.1161 16.9491 1324 109.285 127.1 450.366
872 0 80.0625 16.4247 1315 109.465 125.74 455.896
873 0 82.2056 14.4881 1191 113.53 125.81 450.253
874 0 86.2364 13.3818 1154 114.577 124.869 444.938
875 0 88.2453 15.5022 1368 112.3 124.662 446.826
876 0 90.277 13.7798 1244 115.875 124.993 447.592
877 1 45.3402 12.4613 565 116.712 124.591 463.779
878 0 47.2852 15.0153 710 115.682 125.307 459.242
879 0 46.11 13.2726 612 121.194 123.608 458.624
880 0 54.1436 10.3613 561 124.141 123.389 458.439
881 0 53.1344 16.6371 884 114.447 122.729 456.79
882 0 54.1879 13.3794 725 120.008 122.847 456.345
883 0 57.0883 12.4369 710 122.193 122.645 453.7
884 0 57.0989 16.2 925 117.032 123.559 448.867
885 0 59.1671 15.5323 919 112.321 124.598 453.132
886 0 58.3189 12.1744 710 121.9 124.234 458.168
887 0 60.0941 11.8814 714 122.943 124.451 456.444
888 0 61.2506 13.2407 811 120.55 124.48 458.276
889 0 65.334 12.7958 836 121.193 125.799 451.922
890 0 67.0678 14.0753 944 119.743 124.788 445.119
891 0 68.1536 13.4109 914 121.713 125.698 444.247
892 0 72.0982 12.9129 931 121.832 127.23 446.738
893 0 72.2491 15.0452 1087 118.587 127.5 448.95
894 0 74.3635 13.2457 985 122.282 127.851 444.147
895 0 77.4116 14.0289 1086 120.825 127.831 443.233
896 0 81.1368 15.8128 1283 118.07 128.012 445.109
897 0 83.0867 15.201 1263 118.968 129.071 445.955
898 0 85.4074 15.2212 1300 117.618 129.982 445.02
899 0 88.6458 13.3904 1187 120.163 129.356 443.872
900 0 89.6334 14.7601 1323 118.171 129.807 444.737
901 0 97.6487 19.396 1894 109.014 129.535 443.19
902 0 95.3141 21.298 2030 107.961 130.582 440.776
903 0 102.545 13.5648 1391 118.18 131.036 438.339
904 0 104.284 14.3934 1501 118.16 132.203 436.28
905 1 60.3882 9.93571 600 123.165 130.922 463.102
906 0 65.4181 15.5156 1015 117.606 131.833 463.831
907 0 68.2928 13.8961 949 119.442 131.704 465.134
908 0 69.7142 13.6558 952 121.144 130.579 461.658
909 0 73.1798 14.7582 1080 117.878 131.18 465.361
910 0 74.4014 14.1798 1055 122.961 130.114 460.113
911 0 73.486 14.4925 1065 124.117 130.523 461.538
912 0 81.2884 14.3686 1168 121.762 130.178 460.143
913 0 83.4496 15.075 1258 120.37 128.928 460.171
914 0 84.2883 12.3149 1038 125.772 128.84 455.975
915 0 90.2403 13.3532 1205 122.7 127.163 456.492
916 0 90.5118 13.048 1181 124.962 127.486 454.482
917 0 93.4155 16.0038 1495 119.583 126.484 454.089
918 0 97.3443 14.3306 1395 121.556 124.925 453.87
919 0 99.1815 13.924 1381 123.005 125.554 449.947
920 1 54.0947 8.09692 438 114.753 124.961 475.39
921 0 56.1412 13.5373 760 107.036 125.257 470.625
922 0 56.0932 11.7661 660 109.53 123.314 468.327
923 0 60.1004 11.6971 703 109.44 123.683 468.778
924 0 62.0954 10.9992 683 107.193 123.019 470.366
925 0 69.4385 7.89188 548 111.748 122.865 466.436
926 0 67.1314 10.189 684 110.499 122.048 460.722
927 0 69.0913 11.8249 817 108.545 122.678 462.366
928 0 71.0943 7.86279 559 111.871 123.039 461.533
929 0 73.0586 12.4284 908 106.528 123.667 461.253
930 0 75.2609 13.699 1031 106.978 123.099 456.579
931 0 77.2891 9.94966 769 108.775 125.161 461.849
932 0 77.1883 9.4833 732 110.885 124.813 456.803
933 0 74.1413 8.82099 654 109.641 125.911 462.038
934 1 85.2994 10.5393 899 109.21 125.531 454.666
935 0 87.115 9.88349 861 111.075 127.106 448.146
936 1 97.1137 5.71495 555 115.595 128.168 452.586
937 0 100.243 9.26749 929 114.583 128.282 443.802
938 1 51.1622 7.15372 366 116.169 129.574 465.429
939 0 55.181 9.20607 508 112.49 129.303 468.516
940 0 56.1552 11.9134 669 107.025 129.502 466.215
941 1 104.673 7.09826 743 120.934 128.284 440.919
942 0 107.328 12.9136 1386 112.784 129.681 440.604
943 0 112.418 10.9769 1234 113.205 130.363 439.102
944 0 116.463 13.3004 1549 110.748 131.16 436.657
945 0 119.613 9.98223 1194 114.997 130.855 434.417
946 0 126.836 11.9367 1514 112.308 130.666 435.367
947 0 128.829 11.3096 1457 113.618 131.722 432.377
948 0 134.729 12.759 1719 112.625 131.447 427.003
949 0 140.605 12.119 1704 114.047 130.936 427.255
950 0 144.738 9.21664 1334 117.785 130.145 429.316
951 0 150.97 12.0951 1826 115.649 130.248 420.907
952 0 153.085 10.3799 1589 117.889 130.593 422.522
953 0 161.151 13.6208 2195 113.049 129.189 423.148
954 0 162.289 7.64068 1240 125.241 129.036 405.994
955 1 88.5577 11.7212 1038 106.104 128.995 458.102
956 0 85.4016 10.515 898 112.339 128.031 461.521
957 0 86.3563 10.1324 875 114.952 127.187 460.193
958 0 90.5536 9.5634 866 116.387 125.442 453.708
959 0 100.636 4.29269 432 119.965 126.259 466.387
960 0 100.439 10.6632 1071 113.142 124.432 453.908
961 0 99.393 11.8922 1182 112.792 124.794 450.994
962 1 161.848 11.6405 1884 118.716 123.048 427.421
963 0 165.579 13.2565 2195 117.542 124.177 416.72
964 1 110.318 12.8085 1413 111.684 123.18 446.421
965 0 111.65 9.91491 1107 116.416 123.116 447.603
966 0 113.445 7.77472 882 120.204 123.746 440.07
967 0 117.619 10.6446 1252 117.48 123.632 433.31
968 0 127.476 15.3676 1959 109.448 123.774 431.063
969 0 125.791 11.2647 1417 114.006 124.199 442.349
970 0 131.552 9.42593 1240 118.746 123.269 431.283
971 1 67.3396 11.6276 783 110.268 123.724 463.911
972 0 69.2446 12.6075 873 106.078 124.241 462.494
973 0 71.2368 13.5043 962 107.143 125.286 460.448
974 0 75.1594 12.1209 911 105.205 124.695 466.285
975 0 76.1864 12.6138 961 107.082 126.297 462.308
976 0 77.1747 14.1627 1093 106.112 125.422 456.979
977 0 77.1183 8.44158 651 115.358 126.536 457.407
978 0 80.079 11.7634 942 111.268 126.057 454.601
979 0 81.3208 12.7397 1036 106.041 127.805 455.871
980 0 83.1824 11.1081 924 110.174 127.429 451.984
981 0 87.3544 10.9668 958 108.915 128.304 454.271
982 0 88.1407 12.1851 1074 112.712 128.385 449.453
983 0 94.1863 11.1375 1049 108.297 129.314 447.782
984 0 96.2857 14.4985 1396 101.037 129.71 448.901
985 0 95.5223 14.5411 1389 103.538 129.587 443.765
986 0 96.5688 15.1395 1462 102.492 130.897 441.149
987 0 99.3856 12.5873 1251 109.958 131.281 436.614
988 0 102.403 13.1051 1342 106.627 130.364 446.595
989 1 55.2882 10.5086 581 99.1687 130.964 467.613
990 0 56.2687 10.9119 614 103.575 132.376 459.945
991 0 59.2784 10.9315 648 102.144 131.108 465.627
992 0 62.4339 7.96042 497 103.839 132.05 466.201
993 0 56.3089 7.61869 429 102.837 131.103 465.594
994 0 66.3455 9.19429 610 103.939 130.948 455.139
995 0 67.5758 12.6525 855 100.373 130.506 459.432
996 0 72.6035 13.2501 962 101.443 129.585 462.136
997 0 72.4337 8.78045 636 105.483 128.772 470.528
998 0 74.4807 12.3388 919 107.645 129.283 456.439
999 0 77.4089 11.7687 911 104.928 128.813 461.855
1000 0 82.5988 11.7072 967 105.76 127.529 459.918
1001 0 82.4916 13.3832 1104 105.51 126.194 451.814
1002 0 87.399 11.6821 1021 106.554 126.084 456.066
1003 0 90.4871 10.2003 923 109.349 125.21 454.33
1004 1 46.1431 9.3405 431 106.452 124.195 469.933
1005 0 48.3807 11.5955 561 103.244 123.228 474.46
1006 0 46.1357 11.878 548 106.128 123.48 468.892
1007 0 47.2268 7.81335 369 111.577 122.978 469.206
1008 0 51.0746 11.0818 566 108.101 122.157 468.876
1009 0 46.267 6.13829 284 114.595 122.458 465.975
1010 0 53.2275 8.98031 478 108.669 122.636 468.247
1011 0 50.195 10.0608 505 110.285 122.002 464.598
1012 0 55.2664 10.3137 570 109.896 121.733 461.954
1013 0 58.2504 13.8883 809 101.952 121.801 460.023
1014 0 58.2764 13.2987 775 103.99 121.739 459.996
1015 0 60.3513 13.0569 788 104.159 122.807 458.734
1016 0 64.1364 11.9745 768 105.667 122.971 457.453
1017 0 66.2708 11.8152 783 107.378 121.176 453.116
1018 0 66.42 12.6016 837 106.219 123.054 452.491
1019 0 72.4141 13.5747 983 103.365 120.381 452.21
1020 0 70.2939 11.58 814 107.576 121.127 448.238
1021 0 75.4628 10.5747 798 109.356 120.959 445.893
1022 0 77.4891 14.273 1106 104.638 121.421 443.058
1023 0 80.2953 11.8811 954 106.973 121.136 445.105
1024 0 83.421 10.7407 896 111.714 122.232 435.992
1025 1 45.0345 13.8338 623 101.024 123.828 465.573
1026 0 46.098 14.6644 676 104.143 125.03 465.969
1027 0 46.098 14.6644 676 127.324 125.03 465.969
1028 0 48.1155 11.6595 561 110.695 125.56 467.811
1029 0 50.6516 13.504 684 107.069 126.699 469.693
1030 0 50.0473 17.0039 851 104.831 127.8 466.978
1031 0 56.1192 16.1442 906 102.864 128.263 469.055
1032 0 55.1176 14.714 811 106.982 127.501 466.716
1033 0 57.1665 12.8572 735 107.859 128.554 469.916
1034 0 57.0959 14.9398 853 106.13 128.264 467.382
1035 0 59.2547 11.729 695 109.304 127.741 474.4
1036 0 58.1012 14.3543 834 107.576 128.615 470.514
1037 0 61.0554 14.4623 883 107.931 126.691 470.683
1038 0 64.1186 13.1943 846 109.811 127.97 469.604
1039 0 66.202 14.9844 992 108.247 126.469 467.323
1040 0 65.1028 13.0409 849 112.571 126.921 471.254
1041 0 67.188 10.8055 726 117.68 127.278 471.121
1042 0 74.2595 14.9072 1107 109.645 126.231 468.691
1043 0 75.1098 14.7917 1111 110.568 125.761 470.313
1044 0 77.2321 17.0137 1314 107.179 124.277 469.019
1045 0 77.3475 15.1653 1173 111.296 123.768 463.202
1046 0 80.1185 14.2539 1142 110.587 124.253 466.982
1047 0 83.3978 13.5735 1132 112.812 124.996 462.97
1048 0 87.395 14.1427 1236 111.917 125.396 460.075
1049 1 46.0777 11.2636 519 113.638 122.146 482.805
1050 0 48.1318 14.3356 690 108.684 122.625 477.38
1051 0 49.2708 11.9746 590 113.771 119.825 475.373
1052 0 51.1204 12.7346 651 111.922 120.912 476.101
1053 0 52.0495 11.8349 616 111.951 120.544 473.784
1054 0 54.1055 10.9416 592 112.35 121.87 473.274
1055 0 55.0415 11.7003 644 112.8 122.714 472.821
1056 0 56.1065 10.6405 597 115.362 122.3 469.305
1057 0 57.0678 12.1084 691 111.997 123.566 468.761
1058 0 58.0288 11.7011 679 112.599 123.7 465.711
1059 0 58.1341 12.1271 705 112.359 123.393 462.943
1060 0 62.1404 14.1937 882 109.954 124.052 461.353
1061 0 64.3729 11.8994 766 113.282 125.191 463.446
1062 0 64.2407 14.1655 910 111.987 123.957 456.562
1063 0 67.0903 12.0435 808 115.704 125.855 455.038
1064 0 71.0679 15.2812 1086 109.948 125.82 458.7
1065 0 71.3471 13.8338 987 113.772 126.963 452.356
1066 0 76.1402 14.3551 1093 111.871 126.574 457.744
1067 0 73.1266 11.7878 862 118.242 128.254 453.143
1068 0 80.406 12.3747 995 116.41 127.902 453.598
1069 0 81.1711 14.6234 1187 113.757 128.127 450.235
1070 0 87.2262 15.2477 1330 111.812 129.452 450.933
1071 1 45.0837 10.2476 462 114.929 130.165 470.896
1072 0 47.1159 11.0366 520 113.294 129.929 470.937
1073 0 49.1196 13.0498 641 110.601 131.569 471.811
1074 0 51.1011 11.6632 596 113.329 131.928 470.28
1075 0 52.09 11.3649 592 115.198 132.682 471.14
1076 0 53.0224 15.1634 804 109.976 131.779 469.755
1077 0 55.0704 10.9133 601 113.624 131.95 471.479
1078 0 57.1771 15.6706 896 107.252 132.968 470.522
1079 0 59.0567 12.6658 748 112.781 132.003 470.659
1080 0 62.134 17.5427 1090 104.139 132.455 470.706
1081 0 63.1165 13.2295 835 110.105 130.604 473.578
1082 0 64.0684 13.0329 835 110.863 131.025 473.353
1083 0 66.0672 14.1977 938 109.6 129.454 471.179
1084 0 70.102 15.4632 1084 106.51 130.015 471.792
1085 0 70.102 15.3491 1076 130.339 130.046 471.813
1086 0 73.123 13.7576 1006 109.814 128.595 470.3
1087 0 73.2152 11.4321 837 114.735 126.828 467.597
1088 0 75.0202 11.4369 858 113.559 127.551 469.463
1089 0 79.0907 14.0472 1111 110.176 125.86 464.678
1090 0 81.2237 15.2665 1240 107.24 126.765 464.945
1091 0 84.2784 13.4673 1135 106.939 124.722 465.067
1092 1 45.0918 11.776 531 108.499 123.785 481.81
1093 0 43.0878 8.8192 380 112.832 123.474 482.934
1094 0 46.0364 12.9246 595 107.555 122.919 479.489
1095 0 45.2565 13.4566 609 106.657 122.654 479.363
1096 0 50.2114 13.8216 694 105.233 120.944 478.768
1097 0 49.1191 11.9913 589 109.637 122.954 475.71
1098 0 53.3315 15.4318 823 100.358 123.095 477.592
1099 0 58.2564 12.3763 721 104.098 122.454 477.895
1100 0 55.3127 10.8836 602 108.075 122.796 471.972
1101 0 58.1526 14.118 821 102.375 122.792 473.533
1102 0 59.1426 15.2344 901 102.384 123.354 470.733
1103 0 59.3266 12.7262 755 107.221 123.673 468.262
1104 0 61.5628 20.0121 1232 97.1023 123.357 467.045
1105 0 67.2032 14.3743 966 101.834 124.264 465.729
1106 0 66.1476 14.7398 975 103.964 124.166 459.951
1107 0 66.2909 10.2427 679 111.18 125.253 457.673
1108 0 70.1468 11.9606 839 107.327 124.555 459.041
1109 0 74.3537 13.7989 1026 105.106 126.301 453.849
1110 0 77.2192 18.195 1405 100.379 126.224 455.223
1111 0 78.1935 13.1341 1027 106.348 126.408 457.005
1112 0 81.2842 14.0987 1146 105.983 126.635 453.268
1113 0 85.3917 14.006 1196 106.62 127.984 453.527
1114 0 88.5442 13.5526 1200 108.799 128.151 451.804
1115 0 89.2812 13.8999 1241 109.46 129.691 447.602
1116 0 90.1178 13.2493 1194 109.289 128.645 445.13
1117 0 93.3255 13.5761 1267 109.862 129.822 447.776
1118 0 99.2501 14.801 1469 107.292 128.741 452.293
1119 0 101.369 18.3094 1856 103.157 128.694 450.086
1120 0 103.419 16.5444 1711 106.859 128.261 447.376
1121 1 58.1176 12.4231 722 105.025 128.044 472.627
1122 0 57.3017 12.1113 694 106.548 128.602 470.718
1123 0 61.1152 11.3392 693 109.165 128.013 471.954
1124 0 62.0863 11.1941 695 110.334 127.84 473.112
1125 0 63.1898 11.2835 713 114.954 129.968 468.762
1126 0 69.0238 12.2566 846 109.702 129.618 477.986
1127 0 68.1328 12.3435 841 113.279 128.641 469.859
1128 0 72.0728 12.6677 913 111.522 128.75 472.171
1129 0 73.0643 12.838 938 111.764 128.335 469.328
1130 0 77.1324 14.3001 1103 109.654 126.251 469.27
1131 0 81.1217 15.7171 1275 106.336 125.639 469.127
1132 0 82.161 14.2282 1169 110.26 125.968 462.641
1133 0 83.1467 14.0956 1172 111.778 124.375 457.309
1134 0 87.3857 14.5218 1269 110.511 125.465 461.922
1135 0 87.3297 13.3975 1170 112.692 122.728 459.141
1136 0 94.2638 18.7241 1765 103.389 123.165 461.615
1137 1 50.0506 10.5293 527 112.41 122.829 481.129
1138 0 54.0687 10.7086 579 113.273 122.566 476.675
1139 0 53.321 12.3404 658 111.587 120.951 477.653
1140 0 54.3392 11.5202 626 105.767 119.882 467.994
1141 0 55.1033 10.3261 569 103.629 118.404 472.369
1142 0 57.2861 10.2468 587 104.056 120.063 466.658
1143 0 59.2879 10.7779 639 105.966 119.393 465.432
1144 0 60.268 9.32502 562 108.883 119.98 464.536
1145 0 63.1955 17.074 1079 97.0843 120.068 468.071
1146 0 63.287 12.1826 771 111.271 122.628 470.495
1147 0 65.2082 13.0352 850 109.204 120.505 468.404
1148 0 66.1015 13.2221 874 110.784 121.011 464.167
1149 0 70.1281 11.3364 795 113.045 120.737 463.54
1150 0 71.1479 13.8866 988 110.766 122.942 456.132
1151 0 71.1501 10.4146 741 113.86 122.746 462.781
1152 0 76.2735 14.4218 1100 109.212 122.59 456.009
1153 0 80.1686 16.4404 1318 106.735 125.643 456.981
1154 0 81.1534 12.6797 1029 112.489 125.975 456.434
1155 0 82.2268 14.4843 1191 109.674 126.166 459.308
1156 0 87.3244 12.1157 1058 114.026 127.324 454.722
1157 0 91.0866 13.0645 1190 113.822 126.908 450.655
1158 0 95.196 13.3619 1272 111.784 127.951 453.329
1159 0 98.4323 16.1228 1587 109.551 128.863 450.69
1160 0 99.2541 14.881 1477 110.865 129.035 452.513
1161 1 59.1988 14.257 844 110.152 127.058 471.282
1162 0 57.1347 12.2868 702 115.175 129.172 469.644
1163 0 57.1135 12.7465 728 114.481 128.416 471.337
1164 0 62.2414 15.9058 990 106.724 128.44 472.061
1165 0 63.1116 11.9788 756 114.902 128.368 471.438
1166 0 66.111 16.442 1087 108.198 127.19 471.254
1167 0 69.3403 15.3302 1063 110.423 127.453 467.851
1168 0 70.2332 14.3522 1008 113.104 127.627 468.635
1169 0 72.1882 12.0795 872 115.489 127.197 473.82
1170 0 77.3638 17.9024 1385 105.76 127.226 472.435
1171 0 77.2675 12.0879 934 116.543 125.459 468.837
1172 0 79.2148 13.192 1045 113.372 125.484 471.711
1173 0 81.1715 12.6153 1024 115.726 124.453 468.623
1174 0 86.087 17.3778 1496 106.773 123.483 468.743
1175 0 88.4241 14.928 1320 110.819 123.377 462.578
1176 0 88.4059 13.8905 1228 112.508 122.587 458.907
1177 0 87.5244 11.8138 1034 116.726 121.162 459.818
1178 0 93.3275 12.7829 1193 113.848 120.624 459.418
1179 1 49.2576 11.9169 587 109.891 121.026 479.33
1180 0 54.318 8.5791 466 113.667 121.618 481.813
1181 0 56.3503 11.2865 636 110.491 121.275 478.142
1182 0 57.4066 18.2383 1047 96.3505 121.625 476.493
1183 0 57.2185 13.23 757 102.943 121.823 472.506
1184 0 58.1436 10.5945 616 106.196 121.773 471.495
1185 0 60.0968 13.0623 785 108.571 119.586 470.888
1186 0 63.1422 12.5114 790 108.443 119.703 462.915
1187 0 67.2318 15.8853 1068 103.103 119.623 468.13
1188 0 65.2158 12.6963 828 110.705 120.351 465.493
1189 0 67.1729 15.7206 1056 106.49 120.2 461.24
1190 0 70.1274 14.3168 1004 107.533 120.659 460.924
1191 0 70.192 13.0927 919 110.672 120.442 460.716
1192 0 73.2581 17.336 1270 103.623 121.52 459.797
1193 0 75.1289 11.8995 894 112.015 121.806 459.849
1194 0 79.1586 17.5471 1389 104.346 122.466 454.281
1195 0 81.1813 20.1771 1638 100.725 123.292 450.91
1196 0 84.3355 17.4304 1470 104.75 123.216 447.368
1197 0 86.475 16.5713 1433 105.875 124.255 450.893
1198 0 92.4958 25.2552 2336 96.3699 124.798 449.036
1199 0 92.3836 16.5289 1527 109.831 125.931 448.616
1200 0 95.4701 13.0826 1249 113.866 127.25 448.273
1201 0 99.5329 14.5078 1444 111.297 127.997 441.805
1202 0 102.568 13.3764 1372 114.492 128.648 442.282
1203 0 109.601 13.7133 1503 112.306 128.714 447.059
1204 0 107.78 13.3884 1443 114.63 128.262 440.53
1205 0 113.426 13.4713 1528 113.898 127.495 440.899
1206 0 119.922 13.267 1591 108.667 127.523 445.837
1207 0 121.343 12.3781 1502 111.294 128.356 438.11
1208 0 126.424 14.135 1787 108.332 128.454 442.328
1209 1 66.1424 12.6394 836 107.604 128.432 467.074
1210 0 70.2221 14.1266 992 104.525 128.144 468.79
1211 0 72.3282 14.849 1074 103.092 131.322 468.297
1212 0 74.3224 13.6702 1016 104.599 130.289 469.589
1213 0 76.4945 15.0338 1150 102.894 129.97 468.514
1214 0 80.2223 13.5623 1088 105.528 128.662 468.102
1215 0 82.2843 14.3891 1184 104.538 128.613 463.981
1216 0 85.1196 13.4399 1144 105.586 127.673 466.031
1217 0 87.2853 12.2243 1067 107.708 126.039 471.373
1218 0 88.3024 9.90912 875 111.589 125.413 460.187
1219 0 94.2331 15.9816 1506 101.839 125.527 464.561
1220 0 95.2122 13.1916 1256 107.267 124.266 459.226
1221 0 98.4437 15.8872 1564 103.118 124.747 459.081
1222 0 99.4607 10.2151 1016 111.402 122.762 459.522
1223 0 103.441 9.60939 994 109.177 122.226 455.466
1224 0 107.277 11.3259 1215 107.684 121.036 447.918
1225 0 110.368 14.796 1633 103.182 120.86 449.372
1226 0 114.385 13.4458 1538 105.795 119.648 439.305
1227 0 114.54 13.3752 1532 108.785 120.233 436.217
1228 1 69.0704 12.1181 837 104.491 119.688 464.081
1229 0 68.2901 12.0955 826 103.05 119.524 457.808
1230 0 67.2189 11.0534 743 104.844 120.324 457.231
1231 0 71.2316 12.0873 861 103.289 120.978 454.146
1232 0 74.2559 12.5647 933 101.305 121.049 456.949
1233 0 77.3307 11.7676 910 103.834 122.108 451.141
1234 0 76.2502 12.2623 935 103.533 122.909 451.644
1235 0 79.4106 10.5779 840 107.308 123.077 444.483
1236 0 84.3667 12.3508 1042 104.383 124.461 444.835
1237 0 85.3024 10.3397 882 108.209 125.755 442.286
1238 0 87.5545 11.627 1018 107.164 125.913 437.988
1239 0 93.3304 11.1753 1043 107.62 125.334 440.769
1240 0 96.3838 15.1582 1461 103.621 126.526 438.309
1241 0 99.6052 12.5495 1250 106.697 127.278 434.755
1242 0 103.334 13.4515 1390 106.162 127.95 433.527
1243 0 104.269 11.4991 1199 108.418 128.279 433.822
1244 1 58.3662 12.8328 749 114.471 129.101 462.268
1245 0 59.1391 10.8727 643 111.216 129.204 467.409
1246 0 60.0468 11.4411 687 110.649 129.98 466.135
1247 0 61.1013 12.8639 786 109.173 131.772 464.186
1248 0 64.2082 11.5873 744 111.456 131.563 467.344
1249 0 66.2018 12.6432 837 109.872 132.139 464.178
1250 0 70.15 13.4996 947 108.122 131.466 468.469
1251 0 69.1154 11.0684 765 112.745 131.652 467.094
1252 0 71.0838 10.9448 778 113.513 130.449 468.454
1253 0 76.3574 14.2095 1085 108.426 130.975 465.641
1254 0 79.107 14.0316 1110 108.267 129.758 466.519
1255 0 83.2463 16.4572 1370 105.317 129.469 464.367
1256 0 83.2108 14.8659 1237 109.444 129.659 461.442
1257 0 87.1423 16.0886 1402 108.162 129.25 461.754
1258 0 89.2132 15.9057 1419 108.646 127.695 461.815
1259 0 95.3864 26.5237 2530 96.1055 126.915 458.211
1260 0 98.2862 12.4636 1225 113.802 126.928 460.947
1261 1 55.129 12.9696 715 112.669 126.832 479.165
1262 0 53.1535 11.1375 592 117.508 125.929 475.676
1263 0 59.1085 13.4668 796 110.869 125.281 474.41
1264 0 59.3069 15.0067 890 109.397 124.481 472.215
1265 0 61.1149 15.0536 920 109.089 125.189 472.718
1266 0 64.2529 14.9721 962 107.366 124.049 477.085
1267 0 62.117 12.1384 754 113.985 123.167 471.918
1268 0 66.1654 13.0128 861 112.452 122.652 469.834
1269 0 70.2442 17.4249 1224 106.636 122.85 465.393
1270 0 71.1286 17.4754 1243 106.429 122.974 469.838
1271 0 73.1421 13.2208 967 113.918 122.514 462.347
1272 0 74.1072 17.2318 1277 108.743 123.508 456.345
1273 0 78.2258 13.461 1053 113.563 123.599 457.945
1274 0 81.1803 14.3754 1167 112.405 123.901 456.662
1275 0 82.4277 13.7332 1132 114.096 123.198 454.53
1276 0 86.1156 14.6431 1261 112.725 124.193 450.967
1277 0 86.2304 15.6441 1349 112.895 123.804 444.93
1278 0 90.2816 16.8141 1518 109.408 123.834 445.538
1279 0 92.2945 14.237 1314 112.807 125.266 447.361
1280 0 96.1476 16.5787 1594 109.098 125.487 442.871
1281 0 101.592 16.6057 1687 107.86 126.531 445.697
1282 0 103.255 19.2533 1988 105.38 127.546 441.746
1283 0 103.427 12.2115 1263 114.306 127.77 441.632
1284 0 105.395 12.2777 1294 114.719 127.856 431.957
1285 1 66.5026 16.9166 1125 102.561 128.958 464.233
1286 0 67.4838 17.3079 1168 102.22 129.692 461.22
1287 0 64.1639 15.5539 998 105.417 129.987 459.118
1288 0 69.4654 21.8958 1521 95.7587 130.362 467.225
1289 0 67.1839 11.9672 804 110.823 131.204 461.459
1290 0 72.2989 14.0528 1016 106.164 131.307 460.785
1291 0 73.2982 14.8708 1090 106.31 131.215 459.375
1292 0 78.1063 15.2741 1193 104.705 131.875 461.233
1293 0 81.2145 15.5884 1266 104.627 131.63 462.568
1294 0 85.2565 16.2451 1385 103.247 130.627 461.088
1295 0 85.1352 13.0146 1108 108.588 129.799 458.752
1296 0 89.1907 14.1158 1259 106.769 130.037 461.083
1297 0 92.2371 12.3811 1142 109.574 129.728 458.852
1298 0 96.2545 13.963 1344 107.657 130.031 459.182
1299 0 100.295 16.3119 1636 104.853 130.074 456.736
1300 1 53.0479 10.6884 567 112.005 129.638 481.566
1301 0 54.1664 12.1662 659 108.156 129.326 479.851
1302 0 55.3834 11.7002 648 108.875 126.585 473.231
1303 0 60.1215 15.2026 914 103.451 127.159 476.969
1304 0 57.0999 14.5359 830 105.581 126.866 477.898
1305 0 62.0465 13.1192 814 108.086 125.35 472.805
1306 0 62.0725 15.2402 946 106.386 125.588 470.726
1307 0 65.2182 12.9565 845 109.54 125.213 470.376
1308 0 69.1626 19.1577 1325 102.196 122.64 465.68
1309 0 73.166 13.9546 1021 108.875 123.05 465.949
1310 0 75.2864 12.8974 971 111.662 123.211 462.186
1311 0 78.1137 14.2101 1110 108.623 122.598 462.795
1312 0 77.1074 14.1621 1092 111.255 122.7 458.094
1313 0 81.1923 12.8953 1047 111.33 122.246 452.834
1314 0 85.3663 15.6151 1333 106.614 122.266 455.69
1315 0 85.2471 15.1442 1291 107.905 122.084 450.661
1316 0 88.1938 14.0146 1236 109.54 122.824 450.22
1317 0 91.2557 13.2156 1206 109.972 122.719 445.544
1318 0 96.1885 13.0681 1257 110.297 123.259 445.286
1319 1 50.1416 12.724 638 107.553 123.964 464.528
1320 0 52.1312 10.2626 535 108.271 124.378 468.465
1321 0 52.2975 11.7788 616 109.498 124.278 462.063
1322 0 56.4228 13.7356 775 106.939 125.439 463.917
1323 0 58.0816 14.5829 847 108.771 125.089 459.346
1324 0 56.0857 12.5522 704 108.634 126.308 463.145
1325 0 59.3062 14.2312 844 106.108 127.139 462.031
1326 0 63.1731 13.8508 875 106.461 126.479 460.745
1327 0 63.1417 11.878 750 108.833 128.091 459.931
1328 0 66.3096 15.5181 1029 101.967 128.083 463.992
1329 0 68.2756 13.9874 955 106.351 128.688 459.969
1330 0 70.362 13.53 952 107.009 128.968 459.044
1331 0 73.4229 11.9309 876 108.334 129.124 462.084
1332 0 77.4085 14.0424 1087 105.329 129.663 460.778
1333 0 78.3621 13.3993 1050 107.822 128.358 456.281
1334 0 77.3485 11.3383 877 109.926 130.1 459.904
1335 0 86.4906 13.99 1210 105.669 130.167 458.007
1336 0 90.297 13.3116 1202 107.002 129.784 456.395
1337 0 91.2773 14.308 1306 106.655 129.743 453.69
1338 0 95.2376 12.1801 1160 109.382 128.531 455.476
1339 1 48.2067 13.2347 638 107.458 129.755 476.729
1340 0 54.1167 14.0992 763 105.237 129.127 476.696
1341 0 55.1481 12.3304 680 106.419 128.637 473.901
1342 0 57.2719 18.2114 1043 99.1477 129.117 474.818
1343 0 56.1051 12.2271 686 108.146 127.972 476.176
1344 0 59.1933 13.363 791 107.703 127.119 474.375
1345 0 61.3664 14.6823 901 105.526 124.299 473.173
1346 0 64.3786 19.8202 1276 98.2618 124.733 476.463
1347 0 67.1583 17.1386 1151 103.088 123.387 468.398
1348 0 76.9578 15.2291 1172 99.8652 123.55 477.451
1349 0 73.279 18.8867 1384 98.8764 123.303 471.652
1350 0 73.3941 14.8241 1088 106.169 122.33 466.483
1351 0 72.2839 13.4331 971 110.008 122.419 460.834
1352 0 78.532 17.7253 1392 103.739 121.244 459.683
1353 0 79.2103 13.5967 1077 109.762 122.28 459.837
1354 0 81.3483 15.1816 1235 108.198 121.438 457.045
1355 0 83.3962 10.6959 892 115.576 121.965 455.952
1356 0 90.4119 16.7345 1513 105.826 121.116 455.856
1357 0 90.4405 17.1715 1553 106.35 121.37 450.455
1358 0 93.6248 12.753 1194 113.243 120.458 445.6
1359 1 53.3308 13.3506 712 110.685 120.725 467.062
1360 0 55.1668 12.5619 693 113.066 122.141 465.962
1361 0 53.3402 10.7236 572 117.236 122.79 466.26
1362 0 60.7168 18.2157 1106 101.703 123.354 465.697
1363 0 59.1232 11.9581 707 113.942 124.202 461.181
1364 0 61.248 11.8861 728 112.979 125.287 463.543
1365 0 61.2376 13.4558 824 112.917 124.535 460.242
1366 0 63.2974 13.7288 869 114.8 125.855 458.307
1367 0 68.2855 14.8201 1012 111.933 126.28 457.032
1368 0 71.1948 14.1864 1010 111.832 126.611 456.879
1369 0 73.1992 12.9646 949 112.476 127.237 458.03
1370 0 72.413 13.202 956 113.492 127.772 457.721
1371 0 76.406 12.6299 965 112.332 127.82 458.131
1372 0 76.4704 16.1108 1232 108.146 128.45 455.182
1373 0 79.399 11.8893 944 114.157 128.274 454.666
1374 0 85.3819 15.1789 1296 108.381 128.752 451.616
1375 0 86.2401 11.8158 1019 110.825 128.565 448.921
1376 0 88.3106 15.2417 1346 106.354 129.635 453.028
1377 0 93.1077 14.2416 1326 106.903 129.956 450.842
1378 0 95.3482 12.6484 1206 108.642 129.408 446.277
1379 1 56.051 14.7366 826 101.667 127.392 473.461
1380 0 58.3974 12.7232 743 104.406 129.276 474.843
1381 0 60.1485 14.8466 893 101.43 128.555 475.171
1382 0 61.0578 15.9357 973 100.343 128.52 470.299
1383 0 62.2215 10.3823 646 108.477 127.763 473.519
1384 0 65.122 17.0603 1111 100.619 127.442 470.114
1385 0 66.3859 13.4516 893 104.272 126.367 474.937
1386 0 68.1499 12.722 867 106.107 125.552 470.401
1387 0 70.1885 12.7799 897 106.423 123.913 468.407
1388 0 73.1587 14.8444 1086 103.525 124.535 469.195
1389 0 77.2497 11.8965 919 106.306 123.553 469.606
1390 0 77.2575 11.507 889 107.594 123.197 460.627
1391 0 81.3983 14.902 1213 103.205 122.861 462.823
1392 0 83.4252 11.8789 991 107.223 122.755 460.444
1393 0 85.4851 10.0602 860 116.457 122.369 454.647
1394 1 48.2136 10.7438 518 110.539 122.282 475.635
1395 0 50.3572 12.1929 614 109.594 121.3 470.717
1396 0 51.1275 11.0899 567 111.49 121.056 472.942
1397 0 53.1418 13.0782 695 108.576 119.932 471.574
1398 0 56.1178 11.5293 647 110.586 121.399 470.598
1399 0 57.0894 13.1898 753 109.424 121.653 467.683
1400 0 54.1239 8.99787 487 119.261 123.637 466.873
1401 0 59.1851 17.724 1049 105.262 122.932 468.361
1402 0 63.1487 14.4738 914 111.283 123.047 461.502
1403 0 61.0848 13.4894 824 113.613 122.85 458.618
1404 0 63.2452 12.2697 776 115.898 123.447 458.18
1405 0 66.0821 13.8767 917 113.207 123.514 457.293
1406 0 66.2282 11.9284 790 116.699 124.625 457.395
1407 0 67.2296 12.0483 810 116.821 125.98 456.599
1408 0 73.1668 15.2118 1113 112.177 126.206 453.829
1409 0 74.1244 14.8399 1100 113.35 126.908 449.898
1410 0 77.1633 14.6702 1132 113.906 126.803 448.039
1411 0 80.1759 13.9818 1121 113.945 128.172 451.411
1412 0 83.2993 14.2858 1190 113.151 128.101 450.615
1413 0 85.2983 13.5759 1158 115.128 128.456 452.205
1414 0 86.2034 13.8974 1198 116.496 129.22 446.051
1415 0 87.2274 12.8285 1119 118.693 129.681 447.5
1416 0 90.2776 11.1877 1010 120.453 129.824 451.503
1417 0 95.1929 12.8371 1222 118.435 129.52 445.165
1418 1 52.0536 11.2 583 115.623 129.559 469.986
1419 0 55.1269 13.2422 730 111.701 129.021 469.341
1420 0 56.2804 12.2956 692 112.068 130.773 472.585
1421 0 56.4499 10.3454 584 115.017 130.735 475.37
1422 0 58.2353 16.1929 943 107.156 129.919 473.435
1423 0 59.2825 12.6007 747 111.687 129.739 475.074
1424 0 64.281 14.2966 919 110.459 129.316 473.865
1425 0 63.5319 13.4893 857 112.543 128.75 474.424
1426 0 65.6049 14.1758 930 111.119 128.228 474.605
1427 0 67.4778 13.3229 899 113.102 126.325 473.612
1428 0 70.3267 14.3758 1011 111.792 127.082 472.535
1429 0 70.5128 10.9342 771 118.174 125.206 472.11
1430 1 142.147 13.6267 1937 119.599 125.766 438.405
1431 1 77.6034 13.7107 1064 114.3 123.492 464.365
1432 0 77.4445 11.8666 919 118.595 124.096 461.46
1433 0 83.8784 14.1991 1191 113.778 121.729 459.599
1434 0 82.2538 10.9782 903 119.822 123.441 457.878
1435 0 88.7395 15.9794 1418 112.575 120.65 456.898
1436 0 89.5376 13.6702 1224 117.073 122.067 453.931
1437 0 94.7972 14.6629 1390 113.055 120.324 453.604
1438 0 96.738 12.9112 1249 117.115 120.626 452.167
1439 1 55.2343 14.2303 786 114.089 120.961 470.5
1440 0 55.2077 14.0741 777 113.883 120.245 470.012
1441 0 59.2794 14.6931 871 108.025 121.134 467.836
1442 0 57.116 12.816 732 110.098 121.142 461.904
1443 0 60.2464 11.1874 674 112.779 120.398 466.248
1444 0 60.1317 13.9195 837 109.444 121.06 464.38
1445 0 66.3293 11.1565 740 111.988 121.177 461.441
1446 0 67.2629 16.0861 1082 105.768 123.028 459.499
1447 0 67.2386 13.5488 911 108.817 124.122 458.877
1448 0 72.3563 13.3921 969 108.938 125.385 455.974
1449 0 71.251 12.0139 856 113.471 124.237 451.213
1450 0 74.4695 13.0523 972 112.491 124.017 446.284
1451 0 82.6508 15.257 1261 106.577 126.216 452.239
1452 0 79.2112 12.4604 987 113.776 126.604 443.16
1453 0 82.2554 12.4733 1026 113.93 126.593 446.198
1454 0 84.1432 13.5602 1141 110.585 125.908 454.956
1455 0 86.4923 11.2611 974 115.759 125.912 448.085
1456 0 90.3718 18.0587 1632 106.835 127.093 445.659
1457 0 95.6433 15.6833 1500 108.135 127.103 450.099
1458 0 96.4102 11.7726 1135 116.902 127.212 443.257
1459 0 99.6246 13.1594 1311 114.741 127.924 441.796
1460 0 103.341 10.9928 1136 116.9 127.79 444.761
1461 0 107.447 13.9697 1501 113.007 128.618 445.098
1462 1 61.1431 14.9158 912 107.456 128.55 467.229
1463 0 61.2738 11.2936 692 113.723 129.845 468.305
1464 0 64.1931 11.0292 708 113.213 129.774 467.942
1465 0 65.4502 12.9564 848 110.971 129.473 467.805
1466 0 65.3318 15.7504 1029 107.214 129.446 469.39
1467 0 68.4314 13.5464 927 110.937 129.806 465.848
1468 0 73.2923 13.4393 985 110.339 129.16 469.114
1469 0 73.2607 11.0291 808 114.061 129.2 467.422
1470 0 79.19 14.4715 1146 110.221 128.148 461.115
1471 0 77.2092 11.6307 898 115.451 128.146 458.768
1472 0 80.2044 17.5177 1405 107.039 126.957 456.581
1473 0 82.2826 10.6219 874 116.629 126.808 462.732
1474 0 85.1892 12.7364 1085 113.777 125.129 461.003
1475 0 89.1891 11.7952 1052 114.976 125.488 458.452
1476 0 89.3323 10.9255 976 117.435 125.241 452.767
1477 0 93.347 13.5516 1265 112.486 124.336 459.251
1478 0 96.2646 14.2836 1375 111.988 121.588 456.559
1479 0 98.6464 14.5571 1436 113.274 121.283 449.718
1480 0 101.284 10.752 1089 116.643 120.551 452.138
1481 0 106.38 14.1756 1508 112.047 121.04 447.498
1482 0 110.328 13.2696 1464 111.908 120.719 446.818
1483 1 62.0978 11.9811 744 109.409 119.859 467.397
1484 0 61.1572 13.2936 813 108.403 120.857 465.135
1485 0 65.1738 10.8326 706 112.035 120.86 464.613
1486 0 67.1836 13.3664 898 108.374 121.479 463.641
1487 0 66.3375 11.5922 769 111.173 121.586 463.701
1488 0 69.1911 12.2704 849 109.398 122.029 459.429
1489 0 71.1756 14.12 1005 108.958 121.823 452.469
1490 0 75.3069 13.1993 994 107.406 123.366 450.253
1491 0 76.2373 15.4649 1179 106.171 123.176 441.832
1492 0 79.2252 16.207 1284 104.911 124.151 441.565
1493 0 81.2209 14.0235 1139 106.449 124.622 435.351
1494 0 83.2164 11.1997 932 109.545 124.503 442.53
1495 0 86.1298 15.3025 1318 106.251 125.897 445.468
1496 0 90.5418 16.0257 1451 105.928 126.492 448.733
1497 0 92.1616 13.3244 1228 109.506 126.359 443.904
1498 0 95.1918 18.2789 1740 104.442 127.324 443.475
1499 0 94.2978 10.8062 1019 114.605 127.952 441.174
1500 0 101.15 13.6628 1382 110.87 128.779 441.467
1501 0 106.136 14.2648 1514 109.365 128.621 440.986
1502 1 59.1943 14.5622 862 103.694 129.242 469.783
1503 0 59.0743 13.8808 820 107.084 128.424 465.584
1504 0 62.1861 12.4465 774 108.087 128.389 464.213
1505 0 64.2716 13.1784 847 107.279 129.277 466.401
1506 0 65.1966 13.697 893 107.604 128.436 464.026
1507 0 69.2 12.3555 855 108.239 129.145 468.864
1508 0 73.0926 15.5146 1134 104.658 127.745 464.651
1509 0 74.1787 11.8632 880 110.25 127.359 466.738
1510 0 76.0831 14.5762 1109 106.868 126.306 466.928
1511 0 79.1395 13.9501 1104 108.919 126.57 462.245
1512 0 79.193 10.9606 868 113.698 126.608 464.153
1513 0 84.2421 17.0224 1434 106.033 125.255 459.188
1514 0 83.0368 11.1517 926 114.329 124.598 461.769
1515 0 88.1072 15.0725 1328 108.533 124.518 463.07
1516 0 92.4117 18.9478 1751 103.46 122.78 452.236
1517 0 91.184 12.7215 1160 114.153 123.299 460.724
1518 0 95.3491 14.0326 1338 113.622 122.447 456.581
1519 0 96.2778 10.6047 1021 119.663 122.374 451.864
1520 0 99.2149 11.5104 1142 118.485 121.584 451.991
1521 0 104.321 13.4968 1408 112.464 121.265 452.455
1522 0 105.483 16.4008 1730 106.511 121.789 452.813
1523 0 107.642 11.0552 1190 116.108 121.004 447.176
1524 0 112.37 15.0841 1695 110.536 120.644 448.491
1525 0 114.611 14.03 1608 113.32 120.514 441.98
1526 1 66.2441 13.571 899 107.572 119.259 467.343
1527 0 70.4276 15.6047 1099 104.911 120.327 464.748
1528 0 71.188 19.2729 1372 101.246 121.338 461.646
1529 0 73.1686 16.3732 1198 106.395 122.326 459.403
1530 0 73.189 11.928 873 113.407 122.385 460.376
1531 0 76.3059 12.8299 979 113.542 123.712 456.103
1532 0 77.183 11.9068 919 114.696 123.441 455.171
1533 0 82.346 13.8683 1142 111.15 124.322 454.257
1534 0 92.2113 24.574 2266 96.5755 123.254 443.226
1535 0 96.3965 23.2374 2240 98.2143 123.364 439.579
1536 0 93.4835 20.0249 1872 107.338 124.323 441.33
1537 0 94.2917 14.3809 1356 118.025 126.43 439.632
1538 0 92.3644 14.1721 1309 119.165 126.076 446.835
1539 0 95.6523 14.4063 1378 120.12 126.574 441.958
1540 0 100.435 14.8355 1490 120.023 127.314 442.43
1541 0 103.565 14.0201 1452 121.233 127.48 439.311
1542 0 104.471 15.2004 1588 121.074 127.95 440.37
1543 0 107.867 12.5062 1349 124.464 128.73 440.855
1544 0 111.372 17.7512 1977 111.264 127.389 436.925
1545 1 60.1853 10.5674 636 112.586 127.841 459.362
1546 0 61.1614 11.1018 679 112.495 128.283 462.27
1547 0 64.2972 11.2758 725 117.768 127.623 465.029
1548 0 67.2826 14.6695 987 113.686 127.418 461.913
1549 0 70.1886 12.5519 881 116.268 127.586 463.185
1550 0 71.1832 13.3037 947 115.144 127.27 464.978
1551 0 73.312 13.0538 957 116.546 127.427 462.485
1552 0 74.334 11.2331 835 119.45 126.734 461.413
1553 0 78.2454 13.4577 1053 115.904 127.331 460.509
1554 0 80.1815 12.0851 969 120.058 125.93 460.168
1555 0 85.2597 14.6963 1253 114.835 125.887 457.178
1556 0 87.1343 12.475 1087 117.877 125.355 460.328
1557 0 93.3486 12.6408 1180 117.303 124.574 460.133
1558 0 96.2312 16.7305 1610 110.418 124.432 456.129
1559 0 97.4055 13.7569 1340 116.128 122.939 456.166
1560 0 100.217 14.6084 1464 115.333 122.959 454.234
1561 0 104.524 14.3412 1499 112.29 122.918 447.141
1562 0 105.657 15.8626 1676 110.541 122.473 447.659
1563 1 57.3143 12.4053 711 110.617 119.928 473.208
1564 0 58.3147 9.58591 559 118.42 119.531 470.977
1565 0 61.1278 11.4187 698 118.01 119.361 472.752
1566 0 64.2646 15.4051 990 112.177 118.605 468.973
1567 0 65.1999 13.9878 912 113.882 118.171 474.073
1568 0 65.1062 11.7808 767 120.974 119.678 469.794
1569 0 71.2066 18.6078 1325 108.23 119.544 467.526
1570 0 70.114 14.6618 1028 116.934 119.774 462.052
1571 0 72.2 12.3684 893 120.32 118.709 462.622
1572 0 73.1717 14.9375 1093 114.416 118.788 463.113
1573 0 77.1992 11.7359 906 118.93 118.242 460.341
1574 0 79.1875 14.1563 1121 115.794 119.433 456.516
1575 0 83.1389 12.437 1034 120.788 119.759 451.381
1576 0 86.1187 12.1576 1047 120.532 120.073 451.466
1577 0 90.1312 12.1822 1098 120.477 121.285 450.891
1578 0 92.2467 11.4259 1054 123.401 122.697 444.784
1579 0 95.1921 14.6441 1394 118.843 122.716 441.888
1580 0 97.6724 12.9822 1268 122.486 124.065 447.485
1581 1 54.1526 11.523 624 124.912 123.772 465.651
1582 0 56.4634 12.3443 697 123.459 125.372 464.977
1583 0 57.2753 12.8153 734 121.105 126.403 463.005
1584 0 61.3342 14.2987 877 115.81 126.796 464.766
1585 0 64.4013 15.155 976 113.444 126.788 464.708
1586 0 62.3486 11.3555 708 120.805 126.712 460.951
1587 0 64.4443 13.95 899 114.492 128.994 459.972
1588 0 70.4725 15.1123 1065 111.623 127.779 464.871
1589 0 70.2727 13.3907 941 115.894 128.16 460.441
1590 0 73.2458 18.7587 1374 105.096 127.643 467.833
1591 0 76.4968 14.249 1090 112.464 127.813 464.26
1592 0 79.4662 17.2149 1368 109.426 128.09 459.039
1593 0 82.4074 13.7488 1133 114.823 127.635 462.357
1594 0 84.538 14.526 1228 113.019 127.113 461.847
1595 0 87.4514 15.6315 1367 112.015 126.537 456.518
1596 0 93.0777 13.9991 1303 116.943 127.774 463.996
1597 0 94.9002 14.942 1418 118.288 127.583 455.584
1598 0 96.9328 15.031 1457 118.147 126.664 454.205
1599 0 100.92 15.002 1514 117.978 126.458 452.978
1600 0 104.962 15.396 1616 117.731 125.098 449.891
1601 0 105.795 14.5187 1536 121.454 124.855 445.555
1602 0 109.039 13.9399 1520 123.366 123.584 449.061
1603 1 62.2024 12.9577 806 113.088 122.479 476.506
1604 0 63.3387 11.699 741 115.354 122.787 476.155
1605 0 63.1375 13.3201 841 114.272 123.326 469.409
1606 0 68.1536 14.6434 998 111.744 122.572 469.342
1607 0 70.3659 14.3109 1007 112.786 121.056 464.498
1608 0 71.4673 12.6771 906 113.602 120.885 468.894
1609 0 74.1593 11.5427 856 116.814 121.532 464.993
1610 0 75.1877 9.85533 741 117.267 121.223 465.91
1611 0 80.2662 11.2127 900 116.991 121.819 458.26
1612 0 83.3008 14.5377 1211 110.07 122.071 458.154
1613 0 85.2696 13.9206 1187 112.795 122.088 452.104
1614 0 89.6809 11.3737 1020 116.318 120.623 451.744
1615 0 90.5783 12.63 1144 114.524 121.757 445.036
1616 0 94.5046 13.0364 1232 113.424 120.558 443.778
1617 0 98.5237 13.144 1295 112.603 121.115 443.778
1618 0 104.783 13.609 1426 110.875 122.384 442.406
1619 0 106.636 11.0657 1180 113.175 123.259 441.809
1620 1 58.4455 15.8438 926 102.524 124.004 460.501
1621 0 59.3449 11.728 696 107.727 123.882 460.147
1622 0 65.3677 13.4011 876 105.979 124.764 459.557
1623 0 62.3977 12.6928 792 113.963 126.388 456.598
1624 0 64.4101 13.8488 892 112.254 126.231 455.501
1625 0 67.4038 12.388 835 112.417 126.511 460.123
1626 0 70.3169 14.8897 1047 107.372 127.378 458.513
1627 0 74.7089 14.938 1116 107.258 127.591 457.862
1628 0 75.2337 12.5343 943 112.448 128.199 454.662
1629 0 77.3498 13.4713 1042 110.598 129.144 459.125
1630 0 77.3205 11.4847 888 115.527 129.236 456.498
1631 0 80.4665 11.3463 913 114.195 129.326 455.521
1632 0 83.2555 11.2305 935 115.029 128.835 454.803
1633 0 87.3052 14.7414 1287 108.507 129.649 451.228
1634 0 89.4556 16.6228 1487 106.555 129.122 453.395
1635 0 94.7461 17.5416 1662 104.039 130.507 456.78
1636 0 93.3125 16.7394 1562 107.723 128.515 451.229
1637 0 95.2936 12.1939 1162 113.761 128.951 450.43
1638 0 100.295 14.6467 1469 110.771 129.457 452.24
1639 0 102.41 14.4126 1476 111.862 128.423 448.177
1640 0 109.261 14.8269 1620 110.08 128.244 452.302
1641 0 111.215 16.2478 1807 109.729 126.749 446.54
1642 0 115.443 14.7693 1705 112.148 127.148 445.686
1643 1 64.2552 13.5864 873 108.84 126.847 472.04
1644 0 64.1872 14.6603 941 110.062 126.23 469.238
1645 0 66.1085 12.0559 797 114.394 125.705 469.792
1646 0 71.0622 13.3686 950 114.713 124.218 466.281
1647 0 71.0996 11.3081 804 117.505 124.236 467.703
1648 0 68.167 12.1466 828 116.023 124.928 467.661
1649 0 75.0875 15.3155 1150 111.563 123.678 461.003
1650 0 80.2235 12.8516 1031 114.26 124.072 461.345
1651 0 81.1655 14.5259 1179 110.946 122.662 461.709
1652 0 83.1584 13.6607 1136 114.645 122.748 454.363
1653 0 85.0938 13.9376 1186 113.946 122.176 452.353
1654 0 89.1489 14.2122 1267 112.773 122.44 454.455
1655 0 91.1668 13.4259 1224 114.469 121.896 449.462
1656 0 94.2314 16.7885 1582 108.893 121.599 447.958
1657 0 95.184 13.0694 1244 113.537 121.494 443.967
1658 0 101.177 15.1122 1529 109.107 121.438 442.643
1659 0 104.229 13.9501 1454 111.781 122.756 439.511
1660 0 105.34 11.4771 1209 116.113 122.698 435.994
1661 0 112.625 15.4761 1743 109.795 122.842 434.614
1662 0 116.193 17.4882 2032 106.645 122.184 432.195
1663 0 117.473 16.3186 1917 106.834 123.028 427.546
1664 1 71.5591 13.122 939 104.432 125.786 460.733
1665 0 73.1992 12.7734 935 105.774 124.874 456.785
1666 0 75.3019 16.5733 1248 100.712 125.885 458.176
1667 0 75.1488 15.5425 1168 104.283 125.818 452.967
1668 0 76.0673 10.0437 764 112.116 126.455 450.397
1669 0 80.2022 16.0469 1287 102.434 126.253 454.402
1670 0 82.2216 10.8366 891 110.57 127.111 448.998
1671 0 85.2262 15.7463 1342 103.192 127.149 450.167
1672 0 89.2425 16.1246 1439 103.095 127.738 447.107
1673 0 91.3003 13.3515 1219 106.159 127.826 453.99
1674 1 176.014 15.0727 2653 106.888 128.572 420
1675 1 96.1467 11.2224 1079 109.425 129.692 451.174
1676 0 99.3604 11.8357 1176 110.893 127.836 444.788
1677 0 101.378 9.96271 1010 111.413 128.592 451.687
1678 0 105.313 12.7335 1341 108.331 129.484 447.243
1679 0 109.612 18.9121 2073 99.8408 128.13 452.107
1680 0 113.67 13.6359 1550 106.988 126.268 444.12
1681 1 65.3681 10.3108 674 108.378 126.608 472.599
1682 0 66.3104 12.8487 852 106.79 125.768 471.192
1683 0 68.3466 12.8024 875 107.202 124.997 465.807
1684 0 70.217 12.6607 889 107.901 125.372 471.164
1685 0 73.7875 11.2621 831 110.036 125.19 468.179
1686 0 75.3213 12.4533 938 109.527 123.943 467.2
1687 0 76.3212 12.6177 963 109.844 123.188 465.453
1688 0 76.2739 11.5767 883 111.727 121.79 461.737
1689 0 81.2865 12.7573 1037 110.063 122.871 464.947
1690 0 86.5037 18.0917 1565 101.687 121.884 463.15
1691 0 87.3017 14.2724 1246 108.236 120.929 455.579
1692 0 85.2519 11.5071 981 112.527 121.464 459.575
1693 0 91.2439 16.2093 1479 104.95 120.634 458.191
1694 0 93.4674 14.8822 1391 107.21 120.592 455.421
1695 0 97.3161 20.4899 1994 100.124 119.464 453.367
1696 0 97.3654 12.6123 1228 111.917 119.331 445.149
1697 0 99.2351 16.2342 1611 108.157 119.473 445.411
1698 0 103.476 13.4235 1389 111.36 119.262 448.212
1699 1 60.1946 14.287 860 107.376 119.693 465.864
1700 0 63.1655 14.7232 930 105.534 120.081 463.485
1701 0 63.0624 13.3677 843 109.624 120.423 459.999
1702 0 64.2908 14.0611 904 103.133 122.282 459.563
1703 0 65.364 14.9165 975 104.713 120.974 457.923
1704 0 73.3818 15.0037 1101 102.856 122.78 459.705
1705 0 68.2128 16.6684 1137 102.544 121.625 457.51
1706 0 66.2134 13.8492 917 107.287 122.964 458.917
1707 0 76.256 15.6971 1197 103.985 123.043 454.061
1708 0 76.2794 20.4773 1562 100.183 123.473 452.529
1709 0 76.0969 13.9165 1059 109.395 123.341 451.907
1710 0 79.4464 11.1899 889 113.051 124.701 455.899
1711 0 84.3544 17.2724 1457 104.74 125.204 454.421
1712 0 85.2728 13.5682 1157 110.238 125.647 450.058
1713 0 89.2772 18.5602 1657 103.622 126.564 448.802
1714 0 92.2791 13.8926 1282 108.456 126.651 454.608
1715 0 95.2039 13.97 1330 110.116 127.489 446.529
1716 0 98.3442 17.4591 1717 105.571 128.48 445.213
1717 0 99.4828 12.7158 1265 113.129 128.38 444.398
1718 0 103.559 14.8321 1536 109.988 128.611 447.529
1719 0 106.296 15.0993 1605 110.578 129.212 440.947
1720 0 106.465 12.436 1324 113.063 128.916 444.865
1721 0 115.439 18.3647 2120 105.999 128.457 436.064
1722 0 118.345 13.824 1636 112.807 128.34 444.004
1723 0 123.624 16.5341 2044 107.385 127.703 446.487
1724 1 65.2469 11.0963 724 116.427 128.169 470.215
1725 0 72.1101 14.2283 1026 109.21 128.021 470.294
1726 0 72.4418 15.7782 1143 108.662 126.249 467.245
1727 0 74.1956 14.8122 1099 111.193 126.509 464.826
1728 0 76.1677 13.1683 1003 113.689 126.743 467.046
1729 0 78.3108 15.2469 1194 110.638 125.168 467.41
1730 0 87.3951 17.4838 1528 105.391 125.177 467.563
1731 0 88.2169 16.108 1421 109.114 123.053 462.153
1732 0 88.3159 15.003 1325 112.17 123.571 459.492
1733 0 92.3351 19.3642 1788 106.874 122.069 454.117
1734 0 96.1905 15.2198 1464 111.173 122.216 459.167
1735 0 98.2226 18.1425 1782 107.637 120.352 455.591
1736 0 100.473 16.6313 1671 110.626 121.523 452.142
1737 0 100.293 14.4676 1451 114.728 120.967 446.113
1738 0 104.312 12.2037 1273 116.185 121.057 452.762
1739 1 57.1571 16.236 928 106.464 120.844 471.79
1740 0 57.1507 10.7435 614 116.08 120.689 468.342
1741 0 60.1706 15.373 925 107.841 121.492 469.11
1742 0 63.3035 12.6849 803 110.62 120.812 465.783
1743 0 63.2816 10.8246 685 114.984 120.204 460.799
1744 0 66.0903 14.1171 933 110.345 121.406 460.749
1745 0 69.0711 13.2907 918 110.351 122.291 457.895
1746 0 73.0977 12.5038 914 110.333 123.183 459.964
1747 0 73.1127 13.2262 967 111.064 123.602 453.581
1748 0 75.1161 14.0582 1056 109.424 122.707 453.34
1749 0 76.3381 12.5494 958 112.81 122.484 448.713
1750 0 79.4775 12.8338 1020 112.801 123.237 449.072
1751 0 84.3169 13.0816 1103 111.141 123.98 448.485
1752 0 87.4035 14.6333 1279 109.25 124.674 446.802
1753 0 90.2256 13.8098 1246 111.683 125.236 441.891
1754 0 93.3781 15.5711 1454 108.611 126.046 448.239
1755 0 96.3943 13.1854 1271 112.252 126.817 449.207
1756 0 95.2356 13.6083 1296 112.137 126.863 439.397
1757 0 100.39 14.9717 1503 110.818 125.959 435.955
1758 0 106.285 15.242 1620 108.211 127.204 437.491
1759 0 110.396 13.7324 1516 109.563 127.209 447.032
1760 1 57.1192 11.5198 658 110.505 126.061 465.058
1761 0 61.1868 14.0063 857 107.87 126.777 467.028
1762 0 64.1862 19.2097 1233 101.68 126.591 466.208
1763 0 67.1462 13.4185 901 109.354 127.541 468.696
1764 0 69.1409 13.2194 914 110.668 128.125 466.642
1765 0 70.3962 13.4098 944 111.268 127.309 463.36
1766 0 74.2063 12.8965 957 111.95 127.273 463.766
1767 0 82.3032 13.8877 1143 108.323 127.018 467.777
1768 0 81.1454 17.216 1397 105.901 126.508 467.462
1769 0 82.2277 14.9706 1231 111.193 126.12 461.23
1770 0 83.2695 12.4896 1040 115.58 126.968 459.246
1771 0 88.1448 12.9673 1143 111.984 125.744 468.424
1772 0 89.2124 12.9242 1153 115.227 125.016 461.161
1773 0 94.2292 14.5072 1367 111.251 123.576 459.562
1774 0 98.387 14.3617 1413 112.348 123.696 455.427
1775 1 54.1398 12.4123 672 112.333 124.185 478.967
1776 0 55.083 9.36768 516 116.818 122.901 477.64
1777 0 57.2574 11.6317 666 114.164 122.084 471.913
1778 0 60.4878 13.8044 835 110.325 120.929 469.133
1779 0 61.5174 12.7119 782 111.289 120.569 466.472
1780 0 65.21 16.1478 1053 106.443 120.104 469.934
1781 0 70.6125 14.0627 993 107.114 121.834 473.494
1782 0 66.208 13.4576 891 109.741 120.689 468.861
1783 1 126.419 13.6293 1723 110.247 120.583 442.713
1784 0 129.374 12.3286 1595 112.682 119.845 430.187
1785 0 136.413 13.811 1884 110.859 120.512 425.765
1786 0 138.468 16.5309 2289 106.797 120.342 433.911
1787 0 142.317 11.7414 1671 113.849 121.09 425.8
1788 0 154.655 11.6323 1799 109.15 120.648 436.599
1789 1 85.2795 18.8674 1609 102.352 121.023 449.952
1790 0 86.1698 12.162 1048 111.372 122.348 454.043
1791 0 88.5937 13.0935 1160 111.579 123.064 447.45
1792 0 95.2973 15.8032 1506 106.099 124.084 451.365
1793 0 100.203 18.4925 1853 103.247 123.873 447.681
1794 0 101.348 14.613 1481 108.752 124.939 445.047
1795 0 103.5 17.1014 1770 105.849 124.724 438.758
1796 0 108.304 17.6079 1907 104.162 125.399 439.344
1797 0 113.608 22.384 2543 98.0118 124.616 440.846
1798 1 63.2458 11.4632 725 107.021 125.052 461.65
1799 0 69.3185 12.7527 884 103.784 125.076 459.061
1800 0 70.1164 11.7804 826 103.726 125.363 464.465
1801 0 71.0877 13.4763 958 103.681 126.759 461.156
1802 0 73.1463 17.7453 1298 98.8621 126.998 458.371
1803 0 78.2337 16.3612 1280 98.7852 127.091 462.811
1804 0 77.2173 16.8874 1304 101.415 126.168 454.946
1805 0 77.1553 12.909 996 108.428 127.397 462.299
1806 0 79.349 13.9888 1110 106.49 128.014 461.448
1807 0 80.1597 11.8763 952 109.101 129.121 461.27
1808 1 208.144 6.8318 1422 111.423 126.273 429.02
1809 1 101.075 11.0611 1118 111.534 128.529 350.883
1810 1 79.7133 16.1955 1291 108.907 127.351 320.401
1811 0 81.3997 16.7323 1362 111.092 127.244 312.971
