time division length width area intensity CMx CMy
0 0 48.2583 13.3656 645 136.741 664.76 467.067
1 0 53.2029 14.7924 787 127.37 664.828 468.493
2 0 53.1146 11.8988 632 137.301 664.084 467.332
3 0 53.2232 12.9267 688 129.916 663.702 465.285
4 0 56.2285 14.4055 810 128.836 663.551 465.396
5 0 57.0688 14.649 836 126.634 662.14 465.789
6 0 61.2621 15.4419 946 124.508 661.618 467.052
7 0 62.1873 13.6362 848 133.48 661.178 465.35
8 0 62.2396 13.0464 812 132.851 660.296 464.893
9 0 64.1524 18.2534 1171 123.585 658.752 459.763
10 0 64.1524 18.2534 1171 120.221 656.752 459.763
11 0 68.2044 13.7968 941 134.536 657.435 457.687
12 0 70.2024 14.8855 1045 132.463 657.662 455.193
13 0 73.1464 14.1087 1032 133.008 657.757 454.302
14 0 75.1666 14.4878 1089 132.121 656.871 453.601
15 0 79.085 16.3495 1293 125.543 656.545 455.023
16 0 79.1686 13.5407 1072 128.591 656.311 451.138
17 0 84.2089 16.3759 1379 126.477 656.768 445.11
18 0 84.2677 12.935 1090 131.546 657.109 445.881
19 1 42.0166 11.3288 476 134.584 657.151 464.284
20 0 47.0923 13.3143 627 123.458 656.346 463.903
21 0 47.1069 14.3928 678 120.926 657.112 462.311
22 0 48.0906 19.5672 941 117.003 657.293 460.34
23 0 49.0905 19.128 939 116.58 657.298 460.44
24 0 54.1794 16.1316 874 118.395 671.058 454.043
25 0 53.1363 12.2891 653 125.381 671.176 455.568
26 0 53.0806 12.3021 653 124.288 670.27 455.568
27 0 56.1168 13.5966 763 123.143 670.168 454.035
28 0 59.1936 15.0354 890 120.325 669.129 453.051
29 0 62.158 15.1388 941 119.039 668.74 450.294
30 0 64.1329 15.2652 979 117.582 670.153 450.939
31 0 63.1345 14.3503 906 121.091 668.607 448.118
32 0 67.1651 18.6257 1251 112.931 669.725 446.225
33 0 70.1714 15.1771 1065 118.516 671.278 443.946
34 0 72.1389 14.6246 1055 117.95 671.141 444.963
35 0 76.3875 16.4294 1255 114.707 671.337 448.766
36 0 79.1662 15.4233 1221 114.558 670.855 446.19
37 0 81.1427 14.9367 1212 113.968 672.453 449.492
38 0 82.168 13.5089 1110 117.022 670.575 445.777
39 0 85.221 15.5009 1321 113.163 671.728 446.952
40 0 88.2055 15.1351 1335 111.273 670.034 445.963
41 1 51.07 13.7067 700 112.534 669.674 463.697
42 0 59.4587 14.8675 884 103.57 668.536 469.598
43 0 56.1862 16.4987 927 103.687 668.832 466.633
44 0 55.0905 16.5001 909 105.22 667.45 466.834
45 0 59.1391 12.4791 738 104.713 668.007 472.39
46 0 57.0833 11.4394 653 123.245 666.319 466.933
47 0 57.0833 11.3869 650 142.172 664.329 466.877
48 0 63.1065 14.3091 903 116.909 664.712 467.473
49 0 65.0969 12.9653 844 120.097 663.7 467.102
50 0 66.2207 14.0288 929 123.508 664.117 464.962
51 0 68.1182 13.9317 949 124.266 662.534 460.275
52 0 71.2582 12.167 867 126.932 661.948 459.433
53 0 75.245 14.5259 1093 121.908 661.135 460.685
54 0 78.1683 15.9016 1243 121.308 661.443 457.905
55 0 81.1796 12.651 1027 127.343 660.399 456.278
56 0 85.1491 16.6766 1420 120.269 659.938 452.971
57 0 84.1023 11.5098 968 131.256 659.061 451.577
58 0 91.1075 14.7628 1345 123.556 659.526 448.934
59 0 94.169 15.9819 1505 123.411 658.799 444.679
60 0 96.2469 15.1589 1459 123.657 659.221 440.587
61 1 49.0696 11.2901 554 116.13 659.238 467.935
62 0 51.0938 12.6434 646 116.916 657.895 463.257
63 0 56.2759 12.3854 697 117.199 656.769 465.209
64 0 54.1451 15.0706 816 112.38 657.968 465.898
65 0 56.0568 8.02757 450 125.722 657.729 464.6
66 0 57.1112 10.5934 605 120.919 657.585 462.121
67 0 59.2268 11.8696 703 120.3 658.108 459.721
68 0 63.1401 13.9373 880 116.545 658.459 457.856
69 0 65.0412 14.4524 940 117.909 658.948 454.795
70 0 67.272 14.538 978 122.623 659.919 451.274
71 0 64.2203 12.1924 783 129.01 659.364 449.119
72 0 71.1218 13.1465 935 125.108 660.676 450.264
73 0 75.2224 16.1255 1213 119.501 661.284 449.886
74 0 77.2989 20.673 1598 112.509 662.501 449.568
75 0 75.156 13.9443 1048 124.062 662.367 449.609
76 0 79.231 14.7669 1170 123.874 663.136 447.508
77 0 80.1061 15.0301 1204 123.4 662.818 445.149
78 0 84.094 15.2567 1283 121.225 663.24 448.891
79 0 87.3138 14.362 1254 125.34 663.781 445.059
80 0 89.2765 16.4209 1466 122.621 665.406 444.551
81 0 89.2674 14.9999 1339 126.681 665.84 444.894
82 0 93.1753 15.4655 1441 123.652 665.811 447.804
83 0 95.1559 13.8404 1317 127.532 665.479 440.458
84 0 98.4182 15.9422 1569 121.46 664.577 446.687
85 0 104.254 15.4335 1609 123.286 664.76 442.224
86 0 109.412 16.2597 1779 121.948 664.429 441.721
87 0 109.187 12.7579 1393 129.676 663.814 441.253
88 0 116.459 13.6614 1591 128.079 662.768 440.671
89 0 122.151 13.3441 1630 128.878 663.577 441.171
90 0 124.194 13.4386 1669 129.805 662.677 438.4
91 0 123.309 12.5214 1544 132.309 661.752 438.696
92 1 70.3423 14.5716 1025 125.222 661.343 466.627
93 0 71.1104 14.2033 1010 127.038 660.122 463.435
94 0 74.2487 13.98 1038 127.489 659.41 464.647
95 0 78.1958 13.1593 1029 130.171 659.925 459.711
96 0 78.2226 12.6306 988 131.75 658.301 458.568
97 0 85.2724 16.4297 1401 121.866 659.635 461.733
98 0 86.2504 15.6753 1352 126.068 657.841 456.612
99 0 88.1141 11.678 1029 133.356 657.538 453.633
100 0 91.2539 12.7775 1166 130.266 658.045 454.396
101 0 95.3169 15.6321 1490 124.969 657.232 450.943
102 0 96.3888 13.1447 1267 132.694 656.241 448.042
103 1 51.0172 13.074 667 127.366 657.051 468.037
104 0 54.1908 13.6924 742 126.437 656.035 465.276
105 0 55.1806 14.4072 795 124.413 656.07 465.399
106 0 58.2185 14.8235 863 124.407 656.458 463.751
107 0 58.3328 14.0058 817 127.193 656.028 459.247
108 0 62.171 13.5755 844 125.435 656.523 462.664
109 0 61.3487 12.3882 760 128.851 657.338 460.186
110 0 65.3937 13.931 911 126.199 657.707 454.097
111 0 67.4121 14.671 989 125.371 657.984 452.898
112 0 73.2119 14.2873 1046 124.114 658.026 452.023
113 0 76.2386 14.4677 1103 120.779 658.336 454.974
114 0 74.225 13.1223 974 126.571 659.524 449.158
115 0 78.4044 18.6341 1461 116.146 659.273 446.872
116 0 80.3032 12.7392 1023 125.432 659.809 449.14
117 0 85.1964 14.9067 1270 122.724 660.267 444.958
118 0 84.4402 12.6835 1071 128.17 661.603 443.229
119 1 46.1896 12.6219 583 122.244 662.232 464.477
120 0 46.4783 13.5117 628 121.221 662.433 458.035
121 0 47.1073 12.2274 576 119.035 661.639 464.431
122 0 50.3383 12.6941 639 116.958 661.67 462.923
123 0 54.3676 15.8918 864 110.457 661.685 465.221
124 0 51.0983 9.76549 499 122.563 662.784 467.196
125 0 52.0652 13.8096 719 115.84 662.58 467.62
126 0 56.1441 11.8623 666 126.459 662.535 463.044
127 0 59.0738 12.5098 739 124.509 663.074 463.283
128 0 61.1427 14.7524 902 119.882 661.432 463.631
129 0 65.4161 13.5593 887 117.866 663.328 468.732
130 0 66.2547 16.1951 1073 116.04 662.023 465.571
131 0 67.1855 14.3186 962 120.253 662.01 462.744
132 0 69.2266 12.4374 861 123.059 661.165 463.382
133 0 70.2227 11.6914 821 124.342 661.099 462.776
134 0 75.1544 13.612 1023 119.668 661.497 463.785
135 0 76.4044 13.8343 1057 121.513 660.616 460.728
136 0 80.5396 13.3723 1077 121.478 660.425 459.851
137 0 80.2307 12.7507 1023 123.118 657.567 457.5
138 0 83.3516 13.677 1140 120.173 658.996 458.501
139 0 86.3476 13.1909 1139 121.522 657.214 455.374
140 0 85.3383 10.1127 863 122.608 658.681 456.105
141 1 48.1971 11.5982 559 113.564 657.932 474.8
142 0 46.1506 11.7008 540 114.222 657.133 475.161
143 0 50.1173 11.9919 601 111.739 656.439 472.471
144 0 50.0752 12.3814 620 111.726 654.819 471.506
145 0 55.2344 13.4518 743 109.262 653.455 469.665
146 0 54.0456 14.9318 807 107.71 653.69 468.48
147 0 56.0352 18.3635 1029 101.725 652.86 470.05
148 0 57.165 16.4611 941 106.261 653.107 464.871
149 0 59.2275 14.4021 853 110.354 653.533 462.778
150 0 66.2126 11.9766 793 111.174 652.579 463.503
151 0 64.2923 17.4671 1123 106.116 653.842 459.987
152 0 65.0982 12.2584 798 111.048 653.019 461.766
153 0 67.231 14.1155 949 109.403 654.687 453.329
154 0 69.1623 12.0731 835 112.485 654.812 456.093
155 0 71.3166 14.667 1046 115.603 654.242 448.225
156 0 76.6448 13.269 1017 115.703 655.277 449.858
157 0 78.14 15.0243 1174 112.493 655.491 449.066
158 1 41.1993 11.2866 465 112.168 656.299 466.471
159 0 43.0664 9.98458 430 113.488 656.098 467.084
160 0 44.1058 13.4903 595 110.605 657.306 462.037
161 0 48.2257 13.3539 644 110.093 657.286 464.261
162 0 47.1004 11.3375 534 112.949 659.618 463.154
163 0 48.133 14.1691 682 108.9 659.293 460.457
164 0 54.6993 17.4591 955 102.514 661.074 462.677
165 0 52.2977 14.972 783 108.902 660.807 462.658
166 0 53.1992 13.2145 703 112.771 662.737 461.782
167 0 54.1782 12.3297 668 114.928 662.922 461.859
168 0 56.1522 13.9799 785 112.924 661.921 461.171
169 0 58.4575 13.6852 800 112.646 662.145 462.821
170 0 65.3797 11.8538 775 115.723 662.788 465.476
171 0 63.3441 16.2604 1030 111.349 662.229 462.877
172 0 62.1974 12.8462 799 118.274 662.243 462.738
173 0 63.3125 11.1037 703 121.858 661.462 462.97
174 0 67.0658 15.2238 1021 113.826 659.414 465.119
175 0 69.0723 16.1425 1115 112.796 659.28 460.519
176 0 72.1894 12.9382 934 116.067 657.997 464.544
177 1 144.501 13.4463 1943 120.291 659.062 429.087
178 0 145.5 13.6014 1979 119.668 658.24 432.24
179 1 80.2082 15.4847 1242 113.719 656.354 458.863
180 0 83.2289 18.1668 1512 107.76 656.39 461.897
181 0 83.1639 12.6377 1051 118.937 655.062 457.782
182 0 88.1142 13.4485 1185 117.186 654.344 455.617
183 0 91.1939 11.4481 1044 120.627 653.506 453.155
184 0 94.1946 11.5612 1089 118.584 654.008 452.688
185 0 99.3011 15.6393 1553 113.496 652.965 448.001
186 0 98.2456 11.9395 1173 116.421 651.788 449.943
187 1 55.1322 13.6944 755 110.742 653.981 468.548
188 0 56.0554 14.6462 821 110.773 652.644 464.329
189 0 60.0422 16.172 971 108.961 651.986 463.629
190 0 60.1008 12.1795 732 114.801 651.414 464.727
191 0 63.0662 14.4927 914 111.875 651.407 463.315
192 0 63.1172 12.7224 803 115.472 650.895 459.435
193 0 69.1737 12.0711 835 114.267 650.659 460.477
194 0 72.4419 15.8886 1151 107.492 651.03 459.587
195 0 70.1394 14.7706 1036 112.199 650.992 453.578
196 0 74.1133 18.5122 1372 105.733 651.437 454.419
197 0 76.1938 13.9775 1065 112.658 651.358 450.777
198 0 81.0854 15.9338 1292 109.132 652.741 449.124
199 0 80.2034 14.3884 1154 112.67 653.054 445.292
200 0 84.0774 13.5589 1140 113.611 653.704 444.662
201 0 88.1274 14.9216 1315 110.579 654.628 445.239
202 0 90.2259 17.3786 1568 108.396 655.04 441.949
203 0 93.5088 15.0788 1410 111.133 654.982 442.09
204 1 47.1001 10.8068 509 110.682 656.069 466.079
205 0 50.1234 15.382 771 103.606 657.191 461.423
206 0 48.0335 11.1173 534 110 658.532 461.446
207 0 50.0258 15.9717 799 103.041 658.87 462.532
208 0 55.556 13.9499 775 100.366 659.768 469.683
209 0 52.0994 12.8792 671 108.48 659.01 461.085
210 0 56.0493 11.7575 659 107.554 661.083 466.534
211 0 57.1007 11.0682 632 109.922 659.79 464.169
212 0 59.112 23.0748 1364 96.3094 659.648 462.986
213 0 62.3164 15.2448 950 105.038 660.026 463.372
214 0 66.5145 17.7254 1179 100.394 659.913 467.024
215 0 62.1866 10.6936 665 113.039 659.111 463.517
216 0 66.2233 12.8656 852 110.14 659.708 463.768
217 0 72.0798 9.69758 699 112.373 659.7 466.901
218 0 73.0637 12.6602 925 108.044 659.64 468.069
219 0 75.2241 14.1444 1064 108.021 659.524 460.782
220 0 77.0825 16.6056 1280 104.248 658.291 463.297
221 0 80.1848 13.6185 1092 109.901 657.072 459.299
222 0 84.1023 13.7095 1153 109.822 657.476 458.048
223 0 87.1089 15.9915 1393 108.433 656.294 459.384
224 0 90.321 15.7217 1420 106.485 655.888 459.37
225 0 90.478 12.2019 1104 112.02 654.048 456.793
226 1 51.1166 11.6987 598 107.134 652.463 478.779
227 0 52.235 13.535 707 104.692 652.878 476.935
228 0 54.0824 14.0526 760 109.368 650.884 472.524
229 0 56.1244 13.0425 732 109.934 649.918 471.884
230 0 55.2356 13.9403 770 107.625 649.686 471.861
231 0 56.0883 12.3912 695 110.222 650.469 474.017
232 0 57.3942 14.4091 827 107.021 649.644 470.33
233 0 60.1443 9.75985 587 114.053 649.126 470.131
234 0 61.1647 14.3874 880 110.075 649.966 465.675
235 0 62.3017 12.1506 757 111.143 648.711 468.168
236 0 64.2133 14.1404 908 110.957 648.937 461.58
237 0 64.1466 11.1775 717 115.261 649.285 461.463
238 0 67.4518 15.6705 1057 110.599 649.079 455.819
239 0 69.1345 12.2226 845 115.749 650.144 456.825
240 0 72.2958 14.6897 1062 113.031 648.427 453.603
241 0 73.098 12.6542 925 117.951 650.202 450.493
242 0 75.2776 13.2842 1000 117.044 650.303 453.807
243 0 79.4802 13.8525 1101 116.709 650.147 448.205
244 0 85.1804 11.4815 978 120.491 651.357 447.364
245 0 88.2694 16.6536 1470 111.671 651.149 449.447
246 0 87.2644 15.2067 1327 115.827 653.996 447.138
247 0 92.2125 26.71 2463 99.3674 653.487 452.902
248 0 90.3268 14.0711 1271 118.877 654.268 439.788
249 0 96.2128 13.3454 1284 118.299 655.938 443.576
250 0 99.2598 11.8981 1181 121.076 655.778 440.88
251 0 101.294 14.68 1487 113.046 657.012 443.005
252 1 58.1631 11.9664 696 117.092 656.364 462.606
253 0 61.0888 13.6032 831 115.619 656.304 462.667
254 0 59.077 12.5937 744 120.622 656.855 458.027
255 0 64.0463 17.6591 1131 111.535 656.2 459.514
256 0 64.0561 13.4101 859 119.631 657.227 459.156
257 0 68.2637 14.195 969 113.669 658.185 461.58
258 0 69.2681 12.7764 885 117.524 658.125 461.476
259 0 70.1323 15.0573 1056 114.619 659.015 458.244
260 0 72.2298 11.1311 804 120.984 657.786 460.317
261 0 77.238 12.0925 934 119.075 656.39 459.058
262 0 78.2495 12.6902 993 117.685 656.374 462.545
263 0 83.1858 14.4496 1202 114.151 656.809 462.695
264 0 85.1548 16.1118 1372 112.913 655.436 457.613
265 0 87.1901 12.2032 1064 119.664 656.126 456.785
266 0 90.2162 11.2618 1016 121.107 656.545 457.677
267 1 47.1463 13.9141 656 115.555 656.729 476.011
268 0 50.0506 11.9279 597 117.407 656.111 476.97
269 0 49.0304 11.034 541 121.455 655.181 473.46
270 0 52.1397 14.7872 771 113.981 654.911 470.162
271 0 51.0922 12.957 662 114.692 651.356 470.651
272 0 55.0853 13.0706 720 113.615 652.544 471.322
273 0 54.0929 14.0129 758 113.231 652.917 471.495
274 0 57.1009 15.0786 861 110.827 652.386 468.019
275 0 61.0432 16.5129 1008 107.955 651.529 466.581
276 0 62.1447 13.2272 822 116.838 648.674 462.625
277 0 63.085 12.5862 794 117.035 649.156 462.32
278 0 67.0536 12.6615 849 117.088 649.286 458.906
279 0 68.1211 13.2705 904 114.713 648.794 459.004
280 0 69.1415 13.8846 960 116.392 648.588 453.325
281 0 72.2001 14.5291 1049 115 648.264 450.483
282 0 75.1279 15.6267 1174 113.951 649.351 447.688
283 0 76.3054 14.2978 1091 114.528 649.449 449.169
284 0 81.2018 13.1771 1070 114.819 650.613 446.573
285 0 78.2181 12.7848 1000 118.432 651.085 441.148
286 0 85.43 12.4429 1063 119.285 652.022 438.019
287 0 89.3497 14.46 1292 116.121 653.636 440.221
288 0 88.2863 10.1941 900 122.571 654.143 441.32
289 0 92.4142 12.8768 1190 119.645 653.686 435.044
290 0 95.2349 13.9655 1330 113.12 656.297 437.971
291 1 49.0547 10.5189 516 118.936 656.172 457.056
292 0 50.2665 13.0902 658 115.119 657.924 455.084
293 0 54.1439 15.5327 841 110.334 658.886 456.227
294 0 55.2897 12.8957 713 112.976 659.582 458.482
295 0 54.1032 9.18616 497 116.04 659.221 460.187
296 1 111.257 16.6191 1849 112.293 660.587 427.024
297 0 117.499 11.2172 1318 118.586 660.297 434.368
298 0 118.535 12.5195 1484 118.188 659.198 429.286
299 0 125.57 17.0662 2143 111.963 661.024 425.837
300 1 67.3611 13.1827 888 110.553 660.303 458.519
301 0 68.1026 13.7733 938 112.211 659.357 458.469
302 0 70.1402 11.862 832 114.495 659.512 460.041
303 0 73.1045 12.571 919 114.786 659.489 459.626
304 0 75.2566 16.1713 1217 109.361 659.244 460.087
305 0 78.1732 18.1264 1417 109.445 658.868 453.834
306 0 79.097 14.6655 1160 115.498 658.38 458.285
307 0 85.2594 14.4617 1233 115.013 656.763 458.294
308 0 86.2608 15.5691 1343 113.982 657.862 454.365
309 0 88.2124 13.8076 1218 116.625 656.541 454.835
310 0 90.1992 16.8072 1516 113.348 656.953 454.673
311 0 94.1708 13.7304 1293 116.94 655.857 456.419
312 0 95.1558 16.7935 1598 114.19 654.43 448.163
313 1 147.508 14.2907 2108 122.16 654.729 425.161
314 1 102.21 12.1905 1246 122.605 653.72 445.23
315 0 106.188 12.299 1306 121.432 653.041 446.251
316 0 111.282 17.4152 1938 113.23 653.187 433.253
317 0 114.511 14.8108 1696 116.94 652.09 436.012
318 0 116.239 14.1433 1644 119.277 651.619 429.886
319 1 66.0949 14.7061 972 107.569 650.173 466.061
320 0 65.2735 12.7464 832 117.65 653.251 454.566
321 0 69.2008 16.5894 1148 110.92 650.799 456.697
322 0 69.1555 12.3924 857 119.065 650.529 456.644
323 0 73.0996 14.9659 1094 115.008 651.108 449.52
324 0 77.1115 14.8746 1147 114.131 650.377 452.637
325 0 78.2104 13.5404 1059 117.811 649.934 449.679
326 0 80.0892 13.872 1111 117.561 650.506 445.471
327 0 80.1782 11.2749 904 123.117 651.372 443.871
328 0 90.1993 11.275 1017 122.175 651.608 439.451
329 0 90.161 11.0913 1000 119.799 652.832 444.9
330 0 93.0627 13.6252 1268 118.001 652.7 437.938
331 0 94.1404 12.8213 1207 117.942 654.021 439.689
332 1 51.11 12.4438 636 112.994 653.725 457.48
333 0 52.1521 9.60651 501 117.056 654.485 456.972
334 0 58.559 11.5781 678 107.102 657.382 458.36
335 0 53.2847 10.9975 586 110.179 656.592 455.77
336 0 57.2342 13.7505 787 107.076 657.249 455.394
337 0 57.0984 13.1527 751 106.503 657.852 458.543
338 0 58.0708 11.5376 670 110.53 658.428 453.093
339 0 63.1739 9.181 580 111.421 658.774 458.603
340 0 66.2186 11.6433 771 107.449 658.486 456.625
341 0 66.2419 16.0774 1065 103.603 660.692 454.789
342 0 71.4038 14.1729 1012 102.065 660.387 461.742
343 0 70.0933 14.5092 1017 107.968 659.559 453.123
344 0 70.3819 9.90311 697 114.95 661.61 455.561
345 0 76.3508 14.8394 1133 108.405 661.89 452.577
346 0 79.17 14.6267 1158 108.739 660.856 453.79
347 0 83.4046 12.9969 1084 110.208 662.667 456.206
348 0 83.4421 13.3026 1110 113.032 661.443 448.715
349 0 83.7078 12.5436 1050 112.3 661.197 442.786
350 0 87.3963 13.6276 1191 110.962 660.232 442.626
351 0 92.5927 14.6448 1356 108.791 660.106 457.45
352 1 44.1585 8.35626 369 114.206 657.813 475.799
353 0 46.0942 9.22024 425 113.238 657.454 473.736
354 0 51.0742 12.1392 620 109.771 657.779 472.734
355 0 49.0631 7.64322 375 120.661 655.805 468.611
356 0 53.1348 14.6232 777 108.607 656.028 472.12
357 0 54.1596 14.1803 768 110.408 656.828 468.493
358 0 58.0725 14.2753 829 110.282 655.66 467.165
359 0 58.1765 11.001 640 116.667 654.331 466.095
360 0 60.1027 10.6651 641 117.381 653.471 462.105
361 0 61.226 13.2623 812 112.792 654.07 463.75
362 0 63.074 13.7299 866 111.948 654.484 460.703
363 0 64.2815 10.2518 659 116.035 653.68 462.71
364 0 66.2339 13.709 908 110.901 653.304 459.739
365 0 70.2738 12.4655 876 112.14 653.405 458.813
366 0 66.1264 9.89015 654 118.532 653.683 458.543
367 0 73.6807 9.69047 714 117.09 653.683 456.199
368 0 79.3306 16.4628 1306 106.866 654.307 452.216
369 0 78.1344 10.7379 839 115.511 653.302 451.119
370 0 76.2058 11.7839 898 115.48 653.788 447.713
371 0 82.139 13.7815 1132 111.909 655.051 445.129
372 0 89.1987 12.4217 1108 114.299 654.622 438.78
373 0 93.2085 16.0929 1500 107.071 655.606 441.603
374 0 91.1877 11.5037 1049 113.612 656.417 441.027
375 0 94.1597 14.2736 1344 111.115 656.8 435.732
376 1 54.0384 13.3239 720 111.917 656.081 454.878
377 0 56.0948 13.1919 740 111.111 655.536 455.664
378 0 56.0769 11.6626 654 114.131 657.35 455.998
379 0 57.0946 13.9418 796 114.133 659.038 452.097
380 0 60.1141 13.7239 825 114.058 658.781 455.053
381 0 62.0648 11.6974 726 118.798 660.061 454.299
382 0 64.1153 12.6647 812 115.046 661.34 453.081
383 0 63.1541 13.19 833 114.181 662.025 452.497
384 0 67.1405 15.2665 1025 111.615 661.985 452.686
385 0 67.0302 11.7857 790 118.139 661.013 452.224
386 0 71.0593 14.2557 1013 113.533 662.609 453.301
387 0 74.1344 13.5834 1007 113.395 663.053 456.316
388 0 74.0735 20.5472 1522 105.149 663.854 453.401
389 0 77.2191 14.6596 1132 112.604 663.146 451.745
390 0 76.212 13.1738 1004 109.924 663.084 457.714
391 0 83.3233 15.4939 1291 105.918 664.898 453.784
392 0 84.102 13.6144 1145 108.71 663.893 454.005
393 0 87.2588 14.096 1230 107.444 663.193 455.168
394 0 87.1574 13.3322 1162 109.343 662.183 450.556
395 1 47.106 13.2467 624 106.75 662.604 474.79
396 0 50.0897 11.2398 563 112.025 661.107 470.247
397 0 53.1517 14.3551 763 106.26 661.429 471.109
398 0 52.5226 13.2895 698 104.751 661.291 468.388
399 0 54.3396 13.9677 759 105.559 659.014 470.37
400 0 52.2288 8.53934 446 109.646 655.906 472.635
401 0 56.1335 11.8289 664 106.413 656.367 466.696
402 0 56.1808 14.1152 793 102.107 655.108 468.873
403 0 56.3289 11.0778 624 106.913 654.345 469.074
404 0 60.1276 14.8019 890 102.708 654.639 464.124
405 0 66.0914 11.8775 785 106.209 653.239 460.31
406 0 64.207 12.2261 785 105.763 653.582 462.102
407 0 69.3117 13.937 966 103.519 653.171 459.824
408 0 71.1464 14.2664 1015 103.965 653.957 455.271
409 0 70.1323 11.4783 805 108.599 652.371 455.365
410 0 73.1617 10.1419 742 110.845 652.709 451.294
411 0 77.1416 17.4095 1343 102.048 652.48 446.529
412 0 80.1829 13.9681 1120 105.991 652.027 449.659
413 0 84.1247 15.1204 1272 105.101 652.973 444.638
414 0 84.1664 11.8693 999 109.819 654.236 444.071
415 0 89.3674 14.446 1291 105.366 654.701 444.857
416 0 89.3674 14.4796 1294 118.288 655.691 444.791
417 0 94.3408 13.0378 1230 107.659 655.458 435.285
418 1 52.2465 11.7328 613 107.398 656.378 458.098
419 0 54.1657 11.7971 639 104.255 657.535 459.059
420 0 54.052 15.5591 841 100.17 657.092 453.66
421 0 65.6569 14.4996 952 100.824 656.702 457.957
422 0 58.1273 10.8211 629 109.545 658.17 453.873
423 0 60.137 12.9704 780 107.081 659.259 450.71
424 0 61.2295 13.8332 847 107.571 658.785 447.668
425 0 64.1435 12.55 805 109.158 659.43 446.873
426 0 68.1513 13.8075 941 106.049 661.463 449.624
427 0 70.1679 13.5105 948 106.281 661.826 449.051
428 0 72.0845 15.7732 1137 103.73 661.814 449.782
429 0 74.1407 14.6883 1089 105.503 661.725 450.5
430 0 78.1272 13.1452 1027 106.988 662.212 450.295
431 0 78.1272 13.0684 1021 134.552 662.21 450.346
432 0 81.1155 13.7705 1117 106.038 662.065 445.334
433 0 89.7818 36.1098 3242 84.8754 662.189 451.165
434 0 86.0988 15.5519 1339 102.932 662.78 447.197
435 0 91.2709 16.7414 1528 100.029 661.847 451.55
436 0 92.2085 12.3958 1143 106.644 662.041 449.504
437 0 93.1721 14.4142 1343 105.518 661.21 448.385
438 0 97.1662 15.7874 1534 103.469 661.014 450.844
439 0 97.4451 14.3157 1395 105.455 661.04 451.611
440 0 103.352 15.394 1591 104.304 660.816 445.637
441 0 105.264 14.8768 1566 105.609 660.238 442.51
442 0 107.478 15.4729 1663 104.465 659.768 440.17
443 0 109.384 12.5247 1370 108.945 658.987 436.79
444 1 61.4145 8.54847 525 106.735 658.415 460.89
445 0 59.5308 11.4563 682 102.918 659.013 459.953
446 0 61.2373 14.8276 908 100.306 657.63 455.273
447 0 63.2812 17.5724 1112 96.5225 657.17 458.885
448 0 67.4659 12.5693 848 102.015 656.916 456.792
449 0 69.1748 14.0224 970 101.6 656.613 455.528
450 0 69.3914 9.48244 658 109.758 656.819 451.214
451 0 75.2748 11.4514 862 107.679 656.27 448.789
452 0 79.2766 13.3078 1055 105.364 656.032 450.321
453 0 81.2978 15.7077 1277 102.659 655.64 448.76
454 0 83.3785 13.6726 1140 106.025 655.406 444.145
455 0 82.3526 10.6615 878 112.31 655.208 439.708
456 0 82.3526 10.7586 886 139.339 655.188 439.796
457 0 92.4121 13.2991 1229 108.512 654.657 439.898
458 0 96.3955 14.316 1380 106.739 654.563 440.94
459 0 98.3355 12.7726 1256 109.462 655.08 437.298
460 0 102.684 13.6049 1397 108.81 655.764 436.403
461 1 51.2885 13.3753 686 103.776 655.978 450.891
462 0 54.4686 9.1796 500 108.274 656.672 453.262
463 0 57.3038 11.0289 632 106.011 655.59 449.35
464 0 57.3038 11.0638 634 133.181 655.565 449.438
465 0 67.7323 11.5159 780 102.362 658.282 452.51
466 0 64.1531 11.379 730 104.871 658.271 450.515
467 0 64.2958 9.40963 605 106.724 658.681 451.83
468 0 68.2336 13.1753 899 101.752 659.326 452.03
469 0 72.5871 12.2336 888 102.563 659.979 453.432
470 0 71.2657 11.0712 789 105.3 660.184 450.468
471 0 73.1469 11.2377 822 107.074 661.068 448.926
472 0 78.2046 15.549 1216 101.252 660.377 449.38
473 0 79.1621 12.1649 963 106.934 659.866 449.408
474 0 80.124 13.6538 1094 106.268 659.705 447.879
475 0 85.1902 13.1001 1116 104.795 660.06 454.165
476 0 87.2347 12.1511 1060 108.502 658.641 450.501
477 0 89.3568 11.2359 1004 111.11 658.676 448.855
478 0 93.3448 19.5298 1823 98.7784 658.894 461.067
479 0 97.1704 13.749 1336 107.813 657.743 451.073
480 0 101.372 12.1829 1235 109.568 657.559 451.26
481 0 102.43 11.1686 1144 112.025 656.423 450.484
482 1 55.1164 10.8679 599 106.28 654.937 477.92
483 0 59.1458 10.77 637 106.604 654.813 477.67
484 0 63.1734 15.7186 993 100.361 653.822 476.424
485 0 61.3331 13.5979 834 105.772 653.595 471.865
486 0 64.2001 14.5483 934 104.543 652.267 471.155
487 0 65.2231 12.0203 784 106.691 652.218 474.431
488 0 68.2992 10.2197 698 110.808 652.198 470.152
489 0 71.3692 13.5493 967 107.679 651.102 467.277
490 0 74.4069 14.5551 1083 108.231 650.331 468.211
491 0 75.3604 18.7632 1414 101.529 651.091 472.797
492 0 76.2581 13.6772 1043 112.613 650.1 462.718
493 0 85.1769 12.1512 1035 113.031 650.085 464.915
494 0 82.2814 10.7801 887 116.233 649.156 460.64
495 0 84.2265 17.1443 1444 107.966 648.846 458.289
496 0 87.2761 14.6317 1277 110.02 648.439 458.549
497 0 84.3479 14.0015 1181 113.334 648.321 455.126
498 0 92.5259 13.5205 1251 112.612 647.783 451.283
499 0 96.6385 14.6112 1412 110.288 647.921 451.632
500 0 97.2895 13.4341 1307 110.699 649.194 446.208
501 1 51.2591 13.6951 702 105.004 648.912 466.293
502 0 54.4838 13.2149 720 104.617 649.525 463.065
503 0 58.2712 14.9817 873 102.29 650.002 460.751
504 0 57.1701 15.1303 865 107.458 650.909 458.422
505 0 59.1328 12.9539 766 109.956 650.722 459.881
506 0 61.1718 15.3012 936 107.048 653.011 459.399
507 0 60.0627 14.9344 897 110.147 653.227 456.712
508 0 63.4357 15.3226 972 109.833 654.215 456.871
509 0 65.15 12.5556 818 114.142 654.112 458.136
510 0 65.15 12.6324 823 148.469 655.107 458.126
511 0 72.3589 20.426 1478 102.737 656.208 457.9
512 0 71.1351 12.8347 913 115.763 656.574 454.681
513 0 74.1739 12.0932 897 116.281 657.696 458.217
514 0 76.3571 14.5108 1108 114.468 657.523 451.675
515 0 79.2079 16.5261 1309 110.807 657.443 456.106
516 0 81.5146 17.9232 1461 110.342 658.749 454.736
517 0 82.3048 15.8557 1305 113.019 658.895 459.116
518 0 85.3778 17.2176 1470 112.545 660.104 456.294
519 1 180.75 16.7303 3024 117.514 659.519 416.095
520 0 180.75 16.6916 3017 152.54 659.503 415.901
521 0 179.945 10.77 1938 126.256 658.476 416.097
522 0 182.794 11.6142 2123 122.703 658.467 424.879
523 1 98.238 14.9331 1467 116.222 657.714 454.393
524 0 101.128 14.902 1507 116.834 657.036 451.445
525 0 106.338 13.8145 1469 117.57 657.683 454.697
526 1 59.2185 12.952 767 116.596 656.769 475.683
527 0 58.2235 14.6848 855 114.723 656.703 472.421
528 0 61.4497 11.245 691 116.757 655.462 474.11
529 0 64.2623 16.9306 1088 106.721 654.803 473.653
530 0 67.0924 13.5932 912 117.345 651.269 470.518
531 0 68.1957 13.7399 937 117.433 648.829 469.582
532 0 69.2718 14.5514 1008 115.739 649.109 470.125
533 0 74.1108 15.3284 1136 114.385 648.174 463.888
534 0 74.1842 13.5204 1003 117.894 647.542 463.444
535 0 80.1102 17.1888 1377 110.139 648.247 465.955
536 0 80.3238 15.562 1250 114.577 647.516 458.654
537 0 81.2692 14.4458 1174 116.52 646.953 458.503
538 0 85.2307 16.3321 1392 112.861 647.43 456.611
539 0 86.1579 14.4618 1246 116.232 647.948 451.27
540 0 91.2092 22.7389 2074 102.815 648.616 456.21
541 0 93.3171 12.7844 1193 116.819 646.311 450.396
542 0 96.5721 13.0887 1264 115.96 646.495 449.518
543 0 98.4253 13.2588 1305 115.752 649.181 449.241
544 0 101.327 16.6885 1691 111.983 650.5 441.579
545 1 58.1996 14.5877 849 109.309 650.008 464.49
546 0 60.1651 10.4379 628 115.011 650.623 462.277
547 0 61.1797 15.528 950 103.28 651.323 460.287
548 0 59.5078 14.0822 838 107.526 652.445 455.933
549 0 62.3414 15.383 959 103.837 653.279 459.04
550 0 65.1289 15.1699 988 105.916 653.564 453.32
551 0 67.2643 11.1352 749 111.626 655.101 453.239
552 0 76.8464 16.4744 1266 101.679 655.922 456.182
553 0 76.8464 16.2792 1251 124.888 655.882 456.006
554 0 74.3694 12.3169 916 111.311 655.279 450.904
555 0 77.2782 13.0955 1012 111.241 655.64 450.207
556 0 77.2826 14.8805 1150 108.854 656.82 449.33
557 0 83.5156 13.4705 1125 110.25 658.274 445.028
558 0 83.6438 9.98281 835 115.692 658.212 449.111
559 0 91.8349 14.0469 1290 108.526 657.698 449.83
560 0 84.493 12.3205 1041 115.216 657.524 441.441
561 0 93.6527 11.7989 1105 114.745 658.515 444.051
562 0 97.6526 16.0979 1572 107.581 658.694 442.377
563 0 99.414 12.3624 1229 111.542 658.456 444.023
564 0 104.482 14.9404 1561 106.758 657.999 444.179
565 0 107.425 19.1017 2052 102.042 657.951 438.655
566 1 54.2872 9.96552 541 109.213 657.318 464.76
567 0 61.3286 12.9629 795 104.655 657.119 466.701
568 0 62.4054 12.1784 760 105.589 656.832 465.237
569 0 63.2336 10.8803 688 107.474 656.382 466.922
570 0 65.3032 10.5202 687 109.08 656.648 466.304
571 0 74.4314 15.9341 1186 99.5388 655.5 468.465
572 0 71.2603 14.4681 1031 125.505 653.436 465.922
573 0 72.3715 10.4185 754 110.743 654.329 458.517
574 0 78.3446 15.0361 1178 104.003 651.949 461.669
575 0 80.1336 13.1156 1051 107.928 652.119 460.386
576 0 82.1789 11.8644 975 109.846 650.542 463.152
577 0 87.4742 12.0607 1055 109.173 650.745 462.778
578 0 88.1696 13.372 1179 108.972 651.838 455.647
579 0 93.3822 10.7943 1008 112.064 651.21 455.528
580 1 49.0992 16.4565 808 101.578 651.644 476.413
581 0 50.3299 11.7028 589 108.572 651.572 475.27
582 0 53.3511 13.1394 701 109.013 651.626 468.086
583 0 57.0864 13.2081 754 107.259 649.288 469.756
584 0 58.0499 14.8149 860 104.32 650.315 470.26
585 0 60.0716 13.3174 800 107.584 650.471 466.374
586 0 60.0716 13.2509 796 136.604 650.457 466.43
587 0 62.0679 14.1297 877 106.648 650.357 464.001
588 0 63.0893 12.7121 802 109.88 651.854 460.024
589 0 62.0453 10.5407 654 115.22 651.06 459.815
590 0 66.1382 12.2017 807 113.083 651.41 457.866
591 0 71.0822 15.0249 1068 105.967 651.996 462.516
592 0 72.4745 13.4392 974 110.969 652.741 455.432
593 0 75.1473 13.5068 1015 110.942 652.32 455.766
594 0 77.1025 12.3991 956 113.377 654.033 453.394
595 0 80.1425 15.6222 1252 109.286 654.921 451.029
596 0 83.1519 14.3232 1191 110.983 655.172 450.971
597 0 83.1151 13.5234 1124 112.45 657.157 452.786
598 0 89.1119 17.652 1573 106.075 657.623 451.291
599 0 89.1015 12.9066 1150 114.233 657.19 448.877
600 0 94.3346 17.0033 1604 107.824 657.991 447.373
601 0 98.4129 14.0429 1382 111.473 658.918 446.884
602 0 100.378 12.6323 1268 112.558 658.94 444.636
603 0 103.335 10.5095 1086 115.087 658.605 446.777
604 1 52.0798 15.5722 811 105.051 659.504 473.486
605 0 54.1832 16.1858 877 106.713 659.43 471.123
606 0 57.2297 12.4761 714 111.183 658.308 472.975
607 0 59.189 15.7969 935 105.248 657.365 476.024
608 0 60.2458 11.3535 684 114.27 657.835 472.591
609 0 62.1687 14.5089 902 109.023 656.7 473.358
610 0 64.2578 13.8193 888 109.725 656.502 472.903
611 0 65.1975 19.8321 1293 101.847 656.455 466.019
612 0 67.3205 14.6166 984 108.639 656.967 472.203
613 0 69.4041 14.8118 1028 109.634 656.721 470.671
614 0 72.5987 14.9452 1085 110.117 656.265 466.591
615 0 72.1787 17.8723 1290 106.252 654.39 466.745
616 0 74.1119 12.6026 934 114.119 654.58 464.85
617 0 78.3597 14.2293 1115 111.117 653.082 464.055
618 0 82.1586 12.1838 1001 114.79 652.656 455.122
619 0 85.4652 13.4324 1148 110.933 651.467 458.868
620 0 88.4495 16.3031 1442 107.701 651.555 454.744
621 1 39.288 8.11953 319 117.025 650.492 472.053
622 0 44.2324 9.69877 429 113.846 650.536 475.319
623 0 48.0731 11.3577 546 113.372 649.861 477.7
624 0 49.1168 12.7451 626 113.851 648.997 471.534
625 0 54.1203 13.6178 737 109.332 648.858 472.27
626 0 55.1087 15.3152 844 105.902 649.043 470.904
627 0 54.1463 13.6852 741 108.575 649.838 468.853
628 0 54.2508 11.0782 601 112.547 650.17 470.694
629 0 55.087 13.397 738 108.935 649.462 467.085
630 0 58.117 12.8018 744 107.624 650.757 468.195
631 0 59.2788 14.7945 877 106.956 651.155 464.252
632 0 62.1517 11.9546 743 112.074 652.903 459.868
633 0 67.3535 20.7265 1396 99.9635 652.02 460.154
634 0 64.2576 12.9946 835 111.363 653.28 459.127
635 0 70.2257 14.368 1009 107.179 652.776 461.747
636 0 71.2128 14.7726 1052 108.462 653.885 456.767
637 0 74.18 14.2761 1059 109.642 654.025 453.891
638 0 78.1004 14.9551 1168 108.962 655.449 453.676
639 1 44.1605 14.5605 643 102.166 654.303 475.163
640 0 45.0688 12.603 568 107.498 655.074 469.555
641 0 44.0504 11.6684 514 134.041 656.006 468.224
642 0 46.0496 11.7265 540 106.619 657.706 474.813
643 0 44.1591 8.71848 385 112.808 656.135 471.244
644 0 45.0959 12.8393 579 107.283 656.929 471.356
645 0 46.2262 13.1094 606 107.66 657.149 472.498
646 0 47.0632 11.8776 559 111.166 657.261 471.758
647 0 52.0878 12.9589 675 108.477 657.317 472.553
648 0 53.2268 12.8131 682 111.18 657.471 470.626
649 0 54.1305 8.7751 475 117.467 656.634 472.448
650 0 57.046 13.0246 743 109.233 656.904 470.853
651 0 60.2018 11.7438 707 110.143 656.199 473.615
652 0 62.0774 12.8549 798 108.303 656.452 474.477
653 0 66.2416 16.2738 1078 103.762 656.35 471.995
654 0 63.0722 14.1108 890 109.104 656.347 467.63
655 0 69.0711 18.271 1262 100.639 655.086 473.666
656 0 67.1319 13.2575 890 108.233 654.992 468.608
657 0 69.2052 12.9759 898 109.403 655.135 465.455
658 0 71.1074 13.0788 930 109.022 653.715 466.673
659 0 75.2702 12.9533 975 108.998 654.076 465.465
660 0 77.2486 13.4501 1039 108.366 652.014 460.935
661 0 79.3046 13.9462 1106 107.918 651.754 456.793
662 0 83.1189 15.2071 1264 106.523 651.074 458.002
663 1 46.08 10.7422 495 108.752 650.327 480.026
664 0 44.0488 8.55869 377 111.233 649.456 474.167
665 0 43.2024 11.1568 482 105.32 651.448 473.112
666 0 50.1278 14.3433 719 103.907 649.385 474.185
667 0 51.2106 11.15 571 109.751 649.452 472.623
668 0 53.1773 10.0795 536 109.336 648.871 473.825
669 0 53.0653 13.719 728 105.799 649.588 468.232
670 0 54.144 11.2847 611 107.622 650.2 468.732
671 0 59.2178 12.4456 737 104.32 649.794 463.995
672 0 59.0586 12.9702 766 103.475 650.375 465.115
673 0 67.2271 14.994 1008 98.8254 651.075 466.457
674 0 61.0623 11.4801 701 106.82 650.623 462.625
675 0 66.0923 15.3119 1012 102.638 652.015 458.465
676 0 68.0449 14.1083 960 104.909 651.947 457.011
677 0 70.1773 16.8573 1183 100.648 652.903 455.222
678 0 73.1193 14.9345 1092 102.114 653.239 457.994
679 0 74.05 17.4072 1289 101.189 654.268 453.46
680 0 73.1091 11.1477 815 110.735 653.99 451.66
681 0 78.143 13.2705 1037 107.145 656.123 454.369
682 0 84.2143 21.6828 1826 94.7881 656.615 457.779
683 0 84.2627 16.0095 1349 103.561 656.491 448.738
684 0 90.4099 21.2809 1924 96.0722 657.333 452.604
685 0 87.2719 11.8136 1031 110.647 657.946 447.329
686 0 92.3139 13.5624 1252 107.421 658.201 449.521
687 1 49.2168 10.9109 537 107.436 657.546 467.95
688 0 51.1325 14.922 763 101.843 657.304 470.748
689 0 52.0329 10.6663 555 107.405 657.299 472.661
690 0 55.2056 12.7885 706 102.858 657.01 472.079
691 0 60.1354 14.7002 884 99.7183 656.555 470.619
692 0 59.111 12.0282 711 108.489 656.803 469.487
693 0 62.1411 14.6763 912 103.404 656.1 471.633
694 0 62.1793 13.9275 866 106.612 656.693 467.276
695 0 66.1369 10.7958 714 110.437 655.653 469.947
696 0 67.1032 14.0381 942 106.024 656.22 469.087
697 0 73.334 14.1681 1039 104.636 655.407 468.95
698 0 71.3074 12.6915 905 108.493 655.538 466.827
699 0 73.1415 13.2346 968 107.509 653.967 465.741
700 0 77.5675 14.4906 1124 105.249 654.067 463.055
701 0 78.3885 12.5146 981 108.504 653.06 461.437
702 0 83.1365 12.6419 1051 107.295 652.36 461.975
703 0 84.3398 15.2004 1282 104.335 652.402 461.08
704 0 93.6715 11.5083 1078 105.837 651.242 464.46
705 0 92.41 12.5636 1161 107.806 650.434 455.073
706 0 94.284 11.4229 1077 109.419 650.435 453.695
707 0 100.682 17.2424 1736 100.741 650.604 453.423
708 0 101.328 12.9283 1310 106.63 649.692 447.817
709 1 56.233 12.2882 691 103.156 649.198 470.754
710 0 56.2443 11.2545 633 104.253 649.534 469.877
711 0 58.1768 11.826 688 105.679 649.592 465.499
712 0 59.1806 10.0371 594 107.791 649.497 467.125
713 0 64.2705 14.1433 909 101.576 647.483 464.288
714 0 63.2708 13.4185 849 102.71 649.724 464.167
715 0 65.2391 14.4392 942 101.09 649.021 460.717
716 0 69.078 18.385 1270 95.885 650.526 463.896
717 0 69.2786 19.27 1335 93.9753 649.959 464.344
718 0 69.1352 12.9167 893 104.133 649.918 456.204
719 0 73.1066 13.9933 1023 102.109 649.476 455.771
720 0 75.1938 14.0304 1055 101.36 651.289 458.618
721 0 76.1242 15.0544 1146 103.353 651.991 452.789
722 0 82.1501 14.2179 1168 101.408 652.647 457.811
723 0 81.3075 14.8941 1211 103.372 652.696 446.741
724 0 83.2925 10.6012 883 106.123 654.345 451.978
725 0 87.5131 12.5695 1100 100.922 655.027 457.879
726 1 49.3383 13.6 671 101.465 656.048 464.763
727 0 46.4774 12.3716 575 100.777 657.713 462.628
728 0 50.074 9.92531 497 107.551 656.499 471.517
729 0 53.073 11.7385 623 105.014 656.56 471.735
730 0 58.1891 13.1468 765 101.278 656.472 472.033
731 0 57.1972 11.5915 663 104.585 656.478 471.903
732 0 59.0324 12.8743 760 103.888 656.642 470.478
733 0 66.2589 13.2812 880 101.068 657.344 472.59
734 0 61.2196 10.2091 625 109.674 657.603 469.125
735 0 61.0903 12.2769 750 106.819 657.495 468.071
736 0 66.163 11.653 771 106.38 657.182 470.575
737 0 68.2108 12.564 857 105.888 657.771 468.761
738 0 69.0716 12.9865 897 105.265 656.76 470.224
739 0 72.1669 15.6581 1130 102.205 655.503 465.306
740 0 74.2426 10.7351 797 108.797 655.902 463.703
741 0 80.5857 16.7648 1351 100.571 655.338 464.164
742 0 81.1867 12.6498 1027 106.931 655.719 460.193
743 1 43.1122 9.64923 416 107.397 653.757 481.531
744 0 45.1083 12.0155 542 105.352 652.677 479.334
745 0 46.1259 11.3819 525 106.011 652.6 482.758
746 0 53.4421 14.4081 770 100.13 652.305 480.281
747 0 43.4349 10.5445 458 107.037 651.574 476.159
748 0 45.0811 6.47722 292 113.586 652.151 478.178
749 0 51.238 13.2324 678 104.746 651.33 474.211
750 0 54.2501 16.6267 902 101.285 651.963 472.245
751 0 53.1745 10.4561 556 110.635 651.002 471.603
752 0 55.2048 14.419 796 104.75 650.881 469.967
753 0 58.3945 12.1929 712 109.358 651.018 468.886
754 0 56.1625 11.5914 651 112.822 652.006 467.986
755 0 56.1625 11.5736 650 130.597 652.997 467.969
756 0 60.1847 11.2819 679 113.692 651.259 463.212
757 0 66.202 16.1627 1070 104.973 652.543 464.719
758 0 65.1139 12.839 836 110.476 652.356 464.768
759 0 69.294 13.6953 949 108.841 653.399 462.163
760 0 71.146 12.6641 901 111.866 653.37 459.225
761 0 70.1017 14.2365 998 109.941 654.395 459.066
762 0 75.1553 14.5166 1091 108.608 654.072 456.341
763 0 79.1533 15.072 1193 108.573 654.999 453.209
764 0 80.202 13.9398 1118 110.212 655.62 451.807
765 0 81.4111 11.8043 961 113.645 655.708 452.52
766 0 84.4421 13.1451 1110 112.402 655.642 449.751
767 1 46.1065 13.0567 602 111.299 655.837 467.201
768 0 49.4039 12.8937 637 109.385 656.327 471.432
769 0 50.1096 13.8696 695 110.003 657.364 471.426
770 0 51.0989 10.6656 545 110.835 657.794 470.365
771 0 55.2325 13.3436 737 104.951 658.627 471.377
772 0 52.0797 11.3864 593 110.879 658.278 473.019
773 0 60.8502 16.3845 997 100.808 659.17 473.158
774 0 58.4014 14.8455 867 104.753 658.815 472.878
775 0 57.114 14.5674 832 107.649 658.532 470.781
776 0 61.1105 13.3529 816 106.963 658.882 473.216
777 0 60.0664 11.1044 667 111.039 657.738 471.996
778 0 65.1217 13.375 871 108.038 658.47 469.79
779 0 67.1886 18.1578 1220 102.375 658.051 472.411
780 0 68.2728 14.5446 993 108.502 657.917 468.011
781 0 70.2258 17.401 1222 104.629 658.352 467.629
782 0 72.1156 13.0346 940 114.246 656.914 468.273
783 0 76.2351 13.9175 1061 112.843 657.033 467.66
784 0 74.163 13.349 990 115.591 656.414 463.2
785 0 79.1079 14.3096 1132 113.501 656.049 463.75
786 0 81.17 14.6483 1189 112.352 654.856 465.415
787 0 81.1091 12.3414 1001 117.354 655.841 461.84
788 0 84.1165 12.7086 1069 117.504 654.297 459.9
789 0 90.3347 13.9592 1261 111.934 654.151 455.489
790 0 90.3347 13.9149 1257 129.877 653.163 455.465
791 0 95.2101 16.9835 1617 108.485 653.779 454.101
792 0 95.3205 13.25 1263 115.621 652.539 448.453
793 0 102.305 19.3343 1978 107.3 653.44 446.169
794 0 101.29 14.108 1429 115.392 652.394 441.78
795 0 105.383 10.9505 1154 119.519 651.322 441.488
796 0 106.231 10.5243 1118 120.138 651.87 438.672
797 0 112.583 12.7017 1430 115.539 652.329 441.829
798 1 59.153 12.138 718 112.51 651.87 464.056
799 0 62.1354 11.7324 729 113.87 652.447 464.519
800 0 64.1863 12.7909 821 114.442 651.733 463.144
801 0 65.1564 15.1482 987 111.098 653.627 458.089
802 0 69.357 14.7498 1023 111.545 652.507 454.471
803 0 73.1717 16.4408 1203 108.194 652.004 457.308
804 0 73.3941 15.1783 1114 112.929 652.846 455.438
805 0 77.2833 15.0874 1166 112.707 653.876 454.118
806 0 79.229 13.1013 1038 116.582 653.729 451.993
807 0 82.1761 16.6959 1372 111.858 654.109 448.464
808 0 83.3709 14.7294 1228 115.079 656.848 445.593
809 0 85.2418 12.095 1031 119.341 656.604 446.497
810 0 90.328 15.8091 1428 113.632 657.527 446.637
811 0 93.3874 15.3768 1436 114.228 658.903 444.286
812 0 97.2034 17.6537 1716 109.744 658.355 444.535
813 0 98.252 11.5214 1132 121.435 658.685 445.056
814 0 100.459 14.0256 1409 118.306 659.165 440.616
815 0 104.199 16.9388 1765 111.604 659.509 445.242
816 1 56.1799 9.02459 507 121.314 660.284 467.511
817 0 54.4331 10.3797 565 113.83 659.202 461.073
818 0 59.2374 11.5468 684 112.127 659.289 461.671
819 0 61.3199 10.4534 641 116.223 660.183 460.924
820 0 67.4233 16.2703 1097 101.636 661.71 468.54
821 0 66.3588 15.7477 1045 106.239 660.929 462.349
822 0 68.4722 10.9241 748 113.543 659.77 462.961
823 0 69.3819 12.5249 869 111.559 658.793 460.052
824 0 72.3193 14.5881 1055 109.122 659.001 456.742
825 0 73.2474 14.0346 1028 109.808 658.575 460.809
826 0 76.2446 11.7779 898 114.231 659.239 459.99
827 0 78.5127 11.4631 900 114.573 657.654 459.25
828 0 80.3217 11.5784 930 113.108 657.349 455.348
829 0 84.2243 10.7451 905 115.191 655.657 454.85
830 0 86.1625 12.7434 1098 111.872 656.614 455.687
831 0 89.2667 13.6557 1219 114.91 655.883 454.582
832 0 90.2092 14.3112 1291 115.644 655.749 454.638
833 0 97.2413 14.3458 1395 113.068 654.941 455.895
834 0 98.2387 14.4342 1418 114.711 654.692 449.738
835 1 199.651 16.4888 3292 116.853 653.96 404.52
836 1 60.0453 12.8903 774 114.695 656.319 470.14
837 0 60.1578 11.8023 710 117.824 655.587 469.299
838 0 60.2117 11.6423 701 110.853 654.247 460.599
839 0 64.0647 12.222 783 110.817 651.935 463.517
840 0 64.0964 12.606 808 108.651 651.702 460.776
841 0 66.1222 15.9251 1053 103.813 653.307 459.958
842 0 68.1351 11.4919 783 111.074 653.204 460.134
843 0 72.2025 12.9912 938 107.428 652.055 457.53
844 0 76.1714 14.4805 1103 106.557 651.987 454.295
845 0 75.227 11.2858 849 112.14 651.809 453.265
846 0 79.2343 15.4226 1222 106.847 652.007 446.641
847 0 81.1348 14.137 1147 108.952 653.376 447.279
848 0 86.1723 16.5598 1427 103.857 655.053 450.242
849 0 83.2444 14.7157 1225 107.375 656.186 445.857
850 0 91.2226 14.3605 1310 106.317 657.545 443.496
851 0 91.2275 11.8605 1082 109.568 657.814 447.185
852 0 94.2052 12.1968 1149 110.862 658.724 443.043
853 0 100.179 12.6574 1268 109.707 657.953 439.135
854 1 51.0624 9.92902 507 111.065 660.765 465.686
855 0 48.3456 7.40502 358 113.673 659.891 461.201
856 0 54.5476 12.0262 656 110.797 659.93 460.617
857 0 55.0285 11.5576 636 111.469 656.737 463.903
858 0 56.0801 14.5685 817 107.857 657.88 463.652
859 0 59.0554 12.5984 744 110.892 657.956 463.849
860 0 60.0515 11.1071 667 113.589 657.901 464.241
861 0 60.232 12.7673 769 113.523 658.917 462.42
862 0 62.0807 10.7119 665 116.436 659.017 466.54
863 0 64.1696 13.6981 879 111.618 659.297 464.828
864 0 66.0642 12.8965 852 113.007 658.465 466.364
865 0 69.0975 13.2566 916 112.856 657.478 463.526
866 0 73.182 12.4348 910 113.729 657.213 464.3
867 0 73.1005 15.5539 1137 110.382 658.057 462.549
868 0 77.1445 13.0405 1006 114.129 657.357 464.104
869 0 78.1972 13.6322 1066 114.436 656.237 462.705
870 0 79.2681 13.448 1066 116.036 656.194 459.719
871 0 83.1843 17.4672 1453 108.767 655.076 458.954
872 0 88.1622 14.7115 1297 113.482 653.615 456.932
873 1 55.1419 10.4276 575 115.468 653.447 477.461
874 0 51.2019 10.8394 555 114.577 652.602 476.204
875 0 51.183 11.8203 605 116.094 652.79 473.212
876 0 52.1297 12.1044 631 114.16 653.342 471.005
877 0 55.0751 12.8007 705 112.102 652.779 471.25
878 0 59.081 15.9442 942 106.323 653.661 468.585
879 0 57.0399 11.0975 633 117.744 651.889 467.793
880 0 60.0392 11.9422 717 132.856 650.967 466.216
881 0 62.075 14.418 895 109.388 651.739 465.106
882 0 63.1393 11.435 722 113.719 652.107 465.788
883 0 63.18 13.786 871 110.059 651.736 466.79
884 0 68.1944 13.8428 944 109.825 652.516 461.629
885 0 74.244 10.8696 807 114.191 652.582 458.927
886 0 73.3222 15.3841 1128 106.218 653.107 458.418
887 0 74.1933 13.384 993 110.675 652.988 451.6
888 0 76.205 10.288 784 115.064 653 453.267
889 0 81.1477 13.4323 1090 111.078 654.655 449.33
890 0 83.2157 13.6753 1138 110.267 653.684 445.098
891 0 86.24 14.8423 1280 108.348 654.575 447.199
892 0 88.1696 12.3966 1093 112.317 655.966 442.531
893 0 91.2659 12.9512 1182 111.706 656.36 442.967
894 0 93.2169 13.431 1252 112.23 656.778 442.665
895 0 96.3375 11.823 1139 114.179 656.743 440.582
896 0 103.579 15.8237 1639 108.009 656.814 445.417
897 0 101.179 12.7991 1295 114.441 657.937 442.813
898 0 103.377 12.5172 1294 115.357 659.267 433.775
899 1 54.258 9.25209 502 116.865 659.303 461
900 0 58.5942 12.7658 748 110.258 660.623 461.751
901 0 58.2835 16.2653 948 104.506 660.14 459.84
902 0 59.175 10.9844 650 111.528 661.085 462.778
903 0 60.2684 12.3614 745 108.965 660.937 462.536
904 0 64.169 10.6438 683 108.228 662.047 467.059
905 0 68.0919 6.63809 452 113.56 660.965 458.378
906 0 67.328 12.3277 830 108.814 661.707 459.534
907 0 71.1598 12.7881 910 106.688 660.202 464.692
908 0 72.2767 9.06239 655 112.305 659.4 463.453
909 0 77.2014 10.233 790 111.47 659.796 462.904
910 0 77.1809 7.11316 549 116.674 657.923 462.375
911 0 81.213 14.1234 1147 108.079 658.541 460.223
912 0 85.1441 11.3102 963 112.366 658.14 456.235
913 0 88.4753 13.0432 1154 112.287 657.523 458.283
914 0 94.2605 9.98297 941 115.086 656.921 456.013
915 0 97.2405 12.4022 1206 112.026 655.289 456.052
916 0 98.275 10.2162 1004 117.127 656.088 449.425
917 1 54.1989 12.4541 675 111.11 653.607 475.138
918 0 53.1446 13.134 698 109.176 652.106 476.027
919 0 56.2405 11.0419 621 112.697 652.913 471.502
920 0 56.0802 13.766 772 109.424 652.437 473.908
921 0 57.2327 7.19869 412 118.427 652.364 476.313
922 0 55.1712 10.6577 588 115.954 651.617 467.947
923 0 62.1169 17.2417 1071 106.016 651.78 465.644
924 0 63.2216 10.8665 687 115.368 651.157 466.587
925 0 64.2385 14.1193 907 111.092 651.345 463.149
926 0 68.3188 13.4516 919 112.01 650.695 461.33
927 0 68.1869 13.991 954 112.746 651.37 457.639
928 0 69.1705 14.1101 976 111.417 651.904 458.915
929 0 73.1632 12.1646 890 114.391 652.19 455.551
930 0 79.262 16.6789 1322 107.415 651.843 453.825
931 0 81.4412 12.1806 992 114.046 653.698 453.384
932 0 84.1997 12.0547 1015 114.39 653.338 453.151
933 0 86.264 14.0267 1210 110.912 653.776 449.081
934 0 90.2302 12.7895 1154 112.408 653.39 447.761
935 1 48.0995 10.6654 513 113.745 653.805 468.372
936 0 49.0692 10.4139 511 117.538 654.309 464.127
937 0 54.2518 12.3314 669 114.635 658.499 462.753
938 0 51.2964 11.2289 576 112.979 658.731 461.425
939 0 53.2982 11.7828 628 109.967 657.268 458.118
940 0 52.2815 11.0173 576 111.052 657.648 459.872
941 0 54.1079 13.1589 712 108.365 658.018 459.951
942 0 56.0899 13.8171 775 112.719 659.11 464.612
943 0 58.2179 12.2299 712 114.008 659.499 463.594
944 0 60.1437 15.2967 920 108.839 659.316 461.396
945 1 125.565 12.0893 1518 117.485 659.121 431.509
946 0 134.447 11.3278 1523 116.913 659.467 434.74
947 0 134.281 15.1026 2028 112.917 660.621 425.176
948 0 142.399 12.5844 1792 114.327 661.006 428.073
949 0 144.727 12.0295 1741 114.794 660.086 432.227
950 1 74.3507 9.92593 738 112.198 660.243 462.203
951 0 79.259 14.686 1164 107.232 658.564 455.493
952 0 79.3354 13.1467 1043 109.56 657.416 456.879
953 0 82.2541 11.9386 982 109.729 657.401 462.957
954 0 86.3203 12.025 1038 110.39 657.371 460.987
955 1 43.0292 5.36845 231 118.121 656.368 481.723
956 0 49.1118 12.5224 615 107.836 656.093 476.611
957 0 50.1974 10.0603 505 111.392 655.036 479.911
958 0 51.1187 11.444 585 110.783 653.949 477.721
959 0 51.1268 8.95811 458 123.31 652.941 480.251
960 0 54.1918 14.3749 779 110.272 651.926 468.953
961 0 58.0508 10.3186 599 115.988 652.134 470.28
962 0 61.2477 14.2209 871 108.59 650.579 474.821
963 0 61.0952 14.7311 900 109.26 652.199 470.852
964 0 62.2019 11.1894 696 116.332 650.474 466.328
965 0 60.212 14.2829 860 112.894 650.471 468.165
966 0 65.2604 12.2126 797 115.383 650.95 464.529
967 0 65.0981 13.5027 879 113.755 651.011 466.237
968 0 69.0415 11.4714 792 116.77 650.955 464.027
969 0 71.2359 14.7398 1050 111.417 651.673 461.379
970 0 72.1395 13.0303 940 115.818 650.39 457.621
971 0 77.1202 15.612 1204 111.544 651.089 459.49
972 0 78.2676 13.9905 1095 114.618 650.94 453.923
973 0 80.1458 12.1154 971 119.432 652.127 454.201
974 1 42.1234 12.6058 531 111.448 651.471 476.085
975 0 41.1174 8.65814 356 120.643 652.649 471.654
976 0 45.135 9.0174 407 115.776 652.376 472.634
977 0 47.3903 12.5553 595 110.573 655.353 471.077
978 0 45.4866 10.9922 500 111.778 655.894 466.348
979 0 46.2 12.0563 557 106.621 657.609 468.542
980 0 47.4176 17.6306 836 101.172 656.763 463.158
981 0 54.7777 16.7221 916 100.206 657.386 462.424
982 0 51.2691 9.65493 495 114.743 657.875 463.461
983 0 54.3255 14.3211 778 102.584 659.059 461.817
984 0 55.2872 15.4647 855 100.655 659.862 462.843
985 0 60.4333 12.4269 751 107.061 660.405 466.798
986 0 58.3704 12.4378 726 110.176 661.083 466.065
987 0 59.4501 12.8007 761 111.691 661.047 462.11
988 0 61.3385 13.1239 805 113.116 661.887 463.832
989 0 64.3269 13.7578 885 111.041 661.539 459.737
990 0 69.44 12.5864 874 112.626 661.973 462.003
991 0 69.3401 12.4603 864 115.241 661.758 461.581
992 0 72.4975 16.6213 1205 107.306 662.017 462.285
993 0 75.3514 12.9526 976 111.496 661.561 462.194
994 0 78.733 17.4387 1373 104.488 660.973 463.585
995 0 79.6087 16.154 1286 107.016 661.293 460.572
996 0 82.2617 12.9708 1067 116.807 660.038 459.193
997 0 83.1738 12.7925 1064 119.793 659.761 459.471
998 0 87.206 15.2742 1332 117.005 659.782 457.61
999 0 91.4284 17.511 1601 110.623 659.514 458.676
1000 1 49.0876 13.5472 665 113.523 659.346 477.701
1001 0 47.0694 10.5376 496 119.784 657.865 477.288
1002 0 49.1906 9.71729 478 121.337 657.952 474.479
1003 0 50.1827 9.90381 497 117.095 655.94 469.127
1004 0 54.5977 14.2863 780 108.099 654.879 471.46
1005 0 57.0786 13.1748 752 117.198 652.835 474.581
1006 0 56.3371 13.0997 738 118.646 652.253 467.768
1007 0 60.1586 13.8135 831 116.629 651.93 469.188
1008 0 61.3851 12.9999 798 117.791 651.533 468.351
1009 0 61.4601 12.3332 758 119.616 651.35 466.691
1010 0 64.3737 14.0741 906 116.991 652.202 462.826
1011 0 64.3737 14.0896 907 134.268 653.144 462.955
1012 0 67.3432 16.8688 1136 113.371 650.694 462.094
1013 0 69.3581 12.5292 869 118.529 650.949 458.35
1014 0 72.669 18.8113 1367 108.148 650.914 459.09
1015 0 73.2677 13.6622 1001 116.004 651.941 456.647
1016 0 77.1298 15.4674 1193 111.184 651.873 458.468
1017 0 80.1812 13.5069 1083 114.547 650.102 455.563
1018 0 80.352 13.2666 1066 116.209 652.373 451.726
1019 0 82.2013 12.4572 1024 118.2 649.429 447.684
1020 0 86.3591 13.6639 1180 115.435 650.166 446.449
1021 0 88.5046 13.2987 1177 116.393 650.272 445.03
1022 0 92.4318 16.5852 1533 110.718 650.963 442.703
1023 0 96.4786 13.7025 1322 114.848 650.902 438.187
1024 0 97.3557 12.6854 1235 116.262 651.857 434.966
1025 0 99.4089 10.7435 1068 119.519 653.201 435.108
1026 1 53.1977 10.7335 571 111.483 654.046 453.956
1027 0 53.1977 10.7523 572 114.364 655.038 453.979
1028 0 55.3079 12.1502 672 110.847 652.991 454.223
1029 0 61.2155 13.4443 823 108.943 654.429 454.837
1030 0 64.3917 12.7811 823 109.384 655.926 458.149
1031 0 63.2919 10.1277 641 114.668 656.231 456.303
1032 0 66.4208 10.9454 727 114.193 655.033 452.912
1033 0 71.4029 12.0443 860 118.819 655.31 461.727
1034 0 72.0949 13.1493 948 116.667 655.021 463.565
1035 0 75.2808 13.7884 1038 115.268 654.567 464.724
1036 0 77.2104 12.4077 958 119.561 655.616 461.161
1037 0 77.2104 12.4336 960 143.434 655.612 461.196
1038 0 82.1518 13.9133 1143 118.911 655.138 457.126
1039 0 85.3095 11.9096 1016 121.693 653.951 460.745
1040 0 89.2675 14.8654 1327 118.234 654.885 456.758
1041 0 89.3079 12.0818 1079 124.538 654.793 459.591
1042 1 47.0703 13.9154 655 114.632 653.421 483.829
1043 0 49.1065 9.77468 480 123.004 652.779 481.252
1044 0 52.321 15.1756 794 110.898 653.717 477.16
1045 0 50.1403 12.0462 604 122.169 651.581 476.5
1046 0 55.1272 11.9542 659 120.266 651.601 479.02
1047 0 54.0567 13.6523 738 118.467 652.206 477.394
1048 0 56.0593 15.5014 869 114.077 652.67 477.992
1049 0 60.1429 12.6698 762 118.373 648.772 476.623
1050 0 57.1277 12.6909 725 120.312 649.057 473.662
1051 0 59.0781 12.6951 750 120.824 647.751 471.643
1052 0 62.1056 14.8779 924 116.052 647.65 468.292
1053 0 63.0789 14.1727 894 116.054 647.123 467.133
1054 0 65.0639 17.721 1153 109.693 648.203 466.32
1055 0 68.0387 17.3872 1183 109.397 649.004 466.589
1056 0 69.0816 14.0993 974 115.457 648.633 463.002
1057 0 73.1478 18.4831 1352 107.436 650.14 463.064
1058 0 72.0807 13.8872 1001 116.479 650.085 456.749
1059 0 73.2969 13.3021 975 117.228 649.643 455.094
1060 0 79.1422 15.1499 1199 114.089 650.734 457.59
1061 0 80.1911 13.2184 1060 119.573 651.736 451.432
1062 0 84.0904 14.746 1240 114.696 650.618 450.759
1063 1 43.0438 13.1029 564 117.941 651.933 466.784
1064 0 43.1034 11.6696 503 121.485 652.157 466.282
1065 0 43.1398 11.7525 507 116.28 656.708 464.811
1066 0 44.1123 10.6319 469 119.778 655.648 461.872
1067 0 47.0603 13.7908 649 114.388 658.153 461.75
1068 0 50.1151 15.4644 775 115.395 658.111 467.053
1069 0 51.0442 14.4581 738 120.812 658.337 465.073
1070 0 52.0465 14.2949 744 120.816 659.617 465.198
1071 0 55.1244 15.3471 846 117.818 660.092 466.678
1072 0 58.0832 13.3946 778 120.923 659.981 467.506
1073 0 58.1531 17.2648 1004 115.942 661.395 467.045
1074 0 59.0962 12.9958 768 123.871 661.428 466.638
1075 0 61.2153 17.806 1090 113.762 661.85 469.076
1076 0 63.166 14.3115 904 121.386 660.965 466.698
1077 0 65.2348 20.4952 1337 109.642 660.498 465.834
1078 0 67.3373 14.6576 987 120.037 661.229 466.041
1079 0 70.3785 15.2461 1073 119.875 660.439 465.093
1080 0 73.3319 14.9594 1097 117.963 661.174 467.857
1081 0 74.2215 15.1439 1124 120.462 659.147 465.208
1082 0 78.4074 14.8455 1164 120.323 659.616 465.747
1083 0 81.2924 14.6508 1191 121.211 657.987 464.049
1084 1 41.0398 11.5985 476 123.578 659.84 483.059
1085 0 41.0398 11.4523 470 144.962 660.86 483.004
1086 0 44.3397 11.5472 512 121.969 656.496 479.418
1087 0 45.2712 15.5286 703 115.101 654.686 477.331
1088 0 45.2122 13.2929 601 118.572 654.852 485.256
1089 0 47.1933 12.1204 572 118.885 652.83 483.441
1090 0 49.0962 15.0114 737 114.478 655.049 482.491
1091 0 48.187 14.423 695 116.506 653.197 481.132
1092 0 50.1249 12.4289 623 119.852 651.382 477.075
1093 0 53.0955 13.8806 737 118.141 651.309 474.67
1094 0 57.0477 14.0584 802 116.483 650.501 475.672
1095 0 56.0541 12.9696 727 118.706 650.557 477.502
1096 0 59.0872 20.7321 1225 106.904 650.262 473.972
1097 0 58.0535 16.0025 929 115.733 650.686 474.121
1098 0 61.055 13.7253 838 120.876 651.068 472.074
1099 0 64.0868 15.1357 970 118.21 650.385 470.66
1100 0 65.2659 13.1156 856 121.968 650.891 468.381
1101 0 66.1573 14.1935 939 120.84 650.808 466.197
1102 0 71.3832 17.371 1240 114.69 651.96 462.208
1103 0 70.2197 13.7853 968 121.302 652.24 463.815
1104 0 72.3403 13.5886 983 122.416 651.931 458.51
1105 0 76.2318 14.8626 1133 120.591 652.615 458.036
1106 0 78.3473 14.0783 1103 120.717 652.847 458.257
1107 0 79.1163 13.714 1085 123.975 654.106 454.245
1108 0 83.085 13.9014 1155 122.756 653.36 451.713
1109 0 84.2636 12.0218 1013 125.905 655.064 453.556
1110 0 91.1411 16.6006 1513 117.052 655.203 453.017
1111 1 49.0468 13.8235 678 123.448 654.944 469.853
1112 0 51.0154 13.7605 702 126.466 655.224 464.932
1113 0 52.1053 13.1657 686 127.526 656.431 466.025
1114 0 54.2272 13.8123 749 122.678 657.044 463.805
1115 0 57.3719 14.6762 842 120.407 658.527 462.371
1116 0 54.2305 13.7377 745 123.087 657.399 461.514
1117 0 58.1365 13.8811 807 122.088 658.482 461.488
1118 0 61.0838 18.1063 1106 113.201 657.27 465.668
1119 0 65.1732 17.139 1117 114.505 658.226 461.481
1120 0 68.1978 14.3846 981 119.271 657.944 464.945
1121 0 68.1666 14.978 1021 120.31 657.962 460.577
1122 0 70.1513 12.2022 856 125.019 658.259 462.565
1123 0 72.3602 17.7308 1283 115.461 657.79 464.751
1124 0 73.3513 13.8239 1014 127.137 658.083 463.904
1125 0 77.1438 13.7665 1062 126.772 658.408 464.911
1126 0 81.3465 14.1862 1154 125.653 657.861 465.146
1127 0 83.3837 16.2262 1353 120.956 656.717 463.758
1128 0 87.3684 15.2 1328 122.254 656.8 463.74
1129 0 91.2341 15.5972 1423 119.339 656.417 466.341
1130 0 90.3044 14.4511 1305 123.05 654.429 457.254
1131 1 48.1752 13.0773 630 118.419 653.683 476.316
1132 0 48.0981 13.1398 632 121.185 654.484 477.597
1133 0 53.2813 15.6152 832 119.41 653.084 479.177
1134 0 54.3192 14.6173 794 122.753 654.374 477.987
1135 0 55.2488 14.2989 790 123.13 651.692 477.628
1136 0 56.079 13.5166 758 124.769 652.367 475.45
1137 0 56.0713 14.8561 833 122.4 651.616 477.229
1138 0 59.1938 14.4948 858 123.495 651.001 471.977
1139 0 60.1892 14.6704 883 124.314 651.25 469.399
1140 0 63.0504 13.9571 880 124.085 650.201 468.925
1141 0 65.3266 13.5779 887 124.935 649.802 465.693
1142 0 67.4217 14.654 988 124.237 650.664 466.394
1143 0 72.097 14.8272 1069 124.94 649.995 463.053
1144 0 73.2073 14.739 1079 126.548 650.734 459.464
1145 0 76.1294 14.4359 1099 127.189 650.437 458.615
1146 0 76.3346 13.5718 1036 127.17 651.285 461.523
1147 0 81.2545 14.2884 1161 126.807 650.707 455.189
1148 0 85.369 16.1183 1376 123.273 651.61 453.872
1149 0 87.3615 15.8422 1384 124.382 651.035 450.848
1150 0 87.4043 14.5073 1268 129.39 652.252 442.147
1151 0 90.2981 16.368 1478 119.113 651.532 447.079
1152 0 93.1078 16.0137 1491 120.539 652.264 444.736
1153 0 93.1078 15.96 1486 139.153 654.258 444.608
1154 1 54.5809 11.9822 654 117.092 653.576 467.687
1155 0 52.3056 10.2666 537 124.858 654.875 461.322
1156 0 54.2203 13.3898 726 119.725 655.748 461.694
1157 0 56.0871 12.2131 685 123.257 655.688 462.399
1158 0 56.188 12.2624 689 123.865 656.644 462.792
1159 0 64.2219 14.372 923 116.099 657.47 463.595
1160 0 64.2432 14.6008 938 116.9 658.084 461.036
1161 0 65.3223 15.8598 1036 112.774 656.569 468.917
1162 0 67.0589 14.45 969 117.495 658.63 461.654
1163 0 69.2631 14.019 971 117.307 657.76 462.579
1164 0 71.2387 15.8622 1130 114.619 658.264 462.365
1165 0 74.1727 15.0729 1118 115.439 658.487 456.202
1166 0 79.1374 16.8441 1333 111.849 656.901 459.29
1167 0 81.0786 12.4694 1011 119.617 657.114 461.708
1168 0 82.1831 14.127 1161 116.625 657.336 461.025
1169 0 86.133 12.5852 1084 119.482 656.682 457.576
1170 0 89.1609 14.6252 1304 116.627 656.853 459.96
1171 1 50.0313 11.8126 591 118.658 654.464 478.384
1172 0 54.0675 13.1872 713 114.597 654.748 479.907
1173 0 52.2472 14.508 758 113.112 655.624 481.943
1174 0 52.4536 11.1336 584 120.033 655.216 476.736
1175 0 55.0397 14.5713 802 112.077 653.368 478.808
1176 0 56.2022 13.398 753 116.797 652.499 475.667
1177 0 59.0707 12.1888 720 118.59 650.608 473.608
1178 0 63.3987 15.8994 1008 110.326 650.441 469.659
1179 0 64.1946 13.3812 859 113.263 650.411 473.703
1180 0 63.1548 11.4956 726 118.997 649.656 469.844
1181 0 64.0788 10.8148 693 120.488 649.688 467.706
1182 0 66.138 13.0636 864 116.464 649.418 465.613
1183 0 69.1945 11.8362 819 116.724 649.59 465.162
1184 0 74.1002 12.7125 942 114.892 649.739 463.963
1185 0 75.1198 14.8696 1117 113.35 648.634 460.865
1186 0 79.0553 11.5742 915 117.907 648.678 459.521
1187 0 78.0838 12.0512 941 118.661 648.353 456.433
1188 0 80.2012 11.2966 906 121.671 649.28 454.268
1189 0 84.1506 12.8104 1078 118.698 648.955 451.594
1190 0 87.157 13.447 1172 117.768 649.523 448.922
1191 1 49.111 10.4865 515 118.915 649.336 470.443
1192 0 51.0877 12.4492 636 116.579 650.505 466.854
1193 0 52.1214 10.6098 553 121.222 650.796 465.899
1194 0 53.1523 11.0061 585 120.292 651.171 464.838
1195 0 55.1059 12.1766 671 118.654 652.121 461.633
1196 0 56.1683 12.9254 726 118.223 652.744 463.565
1197 0 57.2016 12.4472 712 119.778 653.354 462.423
1198 0 59.1431 11.6835 691 120.768 654.116 462.33
1199 0 63.1637 14.1854 896 117.006 653.254 461.527
1200 0 64.0712 9.84842 631 122.929 654.623 461.558
1201 0 63.073 9.92502 626 153.024 656.61 461.548
1202 0 66.1634 12.0611 798 120.536 656.459 458.633
1203 0 68.3275 12.3376 843 121.324 656.595 456.887
1204 0 72.196 15.0147 1084 115.426 656.735 459.223
1205 0 76.1293 12.9516 986 118.226 656.651 459.276
1206 0 78.1922 11.8426 926 120.582 656.442 460.252
1207 1 37.1811 9.60166 357 118.689 656.871 477.529
1208 0 39.2952 10.1285 398 118.394 657.397 477.327
1209 0 41.1897 15.2708 629 108.494 657.571 480.378
1210 0 41.4393 13.6827 567 112.041 657.222 481.919
1211 0 43.0402 10.7341 462 119.022 657.394 480.762
1212 0 41.0229 11.6277 477 113.748 658.138 481.65
1213 0 44.1361 10.8301 478 113.075 656.508 480.757
1214 0 43.0879 12.4861 538 112.95 655.091 478.253
1215 0 46.0422 9.77365 450 116.476 655.313 482.173
1216 0 48.0454 11.0937 533 115.079 654.542 480.379
1217 0 48.0513 13.1526 632 112.589 653.991 483.696
1218 0 53.1109 13.5189 718 115.798 651.912 477.253
1219 0 57.0519 13.6893 781 114.096 652.302 477.211
1220 0 57.1221 13.62 778 115.602 650.866 477.022
1221 0 58.0548 11.6442 676 120.107 651.63 472.467
1222 0 58.1004 12.8226 745 117.848 649.647 475.917
1223 0 60.0739 14.5654 875 115.382 649.531 469.031
1224 0 61.12 15.0196 918 115.367 648.832 470.766
1225 0 62.0555 12.1988 757 120.686 648.808 470.703
1226 0 66.1168 16.9548 1121 110.348 647.941 469.951
1227 0 68.0249 15.2297 1036 114.753 648.767 465.903
1228 0 68.052 12.7549 868 120.168 648.833 464.675
1229 0 72.0558 18.111 1305 111.067 648.729 459.832
1230 0 72.0658 11.323 816 122.925 649.178 457.822
1231 0 78.1001 16.991 1327 111.449 649.843 457.832
1232 0 81.1911 18.2902 1485 109.657 650.009 454.443
1233 0 81.1542 14.0597 1141 117.642 650.253 452.032
1234 1 42.0485 10.2976 433 120.09 650.829 470.829
1235 0 44.0546 11.1226 490 117.694 650.524 469.622
1236 0 46.0279 13.796 635 113.551 652.23 468.572
1237 0 46.155 12.5447 579 111.356 654.204 465.743
1238 0 47.2178 12.4953 590 111.49 654.429 466.993
1239 0 50.1254 13.3266 668 107.516 653.373 471.864
1240 0 50.1385 15.5569 780 106.105 655.197 466.132
1241 0 53.142 12.8335 682 109.584 655.71 468.504
1242 0 54.0558 14.263 771 107.748 656.232 467.283
1243 0 57.1543 15.1695 867 104.006 656.358 472.037
1244 0 56.1109 13.206 741 112.715 657.73 463.9
1245 0 59.1175 15.2747 903 108.069 657.276 467.05
1246 0 59.1175 15.2239 900 122.316 656.267 467.118
1247 0 63.259 22.6371 1432 98.1613 659.244 467.954
1248 0 64.1897 16.1241 1035 107.486 659.25 466.676
1249 0 64.2868 12.2576 788 115.478 659.777 465.75
1250 0 67.1605 13.3709 898 113.767 659.159 467.261
1251 0 69.2693 15.4325 1069 111.757 659.779 462.768
1252 0 71.26 12.0544 859 119.515 658.356 469.249
1253 0 74.3754 14.6419 1089 114.852 659.073 468.028
1254 0 73.1865 11.8055 864 121.045 657.94 465.694
1255 0 78.1759 12.9835 1015 118.679 658.122 468.432
1256 0 85.3404 16.6861 1424 111.499 658.714 467.206
1257 0 84.396 12.3347 1041 120.627 658.749 459.815
1258 0 88.3752 13.8387 1223 116.463 657.321 457.42
1259 0 91.2012 15.0875 1376 113.588 656.698 457.587
1260 0 94.3517 12.8456 1212 117.205 655.882 459.342
1261 0 99.4223 14.3328 1425 115.729 654.681 459.477
1262 1 51.0516 15.2983 781 110.525 653.635 481.601
1263 0 50.0817 11.7608 589 118.031 653.255 478.503
1264 0 56.1508 13.5706 762 113.982 651.879 477.699
1265 0 54.1545 15.8251 857 112.208 652.385 474.769
1266 0 56.0323 16.0443 899 109.301 651.344 480.962
1267 0 58.0724 15.2224 884 113.588 650.353 472.664
1268 0 57.0947 12.8208 732 118.923 650.342 471.09
1269 0 60.1914 12.9753 781 117.981 650.136 470.483
1270 0 62.1499 12.3411 767 120.087 650.07 473.386
1271 0 65.2165 13.9995 913 117.506 649.834 470.331
1272 0 68.1929 15.4708 1055 114.99 650.982 466.773
1273 0 70.2282 16.8736 1185 113.123 651.125 463.243
1274 0 71.2511 13.7261 978 119.528 651.331 462.461
1275 0 73.495 13.4567 989 120.029 650.9 457.19
1276 0 76.2045 13.057 995 120.031 651.948 455.148
1277 0 80.1557 14.1599 1135 118.887 651.586 456.603
1278 1 43.0202 10.1115 435 121.359 651.016 473.103
1279 0 41.2991 12.4216 513 121.626 652.542 470.565
1280 0 41.2991 12.3489 510 147.829 653.539 470.484
1281 0 47.1524 12.7035 599 123.472 654.047 467.139
1282 0 48.2084 13.2135 637 115.725 654.832 463.248
1283 0 51.2447 12.7037 651 113.433 654.909 467.296
1284 0 52.092 15.5302 809 109.635 655.963 464.328
1285 0 56.0795 15.9595 895 108.932 657.206 465.255
1286 0 55.1171 14.2605 786 112.149 657.788 467.378
1287 0 55.0473 13.0252 717 115.573 657.688 464.234
1288 0 59.1281 13.2932 786 114.316 658 467.757
1289 0 61.0539 16.2479 992 110.509 658.823 463.971
1290 0 63.208 13.4951 853 114.245 658.921 464.107
1291 0 64.2399 13.7298 882 114.731 659.071 464.975
1292 0 64.214 11.633 747 117.843 659.514 464.301
1293 0 70.3324 20.6164 1450 102.684 659.203 465.812
1294 0 71.2868 13.8174 985 113.662 658.475 459.504
1295 0 73.2678 12.5021 916 115.738 657.403 456.108
1296 0 76.2044 12.5058 953 114.699 657.741 460.447
1297 0 81.1979 14.1629 1150 111.29 657.476 463.341
1298 0 82.1636 13.3149 1094 114.771 657.726 454.296
1299 0 85.1403 13.096 1115 115.898 657.874 455.49
1300 1 44.1596 10.5073 464 117.653 655.823 481.05
1301 0 46.1651 12.8452 593 113.663 658.17 483.135
1302 0 45.0986 10.3994 469 117.787 657.727 483.211
1303 0 51.2533 15.0039 769 109.813 657.023 479.254
1304 0 51.0917 14.6208 747 112.082 656.444 478.672
1305 0 52.1954 14.0242 732 113.216 654.93 478.511
1306 0 54.19 14.7998 802 113.186 654.899 475.641
1307 0 56.1466 14.3375 805 113.171 654.516 476.66
1308 0 61.2317 12.7875 783 120.027 651.659 468.373
1309 0 64.2603 16.7755 1078 112.678 652.571 467.082
1310 0 65.2407 14.1936 926 117.744 652.458 463.958
1311 0 68.2294 16.4005 1119 113.589 651.752 461.611
1312 0 69.2076 12.4986 865 121.016 652.18 464.326
1313 0 72.1894 13.3122 961 120.272 651.493 459.689
1314 0 75.3001 14.9137 1123 115.118 651.881 460.215
1315 0 79.2923 13.2295 1049 121.856 651.355 455.474
1316 0 81.2394 12.9124 1049 123.518 652.268 453.561
1317 0 85.3501 13.7434 1173 122.619 651.832 450.15
1318 0 85.2993 17.1865 1466 117.626 653.264 451.529
1319 0 89.3037 14.3443 1281 123.447 653.617 446.722
1320 1 49.0466 12.3148 604 123.995 654.364 465.639
1321 0 47.0477 11.3077 532 125.594 654.342 466.038
1322 0 51.051 13.6922 699 120.375 654.928 465.02
1323 0 52.0896 13.2656 691 120.226 654.297 463.789
1324 0 52.0888 12.9203 673 121.517 655.829 463.565
1325 0 55.1128 14.8967 821 122.688 657 463.397
1326 0 55.3004 13.2549 733 126.201 656.48 463.765
1327 0 59.4233 13.9507 829 123.449 658.147 461.45
1328 0 60.4684 14.7019 889 122.81 658.01 460.474
1329 0 62.2453 15.1819 945 122.002 658.723 462.092
1330 0 63.327 14.9699 948 122.776 659.017 462.038
1331 0 66.3787 14.0557 933 124.523 659.121 461.723
1332 0 66.2667 12.7968 848 127.427 659.346 461.436
1333 1 135.561 16.1699 2192 122.001 658.453 431.118
1334 0 141.449 14.8322 2098 125.528 659.787 425.388
1335 0 147.891 12.2928 1818 130.249 659.246 428.849
1336 1 79.2356 15.2457 1208 118.557 657.53 461.343
1337 0 80.2368 14.5569 1168 121.137 658.413 463.64
1338 1 45.0511 10.5658 476 121.586 657.777 482.511
1339 0 45.1309 10.7022 483 120.878 657.41 483.331
1340 0 50.2085 9.79913 492 122.707 656.522 481.884
1341 0 50.2048 10.258 515 123.417 656.254 478.864
1342 0 51.1182 10.7985 552 123.618 657.085 479.603
1343 0 52.0598 11.7941 614 122.933 656.423 479.959
1344 0 54.1008 14.4175 780 119.232 654.847 477.705
1345 0 55.1434 11.9869 661 126.269 652.038 478.516
1346 0 58.1398 13.8459 805 123.124 652.72 473.991
1347 0 59.2605 14.4278 855 122.496 651.204 472.306
1348 0 65.1643 15.8522 1033 116.971 651.233 475.002
1349 0 64.2353 12.968 833 125.173 651.036 469.732
1350 0 65.2648 13.5295 883 124.443 650.319 467.181
1351 0 69.0783 13.1156 906 130.628 650.071 466.284
1352 0 71.1288 13.6091 968 130.857 649.081 463.527
1353 0 74.0717 13.5814 1006 130.944 650.262 462.485
1354 0 73.21 13.2632 971 131.764 650.03 459.759
1355 0 77.1464 13.7142 1058 130.728 649.704 458.479
1356 0 80.042 14.0676 1126 128.782 649.152 454.298
1357 0 85.1605 14.7016 1252 125.067 649.339 458.01
1358 0 85.1251 13.3686 1138 130.833 648.407 447.792
1359 0 89.1301 14.1815 1264 126.434 648.655 453.724
1360 0 92.1139 13.0165 1199 130.551 649.905 450.988
1361 0 92.3259 12.2284 1129 133.644 650.665 447.785
1362 1 49.3962 11.3774 562 128.429 652.306 470.16
1363 0 51.517 10.812 557 133.553 653.25 467.18
1364 0 51.517 10.8314 558 151.056 655.238 467.143
1365 0 54.4628 13.0548 711 132.041 654.117 461.731
1366 0 58.033 13.8197 802 131.036 657.011 461.398
1367 0 57.2266 11.7952 675 136.843 657.316 461.815
1368 0 60.1321 13.2708 798 132.416 657.878 460.791
1369 0 61.1057 14.1394 864 130.902 658.235 457.883
1370 0 65.1569 13.69 892 131.341 659.027 460.509
1371 0 65.1343 13.3263 868 132.919 658.984 457.078
1372 0 71.1339 14.0158 997 130.017 659.792 460.104
1373 0 70.1646 12.7272 893 134.582 659.09 456.925
1374 0 71.2066 12.2741 874 135.785 659.638 457.222
1375 0 77.3402 13.654 1056 131.384 659.413 457.526
1376 0 78.4323 12.7626 1001 133.454 660.204 460.359
1377 0 81.3735 14.9311 1215 129.5 660.273 458.347
1378 0 83.2784 13.677 1139 131.662 659.564 458.782
1379 0 85.4055 13.231 1130 133.504 658.338 454.664
1380 0 87.4648 12.6908 1110 134.354 659.408 458.093
1381 0 91.6099 13.2409 1213 133.946 659.002 456.963
1382 0 92.3746 11.8647 1096 135.361 658.992 457.479
1383 1 51.071 11.3372 579 131.354 658.214 479.96
1384 0 52.3086 13.8027 722 124.828 658.288 481.066
1385 0 53.286 12.5549 669 128.477 655.547 478.223
1386 0 54.2232 16.5981 900 121.926 654.847 476.73
1387 0 55.3314 12.9041 714 128.345 653.283 478.336
1388 0 55.3864 12.0246 666 132.665 654.233 474.653
1389 0 55.4489 12.6603 702 132.35 653.365 472.944
1390 0 55.5482 12.6737 704 147.224 652.384 472.726
1391 0 62.2279 11.8596 738 130.276 652.447 472.682
1392 0 65.327 13.7156 896 125.896 652.597 468.89
1393 0 68.2334 13.9668 953 123.651 652.549 466.988
1394 0 69.3696 13.8966 964 123.904 652.698 464.652
1395 0 71.3553 13.0894 934 124.615 651.8 461.937
1396 0 74.3064 14.7901 1099 120.965 650.47 460.749
1397 0 77.5612 15.8198 1227 118.176 649.336 458.658
1398 0 79.4869 14.6942 1168 119.384 650.548 458.561
1399 0 81.3991 15.1599 1234 120.613 649.66 447.741
1400 0 82.4865 16.2815 1343 120.176 650.622 443.781
1401 0 86.5529 15.3548 1329 119.995 650.518 445.42
1402 0 87.7002 15.3477 1346 120.111 650.366 447.263
1403 0 91.8711 16.5123 1517 117.895 650.349 442.176
1404 0 92.7164 11.7779 1092 122.232 651.11 442.042
1405 0 96.6192 16.9221 1635 114.598 652.125 434.27
1406 0 97.8762 18.3804 1799 113.071 652.904 441.065
1407 0 102.242 17.5662 1796 115.89 654.563 433.829
1408 0 104.557 13.8777 1451 120.691 655.097 435.382
1409 0 107.489 11.7408 1262 121.479 655.351 433.468
1410 0 112.702 14.1523 1595 118.463 655.355 425.429
1411 0 118.975 15.0031 1785 115.707 656.866 431.597
1412 1 59.6857 15.5314 927 124.532 657.944 458.88
1413 0 61.6793 11.9165 735 117.961 657.196 457.341
1414 0 63.4472 12.9084 819 115.668 658.029 456.691
1415 0 65.2679 13.1918 861 119.885 658.44 458.778
1416 0 68.1979 14.9271 1018 116.456 659.251 458.464
1417 0 73.5137 11.9842 881 119.152 658.784 460.963
1418 0 74.5556 14.3919 1073 117.381 659.192 455.752
1419 0 76.7885 17.8412 1370 111.836 658.746 449.846
1420 0 74.6167 13.04 973 120.248 660.479 452.832
1421 0 74.6723 8.35651 624 123.707 660.827 460.99
1422 0 77.6761 11.6767 907 118.115 660.312 460.822
1423 1 91.4444 18.2187 1666 109.312 660.032 455.893
1424 0 92.8174 12.1529 1128 120.625 659.784 453.379
1425 0 96.6786 12.102 1170 120.821 659.248 451.456
1426 0 95.6033 10.4808 1002 125.038 658.889 447.732
1427 1 48.2141 10.9926 530 118.234 656.834 474.013
1428 0 51.6079 10.1147 522 118.684 657.625 475.885
1429 0 54.3845 14.0297 763 114.29 655.662 472.106
1430 0 57.2499 13.0655 748 114.118 655.584 474.826
1431 0 57.142 11.7602 672 116.653 653.838 473.463
1432 0 59.1555 10.4977 621 122.451 652.457 476.003
1433 0 58.5441 13.05 764 121.661 650.775 465.903
1434 0 63.3661 12.5777 797 119.553 651.957 470.471
1435 0 62.2732 11.9955 747 122.229 649.645 468.054
1436 0 69.2536 14.0498 973 117.857 651.165 463.205
1437 0 70.3127 16.2702 1144 110.951 649.721 463.378
1438 0 74.2431 11.7991 876 118.402 649.838 461.324
1439 0 76.2892 14.1304 1078 115.521 649.314 460.9
1440 0 80.3974 12.0402 968 118.816 648.582 456.639
1441 0 83.4243 16.3262 1362 112.147 649.326 453.72
1442 0 82.4069 12.6203 1040 119.606 650.12 451.442
1443 0 87.7568 15.9304 1398 114.292 649.438 446.517
1444 0 88.3637 14.3385 1267 115.389 650.192 450.786
1445 0 92.4759 13.0304 1205 118.692 650.626 444.892
1446 0 95.4462 12.8449 1226 120.318 652.19 440.117
1447 0 99.4703 13.9841 1391 117.945 652.304 441.479
1448 0 103.535 14.1401 1464 117.142 654.706 442.836
1449 0 104.398 15.5367 1622 117.141 653.446 437.553
1450 0 106.36 11.7525 1250 125.278 653.487 432.187
1451 1 55.0739 10.4405 575 121.979 653.557 460.944
1452 0 55.0739 10.386 572 148.066 654.538 460.963
1453 0 55.0739 10.4768 577 147.248 655.53 461.009
1454 0 60.2089 13.9514 840 119.143 656.535 461.188
1455 0 62.1747 13.639 848 121.066 656.966 455.156
1456 0 65.6257 14.2932 938 119.559 657.572 455.566
1457 0 66.4856 11.8071 785 122.959 657.143 459.185
1458 0 70.4379 15.8153 1114 116.351 657.579 457.849
1459 0 72.2301 13.9277 1006 119.523 658.522 452.783
1460 0 75.5235 16.379 1237 115.791 658.546 453.756
1461 0 75.499 13.2982 1004 121.932 658.427 458.448
1462 0 77.5675 16.2826 1263 116.895 658.756 456.181
1463 0 86.1542 13.708 1181 118.323 658.399 462.459
1464 0 81.2864 12.1669 989 124.919 658.629 455.783
1465 0 86.3165 14.6901 1268 119.731 658.548 455.386
1466 0 88.4635 12.8754 1139 122.025 657.775 458.041
1467 0 92.2625 13.9927 1291 119.874 658.471 455.202
1468 0 95.5067 14.2084 1357 120.377 657.753 454.536
1469 1 53.4555 13.3195 712 115.476 657.301 476.664
1470 0 53.2031 10.7137 570 118.005 655.689 478.277
1471 0 51.2102 11.1111 569 121.237 655.703 476.494
1472 0 56.1627 10.2559 576 114.359 654.634 478.922
1473 0 58.218 16.0775 936 107.515 654.791 477.55
1474 0 60.2753 13.7701 830 110.555 652.501 472.002
1475 0 60.2833 8.99089 542 118.732 652.768 470.413
1476 0 64.3052 12.6739 815 112.944 652.805 470.109
1477 0 63.2561 9.48525 600 119.12 652.372 466.647
1478 0 64.2626 11.9198 766 117.142 651.12 467.392
1479 0 68.2931 12.1681 831 116.338 650.657 468.951
1480 0 74.1882 15.5416 1153 109.216 650.127 463.598
1481 0 73.2684 11.8742 870 115.999 650.115 458.514
1482 0 76.3269 14.2152 1085 112.908 649.881 454.134
1483 0 77.2931 13.3 1028 112.582 649.28 451.944
1484 0 84.1902 12.7212 1071 112.562 649.682 453.079
1485 1 45.2495 10.3206 467 111.55 652.184 473.525
1486 0 48.1141 11.0986 534 112.009 649.199 471.283
1487 0 48.0687 12.3157 592 112.015 649.024 468.838
1488 0 48.1345 10.3668 499 115.822 649.096 465.705
1489 0 49.0292 11.1362 546 114.132 649.705 465.7
1490 0 49.1025 8.39062 412 114.451 651.289 470.396
1491 0 53.1958 12.3318 656 111.389 651.375 463.538
1492 0 57.1806 13.4486 769 107.243 651.376 464.33
1493 0 56.2045 11.9741 673 112.572 652.368 459.211
1494 0 59.2549 10.1932 604 114.043 651.579 463.25
1495 0 57.1243 11.3262 647 118.252 653.113 460.391
1496 0 60.243 11.354 684 115.193 655.02 463.561
1497 0 65.1744 13.2874 866 113.449 654.085 458.318
1498 0 61.2123 12.6118 772 116.347 655.355 455.295
1499 0 63.1293 9.40927 594 122.111 655.407 455.461
1500 0 68.4392 13.1942 903 114.957 657.137 452.955
1501 0 70.3182 13.3394 938 114.083 656.217 458.046
1502 0 72.3443 11.3762 823 119.621 657.522 456.888
1503 0 73.4218 11.7812 865 119.72 656.812 449.784
1504 0 78.1851 13.9029 1087 115.594 657.27 454.709
1505 0 79.136 12.0299 952 118.533 658.245 458.134
1506 0 84.2494 10.6707 899 121.165 657.636 454.376
1507 0 84.3895 10.1197 854 118.694 659.329 454.944
1508 1 48.039 9.1384 439 117.563 657.661 474.494
1509 0 47.1919 10.8705 513 115.244 656.491 471.799
1510 0 51.1448 12.3375 631 111.292 654.962 474.162
1511 0 52.1811 12.2267 638 112.116 655.555 475.685
1512 0 53.1818 12.3915 659 113.657 655.866 473.59
1513 0 54.1031 11.8108 639 115.814 654.247 474.243
1514 0 57.1512 10.9359 625 115.837 653.81 475.136
1515 0 58.121 13.1794 766 119.628 654.497 472.426
1516 0 56.0918 9.98364 560 126.345 651.671 471.754
1517 0 61.0806 14.3744 878 116.588 651.957 474.949
1518 0 60.1618 12.483 751 123.399 651.154 468.441
1519 0 64.1168 13.9589 895 120.345 651.322 466.336
1520 0 66.1327 14.0021 926 119.185 650.585 465.915
1521 0 65.1051 12.0574 785 123.187 649.907 465.092
1522 0 68.2576 13.6835 934 119.436 650.279 459.747
1523 0 71.1132 14.2308 1012 119.004 649.453 459.387
1524 0 73.1287 14.3582 1050 118.484 650.522 462.119
1525 0 76.3029 13.1057 1000 121.225 649.621 457.038
1526 0 80.1215 13.8664 1111 118.601 648.347 454.604
1527 0 83.1837 14.1254 1175 118.483 648.802 452.729
1528 1 44.0473 9.67142 426 123.077 649.115 470.789
1529 0 46.0504 11.2485 518 121.058 649.398 467.838
1530 0 48.0665 14.7712 710 113.289 649.049 468.001
1531 0 50.5526 12.2842 621 117.34 651.649 463.589
1532 0 49.0606 12.4336 610 119.487 650.039 465.531
1533 0 50.0668 13.462 674 118.123 651.231 462.366
1534 0 52.1819 14.4111 752 115.27 651.848 465.707
1535 0 53.2089 11.6146 618 120.73 652.867 463.152
1536 0 56.1686 11.7859 662 119.556 652.681 462.485
1537 0 57.3169 14.2366 816 112.643 655.352 459.858
1538 0 59.3228 13.8395 821 112.987 655.956 459.883
1539 0 59.2269 12.3592 732 116.331 656.649 458.182
1540 0 61.359 12.9565 795 116.828 657.133 456.413
1541 0 62.2073 10.8347 674 118.706 657.911 460.138
1542 0 67.2732 13.9283 937 112.005 658.316 463.14
1543 0 64.1782 10.3462 664 120.014 659.053 458.506
1544 0 70.2314 12.53 880 116.042 658.782 458.23
1545 0 72.2252 14.5517 1051 113.069 659.037 455.386
1546 0 76.2769 14.0409 1071 112.885 659.542 458.682
1547 0 75.1065 9.66628 726 121.745 659.842 460.781
1548 0 80.2392 13.6093 1092 115.543 659.144 458.201
1549 0 83.2492 13.0812 1089 115.994 659.396 458.088
1550 0 87.1738 13.192 1150 115.265 659.279 458.11
1551 0 90.457 12.4921 1130 116.296 659.103 458.636
1552 1 48.0408 11.1364 535 119.228 658.993 475.856
1553 0 48.0778 11.6062 558 119.636 659.246 474.799
1554 0 49.215 11.8663 584 114.589 658.084 473.178
1555 0 50.1546 16.7681 841 106.73 657.864 473.396
1556 0 54.2333 13.6447 740 109.265 655.843 468.139
1557 0 56.2104 13.4317 755 108.499 655.265 471.163
1558 0 55.1079 12.0491 664 111.081 654.625 470.91
1559 0 59.3169 13.0654 775 107.279 653.876 472.337
1560 0 60.4351 11.9963 725 110.57 653.301 465.303
1561 0 63.2195 13.4452 850 107.402 652.622 466.418
1562 0 64.1972 13.6766 878 107.827 652.502 465.141
1563 0 64.3553 12.3222 793 110.869 650.387 463.467
1564 0 69.1945 13.0068 900 109.227 650.511 460.574
1565 0 72.3258 17.8913 1294 102.745 650.708 461.57
1566 0 73.3108 10.8033 792 115.418 649.681 457.088
1567 0 75.292 12.3121 927 113.324 648.499 455.871
1568 0 79.0721 13.494 1067 112.123 649.985 452.398
1569 0 81.3138 12.421 1010 113.59 649.573 452.72
1570 0 80.191 12.3705 992 115.045 649.906 453.921
1571 1 46.0843 11.1535 514 109.232 649.446 467.208
1572 0 51.4383 10.8674 559 109.592 649.25 466.762
1573 0 51.1005 12.7005 649 108.464 648.974 465.68
1574 0 48.0701 9.71498 467 114.7 650.619 461.957
1575 0 53.2383 11.5894 617 115.734 650.081 458.515
1576 0 55.2499 13.5023 746 113.469 650.461 457.842
1577 0 56.3213 13.9201 784 113.781 651.876 458.004
1578 0 58.1613 12.7576 742 116.051 652.472 458.042
1579 0 61.185 12.2252 748 116.584 652.846 459.654
1580 0 62.2369 12.9666 807 117.029 653.053 456.546
1581 0 64.1885 11.3416 728 118.317 653.688 456.504
1582 0 66.2047 12.9598 858 115.772 655.129 456.915
1583 0 65.1935 9.63287 628 122.68 655.887 458.462
1584 0 69.2438 12.752 883 117.707 656.477 456.358
1585 0 73.1922 15.5071 1135 112.947 656.339 457.03
1586 0 78.1087 14.4926 1132 113.212 656.689 458.142
1587 0 76.3005 9.37084 715 119.736 658.249 453.726
1588 0 79.1965 10.5055 832 119.504 657.163 455.559
1589 0 84.377 12.9301 1091 116.166 657.489 450.321
1590 0 95.4288 10.1751 971 116.485 656.918 458.075
1591 1 49.2357 11.5973 571 112.398 656.681 472.152
1592 0 47.3045 9.70309 459 117.015 656.715 473.004
1593 0 49.2002 14.1666 697 110.191 656.572 474.033
1594 0 52.1652 13.6873 714 109.797 655.814 474.958
1595 0 49.1517 10.3557 509 118.352 655.049 476.646
1596 0 53.1117 14.1588 752 113.751 656.475 474.318
1597 0 54.0473 12.119 655 116.557 655.954 477.989
1598 0 59.115 13.6175 805 114.475 655.378 477.529
1599 0 59.1546 15.8398 937 111.309 654.633 474.928
1600 0 62.3167 13.7202 855 114.471 653.413 474.255
1601 0 63.1102 16.178 1021 111.685 653.265 475.418
1602 0 66.1145 16.6076 1098 112.228 652.036 472.27
1603 0 64.0598 11.7078 750 124.469 651.652 471.34
1604 0 67.1893 13.3355 896 120.427 651.855 473.787
1605 0 71.2174 16.569 1180 114.563 651.87 468.232
1606 0 70.291 12.4483 875 128.151 651.193 469.207
1607 0 74.283 17.8372 1325 117.666 650.549 465.595
1608 0 77.155 17.8861 1380 116.941 650.591 463.817
1609 0 80.0755 15.5478 1245 121.529 650.818 462.264
1610 0 82.3323 16.2634 1339 121.214 650.368 457.865
1611 0 84.2569 14.7288 1241 124.246 650.942 457.342
1612 0 84.2538 13.9934 1179 126.943 650.719 451.855
1613 0 86.3397 12.4161 1072 130.371 650.542 453.745
1614 1 46.1683 12.0212 555 122.059 649.301 475.04
1615 0 49.1798 11.8951 585 123.595 650.369 471.373
1616 0 52.2739 14.711 769 116.739 649.507 470.804
1617 0 50.4016 14.8805 750 118.093 650.612 465.979
1618 0 53.3717 14.6332 781 114.036 652.549 465.425
1619 0 57.517 14.1871 816 120.009 652.804 459.619
1620 0 57.3802 13.9421 800 120.25 653.311 460.269
1621 0 58.6435 12.6527 742 123.427 653.298 459.038
1622 0 57.5028 11.8777 683 127.139 653.982 455.669
1623 0 60.2798 13.1553 793 125.503 655.968 456.743
1624 0 62.2002 12.0096 747 125.811 656.019 457.578
1625 0 65.2418 14.6685 957 118.901 656.274 461.025
1626 0 69.4638 15.3605 1067 118.194 656.909 457.007
1627 0 70.0931 13.5819 952 122.71 655.114 456.818
1628 0 72.1284 12.658 913 123.986 655.541 458.979
1629 0 75.1042 14.8061 1112 119.721 656.194 458.517
1630 0 75.1331 13.0701 982 124.71 656.644 456.362
1631 0 77.1217 11.5272 889 127.828 656.782 452.965
1632 0 84.137 13.3235 1121 122.882 656.53 454.665
1633 0 84.2232 15.3639 1294 120.379 657.85 453.107
1634 0 88.2569 14.4125 1272 122.645 657.576 452.369
1635 0 88.226 14.3268 1264 123.066 658.796 453.679
1636 0 92.3008 17.1938 1587 116.868 656.803 456.978
1637 0 92.4532 12.0602 1115 127.481 657.301 453.784
1638 0 98.4524 13.9661 1375 121.673 657.71 457.115
1639 0 102.255 15.2169 1556 120.627 656.821 452.176
1640 1 54.1895 9.74359 528 123.977 655.447 478.246
1641 0 54.1895 9.74359 528 150.761 654.426 478.35
1642 0 55.2531 13.5196 747 115.357 654.561 467.837
1643 0 60.214 15.694 945 111.634 653.644 468.168
1644 0 60.0949 14.4605 869 116.55 653.012 471.394
1645 0 63.2628 15.8229 1001 110.899 652.103 474.44
1646 0 63.2275 16.0057 1012 112.675 650.721 468.57
1647 0 66.1889 15.1687 1004 114.346 650.684 468.833
1648 0 69.2006 15.3756 1064 113.076 651.201 468.82
1649 0 70.2306 14.8368 1042 115.008 650.056 466.764
1650 0 71.1269 15.9293 1133 113.53 650.455 461.207
1651 0 73.1358 14.8217 1084 115.739 649.342 463.601
1652 0 77.2228 15.902 1228 113.848 649.259 460.031
1653 0 78.2955 13.002 1018 119.465 648.669 458.05
1654 0 78.1449 12.7072 993 122.149 648.992 453.605
1655 0 86.1759 14.9694 1290 115.783 648.905 450.473
1656 0 84.2572 13.4113 1130 119.431 648.554 450.515
1657 0 88.3822 14.5731 1288 114.368 648.399 453.332
1658 0 90.3353 11.3134 1022 122.294 649.523 446.299
1659 0 90.1955 13.4042 1209 119.973 649.701 439.441
1660 1 50.305 11.6887 588 116.124 650.061 462.488
1661 0 52.1075 11.1308 580 116.864 650.484 460.845
1662 0 56.0416 11.6342 652 121.04 648.899 457.883
1663 0 57.2113 15.7486 901 114.921 650.117 458.216
1664 0 60.1746 13.3445 803 118.002 652.091 458.584
1665 0 60.0993 12.08 726 120.32 651.433 458.499
1666 0 67.1859 16.9083 1136 111.221 652.673 450.695
1667 0 64.1286 12.9739 832 121.608 652.518 453.758
1668 0 69.1677 13.1131 907 119.674 653.105 452.268
1669 0 69.1677 12.9974 899 150.433 654.101 452.18
1670 0 69.093 10.6668 737 124.725 653.992 458.319
1671 0 70.3539 12.7783 899 121.522 654.404 455.011
1672 0 74.093 12.5383 929 120.924 654.406 453.681
1673 0 77.3242 14.2776 1104 119.455 654.745 449.764
1674 0 77.262 14.5997 1128 119.859 655.754 449.438
1675 0 82.1253 16.5235 1357 114.273 656.543 453.78
1676 0 85.2119 13.9886 1192 119.262 654.295 451.132
1677 0 85.1599 14.2086 1210 120.359 655.545 448.473
1678 0 88.1415 12.2644 1081 123.684 656.366 453.193
1679 0 94.226 13.7542 1296 119.914 655.548 456.769
1680 1 56.606 15.0691 853 110.68 653.281 474.788
1681 0 52.0461 10.4715 545 122.721 656.743 476.345
1682 0 53.0761 11.4176 606 122.964 656.15 477.031
1683 0 59.1038 12.9433 765 119.974 656.404 473.834
1684 0 59.3278 13.4675 799 119.877 653.9 476.024
1685 0 61.2802 16.4327 1007 114.818 652.652 468.903
1686 0 63.0913 14.2175 897 119.994 651.399 470.548
1687 0 66.1265 15.0772 997 117.031 650.351 471.062
1688 0 66.1975 12.6893 840 122.138 649.52 468.015
1689 0 67.1974 11.3546 763 125.674 650.303 470.173
1690 0 70.1409 14.4994 1017 119.513 649.449 464.193
1691 0 73.0587 13.7698 1006 119.767 648.905 467.1
1692 0 74.056 12.9767 961 121.656 648.986 464.472
1693 0 77.0931 13.9961 1079 120.125 648.327 460.019
1694 0 80.2518 12.8969 1035 121.437 648.395 458.667
1695 0 82.1134 16.5259 1357 115.383 647.515 456.144
1696 0 85.1133 14.0636 1197 119.144 647.287 456.588
1697 0 88.1338 13.4455 1185 121.295 647.756 451.068
1698 0 91.1922 18.8613 1720 111.393 647.477 450.498
1699 0 94.1407 15.5299 1462 116.403 647.212 447.837
1700 1 50.0458 8.83191 442 122.407 647.054 467.697
1701 0 51.2097 13.2006 676 113.882 647.629 463.627
1702 0 53.073 11.927 633 111.539 650.834 464.414
1703 0 56.1065 12.2624 688 110.587 649.307 464.859
1704 0 57.1615 14.5727 833 107.317 650.812 461.806
1705 0 56.1408 12.3083 691 112.884 650.983 460.713
1706 0 60.1148 13.5907 817 117.018 651.934 459.311
1707 0 62.1329 14.3724 893 115.054 652.205 459.471
1708 0 62.1329 14.3241 890 138.52 652.192 459.464
1709 0 66.1931 14.9865 992 116.753 653.28 454.68
1710 0 70.1662 15.6058 1095 114.156 653.942 456.358
1711 0 71.1243 12.5414 892 121.859 654.622 453.48
1712 0 71.3852 13.0139 929 120.864 655.064 452.425
1713 0 77.2958 13.7136 1060 117.821 657.102 455.392
1714 0 81.2226 18.5539 1507 110.069 656.901 454.684
1715 0 87.1777 19.3513 1687 107.818 658.218 456.493
1716 0 84.2154 16.8853 1422 115.044 659.349 452.306
1717 0 87.2129 15.6743 1367 117.125 659.061 453.644
1718 0 89.5356 14.095 1262 121.12 659.318 453.751
1719 0 92.2302 16.0143 1477 118.59 659.411 450.762
1720 0 89.2745 11.7615 1050 129.405 659.539 449.058
1721 0 97.3512 15.593 1518 120.897 658.842 451.226
1722 0 99.2796 13.1447 1305 125.993 658.869 454.303
1723 0 106.314 16.7335 1779 118.66 658.211 450.222
1724 0 108.383 14.1812 1537 122.159 658.28 455.295
1725 1 63.0963 12.6473 798 123.041 658.732 471.308
1726 0 65.3851 13.0458 853 122.116 655.654 463.97
1727 0 65.2278 11.9428 779 125.438 655.081 468.761
1728 0 68.3346 13.99 956 121.77 654.97 469.563
1729 0 68.1918 14.6792 1001 115.97 653.663 471.033
1730 0 70.1385 12.3755 868 120.013 653.447 468.569
1731 0 76.4145 15.1018 1154 112.864 651.486 470.332
1732 0 76.1878 13.3223 1015 116.091 652.059 468.824
1733 0 80.1272 13.3413 1069 118.834 650.733 463.24
1734 0 80.1586 10.9408 877 123.64 650.227 466.168
1735 0 85.1366 12.9674 1104 121.466 648.838 458.293
1736 0 87.1707 13.6399 1189 120.209 650.053 457.51
1737 0 91.1287 12.3671 1127 120.576 649.424 459.848
1738 0 94.2104 14.4782 1364 117.906 649.445 455.461
1739 0 95.1768 12.6922 1208 120.403 648.723 456.731
1740 0 99.253 13.1583 1306 120.224 648.461 452.962
1741 1 56.3268 15.7296 886 113.55 652.283 469.015
1742 0 53.3913 12.4178 663 119.443 651 464.561
1743 0 57.1334 13.6173 778 119.416 651.136 465.398
1744 0 59.1275 13.9022 822 118.335 648.645 465.912
1745 0 58.1051 14.3361 833 119.276 648.905 460.84
1746 0 61.1758 12.5376 767 123.405 650.233 461.606
1747 0 60.1068 12.8937 775 124.209 650.888 458.902
1748 0 61.0649 14.5583 889 114.785 651.276 460.391
1749 0 64.1952 13.864 890 114.037 651.758 458.813
1750 0 65.0655 14.0628 915 116.023 652.579 455.526
1751 0 68.154 11.7234 799 119.61 653.97 455.481
1752 0 72.1131 14.3663 1036 114.994 653.081 453.805
1753 0 72.1308 13.9191 1004 121.069 653.205 452.911
1754 0 75.1226 15.4547 1161 117.885 653.507 452.166
1755 0 79.104 12.8944 1020 122.869 654.279 446.293
1756 0 80.068 13.4636 1078 121.581 654.538 445.023
1757 0 82.2016 14.8416 1220 118.266 654.769 450.249
1758 0 85.2323 14.7714 1259 119.513 656.264 447.487
1759 0 85.2314 13.3402 1137 146.489 658.111 449.106
1760 0 90.2065 15.1209 1364 119.06 656.17 448.93
1761 0 91.1628 14.2712 1301 119.613 655.714 449.705
1762 0 96.271 16.09 1549 117.495 656.669 446.023
1763 1 54.174 11.4261 619 120.901 656.422 469.939
1764 0 54.1369 12.6901 687 117.763 656.064 470.934
1765 0 57.2162 13.4927 772 115.823 657.978 470.376
1766 0 58.4631 14.0259 820 114.479 657.562 472.188
1767 0 61.0922 14.5518 889 112.984 655.079 472.718
1768 0 60.2612 11.7654 709 120.403 655.202 472.398
1769 0 63.2224 12.8752 814 117.805 654.807 471.197
1770 0 66.0946 13.0571 863 117.479 655.345 469.254
1771 0 73.3964 15.0825 1107 111.968 653.693 471.2
1772 0 70.0786 12.5002 876 118.918 653.291 468.743
1773 0 76.1506 14.2612 1086 114.28 651.733 465.67
1774 0 78.1112 15.0683 1177 113.008 651.873 464.896
1775 0 79.067 13.3684 1057 116.783 651.188 462.99
1776 0 83.1455 14.9738 1245 113.068 649.729 459.517
1777 0 82.128 12.5779 1033 117.747 649.415 458.923
1778 0 87.0958 14.4094 1255 113.4 648.635 459.063
1779 0 89.2154 13.7084 1223 115.129 648.334 453.01
1780 1 49.153 14.6685 721 108.343 647.516 476.743
1781 0 48.0322 13.2203 635 111.211 648.959 475.781
1782 0 49.0561 10.2128 501 114.569 648.549 475.884
1783 0 50.3071 12.205 614 113.774 649.557 471.901
1784 0 52.4066 12.4412 652 112.163 650.124 468.943
1785 0 56.4425 13.2702 749 110.347 650.879 468.232
1786 0 55.4265 12.6113 699 111.947 650.773 471.232
1787 0 55.3357 14.2042 786 110.819 651.232 465.794
1788 0 56.3347 12.3015 693 131.697 652.335 467.224
1789 0 60.3771 13.0347 787 112.122 650.84 462.23
1790 0 63.1277 12.2609 774 113.779 651.475 463.129
1791 0 64.1435 13.9999 898 111.427 651.896 460.233
1792 0 66.3671 13.6965 909 113.363 653.382 456.341
1793 0 68.2685 13.6666 933 113.945 653.088 454.413
1794 0 70.2135 14.8832 1045 112.003 654.052 453.771
1795 0 73.2377 14.7602 1081 111.256 654.183 452.528
1796 0 74.2317 15.9231 1182 109.695 654.781 451.562
1797 0 76.4266 14.9163 1140 111.262 654.998 448.155
1798 0 78.3652 11.8548 929 115.783 656.179 450.116
1799 0 80.4372 13.0661 1051 114.64 656.274 448.083
1800 0 84.1447 14.9861 1261 110.001 656.968 450.396
1801 0 88.3852 14.6065 1291 111.871 657.879 446.235
1802 0 91.3962 14.4098 1317 111.866 657.979 444.327
1803 1 49.1723 9.82261 483 112.164 659.393 470.847
1804 0 51.308 12.7466 654 110.508 657.827 465.612
1805 0 49.1728 11.5308 567 110.792 657.556 460.848
1806 0 54.2808 10.2615 557 114.745 659.095 468.25
1807 0 57.1209 13.6027 777 108.042 659.031 470.82
1808 0 57.0581 11.427 652 113.456 658.16 469.758
1809 0 62.1249 14.9537 929 106.369 658.907 469.851
1810 0 61.1731 12.6036 771 111.482 657.445 469.029
1811 0 68.254 14.6365 999 107.1 657.73 470.892
1812 0 67.3181 13.3842 901 110.186 656.909 466.592
1813 0 71.2056 14.1 1004 108.076 657.194 470.784
1814 0 71.3475 13.203 942 111.64 655.321 467.702
1815 0 72.3953 11.6858 846 114.831 654.569 464.524
1816 0 80.7999 16.547 1337 105.269 654.085 469.396
1817 0 82.3524 16.8544 1388 106.671 653.745 464.06
1818 0 82.1885 14.1382 1162 111.552 653.065 465.345
1819 0 84.1505 14.783 1244 112.217 651.873 458.606
1820 0 88.3981 12.0704 1067 116.366 652.523 459.105
1821 0 89.2378 11.8335 1056 117.777 651.534 454.823
1822 0 93.1652 15.3705 1432 111.76 651.403 450.716
1823 0 96.1876 12.7979 1231 115.953 650.623 448.637
1824 0 99.2203 15.2287 1511 111.896 650.686 449.234
1825 1 55.2195 12.9121 713 110.296 648.178 471.727
1826 0 56.1215 15.1992 853 108.165 649.206 470.567
1827 0 58.1465 13.6208 792 111.371 649.533 468.894
1828 0 59.0862 14.2673 843 109.896 648.726 464.197
1829 0 62.1377 13.5666 843 110.257 647.916 465.59
1830 0 64.1181 15.4715 992 106.669 648.763 463.943
1831 0 68.4343 14.3787 984 108.999 648.738 460.042
1832 0 71.1603 15.4862 1102 105.798 648.164 461.084
1833 0 69.1708 13.1703 911 111.692 648.467 457.155
1834 0 73.1604 13.5592 992 111.225 650.008 453.727
1835 0 74.1973 13.5315 1004 112.368 649.678 452.857
1836 0 79.2016 14.9997 1188 109.157 651.28 451.091
1837 0 80.2653 15.2245 1222 109.097 651.775 448.652
1838 0 81.2175 15.9572 1296 107.988 653.046 450.9
1839 0 88.1771 16.1833 1427 106.748 652.753 447.581
1840 0 90.3767 14.8932 1346 108.903 653.459 447.506
1841 0 91.2612 13.4778 1230 110.446 653.489 450.205
1842 0 94.2149 14.3077 1348 109.267 654.453 446.29
1843 0 99.4242 15.4188 1533 106.994 655.025 444.02
1844 1 53.1915 12.408 660 110.124 654.923 466.32
1845 0 55.3142 12.7092 703 108.878 656.02 465.533
1846 0 53.424 10.5945 566 112.758 656.765 464.413
1847 0 59.6074 13.3541 796 107.66 656.327 465.678
1848 0 59.4258 15.6834 932 106.394 657.471 464.586
1849 0 65.7734 14.0482 924 106.81 657.235 466.634
1850 0 65.3907 14.5586 952 107.079 656.024 463.313
1851 0 69.5701 14.1009 981 105.839 657.404 471.083
1852 0 68.574 12.5704 862 111.215 656.28 463.175
1853 0 70.3278 17.2762 1215 103.872 657.057 469.83
1854 0 68.2935 14.8623 1015 140.983 656.927 467.064
1855 0 76.5815 16.5706 1269 104.645 656.232 464.001
1856 0 81.7318 16.1626 1321 104.587 656.19 465.357
1857 0 79.5197 13.0156 1035 111.875 654.357 458.086
1858 0 81.6697 12.624 1031 113.49 654.463 460.772
1859 0 83.716 12.8888 1079 112.898 653.038 462.554
1860 0 88.87 13.7392 1221 108.586 653.011 457.394
1861 0 89.3914 12.5739 1124 111.133 652.841 458.272
1862 0 91.4554 14.4661 1323 109.894 652.223 453.452
1863 0 96.3296 12.8206 1235 111.746 652.338 454.716
1864 0 99.3319 12.3626 1228 112.28 650.774 453.842
1865 1 52.2438 13.9921 731 105.992 650.795 473.458
1866 0 55.1501 10.7343 592 110.034 649.15 475.569
1867 0 58.2464 12.7218 741 110.927 649.596 472.108
1868 0 58.1503 13.8434 805 110.378 649.892 470.194
1869 0 54.0661 14.1309 764 113.889 648.652 467.647
1870 0 60.2124 14.781 890 110.624 648.557 469.627
1871 0 61.252 15.2811 936 110.143 648.225 468.521
1872 0 63.3616 17.4712 1107 107.63 648.421 464.872
1873 0 65.366 14.2123 929 113.124 648.471 463.016
1874 0 71.4086 15.4603 1104 110.64 649.759 458.94
1875 0 73.4313 15.9877 1174 109.232 650.23 458.832
1876 0 73.6409 14.625 1077 113.106 650.288 456.577
1877 0 74.3035 11.7356 872 117.291 650.501 449.803
1878 0 77.5228 10.6678 827 118.056 650.95 446.606
1879 0 78.3853 12.4513 976 115.586 651.878 443.421
1880 0 83.448 12.0434 1005 114.691 652.611 445.546
1881 0 87.5315 11.2645 986 116.981 652.401 440.692
1882 0 87.2237 13.2991 1160 114.772 653.489 437.022
1883 0 94.5542 14.6794 1388 111.579 654.48 438.35
1884 1 52.1722 5.63518 294 113.146 656.252 466.014
1885 0 53.1856 12.5598 668 107.407 655.052 463.262
1886 0 57.3329 13.4478 771 108.641 655.339 463.24
1887 0 55.1954 11.9575 660 113.183 657.797 463.653
1888 0 59.2856 12.8699 763 110.949 656.852 461.906
1889 0 65.2109 13.694 893 107.642 658.055 464.802
1890 0 62.112 14.3934 894 108.055 658.098 463.016
1891 0 65.1058 13.3782 871 109.922 658.96 462.064
1892 0 69.1733 13.618 942 109.014 658.366 463.264
1893 0 73.1759 13.9117 1018 108.361 658.186 463.498
1894 0 74.1664 11.4607 850 111.101 657.446 466.595
1895 0 74.2422 14.6817 1090 112.503 656.817 461.396
1896 0 80.1993 15.9353 1278 109.734 656.481 463.401
1897 0 77.3601 11.0651 856 119.367 656.592 463
1898 0 88.7489 18.2087 1616 105.816 655.816 458.558
1899 0 86.3328 15.2549 1317 111.682 655.857 460.059
1900 0 90.2218 17.989 1623 106.833 654.99 463.043
1901 0 92.225 14.0092 1292 114.605 653.824 456.319
1902 0 95.4183 14.8399 1416 113.612 654.254 454.153
1903 0 98.3447 12.1105 1191 117.917 653.526 451.97
1904 0 101.283 13.9509 1413 115.125 651.023 453.136
1905 0 104.436 13.9703 1459 114.727 650.552 450.807
1906 0 106.389 13.0277 1386 114.486 650.247 448.64
1907 0 110.415 14.3459 1584 112.867 650.597 444.163
1908 0 113.292 12.5164 1418 113.457 650.474 436.455
1909 1 68.3635 10.9415 748 105.807 648.582 465.084
1910 0 68.5848 12.4226 852 105.745 648.692 463.799
1911 0 70.3396 13.4064 943 104.897 647.702 463.515
1912 0 73.3286 13.5009 990 106.533 648.205 460.87
1913 0 73.3166 11.3344 831 111.19 647.676 458.797
1914 0 73.3166 11.4435 839 136.067 645.698 458.765
1915 0 77.2647 13.1755 1018 109.733 648.551 456.194
1916 0 79.2543 15.2168 1206 106.583 649.018 456.007
1917 0 83.4259 13.7008 1143 107.763 648.7 456.299
1918 0 85.3637 15.5335 1326 106.633 649.846 451.103
1919 0 87.2116 13.1749 1149 109.973 649.205 446.182
1920 0 90.2788 12.9045 1165 111.144 649.645 442.492
1921 0 94.1463 14.2969 1346 108.389 650.447 446.789
1922 0 96.3167 12.9884 1251 110.594 651.81 443.878
1923 0 100.601 14.5228 1461 109.137 651.574 436.086
1924 0 105.85 16.0889 1703 106.794 654.054 435.738
1925 0 104.53 11.1452 1165 114.212 654.077 434.594
1926 0 111.632 14.0551 1569 109.965 655.041 431.333
1927 1 57.4588 14.3929 827 103.339 655.006 460.844
1928 0 61.9614 13.7344 851 102.113 655.691 460.347
1929 0 59.0853 13.0997 774 110.574 654.337 465.112
1930 0 62.2009 14.9837 932 108.033 655.753 463.879
1931 0 59.3412 12.2006 724 115.865 656.283 457.64
1932 0 66.3371 13.145 872 113.109 656.584 460.189
1933 0 68.3701 11.3792 778 116.483 657.686 460.312
1934 0 69.2602 13.7019 949 113.415 657.463 460.193
1935 0 73.2524 13.4603 986 113.69 656.833 460.022
1936 0 74.4581 12.9469 964 115.285 657.056 460.308
1937 0 76.3243 12.8924 984 115.165 656.431 462.036
1938 0 82.1916 14.4905 1191 112.932 656.606 459.019
1939 0 84.4029 13.791 1164 114.327 655.926 461.799
1940 0 83.2016 13.0526 1086 118.727 654.821 456.96
1941 0 91.978 14.0034 1288 114.644 655.363 460.302
1942 0 89.2959 13.1921 1178 119.851 655.07 451.236
1943 0 94.4653 13.5605 1281 118.778 654.193 451.434
1944 0 98.6428 13.0978 1292 117.108 654.214 453.05
1945 0 97.4528 11.7082 1141 122.733 651.493 445.521
1946 0 105.616 16.1529 1706 110.998 652.44 451.193
1947 0 108.437 14.0911 1528 115.831 650.942 444.211
1948 0 110.513 14.0436 1552 115.87 650.407 440.072
1949 0 114.443 13.0109 1489 115.714 650.758 441.942
1950 0 119.429 14.8959 1779 113.101 651.585 439.565
1951 1 66.1131 12.6299 835 114.39 650.259 461.497
1952 0 63.2709 12.9127 817 115.414 649.767 460.611
1953 0 72.3659 13.0586 945 111.928 650.185 461.977
1954 0 71.2239 13.9981 997 113.269 649.57 457.203
1955 0 77.3949 12.3652 957 112.483 650.722 461.017
1956 0 76.191 12.2193 931 114.749 649.005 453.237
1957 0 78.3582 12.8385 1006 113.412 648.775 452.729
1958 0 80.4236 14.1003 1134 111.874 649.704 448.351
1959 0 82.2655 13.7968 1135 112.402 650.389 447.721
1960 0 86.2201 22.8717 1972 98.3169 651.032 450.301
1961 0 87.2477 14.476 1263 111.896 651.561 442.944
1962 0 89.3094 12.6638 1131 114.153 651.879 443.982
1963 0 90.1122 12.5954 1135 116.326 651.934 434.764
1964 0 94.1905 13.1011 1234 114.858 652.392 436.148
1965 0 100.14 17.7751 1780 106.836 653.387 434.695
1966 0 106.265 15.6214 1660 109.503 653.667 433.327
1967 0 105.106 10.9413 1150 118.23 654.661 432.266
1968 0 109.379 13.0281 1425 115.349 654.656 426.73
1969 1 55.1523 9.71854 536 114.261 655.056 451.743
1970 0 59.2443 13.6722 810 106.688 654.269 459.01
1971 0 62.2363 11.858 738 114.912 653.991 458.828
1972 0 64.1057 14.2733 915 110.587 654.552 459.746
1973 0 66.1773 12.2247 809 115.072 653.902 456.787
1974 0 69.1904 11.4611 793 113.847 654.668 460.777
1975 0 70.3414 12.6526 890 113.939 655.673 456.608
1976 0 71.3208 11.932 851 114.894 655.678 458.673
1977 0 74.2514 13.6294 1012 112.464 656.433 460.277
1978 0 80.1167 18.9224 1516 102.823 657.096 459.759
1979 0 80.4036 14.2282 1144 111.109 656.294 457.337
1980 0 82.4606 13.4731 1111 110.258 656.706 457.092
1981 0 79.4477 10.0318 797 116.178 656.332 455.384
1982 0 87.4133 12.1034 1058 114.559 656.422 451.88
1983 0 91.465 13.5024 1235 112.099 655.606 451.755
1984 0 96.6022 13.0432 1260 111.741 656.257 454.054
1985 1 51.4273 9.48913 488 114.016 654.557 473.525
1986 0 55.0875 10.6739 588 110.741 654.796 475.241
1987 0 57.2907 13.0388 747 108.705 652.383 471.098
1988 0 56.3594 13.1478 741 108.533 651.532 475.436
1989 0 59.2235 14.4368 855 106.78 649.502 472.613
1990 0 61.2162 13.0848 801 109.362 651.31 468.089
1991 0 62.4466 11.4818 717 111.312 650.459 468.752
1992 0 63.3124 12.0829 765 110.8 649.038 465.723
1993 0 67.2914 13.4192 903 107.757 648.654 466.295
1994 0 70.5792 14.9619 1056 104.727 649.511 468.001
1995 0 69.3916 12.941 898 109.994 648.302 463.097
1996 0 74.3709 16.3908 1219 104.315 648.464 461.993
1997 0 73.3228 10.6788 783 113.519 647.564 461.07
1998 0 75.2085 14.3202 1077 108.984 647.966 458.428
1999 0 78.3521 12.7246 997 110.386 647.323 458.455
2000 0 78.2589 11.5003 900 111.512 647.443 460.61
2001 0 81.5554 14.248 1162 109.31 646.723 449.96
2002 0 86.2586 12.6828 1094 110.619 647.936 455.193
2003 0 85.3156 10.76 918 115.869 648.068 449.319
2004 0 85.3171 10.7364 916 134.06 649.053 449.433
2005 1 50.1153 11.5334 578 109.836 649.851 468.279
2006 0 50.1993 9.82085 493 112.627 648.826 467.611
2007 0 54.4629 15.0561 820 105.871 650.6 464.954
2008 0 57.4422 12.9521 744 108.548 652.401 458.157
2009 0 57.1052 12.9936 742 107.741 651.307 459.155
2010 0 59.2722 12.4173 736 111.912 653.24 458.875
2011 0 62.1371 10.2676 638 114.528 653.431 459.679
2012 0 61.1172 12.5333 766 112.403 654.483 459.804
2013 0 64.1265 14.5026 930 109.345 653.741 458.863
2014 0 70.0729 11.7877 826 113.936 654.74 457.099
2015 0 73.2076 13.2227 968 111.158 654.603 458.831
2016 0 74.1058 12.4282 921 112.265 655.128 459.086
2017 0 77.1103 14.4339 1113 108.498 655.235 456.514
2018 0 79.1257 15.7218 1244 106.473 656.156 453.636
2019 0 81.1492 13.6539 1108 110.335 656.762 455.001
2020 0 84.2475 11.6443 981 112.359 656.231 456.509
2021 0 85.2123 11.7706 1003 113.166 656.389 454.989
2022 0 91.1594 13.2954 1212 109.262 656.732 458.529
2023 0 93.3428 14.4843 1352 109.166 657.069 455.226
2024 0 97.4604 12.0664 1176 113.209 656.739 452.721
2025 0 100.415 12.518 1257 112.516 655.767 454.975
2026 1 52.1801 10.6554 556 112.336 657.336 475.959
2027 0 54.3748 9.30579 506 113.628 655.565 477.366
2028 0 57.2943 10.6642 611 111.795 656.047 476.664
2029 0 61.3611 14.6836 901 105.729 655.819 474.39
2030 0 59.2722 10.4602 620 113.402 654.118 472.213
2031 0 62.2833 13.6794 852 109.085 654.033 468.886
2032 0 63.3212 15.8873 1006 105.602 653.626 468.959
2033 0 66.5174 17.4541 1161 103.295 652.68 467.041
2034 0 67.2599 13.7675 926 110.072 652.446 467.049
2035 0 69.2259 13.2465 917 107.701 651.728 469.407
2036 0 72.2745 18.7341 1354 100.798 651.292 464.309
2037 0 75.3016 14.9134 1123 105.887 651.468 462.507
2038 0 76.2756 13.9888 1067 107.791 650.764 460.048
2039 0 77.3784 14.707 1138 107.082 650.558 457.226
2040 0 76.2702 10.3841 792 113.287 649.614 455.271
2041 0 81.2792 12.7216 1034 109.244 650.558 456.854
2042 0 85.2304 14.5136 1237 106.753 649.917 453.082
2043 0 87.2263 13.6771 1193 108.099 650.07 450.599
2044 0 89.3994 13.3558 1194 108.483 649.432 447.717
2045 0 93.2224 19.491 1817 98.279 650.566 452.173
2046 0 93.1616 14.3407 1336 108.051 650.581 443.54
2047 0 101.183 14.4293 1460 107.189 651.415 441.645
2048 1 53.2097 12.3286 656 107.296 652.349 464.125
2049 0 53.2097 12.3098 655 134.808 651.339 464.273
2050 0 56.4345 11.2874 637 107.122 653.651 465.991
2051 0 57.3764 15.3896 883 101.766 653.922 461.727
2052 0 59.16 14.5706 862 102.795 653.555 460.508
2053 0 64.3574 13.9844 900 106.74 654.229 459.118
2054 0 66.5149 14.8689 989 105.197 654.759 459.348
2055 0 67.3149 15.0784 1015 105.274 656.833 459.287
2056 0 75.4709 16.4169 1239 102.483 655.805 457.408
2057 0 70.5075 13.0483 920 109.928 657.333 457.048
2058 0 70.5075 13.0766 922 142.76 658.335 457.197
2059 0 76.1898 13.9782 1065 111.724 657.63 455.901
2060 0 78.2108 16.9925 1329 107.711 658.065 453.526
2061 0 82.4759 14.8407 1224 110.734 658.603 455.008
2062 0 85.2892 16.3209 1392 107.764 658.912 457.401
2063 0 87.3209 14.9449 1305 111.648 659.006 455.399
2064 0 90.5798 15.4008 1395 113.256 659.525 450.715
2065 0 93.0238 17.3289 1612 110.913 658.324 451.442
2066 0 94.4929 15.8742 1500 115.202 658.973 449.324
2067 0 96.6708 16.189 1565 115.108 657.578 452.053
2068 0 99.5002 14.9246 1485 117.945 657.941 449.16
2069 0 100.514 15.9779 1606 116.629 657.186 443.308
2070 0 105.744 15.651 1655 117.045 657.3 442.831
2071 0 106.631 14.6393 1561 120.251 656.145 442.025
2072 1 59.3216 14.4298 856 114.065 654.037 469.18
2073 0 62.2922 12.3771 771 118.257 653.711 467.296
2074 0 64.3386 13.7398 884 116.396 653.587 466.096
2075 0 65.3582 11.5976 758 120.947 651.609 462.629
2076 0 67.6837 13.4892 913 117.244 650.196 462.719
2077 0 71.5935 14.0935 1009 116.207 649.65 459.219
2078 0 68.6735 9.84368 676 126.774 648.743 455.464
2079 0 74.4418 15.9722 1189 114.854 648.811 455.681
2080 0 79.5281 15.5543 1237 114.179 648.457 455.939
2081 0 81.575 14.2936 1166 117.648 648.509 445.55
2082 0 83.6813 13.6948 1146 118.929 648.456 446.78
2083 0 86.2239 15.8541 1367 114.527 648.135 447.842
2084 0 89.5601 14.6717 1314 116.893 648.274 444.331
2085 0 90.402 14.4798 1309 116.314 648.623 446.564
2086 0 95.7509 14.851 1422 116.01 648.734 441.513
2087 0 97.4509 14.9203 1454 116.378 648.655 440.732
2088 0 97.4086 12.7504 1242 121.411 650.316 437.271
2089 0 99.3152 14.1167 1402 117.928 650.5 440.181
2090 0 105.393 13.9762 1473 117.458 651.058 433.64
2091 0 105.314 13.9297 1467 117.388 652.361 436.504
2092 1 60.3722 13.0358 787 111.934 652.684 458.238
2093 0 60.4662 10.2867 622 118.082 652.394 458.027
2094 0 63.2955 11.2488 712 118.511 652.35 453.893
2095 0 65.4397 13.1419 860 116.338 655.181 449.962
2096 0 68.4586 13.8916 951 114.623 654.301 449.824
2097 0 66.3773 10.4554 694 121.703 654.617 451.386
2098 0 71.678 13.2677 951 117.05 655.915 447.285
2099 0 72.3898 10.3329 748 122.713 656.33 449.029
2100 0 76.5122 14.5598 1114 116.703 656.931 444.813
2101 0 78.3539 13.8857 1088 117.66 657.561 443.506
2102 0 81.3692 11.5031 936 122.536 657.754 444.663
2103 0 84.8541 12.1031 1027 119.688 658.25 450.009
2104 0 87.3346 13.5571 1184 115.755 658.377 446.252
2105 0 88.2129 11.5063 1015 120.622 657.311 450.242
2106 0 93.2394 15.3047 1427 114.744 658.259 447.033
2107 0 93.2861 9.93717 927 125.899 656.98 446.035
2108 0 98.2435 12.5708 1235 120.277 656.815 443.56
2109 1 53.3159 10.9723 585 122.05 657.101 465.022
2110 0 56.3167 11.1867 630 121.905 656.27 467.322
2111 0 60.2739 13.1898 795 118.146 657.081 468.103
2112 0 61.1498 13.2789 812 116.549 655.369 468.002
2113 0 62.2496 11.0523 688 121.542 654.993 466.705
2114 0 66.1297 12.3999 820 118.345 653.774 469.837
2115 0 68.268 11.7185 800 120.564 653.345 466.552
2116 0 73.2333 16.4952 1208 110.166 652.099 461.829
2117 0 75.2663 15.4917 1166 111.99 651.55 461.883
2118 0 75.4729 12.6138 952 119.317 651.519 461.991
2119 0 77.3441 15.2565 1180 115.258 651.629 460.598
2120 0 80.1577 13.7978 1106 117.425 650.909 459.107
2121 0 84.1747 16.4064 1381 112.772 649.875 456.723
2122 0 86.2997 13.4879 1164 117.897 649.763 454.958
2123 0 89.2195 15.5347 1386 115.277 649.378 453.667
2124 0 91.4604 13.2954 1216 119.603 649.873 454.816
2125 0 96.2622 14.5852 1404 118.798 649.931 449.55
2126 0 99.4812 15.1285 1505 117.056 649.073 449.785
2127 0 102.286 18.3017 1872 113.183 648.785 445.965
2128 1 55.1581 10.5515 582 124.474 650.168 466.775
2129 0 56.0469 14.363 805 117.907 649.027 462.789
2130 0 56.0469 14.1667 794 133.824 648.989 462.84
2131 0 61.226 14.5853 893 115.451 648.791 463.353
2132 0 63.1662 12.9658 819 120.182 649.735 460.407
2133 0 66.2419 14.7792 979 114.901 650.114 460.727
2134 0 66.1632 12.6354 836 119.809 650.842 457.592
2135 0 70.2142 15.5951 1095 114.512 650.805 456.816
2136 0 68.1799 14.4324 984 119.462 651.046 452.852
2137 0 73.102 13.2965 972 119.349 651.761 454.356
2138 0 77.2737 15.6975 1213 115.062 652.683 451.351
2139 0 78.0579 14.1561 1105 118.444 653.119 449.047
2140 0 83.2022 16.5741 1379 113.265 653.744 452.653
2141 0 84.3689 13.6188 1149 119.967 654.313 449.015
2142 0 88.237 14.7444 1301 117.048 655.573 447.319
2143 0 89.1342 13.6087 1213 119.818 654.873 447.672
2144 0 92.3109 11.3421 1047 123.032 655.26 447.219
2145 0 96.388 13.6117 1312 119.273 656.836 446.46
2146 0 98.111 15.5436 1525 117.15 656.787 444.534
2147 0 100.204 12.5843 1261 121.977 657.838 446.22
2148 0 108.317 15.0946 1635 116.96 656.114 445.924
2149 1 60.1552 12.1685 732 118.096 656.422 470.243
2150 0 65.2119 15.7793 1029 111.431 655.996 470.208
2151 0 66.2591 13.1303 870 119.48 655.799 466.961
2152 0 68.2046 14.4565 986 120.195 657.611 461.158
2153 0 68.3529 13.6497 933 122.759 657.173 461.11
2154 0 77.3389 13.4732 1042 120.511 657.155 465.69
2155 0 75.232 13.1992 993 125.279 656.543 461.482
2156 0 80.369 16.3123 1311 116.719 655.568 461.852
2157 0 82.3513 17.6804 1456 115.484 654.37 460.12
2158 0 83.4761 14.1478 1181 121.014 652.832 457.074
2159 0 88.4675 16.085 1423 118.174 653.191 455.682
2160 0 90.4621 14.039 1270 122.118 651.861 450.735
2161 0 97.0038 17.3292 1681 114.12 652.421 454.713
2162 0 98.2631 16.0182 1574 114.53 651.608 447.258
2163 1 59.8014 16.6551 996 104.303 651.641 476.539
2164 0 58.0484 13.1097 761 114.045 651.527 471.081
2165 0 59.1048 13.6368 806 116.202 650.867 464.311
2166 0 60.1343 12.522 753 119.105 650.568 459.486
2167 0 64.2376 14.2284 914 116.591 650.968 458.776
2168 0 65.119 14.174 923 118.87 652.486 457.098
2169 0 66.1903 14.7 973 117.92 650.784 456.767
2170 0 68.1584 13.2339 902 120.407 651.144 461.161
2171 0 68.2332 13.3952 914 120.701 649.59 461.594
2172 0 70.1891 15.6577 1099 116.107 649.045 458.736
2173 0 73.3692 14.9382 1096 116.659 650.055 458.083
2174 0 74.1847 14.3021 1061 119.952 649.469 454.712
2175 0 78.4335 14.7513 1157 118.762 649.815 456.503
2176 0 79.3219 15.3551 1218 119.741 649.778 450.852
2177 0 81.2687 14.1752 1152 122.275 650.228 449.53
2178 0 84.1483 14.0823 1185 123.408 650.902 449.324
2179 0 84.1081 14.1603 1191 123.819 650.992 450.039
2180 0 86.1909 14.7347 1270 119.414 652.328 449.508
2181 0 89.1892 17.603 1570 114.732 653.958 449.734
2182 0 88.1886 14.0721 1241 122.907 653.778 444.807
2183 0 91.2614 12.0752 1102 125.526 654.273 451.7
2184 0 93.2416 12.6124 1176 125.565 654.902 449.664
2185 0 94.1772 12.5083 1178 128.643 655.013 442.104
2186 0 99.1252 15.8486 1571 121.785 655.195 445.025
2187 0 104.132 19.0623 1985 116.359 656.383 441.606
2188 0 103.142 14.7951 1526 125.619 656.463 440.912
2189 0 113.251 11.9822 1357 127.223 657.135 446.057
2190 0 114.364 13.8418 1583 127.385 657.307 438.214
2191 0 117.275 13.4726 1580 127.204 656.65 440.108
2192 0 124.217 13.8064 1715 125.048 656.751 439.994
2193 1 68.1892 12.2893 838 120.542 657.081 468.895
2194 0 68.1922 14.7964 1009 116.352 656.475 470.213
2195 0 70.1823 11.8263 830 121.24 655.482 469.488
2196 0 73.1551 11.4961 841 121.631 656.145 466.603
2197 0 77.167 19.879 1534 106.975 656.327 468.728
2198 0 81.1939 16.6146 1349 112.064 655.223 468.005
2199 0 84.2167 14.154 1192 117.148 654.754 464.692
2200 0 86.2381 15.3181 1321 116.008 653.302 462.727
2201 0 88.3326 13.8001 1219 118.838 653.498 461.979
2202 0 91.272 12.9722 1184 119.378 650.655 463.189
2203 0 94.1422 15.3279 1443 117.102 651.637 459.15
2204 0 97.6007 14.17 1383 119.171 650.883 458.01
2205 0 100.337 16.3549 1641 115.819 649.981 457.965
2206 0 103.228 15.5578 1606 117.883 650.109 453.253
2207 0 106.341 15.3374 1631 117.576 649.402 451.971
2208 0 110.455 13.8336 1528 120.06 649.002 447.805
2209 0 114.433 14.3403 1641 117.67 647.935 451.675
2210 0 118.235 14.3612 1698 117.656 649.117 446.097
2211 0 120.24 15.0366 1808 116.972 649.084 441.707
2212 1 66.1546 13.7557 910 121.285 648.515 466.112
2213 0 69.1518 14.7791 1022 120.659 647.776 463.698
2214 0 70.0826 13.6839 959 123.236 648.616 463.128
2215 0 72.2668 12.5507 907 123.827 648.123 462.16
2216 0 74.355 13.9735 1039 123.569 650.513 457.83
2217 0 78.1841 14.4019 1126 122.069 648.796 454.594
2218 0 82.2306 15.4444 1270 118.487 649.956 457.306
2219 0 83.3419 18.5861 1549 114.994 650.044 452.426
2220 0 86.1863 14.7587 1272 120.673 650.859 453.511
2221 0 88.2304 16.4116 1448 118.539 651.72 447.183
2222 0 89.2621 15.3145 1367 121.564 651.607 446.968
2223 0 91.3667 14.896 1361 123.458 652.777 446.238
2224 0 94.356 14.6255 1380 122.682 653.679 449.484
2225 0 96.3893 13.3106 1283 127.355 655.074 446.285
2226 0 100.292 14.2285 1427 126.899 654.938 444.042
2227 0 104.288 16.0804 1677 122.88 655.912 442.758
2228 0 109.321 16.8403 1841 120.632 655.363 443.423
2229 0 113.417 17.0257 1931 120.718 657.355 439.329
2230 0 118.327 16.5981 1964 121.987 657.238 436.221
2231 1 64.1536 12.7974 821 127.314 657.775 461.923
2232 0 70.0845 14.6109 1024 122.815 658.484 461.478
2233 0 70.2626 14.8016 1040 122.968 657.849 462.968
2234 0 73.253 14.3612 1052 125.228 658.485 461.452
2235 0 77.3012 18.926 1463 116.988 659.032 462.462
2236 0 80.1701 15.8413 1270 122.354 658.279 462.658
2237 0 83.3466 14.7337 1228 124.002 658.737 462.268
2238 0 83.2062 12.6313 1051 129.742 656.951 460.637
2239 0 88.1407 14.8399 1308 125.083 657.501 461.882
2240 0 92.1532 14.5519 1341 124.388 657.081 461.381
2241 0 96.2142 15.2264 1465 122.228 656.539 463.368
2242 0 96.2142 15.1225 1455 149.245 656.542 463.304
2243 0 101.302 15.5179 1572 125.298 655.41 457.146
2244 0 104.134 17.9672 1871 120.864 653.547 451.803
2245 0 108.298 15.8266 1714 123.596 653.37 453.648
2246 0 111.243 17.2505 1919 120.957 652.525 448.745
2247 0 112.207 13.8227 1551 126.708 651.847 448.993
2248 1 62.1313 12.6989 789 125.402 651.464 466.115
2249 0 66.1752 11.9531 791 126.267 651.197 465.834
2250 0 69.1957 11.7926 816 124.657 651.081 467.227
2251 0 69.1957 11.8071 817 148.684 651.061 467.405
2252 0 73.1971 13.2792 972 124.418 651.108 462.101
2253 0 73.1971 13.2655 971 148.194 651.112 462.006
2254 0 80.6756 17.3658 1401 116.166 649.599 454.865
2255 0 81.2099 15.2444 1238 121.489 649.554 449.502
2256 0 83.3156 16.4315 1369 118.725 649.686 453.704
2257 0 83.3156 16.5995 1383 138.965 649.676 453.867
2258 0 88.4181 14.7481 1304 121.921 650.173 448.025
2259 0 90.3705 14.2303 1286 122.514 650.006 448.191
2260 0 96.5806 13.8226 1335 120.065 650.898 452.213
2261 0 96.6058 15.5684 1504 119.471 651.416 443.396
2262 0 97.4005 15.2053 1481 122.257 651.67 438.493
2263 0 103.657 16.5643 1717 118.082 652.309 439.158
2264 0 103.712 14.5113 1505 123.153 653.409 436.173
2265 0 108.587 15.7754 1713 119.853 654.407 436.462
2266 0 111.589 15.7811 1761 120.169 654.29 432.557
2267 1 62.6323 13.4914 845 118.589 653.041 459.405
2268 0 62.5891 11.8391 741 121.974 653.814 460.385
2269 0 66.3881 16.0571 1066 116.732 655.399 457.244
2270 0 68.4896 15.4914 1061 117.934 655.5 456.132
2271 0 72.5627 14.5391 1055 118.282 655.758 455.703
2272 0 75.6459 15.0438 1138 116.507 657.418 457.433
2273 0 76.4959 17.2035 1316 113.774 657.052 455.932
2274 0 80.4793 14.3267 1153 118.4 657.233 453.809
2275 0 83.6559 13.9619 1168 118.571 657.561 454.372
2276 0 91.5731 17.5597 1608 110.536 658.118 457.117
2277 0 89.8288 13.971 1255 119.71 657.081 449.007
2278 0 89.8288 13.971 1255 154.237 656.068 448.959
2279 0 96.0408 18.5442 1781 112.278 657.4 446.29
2280 0 97.8939 14.8732 1456 118.447 657.692 447.712
2281 0 104.761 16.4756 1726 114.937 655.429 449.707
2282 0 110.334 16.3593 1805 114.732 656.254 451.777
2283 0 110.334 16.3322 1802 155.371 657.209 451.932
2284 0 118.439 12.9941 1539 118.981 655.32 453.55
2285 0 115.975 13.2011 1531 121.444 653.389 447.257
2286 1 65.6435 12.4765 819 121.619 652.233 466.839
2287 0 67.5841 13.4203 907 117.268 651.175 470.549
2288 0 70.579 13.1626 929 122.575 651.664 465.829
2289 0 74.7876 15.8315 1184 117.889 650.34 462.133
2290 0 76.4668 14.8823 1138 120.077 651.107 457.94
2291 0 77.4207 14.2597 1104 121.505 649.33 456.426
2292 0 80.3919 15.412 1239 118.059 649.42 458.355
2293 0 84.4516 15.5474 1313 118.412 648.615 453.853
2294 0 85.4689 16.1696 1382 118.882 648.571 452.329
2295 0 90.53 15.9284 1442 118.282 647.741 451.262
2296 0 90.2762 16.6157 1500 118.353 649.157 448.144
2297 0 95.5029 15.8006 1509 118.791 648.968 445.531
2298 0 101.645 14.7572 1500 118.509 649.131 448.034
2299 0 101.24 16.4955 1670 118.437 649.043 438.526
2300 0 104.131 14.1553 1474 123.544 649.242 435.494
2301 0 107.251 15.5058 1663 120.011 649.604 440.314
2302 0 107.204 16.6786 1788 118.729 649.831 437.255
2303 0 114.465 16.4853 1887 118.589 649.975 432.386
2304 0 117.365 14.2802 1676 121.765 651.272 431.735
2305 0 123.251 15.586 1921 118.451 651.517 425.436
2306 0 126.369 15.7158 1986 119.436 651.94 420.437
2307 0 131.536 16.8851 2221 116.227 651.433 426.533
2308 1 73.1618 12.3835 906 121.075 653.114 447.624
2309 0 76.4172 13.6095 1040 118.212 652.673 447.54
2310 0 75.2354 14.5011 1091 119.026 654.61 446.324
2311 0 77.2583 13.319 1029 121.422 654.513 442.431
2312 0 83.3589 16.5789 1382 114.904 654.817 440.132
2313 0 85.2993 14.326 1222 118.47 654.874 444.561
2314 0 90.4434 13.7323 1242 118.573 656.635 444.142
2315 0 93.2698 15.364 1433 116.075 656.846 445.944
2316 0 93.2598 11.913 1111 125.144 657.923 441.796
2317 0 96.4053 16.1298 1555 117.882 657.378 439.559
2318 0 98.2774 13.8282 1359 122.724 656.84 439.172
2319 0 100.159 13.6982 1372 124.343 656.154 435.375
2320 0 108.221 15.1634 1641 118.246 655.755 445.779
2321 0 111.199 16.403 1824 119.149 655.598 435.32
2322 0 116.133 15.7061 1824 119.938 655.602 438.186
2323 0 120.292 14.6726 1765 123.156 655.588 434.089
2324 0 126.254 15.5005 1957 122.931 655.157 435.908
2325 0 131.32 16.8825 2217 121.572 655.181 433.017
2326 1 75.1372 10.8601 816 123.92 654.249 462.021
2327 0 72.165 13.3998 967 120.419 654.778 458.171
2328 0 79.2595 12.8565 1019 118.055 654.189 456.763
2329 0 81.1536 15.6247 1268 111.144 653.721 449.23
2330 0 89.3928 11.3991 1019 116.743 652.733 453.385
2331 0 81.0782 11.3717 922 121.659 652.069 444.33
2332 1 93.1121 14.1013 1313 115.455 651.832 444.458
2333 0 95.0851 11.7474 1117 120.643 651.578 443.076
2334 0 94.0967 11.7432 1105 122.342 649.976 441.743
2335 0 91.0445 11.0386 1005 126.487 650.162 433.083
2336 0 96.1096 10.3528 995 125.458 649.544 432.811
2337 0 107.231 12.8228 1375 118.62 649.583 435.841
2338 0 113.123 14.577 1649 120.77 649.495 440.371
2339 0 116.186 11.9033 1383 124.414 647.432 435.913
2340 0 118.238 13.9803 1653 122.835 648.443 428.815
2341 0 124.275 12.7217 1581 126.096 650.853 425.617
2342 1 69.1011 11.3168 782 119.739 650.945 451.403
2343 0 76.3443 12.3519 943 115.078 651.361 452.654
2344 0 76.2693 13.5441 1033 113.667 652.261 450.808
2345 0 76.1631 12.959 987 116.491 653.205 444.677
2346 0 80.1585 11.6893 937 117.384 653.518 447.1
2347 0 84.0989 13.1987 1110 114.981 653.285 445.417
2348 0 83.099 13.9352 1158 115.044 654.44 442.674
2349 0 87.1537 14.7211 1283 112.992 654.072 441.256
2350 0 92.1589 12.6087 1162 116.639 656.585 445.179
2351 0 93.2298 10.8442 1011 119.711 657.091 442.475
2352 0 93.2033 14.0124 1306 117.223 656.926 435.204
2353 0 99.2858 12.5194 1243 118.825 657.332 439.397
2354 0 100.15 13.7194 1374 117.615 658.004 436.186
2355 0 103.192 13.9352 1438 117.704 658.417 431.207
2356 0 107.252 12.755 1368 120.431 658.071 432.429
2357 0 108.182 12.0723 1306 122.732 659.036 429.376
2358 0 114.173 12.8927 1472 119.767 659.837 434.058
2359 0 116.22 14.3176 1664 119.218 659.031 423.49
2360 0 120.233 10.8622 1306 119.025 659.515 438.452
2361 0 125.183 12.4538 1559 118.205 658.045 430.246
2362 0 132.358 13.879 1837 116.376 658.482 432.294
2363 0 136.464 13.2929 1814 118.943 656.196 425.523
2364 1 80.0678 10.3912 832 118.452 658.114 457.184
2365 0 82.3074 11.943 983 118.048 655.786 453.018
2366 0 85.3121 13.7378 1172 114.659 654.608 451.754
2367 0 87.1036 10.1833 887 123.087 656.94 456.08
2368 0 93.1797 11.2793 1051 120.748 656.587 456.568
2369 0 94.2636 10.8313 1021 122.793 654.73 452.235
2370 0 98.1931 12.3125 1209 119.635 654.178 454.737
2371 0 100.213 12.2938 1232 120.943 653.467 450.318
2372 0 104.269 10.6839 1114 120.647 652.338 452.704
2373 0 107.237 16.6081 1781 112.163 651.999 447.783
2374 0 106.164 9.0144 957 127.722 650.924 445.375
2375 0 112.408 13.7446 1545 119.749 650.964 442.843
2376 0 115.195 16.6413 1917 115.004 650.562 444.322
2377 0 112.272 9.91345 1113 128.306 650.305 441.709
2378 0 121.396 14.6545 1779 113.465 649.863 438.588
2379 0 128.268 10.5404 1352 128.493 649.336 436.972
2380 0 128.329 15.3122 1965 120.985 649.578 433.38
2381 0 129.438 11.4881 1487 128.441 649.602 427.194
2382 0 129.448 11.5104 1490 148.374 650.593 427.125
2383 0 137.366 14.9965 2060 122.139 648.826 421.095
2384 0 143.45 13.3775 1919 126.148 648.385 422.372
2385 0 143.45 13.3705 1918 147.681 648.396 422.239
2386 0 143.46 13.5299 1941 146.62 648.375 422.309
2387 1 83.3142 10.9225 910 124.279 651.016 438.959
2388 0 88.3366 15.8824 1403 116.102 651.187 443.803
2389 0 89.2937 14.8051 1322 118.857 651.821 443.228
2390 0 89.2937 14.7379 1316 128.745 652.862 443.098
2391 0 96.332 15.1871 1463 119.427 652.144 437.85
2392 0 97.3738 12.4161 1209 124.554 652.406 438.82
2393 0 99.3295 11.6783 1160 127.757 653.895 437.966
2394 0 102.337 15.5076 1587 120.552 653.642 436.536
2395 0 105.316 14.993 1579 122.276 654.62 430.366
2396 0 107.154 14.3718 1540 124.028 654.569 433.181
2397 0 112.284 15.0244 1687 122.483 655.928 432.642
2398 0 112.364 13.3406 1499 129.071 656.676 430.861
2399 0 118.33 13.3187 1576 128.464 657.018 432.633
2400 0 124.275 16.206 2014 122.97 657.252 431.511
2401 0 127.377 14.4061 1835 124.805 656.648 434.082
2402 0 131.645 13.6124 1792 127.215 656.258 430.428
2403 0 135.461 14.3805 1948 127.139 655.362 424.093
2404 0 142.465 15.1476 2158 124.863 655.874 422.148
2405 1 82.5258 13.1838 1088 119.006 656.221 460.043
2406 0 84.2484 14.1486 1192 116.269 655.477 457.939
2407 0 88.2191 11.9589 1055 118.839 654.5 459.545
2408 0 94.2648 14.7139 1387 114.433 654.947 457.492
2409 0 94.2169 12.8852 1214 119.939 654.82 453.373
2410 0 98.3067 13.3663 1314 119.221 653.545 451.514
2411 0 103.256 14.2848 1475 118.002 653.391 452.903
2412 0 104.302 14.4868 1511 118.22 650.817 441.52
2413 0 107.233 12.8412 1377 121.511 651.412 444.851
2414 0 112.545 15.8426 1783 115.637 650.891 442.924
2415 0 114.501 15.2575 1747 117.393 651.128 440.862
2416 0 118.442 15.9657 1891 116.086 649.224 440.002
2417 0 123.271 13.5312 1668 119.164 647.451 434.122
2418 0 126.323 10.9877 1388 122.422 646.813 432.337
2419 0 132.232 15.987 2114 111.402 646.686 427.731
2420 0 136.479 13.775 1880 115.561 647.361 425.553
2421 1 81.669 13.1629 1075 107.98 646.398 454.562
2422 0 83.2075 12.583 1047 108.98 647.449 450.039
2423 0 85.3284 13.6766 1167 108.383 646.993 449.66
2424 0 89.5643 12.5273 1122 110.592 646.726 446.221
2425 0 92.4121 13.7861 1274 107.71 647.262 446.516
2426 0 92.5031 12.5077 1157 111.831 647.697 441.203
2427 0 93.3351 12.2355 1142 111.971 647.103 442.271
2428 0 99.3741 16.9964 1689 103.523 647.661 440.736
2429 0 99.4174 12.8046 1273 110.899 647.583 435.75
2430 0 102.623 12.2487 1257 112.026 649.316 435.011
2431 0 104.429 16.4227 1715 106.181 650.62 430.061
2432 0 106.492 11.7849 1255 113.003 651.364 422.691
2433 0 109.557 13.0982 1435 111.323 651.911 425.155
2434 0 113.794 16.108 1833 106.142 651.809 427.477
2435 0 117.963 13.2075 1558 110.922 652.035 429.13
2436 0 120.041 13.1955 1584 112.007 652.972 425.888
2437 0 123.703 14.5429 1799 110.822 653.528 424.604
2438 0 126.922 13.3468 1694 111.925 653.451 424.73
2439 0 132.623 15.1934 2015 109.249 654.606 425.354
2440 0 136.621 15.1074 2064 109.344 655.768 421.922
2441 0 141.786 11.8841 1685 113.794 655.142 422.534
2442 0 146.715 11.9211 1749 115.205 655.934 418.7
2443 1 220.668 4.92142 1086 138.2 656.885 429.238
2444 1 157.817 10.8544 1713 115.985 655.026 423.58
2445 1 86.3407 12.4854 1078 110.959 653.615 454.055
2446 0 92.4427 12.8296 1186 111.318 654.225 448.912
2447 0 95.2946 12.1308 1156 112.587 654.961 456.15
2448 0 94.277 10.6919 1008 115.784 653.357 447.31
2449 0 99.3396 14.5561 1446 110.332 651.989 445.613
2450 0 104.471 11.8598 1239 112.316 652.986 450.383
2451 0 105.4 11.3282 1194 114.875 652.097 442.262
2452 0 106.31 10.3941 1105 116.676 652.494 447.926
2453 0 109.391 11.4544 1253 116.549 651.466 442.824
2454 0 115.47 12.5487 1449 113.994 649.786 441.318
2455 0 120.325 12.0507 1450 114.562 650.006 436.45
2456 0 122.447 13.2547 1623 111.875 649.218 440.405
2457 0 127.537 11.8632 1513 115.478 648.325 432.069
2458 0 133.671 11.4086 1525 116.435 646.971 431.385
2459 0 138.613 13.13 1820 113.623 646.954 429.551
2460 0 141.757 13.0011 1843 115.556 647.878 422.504
2461 0 146.367 12.2705 1796 115.951 647.693 421.266
2462 0 153.451 13.1964 2025 114.335 647.863 417.747
2463 0 155.513 13.2208 2056 114.757 647.332 413.032
2464 0 160.655 14.6214 2349 113.144 648.835 405.08
2465 0 160.655 14.7023 2362 137.735 649.824 405.039
2466 1 87.1213 10.4682 912 116.706 648.761 436.535
2467 0 93.1702 11.0658 1031 114.389 647.675 429.83
2468 0 94.2274 12.7139 1198 110.896 647.728 432.36
2469 0 95.1617 14.4491 1375 108.665 648.93 433.7
2470 0 93.2152 11.8328 1103 113.668 648.288 434.014
2471 0 99.2955 14.2101 1411 109.255 648.502 432.996
2472 0 101.219 12.9027 1306 112.819 648.405 425.081
2473 0 107.422 14.7456 1584 109.47 649.213 423.773
2474 0 111.466 13.798 1538 111.192 649.77 425.112
2475 0 112.215 14.6861 1648 111.007 650.352 419.679
2476 0 121.515 13.9819 1699 110.822 651.525 419.771
2477 0 124.325 13.0947 1628 111.91 652.217 411.135
2478 0 134.519 14.6968 1977 112.268 652.061 426.018
2479 0 140.447 15.8921 2232 109.21 653.342 425.335
2480 1 83.2394 11.3168 942 111.49 653.415 453.488
2481 0 83.3347 11.2438 937 111.24 656.381 453.436
2482 0 85.4331 11.6699 997 113.508 655.7 451.712
2483 0 89.3661 13.3943 1197 110.787 656.322 450.484
2484 0 90.211 11.7946 1064 113.86 654.8 454.42
2485 0 95.3748 12.8336 1224 112.008 656.443 454.511
2486 0 99.4434 12.037 1197 113.469 656.131 453.334
2487 0 100.235 12.6802 1271 114.021 655.967 450.173
2488 0 106.692 12.8125 1367 113.745 655.034 449.244
2489 0 110.224 14.1711 1562 108.866 655.864 455.708
2490 0 110.224 14.1802 1563 133.662 656.875 455.761
2491 0 110.224 14.1711 1562 133.152 657.878 455.797
2492 0 115.324 12.3825 1428 116.777 653.317 440.06
2493 0 122.315 12.1898 1491 115.209 653.093 446.698
2494 0 126.311 13.9893 1767 114.287 651.624 437.444
2495 0 129.373 9.61563 1244 122.248 651.689 432.323
2496 0 134.392 15.5069 2084 112.566 649.922 429.337
2497 0 139.378 16.545 2306 110.546 649.661 432.567
2498 1 83.4211 14.3369 1196 105.732 648.129 453.97
2499 0 85.1684 11.5888 987 113.19 646.71 452.557
2500 0 84.1245 12.113 1019 113.301 646.456 449.766
2501 0 85.1024 10.4697 891 116.759 645.633 450.138
2502 0 91.2045 14.7142 1342 108.962 645.327 448.867
2503 0 93.1995 13.3048 1240 112.031 645.269 448.377
2504 0 96.1283 12.6498 1216 113.828 645.268 443.183
2505 0 99.2632 13.8621 1376 111.153 646.082 445.086
2506 0 100.154 13.2795 1330 113.693 646.156 439.316
2507 0 102.102 12.0369 1229 116.544 646.095 435.623
2508 0 107.134 12.153 1302 114.805 646.422 440.829
2509 0 109.082 15.0346 1640 111.479 646.132 432.365
2510 0 115.115 16.6094 1912 107.416 646.366 437.137
2511 0 118.228 14.7427 1743 111.719 647.17 428.766
2512 0 121.266 14.2414 1727 112.299 648.184 429.467
2513 0 121.156 11.8442 1435 116.926 649.28 424.41
2514 0 124.192 9.17129 1139 122.097 649.598 416.73
2515 0 132.31 15.4863 2049 110.618 649.998 420.393
2516 0 132.31 15.4863 2049 136.257 649.984 420.294
2517 1 141.36 12.5637 1776 115.911 651.347 419.197
2518 1 81.2542 11.9378 970 112.176 651.715 448.269
2519 0 85.2312 14.795 1261 108.94 651.609 446.31
2520 0 90.1782 11.3775 1026 114.68 652.584 445.506
2521 0 91.0802 16.3372 1488 105.875 653.073 451.525
2522 0 92.1849 12.3122 1135 115.653 653.184 444.196
2523 0 96.3094 12.6467 1218 114.364 653.993 446.965
2524 0 100.158 14.1576 1418 113.314 653.067 446.039
2525 0 102.259 11.6763 1194 118.806 653.396 439.387
2526 0 108.175 12.3504 1336 115.241 653.176 449.379
2527 0 112.124 16.7583 1879 109.921 652.456 442.311
2528 0 116.182 14.1416 1643 114.996 652.576 440.774
2529 0 119.246 16.8056 2004 110.93 652.539 443.91
2530 0 122.268 15.9485 1950 112.866 653.242 440.179
2531 0 125.296 12.2909 1540 119.054 652.01 444.137
2532 0 132.363 14.7095 1947 115.967 651.994 440.061
2533 0 133.336 11.5273 1537 122.912 652.01 430.406
2534 0 141.349 12.3453 1745 119.661 651.644 436.151
2535 0 147.676 14.0781 2079 115.213 650.547 434.469
2536 0 150.469 12.7601 1920 119.295 651.151 420.332
2537 0 155.295 12.9818 2016 120.582 650.515 415.886
2538 1 94.3209 9.73273 918 118.37 647.369 454.959
2539 0 95.2646 10.707 1020 115.875 646.775 454.158
2540 0 98.169 11.5413 1133 116.245 646.538 444.778
2541 0 101.229 14.3239 1450 112.783 646.81 444.886
2542 0 104.221 11.6963 1219 116.817 646.325 444.363
2543 0 104.327 13.9849 1459 113.915 646.937 440.798
2544 0 109.308 13.7501 1503 113.283 646.466 443.683
2545 0 113.111 13.0933 1481 116.568 646.521 433.393
2546 0 116.488 12.482 1454 116.781 648.05 435.834
2547 0 120.383 12.8257 1544 118.396 647.369 435.402
2548 0 125.412 12.5187 1570 119.189 647.532 425.335
2549 0 128.574 13.2298 1701 118.329 647.888 428.728
2550 0 129.29 13.7985 1784 116.715 648.123 429.989
2551 0 128.268 9.26187 1188 123.92 648.724 417.294
2552 0 137.284 12.6162 1732 115.405 648.014 417.441
2553 0 142.281 11.2032 1594 117.245 650.334 418.434
2554 0 148.492 12.9704 1926 115.64 649.658 412.641
2555 1 90.4257 9.09033 822 113.592 650.159 446.713
2556 0 92.3004 8.8407 816 116.627 652.39 438.804
2557 0 102.483 11.0164 1129 112.213 652.804 443.842
2558 0 101.601 12.7263 1293 113.237 652.91 441.574
2559 0 103.403 11.5761 1197 116.058 654.536 436.964
2560 0 108.378 12.5487 1360 115.13 654.135 436.103
2561 0 116.635 15.3985 1796 108.951 655.47 439.104
2562 0 115.326 13.5182 1559 114.373 655.25 433.525
2563 0 116.502 13.9226 1622 114.932 655.724 430.322
2564 0 118.391 12.7544 1510 117.672 656.314 430.35
2565 0 126.317 13.1969 1667 116.716 654.63 433.016
2566 0 127.347 15.4381 1966 113.63 655.778 431.626
2567 0 133.335 13.4924 1799 113.956 655.127 439.115
2568 0 138.197 14.928 2063 114.295 655.259 430.537
2569 0 143.335 14.2673 2045 112.695 653.593 433.606
2570 0 146.358 13.3714 1957 116.68 652.73 425.893
2571 1 86.1453 12.1887 1050 113.827 652.773 461.42
2572 0 90.3162 14.4825 1308 109.72 652.724 450.926
2573 0 92.3387 12.779 1180 109.897 652.736 448.871
2574 0 94.2667 12.4858 1177 111.658 652.263 447.934
2575 0 96.2441 11.4293 1100 113.523 651.088 451.532
2576 0 103.276 11.9583 1235 112.218 650.654 452.015
2577 0 104.316 13.8617 1446 109.917 650.465 447.225
2578 0 108.337 12.8304 1390 111.04 650.686 443.782
2579 0 107.377 12.3397 1325 112.584 649.201 438.98
2580 0 109.316 11.1695 1221 115.328 648.93 432.166
2581 0 117.526 11.2486 1322 113.751 649.154 438.733
2582 0 117.243 11.6681 1368 114.167 648.161 436.495
2583 0 123.588 14.4026 1780 109.794 647.762 435.08
2584 0 122.215 12.6743 1549 114.907 647.17 427.584
2585 0 127.379 13.8485 1764 112.808 648.245 425.609
2586 0 130.392 12.3474 1610 115.937 646.691 421.658
2587 0 134.462 15.8409 2130 108.876 647.386 422.061
2588 1 74.0555 5.68493 421 116.074 645.746 450.297
2589 0 80.1559 11.1158 891 105.965 646.753 447.893
2590 0 85.1575 12.2714 1045 109.065 646.308 444.189
2591 0 89.3487 12.1994 1090 109.71 649.347 444.709
2592 0 89.4038 11.7557 1051 111.777 650.534 443.791
2593 0 91.2959 10.0662 919 114.713 650.466 445.937
2594 0 94.2359 11.9169 1123 113.153 650.372 439.255
2595 0 96.4015 14.3774 1386 109.484 651.439 437.76
2596 0 101.282 11.4729 1162 113.795 651.36 437.762
2597 0 99.2421 12.6257 1253 112.781 651.818 431.69
2598 0 108.412 12.7754 1385 111.33 652.497 433.718
2599 0 109.402 13.1899 1443 110.466 652.851 438.761
2600 0 114.506 14.5756 1669 108.341 653.191 433.047
2601 0 123.102 14.622 1800 105.936 653.268 439.782
2602 1 210.839 13.674 2883 110.301 653.518 399.854
2603 0 210.839 13.6692 2882 153.748 655.526 399.617
2604 0 211.658 14.2211 3010 111.328 655.364 393.635
2605 1 131.413 15.1279 1988 107.437 655.353 431.618
2606 0 134.364 15.2869 2054 104.678 655.435 430.777
2607 0 141.422 15.4926 2191 107.014 654.561 428.766
2608 0 141.422 15.429 2182 151.385 654.555 428.709
2609 0 150.262 15.0537 2262 109.172 654.169 419.931
2610 0 155.36 16.0015 2486 105.189 654.661 413.296
2611 0 160.488 15.2597 2449 107.062 654.088 413.605
2612 1 95.1181 10.6079 1009 106.71 654.958 458.06
2613 0 93.1652 11.163 1040 109.677 653.691 450.575
2614 0 101.321 13.0476 1322 107.727 654.29 445.913
2615 0 104.138 12.8003 1333 108.902 653.277 450.935
2616 0 104.138 12.8483 1338 141.472 651.271 450.957
2617 1 114.263 13.7314 1569 107.51 651.641 450.69
2618 0 114.246 12.937 1478 109.901 651.018 446.166
2619 0 119.566 13.6828 1636 110.02 650.161 443.296
2620 0 121.29 13.1173 1591 111.28 649.241 436.839
2621 0 129.308 11.3682 1470 112.075 649.697 436.321
2622 0 132.327 15.0386 1990 108.231 649.19 430.266
2623 0 139.259 16.1928 2255 105.678 648.85 430.821
2624 0 139.214 16.7512 2332 106.19 648.234 424.346
2625 0 144.433 12.6841 1832 111.61 647.922 423.596
2626 0 147.315 11.0104 1622 114.8 647.378 414.569
2627 0 158.469 17.7385 2811 102.343 648.026 424.527
2628 0 160.499 17.1777 2757 103.837 648.573 414.3
2629 0 165.404 14.1714 2344 107.842 647.988 409.239
2630 0 170.342 15.2165 2592 106.671 649.461 404.314
2631 0 176.57 14.8836 2628 105.6 649.123 398.838
2632 0 178.519 12.8614 2296 108.703 649.73 399.072
2633 0 185.275 16.6131 3078 102.507 649.292 386.086
2634 0 192.25 14.4864 2785 107.273 650.31 382.48
2635 0 194.388 14.3939 2798 107.333 649.835 383.505
2636 0 202.352 16.5355 3346 104.192 651.203 384.463
2637 0 206.728 18.4107 3806 102.643 650.601 387.22
2638 0 214.033 14.3296 3067 109.673 650.959 384.024
2639 1 153.536 13.645 2095 108.56 650.489 409.459
2640 0 154.302 12.6376 1950 110.721 652.362 403.596
2641 0 165.513 15.745 2606 104.034 651.641 404.665
2642 1 209.078 19.6099 4100 93.4812 654.009 398.339
2643 0 215.934 12.9716 2801 100.648 654.535 381.351
2644 0 221.836 14.5378 3225 98.6499 654.785 397.64
2645 0 226.966 11.6185 2637 104.644 654.545 376.953
2646 0 237.866 20.8394 4957 94.654 655.118 380.126
2647 0 244.009 13.9872 3413 102.384 653.898 372.343
2648 0 252.091 10.6787 2692 105.236 653.343 376.773
2649 0 260.704 17.9399 4677 100.078 653.024 365.159
2650 1 75.2123 14.7316 1108 85.5379 653.531 470.421
2651 0 72.3149 13.0264 942 90.5456 652.288 468.927
2652 0 79.3037 14.0094 1111 96.2565 650.998 466.671
2653 0 78.1879 9.54112 746 101.607 649.063 462.036
2654 0 79.3488 10.0443 797 100.403 648.188 460
2655 0 83.3839 11.3691 948 98.153 647.576 460.717
2656 0 87.2333 16.0031 1396 92.9434 647.337 460.247
2657 0 87.6325 14.2641 1250 95.264 647.021 461.149
2658 0 89.419 9.75184 872 99.9931 647.072 464.748
2659 0 91.3711 22.436 2050 87.7015 646.179 463.946
2660 0 99.3418 15.5524 1545 95.4764 646.128 449.209
2661 0 99.5795 17.9856 1791 92.703 645.241 457.225
2662 0 101.311 12.8218 1299 100.227 644.602 447.432
2663 0 108.087 18.2168 1969 93.3291 645.402 450.904
2664 0 104.586 14.3518 1501 98.6875 644.629 448.631
2665 0 110.645 14.6505 1621 100.153 645.181 445.508
2666 0 111.645 9.61977 1074 106.335 644.688 443.912
2667 0 115.66 13.8855 1606 101.044 645.33 442.57
2668 0 113.713 18.1334 2062 97.7391 646.316 443.562
2669 0 117.906 11.1699 1317 107.437 645.699 439.56
2670 0 124.822 19.0351 2376 98.2395 647.444 427.503
2671 0 127.555 17.2866 2205 100.322 646.53 426.208
2672 0 135.649 15.4811 2100 103.673 647.13 423.753
2673 0 136.434 13.4497 1835 105.363 647.871 419.47
2674 0 140.414 9.5361 1339 110.179 649.234 412.237
2675 0 140.357 10.3522 1453 108.637 650.595 419.872
2676 1 84.4637 11.8512 1001 104.561 650.92 416.814
2677 0 90.3348 14.4463 1305 99.3103 651.549 433.346
2678 0 92.292 12.8397 1185 103.444 651.513 410.09
2679 0 95.2536 10.1518 967 107.082 653.158 411.562
2680 0 103.353 13.2072 1365 102.01 652.839 415.275
2681 0 103.353 13.2072 1365 142.643 651.82 415.363
2682 0 104.445 15.1658 1584 99.959 654.114 417.756
2683 0 105.35 16.4783 1736 99.5121 654.302 420.656
2684 0 106.418 11.2575 1198 109.188 654.573 407.544
2685 0 113.2 15.8746 1797 99.1074 652.969 424.26
2686 0 113.246 13.3162 1508 104.336 653.48 418.7
2687 0 119.495 13.1386 1570 103.163 653.097 430.169
2688 0 122.416 12.7516 1561 104.961 653.616 428.215
2689 0 126.532 17.782 2250 98.556 653.828 430.985
2690 0 130.298 10.5988 1381 107.021 651.953 430.676
2691 0 134.379 18.0981 2432 98.9996 652.596 427.416
2692 0 141.473 11.7691 1665 106.474 652.586 437.121
2693 1 82.1107 14.1395 1161 100.425 651.019 466.043
2694 0 86.1567 11.6532 1004 103.136 650.138 464.948
2695 0 89.4046 12.9076 1154 104.173 649.301 459.964
2696 0 91.1658 12.6802 1156 104.618 648.934 458.292
2697 0 95.3263 13.459 1283 102.233 648.383 459.171
2698 0 99.3821 18.0113 1790 96.0089 647.922 456.096
2699 0 103.023 28.1005 2895 84.6038 647.168 463.711
2700 0 103.543 21.0637 2181 88.3906 647.38 465.286
2701 0 103.489 15.1127 1564 99.6509 646.478 445.611
2702 0 105.45 8.39257 885 94.5006 645.593 452.026
2703 0 112.422 17.5054 1968 87.2464 645.455 446.63
2704 0 114.819 10.7909 1239 93.3939 645.174 449.868
2705 0 115.467 12.168 1405 93.9616 644.841 440.957
2706 0 120.453 21.8011 2626 86.3343 644.885 433.407
2707 0 122.563 18.6026 2280 87.4566 644.329 449.85
2708 0 124.48 11.5681 1440 98.0132 644.705 437.551
2709 1 183.736 15.5985 2866 95.1012 645.956 413.333
2710 0 188.992 12.1222 2291 97.8363 645.83 408.824
2711 0 184.626 12.9505 2391 98.542 647.144 391.689
2712 0 188.777 13.8947 2623 95.6439 645.662 394.277
2713 1 147.613 14.45 2133 92.4754 646.752 419.808
2714 0 144.381 10.964 1583 98.0032 646.597 404.303
2715 0 151.261 13.8634 2097 96.5484 646.392 400.888
2716 0 159.437 23.238 3705 85.5309 646.422 420.283
2717 0 166.997 16.3655 2733 92.5975 647.631 406.898
2718 0 167.738 19.7748 3317 87.7793 648.641 415.886
2719 1 99.3241 9.51431 945 95.6286 648.061 429.418
2720 0 100.314 13.1088 1315 91.9141 649.146 435.127
2721 0 109.387 16.1811 1770 91.4407 649.54 427.129
2722 0 111.538 12.8387 1432 96.9818 651.579 428.016
2723 0 115.313 13.5717 1565 94.9776 650.452 433.767
2724 0 116.489 11.2543 1311 96.1609 650.552 437.37
2725 0 123.244 13.5017 1664 90.8173 652.038 435.758
2726 0 123.536 11.1628 1379 92.9855 651.456 438.698
2727 0 127.621 12.9524 1653 92.4743 652.953 429.085
2728 0 129.358 9.84094 1273 94.8696 652.892 430.389
2729 0 136.429 16.4774 2248 88.294 653.493 436.351
2730 0 142.439 15.2837 2177 91.5498 653.542 423.74
2731 0 145.287 12.4857 1814 92.8065 652.947 433.671
2732 0 150.427 15.815 2379 89.9071 652.882 431.075
2733 0 153.372 9.38242 1439 96.9423 652.767 421.876
2734 0 159.482 15.1678 2419 92.0178 653.094 423.243
2735 0 163.382 13.9611 2281 93.427 652.542 413.768
2736 0 170.527 12.9422 2207 93.7318 651.49 415.651
2737 0 179.711 16.7102 3003 89.8651 651.306 418.207
2738 0 178.661 14.8605 2655 93.2395 651.139 406.791
2739 0 182.553 11.6624 2129 96.8173 651.08 396.188
2740 0 182.553 11.6679 2130 140.436 652.082 395.709
2741 1 197.113 10.6183 2093 96.7047 648.718 414.194
2742 0 208.08 18.8629 3925 89.8303 647.38 411.976
2743 0 207.72 4.97305 1033 105.963 647.484 385.901
2744 1 8.00406 8.74556 70 74.5286 646.5 489.071
2745 0 14.0222 10.626 149 75.3221 644 486.282
2746 1 39.0822 9.64634 377 80.0424 645.297 476.562
2747 0 43.2184 17.0298 736 77.8832 645.918 477.526
2748 0 45.1919 12.458 563 81.135 645.13 482.744
2749 0 46.2238 8.37231 387 84.509 645.419 483.401
2750 0 45.2857 11.7476 532 83.2199 644.289 477.923
2751 0 46.0459 14.9851 690 83.9101 644.743 476.958
2752 0 47.2517 10.0526 475 88.6737 644.554 478.865
2753 0 48.3104 12.2334 591 87.4619 644.91 476.706
2754 0 47.2698 10.7045 506 96.085 646.291 477.868
2755 0 44.2875 10.4544 463 97.2786 645.544 474.119
2756 0 47.2307 14.715 695 92.5727 647.01 472.963
2757 0 46.0589 13.5479 624 93.1474 646.054 476.42
2758 0 48.071 14.0001 673 94.3016 647.568 472.166
2759 0 48.1121 11.4316 550 96.2273 647.153 474.625
2760 0 45.2253 12.4267 562 97.032 648.719 470.998
2761 0 47.1181 11.6728 550 98.16 649.255 469.638
2762 0 46.1864 11.1288 514 98.3054 649.973 473.128
2763 0 48.0811 14.018 674 95.589 651.733 470.693
2764 0 49.0861 11.4085 560 99.0893 650.791 471.839
2765 0 48.1065 14.1561 681 96.1322 652.414 470.846
2766 0 51.0899 14.6604 749 93.5033 650.813 468.909
2767 0 47.1671 12.4663 588 98.7517 653.257 471.748
2768 0 48.0748 12.3558 594 99.1448 652.049 472.374
2769 0 62.175 22.0024 1368 81.7368 651.537 469.115
2770 0 69.302 24.4582 1695 77.8395 651.369 461.376
2771 0 57.2641 14.4768 829 91.579 651.955 472.641
2772 0 49.1795 10.2685 505 100.495 651.531 474.168
2773 0 50.1477 14.1981 712 95.0351 652.659 479.121
2774 0 49.1406 14.6111 718 94.5446 652.079 478.735
2775 0 48.1518 10.1969 491 101.393 651.961 476.548
2778 0 57.1871 24.5685 1405 82.1843 652.464 479.691
2779 0 61.5584 26.5926 1637 79.5412 652.275 476.208
2780 0 59.9249 29.7038 1780 77.6927 651.418 485.027
2781 0 55.095 21.2905 1173 85.6402 651.537 480.962
2782 0 55.3417 18.3767 1017 87.9607 651.099 476.429
2783 0 62.2591 18.8727 1175 86.0987 650.523 478.334
2784 0 57.1626 16.3918 937 89.7962 649.509 480.953
2785 0 61.4693 27.0054 1660 80.1548 648.599 477.164
2786 0 54.1857 17.9014 970 90.5763 648.911 477.887
2787 0 52.2206 17.0814 892 92.472 648.252 476.861
2788 0 52.2206 16.9091 883 148.98 647.25 476.753
2789 0 52.0646 15.9994 833 92.5018 646.665 480.076
2790 0 54.1403 14.6102 791 93.5651 647.118 476.852
2791 0 53.2933 17.1879 916 90.2336 646.592 477.67
2792 0 55.1584 11.6755 644 96.5093 646.151 476.025
2793 0 58.5522 13.9704 818 92.3056 646.347 472.912
2794 0 55.1713 22.6748 1251 84.8777 645.928 474.193
2795 0 51.0558 11.556 590 97.578 645.556 471.193
2796 0 62.3776 15.0054 936 91.0096 645.847 470.216
2797 0 59.3379 14.5944 866 91.903 646.109 469.045
2798 0 57.2921 11.2406 644 97.4394 646.571 469.547
2799 0 58.2971 15.2838 891 90.1953 647.596 471.668
2800 0 53.0632 14.1529 751 91.7497 648.248 471.965
2801 0 56.4643 13.3713 755 92.5894 647.49 470.425
2802 0 56.0455 23.1062 1295 83.5158 649.245 469.961
2803 0 55.4574 15.7779 875 89.8034 649.269 469.048
2804 0 56.102 15.8996 892 89.0661 650.731 470.814
2805 0 57.2061 16.292 932 89.3916 650.881 469.115
2806 0 56.2105 18.6086 1046 87.4914 651.889 470.376
2807 0 54.1367 10.2518 555 97.9892 652.223 466.074
2808 0 54.1367 10.3257 559 149.072 654.258 466.072
2809 0 55.0856 13.9964 771 93.5759 652.099 467.859
2810 0 57.1947 14.879 851 92.282 652.593 465.347
2811 0 55.1062 16.6769 919 89.9684 653.222 472.522
2812 0 55.0976 16.6613 918 90.39 653.697 470.731
2813 0 52.0677 12.5414 653 96.0015 653.361 471.219
2814 0 57.228 12.3366 706 93.289 653.513 474.303
2815 0 57.1359 17.9222 1024 88.4541 653.884 470.386
2816 0 55.2625 19.8688 1098 85.6867 653.7 477.682
2817 0 55.0734 11.4938 633 94.654 654.664 475.825
2818 0 54.3995 12.0038 653 95.5375 653.838 475.775
2819 0 54.0773 13.7951 746 92.7587 653.941 478.605
2820 0 55.2172 13.7638 760 92.0355 653.338 480.232
2821 0 57.1019 15.0433 859 91.8172 653.112 476.555
2822 0 58.556 15.3358 898 91.0067 652.153 479.929
2823 1 157.823 12.5267 1977 98.6257 653.03 431.833
2824 0 158.227 12.6401 2000 97.0345 653.235 430.54
2825 0 162.176 13.251 2149 96.7371 652.679 433.656
2826 0 163.851 13.3963 2195 98.6633 652.565 422.866
2827 0 173.082 17.9164 3101 92.9687 651.733 418.783
2828 1 112.676 14.7502 1662 93.9868 650.603 445.316
2829 0 116.988 11.779 1378 96.0392 652.122 447.405
2830 0 122.672 14.2412 1747 92.7699 650.963 446.993
2831 0 128.098 13.3726 1713 93.7653 650.357 444.815
2832 0 124.088 15.3762 1908 93.0865 649.829 441.593
2833 0 129.81 28.0103 3636 82.0671 648.933 447.8
2834 0 128.77 17.1003 2202 89.8424 649.114 444.31
2835 1 205.736 16.1129 3315 93.457 648.936 391.91
2836 0 288.729 20.6283 5956 91.223 648.198 345.995
2837 1 219.022 13.8479 3033 96.2568 648.037 386.772
2838 0 227.328 16.3068 3707 93.1211 648.69 393.449
2839 1 57.2419 15.2685 874 87.4737 649.736 471.627
2840 0 58.485 20.3471 1190 81.9597 649.668 472.436
2841 0 58.4651 18.3357 1072 84.6772 651.024 465.2
2842 0 52.1059 10.5746 551 91.0254 649.477 469.737
2843 0 50.2136 10.8935 547 90.894 650.786 467.28
2844 0 50.2136 10.8736 546 140.531 650.81 467.399
2845 0 59.5072 11.4272 680 88.3324 652.684 464.626
2846 0 57.3329 14.9478 857 86.5589 653.475 464.155
2847 0 56.4033 11.4355 645 88.6713 653.135 467.398
2848 0 54.1462 10.564 572 91.4755 654.418 463.575
2849 0 56.2624 16.1031 906 85.3201 654.818 467.299
2850 0 57.713 20.3767 1176 80.5859 656.219 471.007
2851 1 119.541 17.0736 2041 91.1259 655.668 438.727
2852 0 120.807 12.1351 1466 97.5819 655.725 434.201
2853 0 125.206 12.8109 1604 97.1197 656.033 434.123
2854 0 126.026 15.465 1949 96.5059 657.244 431.97
2855 0 126.723 13.6361 1728 98.5498 656.769 429.113
2856 0 132.714 16.0269 2127 94.9915 657.799 431.511
2857 0 136.696 15.7137 2148 94.4837 656.933 435.507
2858 0 136.811 14.5895 1996 96.8367 657.699 432.579
2859 0 138.279 14.4346 1996 96.8186 657.352 432.902
2860 1 96.0331 13.2975 1277 94.2561 657.704 453.374
2861 0 97.7117 12.5267 1224 92.915 658.047 459.399
2862 0 97.574 17.9863 1755 90.4792 657.018 448.619
2863 0 100.792 13.2351 1334 96.3433 656.43 448.714
2864 0 101.891 15.5264 1582 94.3502 656.988 449.185
2865 0 103.632 19.1639 1986 90.351 656.846 455.978
2866 0 112.746 16.6126 1873 90.4303 656.38 459.62
2867 0 106.667 15.1312 1614 94.3371 655.729 449.553
2868 0 106.82 11.29 1206 98.4022 655.309 453.773
2869 0 108.741 12.8286 1395 96.7312 654.062 452.106
2870 1 56.308 14.9357 841 87.3163 653.271 477.681
2871 0 54.1231 14.3192 775 87.2852 653.84 480.151
2872 0 57.3937 10.942 628 89.379 653.545 480.621
2873 0 59.6682 15.7035 937 86.2956 652.937 474.66
2874 0 52.2273 14.0731 735 87.8136 651.45 474.397
2875 0 54.2618 13.4164 728 88.9973 650.453 471.354
2876 0 53.5561 11.2592 603 91.6153 650.892 471.552
2877 0 57.1069 12.1877 696 88.6322 650.517 477.099
2878 0 52.0371 8.43629 439 92.5991 650.166 475.066
2879 1 128.952 13.7338 1771 95.6691 649.46 437.521
2880 0 133.966 20.2887 2718 89.4062 649.185 435.745
2881 0 134.553 12.196 1641 96.2809 650.168 438.613
2882 0 140.017 21.0046 2941 89.0857 649.217 433.305
2883 0 140.05 19.7287 2763 91.3018 650.469 428.849
2884 0 142.182 11.9846 1704 99.6285 649.701 423.724
2885 0 151.442 14.3751 2177 94.8107 651.297 428.685
2886 1 104.441 14.5729 1522 91.4645 650.227 447.185
2887 0 105.297 10.6081 1117 99.2363 650.984 436.518
2888 0 106.54 15.9565 1700 93.9541 651.717 433.469
2889 0 110.563 12.7529 1410 95.8872 650.687 437.911
2890 0 111.533 13.6641 1524 96.4357 651.728 431.652
2891 0 111.684 9.02548 1008 102.05 652.371 426.596
2892 1 54.1568 10.1003 547 91.8611 651.841 460.016
2893 0 53.1109 6.38287 339 94.0944 652.31 471.059
2894 0 53.2634 10.3448 551 92.1107 653.181 457.766
2895 0 54.235 12.1877 661 90.7897 654.157 463.84
2896 0 53.146 11.1203 591 90.7919 654.447 466.816
