time division length width area intensity CMx CMy
0 0 50.0332 13.3112 666 120.276 513.441 470.694
1 0 53.1312 16.2804 865 111.96 513.418 469.46
2 0 51.0936 12.0759 617 124.314 512.656 471.237
3 0 55.0946 14.1393 779 115.182 511.967 470.809
4 0 55.0981 16.6249 916 127.49 512.165 468.882
5 0 59.1256 12.4312 735 117.917 510.714 468.454
6 0 61.1197 16.8685 1031 111.842 510.142 468.695
7 0 64.1256 20.9745 1345 109.707 509.512 465.439
8 0 66.1182 17.015 1125 113.834 508.491 464.167
9 0 65.0853 22.0787 1437 108.709 507.049 459.267
10 0 66.0317 16.7193 1104 118.744 506.726 459.539
11 0 69.1923 15.6376 1082 123.251 505.718 460.792
12 0 73.2218 14.7087 1077 123.69 505.961 460.098
13 0 76.2487 14.6625 1118 122.841 506.191 456.763
14 0 79.1997 20.8965 1655 111.886 505.893 458.636
15 0 81.3306 14.2874 1162 122.149 505.238 453.802
16 0 84.2754 16.8376 1419 114.875 505.066 449.408
17 0 84.1245 14.9421 1257 119.568 505.666 445.29
18 0 89.4795 13.0197 1165 118.827 505.821 450.339
19 0 90.4525 13.0124 1177 120.767 506.461 448.895
20 0 99.2384 12.6665 1257 115.912 505.48 447.329
21 0 96.5533 10.9887 1061 119.365 506.231 439.696
22 1 141.487 12.503 1769 124.614 506.323 418.998
23 1 244.489 37.1387 9080 88.3762 507.142 378.98
24 0 240.751 19.6676 4735 114.711 518.038 366.9
25 1 58.0306 14.7853 858 113.686 519.713 454.463
26 0 59.0503 17.2565 1019 110.216 518.932 452.12
27 0 62.08 17.4452 1083 110.098 518.944 453.617
28 0 64.0856 20.9876 1345 106.65 517.534 448.224
29 0 65.2334 24.2207 1580 101.322 517.356 451.535
30 0 68.1116 15.4746 1054 112.28 518.824 450.132
31 0 69.1421 13.6096 941 115.977 517.512 446.302
32 0 73.1195 15.6866 1147 112.561 518.631 447.279
33 0 75.2757 16.765 1262 112.067 520.166 446.789
34 0 79.4159 16.9362 1345 110.524 520.378 447.207
35 0 82.1849 15.3434 1261 114.121 520.431 448.033
36 0 81.1751 14.0807 1143 115.605 519.778 445.96
37 0 84.158 12.8211 1079 115.56 521.736 449.628
38 0 89.2341 16.4735 1470 111.08 519.682 444.955
39 0 90.3412 11.5451 1043 117.082 520.634 448.065
40 1 46.0603 13.2435 610 108.566 518.569 468.752
41 0 48.043 14.6744 705 107.939 518.401 469.583
42 0 51.1484 15.4453 790 105.946 517.862 467.214
43 0 50.1739 13.2938 667 105.724 517.073 469.97
44 0 54.9159 14.8591 816 102.793 516.016 473.165
45 0 55.0443 13.0804 720 104.558 517.025 469.175
46 0 56.1362 14.6073 820 115.849 515.134 467.245
47 0 57.1554 13.507 772 118.562 514.325 469.188
48 0 61.2521 13.5016 827 116.075 513.2 467.895
49 0 61.1518 12.4935 764 118.308 512.224 470.301
50 0 64.0979 19.2206 1232 112.041 512.459 467.19
51 0 67.1923 14.4064 968 120.224 511.007 463.124
52 0 67.1244 14.0932 946 120.372 510.256 465.892
53 0 74.3464 17.3378 1289 113.784 509.498 463.697
54 0 72.2003 14.7091 1062 120.875 509.587 460.536
55 0 73.1465 12.9876 950 123.916 508.814 457.385
56 0 77.1088 14.2396 1098 119.678 508.485 459.115
57 0 81.1972 15.5917 1266 116.767 508.434 458.423
58 0 83.1221 13.9674 1161 119.594 508.543 454.922
59 0 84.1004 13.6266 1146 120.229 507.719 454.223
60 0 88.1543 15.3594 1354 116.877 507.893 452.596
61 0 92.192 15.2074 1402 115.663 507.774 452.305
62 0 95.0701 14.3999 1369 117.309 506.6 448.025
63 1 51.1491 11.6718 597 117.104 506.095 464.615
64 0 53.0838 11.171 593 117.148 507.395 464.314
65 0 52.2213 12.6002 658 116.524 507.859 461.789
66 0 56.4465 13.6944 773 118.669 507.207 460.338
67 0 56.1017 15.5254 871 111.264 508.044 460.91
68 0 58.1847 11.2572 655 116.678 508.246 460.116
69 0 61.2973 22.448 1376 101.899 508.219 459.018
70 0 63.2652 14.4787 916 112.455 509.872 456.069
71 0 67.3065 13.8917 935 112.503 508.943 455.673
72 0 66.2362 12.9385 857 114.54 509.191 454.603
73 0 69.1567 13.1441 909 114.895 509.661 450.581
74 0 73.2761 13.8654 1016 113.171 510.87 451.882
75 0 76.0941 17.0053 1294 108.587 511.044 452.752
76 0 78.1838 15.2973 1196 116.753 511.843 447.484
77 0 80.4557 12.8021 1030 120.817 511.699 449.659
78 0 83.1338 11.8123 982 121.697 512.033 447.645
79 0 86.1586 14.3572 1237 118.382 512.634 445.74
80 0 87.2066 12.7628 1113 120.596 514.339 446.587
81 0 90.194 11.8079 1065 120.804 515.879 447.004
82 0 97.1483 11.9199 1158 119.429 515.576 445.135
83 0 97.1726 10.8673 1056 120.276 514.991 445.762
84 1 51.2672 10.3965 533 113.304 514.846 469.79
85 0 56.0973 13.9935 785 107.983 513.815 470.234
86 0 56.1817 15.4677 869 109.021 512.441 468.002
87 0 58.227 12.228 712 121.01 511.94 467.629
88 0 63.1504 13.2066 834 118.501 511.116 468.505
89 0 63.1746 12.5842 795 120.091 511.986 468.418
90 0 63.2183 13.746 869 119.405 510.962 465.494
91 0 70.293 14.1266 993 115.699 509.778 468.86
92 0 69.1837 11.4911 795 121.292 510.021 465.957
93 0 72.2663 13.2704 959 119.479 509.461 463.315
94 0 74.2302 12.9462 961 120.133 507.77 463.687
95 0 77.2186 15.346 1185 116.133 508.185 462.957
96 0 77.2333 13.7247 1060 120.534 506.495 460.197
97 0 81.1629 14.2922 1160 119.878 507.553 458.092
98 0 82.1319 14.5619 1196 120.317 506.002 456.79
99 0 86.0736 14.2436 1226 120.529 506.627 456.568
100 0 89.1492 13.326 1188 122.732 507.076 452.386
101 0 92.3295 13.5385 1250 122.383 506.226 451.23
102 0 97.1923 15.9992 1555 118.212 505.595 448.758
103 0 99.201 13.4474 1334 122.893 505.407 444.006
104 0 104.481 14.194 1483 120.605 505.417 444.136
105 1 55.1245 10.7575 593 117.285 505.273 468.494
106 0 55.1103 11.5949 639 118.347 506.354 463.39
107 0 60.1209 15.7682 948 111.386 504.983 460.461
108 0 64.1669 13.8389 888 111.832 505.791 462.366
109 0 66.1504 15.2078 1006 111.776 506.704 457.458
110 0 70.1557 11.7738 826 116.446 507.132 454.109
111 0 69.1585 10.4253 721 120.348 507.544 454.273
112 0 71.1589 11.8186 841 116.282 507.297 455.207
113 0 73.1808 12.5169 916 116.748 507.385 449.764
114 0 76.2197 14.3532 1094 112.984 508.622 447.87
115 0 78.2716 12.5716 984 113.771 506.894 443.854
116 0 83.1989 17.8127 1482 106.451 507.108 446.827
117 0 86.3331 15.1043 1304 108.84 507.576 447.433
118 0 88.311 14.1885 1253 111.729 508.951 442.82
119 0 90.1712 17.9104 1615 107.333 509.122 444.638
120 0 92.3398 12.9738 1198 113.935 510.551 445.043
121 0 98.2206 17.0331 1673 107.35 510.908 443.029
122 0 101.379 15.4273 1564 107.473 511.082 446.87
123 0 100.358 11.0206 1106 116.863 510.524 438.091
124 1 55.055 14.1313 778 107.766 510.968 463.907
125 0 59.1765 11.829 700 108.166 511.229 466.826
126 0 59.1406 11.1767 661 110.511 513.815 465.539
127 0 58.1662 12.5846 732 115.447 513.648 463.399
128 0 61.1173 14.1531 865 112.668 511.979 463.17
129 0 65.1761 17.7672 1158 106.866 513.566 463.172
130 0 67.1471 12.0631 810 114.281 512.086 466.916
131 0 71.8463 17.6349 1267 106.219 511.918 466.618
132 0 71.2438 13.517 963 113.864 510.68 463.015
133 0 72.3321 19.5487 1414 105.339 510.391 465.765
134 0 74.2056 16.4408 1220 110.209 510.732 464.068
135 0 77.1867 12.6965 980 116.302 509.748 461.956
136 0 76.3257 12.9707 990 116.376 509.604 462.386
137 0 79.215 13.659 1082 116.803 506.799 458.444
138 0 84.1831 13.7201 1155 117.02 508.223 457.69
139 0 86.2912 16.4559 1420 113.252 506.025 455.703
140 0 92.2416 16.5652 1528 111.704 506.607 459.233
141 0 90.2582 16.0983 1453 114.471 505.07 454.774
142 0 99.2236 12.9102 1281 118.426 504.534 454.621
143 0 104.332 19.2654 2010 108.047 503.953 453.975
144 0 100.41 12.7278 1278 120.79 503.944 448.014
145 1 54.0459 11.6938 632 117.703 501.584 467.647
146 0 54.0295 11.8269 639 118.003 502.152 465.451
147 0 58.1759 13.5795 790 110.618 503.618 464.514
148 0 58.141 13.0201 757 111.35 502.122 464.073
149 0 62.1366 14.3877 894 111.501 501.925 461.39
150 0 63.0761 16.4563 1038 108.413 500.945 461.496
151 0 66.0871 15.7973 1044 108.302 501.899 462.608
152 0 66.1817 15.805 1046 109.821 501.865 459.74
153 0 69.2556 20.0417 1388 103.805 502.928 454.753
154 0 70.1082 16.6314 1166 109.408 502.993 452.292
155 0 73.1161 12.3913 906 115.317 502.081 453.93
156 0 77.1492 15.982 1233 109.654 503.609 450.762
157 0 77.2433 16.1438 1247 109.806 504.402 450.583
158 0 81.1813 17.5903 1428 107.646 505.417 448.348
159 0 84.2632 17.6233 1485 108.12 505.206 446.036
160 0 84.3318 13.5773 1145 112.721 506.422 450.155
161 0 89.2506 15.9775 1426 110.765 506.518 443.874
162 0 91.1997 14.4189 1315 112.889 507.684 444.626
163 1 51.1092 12.0526 616 115.104 506.265 459.571
164 0 62.1894 14.0056 871 108.383 508.644 462.238
165 0 55.152 12.0576 665 115.23 509.961 462.743
166 0 55.289 14.6865 812 112.408 512.303 460.333
167 0 58.0777 12.9654 753 114.879 512.426 462.003
168 0 62.1489 17.9569 1116 106.763 511.194 461.063
169 0 60.0739 15.1979 913 112.653 511.51 460.007
170 0 61.0962 10.4589 639 120.718 512.052 462.272
171 0 64.3012 16.376 1053 110.989 511.37 462.881
172 0 66.3069 10.9792 728 120.812 511.92 461.262
173 0 69.3649 15.1373 1050 113.798 510.754 462.222
174 0 68.1643 11.663 795 111.747 508.351 468.728
175 0 73.1448 13.2614 970 111.904 509.118 463.118
176 0 73.2373 11.3603 832 112.828 507.983 466.26
177 0 76.1647 9.75518 743 115.042 508.479 463.647
178 0 80.1466 12.9014 1034 111.816 507.549 460.27
179 0 81.2887 12.8923 1048 113.62 506.537 456.854
180 1 42.0753 7.91439 333 114.096 505.973 479.646
181 0 45.0769 14.3533 647 106.513 504.955 477.822
182 0 46.2637 12.4936 578 109.839 505.474 473.088
183 0 61.0085 10.6543 650 106.691 505.498 474.637
184 0 53.6456 14.8009 794 104.082 505.388 471.152
185 0 52.281 14.2499 745 106.529 503.282 468.856
186 0 53.1346 11.9131 633 107.389 502.043 470.088
187 0 51.0962 9.70718 496 110.804 503.141 469.692
188 0 60.2653 12.7602 769 103.704 502.606 471.272
189 0 58.0491 13.0579 758 105.67 501.863 467.26
190 0 58.1305 11.9043 692 106.642 501.379 468.501
191 0 61.1976 13.8567 848 105.363 501.312 464.274
192 0 63.1213 14.0365 886 107.009 501.482 460.524
193 0 63.2728 14.6825 929 106.623 501.681 457.773
194 0 66.2137 13.8491 917 108.02 501.845 457.948
195 0 67.2072 19.3134 1298 101.737 501.659 453.768
196 0 73.1984 17.8556 1307 101.484 502.175 458.087
197 0 73.447 15.1402 1112 106.865 502.129 449.639
198 0 75.5672 13.2465 1001 109.312 503.302 452.158
199 0 74.3884 12.1928 907 111.875 503.768 449.222
200 0 83.2154 16.5714 1379 106.482 504.598 447.872
201 0 81.2988 20.6768 1681 104.195 505.427 441.883
202 0 86.1318 12.9917 1119 113.013 505.501 446.855
203 0 88.2009 14.4556 1275 110.231 505.447 442.574
204 0 88.2518 11.8751 1048 113.215 506.94 442.847
205 0 93.3346 16.6926 1558 106.345 507.009 438.923
206 0 94.2089 14.5634 1372 109.919 508.279 437.994
207 0 100.243 14.7242 1476 107.184 508.32 448.292
208 1 56.1574 11.8773 667 110.988 510.205 463.391
209 0 56.0928 12.0158 674 114.423 510.561 460.116
210 0 60.1568 12.75 767 112.619 511.928 462.538
211 0 60.2587 11.4008 687 114.894 510.776 460.921
212 0 62.1358 14.3074 889 109.794 510.746 464.165
213 0 65.2465 13.1348 857 112.389 511.558 462.53
214 0 67.2082 16.62 1117 106.562 510.569 461.248
215 0 68.2331 16.1652 1103 108.158 510.632 463.445
216 0 70.2258 12.3032 864 115.542 511.163 462.589
217 0 72.2114 17.5457 1267 108.855 509.757 460.995
218 0 74.2965 15.0209 1116 112.869 509.848 461.541
219 0 79.2134 14.2021 1125 115.138 510.145 461.428
220 0 81.172 16.2495 1319 112.521 508.814 461.208
221 0 83.3332 15.204 1267 115.794 508.029 458.717
222 0 86.1161 13.9695 1203 117.098 508.212 460.465
223 0 91.2391 17.4815 1595 112.033 506.831 462.675
224 0 90.3984 13.352 1207 121.307 505.951 457.684
225 0 96.3148 15.0859 1453 119.011 504.123 451.463
226 0 101.47 16.9312 1718 115.107 503.26 453.587
227 1 55.4377 14.3224 794 112.796 503.141 475.887
228 0 56.2214 14.0338 789 112.986 501.231 473.83
229 0 57.3891 11.8489 680 118.297 500.678 470.435
230 0 59.1401 11.7687 696 113.159 501.381 471.422
231 0 60.1151 14.572 876 110.446 501.47 470.226
232 0 64.1613 11.1282 714 112.95 501.05 471.261
233 0 62.1621 12.95 805 112.22 500.621 468.155
234 0 65.2082 14.1393 922 110.96 500.881 466.128
235 0 67.1874 16.6847 1121 105.238 499.853 467.459
236 0 69.236 15.4255 1068 107.609 499.752 465.263
237 0 69.3212 13.7909 956 112.564 500.22 456.695
238 0 71.2573 12.3075 877 113.906 499.994 455.61
239 0 75.1928 13.1396 988 112.6 501.199 450.494
240 0 78.2943 14.9436 1170 110.004 499.332 455.337
241 0 81.2157 14.9232 1212 111.646 501.109 451.01
242 0 83.404 14.6396 1221 110.389 501.247 454.963
243 0 83.4107 15.1299 1262 112.764 500.66 445.843
244 0 88.3356 14.6713 1296 113.856 502.248 443.313
245 0 89.2447 14.1633 1264 115.426 501.983 443.997
246 0 92.1718 13.7352 1266 116.908 504.248 442.406
247 0 97.4461 13.2997 1296 122.299 502.804 441.883
248 0 98.366 11.3962 1121 123.437 503.779 436.536
249 1 54.0101 13.6086 735 108.061 505.884 465.634
250 0 53.333 10.8188 577 113.733 506.036 465.035
251 0 51.0711 10.8085 552 111.944 506.683 468.219
252 0 51.0359 10.8355 553 113.714 507.832 464.512
253 0 54.1293 11.5649 626 113.877 508.181 463.492
254 0 61.1344 12.8406 785 109.746 508.445 462.935
255 0 60.065 14.9338 897 109.278 507.334 462.923
256 0 64.1783 12.3718 794 110.383 508.903 466.388
257 0 62.1098 10.8357 673 114.001 509.254 465.926
258 0 66.0879 13.936 921 111.404 509.161 463.75
259 0 63.0431 11.3732 717 116.609 509.137 463.278
260 0 67.2745 10.6876 719 116.701 509.163 467.416
261 0 71.2203 16.47 1173 108.805 507.175 461.802
262 0 71.2011 16.7273 1191 108.612 507.371 463.812
263 0 74.1827 14.1947 1053 113.143 506.491 466.285
264 0 76.4222 17.5342 1340 110.785 504.372 464.388
265 0 78.142 14.5248 1135 116.693 505.079 462.108
266 0 80.2144 15.9074 1276 113.714 504.111 464.646
267 0 83.3524 13.7489 1146 118.569 504.229 460.367
268 0 85.5365 13.0003 1112 118.184 502.667 464.65
269 0 92.3375 14.9019 1376 115.661 502.662 456.892
270 0 90.2392 12.8215 1157 121.062 501.525 456.246
271 1 49.2057 14.4699 712 116.669 500.125 476.645
272 0 48.283 12.6546 611 121.466 500.445 476.11
273 0 50.1198 13.7271 688 120.336 500.663 472.693
274 0 53.1205 15.4931 823 110.821 499.648 472.609
275 0 54.1272 15.131 819 110.499 500.269 474.126
276 0 56.0818 14.0687 789 112.94 499.847 469.569
277 0 58.2021 16.5114 961 109.355 500.801 468.661
278 0 55.2692 13.4976 746 117.188 500.664 464.796
279 0 60.1577 12.7831 769 116.944 500.065 463.502
280 0 62.1761 18.4315 1146 109.753 499.82 458.877
281 0 67.2481 14.4242 970 113.662 499.487 461.662
282 0 67.3275 13.8873 935 117.116 500.574 458.429
283 0 72.3729 14.3148 1036 114.302 500.5 457.546
284 0 72.3574 16.2527 1176 111.485 501.493 452.184
285 0 75.2116 15.7555 1185 112.186 501.867 454.075
286 0 76.1544 15.1797 1156 115.967 502.562 448.53
287 0 78.2001 18.6317 1457 111.209 502.905 445.014
288 0 84.3112 15.8579 1337 113.095 502.999 449.987
289 0 85.2427 13.3853 1141 124.595 502.72 446.594
290 1 44.0579 11.6211 512 123.148 503.193 464.756
291 0 44.0448 13.4182 591 119.113 503.453 461.668
292 0 48.2484 14.2803 689 113.792 505.807 463.118
293 0 47.1512 13.3825 631 113.9 506.065 464.098
294 0 49.2945 14.0381 692 112.954 507.909 460.103
295 0 51.1728 15.9264 815 109.845 506.74 462.918
296 0 52.1441 13.175 687 114.479 508.245 460.99
297 0 51.228 12.9617 664 117.036 509.133 460.664
298 0 55.1854 12.6483 698 114.59 507.722 464.02
299 0 55.2152 15.9376 880 111.136 509.176 461.141
300 0 58.1747 13.5626 789 113.238 509.063 465.076
301 0 62.1265 16.4181 1020 110.784 508.362 463.479
302 0 62.0572 14.7928 918 113.544 508.459 461.861
303 0 66.1563 13.1356 869 116.169 508.361 462.498
304 0 69.1073 15.7002 1085 112.499 508.065 461.608
305 0 70.1246 17.7398 1244 110.374 508.136 460.35
306 0 72.154 15.5778 1124 115.474 507.815 462.851
307 0 75.1551 13.7316 1032 119.234 506.144 461.524
308 0 79.1024 15.5115 1227 115.651 507.185 460.319
309 0 79.1742 12.883 1020 119.447 505.956 457.505
310 0 85.099 17.2975 1472 111.272 506.357 459.981
311 0 86.4202 14.1981 1227 121.018 505.976 457.152
312 0 89.4651 14.6649 1312 120.012 504.704 455.521
313 0 94.3255 15.8282 1493 117.463 503.925 456.969
314 1 48.0483 13.6113 654 119.466 502.532 475.046
315 0 50.1343 15.618 783 115.466 502.471 473.696
316 0 52.1234 12.432 648 120.156 501.744 474.895
317 0 51.0819 15.25 779 118.488 500.945 468.701
318 0 54.098 18.1153 980 113.424 500.596 468.507
319 0 53.1428 13.8495 736 121.247 499.758 468.621
320 0 56.0585 13.6643 766 121.813 499.432 465.86
321 0 58.039 15.369 892 118.667 499.737 465.508
322 0 60.0364 14.0248 842 121.198 500.189 465.188
323 0 63.1022 18.3195 1156 114.43 500.567 460.557
324 0 64.1414 17.134 1099 117.237 499.97 460.976
325 0 67.155 15.0547 1011 121.435 499.309 456.93
326 0 70.0787 16.0676 1126 119.981 499.676 453.651
327 0 71.2483 13.9933 997 126.028 500.574 450.352
328 0 75.3006 15.0464 1133 122.032 500.747 450.352
329 0 77.1813 13.5914 1049 125.24 501.931 448.975
330 0 81.1138 14.6091 1185 123.757 501.784 446.449
331 0 83.2357 14.8854 1239 123.943 503.269 440.99
332 1 45.0614 14.4248 650 118.08 502.526 464.997
333 0 45.1628 8.90114 402 117.177 504.139 458.005
334 0 44.0727 11.481 506 118.787 504.856 454.69
335 0 45.0233 12.2159 550 116.065 505.376 459.804
336 0 48.2071 11.5128 555 117.326 506.499 457.551
337 0 50.1658 13.1564 660 114.491 506.202 455.306
338 0 51.1637 12.3721 633 117.147 507.142 454.765
339 0 52.2008 12.6052 658 116.685 508.065 454.248
340 0 56.2446 11.6989 658 117.755 507.479 453.862
341 0 59.0998 14.8901 880 111.34 509.59 456.756
342 0 59.0307 12.6036 744 116.747 509.06 454.272
343 0 58.3229 10.3904 606 121.875 508.216 451.992
344 0 61.0602 10.9073 666 120.33 510.589 453.757
345 0 64.1231 10.7606 690 120.329 510.629 455.506
346 0 69.3648 13.7534 954 120.266 509.998 455.903
347 0 73.1785 13.8839 1016 119.298 511.468 460.143
348 0 75.4011 11.724 884 124.042 510.672 456.592
349 0 78.3031 11.2001 877 123.64 511.283 461.309
350 1 40.1659 11.0043 442 120.545 510.934 475.502
351 0 41.1225 11.0402 454 121.154 510.282 474.447
352 0 44.167 11.8641 524 120.053 509.87 476.107
353 0 48.1349 12.7974 616 117.149 509.13 475.735
354 0 48.0534 14.6504 704 110.462 509.05 473.322
355 0 48.0984 14.1585 681 112.186 507.84 474.129
356 0 50.208 13.3046 668 112.846 507.861 473.18
357 0 52.0366 13.1638 685 109.942 506.136 472.774
358 0 53.1085 11.1658 593 114.83 506.29 472.86
359 0 54.0824 11.1681 604 114.27 505.167 471.361
360 0 55.1257 15.9454 879 110.42 504.412 468.747
361 0 57.249 14.2361 815 112.036 505.423 466.633
362 0 58.2529 12.5144 729 114.018 505.661 465.503
363 0 60.3581 12.7241 768 112.569 504.997 467.03
364 0 54.3286 8.90875 484 120.607 504.595 462.124
365 0 65.2929 12.5741 821 113.676 504.358 461.541
366 0 67.2731 13.6756 920 111.318 504.785 460.721
367 0 67.511 12.7238 859 114.932 504.554 457.724
368 0 74.4084 16.3691 1218 108.197 504.893 456.365
369 0 72.5176 12.4521 903 115.076 504.887 451.804
370 0 78.3514 11.1676 875 116.234 505.183 450.225
371 0 79.2846 13.1551 1043 113.918 506.038 444.842
372 0 82.5967 12.1312 1002 114.936 505.476 445.878
373 1 42.4688 9.81897 417 115.355 506.216 463.547
374 0 48.2206 10.4312 503 113.555 507.217 461.445
375 0 46.3204 13.2339 613 110.403 507.44 462.044
376 0 45.1857 16.5539 748 104.437 505.503 457.144
377 0 50.5786 13.9782 707 106.181 505.38 463.595
378 0 51.18 14.5956 747 107.059 506.548 458.373
379 0 49.077 10.453 513 115.875 507.977 457.48
380 0 52.1839 11.9002 621 114.667 507.924 459.38
381 0 54.101 11.7373 635 115.395 509.013 458.701
382 0 54.212 12.9676 703 113.122 510.552 459.206
383 0 57.3853 10.2465 588 117.054 511.16 455.037
384 0 62.3352 14.6466 913 110.027 511.444 459.416
385 0 64.7688 14.1889 919 110.013 510.951 460.751
386 0 63.2125 13.0038 822 114.186 511.606 458.401
387 1 135.576 9.82474 1332 119.345 512.65 434.628
388 0 140.643 13.7583 1935 116.168 513.12 419.347
389 1 73.2355 14.4739 1060 111.26 512.025 457.612
390 0 73.157 22.4449 1642 100.558 511.285 460.805
391 0 71.1684 10.6929 761 116.011 512.135 455.586
392 0 82.1925 14.0159 1152 112.153 511.075 454.601
393 1 170.64 18.2724 3118 107.338 511.714 423.173
394 0 167.53 7.68816 1288 122.717 510.441 427.588
395 1 133.681 14.6542 1959 114.631 510.88 427.361
396 1 50.1536 15.0936 757 103.33 510.513 472.658
397 0 47.2838 10.5956 501 115.317 510.808 470.679
398 0 51.0844 18.6554 953 101.319 509.574 472.648
399 0 51.0793 12.8428 656 110.823 508.329 468.404
400 0 56.1817 13.2249 743 107.93 507.556 471.756
401 0 55.1289 12.1171 668 113.081 507.834 466.036
402 0 57.1087 15.8119 903 109.236 505.432 470.919
403 0 60.0743 11.5524 694 113.202 503.467 473.575
404 0 61.1759 13.2078 808 114.325 503.069 468.246
405 0 65.1554 14.7494 961 112.733 501.964 462.841
406 0 68.2472 13.7881 941 113.173 502.173 462.111
407 0 71.1789 14.8359 1056 112.602 501.748 461.126
408 0 67.154 11.213 753 121.255 502.316 459.818
409 0 73.2777 14.6156 1071 116 501.174 457.93
410 0 79.383 15.885 1261 113.354 501.38 454.979
411 0 80.2092 13.1282 1053 118.963 500.541 452.76
412 1 46.0749 11.286 520 121.771 499.713 468.423
413 0 50.2295 12.2239 614 118.472 501.015 465.384
414 0 46.0803 11.6536 537 117.594 502.579 461.788
415 0 47.1085 10.2317 482 119.793 502.786 460.255
416 0 47.1085 10.2741 484 139.992 502.775 460.316
417 0 50.09 12.0782 605 118.807 503.729 455.783
418 0 54.2061 12.5447 680 118.451 504.571 454.406
419 0 55.3612 14.4144 798 112.18 506.455 456.452
420 0 57.05 13.8124 788 122.181 505.787 459.042
421 0 63.735 13.6189 868 120.751 505.885 458.988
422 0 60.0872 16.2264 975 120.086 507.384 454.466
423 0 62.2586 13.3636 832 124.554 508.025 453.786
424 0 64.1219 18.7767 1204 115.15 507.627 456.72
425 0 65.138 13.7093 893 125.292 508.127 455.237
426 0 68.1152 13.9763 952 124.747 510.423 453.407
427 0 71.1657 14.5295 1034 123.13 510.814 453.505
428 0 72.1205 14.5035 1046 123.807 510.517 450.646
429 0 78.6104 21.1168 1660 109.408 510.808 456.122
430 0 76.2093 15.2737 1164 122.415 511.107 448.753
431 0 81.336 15.1593 1233 120.799 511.167 450.746
432 0 81.2772 15.0473 1223 120.884 511.075 453.564
433 0 87.1516 15.1919 1324 118.968 511.382 455.348
434 0 90.4918 14.5759 1319 120.97 511.424 451.415
435 1 47.0812 13.4024 631 118.006 510.914 472.298
436 0 47.0742 10.2604 483 124.474 510.621 471.892
437 0 51.1213 13.8103 706 109.524 509.928 478.646
438 0 50.2644 10.206 513 119.205 509.784 474.509
439 0 53.0945 12.8262 681 118.601 508.905 473.319
440 0 56.1206 14.5045 814 112.828 508.158 474.152
441 0 60.0619 14.1521 850 113.002 507.786 466.092
442 0 59.3173 12.037 714 113.489 508.056 469.246
443 0 64.197 14.6424 940 109.276 507.146 467.106
444 0 65.1296 15.5383 1012 106.242 506.529 470.438
445 0 66.2032 8.94216 592 116.142 506.976 466.949
446 0 68.2056 13.1661 898 109.095 505.633 466.247
447 0 73.3102 15.0729 1105 106.499 505.383 456.532
448 0 74.2295 13.8355 1027 107.668 504.957 459.187
449 0 75.37 13.0158 981 110.261 504.456 457.471
450 0 79.1794 16.9489 1342 104.343 505.051 458.596
451 0 81.2873 15.0085 1220 108.1 504.29 452.733
452 0 84.2051 11.6026 977 111.698 505.257 452.78
453 0 89.2242 15.4891 1382 105.408 504.593 451.042
454 0 90.1301 18.4289 1661 102.262 504.892 449.842
455 0 91.2107 14.154 1291 109.831 505.001 444.918
456 0 91.2107 14.0773 1284 128.894 505.016 444.855
457 0 97.4515 14.0275 1367 111.066 505.098 438.431
458 0 97.4232 9.39202 915 117.2 504.992 439.333
459 0 106.612 16.2552 1733 107.221 505.432 436.349
460 0 110.467 13.271 1466 111.871 505.687 435.51
461 0 114.832 13.4719 1547 109.582 506.422 438.195
462 1 176.886 15.1341 2677 110.003 506.356 409.867
463 1 62.105 9.80597 609 114.089 506.521 454.345
464 0 62.105 9.67716 601 137.651 505.524 454.554
465 0 69.6423 13.5981 947 109.531 507.091 448.155
466 0 70.3107 13.0563 918 108.52 509.121 448.366
467 0 76.2776 12.6905 968 107.97 509.217 456.465
468 0 81.1 21.4427 1739 94.9902 509.35 459.4
469 0 80.2093 11.1957 898 110.645 510.449 452.832
470 0 84.1699 19.9002 1675 98.1003 510.226 447.315
471 0 85.0943 11.4109 971 109.625 511.591 450.557
472 0 89.2763 15.48 1382 102.719 511.292 452.542
473 0 92.2356 11.8176 1090 108.951 510.772 447.18
474 0 94.1778 14.2921 1346 105.077 510.607 452.246
475 0 98.267 11.2143 1102 105.083 510.94 450.507
476 0 101.215 12.7155 1287 104.005 508.267 449.865
477 1 50.0778 11.8416 593 104.622 507.479 475.341
478 0 57.0642 13.6864 781 97.6069 509.164 478.588
479 0 54.2526 14.7274 799 97.9687 506.955 475.927
480 0 56.2643 15.3383 863 94.8772 508.425 481.983
481 0 56.0871 9.32478 523 104.019 505.262 481.488
482 0 55.2371 12.0571 666 102.23 504.722 477.17
483 0 58.196 12.2173 711 102.217 504.501 479.384
484 0 58.0939 14.2184 826 99.5387 503.079 478.642
485 0 59.3115 8.75041 519 106.316 502.651 474.318
486 0 63.08 9.27394 585 104.398 500.889 477.506
487 0 65.0934 8.86419 577 104.761 500.919 472.867
488 0 71.2295 11.7086 834 99.8669 500.73 475.796
489 0 72.2262 11.104 802 101.1 499.646 472.627
490 0 70.0686 13.1157 919 100.473 498.628 464.798
491 0 78.1774 15.6567 1224 95.9763 499.547 470.105
492 0 78.4046 15.5348 1218 97.9598 498.851 462.821
493 0 83.5201 15.4574 1291 96.6995 498.919 467.68
494 0 85.2415 10.6756 910 103.882 497.277 463.833
495 0 88.3067 16.7485 1479 97.5808 497.145 459.877
496 1 143.565 16.1808 2323 101.075 497.444 428.999
497 0 147.509 17.1922 2536 98.7989 497.166 429.803
498 1 90.2736 11.8529 1070 104.164 496.514 443.187
499 0 92.1507 11.8719 1094 103.792 496.003 448.512
500 1 154.814 11.4137 1767 107.154 498.348 417.466
501 0 159.706 15.2718 2439 101.95 498.679 421.288
502 0 166.713 14.288 2382 104.911 499.851 417.042
503 1 106.3 13.0386 1386 102.15 501.302 446.84
504 0 109.351 15.6376 1710 103.804 501.71 437.372
505 0 115.35 14.5557 1679 103.06 501.594 439.48
506 0 116.528 14.0138 1633 105.263 503.424 431.934
507 0 119.656 19.5143 2335 99.6976 503.427 434.796
508 0 117.369 15.021 1763 104.625 504.677 436.78
509 1 61.2476 8.80035 539 106.432 504.957 464.276
510 0 68.3135 17.1708 1173 96.4373 505.612 462.096
511 0 75.074 16.8101 1262 95.546 506.868 461.885
512 0 70.1433 13.3156 934 102.773 506.946 455.832
513 0 75.1153 14.7507 1108 100.421 508.286 457.073
514 0 77.1437 13.5202 1043 103.153 507.748 452.805
515 0 82.2348 17.4014 1431 96.7477 507.581 457.191
516 0 91.7262 13.2895 1219 99.9918 508.992 459.01
517 0 88.1512 20.8052 1834 93.2334 508.71 461.116
518 1 49.0653 16.4475 807 96.2689 510.042 476.9
519 0 46.1762 9.50707 439 106.169 509.891 477.567
520 0 46.1762 9.48542 438 156.315 509.927 477.571
521 0 55.4317 12.8446 712 102.584 508.438 478.076
522 0 51.5073 14.5416 749 102.889 508.502 477.676
523 0 52.5038 13.0467 685 104.87 507.651 478.531
524 0 54.7534 11.6522 638 107.102 506.884 477.277
525 0 58.3017 16.0373 935 99.6674 507.671 481.374
526 0 55.3348 15.1261 837 104.934 506.599 474.677
527 0 60.3532 15.6578 945 100.357 505.675 481.504
528 0 60.2961 18.9564 1143 98.7682 504.086 478.794
529 0 69.8474 16.4931 1152 100.241 503.664 475.859
530 0 63.2749 12.4852 790 108.516 501.963 475.001
531 0 65.209 13.5104 881 108.49 499.485 470.759
532 0 71.5847 19.4176 1390 99.4014 499.676 468.63
533 0 71.2729 13.1747 939 107.752 498.748 468.969
534 0 71.3179 12.4513 888 109.732 498.066 464.685
535 0 75.418 14.0417 1059 107.763 498.753 465.816
536 0 76.4635 11.1818 855 110.936 498.283 464.821
537 0 79.3396 12.4528 988 109.448 497.704 459.648
538 0 81.5051 10.6619 869 112.306 498.177 459.673
539 0 88.698 13.9913 1241 107.319 498.387 456.459
540 1 48.227 11.2178 541 105.501 499.54 476.924
541 0 49.3766 11.9692 591 103.533 496.577 474.457
542 0 48.4347 12.5943 610 104.782 496.192 468.287
543 0 56.7104 16.9986 964 97.8371 499.974 472.585
544 0 52.31 15.0067 785 102.045 501.127 469.424
545 0 54.2503 13.8248 750 104.569 501.217 468.268
546 0 56.4025 13.315 751 103.418 501.995 469.031
547 0 58.3226 16.5287 964 101.226 500.57 462.092
548 0 61.597 13.702 844 103.564 502.199 463.517
549 0 61.9624 18.2046 1128 98.6356 502.624 460.901
550 0 62.1262 13.1989 820 104.51 503.113 464.078
551 0 62.2372 11.9382 743 105.72 505.013 464.069
552 0 68.7617 17.3789 1195 99.7757 504.866 458.145
553 0 68.3158 13.2619 906 105.443 503.892 460.629
554 0 74.2535 16.8477 1251 100.394 504.617 458.261
555 0 73.6351 12.9558 954 106.992 505.071 459.418
556 0 72.4786 13.4385 974 107.373 505.992 457.594
557 0 77.5253 14.7952 1147 105.126 507.287 456.227
558 0 81.7115 15.1141 1235 104.245 507.649 460.343
559 0 80.3228 12.5245 1006 109.413 506.839 456.349
560 0 85.4831 14.0496 1201 106.689 507.096 459.539
561 0 87.3507 12.135 1060 110.575 507.875 458.24
562 0 91.3679 15.2789 1396 106.39 507.636 454.317
563 0 95.3711 15.4344 1472 105.454 507.998 455.279
564 1 52.3123 10.5138 550 108.816 508.2 479.491
565 0 54.2786 15.8995 863 100.9 507.305 477.61
566 0 56.3186 9.83688 554 101.702 505.608 478.531
567 0 59.4203 11.3598 675 98.8193 504.61 480.585
568 1 110.308 10.661 1176 108.403 505.749 453.266
569 0 120.572 15.6421 1886 102.408 505.257 450.823
570 0 119.192 8.80929 1050 112.428 504.802 443.752
571 1 65.416 11.618 760 102.703 503.583 472.945
572 0 66.2007 10.725 710 105.423 503.959 475.528
573 0 69.0791 14.3024 988 101.959 503.21 471.659
574 0 72.2368 16.7782 1212 99.0239 502.246 468.516
575 0 73.212 13.2082 967 103.711 502.269 472.658
576 0 76.2091 14.1453 1078 104.784 501.365 468.429
577 0 77.2916 14.8917 1151 105.484 501.399 463.312
578 0 79.2131 7.78911 617 113.632 502.023 467.139
579 0 83.2242 12.22 1017 109.016 501.457 464.073
580 0 88.2196 16.1529 1425 104.284 501.667 460.467
581 0 89.2766 12.9485 1156 110.532 501.557 454.964
582 0 90.2013 15.6206 1409 108.021 501.189 455.224
583 0 95.2108 20.838 1984 100.66 500.541 456.467
584 0 101.546 14.9391 1517 107.678 501.972 451.237
585 0 98.336 15.8741 1561 108.692 501.631 447.351
586 0 101.549 13.5205 1373 110.741 500.749 444.605
587 0 104.614 14.4818 1515 109.873 501.494 440.731
588 0 110.648 13.6198 1507 110.026 502.999 438.875
589 0 111.738 12.3235 1377 112.925 502.422 437.215
590 0 115.496 12.7623 1474 113.193 502.645 434.17
591 1 64.311 12.1752 783 106.716 503.203 462.72
592 0 64.3143 13.0764 841 106.923 503.671 462.347
593 0 68.1809 14.4615 986 104.035 503.238 460.698
594 0 68.307 13.1173 896 107.041 504.864 459.599
595 0 71.2443 12.2536 873 108.126 505.45 459.388
596 0 72.2731 14.805 1070 106.5 505.612 456.158
597 0 73.2653 12.8437 941 110.289 507.612 455.863
598 0 76.2011 14.0549 1071 108.502 508.074 456.97
599 0 84.7184 17.446 1478 102.277 507.926 457.984
600 0 81.6021 13.3943 1093 110.908 507.754 453.051
601 0 85.5242 14.0194 1199 109.549 507.791 450.774
602 0 87.5553 14.1625 1240 109.69 508.349 447.848
603 0 105.648 20.6251 2179 96.5493 506.796 458.449
604 0 94.77 15.0681 1428 109.553 507.932 450.643
605 0 96.6811 16.632 1608 107.823 507.883 450.285
606 0 105.061 17.2662 1814 104.228 507.478 453.8
607 0 105.957 14.3831 1524 109.635 506.413 449.052
608 0 107.88 12.3656 1334 113.187 507.136 449.601
609 1 60.627 12.6511 767 108.438 505.529 472.282
610 0 61.2035 13.7084 839 110.175 507.15 472.348
611 0 63.2137 15.0759 953 109.12 506.705 472.872
612 0 65.2773 13.8639 905 111.623 507.16 473.339
613 0 66.2899 11.5251 764 116.703 506.492 470.983
614 0 69.4948 12.0729 839 116.882 506.209 471.286
615 0 69.3041 12.2359 848 116.164 505.14 470.715
616 0 72.2148 19.7328 1425 104.441 504.744 473.66
617 0 77.3731 13.0795 1012 115.376 503.523 467.14
618 0 78.3571 12.9025 1011 117.16 503.011 461.698
619 0 80.2646 12.8201 1029 116.108 501.879 463.654
620 0 83.3024 17.6225 1468 110.031 501.699 456.585
621 0 87.3009 15.8303 1382 112.64 501.119 456.833
622 0 89.3607 14.4806 1294 115.403 500.52 456.479
623 0 93.4519 14.8205 1385 115.201 500.936 453.795
624 0 95.6292 12.9772 1241 118.188 500.537 455.243
625 1 53.0806 11.4543 608 116.214 500.465 471.556
626 0 56.1196 14.6651 823 107.298 500.219 468.412
627 0 58.3289 13.3553 779 108.678 499.087 468.211
628 0 57.0853 11.9996 685 107.629 499.543 469.128
629 0 58.1645 11.2096 652 108.569 498.715 465.613
630 0 61.1662 11.8529 725 107.41 500.021 463.561
631 0 64.0596 15.9071 1019 102.033 500.71 462.83
632 0 65.2091 14.5839 951 104.063 502.145 460.515
633 0 68.2484 18.0077 1229 100.347 500.975 460.212
634 0 68.1434 17.8154 1214 100.484 502.457 457.902
635 0 71.1662 15.0212 1069 103.841 502.237 456.582
636 0 73.2157 12.6476 926 106.822 503.213 451.711
637 0 75.3251 13.4616 1014 106.369 503.191 450.67
638 0 77.1365 10.812 834 110.113 504.061 454.603
639 0 81.4477 13.5915 1107 106.648 504.017 451.142
640 0 84.3348 14.9642 1262 105.055 505.177 446.52
641 0 84.3348 14.7863 1247 117.127 505.17 446.467
642 0 88.2793 12.6757 1119 108.371 507.217 450.097
643 0 93.2585 13.2213 1233 108.304 506.676 446.762
644 0 95.4295 16.6615 1590 104.914 507.145 444.47
645 0 98.1997 13.7068 1346 109.378 507.282 443.114
646 0 102.364 10.3943 1064 113.013 506.534 448.289
647 0 107.188 11.8856 1274 111.097 507.011 441.925
648 1 55.1758 11.0012 607 108.715 506.236 472.241
649 0 58.184 11.7214 682 108.893 505.889 469.941
650 0 60.1365 15.681 943 102.406 505.902 467.961
651 0 61.1488 11.6437 712 108.628 505.402 471.906
652 0 65.2186 13.7997 900 104.58 505.606 474.378
653 0 66.178 14.7632 977 104.527 505.26 467.947
654 0 67.0914 13.1463 882 107.183 505.468 467.609
655 0 69.0947 12.6204 872 107.767 504.092 468.719
656 0 73.1493 15.9537 1167 103.039 504.223 467.493
657 0 74.131 14.4204 1069 105.786 504.112 469.551
658 0 77.2049 12.8878 995 109.238 503.146 467.205
659 0 75.1739 11.5998 872 111.253 503.368 469.851
660 0 80.1506 16.6561 1335 104.981 501.494 466.887
661 0 83.1817 11.9257 992 112.131 500.989 462.79
662 0 86.167 11.5706 997 113.193 500.367 461.973
663 0 89.3668 10.1156 904 115.11 500.258 460.369
664 0 92.3267 12.5749 1161 110.16 499.429 463.349
665 0 95.2411 12.4526 1186 112.73 499.965 454.916
666 0 101.433 12.1854 1236 113.186 499.698 453.29
667 0 99.2387 12.9788 1288 112.83 500.009 450.526
668 0 105.46 17.8456 1882 107.095 499.699 442.543
669 0 106.313 12.529 1332 110.716 500.849 439.225
670 0 108.473 10.8598 1178 106.602 501.288 433.967
671 0 112.371 11.1417 1252 106.17 500.452 433.29
672 0 114.912 8.96335 1030 109.189 500.549 449.221
673 1 63.5929 16.6528 1059 96.5798 500.269 464.964
674 0 64.3633 13.7345 884 98.3801 500.336 469.074
675 0 63.4584 11.5351 732 102.257 501.493 466.836
676 0 66.0956 10.9236 722 105.183 501.778 460.205
677 0 67.1854 12.3539 830 103.87 502.64 457.798
678 0 70.1192 11.9939 841 103.3 502.832 459.222
679 0 71.5459 8.84747 633 101.1 504.758 468.316
680 0 76.2078 14.6179 1114 101.066 504.228 454.319
681 0 78.0834 15.3682 1200 101.622 506.352 451.128
682 0 79.1762 10.8997 863 107.438 506.789 451.053
683 0 81.3804 13.8608 1128 105.084 506.086 446.158
684 0 83.5772 11.1514 932 106.827 507.206 452.587
685 0 85.1981 10.411 887 110.887 508.158 445.971
686 0 92.604 14.4594 1339 108.539 507.507 441.826
687 0 94.5408 16.6277 1572 105.735 507.875 445.099
688 0 96.7005 12.0372 1164 113.197 507.341 445.058
689 0 101.432 16.1684 1640 107.659 507.551 444.763
690 0 106.953 13.2769 1420 111.971 507.328 441.754
691 0 109.351 14.6592 1603 110.17 505.934 439.255
692 1 54.5861 12.6039 688 104.507 506.004 473.612
693 0 57.6896 11.0592 638 107.904 506.036 468.608
694 0 60.094 11.9147 716 106.244 506.804 474.797
695 0 61.1774 17.0324 1042 100.636 506.333 473.84
696 0 63.3339 11.3841 721 106.272 506.94 474.925
697 0 66.3682 11.5718 768 104.629 507.008 475.695
698 0 70.235 14.7647 1037 103.714 506.381 469.109
699 0 71.1516 9.33218 664 110.905 504.667 469.002
700 0 74.2596 10.975 815 107.658 505.795 469.196
701 0 79.0987 14.3112 1132 104.489 504.762 465.59
702 0 81.2465 12.7636 1037 106.126 503.824 464.814
703 0 88.5431 13.293 1177 103.037 504.003 469.116
704 0 83.3111 11.0669 922 108.797 502.115 463.551
705 0 89.3982 14.6535 1310 105.068 501.737 457.501
706 0 90.4094 17.9627 1624 98.6521 502.022 465.554
707 0 96.452 14.7431 1422 104.967 501.837 456.742
708 0 93.3343 8.42134 786 112.715 501.401 454.678
709 0 98.3887 11.048 1087 111.11 501.364 447.975
710 1 57.3318 11.2503 645 105.147 501.944 469.563
711 0 61.4753 15.6648 963 99.4569 501.889 470.891
712 0 66.345 16.0675 1066 98.4672 502.139 471.05
713 0 62.1928 12.9436 805 103.591 499.883 467.086
714 0 64.3296 11.1768 719 105.389 499.26 467.043
715 0 67.1567 20.5638 1381 94.3519 498.894 461.072
716 0 66.2401 13.3907 887 103.37 499.976 460.812
717 0 74.2385 12.3521 917 102.513 499.612 465.161
718 0 76.292 12.6226 963 103.876 499.571 459.678
719 0 76.2193 13.776 1050 102.316 499.08 461.349
720 0 75.1976 10.612 798 107.43 500.472 458.591
721 0 78.1801 13.9933 1094 105.611 501.858 458.281
722 0 77.1263 13.1473 1014 108.192 502.308 454.726
723 0 81.209 12.8557 1044 109.212 502.661 451.147
724 0 85.2259 13.74 1171 108.118 504.009 452.736
725 0 90.2974 13.0236 1176 108.079 504.324 456.821
726 0 91.2948 13.5386 1236 109.464 504.761 452.08
727 1 48.0781 12.8541 618 109.782 504.558 473.023
728 0 50.0831 13.6573 684 110.602 505.879 473.089
729 0 49.1447 10.4386 513 120.565 506.238 472.743
730 0 56.09 12.3908 695 114.714 504.999 474.555
731 0 57.0595 14.8617 848 110.439 505.139 475.637
732 0 53.0336 11.2193 595 120.476 505.067 472.827
733 0 59.1098 17.0361 1007 108.708 506.337 473.681
734 0 60.0664 14.9501 898 113.834 505.335 474.9
735 0 60.1121 12.8094 770 118.901 505.166 471.583
736 0 64.0642 12.8309 822 116.929 505.229 474.028
737 0 63.1422 11.2286 709 120.825 505.687 475.285
738 0 66.2086 12.6117 835 119.435 505.477 470.308
739 0 68.1511 14.9814 1021 114.936 504.008 469.631
740 0 71.1467 15.2783 1087 114.487 504.962 466.626
741 0 76.1229 16.6967 1271 110.93 503.933 469.645
742 0 75.1683 15.9642 1200 113.482 504.444 467.732
743 0 79.2654 13.3476 1058 117.595 502.744 464.265
744 0 82.0799 16.0941 1321 113.028 501.668 464.664
745 0 88.3699 13.9527 1233 108.645 503.749 469.591
746 0 82.0895 8.90492 731 118.068 503.261 463.947
747 0 86.2073 12.6671 1092 112.935 503.562 459.067
748 1 47.105 12.8649 606 110.271 503.86 481.328
749 0 47.0321 11.0988 522 114.284 504.199 479.665
750 0 48.0803 12.9783 624 112.806 504.104 477.151
751 0 46.119 10.0826 465 109.308 501.697 471
752 0 46.1071 11.4299 527 109.391 499.539 475.199
753 0 51.1989 10.3127 528 111.682 499.299 476.208
754 0 53.1784 16.8113 894 100.535 500.478 478.148
755 0 53.1784 16.9242 900 103.752 502.419 478.121
756 0 47.0536 13.3677 629 108.704 499.754 470.8
757 0 55.1172 9.68844 534 112.53 500.674 469.766
758 0 57.168 11.2825 645 109.136 501.045 468.033
759 1 120.486 12.8397 1547 115.467 503.173 434.217
760 0 124.425 12.2323 1522 115.545 503.025 436.503
761 0 127.493 10.0241 1278 120.296 504.042 428.204
762 0 133.501 9.01868 1204 119.556 503.952 433.699
763 0 136.547 10.7728 1471 118.933 504.858 423.046
764 0 141.592 11.6602 1651 117.893 505.904 418.478
765 0 149.487 13.4593 2012 114.004 506.125 424.45
766 0 153.832 10.921 1680 118.824 505.87 423.279
767 1 78.3833 13.4722 1056 106.325 505.554 457.215
768 0 82.2685 13.383 1101 107.164 506.243 457.589
769 0 84.307 10.0822 850 112.232 507.133 457.184
770 0 87.2989 10.7332 937 111.298 507.577 458.961
771 0 89.304 10.1227 904 111.201 507.709 457.037
772 0 94.3355 10.7701 1016 112.131 507.657 453.842
773 0 98.5486 9.51815 938 113.53 508.714 452.247
774 1 50.3133 11.7663 592 111.184 507.414 471.52
775 0 53.3846 10.4525 558 113.21 506.679 472.948
776 0 54.1089 13.3065 720 107.119 507.118 474.001
777 0 57.1473 14.1039 806 104.969 506.242 474.46
778 0 54.1618 9.13928 495 112.659 506.541 481.192
779 0 57.0679 12.3537 705 111.233 506.426 475.515
780 0 56.1072 12.4761 700 111.56 506.203 477.157
781 0 61.3284 11.2346 689 114.697 506.546 476.974
782 0 63.2242 13.7764 871 112.176 506.259 474.566
783 0 65.2164 10.9635 715 115.801 506.124 476.783
784 0 71.3656 14.6709 1047 108.681 505.57 472.831
785 0 68.2372 12.31 840 111.804 504.487 475.506
786 0 71.1607 12.8863 917 112.19 503.526 470.59
787 0 76.1354 9.79833 746 117.028 504.674 471.18
788 0 74.1845 11.768 873 113.16 502.741 470.564
789 0 75.1314 8.94432 672 115.567 504.542 469.46
790 0 79.1035 11.8832 940 111.778 502.277 464.523
791 0 79.2078 10.6555 844 114.423 504.216 462.27
792 0 87.2653 10.3821 906 112.354 503.062 465.049
793 0 87.2796 11.5605 1009 112.782 503.747 460.731
794 0 87.3533 9.66191 844 114.75 502.659 457.351
795 0 95.1823 9.68667 922 113.735 500.751 457.003
796 0 96.3014 12.8347 1236 109.549 501.703 453.561
797 0 99.3266 11.6686 1159 110.388 502.439 450.16
798 0 103.25 10.6054 1095 111.909 502.339 441.586
799 0 106.437 10.4006 1107 112.011 502.774 442.306
800 0 110.522 11.1742 1235 111.296 502.223 439.561
801 1 63.315 17.8473 1130 98.9062 503.535 467.152
802 0 60.1916 10.6161 639 109.523 502.228 459.983
803 0 64.1797 12.8234 823 106.739 501.841 458.187
804 0 66.3046 14.4635 959 105.479 502.951 461.011
805 0 69.1333 13.6114 941 106.355 503.885 458.709
806 0 71.2074 15.6304 1113 104.116 503.583 457.655
807 0 74.3426 14.7291 1095 106.454 503.981 455.404
808 0 74.3077 12.7981 951 110.208 506.761 451.331
809 0 78.2979 13.6913 1072 109.054 506.532 451.178
810 0 80.6562 13.1174 1058 109.522 508.036 451.414
811 0 84.5899 13.3467 1129 109.395 509.438 447.856
812 0 85.3031 11.7112 999 112.773 508.667 447.593
813 0 87.4149 14.2882 1249 110.272 508.911 446.078
814 0 91.4637 10.9442 1001 113.73 509.964 449.682
815 0 93.4882 14.5794 1363 109.889 509.745 444.326
816 1 47.241 9.73731 460 109.774 510.598 471.852
817 0 53.5779 12.7665 684 104.842 509.722 474.621
818 0 49.1101 7.77844 382 116.031 509.626 472.552
819 0 52.1775 12.8408 670 107.482 509.218 468.806
820 0 54.2564 10.561 573 110.562 510.056 471.935
821 0 56.181 14.1507 795 106.17 509.826 471.449
822 0 57.2328 12.1783 697 109.118 508.584 473.91
823 0 58.38 11.7506 686 109.897 507.914 470.329
824 0 61.2934 12.742 781 108.973 508.264 470.672
825 0 63.3304 10.8479 687 111.895 507.428 468.632
826 0 66.3875 15.3191 1017 106.549 507.707 466.112
827 0 67.2762 15.3695 1034 108.262 506.293 468.892
828 0 70.2755 12.9348 909 110.838 506.349 469.069
829 0 70.3416 12.8658 905 113.501 504.399 464.599
830 0 75.4863 19.3677 1462 104.611 505.211 464.852
831 0 77.401 14.7802 1144 111.029 504.187 463.984
832 0 79.4991 13.0064 1034 115.709 503.966 461.256
833 0 83.7194 16.4359 1376 109.783 503.217 461.814
834 0 80.2835 11.011 884 114.954 502.976 465.705
835 0 87.4586 15.1157 1322 113.089 502.657 455.212
836 0 91.3459 14.1003 1288 114.276 503.265 455.995
837 0 93.5331 21.0621 1970 102.804 503.051 460.197
838 1 147.837 13.0143 1924 115.481 502.86 428.887
839 1 99.7234 14.7408 1470 113.743 501.839 446.368
840 0 102.977 15.887 1636 110.174 501.778 443.531
841 0 108.792 13.5856 1478 111.396 502.884 444.357
842 1 56.5558 11.8821 672 112.955 502.573 466.969
843 0 62.5817 16.091 1007 106.474 502.066 458.665
844 0 62.488 14.0507 878 108.687 501.723 458.343
845 0 66.2309 14.8571 984 107.229 501.825 457.353
846 0 69.2619 14.2791 989 108.9 501.839 456.848
847 0 68.4303 12.0268 823 114.899 503.064 453.327
848 0 72.3079 13.4564 973 111.504 503.632 452.676
849 0 73.5296 10.5264 774 115.413 503.642 448.205
850 0 80.7225 14.1472 1142 109.687 504.956 447.365
851 0 80.8123 14.6265 1182 109.449 505.114 446.98
852 0 84.7678 14.5692 1235 109.758 506.235 445.474
853 0 87.1123 13.1325 1144 111.917 505.448 445.233
854 0 90.7791 11.897 1080 113.037 507.515 445.394
855 0 94.8684 15.8008 1499 107.971 506.684 442.087
856 0 95.0803 12.6104 1199 113.381 507.605 442.198
857 0 99.5785 16.2686 1620 107.143 507.458 443.277
858 0 103.634 13.403 1389 111.716 508.447 440.469
859 1 54.1833 11.6272 630 109.394 508.302 462.792
860 0 56.1776 10.9652 616 109.994 507.336 466.729
861 0 56.2264 12.3252 693 111.192 508.711 463.698
862 0 56.3635 12.0468 679 111.982 509.446 466.918
863 0 62.2557 12.3362 768 110.077 509.668 467.129
864 0 60.2745 10.8338 653 113.792 508.083 466.511
865 0 66.4893 13.897 924 108.802 507.462 461.435
866 0 65.4904 9.77242 640 115.909 507.055 462.234
867 0 71.2637 11.703 834 111.433 507.447 466.216
868 0 72.1007 11.9 858 114.105 507.915 462.751
869 0 79.4456 10.4852 833 116.37 508.073 461.449
870 0 76.3324 10.7294 819 117.076 507.554 460.085
871 0 79.3371 11.5079 913 115.001 506.575 459.939
872 0 84.8001 18.5849 1576 104.705 505.018 463.466
873 0 85.5682 7.47942 640 120.703 505.42 461.152
874 0 93.0959 13.6848 1274 109.9 504.296 458.487
875 0 90.4242 11.3576 1027 115.476 504.366 454.802
876 0 94.5313 12.2605 1159 115.285 504.832 452.635
877 0 98.592 12.9017 1272 114.241 504.042 449.807
878 0 101.57 13.2027 1341 114.228 504.595 445.778
879 0 103.34 13.2089 1365 114.49 503.448 446.015
880 0 103.34 13.1701 1361 125.347 502.425 445.946
881 1 53.1071 11.8252 628 111.045 502.444 470.947
882 0 57.088 11.1757 638 114.006 503.361 467.348
883 0 60.0808 10.9686 659 118.175 503.91 461.469
884 0 57.2308 11.4624 656 119.634 504.643 458.091
885 0 63.167 11.8733 750 117.368 504.515 459.051
886 0 64.0984 11.0455 708 118.75 504.715 457.955
887 0 66.032 12.0245 794 117.709 504.698 457.61
888 0 68.3459 12.7586 872 116.692 503.468 458.872
889 0 70.3596 13.4736 948 111.659 503.958 456.652
890 0 70.2565 11.1306 782 113.972 501.939 459.179
891 0 73.33 13.1324 963 112.248 503.126 453.304
892 0 74.1344 10.4405 774 116.469 504.665 451.133
893 0 76.1259 9.65506 735 119.103 506.958 449.293
894 0 82.1197 12.9202 1061 114.775 507.774 450.05
895 0 83.1635 12.3251 1025 117.241 507.888 447.006
896 0 89.2066 15.6715 1398 113.167 507.975 445.932
897 0 90.2349 11.5366 1041 120.841 508.876 443.694
898 1 47.1256 10.1855 480 117.023 510.031 470.16
899 0 47.0852 9.72706 458 120.216 509.157 467.566
900 0 48.0931 10.3133 496 111.038 509.544 465.5
901 0 49.1186 7.87889 387 111.969 508.902 463.915
902 0 55.2666 13.3354 737 100.498 509.977 460.803
903 0 53.1169 11.3711 604 103.512 509.672 465.339
904 0 60.5633 21.3496 1293 92.8685 510.641 460.422
905 0 58.0609 11.8668 689 103.988 509.833 463.771
906 0 59.0743 5.89089 348 113.216 510.971 456.859
907 0 63.2482 12.949 819 103.206 509.52 463.186
908 0 65.3619 14.152 925 102.023 508.794 465.381
909 0 66.4524 15.0935 1003 102.424 509.091 461.684
910 0 69.2539 10.873 753 108.861 508.337 461.461
911 0 73.2855 13.0994 960 111.598 508.99 467.15
912 0 73.1033 9.42502 689 122.956 506.57 464.723
913 0 79.2103 13.7103 1086 114.264 505.564 469.888
914 0 83.1663 14.7536 1227 113.658 505.969 465.806
915 0 86.299 15.3536 1325 112.863 503.92 460.33
916 0 88.2475 15.2072 1342 113.131 504.355 459.645
917 1 43.1364 7.88197 340 120.447 503.744 483.159
918 0 44.146 11.9603 528 115.769 502.324 479.892
919 0 47.1002 10.552 497 115.258 503.278 478.592
920 0 49.0587 12.4137 609 113.897 503.456 476.568
921 0 51.3913 12.7259 654 111.563 501.583 474.015
922 0 54.6379 16.9479 926 106.423 500.877 469.427
923 0 56.3834 12.0603 680 114.378 500.957 469.563
924 0 56.1026 12.1563 682 113.922 499.743 470.103
925 0 60.0588 16.3673 983 106.204 500.003 468.496
926 0 61.2802 14.5887 894 109.632 499.551 465.546
927 0 63.2505 14.5453 920 110.183 500.046 464.832
928 0 61.1957 11.6185 711 116.013 500.263 463.371
929 0 65.2582 11.5694 755 115.511 500.457 465.081
930 0 65.1437 13.2476 863 111.264 500.238 467.432
931 0 66.2991 10.4828 695 115.908 502.081 466.151
932 0 70.105 12.7666 895 114.644 501.895 460.261
933 0 73.2216 13.2201 968 113.273 502.341 458.627
934 0 75.3346 14.6944 1107 112.766 502.387 453.923
935 0 81.4269 9.88617 805 118.014 503.224 459.338
936 0 84.4487 13.9848 1181 113.561 504.105 452.499
937 0 82.2084 14.5119 1193 114.193 504.571 453.044
938 0 85.2678 14.0733 1200 116.913 505.303 445.466
939 0 87.6786 12.58 1103 118.837 505.272 450.327
940 0 92.5423 13.8315 1280 117.534 505.691 445.188
941 0 95.3316 15.0003 1430 115.749 505.491 448.39
942 0 94.4275 11.808 1115 123.3 506.926 444.857
943 0 101.377 14.7174 1492 115.584 507.782 444.099
944 0 105.368 13.7424 1448 116.943 508.396 447.242
945 0 107.364 13.58 1458 118.892 508.185 441.821
946 1 59.4472 12.6499 752 116.721 509.343 463.372
947 0 61.8185 14.5911 902 105.41 509.558 464.371
948 0 56.1503 9.61704 540 116.82 508.402 459.972
949 0 63.3485 11.8393 750 112.357 507.848 462.177
950 0 62.2991 10.0162 624 114.034 507.322 455.793
951 0 64.2014 9.61039 617 112.109 508.182 460.588
952 0 64.2014 9.62597 618 126.362 509.178 460.421
953 0 67.4176 13.4683 908 106.763 507.076 463.621
954 0 73.4481 13.7921 1013 106.567 506.795 462.852
955 0 76.3491 11.0021 840 110.306 507.211 462.973
956 0 76.4364 11.2773 862 111.549 507.297 466.057
957 0 81.2612 12.3429 1003 118.66 506.234 463.609
958 0 84.342 11.7379 990 119.258 504.085 461.387
959 0 84.342 11.8091 996 132.772 501.072 461.2
960 0 90.8109 11.2321 1020 120.393 502.622 454.504
961 0 94.5752 11.4935 1087 120.347 502.994 447.733
962 0 96.4856 14.5514 1404 115.212 501.002 449.786
963 0 95.4314 11.7676 1123 118.863 503.087 447.353
964 0 95.2373 9.87009 940 122.318 502.079 444.973
965 1 51.1492 7.42925 380 122.061 502.039 464.987
966 0 55.2434 11.2593 622 115.105 501.826 460.695
967 0 59.0614 12.3431 729 112.856 503.229 459.145
968 0 62.1167 8.99919 559 116.07 503.268 463.19
969 0 61.0492 11.5317 704 113.78 503.331 456.798
970 0 63.1958 17.2322 1089 103.935 501.979 458.405
971 0 66.2249 12.3669 819 111.332 502.436 456.375
972 0 69.3269 12.1886 845 110.342 502.508 451.499
973 0 71.144 14.4074 1025 107.615 503.532 454.784
974 0 73.0658 11.7702 860 112.44 502.867 452.976
975 0 72.1975 9.98649 721 116.926 504.524 450.024
976 0 75.0344 14.3667 1078 110.416 503.598 446.425
977 0 77.1475 11.3938 879 112.719 504.714 451.096
978 0 83.2165 14.9129 1241 117.915 503.889 446.63
979 0 85.1108 11.3264 964 118.377 505.867 448.303
980 0 90.2393 14.1734 1279 113.822 505.427 448.644
981 0 93.1459 14.1606 1319 114.08 507.181 447.975
982 0 96.1177 12.5679 1208 123.273 507.452 441.472
983 1 52.0956 10.9222 569 114.135 508.499 464.149
984 0 55.1101 14.0628 775 105.445 508.994 470.475
985 0 55.1193 10.7222 591 114.937 509.401 469.252
986 0 58.2195 14.2736 831 104.9 510.202 470.148
987 0 61.2217 11.9239 730 105.264 509.725 469.112
988 0 65.7429 16.7014 1098 99.173 510.791 471.355
989 0 62.1029 16.1184 1001 102.42 510.79 467.232
990 0 64.1917 12.5873 808 107.36 511.387 468.562
991 0 68.2966 12.7239 869 108.499 511.333 463.414
992 0 70.1899 15.4581 1085 104.055 511.634 462.563
993 0 70.3098 12.9143 908 105.104 511.385 466.368
994 0 71.1637 14.7969 1053 103.689 510.646 466.522
995 0 73.092 12.4364 909 105.911 510.964 466.696
996 0 74.1469 11.6525 864 114.352 509.66 463.948
997 0 79.2162 14.1133 1118 111.992 509.137 462.657
998 0 81.2746 15.6506 1272 110.172 509.201 464.991
999 0 83.2767 12.5725 1047 114.947 508.77 459.307
1000 0 87.221 13.7123 1196 114.236 507.268 458.72
1001 0 90.1676 11.9444 1077 117.071 505.892 459.779
1002 0 93.4834 13.489 1261 116.317 505.774 453.559
1003 0 97.2807 15.4193 1500 113.226 504.759 453.145
1004 0 98.2712 15.8236 1555 112.876 503.807 452.953
1005 0 99.3203 9.94761 988 124.546 501.463 449.61
1006 1 56.0444 13.4358 753 116.331 500.416 470.753
1007 0 58.1855 13.182 767 117.368 499.851 470.92
1008 0 58.0944 12.428 722 118.637 499.184 469.938
1009 0 58.1088 12.511 727 121.336 499.212 471.38
1010 0 62.1685 13.6243 847 120.045 499.591 467.566
1011 0 61.1685 12.8825 788 144.935 500.42 468.428
1012 0 65.1078 10.9818 715 126.042 497.965 465.28
1013 0 65.1525 12.018 783 123.132 498.234 459.734
1014 0 70.1096 13.4504 943 118.919 498.203 462.102
1015 0 72.1481 13.5416 977 119.3 499.281 459.28
1016 0 73.1562 13.6694 1000 120.702 499.827 456.954
1017 0 77.1087 14.486 1117 119.067 497.913 455.543
1018 0 79.1438 13.0648 1034 122.31 499.989 452.571
1019 0 85.5609 14.738 1261 117.812 497.23 451.377
1020 1 45.1151 10.6616 481 121.601 497.48 467.372
1021 0 45.0817 10.115 456 122.971 497.568 466.305
1022 0 46.6303 11.1301 519 119.441 499.688 460.491
1023 0 43.2825 11.3903 493 113.132 500.122 460.174
1024 0 44.0829 10.2534 452 119.02 502.75 457.838
1025 0 47.1121 12.778 602 113.698 504.042 461.241
1026 0 48.1513 10.0101 482 117.743 504.442 461.191
1027 0 48.1444 11.0709 533 115.681 503.259 462.079
1028 0 51.1562 8.62065 441 125.551 501.499 464.37
1029 0 52.152 10.642 555 122.596 502.274 465.551
1030 0 55.1097 13.8088 761 116.346 503.329 466.742
1031 0 54.1167 9.59038 519 122.118 503.603 469.948
1032 0 56.0541 10.811 606 122.414 503.934 467.381
1033 0 57.1352 10.4314 596 123.097 504.797 468.878
1034 0 62.1564 11.6319 723 120 503.758 467.05
1035 0 61.1122 8.80348 538 124.476 503.156 467.866
1036 0 65.1672 8.68535 566 123.362 504.12 471.138
1037 0 65.1672 8.71604 568 137.417 505.143 471.076
1038 0 70.2678 13.3632 939 117.859 503.838 466.262
1039 0 76.5359 15.3915 1178 113.51 502.488 466.692
1040 0 76.1236 11.6258 885 120.784 502.728 467.934
1041 0 78.1971 13.2742 1038 119.637 503.002 466.308
1042 0 82.1417 13.5619 1114 118.586 502.3 468.105
1043 0 82.227 10.5318 866 125.844 501.696 465.016
1044 0 85.3029 11.0664 944 125.469 500.573 459.19
1045 0 91.2433 10.7186 978 127.875 500.536 458.73
1046 1 51.0419 12.5387 640 123.747 500.603 479.364
1047 0 51.0702 11.0828 566 124.569 500.82 473.396
1048 0 52.1941 10.2119 533 125.118 501.743 470.782
1049 0 54.1152 12.3071 666 122.246 497.884 470.228
1050 0 56.1756 11.7311 659 121.25 498.584 472.185
1051 0 57.1837 12.0839 691 122.676 497.258 466.488
1052 0 57.1007 12.3291 704 122.942 496.837 465.974
1053 0 59.2195 12.6647 750 120.127 496.449 463.44
1054 0 64.1478 12.8453 824 118.581 497.581 462.998
1055 0 61.2116 10.9456 670 124.616 498.485 461.773
1056 0 63.2649 12.092 765 121.924 498.116 460.888
1057 0 68.1539 12.7506 869 119.719 499.407 459.365
1058 0 67.1201 12.5447 842 122.158 499.3 452.645
1059 0 73.1196 14.7019 1075 115.156 498.857 454.286
1060 0 76.0423 13.1111 997 118.48 499.585 453.608
1061 0 78.2001 12.3913 969 120.839 500.582 451.846
1062 0 79.1112 13.7275 1086 119.922 499.448 446.132
1063 0 83.0983 15.1026 1255 116.728 501.371 446.76
1064 0 84.1463 13.6548 1149 119.316 501.64 444.045
1065 0 89.1982 14.6752 1309 116.407 502.904 444.052
1066 0 89.0722 15.044 1340 117.123 502.501 444.134
1067 1 46.1076 11.5599 533 116.058 503.516 463.128
1068 0 49.0539 13.0265 639 114.119 503.623 462.97
1069 0 51.0985 12.6814 648 115.131 503.813 461.884
1070 0 51.1496 15.484 792 112.051 507.836 460.698
1071 0 53.1 12.9002 685 117.632 508.895 460.638
1072 0 55.1108 12.0666 665 118.289 508.704 460.274
1073 0 59.2275 11.2279 665 118.174 509.893 463.23
1074 0 59.0641 13.4092 792 115.968 509.924 460.747
1075 0 62.3053 12.5671 783 116.272 510.433 462.112
1076 0 63.2248 11.6252 735 119.293 509.588 458.101
1077 0 66.1301 10.2828 680 119.415 509.996 454.374
1078 0 68.2363 12.2955 839 116.195 510.577 455.986
1079 0 73.352 11.9697 878 116.091 509.61 457.434
1080 0 76.4729 12.135 928 114.14 510.083 460.337
1081 0 78.2243 13.3974 1048 114.242 508.241 455.261
1082 0 81.34 14.5562 1184 111.137 508.31 457.39
1083 0 83.562 12.374 1034 115.447 506.742 452.849
1084 0 89.5103 11.7975 1056 114.046 507.542 456.038
1085 0 88.4894 12.2614 1085 136.56 507.479 456.51
1086 1 50.2769 12.3715 622 103.124 505.286 480.162
1087 0 52.1702 13.1684 687 108.263 503.607 482.14
1088 0 52.1216 12.2982 641 110.048 502.282 483.707
1089 0 55.2131 9.8165 542 114.552 500.773 479.092
1090 0 56.2275 11.6313 654 110.972 501.761 479.847
1091 0 57.137 14.544 831 107.877 500.936 477.018
1092 0 58.1823 13.7843 802 109.354 499.52 473.85
1093 0 63.2006 11.5505 730 112.122 499.078 472.782
1094 0 59.2272 13.1696 780 111.024 501.088 471.882
1095 0 62.2042 13.1824 820 112.835 502.193 470.162
1096 0 66.1013 12.4203 821 112.309 501.905 472.169
1097 0 67.1119 15.6157 1048 109.877 501.708 465.432
1098 0 69.1796 15.2646 1056 110.956 502.36 465.049
1099 0 74.4708 15.8586 1181 108.89 501.565 465.873
1100 0 73.1043 12.5164 915 114.348 501.842 462.46
1101 0 79.1825 14.1698 1122 110.488 501.843 460.078
1102 0 80.1337 15.1996 1218 109.174 502.375 458.991
1103 0 81.3454 14.0512 1143 110.237 503.226 459.792
1104 0 84.1942 12.0198 1012 112.469 503.173 454.934
1105 1 47.0373 14.0314 660 109.742 503.973 469.223
1106 0 45.3405 9.41762 427 108.803 502.511 462.309
1107 0 46.0657 9.94233 458 103.419 503.323 468.871
1108 0 51.1005 12.994 664 100.169 502.357 463.191
1109 0 50.2078 8.34531 419 106.045 503.754 458.792
1110 0 54.1928 14.6698 795 97.7031 504.034 465.595
1111 0 55.106 12.0495 664 100.369 504.333 466.595
1112 0 52.1732 12.2668 640 101.827 504.502 463.864
1113 0 56.0544 8.72367 489 103.423 505.738 468.215
1114 0 57.0539 10.1658 580 103.038 505.709 465.536
1115 0 63.3185 7.67549 486 103.759 507.722 468.778
1116 0 61.3785 9.84058 604 102.417 506.493 465.159
1117 0 60.1031 9.84975 592 105.166 507.294 460.951
1118 0 66.1368 11.0075 728 102.337 506.368 463.396
1119 0 68.2782 11.3067 772 102.227 507.181 461.258
1120 0 69.0853 11.247 777 102.486 506.902 462.728
1121 1 141.174 12.9556 1829 109.99 508.44 432.917
1122 0 145.332 13.1354 1909 110.136 508.582 432.701
1123 1 78.2171 12.3119 963 105.663 508.016 468.533
1124 0 79.1704 10.5848 838 110.004 507.529 463.891
1125 0 85.138 11.5342 982 108.865 507.256 463.588
1126 1 45.0398 9.5027 428 110.572 507.93 485.217
1127 0 46.1389 9.49307 438 104.368 505.434 479.74
1128 0 48.0749 14.8102 712 102.827 505.955 481.114
1129 0 50.0928 12.5567 629 105 506.486 482.339
1130 0 51.1434 12.0446 616 103.857 504.307 480.565
1131 0 55.2036 12.9339 714 104.976 504.038 481.59
1132 0 54.1301 13.6708 740 103.897 504.308 482.234
1133 0 55.0758 14.2168 783 102.398 502.603 474.556
1134 0 57.0956 12.9782 741 105.568 503.835 477.661
1135 0 58.1954 9.84614 573 109.155 501 473.49
1136 0 60.0757 10.7198 644 108.157 501.62 475.944
1137 0 62.1615 11.3897 708 107.03 500.86 473.953
1138 0 61.071 10.4632 639 109.839 500.352 473.581
1139 0 66.1307 15.046 995 102.794 500.54 472.332
1140 0 68.1142 14.2995 974 103.067 499.057 470.706
1141 0 68.3046 12.0929 826 106.39 498.666 464.208
1142 0 72.0493 13.4352 968 104.778 499.42 470.782
1143 0 74.1654 14.225 1055 106.886 498.965 464.539
1144 0 75.1307 11.6198 873 111.899 499.55 463.244
1145 0 76.047 12.5317 953 109.587 499.367 465.595
1146 0 81.1484 14.036 1139 108.711 499.908 458.675
1147 0 82.1665 10.9777 902 113.818 499.166 456.67
1148 0 83.3146 10.1543 846 116.887 500.06 455.813
1149 1 46.0722 12.22 563 111.38 499.21 474.366
1150 0 48.0778 12.7502 613 111.323 501.458 471.498
1151 0 48.5116 10.7191 520 116.498 501.073 467.344
1152 0 52.3755 14.1478 741 109.615 501.447 462.525
1153 0 52.3917 14.487 759 125.273 502.386 462.968
1154 0 56.3146 14.4012 811 110.047 503.612 463.541
1155 0 55.2696 11.5796 640 116.222 504.061 463.784
1156 0 57.3313 14.0586 806 111.952 505.096 462.895
1157 0 59.2141 13.9494 826 113.453 505.458 461.12
1158 0 59.3609 13.8307 821 113.933 506.163 462.903
1159 0 64.4161 15.3378 988 110.802 507.385 458.918
1160 0 65.2529 14.7273 961 112.599 507.496 462.107
1161 0 67.7326 11.1615 756 119.298 506.108 461.201
1162 0 70.6181 15.8175 1117 111.881 508.141 457.002
1163 0 73.3438 16.7976 1232 108.78 506.856 462.987
1164 0 76.5253 15.8902 1216 111.266 507.35 462.056
1165 0 77.4839 14.7515 1143 114.976 507.514 460.234
1166 0 78.3582 15.4802 1213 115.157 506.391 459.009
1167 0 82.3382 16.8573 1388 113.227 506.689 459.623
1168 0 82.3824 17.5887 1449 113.268 506.77 458.353
1169 0 88.5163 14.3251 1268 118.312 506.177 458.045
1170 0 88.2336 11.1749 986 124.953 506.272 458.743
1171 0 91.4352 12.8725 1177 123.327 504.82 456.161
1172 0 97.2287 15.9726 1553 117.663 504.731 454.986
1173 0 100.313 12.9494 1299 122.124 505.05 463.166
1174 1 57.168 13.1542 752 119.416 503.911 480.539
1175 0 58.0542 12.3161 715 124.919 503.688 474.613
1176 0 59.3769 14.2311 845 120.084 501.718 471.288
1177 0 59.2624 13.8199 819 119.271 500.112 469.552
1178 0 60.5811 13.3045 806 124.716 499.378 466.264
1179 0 62.4848 13.2352 827 122.967 499.358 467.333
1180 0 65.3581 13.6326 891 122.552 499.852 465.035
1181 0 67.4408 12.3516 833 121.694 499.806 464.742
1182 0 69.4517 13.6354 947 118.596 499.719 464.444
1183 0 72.2152 12.5043 903 118.733 501.452 464.695
1184 0 78.0794 14.8054 1156 115.124 501.593 460.117
1185 0 80.1613 17.0781 1369 112.603 500.182 458.808
1186 0 79.2666 16.0597 1273 115.595 500.435 453.112
1187 0 81.2596 13.623 1107 118.358 500.097 455.387
1188 0 85.2213 16.0406 1367 117.615 501.009 449.182
1189 0 88.3288 13.3139 1176 123.236 500.815 444.712
1190 0 92.4632 14.0596 1300 122.362 500.95 440.915
1191 0 94.3514 15.6754 1479 119.233 500.961 444.682
1192 0 97.3127 14.438 1405 121.671 501.761 439.959
1193 0 99.2624 15.9376 1582 118.957 502.453 440.022
1194 0 101.327 13.7475 1393 123.782 503.018 437.24
1195 0 104.301 13.4227 1400 125.159 503.776 432.449
1196 0 109.239 15.9009 1737 120.931 503.469 430.497
1197 1 60.0874 10.052 604 122.722 504.315 457.899
1198 0 60.0853 9.53644 573 122.297 502.511 452.735
1199 0 66.2382 12.5909 834 112.517 503.783 454.41
1200 0 63.3921 8.09249 513 118.349 504.688 449.088
1201 0 67.3207 13.7402 925 104.635 506.731 456.811
1202 0 69.1973 12.9196 894 104.794 507.147 455.361
1203 0 68.3675 8.9955 615 112.179 507.789 454.124
1204 0 76.3247 14.006 1069 108.166 508.123 455.022
1205 0 79.2318 12.5076 991 108.45 507.789 458.227
1206 0 83.2765 13.3171 1109 107.463 507.435 457.891
1207 0 87.3107 13.1026 1144 106.997 508.368 457.842
1208 0 88.1373 11.5615 1019 108.602 508.44 460.064
1209 0 91.2599 14.1902 1295 106.746 508.233 455.021
1210 0 94.1116 12.1983 1148 108.841 507.726 456.59
1211 0 95.3054 11.9615 1140 110.584 508.562 449.608
1212 0 99.1955 14.8091 1469 106.466 507.745 452.788
1213 0 110.186 14.6299 1612 102.54 507.611 460.577
1214 0 107.244 11.637 1248 110.025 505.965 451.259
1215 0 109.311 11.1151 1215 111.414 506.174 446.323
1216 0 112.227 15.4508 1734 106.976 504.729 443.855
1217 0 117.171 11.9057 1395 110.595 503.431 450.191
1218 0 118.19 12.2768 1451 111.961 503.413 441.823
1219 0 125.234 13.343 1671 110.76 503.182 435.039
1220 0 129.265 11.6892 1511 113.648 502.06 433.066
1221 0 132.222 12.1009 1600 111.919 502.429 433.689
1222 0 137.233 12.4314 1706 111.968 500.468 434.408
1223 0 143.358 12.2491 1756 113.133 500.597 423.638
1224 0 148.273 12.2409 1815 113.357 500.02 421.938
1225 0 155.262 13.5126 2098 110.202 499.951 422.52
1226 0 157.422 11.8154 1860 111.894 498.733 423.706
1227 0 162.268 11.7522 1907 114.941 499.193 410.773
1228 0 168.515 12.4855 2104 113.898 499.399 409.651
1229 1 91.3073 14.2595 1302 107.949 498.81 450.657
1230 0 94.304 9.29971 877 114.397 499.334 446.107
1231 0 99.2539 13.9037 1380 106.662 500.03 447.526
1232 0 101.266 14.8519 1504 106.659 500.668 440.679
1233 0 105.316 14.0435 1479 106.955 500.87 442.092
1234 0 105.32 9.39991 990 114.384 503.049 427.129
1235 0 113.238 8.93693 1012 113.608 503.112 432.454
1236 0 116.2 9.53528 1108 112.651 504.48 427.381
1237 0 117.33 13.1679 1545 104.885 505.069 424.829
1238 1 22.0282 6.80945 150 99.3733 505.113 477.72
1239 0 23.0136 4.64942 107 103 504.86 478.916
1240 0 24.11 7.59021 183 99.071 506.88 476.18
1241 0 24.1385 2.15424 52 101.462 506.135 482.404
1242 0 16.0138 9.92891 159 93.7233 507.994 481.346
1243 0 18.032 3.43834 62 100.903 508.452 482.661
1244 0 16.0695 2.98703 48 103.854 508.479 481.625
1245 0 19.0541 3.04396 58 104.414 508.224 482.569
1246 0 20.0051 6.89825 138 96.8913 508.971 482.645
1247 1 90.1844 9.92411 895 102.517 510.4 448.79
1248 0 91.1743 9.24602 843 104.16 510.359 445.223
1249 0 96.3387 11.0444 1064 98.9323 510.209 448.657
1250 0 99.2009 14.1733 1406 96.224 509.494 449.858
1251 0 98.1577 12.0317 1181 100.428 509.441 446
1252 0 103.276 10.1766 1051 102.935 506.848 445.29
1253 0 102.44 10.3963 1065 104.045 507.478 443.487
1254 0 109.519 13.048 1429 103.021 506.105 447.67
1255 0 112.546 14.4475 1626 101.349 506.285 448.039
1256 0 118.01 10.7279 1266 106.372 506.587 441.862
1257 0 117.584 10.9964 1293 106.63 506.15 448.467
1258 0 121.598 8.58564 1044 110.394 504.687 443.094
1259 0 125.42 9.39243 1178 109.939 504.329 438.376
1260 0 126.381 7.52489 951 113.488 503.525 430.697
1261 0 138.59 13.2405 1835 105.507 503.037 435.181
1262 0 140.38 11.9176 1673 108.653 502.027 429.288
1263 1 80.2005 12.2194 980 100.861 500.102 464.212
1264 0 81.3041 13.7017 1114 101.003 501.377 459.708
1265 0 85.2288 11.6979 997 103.483 501.68 461.961
1266 0 85.3105 14.1483 1207 101.789 500.796 459.607
1267 0 86.2795 9.3881 810 107.356 499.651 460.164
1268 0 91.4989 9.59574 878 108.434 499.625 455.96
1269 0 93.3559 12.7576 1191 104.406 499.509 451.008
1270 0 96.5456 13.5584 1309 103.406 498.966 454.644
1271 0 99.4462 12.107 1204 106.216 498.408 452.99
1272 0 100.439 15.2231 1529 103.409 499.817 448.47
1273 0 102.289 9.42429 964 111.901 499.689 444.814
1274 0 110.714 10.4594 1158 112.144 500.075 441.837
1275 0 107.632 12.0875 1301 111.834 499.892 435.212
1276 0 111.383 11.2495 1253 112.713 499.596 437.731
1277 0 111.415 9.44214 1052 115.631 499.42 440.095
1278 0 116.692 12.2973 1435 113.467 500.025 431.469
1279 0 123.668 13.8274 1710 111.287 501.853 430.756
1280 0 123.668 13.8112 1708 131.333 503.841 430.888
1281 0 126.588 11.6125 1470 115.556 503.141 428.002
1282 0 133.848 12.7757 1710 113.081 503.924 427.742
1283 1 77.5246 11.7253 909 104.297 504.163 450.684
1284 0 82.2444 12.8641 1058 102.509 504.092 449.069
1285 0 83.3243 11.5332 961 112.262 504.963 449.27
1286 0 83.5648 15.6884 1311 108.705 506.312 448.7
1287 0 88.6365 14.2154 1260 109.775 506.271 447.964
1288 0 88.4368 13.275 1174 112.818 506.797 447.702
1289 0 91.5236 10.9261 1000 116.303 507.556 449.803
1290 0 93.8446 11.0289 1035 116.935 508.105 446.894
1291 0 95.6861 12.5201 1198 114.767 508.442 445.396
1292 0 101.309 15.5959 1580 108.599 509.336 447.789
1293 0 101.311 9.13032 925 111.744 508.361 450.716
1294 0 106.389 11.8246 1258 107.752 507.613 444.958
1295 0 108.379 11.2568 1220 108.949 506.88 443.216
1296 0 111.554 9.83377 1097 109.461 507.093 450.865
1297 0 115.794 9.80188 1135 111.67 507.008 438.925
1298 0 119.609 11.7299 1403 108.702 507.323 442.128
1299 0 120.51 10.9867 1324 110.503 507.761 444.364
1300 0 124.657 10.2281 1275 111.269 506.667 445.447
1301 0 127.024 12.3363 1567 110.341 507.141 439.28
1302 0 134.576 13.4794 1814 109.372 505.726 429.227
1303 0 136.534 13.0078 1776 110.381 504.776 423.946
1304 0 139.441 11.9405 1665 112.756 504.259 423.126
1305 0 144.676 13.271 1920 111.194 502.868 424.698
1306 0 151.885 14.7085 2234 109.31 503.069 423.283
1307 0 157.838 14.1157 2228 110.481 502.341 423.379
1308 0 162.655 6.98409 1136 124.309 500.05 399.367
1309 0 172.726 8.09373 1398 121.097 500.889 405.018
1310 0 175.592 11.0256 1936 118.792 500.798 394.929
1311 0 180.546 10.2965 1859 120.645 500.331 384.978
1312 0 186.588 12.332 2301 117.548 500.676 395.648
1313 0 191.687 12.3535 2368 116.388 500.45 391.528
1314 0 197.279 12.1098 2389 117.909 500.521 375.457
1315 0 205.947 13.2898 2737 114.443 500.459 381.657
1316 0 210.386 12.016 2528 116.604 501.488 376.968
1317 0 219.96 11.1475 2452 117.925 501.3 375.029
1318 1 48.2442 9.63847 465 105.512 503.368 462.189
1319 0 42.0571 7.91781 333 106.324 503.336 459.619
1320 0 48.0678 10.1523 488 104.875 504.592 464.693
1321 0 49.1488 10.0308 493 105.83 504.663 462.69
1322 0 48.3006 8.11584 392 109.028 505.673 462.054
1323 0 50.0302 8.99456 450 107.24 504.52 465.627
1324 0 266.682 13.2068 3522 119.846 504.334 346.742
1325 0 273.476 12.6849 3469 120.209 505.567 345.705
1326 0 282.22 13.1777 3719 118.874 505.081 341.471
1327 0 289.951 12.002 3480 120.079 506.641 342.433
1328 0 56.0539 8.08151 453 103.044 504.998 466.779
1329 0 59.1531 8.6555 512 102.748 505.207 463.295
1330 0 59.0461 9.12846 539 106.048 504.824 464.505
1331 0 63.3514 11.2231 711 109.155 507.183 460.43
1332 0 64.3402 10.1803 655 109.521 507.33 464.293
1333 0 71.274 11.9539 852 106.824 507.376 460.183
1334 0 68.3728 10.8376 741 109.785 508.499 460.609
1335 0 69.2498 11.6679 808 107.684 508.04 467.171
1336 0 72.2102 13.0037 939 106.642 508.211 461.874
1337 0 69.3863 10.8667 754 111.585 508.038 461.284
1338 0 71.5823 10.0444 719 112.595 505.523 460.274
1339 0 80.4277 12.5579 1010 107.773 506.659 463.902
1340 0 79.3164 12.6708 1005 110.539 506.104 459.631
1341 0 79.6164 10.0733 802 112.585 505.623 461.872
1342 0 82.3992 9.42971 777 113.615 505.844 463.659
1343 0 82.7046 13.9291 1152 108.547 505.012 460.417
1344 0 88.7137 12.7038 1127 109.335 504.218 458.213
1345 0 88.5837 12.7676 1131 110.302 501.777 458.153
1346 0 88.5247 11.4657 1015 112.368 502.44 459.315
1347 1 53.1973 8.94782 476 110.935 500.397 473.7
1348 0 52.1585 11.8293 617 105.796 499.804 477.147
1349 0 57.1955 12.466 713 104.561 499.609 474.363
1350 0 59.2301 10.9066 646 105.768 499.147 476.663
1351 0 61.5747 14.8925 917 102.035 501.192 465.177
1352 0 62.4496 19.872 1241 97.0935 499.844 465.948
1353 0 64.5504 14.7017 949 103.408 500.997 463.165
1354 0 62.2489 11.0524 688 109.385 500.6 465.747
1355 0 64.5233 12.4296 802 108.58 500.621 461.959
1356 0 62.3303 11.2626 702 112.191 500.244 458.802
1357 0 67.38 15.1826 1023 104.854 500.332 460.721
1358 0 67.3887 11.263 759 111.601 499.27 455.506
1359 0 67.2485 12.8627 865 110.161 499.506 456.973
1360 0 72.3718 13.707 992 109.136 500.513 456.416
1361 0 72.3225 15.0714 1090 108.419 500.85 453.796
1362 0 71.3395 13.1204 936 112.129 501.082 449.063
1363 0 76.307 12.1876 930 113.349 502.251 451.714
1364 0 77.6392 13.6014 1056 124.813 502.471 453.387
1365 0 78.2264 15.0333 1176 111.736 502.71 448.253
1366 0 80.3412 15.6458 1257 111.051 504.191 447.449
1367 0 84.2083 15.5448 1309 111.228 504.869 449.61
1368 0 85.2593 13.6759 1166 114.116 505.184 446.189
1369 0 84.2771 16.0898 1356 110.796 505.804 447.293
1370 0 90.3104 15.6128 1410 111.96 506.385 446.606
1371 0 90.1877 12.6625 1142 111.146 505.283 447.694
1372 0 94.2538 14.1957 1338 109.208 506.307 445.54
1373 0 98.2511 13.4044 1317 109.084 505.751 445.768
1374 0 101.418 12.5126 1269 109.061 505.635 449.463
1375 0 105.305 14.0923 1484 108.69 505.668 442.311
1376 0 106.302 11.9753 1273 110.973 507.378 443.352
1377 1 63.2683 11.8543 750 107.655 507.073 464.511
1378 0 66.1106 14.1732 937 103.467 506.051 466.714
1379 0 67.3817 14.6182 985 103.184 505.251 465.511
1380 0 69.254 11.6239 805 107.512 506.193 466.286
1381 0 72.4175 12.9527 938 106.165 506.303 462.572
1382 0 73.1827 11.8881 870 105.718 505.857 470.952
1383 0 83.2464 14.8595 1237 101.6 505.173 469.754
1384 0 79.1415 12.6988 1005 106.133 505.118 466.592
1385 0 81.2914 9.65662 785 109.878 503.814 466.335
1386 0 85.4477 11.3286 968 108.116 503.226 464.824
1387 0 87.2199 9.91746 865 110.523 501.445 464.384
1388 0 95.3626 4.84467 462 111.846 501.476 476.08
1389 0 95.4505 11.4405 1092 108.883 501.015 457.686
1390 0 95.4505 11.3252 1081 123.435 501.011 457.719
1391 0 99.3228 12.9577 1287 105.951 500.271 457.057
1392 1 142.301 10.9486 1558 113.109 500.58 438.753
1393 0 143.742 9.22489 1326 116.273 500.713 435.028
1394 1 108.281 14.527 1573 106.097 501.407 442.45
1395 0 110.541 12.6921 1403 111.497 499.781 442.149
1396 0 117.338 12.7069 1491 109.325 499.103 447.749
1397 0 118.361 10.6623 1262 113.098 497.864 443.002
1398 1 66.2185 15.177 1005 105.087 499.11 465.466
1399 0 67.2742 13.3335 897 109.492 497.938 459.686
1400 0 70.1183 15.0175 1053 107.462 499.09 458.099
1401 0 74.3962 12.299 915 109.188 499.516 458.987
1402 0 72.1628 10.7257 774 118.547 499.291 456.693
1403 0 76.2805 10.2123 779 118.245 498.696 454.963
1404 0 82.4196 14.5596 1200 111.309 499.478 453.662
1405 0 82.2302 13.2312 1088 114.943 500.012 446.577
1406 0 89.7445 14.2516 1279 111.367 501.17 451.3
1407 0 89.3785 14.0078 1252 113.892 502.774 447.902
1408 0 91.6357 15.6271 1432 111.891 503.313 446.584
1409 0 95.426 15.7399 1502 110.66 503.904 448.634
1410 0 96.4552 12.7935 1234 117.407 504.1 441.173
1411 1 186.09 15.2184 2832 114.752 505.395 408.731
1412 0 186.09 15.2238 2833 136.248 507.425 408.51
1413 1 55.3694 12.1909 675 116.843 505.498 466.102
1414 0 55.0856 14.2142 783 113.989 506.08 465.011
1415 0 59.3248 12.6086 748 116.064 507.064 465.023
1416 0 56.3297 11.6812 658 120.1 507.324 462.777
1417 0 60.0927 13.396 805 114.329 508.128 464.862
1418 0 63.4681 12.1321 770 113.839 508.414 468.764
1419 0 65.3439 11.6614 762 113.268 507.648 468.652
1420 0 65.1442 12.3111 802 111.358 508.936 468.708
1421 0 71.2246 12.4957 890 111.347 508.727 466.643
1422 0 72.2058 13.3092 961 110.709 508.272 462.672
1423 0 76.2255 16.7267 1275 105.246 507.924 466.044
1424 0 77.258 12.4518 962 112.308 508.403 464.73
1425 0 83.1473 13.0732 1087 111.397 507.681 457.271
1426 0 82.2621 13.5907 1118 111.797 507.291 461.091
1427 0 86.2641 14.0847 1215 110.695 505.681 461.962
1428 0 87.2911 16.8058 1467 107.127 506.187 463.213
1429 0 90.1663 15.1942 1370 110.024 504.234 458.372
1430 0 91.4227 15.051 1376 110.496 504.257 456.735
1431 0 95.1617 13.4403 1279 111.827 502.632 460.146
1432 0 100.324 13.9448 1399 111.155 503.059 454.966
1433 0 101.396 13.6495 1384 112.874 500.852 449.014
1434 0 104.216 16.5713 1727 106.936 502.552 455.975
1435 0 108.521 15.0478 1633 110.462 499.718 447.634
1436 0 110.399 13.732 1516 111.278 501.21 451.99
1437 0 107.301 13.0288 1398 112.477 499.317 442.815
1438 0 118.391 11.9604 1416 114.839 499.52 435.288
1439 0 124.276 14.7011 1827 112.317 499.289 439.019
1440 0 127.443 10.8598 1384 115.888 497.771 436.82
1441 0 137.016 18.7789 2573 104.452 498.337 437.476
1442 1 73.2895 15.0226 1101 107.541 498.963 459.012
1443 0 80.6865 14.451 1166 107.98 497.85 458.427
1444 0 76.2314 13.1311 1001 111.674 498.891 454.432
1445 0 81.1695 14.1802 1151 109.556 498.952 451.828
1446 1 163.314 23.4334 3827 99.2853 500.496 416.793
1447 1 88.3631 15.6061 1379 106.424 500.363 452.605
1448 0 90.1742 13.9175 1255 110.852 501.691 445.15
1449 0 93.1071 14.9398 1391 109.69 500.882 442.726
1450 0 95.2603 14.5706 1388 110.852 501.097 440.086
1451 0 101.281 17.9896 1822 105.011 503.198 444.597
1452 0 98.2835 13.8273 1359 146.001 505.13 437.681
1453 0 98.2835 13.8579 1362 145.41 507.149 437.67
1454 0 112.729 14.8675 1676 111.017 503.884 439.305
1455 0 109.141 13.2306 1444 114.868 504.074 436.913
1456 0 115.205 15.9368 1836 110.405 505.51 438.573
1457 0 117.393 13.868 1628 114.586 505.67 430.609
1458 0 123.333 17.3676 2142 109.485 505.85 433.166
1459 0 127.423 19.4628 2480 105.602 506.596 437.041
1460 0 136.437 15.8241 2159 109.751 506.31 434.755
1461 1 73.2617 10.5785 775 114.987 506.192 459.319
1462 0 78.2973 17.5357 1373 105.572 506.859 456.163
1463 0 78.4863 13.1233 1030 111.753 506.735 454.078
1464 0 83.3073 15.953 1329 105.433 506.543 458.36
1465 0 85.4129 13.2181 1129 110.016 506.345 453.525
1466 0 82.3407 12.0354 991 113.709 505.686 451.171
1467 0 89.2009 13.3855 1194 109 506.164 455.391
1468 0 88.2641 14.2753 1260 109.893 505.719 447.032
1469 0 92.2183 11.9499 1102 112.834 505.442 452.055
1470 0 95.1488 10.0054 952 117.401 505.113 443.638
1471 0 96.1955 13.4934 1298 112.027 504.898 444.552
1472 0 98.179 14.1069 1385 112.423 504.01 439.069
1473 0 97.4141 9.73165 948 120.128 503.419 434.187
1474 0 106.545 12.9898 1384 114.738 501.702 435.051
1475 0 109.333 14.7257 1610 111.861 502.071 439.574
1476 0 110.407 12.0101 1326 117.772 502.05 428.312
1477 0 115.427 12.5533 1449 116.843 501.063 427.373
1478 1 129.588 9.85433 1277 117.509 500.2 429.218
1479 1 72.1807 10.0581 726 109.73 499.868 455.72
1480 0 75.1966 11.2372 845 107.335 498.942 451.963
1481 0 76.2236 12.1353 925 105.893 499.493 446.288
1482 0 79.2165 9.51822 754 104.013 499.973 454.034
1483 0 83.108 11.7919 980 107.05 497.572 455.614
1484 0 86.2679 10.0385 866 108.006 498.799 457.462
1485 0 90.1581 11.2913 1018 108.455 499.18 451.639
1486 1 101.116 5.87443 594 108.722 498.668 464.547
1487 0 99.2577 5.47061 543 109.974 498.709 463.448
1488 0 101.401 13.6291 1382 104.166 499 445.957
1489 0 104.214 15.4489 1610 101.576 498.902 447.709
1490 0 108.282 10.2326 1108 109.178 500.271 443.017
1491 0 110.158 10.1763 1121 111.005 500.263 438.919
1492 0 115.314 14.0399 1619 107.122 501.374 431.14
1493 0 120.744 10.8411 1309 108.357 502.073 440.198
1494 1 62.1734 7.68818 478 113.674 502.366 453.967
1495 0 67.2053 12.008 807 106.939 503.57 455.993
1496 0 71.1586 14.2218 1012 106.443 503.492 453.376
1497 0 74.1043 14.2502 1056 107.107 503.172 452.248
1498 0 78.1084 11.4712 896 111.503 504.401 448.772
1499 0 78.1084 11.4328 893 125.191 505.44 448.929
1500 0 80.1506 12.6512 1014 107.793 505.955 455.392
1501 0 85.1933 10.306 878 114.202 505.049 448.552
1502 0 84.1845 12.5558 1057 113.237 505.714 448.24
1503 0 89.197 16.9064 1508 107.171 505.061 448.552
1504 0 89.3088 11.2307 1003 117.515 505.515 442.791
1505 0 93.3449 11.27 1052 118.317 506.669 445.334
1506 0 103.299 12.0233 1242 116.077 506.467 450.101
1507 0 105.355 14.5793 1536 114.353 507.333 444.161
1508 0 106.289 12.5695 1336 118.53 506.534 444.246
1509 0 106.291 11.111 1181 120.934 506.638 447.426
1510 0 111.39 13.5021 1504 116.4 505.133 443.645
1511 1 63.1808 12.4405 786 112.955 505.964 469.081
1512 0 65.354 13.3886 875 107.966 505.349 470.005
1513 0 66.2384 12.1078 802 111.546 502.996 466.12
1514 0 68.1505 12.2816 837 111.563 502.462 467.664
1515 0 68.2432 14.5069 990 109.157 502.422 466.458
1516 0 73.1325 14.754 1079 108.119 501.223 467.801
1517 0 73.2063 12.6492 926 112.024 501.242 467.908
1518 0 74.3052 12.2199 908 113.675 500.717 464.464
1519 0 76.5646 13.9882 1071 115.862 501.444 461.364
1520 0 82.2484 12.9972 1069 116.326 501.044 456.134
1521 0 84.543 14.7262 1245 111.941 500.132 462.325
1522 0 80.4983 10.7207 863 118.943 500.039 460.065
1523 0 85.5615 11.0447 945 120.838 499.675 450.436
1524 0 93.5595 14.44 1351 114.036 499.859 452.081
1525 1 50.2639 9.62918 484 118.312 498.669 471.033
1526 0 51.2669 10.26 526 116.66 497.895 468.859
1527 0 53.1472 11.9103 633 113.632 498.148 471.074
1528 0 56.3688 12.4005 699 113.498 498.172 469.034
1529 0 56.1688 11.9283 670 116.118 498.621 466.225
1530 0 58.5961 15.5642 912 110.169 498.452 463.317
1531 0 59.3826 11.468 681 116.9 499.828 463.311
1532 0 61.2893 12.6123 773 116.559 500 460.624
1533 0 62.3831 13.3049 830 116.102 501.072 457.017
1534 0 64.3085 12.1135 779 117.282 500.525 459.213
1535 0 66.4158 13.4155 891 115.856 500.957 456.27
1536 0 65.3025 13.9045 908 116.355 501.394 452.92
1537 0 67.2671 10.7928 726 120.152 502.814 455.899
1538 0 70.5158 12.2951 867 117.301 503.045 456.697
1539 0 73.1932 14.6052 1069 114.176 503.921 454.105
1540 0 73.4638 12.8226 942 119.496 504.78 450.634
1541 0 76.4906 13.3742 1023 117.031 505.049 451.857
1542 0 78.3171 13.7007 1073 117.308 505.86 452.116
1543 0 82.841 14.051 1164 114.655 507.033 449.889
1544 0 83.687 17.0636 1428 110.773 506.978 449.126
1545 0 87.989 16.4225 1445 109.919 507.491 446.833
1546 0 85.4693 11.8405 1012 113.199 507.929 447.692
1547 0 90.2912 13.091 1182 111.53 508.415 453.525
1548 0 96.6114 13.9839 1351 110.946 507.598 448.517
1549 0 94.4998 10.8043 1021 114.896 507.824 451.645
1550 0 101.578 15.4167 1566 108.981 507.591 449.328
1551 1 61.4032 12.0678 741 109.386 507.525 471.209
1552 0 59.3302 10.6185 630 112.362 507.397 472.216
1553 0 61.1008 11.882 726 112.121 507.105 469.997
1554 0 65.2813 13.9856 913 109.093 504.572 472.932
1555 0 65.2098 11.8234 771 112.974 504.339 467.235
1556 0 67.1245 11.8735 797 112.629 504.018 463.62
1557 0 72.0551 9.96459 718 115.561 503.056 465.32
1558 0 73.2484 14.7716 1082 108 502.631 469.165
1559 0 75.2077 16.0755 1209 106.586 501.729 464.744
1560 0 78.1976 13.8623 1084 109.033 501.649 463.523
1561 0 78.6038 10.9409 860 114.797 500.63 461.717
1562 0 84.4334 15.8823 1341 106.936 500.436 463.562
1563 0 85.1287 11.512 980 114.614 498.512 461.982
1564 0 88.0953 13.3151 1173 114.667 498.478 455.23
1565 0 91.4243 14.8648 1359 113.27 498.413 452.147
1566 0 90.2414 11.9347 1077 119.111 497.669 450.71
1567 0 97.3287 13.2027 1285 115.496 496.789 451.823
1568 0 99.5968 13.3237 1327 115.903 498.35 448.962
1569 1 57.1487 14.261 815 110.632 497.634 467.941
1570 0 59.0697 13.2724 784 107.925 498.233 467.077
1571 0 59.0709 10.8006 638 112.133 497.171 466.069
1572 0 61.2373 13.7335 841 108.036 497.681 465.314
1573 0 62.1607 12.5642 781 110.654 497.524 460.396
1574 0 64.1553 13.67 877 108.767 498.279 462.921
1575 0 62.0804 10.0998 627 116.939 498.348 460.065
1576 0 67.0685 12.6438 848 114.558 500.36 456.317
1577 0 71.1552 12.2549 872 114.247 499.767 457.717
1578 0 70.2826 11.1265 782 118.744 501.26 452.838
1579 0 76.2657 16.5999 1266 109.183 501.333 453.165
1580 0 78.2582 15.1933 1189 113.437 501.643 450.274
1581 0 77.1825 11.3238 874 119.145 502.166 452.252
1582 0 81.2235 13.0258 1058 118.523 503.53 447.726
1583 0 85.2681 13.1116 1118 118.222 504.188 450.13
1584 0 88.2276 13.5445 1195 118.089 504.729 447.994
1585 0 91.2456 13.7212 1252 118.863 504.815 444.258
1586 0 93.3596 14.6637 1369 117.199 505.06 445.462
1587 0 94.2621 12.9957 1225 118.254 507.099 443.155
1588 0 101.301 15.9327 1614 114.332 506.035 443.138
1589 0 106.301 13.4523 1430 119.081 506.524 443.642
1590 0 106.354 14.2637 1517 113.422 506.866 444.829
1591 1 61.3004 13.5073 828 107.696 506.872 468.958
1592 0 60.1953 10.034 604 115.407 506.788 463.437
1593 0 63.3081 12.6208 799 110.606 506.258 466.587
1594 0 64.1003 10.5772 678 114.667 505.873 462.776
1595 0 66.152 10.1735 673 115.004 505.027 465.169
1596 0 70.4776 11.5072 811 112.71 506.012 466.042
1597 0 71.3687 12.1061 864 112.753 505.709 464.734
1598 0 73.2883 12.0074 880 113.983 504.956 464.109
1599 0 75.2862 12.4326 936 115.045 505.062 463.215
1600 0 78.4452 12.7223 998 121.353 503.422 465.817
1601 0 85.6359 17.3292 1484 113.059 502.571 461.944
1602 0 84.7033 14.9935 1270 119.639 501.586 457.725
1603 0 84.7472 13.617 1154 122.068 501.343 456.185
1604 0 88.6264 14.2621 1264 121.756 501.522 452.296
1605 0 89.4284 13.6198 1218 121.284 502.276 451.17
1606 0 93.1468 14.6114 1361 120.335 501.812 452.192
1607 0 94.3815 14.5685 1375 120.2 500.244 446.567
1608 0 96.4415 13.3967 1292 121.882 500.625 444.382
1609 0 99.3569 15.5198 1542 118.435 500.916 441.589
1610 0 103.689 17.5911 1824 114.567 499.857 439.606
1611 0 109.461 20.5369 2248 108.982 500.196 441.123
1612 0 111.505 17.6763 1971 113.258 499.877 438.265
1613 0 112.32 14.067 1580 120.525 500.123 434.458
1614 0 117.443 16.3654 1922 115.955 498.799 434.5
1615 0 118.566 13.056 1548 124.309 500.221 422.758
1616 1 70.2928 11.9927 843 120.13 499.319 447.851
1617 0 72.529 12.5053 907 117.911 499.429 449.535
1618 0 72.2176 10.233 739 123.794 500.901 444.092
1619 0 76.1567 12.146 925 119.225 502.308 446.485
1620 0 84.1535 18.1573 1528 107.379 502.079 443.546
1621 0 86.2223 14.1379 1219 113.67 502.364 443.932
1622 0 89.4095 15.6918 1403 112.32 503.04 443.269
1623 0 92.2365 14.9724 1381 114.456 504.761 440.851
1624 0 93.2026 15.5361 1448 114.054 504.731 440.706
1625 0 99.345 16.0854 1598 112.368 504.849 441.3
1626 0 103.741 20.2524 2101 105.5 505.599 441.502
1627 0 99.1981 15.5043 1538 114.793 505.99 437.131
1628 0 102.205 13.0131 1330 119.477 506.92 439.513
1629 0 106.336 13.4574 1431 119.832 507.447 435.404
1630 0 111.195 15.1986 1690 115.315 507.521 435.279
1631 0 114.613 14.7278 1688 115.89 507.339 433.566
1632 0 117.494 14.1454 1662 116.012 507.365 433.281
1633 1 60.1515 9.82519 591 122.464 508.484 453.679
1634 0 67.0632 11.1984 751 119.059 508.051 453.573
1635 0 72.0894 12.1377 875 114.77 509.161 460.474
1636 0 73.2323 12.8359 940 113.438 507.176 463.493
1637 0 76.3249 12.8267 979 113.579 507.647 459.175
1638 0 78.3336 12.8808 1009 113.398 508.13 459.272
1639 0 79.4376 15.7608 1252 109.974 506.605 458.531
1640 0 85.2072 16.4188 1399 107.675 506.927 457.756
1641 0 84.1972 12.9339 1089 135.41 508.086 461.458
1642 0 87.3301 13.2829 1160 114.544 505.45 453.789
1643 0 90.244 15.7129 1418 111.189 503.912 452.802
1644 0 92.2384 14.9179 1376 113.805 503.379 451.265
1645 0 96.4108 15.5584 1500 111.437 502.673 447.145
1646 0 98.2855 15.9128 1564 109.951 501.401 449.862
1647 0 97.4876 12.7093 1239 116.736 501.819 440.384
1648 0 105.346 15.2165 1603 110.983 502.309 441.063
1649 0 108.371 16.7019 1810 109.333 501.112 435.698
1650 0 109.591 14.1891 1555 113.876 500.934 437.195
1651 0 111.345 12.1155 1349 117.609 499.619 434.55
1652 0 116.476 12.0883 1408 118.642 499.736 426.797
1653 0 117.314 15.3008 1795 112.435 498.894 434.93
1654 0 126.764 13.1898 1672 116.979 499.453 429.201
1655 1 70.2798 10.2874 723 117.187 498.267 451.555
1656 0 74.3239 13.3739 994 111.69 498.182 449.603
1657 0 76.441 12.2971 940 114.433 497.616 449.223
1658 0 79.5378 12.9624 1031 114.876 498.415 449.383
1659 0 79.3627 12.7642 1013 115.753 498.62 450.984
1660 0 84.5203 13.1329 1110 115.528 498.955 444.389
1661 0 85.2789 14.5757 1243 112.764 498.936 444.267
1662 0 90.2158 13.4234 1211 114.899 498.576 438.594
1663 0 92.2614 13.4076 1237 115.314 499.536 443.77
1664 0 96.3133 14.837 1429 114.502 501.695 438.087
1665 0 102.421 16.2759 1667 112.47 500.959 437.803
1666 0 104.34 14.6636 1530 117.081 502.091 433.633
1667 0 106.379 13.4801 1434 120.474 501.844 435.516
1668 0 109.304 14.7388 1611 118.675 502.319 432.926
1669 0 109.304 15.1047 1651 127.802 502.298 433.541
1670 0 120.203 19.2092 2309 110.184 503.159 432.537
1671 0 121.279 16.1363 1957 115.623 503.21 429.698
1672 0 127.26 12.9813 1652 120.046 504.104 427.548
1673 0 129.436 13.1648 1704 119.016 504.313 427.915
1674 0 134.458 14.0937 1895 114.675 505.43 428.556
1675 1 74.0878 11.5269 854 111.966 505.255 460.052
1676 0 76.1791 9.62206 733 114.117 503.134 457.846
1677 0 79.313 14.4112 1143 102.913 505.133 448.239
1678 0 79.238 12.5445 994 106.754 506.273 450.011
1679 0 85.1538 14.0334 1195 104.872 505.787 446.32
1680 0 84.2288 13.5464 1141 106.101 504.06 452.045
1681 0 87.1482 11.6468 1015 109.394 503.787 446.895
1682 0 91.061 13.749 1252 106.962 502.968 449.665
1683 0 95.3847 13.1782 1257 107.703 502.888 451.491
1684 0 94.417 14.5525 1374 106.421 502.931 453.587
1685 0 99.7518 12.5512 1252 109.794 502.926 450.372
1686 0 100.234 14.1768 1421 110.248 501.764 442.541
1687 0 104.489 12.9488 1353 112.228 500.811 442.54
1688 0 104.313 12.0982 1262 113.796 499.739 446.867
1689 0 107.518 7.91492 851 120.392 500.482 447.412
1690 0 110.366 12.7575 1408 113.75 499.754 438.203
1691 0 116.487 12.6967 1479 113.778 498.863 441.476
1692 0 116.099 9.48332 1101 118.817 499.045 436.931
1693 0 123.602 11.6826 1444 117.202 498.945 431.084
1694 1 67.3706 10.9247 736 116.51 498.461 461.592
1695 0 69.3733 11.5318 800 117.592 497.891 453.281
1696 0 72.4088 12.3328 893 117.13 497.607 452.797
1697 0 76.187 12.9156 984 115.797 497.825 452.922
1698 0 80.2923 14.6589 1177 115.563 497.172 452.15
1699 0 83.1796 16.1458 1343 113.185 496.202 450.79
1700 0 84.2279 15.0781 1270 115.017 496.74 448.528
1701 0 89.3089 15.0713 1346 115.424 497.094 445.074
1702 0 89.1233 11.8263 1054 120.308 499.151 442.449
1703 0 93.3006 14.0514 1311 115.78 498.514 441.31
1704 0 99.3069 16.7259 1661 110.292 500.014 440.062
1705 0 98.2825 13.1763 1295 117.625 499.131 432.998
1706 0 100.523 12.8528 1292 119.141 500.533 430.392
1707 0 105.386 14.0815 1484 116.239 500.687 431.298
1708 0 105.386 14.0341 1479 153.222 500.684 431.139
1709 0 110.301 16.0288 1768 115.053 500.933 422.561
1710 0 113.315 13.7757 1561 118.607 502.35 423.606
1711 0 118.353 16.3916 1940 114.54 503.01 424.453
1712 0 122.44 16.5877 2031 110.99 503.63 422.854
1713 0 121.519 14.1295 1717 114.645 504.8 427.694
1714 1 70.3595 11.8534 834 113.212 504.751 447.579
1715 0 72.8446 10.2547 747 115.739 505.422 445.473
1716 0 77.6889 12.357 960 111.77 506.553 445.85
1717 0 77.3296 13.1515 1017 112.302 506.12 448.133
1718 0 78.4132 11.0951 870 117.064 506.509 442.863
1719 0 83.4248 13.8208 1153 111.724 507.018 439.918
1720 0 85.7991 13.5316 1161 113.209 507.097 441.5
1721 0 86.6643 12.5542 1088 114.381 506.339 445.37
1722 0 91.4966 16.4378 1504 107.668 506.481 449.697
1723 0 91.3536 12.9168 1180 113.885 505.958 445.748
1724 0 98.677 15.1302 1493 110.023 505.979 444.688
1725 0 98.3692 12.2294 1203 114.697 505.635 440.847
1726 0 101.201 13.3101 1347 112.996 504.618 440.524
1727 0 101.209 14.06 1423 109.918 504.722 436.489
1728 0 106.425 12.0554 1283 113.166 504.565 435.472
1729 0 111.665 16.048 1792 107.231 503.514 441.289
1730 1 58.4017 8.45865 494 112.445 502.547 458.097
1731 0 65.4278 8.74246 572 111.007 500.565 457.42
1732 0 70.2416 12.0014 843 108.853 500 465.053
1733 0 71.6832 12.9737 930 108.994 499.801 458.352
1734 0 71.698 11.6879 838 111.233 499.822 461.442
1735 0 73.5861 10.926 804 112.134 498.173 456.903
1736 0 74.5715 9.41378 702 114.822 499.195 457.588
1737 0 78.2054 11.4698 897 110.176 497.892 458.561
1738 0 77.232 11.0705 855 111.96 497.816 454.284
1739 0 82.2267 15.214 1251 105.228 497.414 452.027
1740 0 83.5302 13.6478 1140 107.196 496.916 451.835
1741 0 88.26 14.0154 1237 105.089 498.064 452.141
1742 0 91.2556 15.2648 1393 103.742 497.3 449.239
1743 0 93.271 28.251 2635 90.7028 497.247 449.91
1744 0 91.2352 12.6596 1155 111.038 497.786 440.397
1745 0 96.4347 12.817 1236 110.135 498.054 435.078
1746 0 97.366 14.1631 1379 108.057 499.171 440.196
1747 0 103.405 16.1307 1668 104.235 499.734 438.424
1748 0 104.505 13.5879 1420 110.246 499.31 425.721
1749 0 107.533 16.0788 1729 104.283 499.803 431.121
1750 0 113.515 17.6365 2002 101.358 500.223 435.136
1751 0 112.498 11.9558 1345 111.364 501.245 425.053
1752 0 116.354 17.0342 1982 104.331 501.911 425.595
1753 0 119.684 13.9033 1664 109.134 502.691 422.899
1754 0 121.554 13.8703 1686 108.942 503.156 423.978
1755 0 126.824 13.3019 1687 111.654 504.456 414.935
1756 0 130.4 15.2071 1983 108.075 504.39 414.718
1757 0 138.613 19.0098 2635 102.444 504.381 414.206
1758 0 139.71 12.9125 1804 110.825 505.993 415.472
1759 0 139.71 13.027 1820 136.427 508.001 415.376
1760 1 151.963 12.4438 1891 113.739 506.175 410.039
1761 0 155.699 16.4356 2559 108.505 505.972 403.348
1762 0 158.691 15.1679 2407 111.543 506.684 410.125
1763 0 169.497 12.9147 2189 113.881 506.317 411.46
1764 0 171.348 13.3705 2291 113.502 506.34 411.379
1765 1 99.4576 13.5133 1344 107.165 504.948 446.659
1766 0 102.335 14.648 1499 105.648 505.07 438.451
1767 0 107.544 13.3248 1433 107.829 504.588 443.844
1768 0 109.331 12.4027 1356 110.419 504.291 437.041
1769 0 114.491 12.5425 1436 110.093 504.042 438.685
1770 0 115.432 13.653 1576 109.273 504.904 436.6
1771 0 120.315 14.6532 1763 107.326 503.196 432.065
1772 0 123.654 13.4245 1660 109.292 502.603 435.125
1773 0 131.409 12.6095 1657 109.304 501.158 429.262
1774 0 140.27 15.463 2169 104.121 501.13 434.446
1775 0 140.801 12.0951 1703 110.998 500.96 425.169
1776 0 141.524 10.8603 1537 114.114 499.848 413.196
1777 0 149.727 12.2222 1830 110.441 499.227 419.822
1778 0 153.561 13.4475 2065 109.481 498.713 412.254
1779 0 158.656 12.7761 2027 110.152 498.436 406.983
1780 0 161.551 11.5444 1865 112.36 497.488 408.634
1781 0 165.255 13.8574 2290 109.365 498.552 409.645
1782 1 106.62 10.7109 1142 109.974 497.565 438.839
1783 0 112.658 15.7823 1778 100.822 497.765 443.397
1784 0 113.572 16.4565 1869 102.203 497.547 432.881
1785 0 116.446 13.0361 1518 107.837 498.372 429.872
1786 0 116.739 10.9475 1278 111.4 497.887 431.002
1787 0 125.819 15.2442 1918 104.625 498.894 419.923
1788 0 125.819 15.268 1921 136.072 498.927 419.775
1789 0 130.48 12.2854 1603 111.208 498.41 416.641
1790 0 134.46 11.0219 1482 115.02 499.766 412.123
1791 0 139.29 13.6909 1907 111.367 500.672 406.743
1792 1 75.3344 9.35828 705 115.59 500.07 440.279
1793 0 79.2075 13.2816 1052 110.154 499.924 439.347
1794 0 83.2019 13.1607 1095 109.527 501.916 437.432
1795 0 86.1647 13.6367 1175 107.191 501.024 437.61
1796 0 86.3745 10.4197 900 112.932 501.78 435.403
1797 0 93.2388 14.5433 1356 104.268 502.11 445.926
1798 0 89.4435 11.5045 1029 112.186 503.322 435.67
1799 0 97.3105 12.1261 1180 107.127 503.718 446.656
1800 0 101.629 10.8729 1105 112.138 504.211 431.165
1801 0 100.542 9.27971 933 116.042 507.275 437.623
1802 0 107.565 13.9637 1502 108.676 506.753 433.79
1803 0 107.505 10.2879 1106 115.17 507.476 428.958
1804 0 113.483 11.7815 1337 112.398 505.9 439.437
1805 0 118.547 12.0881 1433 114.043 506.023 433.334
1806 0 122.652 14.9855 1838 108.124 506.352 436.409
1807 0 125.466 10.1462 1273 115.57 506.731 433.364
1808 0 129.414 11.7607 1522 113.914 505.911 431.466
1809 0 129.377 11.9109 1541 114.909 506.796 426.347
1810 0 139.81 12.5456 1754 114.383 506.095 426.556
1811 0 145.468 13.6044 1979 112.716 506.222 425.126
1812 0 149.524 12.921 1932 112.943 505.313 427.039
1813 0 151.374 12.5649 1902 115.035 505.68 417.328
1814 0 161.856 12.5914 2038 114.84 503.984 414.18
1815 0 163.534 13.7403 2247 111.455 503.528 418.119
1816 1 99.2534 10.5588 1048 112.159 502.261 454.817
1817 0 100.463 8.11245 815 115.443 501.969 452.449
1818 0 105.616 11.6649 1232 111.932 501.287 445.119
1819 0 109.489 10.6952 1171 111.103 500.414 447.067
1820 0 115.64 14.1473 1636 107.166 500.618 444.221
1821 0 115.492 12.2347 1413 112.665 500.163 433.548
1822 0 121.401 14.0526 1706 107.344 499.928 438.628
1823 0 126.5 13.8023 1746 108.312 499.566 428.135
1824 0 124.257 10.1805 1265 113.931 499.565 430.214
1825 0 127.375 9.86063 1256 110.965 497.862 430.507
1826 0 129.56 12.7971 1658 107.457 499.004 424.214
1827 0 139.47 14.4476 2015 103.151 498.251 430.355
1828 0 141.466 11.3243 1602 107.931 498.341 428.11
1829 0 149.494 16.1879 2420 100.133 497.813 428.822
1830 0 151.355 11.7274 1775 107.417 498.926 420.93
1831 0 157.611 11.8646 1870 108.259 498.83 410.543
1832 0 165.826 19.5144 3236 92.3637 497.93 434.592
1833 0 167.991 11.6078 1950 108.242 498.861 404.352
1834 1 98.5503 11.3749 1121 106.155 500.376 437.297
1835 0 97.5938 8.59686 839 113.004 500.026 426.123
1836 0 99.3667 14.7434 1465 103.583 501.621 432.729
1837 0 109.738 14.3342 1573 102.99 502.199 431.379
1838 0 112.667 11.4231 1287 108.079 503.342 428.799
1839 0 115.583 14.1197 1632 104.319 503.035 431.068
1840 0 116.44 12.0405 1402 110.24 503.638 419.973
1841 0 121.504 13.5551 1647 108.546 503.607 418.765
1842 0 127.788 14.1719 1811 106.004 504.402 427.893
1843 0 130.81 14.7542 1930 106.854 504.845 419.806
1844 0 134.514 12.6233 1698 111.057 505.567 421.333
1845 0 134.49 11.986 1612 113.142 505.805 418.014
1846 0 140.713 15.4854 2179 108.125 506.537 418.802
1847 0 145.442 12.5548 1826 112.288 506.636 415.455
1848 0 147.494 11.3361 1672 115.626 507.757 415.136
1849 0 156.49 14.4866 2267 109.339 507.221 421.338
1850 0 156.435 10.963 1715 116.701 506.415 413.553
1851 0 168.553 17.6384 2973 106.296 507.162 411.294
1852 0 171.531 12.3593 2120 115.341 506.399 414.293
1853 0 177.377 15.2218 2700 111.505 506.563 413.412
1854 0 177.377 15.1203 2682 141.647 507.569 413.293
1855 1 189.443 13.2916 2518 112.695 506.267 413.027
1856 0 195.506 13.0175 2545 114.828 505.639 399.001
1857 0 200.563 14.0355 2815 113.447 503.858 392.299
1858 0 209.424 13.838 2898 113.155 504.052 402.707
1859 0 215.544 13.0507 2813 116.127 502.326 382.167
1860 0 219.677 13.1557 2890 116.441 501.716 382.012
1861 0 230.479 18.4225 4246 109.496 501.547 379.348
1862 0 235.51 14.7552 3475 116.256 500.901 384.205
1863 0 244.782 17.6606 4323 112.036 500.874 373.316
1864 1 60.1454 9.04475 544 104.566 502.037 470.107
1865 0 61.2422 9.50326 582 104.567 501.543 464.617
1866 0 63.0778 9.06817 572 104.724 500.806 466.531
1867 0 65.1162 12.7772 832 96.4724 497.417 465.137
1868 0 63.1202 7.93724 501 107.032 495.944 463.06
1869 0 65.1864 8.23791 537 104.905 496.214 470.41
1870 0 67.2709 11.7138 788 101.369 495.977 462.176
1871 0 68.1969 13.7396 937 99.0651 495.034 464.995
1872 0 70.1329 12.7044 891 101.671 495.65 460.346
1873 0 73.1385 12.2644 897 102.98 495.433 456.126
1874 0 73.1072 9.72545 711 107.083 496.07 458.921
1875 0 78.342 11.9731 938 103.044 496.575 457.821
1876 0 79.22 11.184 886 105.357 497.002 450.201
1877 0 81.3454 12.8096 1042 103.644 497.792 449.935
1878 0 82.4464 13.2814 1095 103.418 498.63 446.9
1879 0 86.3826 13.8917 1200 106.668 499.808 449.507
1880 0 87.4116 13.282 1161 108.804 500.757 444.502
1881 0 90.3283 13.8273 1249 108.644 500.81 442.766
1882 0 92.4216 12.0318 1112 112.137 501.764 442.584
1883 0 93.3362 12.8246 1197 106.306 502.681 444.674
1884 0 95.4437 12.3947 1183 107.751 503.499 442.527
1885 0 97.5333 9.4942 926 107.093 503.098 437.149
1886 0 102.355 10.1411 1038 106.936 502.871 435.495
1887 0 103.354 9.22076 953 108.75 505.231 436.548
1888 0 109.313 13.6214 1489 103.366 504.4 434.951
1889 0 111.362 12.1766 1356 107.085 505.53 434.26
1890 0 114.232 12.2383 1398 105.926 505.97 437.967
1891 0 117.285 14.4605 1696 102.853 506.922 438.554
1892 0 122.426 14.7028 1800 103.186 506.324 437.139
1893 0 124.591 12.7377 1587 107.193 506.216 434.146
1894 0 126.655 11.3142 1433 110.569 505.532 429.886
1895 0 131.48 12.3288 1621 108.339 506.356 430.417
1896 0 136.716 13.0782 1788 107.741 506.002 429.21
1897 0 136.716 13.1806 1802 139.857 506.998 429.161
1898 0 144.952 15.7156 2278 104.125 505.415 426.745
1899 1 161.243 22.1529 3572 94.7444 504.791 414.227
1900 0 153.555 13.2852 2040 109.009 503.934 421.974
1901 0 157.689 13.552 2137 110.39 503.014 418.467
1902 0 162.832 14.5549 2370 109.491 503.232 416.107
1903 0 255.804 19.038 4870 104.018 501.95 387.775
1904 0 265.328 18.1323 4811 105.055 500.898 363.353
1905 1 182.13 14.8026 2696 107.387 500.66 413.409
1906 0 190.491 14.2526 2715 107.172 500.292 417.466
1907 1 102.902 8.82394 908 109.193 499.698 445.51
1908 0 108.671 13.2325 1438 102.251 499.328 447.282
1909 0 111.432 14.1701 1579 100.821 498.331 443.67
1910 0 114.386 14.2674 1632 102.073 499.736 444.355
1911 0 115.265 13.9765 1611 103.723 498.742 433.744
1912 0 117.52 12.2362 1438 106.274 497.996 437.48
1913 0 120.533 11.6649 1406 107.016 496.686 439.534
1914 0 120.533 11.6483 1404 134.405 495.692 439.296
1915 0 126.598 15.1503 1918 102.644 498.099 428.75
1916 0 130.516 11.8453 1546 107.215 498.321 428.355
1917 0 133.859 12.4982 1673 106.926 498.109 424.579
1918 0 136.774 13.4236 1836 105.282 499.689 423.08
1919 0 140.672 7.93335 1116 111.128 499.355 428.091
1920 0 149.441 13.2963 1987 103.342 500.046 427.033
1921 0 152.812 10.7779 1647 105.148 500.219 430.438
1922 0 152.471 9.95599 1518 108.749 500.685 420.35
1923 0 157.566 14.6541 2309 104.929 500.369 406.273
1924 0 162.737 12.7014 2067 106.803 502.612 414.331
1925 0 171.769 12.5401 2154 108.096 502.649 403.481
1926 0 171.903 10.7735 1852 111.113 503.295 399.511
1927 0 179.467 11.9855 2151 107.895 503.815 402.14
1928 1 107.253 9.90185 1062 104.056 505.324 438.468
1929 0 108.383 12.1421 1316 101.601 505.753 434.274
1930 0 113.269 11.221 1271 102.214 506.695 436.238
1931 0 117.576 16.6871 1962 96.4404 506.486 425.883
1932 0 119.399 12.0018 1433 102.78 506.947 427.343
1933 0 121.315 8.53149 1035 105.418 509.044 440.4
1934 0 128.492 12.6545 1626 101.689 506.751 427.705
1935 0 132.42 16.6969 2211 97.6422 505.876 427.899
1936 0 135.404 16.4249 2224 99.0378 506.519 429.234
1937 0 136.464 11.2924 1541 104.907 507.289 436.416
1938 0 143.802 10.737 1544 106.681 507.801 430.418
1939 1 83.2465 9.56196 796 103.94 506.623 459.482
1940 0 87.2564 13.4546 1174 99.0119 505.939 456.56
1941 0 87.2916 11.6048 1013 102.77 506.343 459.693
1942 0 90.3022 10.642 961 106.356 506.116 457.671
1943 0 93.4218 13.7334 1283 101.919 504.779 455.72
1944 0 98.3364 15.1724 1492 98.3706 504.871 451.385
1945 0 110.292 15.5316 1713 94.7852 502.696 460.128
1946 0 107.486 16.5882 1783 94.4268 503.029 456.761
1947 0 114.8 13.1795 1513 98.4964 501.463 453.711
1948 0 110.258 13.3052 1467 99.9618 500.742 449.393
1949 0 110.261 12.8241 1414 100.786 500.719 440.955
1950 0 114.217 11.7057 1337 101.725 500.737 443.211
1951 0 117.432 12.2965 1444 100.148 498.916 436.349
1952 0 124.445 14.3196 1782 97.3956 498.85 438.758
1953 0 121.264 13.3016 1613 99.4513 498.923 437.433
1954 0 129.39 19.6614 2544 92.2044 498.493 434.206
1955 0 132.342 15.1123 2000 96.9285 499.21 433.668
1956 0 132.432 13.456 1782 97.8973 497.556 432.155
1957 0 132.295 14.8834 1969 97.0142 497.368 427.616
1958 0 138.264 14.2481 1970 97.4843 498.506 427.318
1959 0 146.843 15.3566 2255 97.1286 498.993 422.035
1960 1 86.5056 11.5368 998 99.0571 499.63 455.355
1961 0 89.3581 11.605 1037 100.129 499.221 449.213
1962 0 91.1971 13.3338 1216 96.7212 500.525 449.053
1963 0 95.2653 11.6202 1107 99.4083 500.743 443.479
1964 0 98.5113 13.8258 1362 96.4684 501.036 445.565
1965 0 101.235 11.9524 1210 99.9421 502.182 442.032
1966 0 104.293 12.5608 1310 100.617 502.144 436.906
1967 0 107.244 15.0871 1618 97.563 502.966 438.014
1968 0 109.294 14.6395 1600 99.4944 503.411 433.86
1969 0 112.188 15.5899 1749 98.9028 504.061 435.219
1970 0 116.335 13.2892 1546 103.482 504.762 431.375
1971 0 116.485 11.5638 1347 106.329 505.187 430.295
1972 0 122.391 15.3524 1879 100.382 505.634 436.362
1973 0 124.339 13.809 1717 104.809 505.078 432.674
1974 0 128.584 13.0965 1684 105.333 505.746 433.082
1975 0 126.244 13.0541 1648 108.797 506.641 425.133
1976 0 133.366 12.9793 1731 109.408 506.486 426.694
1977 0 137.405 14.3736 1975 108.909 506.816 425.136
1978 0 144.484 14.9221 2156 108.252 507.338 427.156
1979 0 144.245 12.5966 1817 112.024 506.479 424.975
1980 1 87.2001 13.5894 1185 107.071 507.424 455.374
1981 0 90.3231 12.8539 1161 109.534 507.017 451.941
1982 0 93.3721 12.8839 1203 108.815 506.5 456.134
1983 0 96.2706 13.4621 1296 110.195 506.569 452.927
1984 0 102.26 13.583 1389 108.418 506.898 453.507
1985 0 104.157 13.5084 1407 108.172 505.967 453.44
1986 0 108.356 19.7127 2136 100.604 505.782 447.775
1987 0 113.323 15.9279 1805 105.021 503.548 451.016
1988 0 113.334 14.1087 1599 109.681 503.486 446.218
1989 0 115.27 15.7022 1810 108.855 501.227 443.718
1990 0 119.164 14.929 1779 110.508 502.505 440.999
1991 0 124.29 17.4351 2167 106.01 501.61 440.496
1992 0 126.254 16.2767 2055 107.415 500.492 440.648
1993 0 131.487 15.4921 2037 107.791 499.723 438.186
1994 0 131.357 16.0859 2113 108.917 500.259 433.152
1995 0 133.417 12.8994 1721 114.241 499.465 430.51
1996 0 138.324 11.5598 1599 114.649 499.729 435.066
1997 0 141.518 13.6449 1931 112.442 497.218 426.457
1998 0 147.563 12.7471 1881 111.195 497.722 422.386
1999 0 149.29 14.6896 2193 108.153 497.659 412.047
2000 0 154.583 14.9434 2310 107.174 497.767 411.056
2001 1 90.1823 9.70257 875 107.045 496.785 442.274
2002 0 94.136 10.453 984 106.845 499.061 439.604
2003 0 92.1513 8.73563 805 111.178 497.955 430.976
2004 0 92.1377 8.72607 804 139.415 497.935 430.805
2005 0 102.178 10.2566 1048 107.77 501.301 435.297
2006 0 107.152 11.3483 1216 105.748 500.039 435.38
2007 0 114.297 14.1124 1613 101.13 501.479 439.583
2008 0 111.298 12.498 1391 105.96 501.984 429.578
2009 0 110.322 12.3638 1364 106.811 502.742 426.111
2010 0 120.198 11.4478 1376 108.475 504.319 421.118
2011 0 123.272 10.9757 1353 108.058 504.338 425.14
2012 0 124.462 11.4573 1426 108.614 505.354 422.79
2013 0 131.416 13.8949 1826 106.645 504.716 418.651
2014 0 129.416 11.1269 1440 111.206 506.074 421.46
2015 1 75.203 11.7416 883 103.095 505.456 447.469
2016 0 83.4277 15.2827 1275 100.444 506.23 447.854
2017 0 88.4043 13.7097 1212 101.174 506.608 449.355
2018 0 90.583 11.5143 1043 102.004 507.727 452.38
2019 0 95.3312 15.0108 1431 98.8253 508.259 447.992
2020 0 95.2906 16.329 1556 97.982 507.411 450.683
2021 0 100.433 14.0093 1407 102.284 507.355 444.138
2022 0 103.366 13.457 1391 102.728 507.498 447.22
2023 0 106.617 14.0033 1493 103.382 506.832 442.442
2024 0 113.662 18.6782 2123 97.5893 506.358 443.268
2025 0 115.326 12.9545 1494 106.465 505.413 440.351
2026 0 117.398 11.9848 1407 108.08 506.163 441.997
2027 0 122.092 12.7199 1553 105.685 504.348 447.851
2028 0 122.497 10.7105 1312 111.53 505.068 442.026
2029 0 135.446 15.1278 2049 105.38 504.814 435.554
2030 0 135.724 12.4518 1690 109.045 503.177 437.997
2031 0 137.843 11.1866 1542 110.795 503.405 436.305
2032 0 144.38 14.0809 2033 108.394 502.791 427.722
2033 1 81.317 13.7118 1115 100.874 502.612 465.164
2034 0 87.6111 12.0418 1055 104.714 502.19 461.617
2035 0 84.2203 9.86698 831 108.74 501.779 457.712
2036 0 88.3807 13.8039 1220 104.508 501.639 452.661
2037 0 90.4269 13.3478 1207 105.263 501.598 449.041
2038 0 93.2241 11.1237 1037 108.041 500.959 451.357
2039 1 180.785 16.9871 3071 105.119 500.238 413.681
2040 1 102.465 17.9085 1835 97.7379 499.838 447.453
2041 0 103.545 14.2643 1477 104.131 500.42 441.136
2042 0 105.586 15.002 1584 103.766 500.001 441.783
2043 0 110.852 13.6578 1514 105.034 500.007 442.551
2044 0 109.521 9.55981 1047 110.29 499.471 442.976
2045 0 112.559 13.3975 1508 106.989 499.227 428.277
2046 0 115.387 14.2303 1642 105.913 499.682 431.451
2047 0 117.466 11.9014 1398 109.587 500.597 430.883
2048 0 120.523 12.0475 1452 109.339 498.983 433.403
2049 0 120.523 12.0392 1451 139.606 497.974 433.304
2050 0 128.477 12.9907 1669 109.496 500.951 425.454
2051 0 130.346 12.5282 1633 110.47 501.554 428.274
2052 0 136.468 11.4459 1562 112.209 501.38 424.441
2053 0 140.399 13.54 1901 110.177 502.601 419.582
2054 0 144.55 11.6845 1689 112.209 503.813 418.338
2055 0 149.569 14.027 2098 109.633 505.795 412.901
2056 0 154.661 13.397 2072 109.528 504.782 414.932
2057 0 162.906 16.3652 2666 104.953 506.013 413.87
2058 0 162.906 16.3284 2660 131.175 507.988 413.739
2059 1 100.188 14.9918 1502 105.895 506.991 441.516
2060 0 103.315 14.0542 1452 105.089 507.877 442.246
2061 0 103.221 14.6095 1508 105.721 508.345 437.06
2062 0 110.397 12.2105 1348 107.412 508.746 441.326
2063 0 112.51 13.0032 1463 109.699 508.537 433.301
2064 0 114.163 10.3624 1183 112.872 509.702 440.261
2065 0 118.213 12.6382 1494 110.724 508.121 433.926
2066 0 121.432 9.61034 1167 114.734 508.926 439.919
2067 0 124.357 13.0511 1623 111.014 506.494 439.046
2068 0 131.304 13.4649 1768 110.587 506.674 430.508
2069 0 134.447 11.9527 1607 111.733 505.286 436.532
2070 0 137.386 13.3492 1834 111.262 505.806 425.237
2071 0 138.372 10.7175 1483 116.351 504.755 417.359
2072 0 152.604 13.7873 2104 109.869 502.435 425.544
2073 0 155.444 10.544 1639 114.942 502.498 421.859
2074 1 218.751 13.4171 2935 114.756 502.163 391.079
2075 1 166.509 13.8431 2305 110.16 500.327 418.283
2076 0 169.489 11.4757 1945 114.789 499.968 412.769
2077 0 173.486 11.2458 1951 116.111 499.539 408.231
2078 0 182.628 12.8184 2341 113.172 498.78 409.041
2079 0 186.487 12.3494 2303 115.248 498.362 401.42
2080 0 193.732 13.7355 2661 114.638 497.947 394.632
2081 0 196.493 11.0284 2167 119.756 498.464 391.617
2082 1 159.278 16.0223 2552 111.743 498.185 410.705
2083 0 165.403 16.4628 2723 110.445 497.494 404.865
2084 0 168.412 13.5561 2283 112.928 497.043 409.451
2085 0 173.501 12.9913 2254 112.783 497.157 410.112
2086 0 178.474 14.1365 2523 112.659 497.315 398.962
2087 0 179.632 12.7594 2292 116.35 497.557 394.351
2088 0 184.616 12.7562 2355 116.437 499.028 391.448
2089 0 187.498 12.3415 2314 117.077 498.796 384.746
2090 0 196.504 12.1728 2392 116.545 499.008 385.839
2091 1 263.982 12.6221 3332 117.027 500.286 350.875
2092 1 213.62 16.0191 3422 110.328 500.678 381.318
2093 1 156.399 14.6612 2293 111.85 500.442 409.281
2094 0 161.297 13.9556 2251 114.257 501.028 405.662
2095 0 168.3 16.1379 2716 111.357 503.3 395.434
2096 0 173.585 16.5913 2880 110.685 502.685 394.091
2097 0 181.633 19.1595 3480 105.568 503.432 400.516
2098 0 183.581 15.6062 2865 113.17 504.582 383.762
2099 0 187.492 12.5659 2356 116.88 505.511 394.925
2100 0 194.661 15.3549 2989 112.552 505.823 389.912
2101 0 204.666 14.7362 3016 112.067 506.447 390.714
2102 1 160.418 11.7443 1884 117.152 506.702 407.678
2103 0 163.393 11.1816 1827 118.838 506.907 401.774
2104 0 170.359 14.4049 2454 113.182 507.992 402.817
2105 0 174.389 15.7923 2754 112.102 507.125 395.398
2106 0 179.44 13.1743 2364 116.523 508.058 398.912
2107 0 180.458 11.9418 2155 118.814 506.791 397.081
2108 1 193.418 13.5096 2613 115.822 506.109 390.535
2109 0 199.627 11.7068 2337 118.182 506.715 390.489
2110 0 210.498 16.2947 3430 110.8 505.46 385.599
2111 0 215.686 13.1673 2840 115.762 505.907 374.623
2112 0 225.649 13.7382 3100 113.727 504.992 385.32
2113 1 169.521 11.9572 2027 116.176 504.825 404.366
2114 0 171.366 9.94363 1704 120.428 503.302 403.339
2115 0 179.437 12.4166 2228 114.463 502.959 410.496
2116 0 183.518 14.7997 2716 111.452 501.41 403.695
2117 0 180.226 10.0929 1819 116.744 500.549 409.101
2118 1 193.716 16.2041 3139 109.404 500.549 398.752
2119 0 198.329 12.5196 2483 115.101 500.311 390.502
2120 0 206.746 11.7245 2424 116.072 499.811 385.616
2121 0 207.741 12.891 2678 115.394 498.504 376.857
2122 0 217.68 13.088 2849 113.996 498.458 378.776
2123 0 229.101 14.845 3401 110.724 498.164 381.799
2124 0 231.597 13.6357 3158 115.112 498.41 368.729
2125 0 235.644 13.7666 3244 117.218 498.343 358.484
2126 1 246.55 13.5024 3329 118.761 497.878 362.443
2127 0 252.718 15.7211 3973 115.82 497.378 353.137
2128 0 258.659 11.637 3010 122.619 498.57 351.783
2129 0 264.725 16.9119 4477 114.086 497.481 346.491
2130 0 264.725 16.9232 4480 141.364 496.476 346.182
2131 0 263.661 7.86996 2075 120.899 498.504 375.93
2132 0 257.623 10.6629 2747 117.256 499.22 375.047
2133 0 249.799 9.81991 2453 122.205 499.808 348.692
2134 0 245.579 7.41512 1821 119.867 500.766 377.882
2135 0 247.651 10.4946 2599 117.584 500.563 366.176
2136 1 9.11906 4.93472 45 87.1333 504.022 477.156
2137 0 9.00178 5.55445 50 88.92 504.6 477.26
2138 0 12.0224 2.74487 33 90 503.394 479.152
2139 0 7 1.85714 13 91.2308 504.231 480.769
2140 0 8.00336 2.374 19 93.2105 504.053 478.947
2141 0 14.0344 7.19658 101 90.3366 504.267 480.485
2142 0 78.4777 7.90033 620 105.753 504.387 453.471
2143 0 80.3868 10.7605 865 102.768 503.221 452.674
2144 0 83.3567 11.5408 962 100.79 503.49 455.789
2145 0 82.3204 11.0908 913 103.31 505.485 450.693
2146 0 85.4238 9.50555 812 106.004 505.296 446.706
2147 0 90.4145 13.051 1180 105.041 507.478 447.638
2148 0 93.3726 10.6884 998 108.381 505.626 448.768
2149 0 184.712 11.3799 2102 110.845 506.453 408.132
2150 1 98.4688 12.1257 1194 106.564 505.118 446.392
2151 0 104.681 16.4309 1720 100.179 504.931 445.498
2152 0 106.608 22.7563 2426 94.1764 504.317 448.88
2153 0 110.386 19.1782 2117 96.4596 503.934 446.427
2154 0 112.622 14.2689 1607 103.758 503.971 445.548
2155 1 73.451 7.92365 582 108.625 503.758 463.259
2156 0 76.6974 9.34842 717 103.449 503.464 468.953
2157 0 71.4144 13.5547 968 101.634 502.363 462.934
2158 0 79.3165 11.2209 890 101.208 500.957 468.488
2159 0 72.2825 11.0954 802 104.576 500.56 456.984
2160 0 78.5014 14.28 1121 97.8198 499.467 458.783
2161 0 84.8579 14.1059 1197 98.269 500.487 459.083
2162 0 83.4968 16.8749 1409 97.9347 498.891 455.341
2163 0 83.4624 12.2211 1020 104.796 498.134 457.052
2164 0 88.6272 14.341 1271 100.673 498.478 458.553
2165 0 88.5171 16.0534 1421 99.8381 496.975 453.607
2166 0 93.2002 15.7081 1464 99.9597 497.68 451.538
2167 0 93.6904 15.0816 1413 101.244 497.029 452.054
2168 0 93.4237 12.0954 1130 107.726 498.834 448.285
2169 0 99.7568 15.4275 1539 102.079 497.232 449.363
2170 0 100.223 17.7405 1778 99.0051 497.814 451.38
2171 0 104.466 14.7033 1536 104.017 498.463 443.767
2172 0 103.502 14.077 1457 106.067 497.956 438.977
2173 0 106.544 15.4114 1642 103.946 499.034 437.448
2174 0 109.468 19.2294 2105 99.5948 498.651 438.37
2175 0 110.609 13.272 1468 107.737 499.206 438.01
2176 0 113.585 12.6865 1441 109.645 498.979 431.734
2177 0 119.848 15.4028 1846 105.101 499.84 430.048
2178 0 122.953 15.0952 1856 105.921 500.43 428.798
2179 1 72.4846 8.37419 607 109.455 500.166 451.486
2180 0 81.6237 12.1043 988 103.743 501.644 449.928
2181 0 78.2615 16.1127 1261 99.8684 502.232 448.937
2182 0 81.2065 10.7996 877 105.396 502.166 450.59
2183 0 79.3206 11.775 934 102.803 505.272 454.325
2184 0 83.2352 14.8375 1235 99.834 505.819 447.113
2185 0 84.3394 14.4891 1222 101.226 506.024 448.339
2186 0 88.1132 16.9441 1493 97.8781 505.626 448.53
2187 0 89.1605 12.4158 1107 102.952 506.955 453.22
2188 0 93.2763 12.2968 1147 104.432 507.146 444.13
2189 0 95.2556 15.8941 1514 100.272 507.575 444.166
2190 0 97.4129 10.6249 1035 107.717 507.893 447.132
2191 0 100.389 15.4898 1555 102.049 506.81 443.095
2192 0 103.937 13.0367 1355 105.409 506.397 441.973
2193 0 108.67 14.2265 1546 103.448 506.712 444.728
2194 0 111.679 16.2698 1817 100.454 505.805 446.447
2195 0 115.777 13.9492 1615 104.365 505.109 441.633
2196 0 119.518 14.274 1706 103.556 505.533 445.276
2197 0 121.794 14.1714 1726 105.429 505.757 440.779
2198 0 130.177 16.7848 2185 101.56 504.335 440.294
2199 0 126.372 14.8213 1873 106.764 503.914 435.459
2200 0 132.511 13.4555 1783 109.161 502.173 440.356
2201 0 136.301 13.6976 1867 105.19 502.325 433.513
2202 0 141.41 16.7951 2375 101.732 498.993 433.857
2203 1 79.1912 9.19294 728 106.353 499.033 466.228
2204 0 85.4326 14.8655 1270 98.2866 500.706 459.6
2205 0 85.3656 11.6675 996 103.14 500.167 456.119
2206 0 85.3058 9.75315 832 104.677 500.669 459.657
2207 0 87.3611 11.6528 1018 103.966 499.663 455.472
2208 0 95.4377 16 1527 97.9365 498.976 455.885
2209 0 94.2094 13.6186 1283 103.61 498.087 445.611
2210 0 95.2799 14.4836 1380 101.279 499.1 449.246
2211 0 91.3849 8.68852 794 111.223 498.753 436.631
2212 0 98.423 13.4928 1328 105.676 499.093 438.051
2213 0 104.503 12.5068 1307 106.51 498.208 440.854
2214 0 108.345 16.3921 1776 101.221 499.039 433.222
2215 0 102.278 12.7202 1301 106.016 497.29 430.87
2216 0 114.381 14.8627 1700 101.902 499.645 436.52
2217 0 110.491 12.2996 1359 107.642 498.861 430.211
2218 0 116.233 10.8317 1259 110.009 498.962 428.912
2219 0 116.181 10.3889 1207 110.597 499.043 430.743
2220 0 121.293 15.409 1869 104.319 500.293 425.69
2221 0 125.441 16.2068 2033 103.088 501.387 423.01
2222 0 127.495 12.173 1552 108.675 501.372 418.361
2223 0 130.536 11.9967 1566 109.676 502.324 415.288
2224 0 136.593 13.6537 1865 107.423 503.373 416.301
2225 0 140.648 13.5658 1908 107.656 504.836 416.17
2226 0 148.794 14.1001 2098 107.021 504.564 416.397
2227 0 148.54 13.976 2076 108.763 505.253 410.505
2228 0 154.666 15.8147 2446 105.186 504.794 417.204
2229 0 165.611 13.8397 2292 106.687 506.832 413.858
2230 0 163.484 11.3038 1848 113.091 506.486 399.139
2231 0 172.725 15.2091 2627 107.019 507.978 403.123
2232 0 177.301 16.221 2876 105.419 508.293 401.584
2233 0 179.606 14.8548 2668 108.496 507.112 400.705
2234 0 187.347 14.5132 2719 109.574 508.126 399.277
2235 0 189.731 13.419 2546 112.787 508.4 395.151
2236 0 198.449 15.1777 3012 110.792 507.59 392.801
2237 0 205.387 14.2755 2932 111.726 507.904 398.132
2238 0 211.491 13.4994 2855 114.433 506.233 394.788
2239 0 218.358 13.5191 2952 115.258 506.698 385.146
2240 1 57.3653 9.16931 526 105.601 507.211 473.129
2241 0 55.3191 8.58654 475 105.301 506.183 468.891
2242 0 55.3191 8.56847 474 124.684 505.173 468.789
2243 0 60.1653 7.39628 445 110.551 504.973 473.51
2244 0 64.1995 12.6325 811 104.915 502.74 468.94
2245 0 66.1414 10.7799 713 108.985 502.626 468.376
2246 0 66.4196 10.1024 671 111.876 501.955 465.952
2247 0 70.2616 13.464 946 106.615 501.882 466.905
2248 0 73.3205 12.2476 898 109.036 501.996 464.497
2249 0 73.473 9.44564 694 113.915 501.318 460.097
2250 0 75.6195 10.9363 827 112.998 501.036 457.51
2251 0 75.6195 10.9231 826 138.017 500.023 457.545
2252 0 81.4084 12.21 994 110.397 501.027 456.425
2253 0 81.4084 12.1732 991 132.665 503.014 456.18
2254 0 86.4657 12.8375 1110 105.483 499.864 453.377
2255 0 86.3021 11.0542 954 108.867 500.283 447.87
2256 0 86.2466 10.3077 889 112.515 499.627 447.652
2257 0 86.2466 10.2845 887 122.644 497.617 447.506
2258 0 91.2376 11.9359 1089 110.058 500.708 450.697
2259 0 96.1257 10.6527 1024 111.941 500.339 448.569
2260 0 173.47 11.5582 2005 115 500.441 409.029
2261 0 176.89 12.2054 2159 114.657 500.813 400.152
2262 1 60.2339 9.86155 594 106.313 501.177 458.918
2263 0 63.0774 11.5572 729 103.697 503.446 459.631
2264 0 66.228 11.5812 767 104.094 502.293 455.907
2265 0 64.244 9.04364 581 108.831 502.029 458.141
2266 0 67.2586 10.6306 715 106.859 502.312 457.208
2267 0 67.3427 9.08785 612 108.458 501.462 458.011
2268 0 69.2198 7.5412 522 108.716 501.82 458.96
2269 0 70.2521 5.76495 405 113.212 503.467 456.121
2270 0 75.2899 11.0639 833 104.407 503.52 458.42
2271 0 76.1879 10.2641 782 107.23 504.104 454.43
2272 0 81.2756 7.80062 634 108.462 505.562 459.424
2273 0 80.2813 12.1323 974 106.541 505.615 450.925
2274 0 80.4656 10.9612 882 107.359 505.497 454.766
2275 0 81.3061 9.98695 812 110.479 506.262 451.06
2276 0 86.2221 13.848 1194 104.726 506.566 453.611
2277 0 85.3592 9.53617 814 110.494 505.683 457.518
2278 0 91.332 13.8177 1262 105.414 506.659 452.966
2279 0 93.2826 12.3603 1153 107.783 506.101 453.445
2280 0 93.268 14.9783 1397 105.497 506.509 449.222
2281 0 100.505 16.059 1614 103.322 503.963 451.048
2282 0 102.331 11.0426 1130 112.377 504.968 453.296
2283 0 105.432 15.3274 1616 105.61 504.162 449.798
2284 0 106.266 13.5415 1439 108.156 504.304 449.138
2285 0 108.513 10.7914 1171 113.628 503.038 446.088
2286 0 114.151 14.6297 1670 106.923 501.823 447.765
2287 0 120.501 13.7842 1661 106.529 500.329 448.371
2288 0 118.232 10.7585 1272 114.927 500.676 440.002
2289 0 123.143 12.993 1600 110.582 499.009 444.534
2290 0 131.196 13.0416 1711 109.657 499.631 443.188
2291 0 135.227 13.4441 1818 108.388 498.168 433.483
2292 1 60.2508 9.51024 573 106.483 497.34 468.848
2293 0 64.0722 11.8148 757 101.089 496.608 470.801
2294 0 65.1024 9.12409 594 104.505 496.672 464.87
2295 0 65.1392 10.7616 701 102.429 496.094 463.304
2296 0 70.1377 11.3206 794 100.99 497.397 464.006
2297 0 71.1256 14.2846 1016 99.0335 497.558 457.086
2298 0 73.1363 11.8272 865 99.8694 497.621 464.452
2299 0 74.1422 11.3835 844 102.143 497.466 457.898
2300 0 77.1887 15.65 1208 97.6474 497.549 454.236
2301 0 79.1185 14.2065 1124 99.8016 498.329 453.796
2302 0 79.1667 12.5558 994 102.109 498.365 453.643
2303 0 78.1795 9.55494 747 109.797 500.979 450.123
2304 0 82.3796 9.05564 746 109.299 502.249 449.976
2305 0 83.1432 10.8127 899 107.234 502.303 447.031
2306 0 82.1611 9.31098 765 107.965 503.29 453.906
2307 0 86.4133 12.174 1052 107.894 502.397 442.071
2308 0 87.2387 10.6719 931 109.584 504.512 443.215
2309 0 89.1636 9.5779 854 112.69 503.819 439.548
2310 0 92.2724 8.68082 801 113.933 505.65 439.042
2311 0 98.1825 12.5379 1231 107.348 505.56 443.096
2312 0 99.5301 9.56494 952 113.09 506.008 439.655
2313 1 58.1507 12.588 732 105.985 506.839 460.01
2314 0 60.0557 13.9371 837 103.553 508.53 457.773
2315 0 61.1496 11.1203 680 109.031 508.615 456.637
2316 0 65.2335 11.0679 722 106.089 509.686 462.712
2317 0 62.2345 10.7657 670 108.634 508.669 457.028
2318 0 68.1486 10.9613 747 107.26 508.335 461.438
2319 0 69.1889 11.4469 792 107.586 507.299 460.453
2320 0 71.1633 11.4666 816 106.964 507.15 463.314
2321 0 74.2069 12.3034 913 106.468 506.593 462.16
2322 0 73.1958 12.4051 908 107.706 506.287 458.302
2323 0 79.1496 11.2445 890 108.771 506.52 464.361
2324 0 80.228 13.2996 1067 108.051 505.978 461.34
2325 0 81.3492 14.0137 1140 109.252 505.556 459.061
2326 0 83.1235 13.3416 1109 110.142 502.875 459.525
2327 0 83.1141 10.1306 842 117.09 502.751 456.388
2328 0 87.3521 10.8526 948 111.85 502.327 459.704
2329 0 91.2583 12.3057 1123 109.492 501.84 458.599
2330 0 90.3292 9.2329 834 116.885 500.899 452.488
2331 0 97.3536 12.7987 1246 111.819 500.164 454.479
2332 0 108.26 12.3776 1340 112.158 500.019 453.554
2333 0 105.174 10.0501 1057 119.213 499.633 448.979
2334 0 105.257 12.6167 1328 114.897 498.008 449.993
2335 0 109.228 12.1947 1332 114.687 499.068 439.961
2336 0 104.403 11.3311 1183 116.409 499.281 440.692
2337 1 62.1074 8.19548 509 111.69 500.206 464.896
2338 0 63.0882 10.303 650 110.008 500.363 462.734
2339 0 66.2692 10.4121 690 109.278 497.686 463.806
2340 0 66.3048 11.2661 747 109.202 498.829 458.652
2341 0 70.2094 12.89 905 107.317 500.122 456.547
2342 0 69.173 11.146 771 109.585 499.922 461.563
2343 0 69.1149 14.1648 979 107.398 500.175 455.38
2344 0 74.1606 13.8348 1026 108.019 500.819 454.37
2345 0 76.218 12.4511 949 109.783 501.024 452.677
2346 0 77.0672 13.3779 1031 109.827 501.241 448.184
2347 0 79.2078 11.5898 918 112.681 501.21 451.032
2348 0 83.2755 14.7943 1232 107.617 502.25 449.904
2349 0 87.2728 12.8906 1125 110.167 501.941 449.386
2350 0 87.23 15.591 1360 107.579 504.189 446.657
2351 0 90.4111 12.3989 1121 113.276 504.517 445.225
2352 0 90.3099 15.8454 1431 109.161 504.721 443.714
2353 0 92.2234 12.6649 1168 115.42 505.002 444.794
2354 0 96.1562 15.1732 1459 110.792 505.63 443.952
2355 0 99.3871 13.9958 1391 112.951 506.829 443.518
2356 0 102.3 16.52 1690 109.143 506.718 441.118
2357 0 103.343 14.0793 1455 114.599 507.311 439.669
2358 0 103.249 10.9637 1132 120.989 508.248 437.91
2359 0 108.165 13.0726 1414 118.021 507.881 438.552
2360 0 112.318 12.9276 1452 119.823 508.3 439.002
2361 0 114.209 14.6573 1674 117.875 507.17 435.52
2362 0 118.224 14.1426 1672 119.418 508.017 434.309
2363 0 124.315 13.7956 1715 120.703 505.507 431.334
2364 0 131.4 12.9756 1705 121.473 507.001 433.055
2365 1 60.135 10.3101 620 113.194 506.605 471.234
2366 0 64.2687 13.1946 848 107.44 505.623 472.062
2367 0 67.2771 13.7194 923 111.861 505.598 469.928
2368 0 67.0363 11.0835 743 116.089 505.377 472.763
2369 0 67.1229 9.1325 613 120.445 503.752 468.99
2370 0 76.4296 14.9811 1145 107.857 502.924 470.607
2371 0 76.3388 15.1168 1154 108.234 502.267 468.83
2372 0 77.1986 12.6686 978 113.398 501.172 464.239
2373 0 78.5476 12.1837 957 115.388 500.993 462.699
2374 0 83.2995 16.2546 1354 107.482 499.527 464.936
2375 0 84.2272 15.0901 1271 111.462 499.65 458.465
2376 0 88.3517 15.8344 1399 108.784 498.68 462.424
2377 0 86.2191 10.9257 942 108.505 498.659 462.445
2378 0 90.5592 17.4471 1580 94.9892 498.22 461.347
2379 0 91.1798 12.5686 1146 109.814 497.696 454.422
2380 0 92.1607 12.5325 1155 109.253 497.961 456.446
2381 0 99.4047 11.3979 1133 107.593 498.451 455.943
2382 0 99.4058 11.3675 1130 128.425 498.455 455.714
2383 0 100.253 12.3588 1239 110.208 497.096 445.753
2384 0 101.373 9.67713 981 114.978 496.724 444.911
2385 0 101.373 9.69686 983 138.42 496.732 444.731
2386 0 101.359 9.64888 978 138.053 496.736 444.698
2387 1 65.1964 9.89318 645 109.797 501.178 461.028
2388 0 68.1801 13.083 892 103.766 497.878 462.548
2389 0 66.1593 12.7117 841 107.885 500.568 458.089
2390 0 67.142 9.26395 622 113.034 500.752 457.243
2391 0 69.1717 10.6113 734 112.257 501.146 455.595
2392 0 71.0939 11.1683 794 108.105 501.416 461.349
2393 0 72.171 11.1679 806 113.469 502.645 454.72
2394 0 75.0914 11.7856 885 112.075 502.35 455.059
2395 0 77.3012 10.6079 820 115.238 503.461 451.944
2396 0 78.0699 11.8868 928 114.042 503.512 453.419
2397 0 81.1542 12.7042 1031 113.4 504.675 450.283
2398 0 83.2768 11.2036 933 116.637 505.658 449.77
2399 0 85.2309 13.0469 1112 113.838 505.742 449.688
2400 1 158.347 10.4202 1650 127.973 505.807 413.86
2401 1 89.2566 13.5116 1206 113.886 505.369 452.493
2402 0 90.1782 13.7727 1242 114.233 504.633 448.853
2403 0 95.1266 11.9735 1139 116.245 503.991 453.289
2404 0 99.1798 15.5778 1545 110.35 504.648 451.07
2405 0 100.27 14.4809 1452 112.184 504.559 454.209
2406 0 97.2844 10.125 985 126.176 502.598 441.258
2407 0 108.221 9.43438 1021 124.288 502.303 448.798
2408 0 111.524 12.5713 1402 119.59 503.034 447.284
2409 0 118.426 13.1305 1555 117.506 502.914 448.532
2410 0 118.219 11.9185 1409 121.086 501.599 440.102
2411 0 121.203 12.5244 1518 121.254 501.291 434.131
2412 0 131.493 16.3431 2149 113.155 498.749 435.599
2413 1 59.1049 12.3509 730 108.163 501.086 476.9
2414 0 61.0504 12.5798 768 106.842 499.286 472.048
2415 0 59.2647 9.51663 564 111.709 500.622 472.369
2416 0 63.0438 9.56477 603 108.41 496.421 471.081
2417 0 66.0764 10.4727 692 105.035 496.289 472.465
2418 0 66.1732 11.2281 743 105.432 495.939 467.338
2419 0 70.1039 12.2104 856 102.828 495.492 466.763
2420 0 69.1775 7.09768 491 109.862 495.415 465.22
2421 0 74.2007 11.8732 881 104.41 494.952 458.719
2422 0 75.2794 7.95702 599 106.462 495.813 465.457
2423 0 77.1898 10.1438 783 105.508 495.508 458.566
2424 1 193.534 12.5404 2427 114.027 496.168 397.008
2425 0 200.591 14.9409 2997 108.911 496.908 399.217
2426 1 85.3575 10.3447 883 103.853 496.393 450.024
2427 0 88.2325 9.81498 866 104.08 496.579 448.956
2428 0 91.339 10.0724 920 101.65 496.95 453.618
2429 0 93.3461 8.84879 826 107.254 496.724 442.303
2430 1 53.0542 11.7992 626 100.174 497.454 466.663
2431 0 55.2245 11.6072 641 100.509 497.78 465.761
2432 0 58.2198 12.2123 711 100.217 498.491 462.288
2433 0 59.1141 11.5708 684 103.784 499.186 461.959
2434 0 59.1438 12.2413 724 103.903 499.069 462.573
2435 0 61.2549 10.2686 629 107.645 499.576 461.908
2436 0 60.0814 8.28875 498 113.956 500.412 457.175
2437 0 64.3812 10.2204 658 110.568 500.897 459.036
2438 0 66.212 11.0403 731 108.945 500.803 461.491
2439 0 67.1859 12.8747 865 108.229 502.269 460.473
2440 0 71.155 12.2971 875 109.131 503.333 459.518
2441 0 73.1335 14.0565 1028 107.424 502.714 462.228
2442 0 72.1857 12.6064 910 112.268 503.362 463.095
2443 0 72.1857 12.5925 909 137.594 504.354 463.246
2444 0 74.2456 12.7954 950 115.752 502.937 461.339
2445 0 73.1758 11.5475 845 120.277 501.946 462.447
2446 0 78.5265 15.3451 1205 114.352 503.097 461.163
2447 0 83.1756 15.2689 1270 114.069 501.761 464.603
2448 0 85.0527 16.3663 1392 113.831 503.295 461.735
2449 0 87.0947 12.3084 1072 120.645 502.543 463.865
2450 0 91.3639 17.0199 1555 114.036 502.594 459.287
2451 0 92.1318 12.5255 1154 123.001 502.158 459.414
2452 0 96.1191 17.3535 1668 115.165 502.168 459.618
2453 0 97.1352 13.7643 1337 122.699 500.855 458.649
2454 0 99.2377 14.954 1484 121.568 499.843 453.362
2455 0 103.319 16.0183 1655 118.032 499.188 454.789
2456 0 106.21 13.172 1399 123.576 498.516 451.367
2457 0 108.201 14.4638 1565 122.725 497.767 444.272
2458 0 112.356 15.0415 1690 120.678 496.22 447.65
2459 0 116.23 15.4693 1798 119.547 496.958 442.001
2460 0 117.255 13.782 1616 122.973 497.143 432.162
2461 0 126.435 16.6014 2099 111.992 497.149 434.341
2462 0 127.386 16.3519 2083 114.706 497.186 421.338
2463 0 131.303 15.3995 2022 116.435 496.566 433.311
2464 0 133.449 12.7914 1707 120.889 497.853 432.658
2465 0 133.446 11.8325 1579 149.166 498.9 431.077
2466 1 84.3489 12.3534 1042 116.419 497.786 456.923
2467 0 84.1532 12.4178 1045 114.55 498.167 454.065
2468 0 88.2127 16.5282 1458 109.558 498.185 449.613
2469 0 90.2951 16.9444 1530 108.972 499.475 448.999
2470 0 92.3009 12.6543 1168 116.528 498.948 446.441
2471 0 93.1896 12.4155 1157 117.348 498.951 446.201
2472 0 97.1527 13.1854 1281 115.884 498.844 444.771
2473 0 99.3905 14.0859 1400 114.475 499.821 444.482
2474 0 100.518 12.8534 1292 117.525 500.33 443.277
2475 0 107.159 15.9389 1708 112.311 500.772 438.244
2476 0 106.261 13.881 1475 117.079 501.666 435.514
2477 0 111.181 16.8375 1872 110.763 502.351 441.986
2478 0 113.339 15.0787 1709 115.68 502.233 437.712
2479 0 117.275 16.1927 1899 113.415 504.161 436.576
2480 0 121.545 13.312 1618 118.585 503.512 434.145
2481 0 126.528 13.997 1771 116.844 504.16 435.725
2482 0 129.645 14.6168 1895 116.665 503.532 430.789
2483 0 134.328 16.7425 2249 113.422 504.346 429.039
2484 0 137.679 11.062 1523 123.779 502.66 423.505
2485 1 83.3092 7.75424 646 117.325 504.584 458.528
2486 0 83.2669 13.3186 1109 113.151 503.605 448.661
2487 0 90.155 13.377 1206 109.468 503.075 453.373
2488 0 93.2132 11.876 1107 111.173 502.613 456.371
2489 0 98.3755 10.8869 1071 111.8 503.373 452.132
2490 0 98.3755 10.836 1066 131.63 504.357 451.689
2491 0 98.3715 10.8263 1065 131.217 505.363 451.385
2492 0 105.574 10.7792 1138 117.583 502.135 440.2
2493 0 110.385 13.1811 1455 112.908 500.729 446.58
2494 0 110.444 14.0523 1552 112.857 499.798 445.966
2495 0 114.511 8.74148 1001 122.953 500.278 435.385
2496 0 118.865 12.9306 1537 116.326 498.39 434.522
2497 1 67.3856 8.1323 548 116.44 499.062 456.246
2498 0 72.4517 9.28895 673 112.78 497.38 458.73
2499 0 73.5003 9.64622 709 112.155 496.36 458.131
2500 0 75.1346 8.0389 604 113.227 496.513 459.296
2501 0 79.2279 11.549 915 109.287 495.99 454.595
2502 0 83.1795 11.1446 927 110.228 495.894 451.316
2503 0 83.1955 8.94279 744 114.673 495.902 449.851
2504 0 87.3487 10.086 881 112.054 495.842 450.873
2505 0 91.2051 10.4161 950 112.672 496.407 450.732
2506 0 90.2161 11.7939 1064 112.334 496.617 445.134
2507 0 91.2285 10.808 986 110.01 496.455 454.563
2508 0 98.1393 9.83296 965 114.857 497.032 444.774
2509 0 102.578 13.1217 1346 109.549 497.332 438.224
2510 0 104.693 11.7868 1234 112.741 497.019 428.082
2511 0 102.561 9.799 1005 115.025 497.899 436.079
2512 0 108.506 11.6123 1260 113.986 498.738 428.928
2513 0 112.749 12.5766 1418 111.257 499.896 432.375
2514 0 113.463 12.2419 1389 112.344 500.009 427.419
2515 0 120.676 13.5819 1639 110.929 500.523 425.365
2516 0 118.689 11.6102 1378 131.284 501.411 419.95
2517 0 125.48 13.1495 1650 112.455 501.703 420.488
2518 0 130.524 9.64576 1259 119.981 502.052 407.993
2519 1 74.5952 7.33291 547 114.664 502.55 444.031
2520 0 81.3546 8.37076 681 110.001 503.159 448.57
2521 0 84.5482 7.47503 632 114.918 503.701 439.604
2522 0 90.2643 11.5328 1041 107.606 504.951 446.406
2523 0 87.2953 9.30176 812 114.613 505.324 436.432
2524 0 97.5209 12.5614 1225 107.902 504.45 442.23
2525 0 102.587 11.5025 1180 108.941 504.72 446.105
2526 0 104.673 11.8465 1240 109.202 504.417 445.783
2527 0 107.305 15.3115 1643 104.886 503.606 448.749
2528 0 109.28 12.0973 1322 112.039 503.672 443.626
2529 0 116.372 12.4085 1444 110.69 503.53 447.607
2530 0 117.391 10.3756 1218 115.008 503.876 444.241
2531 0 123.627 12.9179 1597 112.28 502.614 436.172
2532 0 125.495 10.1518 1274 116.965 502.418 439.929
2533 1 77.2239 9.33649 721 110.685 501.985 465.229
2534 0 76.1479 8.8512 674 111.432 502.188 466.721
2535 0 79.318 10.1238 803 111.645 500.803 462.466
2536 0 83.1377 9.81505 816 109.565 499.987 451.667
2537 0 86.164 10.1318 873 108.832 499.748 460.593
2538 0 87.3839 9.9904 873 110.749 498.384 457.703
2539 0 92.3186 12.1536 1122 105.473 497.864 453.234
2540 0 92.2736 9.5477 881 110.217 497.505 446.35
2541 0 98.2873 15.0782 1482 101.317 498.188 451
2542 0 101.178 14.7858 1496 102.288 497.537 442.563
2543 0 103.358 15.2286 1574 101.172 497.933 443.308
2544 0 102.369 13.4025 1372 104.786 496.883 440.663
2545 1 9.0015 4.66589 42 87.1667 500.071 494.095
2546 0 17.0029 3.70525 63 91.3968 499.873 491.254
2547 0 7.00146 5.57026 39 91.8974 498.872 487.897
2548 0 12.0253 4.98946 60 91.0833 499.6 490
2549 0 19.0547 3.93603 75 96.7067 499.587 482.52
2550 0 15.0037 1.33301 20 96.6 499.8 489.9
2551 0 19.1843 9.33053 179 84.4581 500.922 489.274
2552 1 137.295 14.6327 2009 109.779 497.638 426.797
2553 0 132.364 13.1985 1747 110.94 499.788 423.929
2554 0 139.621 14.8259 2070 108.334 498.637 427.517
2555 0 141.29 11.8409 1673 115.272 500.272 416.484
2556 0 142.214 11.0256 1568 116.728 500.619 414.792
2557 0 150.469 11.3312 1705 114.653 500.837 415.786
2558 0 156.32 12.7751 1997 112.466 501.361 415.025
2559 0 162.455 14.6564 2381 110.323 502.929 410.186
2560 0 168.363 13.3105 2241 113.933 502.537 406.563
2561 1 102.242 11.062 1131 108.536 504.066 447.557
2562 0 105.519 14.7841 1560 104.397 503.813 441.681
2563 0 109.311 15.9453 1743 105.776 504.669 440.341
2564 0 109.287 13.7253 1500 108.629 504.936 445.797
2565 0 112.389 14.2363 1600 110.544 503.597 437.809
2566 0 119.191 15.9744 1904 106.744 504.792 443.267
2567 0 120.228 13.2997 1599 113.191 503.917 436.752
2568 0 123.25 14.6532 1806 111.034 504.034 442.081
2569 0 126.399 15.1029 1909 112.348 503.481 437.395
2570 0 129.222 14.5718 1883 113.281 502.242 438.837
2571 0 134.338 14.5677 1957 114.149 503.405 439.002
2572 0 142.324 14.7199 2095 113.626 501.811 434.487
2573 0 142.528 14.9515 2131 114.344 501.263 428.346
2574 0 148.6 11.5949 1723 119.734 500.994 426.807
2575 0 155.469 17.9779 2795 110.305 499.876 423.06
2576 1 94.2434 10.3031 971 118.496 499.014 456.754
2577 0 94.2797 9.06876 855 118.692 498.67 449.083
2578 0 95.2325 12.7163 1211 109.805 498.887 451.472
2579 0 97.2112 12.8277 1247 110.19 497.707 446.673
2580 0 104.639 13.5609 1419 108.827 497.968 440.747
2581 0 107.414 11.2276 1206 112.706 498.479 440.581
2582 0 108.261 11.5 1245 113.499 498.201 442.878
2583 0 114.225 13.7798 1574 109.555 497.866 441.927
2584 0 117.268 15.2386 1787 107.357 497.064 438.287
2585 0 119.392 14.5654 1739 108.119 497.714 436.208
2586 0 121.262 13.2193 1603 110.494 496.206 430.793
2587 0 125.348 13.7139 1719 109.885 496.979 429.341
2588 0 131.481 13.637 1793 108.086 496.785 431.868
2589 0 128.264 14.0257 1799 109.113 497.728 421.062
2590 0 135.561 10.8586 1472 113.158 497.859 423.525
2591 0 137.364 14.8438 2039 107.036 498.005 423.871
2592 0 141.648 12.9335 1832 109.507 498.678 417.043
2593 0 145.518 13.4485 1957 108.854 498.493 416.937
2594 0 153.446 14.6045 2241 107.149 498.693 413.629
2595 0 155.434 11.5548 1796 109.25 500.067 421.047
2596 0 158.456 12.8616 2038 109.137 499.406 404.955
2597 0 167.636 13.237 2219 107.639 500.314 407.258
2598 0 169.346 12.6723 2146 108.303 499.868 407.026
2599 1 102.708 12.5502 1289 101.531 499.983 437.635
2600 0 106.528 15.2355 1623 99.1953 500.846 432.618
2601 0 109.085 17.4543 1904 96.4921 500.949 432.255
2602 0 111.315 8.79483 979 107.084 501.564 432.82
2603 0 111.315 8.66906 965 152.623 501.552 432.754
2604 0 117.844 12.1347 1430 103.392 503.716 433.532
2605 0 120.662 10.1441 1224 106.096 503.627 427.372
2606 0 127.566 14.714 1877 95.9515 503.131 438.476
2607 0 131.827 14.9211 1967 99.6817 502.593 430.474
2608 0 131.827 14.7997 1951 134.766 502.585 430.51
2609 0 138.273 13.6686 1890 102.482 502.646 426.325
2610 0 144.686 14.8874 2154 100.771 502.41 422.106
2611 0 150.869 12.7793 1928 103.494 501.633 427.401
2612 0 153.759 14.8349 2281 101.661 501.649 420.655
2613 0 154.71 10.0317 1552 106.301 501.48 429.374
2614 0 154.713 9.55962 1479 155.811 500.47 431.183
2615 0 146.616 5.6474 828 107.016 500.052 428.442
2616 0 145.539 4.89217 712 159.298 501.076 432.779
2617 1 96.4826 8.56113 826 103.177 498.753 435.605
2618 0 92.1718 11.4135 1052 98.884 497.794 440.881
2619 0 92.1563 4.22109 389 110.308 497.149 428.29
2620 1 6 6.5 39 77.5385 495.59 492.949
2621 0 8.00292 3.62368 29 81.5517 500.862 493.793
2622 1 19.0279 4.7299 90 81.4889 500.078 487.856
2623 0 16.0531 7.35061 118 79.2458 499.008 491.771
2624 0 10.0022 2.69942 27 82.8889 499.148 495.333
2625 0 13.2045 12.3442 163 72.7791 493.853 495.037
2626 0 10.0021 5.19891 52 81.7115 496.096 486.904
2627 0 12.0121 8.24166 99 80.6667 495.778 484.626
2628 0 18.0401 8.03766 145 79.4207 495.814 488.869
2629 0 9.04316 5.97136 54 79.8704 495.593 486.463
2630 0 8.00259 2.37423 19 86 497.105 486.368
2631 0 13.6203 8.66357 118 78.4153 496.314 488.669
2632 0 18.0769 5.42129 98 83.9388 496.194 488.337
2633 0 14.0769 6.10929 86 83.4419 495.012 485.035
2634 0 10.003 1.99941 20 91.45 495.05 482.8
2635 0 10.0037 7.89704 79 84.1646 493.633 481.253
2636 0 13.0049 9.99624 130 83.0462 494.923 482.085
2637 0 11.0119 6.99246 77 84.0649 498.909 481.429
2638 0 18.0636 7.36285 133 84.1278 499.03 480.947
2639 0 13.0011 5.6149 73 86.3151 499.137 480.521
2640 0 10.0219 1.89584 19 88.8947 500.789 481.474
2641 0 4 7 28 81.8571 499.357 481.75
2642 0 14.8166 6.20927 92 74.4457 498.435 482.424
2643 1 268.362 16.0119 4297 96.8881 504.037 363.465
2644 0 272.281 10.7866 2937 106.813 504.691 343.862
2645 0 262.022 12.8806 3375 105.651 504.29 346.537
2646 1 154.688 15.36 2376 95.8792 504.585 393.804
2647 0 160.58 14.896 2392 95.8298 503.576 407.079
2648 0 162.545 16.5185 2685 95.3121 503.147 396.327
2649 0 164.898 13.9177 2295 99.0096 503.056 395.325
2650 0 169.832 14.4731 2458 97.9609 502.365 400.013
2651 0 176.99 13.4697 2384 100.285 501.768 402.36
2652 1 165.841 9.65384 1601 106.86 502.171 399.839
2653 0 171.468 7.72157 1324 107.833 500.76 409.151
2654 0 202.943 20.8039 4222 94.3226 498.76 395.582
2655 0 201.582 9.75287 1966 108.287 496.918 387.157
2656 0 211.097 15.5284 3278 101.559 496.473 374.526
2657 0 218.618 11.8426 2589 106.038 496.3 378.181
2658 0 226.769 12.9118 2928 104.351 495.789 390.888
2659 0 217.67 9.69818 2111 106.671 494.136 400.129
2660 1 240.688 14.9281 3593 104.889 494.942 367.576
2661 0 241.951 15.003 3630 105.586 493.849 366.969
2662 1 174.465 8.99319 1569 107.904 493.713 406.744
2663 0 176.429 13.6485 2408 105.856 494.106 387.825
2664 0 183.506 15.7924 2898 102.55 493.589 386.927
2665 0 186.354 13.1524 2451 107.851 494.071 384.915
2666 0 192.559 13.7465 2647 106.872 493.836 379.269
2667 1 21.0491 5.22589 110 86.6 494.191 471.845
2668 0 14.0122 6.63709 93 84.4624 494.624 471.344
2669 0 7 1.28571 9 94.8889 495.111 469.111
2670 0 18.006 7.10872 128 81.8438 494.906 473.578
2671 0 25.034 1.63777 41 91.8293 494.317 464
2672 0 26.0621 5.17994 135 85.3111 494.941 462.378
2673 0 33.3029 5.76526 192 85.0833 495.766 460.734
2674 0 36.0429 5.82639 210 86.0048 499.238 463.652
2675 0 38.0547 9.01335 343 81.898 499.032 466.895
2676 1 21.0064 11.3299 238 81.937 500.504 464.05
2677 1 38.0989 6.22065 237 87.3797 501.27 472.025
2678 0 44.271 10.8197 479 82.5282 500.829 475.82
2679 0 41.2305 7.27617 300 85.7467 502.54 473.923
2680 0 42.1186 5.3658 226 89.6327 502.23 473.783
2681 0 41.1264 9.36138 385 95.2935 502.818 476.291
2682 0 43.1871 7.68749 332 88.8705 505.072 475.873
2683 0 44.1868 8.87143 392 89.25 505.112 476.156
2684 0 43.2184 9.07021 392 88.9107 505.398 476.097
2685 0 43.0858 11.187 482 84.9378 502.037 475.469
2686 0 48.221 11.4266 551 83.7804 503.572 476.508
2687 0 49.1708 11.3685 559 83.7746 501.968 480.148
2688 0 46.2466 8.15194 377 87.5199 501.019 478.544
2689 0 48.2488 11.0262 532 84.3421 501.492 478.863
2690 0 38.1436 10.5915 404 85.9926 499.045 474.644
2691 0 43.1205 10.4359 450 86.8556 498.033 479.56
2692 0 47.1195 10.6113 500 85.89 498.516 485.696
