time division length width area intensity CMx CMy
0 0 35.1188 11.8455 416 135.615 891.683 475.481
1 0 40.3054 13.1248 529 123.418 891.55 477.543
2 0 40.6815 14.8225 603 127.653 891.745 476.798
3 0 39.0765 14.0238 548 121.215 890.785 478.617
4 0 40.0767 16.2439 651 136.318 889.814 477.356
5 0 38.0231 16.7004 635 119.668 889.973 476.427
6 0 39.0521 14.8007 578 123.436 888.872 476.519
7 0 43.1724 14.639 632 124.91 888.41 475.239
8 0 43.2896 16.4936 714 120.59 887.419 473.717
9 0 45.0869 15.1264 682 123.391 885.868 472.679
10 0 45.0869 15.1042 681 139.922 883.847 472.718
11 0 47.2418 13.886 656 129.489 884.733 466.511
12 0 48.2049 14.065 678 132.633 884.587 466.327
13 0 49.2396 12.3884 610 134.634 885.025 464.651
14 0 51.1365 13.1804 674 134.091 883.751 464.331
15 0 53.0631 15.1141 802 128.882 883.623 462.815
16 0 54.133 14.7599 799 125.859 883.363 461.501
17 0 55.2136 14.1813 783 131.298 883.723 459.077
18 0 57.0897 16.4828 941 124.88 884.278 458.674
19 0 61.1821 15.9687 977 126.535 884.769 457.276
20 0 62.1136 15.7453 978 124.656 883.71 453.152
21 0 63.0873 15.3121 966 122.5 884.903 452.24
22 0 64.2159 15.4479 992 127.205 884.498 452.577
23 0 64.2159 15.4479 992 142.348 884.514 452.516
24 0 64.2263 13.6237 875 130.815 899.192 450.947
25 0 70.1176 14.0906 988 127.92 898.154 447.484
26 0 75.2452 16.7452 1260 123.24 897.617 443.588
27 0 77.3715 15.8973 1230 125.452 897.463 442.689
28 0 82.2741 18.1831 1496 119.829 896.375 440.602
29 0 83.3664 14.6942 1225 124.517 895.884 441.199
30 0 84.6033 15.354 1299 123.842 897.557 439.41
31 1 50.0744 14.119 707 119.733 895.993 459.364
32 0 49.0618 14.3085 702 138.829 893.954 459.174
33 0 52.0553 16.5785 863 120.937 898.547 455.458
34 0 54.0556 16.187 875 117.791 898.634 454.078
35 0 52.0847 12.9212 673 125.85 898.465 456.533
36 0 59.1158 13.6004 804 120.388 898.042 457.259
37 0 57.3707 13.8747 796 118.82 899.783 460.176
38 0 58.0785 12.4487 723 123.693 897.708 456.888
39 0 64.108 13.68 877 119.081 898.649 457.54
40 0 66.3073 14.5685 966 116.835 897.033 455.222
41 0 67.1171 14.3332 962 120.958 896.271 456.305
42 0 70.144 17.3785 1219 114.393 895.825 457.436
43 0 73.208 17.662 1293 112.894 895.538 455.718
44 0 75.1742 16.3088 1226 117.992 894.442 454.247
45 0 79.0779 15.6681 1239 113.764 895.391 455.059
46 0 79.3114 14.6133 1159 132.337 893.632 451.878
47 0 79.3114 14.7016 1166 144.554 891.65 451.858
48 0 87.1535 15.9718 1392 127.422 891.938 452.166
49 0 87.1535 15.9948 1394 145.648 891.948 452.157
50 0 92.251 14.1787 1308 135.298 891.268 450.415
51 1 48.1492 13.022 627 127.845 889.29 472.15
52 0 47.1351 12.6445 596 128.797 888.903 471.82
53 0 51.1097 12.5417 641 127.732 887.602 469.797
54 0 52.2024 12.9879 678 127.482 887.771 468.406
55 0 55.2167 14.4884 800 122.728 887.25 467.169
56 0 55.1082 12.9563 714 126.559 886.651 465.353
57 0 61.1921 12.9102 790 123.381 886.532 465.789
58 0 64.5721 13.4578 869 125.405 886.489 460.939
59 0 63.0286 12.9941 819 127.309 885.681 457.349
60 0 65.09 14.1804 923 124.173 886.197 456.057
61 0 69.3729 14.2707 990 126.385 886.01 457.168
62 0 73.3844 14.1038 1035 124.544 884.899 454.147
63 0 76.5918 15.1191 1158 122.112 884.293 452.109
64 0 81.8853 17.4634 1430 116.211 885.596 450.277
65 0 78.5536 11.6481 915 128.466 885.862 446.057
66 0 84.3672 15.0651 1271 121.028 885.666 445.268
67 0 85.7632 11.4035 978 128.18 886.263 441.119
68 0 90.6188 17.8109 1614 115.9 886.802 440.014
69 0 93.7784 14.2783 1339 121.437 887.156 437.01
70 0 97.6061 14.9069 1455 121.044 888.385 436.265
71 0 99.1565 11.3255 1123 128.711 887.087 435.416
72 0 101.401 14.0729 1427 124.663 888.368 433.015
73 0 103.317 13.2601 1370 125.736 888.446 432.686
74 0 110.306 16.0735 1773 120.104 889.723 431.979
75 0 112.267 16.0065 1797 119.938 889.748 430.757
76 1 57.1705 11.8243 676 117.368 890.678 458.18
77 0 57.077 11.4056 651 118.871 890.605 458.177
78 0 61.2147 12.6604 775 116.659 890.95 456.743
79 0 60.164 9.9395 598 120.207 891.162 458.236
80 0 63.038 13.3412 841 115.361 892.769 458.44
81 0 65.1472 10.4532 681 120.495 892.977 457.784
82 0 68.1133 12.4792 850 118.712 892.807 457.893
83 0 69.1217 12.4563 861 119.707 893.488 457.661
84 0 74.2352 14.2385 1057 116.816 890.992 456.102
85 0 75.2246 13.812 1039 118.306 891.343 454.09
86 0 76.2089 10.9567 835 122.133 890.523 458.729
87 0 81.2043 11.2802 916 123.5 890.093 453.995
88 0 85.2015 12.5115 1066 120.795 889.354 455.341
89 0 86.2849 11.9024 1027 123.834 890.386 450.286
90 1 48.1079 9.47868 456 121.772 891.2 471.965
91 0 50.0465 11.6891 585 116.981 889.113 469.463
92 0 53.0434 9.0115 478 119.416 889.975 471.956
93 0 57.0707 14.5258 829 110.531 889.853 469.972
94 0 59.1324 14.4929 857 108.615 887.558 472.67
95 0 58.1975 10.4472 608 116.222 887.702 468.354
96 0 58.2119 11.1833 651 116.018 886.149 467.814
97 0 62.1311 11.4113 709 115.629 886.876 466.619
98 0 64.2813 11.8386 761 115.919 885.095 464.871
99 0 63.1469 11.402 720 116.335 884.872 465.565
100 0 67.1244 13.5867 912 113.279 885.348 462.112
101 0 69.2473 14.1233 978 114.011 884.505 459.642
102 0 72.1606 13.5531 978 115.509 883.79 459.347
103 0 75.0806 14.1581 1063 116.57 883.643 454.74
104 0 76.3189 13.7581 1050 117.402 883.252 453.506
105 0 78.3302 12.4601 976 118.94 883.611 455.347
106 0 81.1264 14.989 1216 115.645 883.749 447.316
107 0 84.3934 14.8353 1252 117.027 883.55 449.948
108 0 87.3289 14.1648 1237 118.537 883.614 449.044
109 0 93.1831 16.3012 1519 114.08 884.504 446.798
110 0 96.3175 15.0544 1450 117.05 884.38 441.463
111 0 93.2098 13.6681 1274 121.203 885.065 438.699
112 0 100.209 10.7774 1080 124.723 884.733 437.325
113 1 50.0963 11.8372 593 116.356 883.592 462.024
114 0 52.1995 13.2377 691 114.449 884.861 456.748
115 0 52.3172 13.9342 729 112.856 884.643 458
116 0 54.1359 12.247 663 117.718 887.561 457.597
117 0 56.0721 13.0546 732 117.689 888.056 457.296
118 0 59.2065 14.7788 875 115.386 889.455 457.013
119 0 60.1671 13.7617 828 118.565 889.595 453.793
120 0 63.091 9.81123 619 123.189 891.107 459.031
121 0 65.222 13.6917 893 117.726 891.04 456.611
122 0 65.1585 12.7535 831 120.947 890.905 453.233
123 0 68.2614 14.8693 1015 116.17 890.482 456.178
124 0 72.1487 14.5394 1049 116.479 891.649 456.173
125 0 75.5159 17.7578 1341 111.261 891.546 457.644
126 0 74.5097 14.3606 1070 119.498 891.589 452.27
127 0 78.1724 16.9113 1322 117.156 891.859 450.986
128 0 78.1378 16.5349 1292 117.237 890.381 450.008
129 0 82.2241 16.1388 1327 116.603 891.965 453.211
130 0 86.2964 17.2081 1485 114.81 890.459 451.479
131 0 93.2211 13.3446 1244 120.432 890.867 454.379
132 0 94.1686 15.313 1442 117.394 890.189 454.184
133 0 94.2865 14.9332 1408 119.916 889.798 450.15
134 0 96.2231 13.0946 1260 121.167 890.049 451.753
135 1 51.0922 10.7257 548 119.745 889.828 475.903
136 0 53.1417 11.4223 607 117.213 889.178 475.787
137 0 51.4364 9.95403 512 121.199 884.477 469.174
138 0 55.0363 17.3159 953 108.39 886.437 471.848
139 0 55.0688 11.4039 628 114.439 884.764 472.693
140 0 59.0684 16.8618 996 107.03 885.97 468.355
141 0 60.0959 17.0561 1025 107.46 884.616 466.639
142 0 60.1559 13.9305 838 113.672 884.372 462.721
143 0 62.0872 12.0154 746 117.214 883.138 463.684
144 0 68.1778 13.5675 925 112.561 883.179 462.106
145 0 66.1161 14.3384 948 112.27 882.212 461.008
146 0 69.1958 12.9921 899 112.831 882.895 458.687
147 0 73.176 16.5218 1209 108.212 881.744 454.877
148 0 78.1352 17.7001 1383 106.129 882.393 453.148
149 0 77.086 14.2049 1095 112.511 882.452 455.889
150 0 79.2536 12.5168 992 115.63 881.517 450.082
151 0 82.1422 15.3758 1263 112.549 882.658 444.263
152 0 85.3295 13.6412 1164 114.914 882.291 445.833
153 0 92.3573 15.884 1467 111.282 882.753 444.406
154 1 49.1348 12.0485 592 110.887 883.601 463.201
155 0 48.1029 11.4754 552 109.616 882.46 463.895
156 0 50.0938 10.8397 543 109.893 883.07 460.814
157 0 50.1264 13.2066 662 106.542 883.372 459.74
158 0 49.1254 11.4401 562 109.304 884.037 458.673
159 0 51.1415 10.5785 541 110.468 883.638 459.921
160 0 52.0913 10.0593 524 109.573 884.651 461.08
161 0 55.0952 11.1988 617 109.506 884.684 458.974
162 0 56.1429 14.374 807 107.715 885.875 454.797
163 0 59.2098 12.025 712 108.629 885.413 458.749
164 0 61.3738 13.7029 841 109.398 886.391 452.347
165 0 64.268 15.0308 966 106.46 886.592 455.633
166 0 66.2823 13.3822 887 108.727 888.45 455.914
167 0 68.2822 12.3019 840 113.125 890.488 454.314
168 0 70.5229 14.4492 1019 111.152 889.674 454.165
169 0 73.4733 16.3189 1199 107.193 889.893 457.643
170 0 75.4559 11.9673 903 114.629 890.288 457.822
171 0 83.4999 14.8743 1242 109.616 889.452 455.646
172 1 41.1117 11.1647 459 113.113 890.865 473.643
173 0 42.0824 11.0498 465 112.843 889.841 474.822
174 0 44.1274 9.49523 419 117.578 889.652 473.563
175 0 46.1159 17.5211 808 104.913 889.861 473.384
176 0 43.1289 13.309 574 108.57 887.517 474.807
177 0 45.0775 12.7558 575 107.904 887.969 476.645
178 0 48.298 11.8431 572 110.075 887.74 475.136
179 0 47.1594 12.2351 577 110.354 886.402 474.069
180 0 49.0984 16.5179 811 103.231 885.698 472.874
181 0 47.0817 12.0854 569 111.011 884.835 474.023
182 0 51.1254 17.4082 890 100.856 884.167 476.1
183 0 52.042 12.5284 652 109.308 883.233 471.699
184 0 52.0666 10.8131 563 112.163 883.577 467.401
185 0 55.1482 12.2397 675 110.401 882.394 467.806
186 0 58.1463 12.4514 724 110.59 881.591 462.503
187 0 59.1496 13.1869 780 108.405 882.345 464.246
188 0 60.0688 11.7033 703 110.74 881.257 464.364
189 0 65.0977 18.3263 1193 99.9497 881.509 463.993
190 0 64.1301 8.73225 560 113.925 879.805 460.146
191 0 66.1312 11.2655 745 110.572 879.76 460.173
192 0 69.0827 14.6491 1012 107.531 878.902 455.834
193 0 75.0865 10.9341 821 112.241 879.158 455.019
194 0 72.2274 7.7256 558 117.672 879.781 454.867
195 0 77.3052 14.7726 1142 108.25 879.919 453.008
196 0 78.1496 12.8983 1008 112.694 880.174 443.938
197 0 83.2375 12.7346 1060 111.298 880.19 445.223
198 1 40.0562 13.4561 539 109.976 881.892 463.724
199 0 42.0495 12.3188 518 109.722 882.855 463.014
200 0 42.0414 11.3222 476 115.792 883.84 462.691
201 0 43.165 14.1318 610 106.551 883.434 463.923
202 0 44.0319 12.3547 544 109.419 883.803 463.974
203 0 46.1138 12.8378 592 108.542 883.688 463.265
204 0 48.064 13.2948 639 107.934 885.687 461.516
205 0 47.0546 14.4088 678 106.978 886.081 460.478
206 0 50.1103 12.4725 625 109.125 887.728 460.885
207 0 50.0803 9.48477 475 113.442 887.836 462.968
208 0 51.2589 15.2559 782 106.566 888.081 459.836
209 0 51.1077 11.7008 598 112.943 888.677 461.269
210 0 55.2023 14.9813 827 107.352 890.063 457.19
211 0 56.1352 15.3558 862 105.355 889.133 463.609
212 0 59.1763 13.8738 821 108.284 888.825 463.114
213 0 62.1167 11.9453 742 109.798 889.666 466.445
214 0 63.2201 12.9864 821 109.995 889.121 464.125
215 0 66.1064 11.3907 753 111.384 889.066 467.668
216 0 64.1688 12.545 805 112.789 888.99 464.694
217 0 70.0913 13.14 921 109.878 888.333 465.962
218 0 69.2183 12.0199 832 113.94 887.999 462.417
219 0 72.1373 12.5178 903 112.934 888.41 460.852
220 0 73.2067 11.5836 848 114.77 887.367 463.265
221 0 76.1878 12.6923 967 114.013 886.173 459.598
222 0 78.5237 12.5185 983 113.599 886.39 463.58
223 0 83.2314 16.2439 1352 110.192 885.063 459.521
224 0 84.2322 13.3084 1121 114.15 884.231 460.105
225 1 44.0928 11.884 524 115.2 883.302 476.876
226 0 45.0327 13.2126 595 114.249 882.208 477.126
227 0 47.3206 11.4538 542 113.459 882.666 477.092
228 0 49.1169 14.2517 700 111.24 880.264 474.45
229 0 51.1084 17.4531 892 105.254 879.512 473.212
230 0 53.1432 13.4166 713 113.09 879.265 471.764
231 0 55.1733 19.5022 1076 105.091 879.459 472.151
232 0 57.1665 15.4636 884 109.826 878.738 468.794
233 0 59.2064 16.6029 983 109.204 878.445 467.512
234 0 63.8703 16.0168 1023 106.198 879.653 473.426
235 0 63.2381 17.5369 1109 109.15 877.964 465.685
236 0 63.3054 14.8013 937 114.48 877.969 462.736
237 0 65.1389 14.1544 922 117.274 878.529 457.497
238 0 67.1146 15.8535 1064 114.995 878.252 457.517
239 0 74.5477 17.9214 1336 112.069 879.341 457.336
240 0 71.1451 14.9835 1066 117.801 877.283 453.671
241 0 75.3861 14.2069 1071 120.194 879.017 449.399
242 0 78.1176 15.1438 1183 119.159 879.369 449.449
243 0 81.1929 14.7796 1200 120.342 879.026 448.378
244 0 80.1958 12.881 1033 125.766 880.257 446.22
245 0 83.1781 15.593 1297 117.968 879.459 446.692
246 1 46.0573 13.1792 607 118.588 881.395 466.809
247 0 45.1016 11.9286 538 123.171 879.558 464.121
248 0 51.077 15.0753 770 117.986 880.764 461.171
249 0 51.1496 14.8388 759 119.862 882.777 461.657
250 0 53.1656 15.0285 799 119.365 882.605 462.458
251 0 57.0891 13.5402 773 119.37 884.347 463.869
252 0 54.1813 15.0975 818 118.661 884.298 462.56
253 0 58.2612 13.3365 777 122.928 884.722 460.55
254 0 60.1686 17.451 1050 115.772 885.386 461.11
255 0 61.2938 18.0442 1106 116.667 885.388 458.7
256 0 63.1657 18.3802 1161 114.627 885.892 462.713
257 0 67.4586 17.1809 1159 116.168 887.406 462.874
258 0 67.2299 15.7817 1061 122.776 887.163 459.929
259 0 70.2228 16.0632 1128 120.859 886.046 461.357
260 0 73.1724 18.3949 1346 116.16 885.573 463.746
261 0 74.1681 19.7929 1468 114.949 884.21 462.456
262 0 75.1477 14.904 1120 124.014 884.125 461.535
263 0 79.0909 14.6793 1161 123.85 884.512 462.776
264 0 80.2174 13.9371 1118 128.049 883.102 460.747
265 1 45.0997 13.9247 628 122.561 883.277 477.326
266 0 47.1306 11.4788 541 125.88 882.368 478.723
267 0 47.0321 11.6304 547 127.673 883.519 476.229
268 0 50.1705 13.793 692 122.53 882.981 474.233
269 0 50.0646 13.2029 661 124.514 882.171 472.646
270 0 51.1968 14.2978 732 118.731 880.231 470.846
271 0 53.1907 12.0322 640 122.158 878.684 472.509
272 0 54.1432 11.9498 647 122.26 878.943 470.294
273 0 56.1822 15.0938 848 116.616 878.906 467.54
274 0 60.0996 13.9934 841 116.975 878.316 467.359
275 0 62.1293 15.6287 971 113.777 877.353 468.479
276 0 62.0747 13.8221 858 120.049 876.57 463.15
277 0 66.1132 13.129 868 122.37 877.303 460.948
278 0 68.1882 14.504 989 123.501 876.806 457.142
279 0 72.1653 17.2382 1244 117.539 876.619 455.748
280 0 73.0829 13.8747 1014 124.3 876.307 455.102
281 0 75.1822 14.6444 1101 124.342 875.996 450.661
282 0 81.4589 16.1677 1317 119.147 877.151 454.601
283 0 83.128 16.4445 1367 120.729 877.36 446.15
284 1 43.151 12.0739 521 121.021 877.981 465.372
285 0 45.0343 15.1218 681 117.26 878.333 462.172
286 0 47.0727 12.64 595 119.928 879.4 463.301
287 0 47.0787 13.042 614 114.637 881.018 465.121
288 0 47.4229 14.1914 673 116.538 880.009 459.661
289 0 50.1009 14.5706 730 115.755 880.601 459.06
290 0 49.1064 12.5849 618 120.472 882.424 458.843
291 0 53.1304 12.8363 682 118.208 882.111 459.029
292 0 55.1422 12.7489 703 117.876 884.11 459.323
293 0 57.3736 11.6953 671 120.435 884.936 457.136
294 0 57.2947 13.9978 802 116.855 886.746 457.116
295 0 58.3643 12.9017 753 121.279 885.899 454.672
296 0 61.2179 13.5908 832 119.621 886.877 454.992
297 0 63.4545 14.4355 916 118.6 887.795 455.643
298 0 65.263 11.7371 766 123.648 886.65 455.659
299 0 67.3865 13.6823 922 119.768 887.782 456.607
300 0 67.4609 12.6592 854 122.499 887.92 455.857
301 0 71.2454 14.3027 1019 120.614 887.099 454.32
302 0 75.1726 15.4711 1163 118.248 887.404 454.628
303 0 76.2235 22.8276 1740 107.494 887.802 458.098
304 0 77.6803 11.9721 930 126.878 886.905 455.194
305 0 80.3455 14.4501 1161 123.43 887.051 454.736
306 0 85.3568 14.949 1276 122.756 886.895 455.308
307 0 86.2473 13.2294 1141 128.678 884.972 452.563
308 0 89.3588 14.0557 1256 124.751 886.279 451.151
309 1 48.1274 11.1371 536 121.664 885.468 473.037
310 0 44.1915 7.92007 350 131.883 885.883 471.203
311 0 49.1421 13.5729 667 120.562 884.58 470.805
312 0 51.0672 11.2401 574 122.915 883.138 465.58
313 0 51.0604 13.6309 696 118.493 883.04 469.486
314 0 53.0728 13.9431 740 115.219 883.803 470.964
315 0 56.1589 14.1919 797 116.103 882.903 466.639
316 0 56.1493 12.3243 692 120.983 882.633 463.984
317 0 58.0959 9.8458 572 122.367 881.902 466.757
318 0 61.085 13.4075 819 117.245 881.524 463.295
319 0 61.1662 12.0164 735 119.631 880.699 463.429
320 0 63.1519 13.1588 831 118.616 880.627 459.085
321 0 66.1708 13.2989 880 118.478 880.576 456.861
322 0 66.1047 9.24291 611 124.319 880.957 460.105
323 0 71.1813 13.3322 949 118.989 880.642 452.614
324 0 73.5227 12.826 943 119.621 879.998 452.585
325 0 77.2023 16.7871 1296 113.276 879.625 450.408
326 0 79.3156 12.2548 972 121.336 880.481 446.617
327 0 80.279 15.9444 1280 116.04 881.21 444.633
328 0 82.2314 13.8633 1140 119.819 881.174 443.288
329 0 86.2786 13.5375 1168 119.313 882.414 442.443
330 0 87.3531 12.604 1101 121.639 882.233 442.104
331 0 92.286 15.1702 1400 118.023 883.584 435.115
332 0 94.251 14.3765 1355 118.466 883.394 433.534
333 0 99.2342 17.232 1710 114.053 884.047 432.412
334 1 54.1486 12.8905 698 117.337 885.9 456.086
335 0 55.1126 14.8786 820 113.638 886.494 457.457
336 0 53.1667 12.3762 658 119.406 886.538 456.802
337 0 57.2386 12.841 735 115.369 887.022 456.544
338 0 62.261 14.3589 894 113.247 888.183 457.06
339 0 61.1616 12.4261 760 118.679 888.937 454.932
340 0 63.1052 15.1493 956 114.945 888.464 452.906
341 0 66.1062 14.3708 950 116.256 890.2 454.085
342 0 68.2095 16.8305 1148 114.807 889.423 453.139
343 0 71.2812 15.6142 1113 114.183 889.319 456.579
344 0 73.1556 14.3803 1052 117.402 891.367 453.886
345 0 75.1636 14.7678 1110 117.34 891.378 454.543
346 0 85.6684 15.9102 1363 112.331 890.368 455.652
347 0 79.2599 14.6859 1164 120.129 890.784 453.733
348 0 83.3114 21.1736 1764 110.266 889.67 453.17
349 0 84.3082 14.3165 1207 122.287 889.89 451.283
350 0 86.2775 15.9485 1376 118.612 888.53 451.592
351 0 88.372 12.5266 1107 125.772 888.056 446.922
352 0 93.2228 13.7305 1280 122.677 887.589 448.472
353 1 51.2274 10.2094 523 119.461 888.029 472.036
354 0 53.3339 12.6186 673 116.256 887.486 470.361
355 0 55.1995 13.0798 722 113.655 885.161 468.892
356 0 54.1402 14.2223 770 115.04 885.874 468.405
357 0 57.1375 13.3538 763 115.429 884.345 467.385
358 0 58.0646 12.7444 740 116.928 882.991 465.189
359 0 61.0711 13.689 836 114.693 881.783 462.63
360 0 62.1453 13.3558 830 115.648 880.384 457.667
361 0 64.2411 13.2314 850 114.648 881.626 457.8
362 0 67.0712 12.9862 871 114.062 882.002 458.156
363 0 67.1561 12.6571 850 114.442 883.254 457.396
364 0 72.2706 15.2759 1104 109.798 882.127 454.244
365 0 74.2638 13.7752 1023 110.738 882.209 456.306
366 0 77.1591 13.3102 1027 114.708 883.189 450.252
367 0 76.4674 11.1812 855 118.739 882.988 447.956
368 0 79.2209 11.5374 914 117.836 883.345 446.358
369 0 83.2621 12.7309 1060 115.221 882.857 446.832
370 0 86.3533 13.6069 1175 114.727 883.07 440.493
371 0 87.516 11.0951 971 114.25 883.655 438.41
372 0 91.3116 14.1932 1296 109.796 883.14 436.113
373 1 50.122 10.1552 509 108.336 884.285 458.534
374 0 51.1496 14.135 723 107.011 885.923 456.538
375 0 53.0479 13.3841 710 107.227 886.48 455.238
376 0 54.1411 9.91852 537 112.121 885.752 455.16
377 0 57.0761 13.8937 793 105.716 885.652 455.372
378 0 58.0871 14.5471 845 105.764 886.815 454.653
379 0 58.0923 12.7728 742 109.08 888.677 452.039
380 0 61.3407 11.9496 733 110.042 888.277 449.034
381 0 61.0601 10.2194 624 113.534 889.532 448.369
382 0 67.2081 12.5431 843 108.098 890.866 449.554
383 0 69.0941 14.3862 994 105.375 891.559 447.904
384 0 71.212 13.7898 982 107.497 891.707 447.093
385 0 73.2046 11.6523 853 109.995 890.882 448.089
386 0 76.2242 11.0988 846 111.286 892.512 448.76
387 0 77.4149 12.4911 967 109.677 892.847 445.074
388 0 83.2839 12.3313 1027 108.129 893.654 450.818
389 0 85.2752 10.4837 894 110.898 893.272 451.923
390 1 46.0904 10.0455 463 109.551 892.715 470.03
391 0 46.0887 10.9571 505 109.299 893.384 467.125
392 0 49.2867 13.2693 654 105.812 892.031 469.37
393 0 50.0924 15.0322 753 100.323 890.64 468.855
394 0 51.1154 11.9533 611 106.295 889.345 470.098
395 0 53.0564 11.9495 634 106.984 889.94 469.544
396 0 54.041 15.5438 840 101.981 890.092 469.49
397 0 56.2697 16.9718 955 100.214 890.264 466.692
398 0 57.0773 14.2614 814 104.684 888.635 466.402
399 0 60.2406 13.5789 818 109.251 887.411 467.122
400 0 61.3215 12.2632 752 111.812 886.626 467.769
401 0 63.2082 13.3211 842 110.584 886.728 465.506
402 0 63.1362 13.9223 879 111.312 885.497 460.82
403 0 67.2485 14.7959 995 109.198 884.698 461.411
404 0 67.1794 14.2454 957 111.822 884.178 459.78
405 0 71.2407 14.7668 1052 110.956 882.988 458.501
406 0 70.2846 12.051 847 116.588 883.553 456.991
407 0 74.4627 14.7994 1102 111.47 882.642 459.839
408 0 76.5067 12.7963 979 116.543 883.299 452.061
409 0 81.3901 13.4783 1097 113.369 881.951 453.015
410 0 80.5166 11.6001 934 118.293 882.242 448.768
411 1 45.2327 12.1815 551 114.909 881.16 467.515
412 0 47.1122 12.4596 587 114.685 881.7 465.676
413 0 48.0745 13.4999 649 114.157 882.715 461.487
414 0 49.1897 12.1367 597 117.117 882.854 462.296
415 0 48.0645 12.2336 588 113.451 882.207 460.912
416 0 48.0645 12.3168 592 122.166 881.179 460.929
417 0 47.0554 10.7108 504 116.813 882.696 458.498
418 0 55.1142 14.7331 812 109.106 883.243 453.936
419 0 56.363 13.1292 740 113.978 886.001 455.395
420 0 57.2969 11.3968 653 116.149 885.681 452.87
421 0 61.2071 15.4884 948 110.23 885.751 450.775
422 0 64.2643 15.9653 1026 110.548 887.661 451.243
423 0 65.3993 13.3946 876 115.068 888.945 450.03
424 0 65.2732 11.7047 764 120.736 888.28 447.495
425 0 67.4886 13.4689 909 117.499 889.036 448.523
426 0 69.5357 14.2948 994 115.664 890.92 448.47
427 0 70.1985 11.325 795 120.758 891.126 447.479
428 0 78.7413 16.9034 1331 108.384 891.316 454.113
429 0 78.357 13.3747 1048 118.053 891.083 445.171
430 0 81.4293 13.7665 1121 116.527 891.788 448.077
431 0 81.4293 13.7788 1122 138.708 892.766 448.025
432 0 88.5211 18.7187 1657 109.204 891.502 446.427
433 0 90.6327 15.7559 1428 113.578 891.768 447.424
434 0 93.4078 13.8104 1290 116.919 891.998 447.393
435 0 97.5064 11.8351 1154 119.169 891.197 447.999
436 1 51.2307 9.66217 495 115.663 891.782 471.802
437 0 52.0955 11.287 588 115.148 891.179 469.536
438 0 54.2279 12.8716 698 111.996 890.552 468.662
439 0 52.2464 12.0582 630 117.3 888.87 465.467
440 0 58.119 14.1262 821 111.976 889.904 467.308
441 0 59.1757 14.3978 852 111.367 889.356 466.203
442 0 60.1016 15.2409 916 103.455 888.299 467.303
443 0 60.185 12.5779 757 107.827 887.374 466.675
444 0 64.1359 14.9058 956 104.15 886.464 464.339
445 0 66.0888 17.0528 1127 102.446 887.434 460.529
446 0 69.1573 17.5108 1211 101.661 886.06 459.538
447 0 70.088 13.7541 964 105.723 885.78 459.713
448 0 71.2083 12.6811 903 108.486 885.47 455.121
449 0 86.2983 14.4615 1248 102.921 885.146 459.518
450 0 77.1327 14.6501 1130 107.175 885.282 453.167
451 0 79.1345 12.1439 961 111.362 884.602 453.147
452 0 81.3754 12.8171 1043 110.648 883.685 447.01
453 0 87.2346 13.6414 1190 107.937 883.257 450.851
454 0 94.245 18.7915 1771 103.074 882.06 450.292
455 0 93.6544 17.2336 1614 107.55 882.414 441.898
456 0 93.6544 17.1909 1610 139.565 882.439 442.119
457 0 99.4258 16.6556 1656 108.682 882.913 440.314
458 1 53.1222 11.0876 589 113.07 884.411 461.993
459 0 53.0564 13.4385 713 111.923 884.84 459.394
460 0 57.1252 12.1838 696 113.194 884.953 458.678
461 0 60.2804 13.7358 828 110.083 885.605 458.273
462 0 59.0428 12.3808 731 110.997 885.688 457.91
463 0 63.0773 13.206 833 109.844 885.187 451.885
464 0 63.0773 13.1109 827 130.961 884.151 451.816
465 0 64.0676 12.0498 772 112.304 887.644 452.679
466 0 64.0676 12.0966 775 127.414 890.666 452.77
467 0 70.1307 14.4302 1012 108.837 888.31 454.725
468 0 71.1858 13.8511 986 111.051 888.79 452.725
469 0 73.0608 12.3048 899 113.424 889.32 453.714
470 0 79.163 13.9964 1108 111.347 889.576 451.184
471 0 80.1545 14.4346 1157 112.072 890.572 451.227
472 0 85.0916 14.267 1214 112.093 890.562 452.473
473 0 85.1846 14.9558 1274 113.968 890.141 447.081
474 0 88.1742 14.7889 1304 114.105 889.823 451.219
475 0 91.2054 13.1462 1199 115.998 890.332 454.134
476 1 46.0733 11.9809 552 115.286 889.15 475.022
477 0 49.2056 13.6773 673 113.305 889.009 474.366
478 0 52.1115 14.373 749 115.142 888.117 473.515
479 0 55.1203 13.3163 734 115.556 885.034 474.436
480 0 57.3379 14.8244 850 114.688 886.28 473.904
481 0 58.5925 14.6606 859 116.303 885.2 474.334
482 0 60.4061 17.879 1080 110.35 884.66 475.757
483 0 61.7438 13.4426 830 119.769 883.752 474.154
484 0 60.0985 14.5095 872 113.343 883.6 477.398
485 0 64.5889 14.631 945 112.931 883.238 477.157
486 0 66.1174 13.8844 918 115.757 881.844 472.642
487 0 65.3133 10.6716 697 121.29 881.933 473.426
488 0 79.7998 15.589 1244 108.174 881.936 473.958
489 0 74.2114 14.5934 1083 112.963 880.417 472.908
490 0 78.5314 15.6243 1227 112.957 879.333 464.289
491 0 78.3229 13.8401 1084 118.397 880.208 464.335
492 0 82.4229 16.0756 1325 112.426 879.141 467.065
493 0 83.5667 14.8624 1242 116.844 879.118 459.558
494 0 86.3091 19.1521 1653 108.126 878.015 464.834
495 0 90.6442 17.6956 1604 113.989 877.07 456.332
496 0 92.5455 15.5383 1438 115.895 876.691 458.57
497 1 50.2887 17.32 871 108.218 877.126 475.76
498 0 53.5431 16.3607 876 110.707 876.603 471.666
499 0 50.1118 12.532 628 119.677 877.073 469.1
500 0 52.4181 15.3573 805 114.311 878.215 467.758
501 0 56.484 15.3849 869 115.556 878.235 466.121
502 0 59.343 18.5363 1100 109.82 878.702 466.354
503 0 62.5044 15.0549 941 114.986 879.078 462.816
504 0 60.5012 11.9832 725 127.946 879.865 458.673
505 0 63.6858 14.1319 900 121.786 879.444 458.218
506 0 66.283 12.0695 800 124.185 881.535 459.401
507 0 66.283 12.0091 796 156.74 882.554 459.352
508 0 69.3608 15.268 1059 121.169 882.681 456.132
509 0 69.5351 14.0361 976 124.941 882.659 454.987
510 0 69.5351 14.0505 977 150.105 882.641 454.996
511 0 78.4236 15.0082 1177 120.79 884.164 452.378
512 0 78.5185 13.5891 1067 124.782 884.991 450.403
513 0 81.85 14.4533 1183 121.7 885.79 449.697
514 0 85.7086 14.7826 1267 122.034 885.234 447.89
515 1 43.612 13.001 567 117.245 885.261 470.383
516 0 42.6096 12.7436 543 116.381 885.832 470.764
517 0 46.2933 13.5009 625 115.054 886.477 470.781
518 0 49.4637 13.1612 651 121.69 888.141 473.409
519 0 51.7495 14.1257 731 119.156 887.427 475.86
520 0 51.7495 14.1644 733 145.658 887.416 475.858
521 0 52.4395 14.0352 736 118.511 886.546 476.164
522 0 52.2594 15.1169 790 117.172 886.441 476.861
523 0 53.2915 14.7866 788 117.655 885.558 476.482
524 0 54.5125 15.4827 844 117.956 884.827 472.615
525 0 56.6207 13.0694 740 119.743 885.408 477.4
526 0 57.187 13.8143 790 118.356 884.281 472.328
527 0 61.5684 17.5739 1082 113.587 882.866 472.257
528 0 63.4158 15.7059 996 116.216 881.069 473.517
529 0 64.3744 13.67 880 120.103 880.42 471.907
530 0 65.382 14.6677 959 119.655 878.977 470.456
531 0 65.8005 13.5105 889 122.832 876.836 467.444
532 0 69.4739 17.2007 1195 115.633 876.823 468.272
533 0 72.6666 16.2248 1179 118.416 875.956 463.456
534 0 76.4502 16.2459 1242 117.599 875.101 464.235
535 0 81.4638 18.0939 1474 114.038 875.878 463.661
536 0 79.4394 17.1451 1362 117.836 875.366 458.959
537 0 81.8551 16.0894 1317 119.753 874.992 456.282
538 0 87.7636 17.5243 1538 117.036 875.25 455.39
539 0 88.5842 16.8879 1496 113.867 875.438 463.325
540 0 92.58 15.0464 1393 120.921 876.411 452.167
541 0 100.702 18.381 1851 112.935 874.494 453.175
542 0 98.7079 14.8013 1461 122.117 874.358 447.352
543 1 50.4497 14.6681 740 117.839 877.201 465.388
544 0 53.0829 13.7709 731 121.953 877.985 463.943
545 0 55.5186 14.0313 779 126.739 878.705 465.297
546 0 54.3051 12.6323 686 128.009 879.485 465.789
547 0 58.4532 14.2507 833 124.908 878.844 463.6
548 0 61.1966 15.4911 948 119.916 879.633 463.361
549 0 63.2823 14.5854 923 121.645 880.425 461.95
550 0 65.2798 15.1808 991 119.233 880.863 462.041
551 0 64.1386 13.4708 864 123.117 883.019 460.579
552 0 70.1188 21.3495 1497 110.415 883.57 458.627
553 0 70.1188 21.5349 1510 129.329 883.57 458.575
554 0 73.3321 20.3731 1494 113.107 883.12 456.261
555 0 76.3515 15.5858 1190 121.066 882.938 457.379
556 0 79.42 16.8346 1337 119.269 884.055 453.98
557 0 81.6124 15.9535 1302 121.769 885.328 449.671
558 0 85.7056 16.16 1385 120.284 885.451 452.191
559 0 88.3833 18.7253 1655 116.599 884.824 451.673
560 1 42.221 13.8557 585 121.86 884.315 473.974
561 0 44.3106 11.7353 520 124.998 885.058 475.135
562 0 47.3891 15.4255 731 117 885.103 473.963
563 0 50.7304 15.9865 811 113.818 885.318 478.292
564 0 49.1612 15.9679 785 116.434 884.62 476.266
565 0 50.1979 13.5862 682 124.315 885.521 477.5
566 0 52.0535 14.7541 768 122.163 884.357 476.799
567 0 54.0779 11.8163 639 126.031 882.844 477.484
568 0 56.0707 16.2473 911 119.379 883.546 474.819
569 0 58.2092 16.2689 947 118.114 883.266 474.341
570 0 59.1706 15.8018 935 120.649 882.693 474.417
571 0 60.6335 16.2451 985 120.421 881.364 473.492
572 0 60.6335 16.3936 994 146.902 879.433 473.527
573 0 65.333 18.3062 1196 118.513 881.095 471.391
574 0 66.2834 16.0221 1062 123.798 880.053 468.58
575 0 70.8767 16.3664 1160 122.808 880.346 467.632
576 0 70.1698 15.2915 1073 127.815 879.072 464.732
577 0 72.3147 14.3954 1041 128.666 879.226 467.354
578 0 74.265 15.6063 1159 127.097 879.86 463.519
579 0 75.4546 14.512 1095 129.825 879.244 462.641
580 0 82.4352 24.6618 2033 109.838 879.612 464.502
581 0 82.4236 17.0461 1405 124.358 878.674 460.105
582 0 87.5195 17.4932 1531 123.82 878.488 455.487
583 0 88.6133 16.3971 1453 126.022 878.139 455.14
584 0 90.8662 15.0881 1371 128.436 879.082 451.462
585 0 92.9986 14.3551 1335 130.097 879.113 450.109
586 0 92.9986 14.2798 1328 146.379 879.126 450.096
587 0 101.808 16.698 1700 121.013 879.345 442.246
588 1 51.5636 9.44464 487 124.088 880.318 465.854
589 0 53.1879 12.014 639 122.013 880.446 457.903
590 0 57.26 15.1065 865 115.68 880.671 456.012
591 0 60.2427 14.1428 852 113.995 880.833 460.48
592 0 59.3491 13.2437 786 118.186 881.422 456.308
593 0 59.3601 11.8935 706 121.824 880.351 460.955
594 0 63.1191 13.4666 850 119.124 881.893 461.887
595 0 66.2681 15.9956 1060 115.611 882.845 459.082
596 0 66.2681 15.9202 1055 136.473 882.857 459.068
597 0 70.4472 14.1099 994 118.194 885.414 459.867
598 0 72.1616 14.8833 1074 120.052 886.768 456.802
599 0 75.3421 12.8215 966 120.749 886.902 458.818
600 0 76.4879 13.7146 1049 120.422 887.341 456.635
601 0 85.8242 14.9492 1283 113.388 887.844 461.242
602 0 81.4688 11.1699 910 121.766 888.434 452.144
603 0 84.7667 10.1809 863 121.987 887.667 450.314
604 0 87.7587 14.5968 1281 114.443 887.514 453.191
605 0 94.6058 14.1006 1334 113.238 887.416 453.923
606 1 48.114 12.9484 623 106.608 885.709 472.448
607 0 51.1666 12.0196 615 108.171 883.813 477.286
608 0 52.2542 12.688 663 108.136 885.112 473.445
609 0 53.1277 14.4557 768 105.29 885.332 476.73
610 0 56.1348 14.002 786 104.765 885.075 476.216
611 0 60.4308 14.3801 869 102.132 884.12 477.601
612 0 62.203 16.1246 1003 102.432 885.606 476.588
613 0 64.2664 14.9534 961 105.073 884.59 473.906
614 0 70.299 14.6375 1029 104.029 884.141 468.592
615 0 65.6009 10.7163 703 110.464 882.78 462.462
616 0 70.2188 14.5545 1022 104.947 882.847 465.201
617 0 74.1538 9.80395 727 116.858 880.182 467.829
618 0 75.2046 10.8637 817 116.444 879.843 464.705
619 0 76.1798 12.9824 989 113.295 878.883 459.785
620 0 80.1855 11.2739 904 115.178 878.841 456.689
621 0 84.2169 11.5298 971 113.57 878.359 461.024
622 0 85.3825 13.34 1139 112.634 877.91 456.853
623 0 87.2609 13.6373 1190 112.736 878.659 451.275
624 1 43.0271 9.9937 430 113.537 878.186 476.272
625 0 48.1205 15.004 722 103.886 877.13 473.393
626 0 48.0802 11.2936 543 110.269 877.512 470.764
627 0 51.201 13.6326 698 107.891 878.547 470.9
628 0 49.2413 11.0273 543 114.479 879.908 469.289
629 0 54.2165 13.5199 733 109.243 878.431 467.506
630 1 107.947 11.2926 1219 120.057 880.116 440.765
631 1 55.2641 10.5493 583 120.17 880.497 461.775
632 0 59.4312 14.0667 836 115.303 881.789 458.337
633 0 61.3939 14.3011 878 114.746 880.485 460.281
634 0 60.5193 13.7312 831 116.606 881.809 456.011
635 0 65.5526 12.1734 798 117.673 881.323 455.744
636 0 68.1394 14.2942 974 112.556 882.276 458.117
637 0 71.7348 13.8148 991 113.07 882.539 456.117
638 0 71.416 12.8963 921 113.516 883.506 452.658
639 0 80.4179 14.7728 1188 107.053 883.451 457.829
640 0 80.3837 12.403 997 109.816 884.205 453.496
641 0 79.3821 13.3657 1061 127.938 885.179 454.176
642 0 84.3856 19.0909 1611 98.3911 885.942 463.208
643 0 83.2128 11.5727 963 114.222 885.192 450.987
644 0 92.0578 12.8941 1187 113.76 885.667 448.521
645 0 92.5351 13.3787 1238 112.891 885.688 445.883
646 0 94.8602 15.2329 1445 108.39 884.987 445.343
647 1 50.6213 11.6157 588 106.741 884.852 469.997
648 0 54.4475 21.5437 1173 92.2234 884.853 476.499
649 0 56.2133 16.3129 917 99.4864 883.88 474.086
650 0 56.1314 14.5551 817 105.416 883.541 469.655
651 0 56.0856 11.322 635 109.939 883.099 469.389
652 0 60.1645 10.8037 650 110.268 883.397 469.683
653 0 61.1121 12.1089 740 108.619 883.059 468.6
654 0 63.1178 14.3858 908 105.1 883.316 469.112
655 0 65.1096 14.7751 962 104.907 882.236 465.76
656 0 67.3883 13.2516 893 106.076 881.942 469.041
657 0 69.0348 11.2262 775 108.769 881.912 469.982
658 0 74.3675 16.7681 1247 101.577 881.132 466.749
659 0 72.2079 11.3422 819 109.354 881.11 467.629
660 0 77.2669 15.3235 1184 104.541 879.247 459.091
661 0 75.1337 9.26349 696 115.339 878.638 459.046
662 0 81.1132 11.3052 917 111.493 878.23 461.563
663 0 84.3461 12.0219 1014 111.875 878.243 458.394
664 0 86.2859 15.1241 1305 107.754 877.548 455.19
665 0 89.3047 9.15965 818 115.984 877.322 456.847
666 1 45.1783 9.38504 424 112.068 876.175 477.087
667 0 47.1279 8.25414 389 114.506 876.458 473.761
668 0 47.1279 8.2117 387 120.318 877.457 473.695
669 0 50.3402 12.0381 606 108.101 878.485 468.17
670 0 53.342 12.523 668 109.229 878.22 468.172
671 0 53.231 10.9898 585 111.48 877.591 467.641
672 0 55.316 13.5765 751 107.494 878.378 465.691
673 0 56.3282 13.3681 753 108.502 878.888 462.817
674 0 59.1508 12.9669 767 110.288 878.947 460.589
675 0 59.6373 12.7102 758 112.281 880.297 459.92
676 0 61.2639 13.8907 851 111.121 880.509 457.875
677 0 66.6537 14.3578 957 108.767 881.347 455.189
678 0 66.6035 14.5338 968 109.815 881.563 457.395
679 0 69.4451 13.9967 972 111.156 882.652 452.427
680 0 72.3434 14.2791 1033 110.493 882.478 455.229
681 0 76.1962 13.3078 1014 111.548 883.509 453.867
682 0 75.1336 12.8704 967 113.131 884.064 452.537
683 0 80.2558 11.7873 946 113.968 883.893 452.662
684 1 43.0123 10.7411 462 111.571 884.255 470.247
685 0 46.0707 12.763 588 107.299 885.122 471.126
686 0 47.0394 15.4339 726 103.837 885.391 470.868
687 0 47.2514 10.7722 509 111.949 885.11 472.739
688 0 49.1055 15.1307 743 105.342 885.211 472.6
689 0 51.3051 12.1625 624 110.295 885.252 473.232
690 0 50.1755 11.7189 588 107.156 884.859 476.964
691 0 51.1892 13.1864 675 106.735 883.874 474.935
692 0 53.2457 13.1278 699 105.906 884.66 475.373
693 0 52.0713 12.771 665 105.976 883.735 476.711
694 0 53.1676 11.4167 607 109.301 884.303 476.843
695 0 56.2222 12.2372 688 105.933 883.561 477.108
696 0 59.2895 13.4088 795 103.979 883.838 476.487
697 0 61.4138 11.9354 733 106.648 883.008 475.828
698 0 61.2153 9.57276 586 112.326 882.961 475.483
699 0 64.3677 11.7295 755 109.649 881.742 473.261
700 0 68.183 13.7424 937 107.89 881.647 474.954
701 0 69.2514 14.5701 1009 108.19 880.879 472.45
702 0 75.749 12.7923 969 109.029 879.969 474.527
703 0 73.1651 15.0618 1102 110.19 879.8 469.053
704 0 77.237 12.6364 976 113.246 878.773 467.49
705 0 77.1455 13.494 1041 114.522 877.76 463.907
706 0 81.3531 13.9638 1136 112.462 878.062 463.99
707 0 82.2008 12.214 1004 114.448 878.18 466.059
708 0 84.1729 14.5177 1222 112.78 877.228 458.22
709 0 89.1761 14.3985 1284 113.555 877.223 455.174
710 0 95.2729 10.7481 1024 117.422 877.568 458.55
711 0 96.1735 13.5068 1299 115.256 877.804 454.192
712 1 55.145 14.072 776 111.928 878.625 472.733
713 0 55.4437 16.1966 898 110.698 877.489 463.953
714 0 59.7201 15.5726 930 110.456 879.975 464.192
715 0 64.9141 15.2663 991 107.878 880.452 466.574
716 0 62.2996 17.2393 1074 107.223 881.739 466.384
717 0 61.128 14.3633 878 113.913 881.097 461.358
718 0 66.2293 15.9597 1057 109.722 881.099 462.983
719 0 64.1286 11.9292 765 118.65 880.549 459.963
720 0 71.2103 14.8012 1054 112.839 882.361 460.136
721 0 71.2103 14.7591 1051 151.157 884.343 459.974
722 0 75.5547 16.7428 1265 111.326 882.825 458.03
723 0 74.312 12.6225 938 120.776 882.552 451.98
724 0 76.3262 16.3247 1246 113.849 883.9 455.339
725 0 80.5006 12.2484 986 121.084 884.448 455.162
726 0 82.2666 12.9579 1066 120.728 885.235 454.186
727 0 86.3168 13.2187 1141 121.215 886.075 450.101
728 0 89.3989 13.8369 1237 120.289 886.434 451.317
729 1 46.0412 10.8164 498 120.701 888.293 473.02
730 0 49.1046 13.3389 655 116.837 888.108 471.756
731 0 53.0717 14.4145 765 113.409 888.12 473.345
732 0 51.0909 11.8025 603 120.905 888.149 471.496
733 0 55.0506 12.5339 690 117.088 889.074 474.632
734 0 57.0383 11.8692 677 119.196 888.397 475.513
735 0 57.1058 13.4312 767 117.035 888.034 474.837
736 0 60.0647 13.8517 832 115.695 887.978 475.358
737 0 61.0937 13.2911 812 118.265 888.291 473.933
738 0 63.2302 15.1668 959 114.698 887.821 472.266
739 0 63.0554 12.0529 760 120.58 886.426 470.593
740 0 65.0544 12.4819 812 119.395 887.111 467.879
741 0 71.0751 15.5469 1105 112.905 886.181 469.084
742 0 71.2857 17.1002 1219 111.061 885.4 472.494
743 0 73.2588 15.6978 1150 114.275 883.663 466.403
744 0 74.1649 12.0542 894 121.174 883.548 463.527
745 0 75.2882 11.2235 845 123.097 883.998 464.401
746 0 78.0907 12.7032 992 121.106 883.411 460.588
747 0 81.2967 12.399 1008 122.047 882.356 458.681
748 0 85.2114 15.3853 1311 117.098 882.856 456.894
749 0 85.2114 15.2562 1300 133.278 883.875 456.768
750 0 88.4059 13.8226 1222 121.556 881.998 455.967
751 0 90.2281 14.8845 1343 120.596 881.051 452.007
752 0 90.3411 11.9104 1076 126.485 880.535 449.818
753 0 97.3535 15.1407 1474 122.595 879.847 447.48
754 0 99.4257 15.1068 1502 123.391 880.834 447.584
755 0 99.4257 15.1973 1511 137.478 881.826 447.496
756 1 53.2044 10.751 572 126.776 881.175 467.205
757 0 56.0753 13.999 785 121.804 881.941 464.353
758 0 58.0634 15.707 912 118.859 882.325 464.103
759 0 61.076 15.4725 945 115.6 883.251 462.477
760 0 65.1357 12.9729 845 121.652 883.269 464.548
761 0 64.0985 14.2905 916 122.013 884.464 460.187
762 0 67.0318 14.3365 961 122.483 884.519 455.3
763 0 69.0975 11.9397 825 126.771 885.567 456.501
764 0 70.111 12.2092 856 126.479 886.025 453.61
765 0 74.0739 14.31 1060 123.03 886.402 453.477
766 0 75.2675 10.4029 783 130.466 886.134 454.931
767 0 80.19 14.4906 1162 123.651 886.913 450.204
768 0 87.9115 15.0265 1321 119.836 887.625 453.841
769 0 85.1587 12.8466 1094 128.387 888.617 449.504
770 0 92.2167 17.2203 1588 116.703 888.829 452.766
771 0 92.0872 15.3224 1411 122.79 888.858 445.705
772 0 94.2328 12.6601 1193 128.535 888.498 447.238
773 1 48.0985 11.1438 536 125.121 889.944 468.942
774 0 50.1896 12.1937 612 123.157 889.116 468.611
775 0 54.0873 13.6261 737 114.986 885.334 472.282
776 0 53.2034 14.4352 768 114.992 885.965 472.436
777 0 57.1665 14.6239 836 111.932 884.726 473.691
778 0 55.1562 13.6159 751 115.447 885.236 474.442
779 0 60.0574 15.4852 930 114.485 884.475 472.285
780 0 61.0968 14.4688 884 118.482 884.234 471.804
781 0 61.0372 13.1723 804 122.305 884.41 471.756
782 0 64.1739 12.061 774 124.86 883.562 469.55
783 0 68.0889 16.9778 1156 115.45 883.888 466.643
784 0 67.0883 11.6116 779 126.528 883.141 465.592
785 0 70.1454 12.5311 879 124.797 882.648 465.711
786 0 75.38 14.4203 1087 119.887 881.674 464.873
787 0 78.2949 16.1824 1267 117.097 882.764 463.436
788 0 79.2128 13.4196 1063 122.198 880.995 462.017
789 0 80.2888 12.1437 975 125.487 880.623 457.718
790 0 84.1705 13.734 1156 122.287 879.768 456.828
791 0 87.4101 14.7695 1291 120.634 880.452 451.87
792 0 87.2013 10.5847 923 129.021 879.051 448.855
793 1 47.3293 9.78253 463 121.985 880.762 475.758
794 0 45.2267 9.75088 441 122.578 879.66 474.404
795 0 48.1134 14.0501 676 115.114 877.942 470.664
796 0 51.0705 12.4338 635 117.235 877.792 472.028
797 0 52.0559 14.811 771 114.441 878.728 468.06
798 0 53.2371 11.7024 623 119.149 878.093 468.632
799 0 56.0999 15.3833 863 112.345 879.284 466.881
800 0 53.1713 12.6196 671 120.107 878.133 466.586
801 0 57.2293 11.7597 673 120.709 880.123 463.707
802 0 54.1675 12.166 659 116.806 879.229 461.649
803 0 60.0602 12.321 740 119.822 878.369 461.372
804 0 63.0764 15.9489 1006 114.786 879.434 459.123
805 0 63.0532 14.2578 899 117.141 880.394 460.13
806 0 65.1414 14.9521 974 116.332 880.374 459.171
807 0 68.2168 14.6885 1002 119.482 880.665 454.496
808 0 67.1101 10.8478 728 127.265 882.835 455.611
809 0 71.0936 13.1235 933 122.413 883.239 455.95
810 0 76.1379 13.4755 1026 122.185 883.739 451.378
811 0 78.1474 14.8949 1164 119.399 885.231 451.271
812 0 80.0748 15.8477 1269 118.791 884.617 449.586
813 0 82.2718 11.1581 918 128.455 884.897 450.026
814 1 44.1366 10.3316 456 125.842 885.965 468.18
815 0 44.144 9.469 418 124.943 886.184 472.574
816 0 45.3775 9.47607 430 126.523 887.363 472.391
817 0 46.1851 13.0345 602 122.12 885.799 470.796
818 0 48.5304 13.6203 661 119.198 888.23 467.977
819 0 52.8852 12.6689 670 121.639 888.118 469.136
820 0 51.5965 10.7759 556 125.493 888.484 469.662
821 0 53.3358 12.7869 682 122.859 888.201 468.26
822 0 56.114 16.1101 904 115.728 885.103 470.292
823 0 56.0699 13.7864 773 119.501 884.678 471.988
824 0 57.0449 13.6734 780 121.795 885.022 470.327
825 0 57.0666 12.722 726 118.843 886.826 469.971
826 0 61.0586 12.7582 779 117.101 887.416 472.452
827 0 62.0741 12.5495 779 117.766 885.841 473.611
828 0 62.1895 12.3493 768 120.487 885.245 469.452
829 0 67.0937 11.6702 783 121.886 883.66 468.135
830 0 70.0375 12.5361 878 118.904 884.962 467.917
831 0 71.06 13.2845 944 118.664 884.144 466.115
832 0 75.0796 10.4289 783 125.313 883.888 463.53
833 0 76.264 11.9322 910 121.924 882.955 464.037
834 0 78.1023 11.8306 924 122.299 882.653 461.332
835 0 85.5017 13.298 1137 117.746 882.803 459.907
836 0 82.1309 11.9565 982 124.859 883.45 453.227
837 0 84.2801 12.0076 1012 124.405 883.353 455.354
838 0 87.2856 12.6023 1100 122.775 882.81 451.287
839 0 93.4389 15.3041 1430 116.714 882.194 451.002
840 1 51.0959 12.134 620 117.437 882.282 469.905
841 0 52.0975 15.6821 817 112.162 883.912 465.071
842 0 54.0811 13.8126 747 115.712 883.09 467.228
843 0 54.0397 13.157 711 119.041 883.17 461.129
844 0 56.0495 11.7931 661 119.452 883.175 465.918
845 0 60.0904 14.9275 897 114.014 882.981 463.291
846 0 58.1049 12.9593 753 120.56 882.535 460.995
847 0 60.1376 12.7374 766 120.77 883.736 461.273
848 0 58.0549 11.2824 655 124.966 884.311 456.988
849 0 64.111 12.9463 830 118.228 884.736 459.296
850 0 65.1518 11.4502 746 120.63 886.205 457.064
851 0 68.1036 14.1109 961 114.997 886.384 458.38
852 0 68.13 13.1513 896 118.581 887.363 454.583
853 0 74.1408 14.9445 1108 113.465 886.643 455.781
854 0 69.3856 11.9477 829 123.111 887.396 453.817
855 0 75.297 14.051 1058 116.751 886.693 455.716
856 0 73.2598 13.4453 985 120.792 887.312 452.958
857 0 78.3822 16.1516 1266 113.822 887.193 455.634
858 0 78.4189 13.7084 1075 120.371 888.114 448.821
859 0 83.3324 15.0962 1258 116.428 888.279 452.028
860 0 84.3201 14.6466 1235 118.456 888.069 449.541
861 0 88.5636 13.8657 1228 120.167 889.05 450.726
862 1 45.1094 9.75406 440 125.043 890.475 466.809
863 0 47.0979 12.2723 578 120.318 890.516 468.915
864 0 51.25 13.0146 667 117.339 888.765 464.67
865 0 51.0149 14.0939 719 116.381 889.065 469.331
866 0 52.1679 14.2808 745 115.793 888.565 471.309
867 0 51.0628 12.4748 637 121.41 889.43 469.466
868 0 54.0464 11.0646 598 123.273 888.831 471.321
869 0 56.0831 13.6583 766 117.883 887.522 472.952
870 0 58.0679 13.3464 775 118.996 887.079 466.739
871 0 59.0569 15.4935 915 114.362 886.188 469.903
872 0 63.1679 13.8678 876 117.362 884.458 467.073
873 0 65.1173 15.2494 993 114.611 884.658 468.337
874 0 66.1063 13.2514 876 118.054 883.929 465.264
875 0 69.1151 13.4413 929 117.128 883.83 463.654
876 0 68.1052 12.0842 823 120.046 884.126 463.412
877 0 73.1754 13.8298 1012 115.094 883.319 463.808
878 0 75.0902 13.7435 1032 116.538 883.968 459.872
879 0 77.0769 14.4661 1115 115.113 882.873 459.062
880 0 77.0769 14.4661 1115 139.293 881.888 459.126
881 0 79.2294 14.3507 1137 117.32 882.071 449.077
882 0 79.2294 14.3507 1137 136.229 882.071 449.077
883 0 87.2143 13.7822 1202 119.5 881.925 448.511
884 0 88.2377 13.2256 1167 121.626 882.963 443.527
885 1 48.1645 13.0387 628 120.561 883.416 460.912
886 0 51.0637 13.5713 693 118.896 883.563 460.196
887 0 50.4071 12.4387 627 121.33 883.033 464.432
888 0 52.422 12.6664 664 122.934 881.367 461.294
889 0 54.1004 14.5101 785 117.001 881.567 464.994
890 0 56.1837 14.0432 789 117.641 880.824 462.937
891 0 56.1177 13.8103 775 118.892 881.717 460.293
892 0 61.3154 15.4774 949 113.679 883.731 461.57
893 0 60.4127 17.1321 1035 112.483 883.929 459.082
894 0 62.1457 13.6132 846 119.599 884.403 459.988
895 0 61.3266 12.4253 762 122.354 884.017 458.147
896 0 65.3617 14.7946 967 118.589 884.422 457.449
897 0 70.1582 13.213 927 119.702 885.256 455.646
898 0 71.282 14.7302 1050 115.952 886.221 456.858
899 0 75.3685 15.1389 1141 115.659 885.76 454.522
900 0 75.4513 13.4789 1017 118.987 885.934 457.388
901 0 80.4088 15.2844 1229 114.958 885.54 454.181
902 0 82.2487 16.0489 1320 113.762 886.903 452.327
903 0 84.4868 12.6647 1070 118.554 886.759 456.317
904 0 88.3873 12.8525 1136 117.577 888.062 458.583
905 1 48.4312 15.1555 734 115.44 888.458 470.342
906 0 49.499 15.9801 791 112.917 889.498 471.87
907 0 52.485 12.918 678 118.664 888.86 471.289
908 0 50.3957 15.2989 771 119.163 887.281 469.87
909 0 54.5686 13.2127 721 119.904 888.015 475.212
910 0 55.2619 14.947 826 119.688 886.969 471.421
911 0 55.2619 14.8927 823 147.601 885.943 471.305
912 0 56.5299 12.9489 732 125.351 886.796 470.042
913 0 57.5517 14.3871 828 147.254 889.008 471.795
914 0 59.4064 12.3387 733 127.711 885.84 469.3
915 0 63.5692 12.2544 779 126.109 884.184 470.071
916 0 66.4608 15.3925 1023 119.823 884.768 471.287
917 0 68.4684 14.6783 1005 122.1 883.247 465.3
918 0 67.2918 13.0328 877 127.223 881.624 464.074
919 0 72.289 16.4894 1192 120.067 882.305 459.596
920 0 73.3896 16.6236 1220 120.471 881.614 458.761
921 0 74.2172 11.7628 873 128.785 879.8 458.973
922 0 80.4169 18.6901 1503 114.929 879.601 461.793
923 0 80.0286 14.4948 1160 124.891 879.51 456.701
924 0 85.1217 13.9917 1191 124.057 878.595 453.722
925 0 85.1139 14.228 1211 119.458 879.465 451.442
926 0 89.0949 14.0412 1251 119.516 879.051 450.213
927 0 94.2156 16.77 1580 116.642 878.886 446.394
928 0 96.2598 16.8087 1618 116.992 879.198 442.949
929 1 52.1021 12.5907 656 121.555 879.098 465.684
930 0 53.0541 11.6296 617 122.88 878.415 465.948
931 0 53.0541 11.5542 613 138.897 878.403 465.982
932 0 56.0753 13.9455 782 117.957 880.402 465.18
933 0 58.0508 11.8689 689 119.208 881.289 460.63
934 0 57.0928 11.4726 655 122.864 880.49 461.373
935 0 62.0454 12.2169 758 120.24 881.872 459.383
936 0 61.0893 10.3128 630 124.468 882.517 457.154
937 0 63.1373 10.7543 679 118.773 884.23 462.429
938 0 65.1398 11.8514 772 119.851 886.352 455.571
939 0 66.1319 11.598 767 121.08 886.439 452.864
940 0 71.2109 12.9053 919 118.002 886.741 455.111
941 0 73.1555 13.9702 1022 117.736 885.502 454.966
942 0 75.1565 11.3763 855 123.718 888.09 452.211
943 0 76.23 10.3109 786 119.891 888.737 458.919
944 0 84.2044 13.8591 1167 114.829 889.288 455.923
945 1 43.02 12.715 547 119.596 889.419 469.442
946 0 44.0522 11.8042 520 118.85 886.188 472.421
947 0 47.0801 11.9584 563 119.272 886.542 470.446
948 0 49.2283 11.2537 554 118.865 887.617 472.101
949 0 53.1272 16.7711 891 110.816 885.691 470.538
950 0 52.0568 11.9869 624 114.457 885.721 476.351
951 0 54.1053 14.2685 772 112.565 885.939 473.922
952 0 54.1053 14.25 771 119.359 885.916 473.964
953 0 54.0517 11.6925 632 118.926 885.397 473.082
954 0 58.109 12.3389 717 117.989 887.353 474.728
955 0 58.066 8.95533 520 124.127 887.508 473.052
956 0 59.2533 12.1681 721 120.029 885.521 470.662
957 0 64.1785 12.6055 809 117.973 885.839 469.371
958 0 66.0921 13.9805 924 115.777 884.052 468.937
959 0 64.078 12.7501 817 129.383 882.029 467.321
960 0 71.2811 15.3477 1094 113.295 882.968 467.235
961 0 71.1597 12.6757 902 120.309 882.956 462.395
962 0 73.1508 13.9575 1021 118.754 881.179 461.286
963 0 71.2859 9.24447 659 125.164 882.751 465.331
964 0 77.1009 12.5939 971 120.689 881 458.903
965 0 80.1677 13.2223 1060 120.374 881.009 455.607
966 0 82.1011 11.8878 976 122.228 880.7 461.406
967 0 88.188 15.5917 1375 116.756 881.284 450.505
968 1 47.0556 11.9646 563 121.925 882.012 474.174
969 0 45.0725 9.87299 445 126.649 881.883 473.238
970 0 48.4239 12.9068 625 121.571 879.422 472.242
971 0 47.1331 11.266 531 127.32 880.077 469.71
972 0 50.1145 16.9612 850 115.206 879.726 467.565
973 0 52.1705 13.4942 704 121.98 879.517 468.837
974 0 52.1785 10.9624 572 126.551 878.486 469.568
975 0 56.0893 15.3862 863 118.18 880.508 466.793
976 0 57.1769 14.7437 843 120.698 879.466 460.187
977 0 56.2164 12.6653 712 124.26 880.596 462.711
978 0 61.3121 16.6199 1019 116.953 880.675 458.955
979 0 64.2354 16.782 1078 113.207 882.645 458.216
980 0 63.1811 14.7829 934 117.669 882.394 456.961
981 0 65.1834 17.351 1131 112.61 883.358 459.433
982 0 65.1834 17.3664 1132 128.041 884.363 459.524
983 0 69.088 13.3742 924 118.435 884.365 454.131
984 0 73.365 16.711 1226 113.145 885.71 455.453
985 0 76.3708 14.9403 1141 116.509 886.079 456.731
986 0 78.4491 14.2385 1117 113.597 886.882 454.075
987 0 77.3135 11.4469 885 117.363 886.842 452.061
988 0 83.4708 13.921 1162 116.403 887.71 450.41
989 1 43.459 8.69785 378 115.921 889.323 473.545
990 0 52.3899 10.5173 551 113 890.43 473.076
991 0 47.185 12.1649 574 115.03 889.284 472.206
992 0 49.4239 15.1951 751 107.716 889.45 469.818
993 0 48.0612 10.1329 487 114.86 888.427 473.131
994 0 50.1223 13.0082 652 112.615 887.739 474.86
995 0 51.2019 24.1397 1236 100.363 889.291 468.369
996 0 56.12 15.645 878 114.197 887.835 469.663
997 0 55.3018 12.8025 708 122.056 885.487 473.106
998 0 55.1552 10.6246 586 127.21 885.758 470.041
999 0 63.2411 19.0383 1204 109.441 886.266 470.818
1000 0 60.3837 14.0601 849 120.325 884.925 468.234
1001 0 63.4043 10.8983 691 124.175 882.679 468.703
1002 0 66.2459 13.5103 895 119.992 882.917 462.853
1003 0 70.6005 13.6685 965 118.962 882.438 461.892
1004 0 74.6406 14.0942 1052 117.409 881.794 460.702
1005 0 74.4183 12.7119 946 122.242 880.87 458.034
1006 0 74.3415 11.501 855 123.775 880.527 450.349
1007 0 77.3495 13.5489 1048 120.806 880.075 451.816
1008 0 78.3923 13.1391 1030 121.112 879.672 446.032
1009 0 76.4937 9.88316 756 125.843 879.319 449.734
1010 0 85.3357 14.3668 1226 118.463 880.082 444.365
1011 0 85.3624 14.3506 1225 139.29 881.136 444.496
1012 1 48.0929 2.95262 142 128.782 879.092 463.028
1013 0 51.1902 9.65029 494 115.423 879.423 461.053
1014 0 51.1841 9.76865 500 113.86 879.546 461.998
1015 0 54.0421 16.6352 899 109.204 881.577 462.096
1016 0 57.072 15.0512 859 116.733 880.978 463.504
1017 0 58.0932 11.9291 693 121.668 880.495 462.417
1018 0 61.0523 15.2165 929 115.072 882.299 461.16
1019 0 63.089 12.6647 799 120.372 879.463 456.812
1020 0 65.1739 13.3029 867 118.193 879.874 456.074
1021 0 68.0725 14.4846 986 117.264 879.763 452.839
1022 0 70.2151 15.5237 1090 114.65 880.179 453.725
1023 0 75.153 16.4864 1239 112.119 879.713 453.472
1024 0 74.0977 15.4796 1147 114.675 880.493 450.275
1025 0 79.0859 15.224 1204 114.73 882.006 446.863
1026 0 81.1024 14.5988 1184 116.236 882.363 446.86
1027 0 81.0972 14.6368 1187 134.544 882.365 446.714
1028 0 88.1266 15.6366 1378 115.861 882.29 443.567
1029 1 46.1822 15.8286 731 111.141 883.635 466.702
1030 0 50.1395 13.7417 689 114.766 885.122 466.164
1031 0 49.2172 11.9877 590 117.903 885.136 465.154
1032 0 52.1139 14.4491 753 112.453 884.182 463.305
1033 0 55.0825 13.8883 765 110.588 884.393 467.967
1034 0 54.1356 12.7642 691 112.78 883.958 469.434
1035 0 57.1873 13.8842 794 110.979 883.725 466.98
1036 0 61.1743 13.4534 823 110.036 885.304 470.143
1037 0 61.1743 13.4534 823 121.644 886.335 470.078
1038 0 63.1942 13.3715 845 111.836 885.076 466.579
1039 0 65.0782 14.1983 924 111.601 883.435 464.227
1040 0 68.1908 14.4301 984 111.817 883.841 465.86
1041 0 70.3624 12.6772 892 114.638 884.206 468.444
1042 0 70.2114 10.1266 711 120.06 882.831 470.339
1043 0 73.1517 12.3989 907 117.985 882.676 461.434
1044 0 76.1402 12.5952 959 118.339 881.376 464.747
1045 0 79.1013 13.35 1056 118.214 881.014 461.825
1046 0 83.308 11.9796 998 120.942 881.461 461.796
1047 0 85.1601 14.8779 1267 116.333 881.992 459.217
1048 0 85.297 13.5878 1159 119.067 882.368 457.742
1049 0 89.1695 14.3995 1284 117.778 878.388 455.833
1050 0 92.1795 15.8387 1460 115.971 879.016 452.547
1051 0 95.2354 13.8499 1319 119.418 877.623 453.847
1052 0 101.177 14.7069 1488 117.71 877.259 449.524
1053 1 48.1674 11.979 577 122.014 877.153 468.744
1054 0 52.1272 11.4144 595 120.748 878.355 471.203
1055 0 54.1662 14.1232 765 116.112 878.863 469.621
1056 0 57.1048 12.9236 738 117.917 878.514 467.324
1057 0 57.1408 11.2179 641 120.894 879.697 466.922
1058 0 65.679 14.9363 981 111.505 880.825 463.694
1059 0 63.1607 12.9353 817 116.146 880.599 461.618
1060 0 66.102 13.1312 868 115.956 881.536 461.462
1061 0 66.1581 17.4279 1153 111.129 882.428 457.511
1062 0 68.2592 13.8589 946 116.115 880.592 454.087
1063 0 71.0764 13.4222 954 116.655 882.914 452.61
1064 0 73.0769 14.7926 1081 114.867 883.036 451.61
1065 0 78.3886 13.0376 1022 117.236 884.232 452.984
1066 0 77.3546 12.2682 949 120.581 883.813 450.476
1067 0 82.1658 13.7162 1127 119.249 884.632 445.169
1068 0 85.2845 16.5446 1411 113.641 884.7 443.672
1069 0 85.3375 13.5579 1157 119.659 885.424 445.09
1070 0 93.3137 14.4888 1352 115.105 886.699 448.677
1071 0 94.4491 14.124 1334 118.962 887.262 442.572
1072 1 52.1151 12.9713 676 117.612 887.084 465.885
1073 0 54.107 12.6046 682 117.633 888.365 468.446
1074 0 54.3045 12.0432 654 120.188 888.451 465.349
1075 0 53.0771 12.6608 672 114.65 887.607 468.784
1076 0 57.2031 12.1497 695 116.921 885.243 464.783
1077 0 58.1687 13.8047 803 111.905 886.579 469.3
1078 0 62.0613 13.7606 854 112.808 887.169 468.93
1079 0 67.0336 14.7836 991 115.121 885.632 465.732
1080 0 65.1091 12.4253 809 120.512 886.079 463.239
1081 0 70.1106 14.4486 1013 116.128 884.99 468.626
1082 0 72.0784 13.2633 956 118.113 885.075 466.51
1083 0 71.1353 10.5011 747 123.755 882.718 463.965
1084 0 81.4916 13.302 1084 115.025 883.73 466.696
1085 0 81.4916 13.3143 1085 128.845 884.707 466.765
1086 0 84.3912 15.7007 1325 113.448 882.442 462.988
1087 0 84.1069 13.5066 1136 115.357 881.821 464.005
1088 0 87.2384 13.3427 1164 116.7 882.424 458.515
1089 1 50.1072 11.0763 555 116.463 881.432 479.027
1090 0 48.352 10.7752 521 117.399 884.516 474.376
1091 0 53.2186 10.8609 578 116.955 882.907 467.543
1092 0 52.0901 11.4609 597 117.41 881.985 472.327
1093 0 57.2157 9.24571 529 114.263 880.698 475.42
1094 0 55.2572 10.9488 605 112.007 879.779 475.638
1095 0 53.3098 9.81058 523 114.543 879.832 475.426
1096 0 56.0949 10.5535 592 114.361 879.307 469.949
1097 0 61.1434 13.1331 803 109.563 880.422 472.665
1098 0 61.1746 11.884 727 111.886 881.011 472.25
1099 0 62.1461 11.7948 733 114.397 880.558 468.168
1100 0 64.2499 12.965 833 113.457 880.712 460.297
1101 0 68.1666 13.4963 920 111.932 880.599 461.522
1102 0 68.4602 10.9407 749 116.776 881.581 458.923
1103 0 69.167 12.5493 868 112.211 880.974 461.561
1104 0 76.2858 13.9869 1067 107.311 881.245 460.553
1105 0 76.2017 14.4616 1102 109.876 881.995 454.163
1106 0 81.1728 12.2701 996 112.212 882.482 456.43
1107 0 82.1675 11.6591 958 115.163 883.626 452.719
1108 0 84.1135 13.4818 1134 112.042 882.731 450.825
1109 0 87.5225 14.8419 1299 109.944 883.724 447.644
1110 0 91.1924 12.8849 1175 112.896 884.295 449.792
1111 0 92.201 11.2038 1033 116.829 884.41 446.574
1112 1 53.0708 12.7754 678 110.397 885.28 468.855
1113 0 53.0559 10.1591 539 117.308 886.519 465.447
1114 0 59.0888 12.2697 725 109.862 886.644 467.181
1115 0 57.033 12.7996 730 111.007 887.93 464.997
1116 0 60.1438 13.7171 825 113.983 884.319 461.741
1117 0 62.062 11.0051 683 117.514 883.786 461.659
1118 0 63.1615 13.4734 851 112.777 882.577 461.918
1119 0 69.6766 14.4812 1009 107.697 883.036 464.871
1120 0 67.2802 13.4958 908 112.561 883.14 462.697
1121 0 67.0841 10.9713 736 117.572 883.193 461.068
1122 0 69.2681 9.90355 686 119.172 883.448 462.35
1123 0 71.1743 12.8979 918 115.19 883.16 458.942
1124 0 70.2113 10.9242 767 118.91 882.907 459.499
1125 0 75.1566 11.3496 853 117.574 882.653 461.829
1126 0 78.161 12.244 957 116.03 882.467 461.868
1127 0 81.1996 12.771 1037 115.323 881.45 456.482
1128 0 84.151 13.6778 1151 113.109 881.697 459.416
1129 0 86.2579 12.0916 1043 114.128 881.229 462.944
1130 0 90.2196 13.0016 1173 114.42 879.212 457.004
1131 0 92.116 13.787 1270 113.195 879.049 451.893
1132 0 94.2217 12.0142 1132 116.358 879.23 455.305
1133 0 100.211 14.3597 1439 112.376 877.847 455.044
1134 0 101.292 19.2908 1954 106 879.439 451.579
1135 0 103.319 17.8477 1844 108.207 876.61 448.717
1136 1 55.0744 11.5299 635 114.466 876.598 470.317
1137 0 58.1128 9.80851 570 117.565 875.681 470.968
1138 0 59.1855 11.8779 703 113.208 875.309 470.747
1139 0 58.1467 11.0926 645 108.668 876.519 461.099
1140 0 61.0433 11.6966 714 105.689 875.385 463.401
1141 0 64.1049 10.7948 692 106.436 874.659 463.059
1142 0 64.0667 11.7378 752 109.146 875.686 457.122
1143 0 66.0821 13.3168 880 108.278 875.189 453.965
1144 0 67.1013 11.1175 746 112.576 875.767 451.893
1145 0 73.1436 14.0135 1025 110.155 875.543 450.123
1146 0 78.1499 14.92 1166 107.296 876.461 454.736
1147 0 78.2075 13.5537 1060 111.271 875.762 449.15
1148 0 75.1212 9.26503 696 120.56 876.397 444.753
1149 0 84.4469 11.8181 998 115.523 876.028 444.866
1150 0 84.0953 11.594 975 116.891 878.259 442.73
1151 0 90.2504 13.9722 1261 112.881 878.147 440.385
1152 0 92.0966 14.4196 1328 113.26 878.89 440.871
1153 1 46.0214 13.4068 617 116.282 878.502 462.156
1154 0 47.1344 11.0747 522 114.68 880.845 462.393
1155 0 50.0381 13.9893 700 111.181 881.457 460.38
1156 0 49.0359 10.0742 494 118.536 882.439 460.055
1157 0 53.056 13.646 724 111.863 882.743 461.465
1158 0 54.1333 12.1182 656 115.759 883.819 459.523
1159 0 54.0431 10.7507 581 118.04 884.787 458.981
1160 0 57.1868 13.5871 777 113.286 885.288 458.561
1161 0 58.3084 13.703 799 113.7 883.946 456.626
1162 0 57.1111 11.2763 644 118.522 885.986 457.171
1163 0 61.2718 11.8815 728 116.155 884.838 458.784
1164 0 63.1015 16.2278 1024 108.335 885.688 461.842
1165 0 65.2458 10.744 701 117.756 885.589 456.384
1166 0 68.3756 10.5593 722 117.256 884.177 460.181
1167 0 68.0993 8.60508 586 122.654 884.584 455.179
1168 0 73.3926 13.5708 996 113.584 884.791 457.617
1169 0 73.3926 13.6253 1000 134.817 883.821 457.516
1170 0 78.2757 14.4106 1128 112.942 884.585 458.337
1171 0 81.3441 14.0514 1143 113.462 882.844 456.63
1172 0 83.2473 16.3729 1363 109.613 882.88 456.023
1173 0 88.5572 13.2908 1177 113.815 882.171 454.637
1174 0 89.4898 13.2529 1186 112.953 880.768 454.542
1175 1 45.2202 8.40333 380 113.826 881.276 474.008
1176 0 47.3735 10.9344 518 110.322 880.307 471.288
1177 0 48.1191 11.5131 554 110.013 879.278 468.231
1178 0 52.1465 13.1936 688 107.398 877.948 467.533
1179 0 53.2629 12.2224 651 107.161 878.438 466.094
1180 0 54.4276 12.0895 658 106.76 878.429 467.976
1181 0 56.1608 14.7078 826 103.881 878.575 464.902
1182 0 55.2412 12.1105 669 108.469 878.378 461.93
1183 0 59.4837 11.1795 665 108.033 878.478 463.087
1184 0 59.3542 9.90663 588 111.789 878.658 456.816
1185 0 63.3207 12.5867 797 108.405 877.309 458.532
1186 0 64.1778 12.6524 812 109.095 877.121 456.698
1187 0 68.5068 12.4367 852 109.92 877.162 451.676
1188 0 69.5411 11.7341 816 113.016 878.185 451.809
1189 0 69.4177 10.8906 756 114.913 878.049 448.68
1190 0 74.7284 13.5156 1010 111.538 878.321 448.023
1191 0 78.6138 13.967 1098 110.683 878.192 448.477
1192 0 77.7331 10.9349 850 119.039 878.851 443.394
1193 1 44.4392 10.3962 462 114.79 879.498 460.753
1194 0 48.5251 12.8593 624 111.215 879.981 460
1195 0 44.268 10.9334 484 118.413 880.81 457.345
1196 0 44.387 13.0669 580 115.322 880.153 464.098
1197 0 45.2012 11.2165 507 117.576 880.621 466.712
1198 0 49.6428 13.6576 678 116.764 882.332 463.255
1199 0 50.1941 14.1252 709 117.584 883.843 466.794
1200 0 52.0809 16.5896 864 112.781 885.67 465.896
1201 0 52.0809 16.4744 858 134.801 887.672 465.914
1202 0 54.1624 14.8627 805 116.489 887.194 466.811
1203 0 58.0915 15.028 873 116.002 887.156 467.113
1204 0 58.0921 15.5443 903 117.371 887.602 463.725
1205 0 63.1167 12.7225 803 119.492 887.516 468.514
1206 0 62.2566 12.8661 801 121.659 887.225 464.773
1207 0 65.1741 15.6197 1018 115.987 888.227 466.293
1208 0 66.1293 15.3185 1013 117.875 888.41 463.359
1209 0 67.186 12.4133 834 124.381 888.321 463.568
1210 0 70.2052 18.0613 1268 114.934 887.691 464.906
1211 0 74.1148 13.9513 1034 122.009 888.713 464.917
1212 0 77.2322 15.7836 1219 118.516 887.6 463.74
1213 0 78.2664 15.575 1219 119.413 887.377 462.039
1214 0 83.1639 13.6838 1138 121.646 885.87 463.264
1215 0 82.3019 11.069 911 125.856 886.288 461.651
1216 0 86.1865 13.2735 1144 116.545 883.553 463.091
1217 1 46.084 12.2819 566 117.491 881.159 485.087
1218 0 48.1167 12.8022 616 116.416 880.51 480.612
1219 0 52.0543 13.3322 694 113.69 880.545 479.301
1220 0 52.2379 13.5725 709 114.536 879.477 472.674
1221 0 53.0771 16.1275 856 111.776 879.593 471.778
1222 0 55.1165 15.2404 840 113.423 877.37 475.006
1223 0 58.1473 15.4092 896 112.826 877.283 473.424
1224 0 58.2705 13.3344 777 117.403 876.65 470.539
1225 0 59.1172 16.2389 960 113.403 876.961 467.388
1226 0 62.2667 15.6585 975 112.89 876.066 465.826
1227 0 64.1638 14.5721 935 114.297 876.534 466.045
1228 0 65.1797 11.8288 771 118.267 876.633 464.524
1229 0 67.2788 12.7529 858 117.038 876.235 458.41
1230 0 69.1696 13.7777 953 115.322 877.02 455.067
1231 0 73.3481 13.061 958 115.733 877.468 451.595
1232 0 75.2021 16.0235 1205 110.948 877.711 447.82
1233 0 77.1597 13.4656 1039 115.116 878.279 443.827
1234 0 82.2038 12.3474 1015 115.171 878.636 445.174
1235 0 81.2828 13.4715 1095 114.623 879.142 436.389
1236 0 87.3379 14.0947 1231 111.478 880.357 438.948
1237 0 88.2183 13.1039 1156 114.278 881.587 438.112
1238 1 44.0994 8.45816 373 115.641 881.501 454.153
1239 0 47.2452 10.7101 506 112.561 880.889 456.542
1240 0 50.1054 11.9947 601 112.576 882.161 459.441
1241 0 50.1153 12.6907 636 107.553 883.621 455.041
1242 0 53.2789 10.6233 566 109.624 885.754 452.527
1243 0 51.0905 13.8773 709 106.291 886.272 450.962
1244 0 50.2898 10.8372 545 113.38 886.822 449.483
1245 0 55.1397 9.12229 503 114.917 884.644 462.429
1246 0 55.1397 9.26738 511 111.344 883.618 462.493
1247 0 60.3 9.86734 595 112.536 886.546 466.918
1248 0 63.175 11.9826 757 111.671 886.624 461.748
1249 0 65.1808 12.1508 792 111.677 887.226 462.944
1250 0 69.1524 12.8846 891 110.938 886.809 461.949
1251 0 72.3621 12.9488 937 110.711 886.951 460.371
1252 0 73.5305 12.7294 936 112.13 885.744 459.452
1253 0 76.3929 12.9201 987 111.312 886.179 459.047
1254 0 80.3494 11.1015 892 114.154 885.115 461.103
1255 1 45.0545 13.8499 624 109.188 884.228 479.237
1256 0 46.1668 13.2779 613 111.272 884.465 475.781
1257 0 48.3361 10.7994 522 115.877 883.795 477.96
1258 0 48.313 14.2405 688 110.551 883.205 474.188
1259 0 54.2098 16.2886 883 107.205 882.381 477.442
1260 0 56.1712 13.6369 766 111.132 881.62 475.913
1261 0 55.1745 11.5996 640 115.372 880.806 474.914
1262 0 57.341 12.8529 737 112.374 879.828 475.701
1263 0 56.1493 12.0571 677 116.539 879.761 471.049
1264 0 58.3347 14.6911 857 112.379 879.684 469.657
1265 0 62.3638 12.844 801 114.708 879.84 467.397
1266 0 60.2853 11.0309 665 118.839 878.663 467.424
1267 0 66.6294 11.2863 752 117.475 877.62 465.624
1268 0 67.1972 13.0511 877 114.423 877.779 466.268
1269 0 69.4157 14.9102 1035 112.152 877.504 460.225
1270 0 72.4044 12.2921 890 115.44 877.246 465.599
1271 0 74.5303 12.9746 967 116.902 877.063 457.707
1272 0 78.2888 12.3134 964 117.169 878.179 455.705
1273 0 80.4633 11.9806 964 117.989 878.355 452.147
1274 0 82.26 14.7946 1217 113.967 878.958 452.437
1275 1 46.1813 9.67925 447 117.121 878.57 470.982
1276 0 51.2753 12.0136 616 112.583 879.365 469.545
1277 0 49.1983 14.594 718 110.969 879.455 467.06
1278 0 51.0582 13.5923 694 113.667 877.138 459.049
1279 0 53.093 13.2032 701 114.932 878.756 461.021
1280 0 53.093 13.3162 707 132.122 879.738 460.926
1281 0 57.4371 11.7346 674 117.964 883.423 459.966
1282 0 58.4373 13.6385 797 113.666 884.134 458.951
1283 0 57.2596 10.758 616 118.604 884.505 458.656
1284 0 62.442 11.5627 722 116.515 885.175 456.798
1285 0 63.3789 10.7133 679 116.523 886.457 460.894
1286 0 66.2078 18.2909 1211 105.757 887.154 455.908
1287 0 69.3561 10.7128 743 116.934 886.634 454.756
1288 0 72.5491 13.4805 978 110.974 887.382 461.221
1289 0 72.3033 13.637 986 112.731 887.861 455.643
1290 0 72.3033 13.6093 984 132.345 889.862 455.722
1291 0 77.5282 13.9562 1082 111.425 887.971 458.256
1292 0 79.4425 14.2367 1131 112.031 888.655 451.729
1293 0 82.7695 13.1087 1085 113.463 888.163 454.808
1294 0 86.6975 14.3833 1247 110.463 887.051 454.073
1295 0 90.4604 12.5359 1134 113.158 886.194 452.226
1296 0 92.0224 11.2147 1032 115.626 886.115 445.618
1297 0 95.9399 11.9033 1142 114.072 885.603 449.858
1298 0 97.5723 12.852 1254 111.548 885.769 448.679
1299 1 50.4486 11.1202 561 108.381 885.275 471.947
1300 0 53.2537 10.7223 571 108.256 883.427 476.217
1301 0 54.5243 10.234 558 110.731 884.045 471.416
1302 0 56.1488 13.6423 766 105.142 885.127 476.067
1303 0 59.1559 11.5796 685 109.666 885.323 472.565
1304 0 62.0475 14.3761 892 106.827 884.659 466.175
1305 0 66.4844 15.3269 1019 103.298 883.719 469.567
1306 0 66.0608 10.7174 708 111.932 883.412 464.774
1307 0 64.0755 10.3628 664 112.681 883.13 464.575
1308 0 72.0642 13.1272 946 108.155 880.665 460.465
1309 0 74.144 15.3755 1140 105.26 881.541 458.789
1310 0 75.1113 12.7011 954 109.681 881.378 457.46
1311 0 78.1038 15.1849 1186 106.337 880.789 455.439
1312 0 84.2475 14.6711 1236 106.067 880.972 456.807
1313 0 83.2359 14.3448 1194 107.278 880.479 448.076
1314 0 85.1515 14.2687 1215 107.379 880.705 448.094
1315 0 88.3024 9.86384 871 115.033 877.735 450.923
1316 0 90.2641 12.829 1158 112.526 878.977 440.813
1317 0 91.4024 13.5336 1237 111.749 878.188 444.725
1318 0 96.2296 15.9722 1537 108.118 879.09 444.316
1319 0 98.2668 10.3188 1014 115.807 879.118 445.666
1320 1 53.1435 11.8171 628 110.25 879.575 462.729
1321 0 56.193 11.158 627 109.238 879.177 463.094
1322 0 57.1628 13.5753 776 106.012 879.385 461.032
1323 0 60.5424 14.9317 904 104.403 879.677 452.384
1324 0 59.0894 17.3466 1025 102.795 880.662 457.659
1325 0 61.1091 11.7004 715 115.064 881.734 457.013
1326 0 65.116 18.8894 1230 103.496 881.234 455.287
1327 0 65.0751 13.615 886 111.7 882.753 454.744
1328 0 68.1494 13.4998 920 111.023 882.711 454.315
1329 0 71.1492 17.6952 1259 104.254 883.362 459.634
1330 0 72.109 15.7123 1133 109.136 883.523 453.728
1331 0 75.0996 15.5527 1168 108.731 883.767 458.722
1332 0 77.1414 15.6984 1211 109.177 884.594 454.927
1333 0 82.1187 15.4411 1268 108.816 883.281 457.685
1334 0 82.1541 15.0936 1240 108.702 884.878 460.292
1335 0 86.0786 14.4635 1245 110.934 884.433 455.935
1336 0 89.1539 14.0431 1252 112.052 884.498 455.407
1337 0 90.1058 13.8282 1246 112.291 884.483 457.525
1338 1 179.919 15.2402 2742 115.028 884.961 410.955
1339 1 94.1956 12.1449 1144 111.837 884.969 459.958
1340 0 96.2487 11.4599 1103 112.15 884.694 459.193
1341 0 106.354 13.3328 1418 107.807 884.793 458.126
1342 0 107.434 15.5723 1673 105.46 885.354 456.16
1343 0 106.588 11.84 1262 112.667 884.355 451.021
1344 0 111.649 14.2321 1589 110.26 883.754 443.809
1345 0 114.403 15.6028 1785 109.114 881.148 440.113
1346 0 119.542 12.7905 1529 111.784 882.17 447.674
1347 0 122.305 15.2406 1864 107.587 880.76 445.796
1348 0 130.38 14.5037 1891 110.421 880.2 435.921
1349 0 134.489 18.7897 2527 104.958 880.392 430.445
1350 1 73.4035 10.599 778 112.522 880.117 462.994
1351 0 77.1461 12.3013 949 112.628 877.869 460.492
1352 0 78.1181 13.3004 1039 109.867 876.73 460.099
1353 0 81.2449 13.9824 1136 107.513 877.887 456.438
1354 0 82.1781 13.5072 1110 111.907 877.059 452.734
1355 0 84.08 15.2117 1279 110.089 877.525 451.784
1356 0 90.1548 15.9393 1437 107.653 877.074 452.521
1357 0 93.3027 12.9149 1205 112.796 877.305 449.503
1358 0 93.5543 12.5596 1175 115.042 876.478 445.205
1359 0 99.4174 16.9689 1687 108.246 876.513 445.933
1360 0 101.282 14.1387 1432 114.027 877.606 442.609
1361 0 104.276 17.07 1780 110.056 877.805 440.44
1362 0 107.192 17.8745 1916 110.293 878.149 433.6
1363 0 110.273 13.9744 1541 119.938 878.622 429.172
1364 0 110.273 13.9744 1541 137.108 879.622 429.172
1365 1 64.1015 10.5458 676 122.08 879.277 457.368
1366 0 64.1938 12.6025 809 121.204 881.063 454.782
1367 0 67.2142 11.4262 768 123.1 881.865 455.017
1368 0 71.2923 15.8222 1128 108.795 883.4 455.848
1369 0 75.1289 16.2255 1219 107.6 885.043 453.287
1370 0 75.2079 13.7087 1031 112.798 885.468 450.415
1371 0 80.2142 12.2547 983 112.362 885.881 452.638
1372 0 80.0865 12.1494 973 114.539 886.057 449.009
1373 0 85.1543 13.0117 1108 118.653 883.506 447.861
1374 1 162.415 12.6158 2049 121.412 884.415 412.798
1375 0 166.497 14.0723 2343 119.513 884.297 413.544
1376 0 168.436 13.6135 2293 121.419 885.415 405.819
1377 1 96.2552 12.1448 1169 119.091 886.316 448.038
1378 0 99.3268 14.0748 1398 115.866 884.134 442.262
1379 0 102.22 13.4416 1374 116.558 883.434 445.02
1380 0 108.261 14.8714 1610 112.97 884.499 449.412
1381 0 109.344 16.1235 1763 112.622 884.483 448.299
1382 0 115.229 13.7552 1585 114.556 884.203 446.5
1383 1 62.0715 13.7905 856 110.977 882.632 468.772
1384 0 61.2473 10.1882 624 115.258 885.412 468.633
1385 0 64.2638 12.1064 778 115.071 883.644 470.833
1386 0 64.2891 9.33284 600 121.18 882.46 463.133
1387 0 68.4103 13.0243 891 115.392 881.228 464.841
1388 0 74.5985 11.8233 882 115.002 882.456 468.033
1389 0 76.2503 14.8327 1131 112.291 881.175 463.317
1390 0 76.2503 14.859 1133 125.544 880.174 463.303
1391 0 81.4178 11.5454 940 115.802 880.56 464.464
1392 0 81.4249 12.883 1049 116.745 879.985 453.87
1393 0 83.1843 11.769 979 118.919 880 452.153
1394 0 89.3139 14.6674 1310 114.289 880.565 450.098
1395 0 90.2232 15.3508 1385 113.943 879.911 449.058
1396 0 90.2232 15.4173 1391 130.63 878.932 448.977
1397 0 94.6335 15.1004 1429 115.357 878.225 446.671
1398 0 100.59 19.7634 1988 107.93 879.467 446.768
1399 0 99.6681 13.8159 1377 119.23 878.183 440.672
1400 0 102.736 12.0698 1240 121.977 878.984 440.55
1401 0 105.6 14.1383 1493 118.851 878.558 436.352
1402 0 109.471 12.0579 1320 118.855 878.368 439.498
1403 0 110.442 8.05854 890 124.893 877.934 433.683
1404 1 59.4628 10.8303 644 115.301 878.689 458.023
1405 0 63.1787 11.6337 735 112.89 879.244 458.099
1406 0 66.2332 15.838 1049 106.869 880.307 455.066
1407 0 67.1747 11.2096 753 114.794 882.151 456.728
1408 0 70.2164 14.9822 1052 109.124 882.481 453.416
1409 0 73.2709 13.1567 964 111.171 882.933 455.218
1410 0 74.1247 15.0152 1113 110.161 883.335 450.783
1411 0 75.3648 13.1494 991 117.693 884.785 451.296
1412 0 75.3648 13.1361 990 126.526 886.759 451.141
1413 0 82.3945 15.5471 1281 113.258 885.756 453.837
1414 0 81.431 12.2067 994 120.353 886.318 450.994
1415 0 87.3895 13.7888 1205 117.289 886.683 450.473
1416 0 90.4435 18.0665 1634 109.562 887.262 451.383
1417 0 92.2743 13.7308 1267 117.054 886.746 450.777
1418 0 92.3629 12.191 1126 121.261 886.94 446.272
1419 0 93.6055 11.698 1095 120.941 886.383 449.595
1420 1 192.7 13.3575 2574 124.658 887.792 399.162
1421 0 198.793 14.5528 2893 121.817 887.492 401.832
1422 1 112.447 7.86149 884 121.296 886.62 451.348
1423 1 58.5974 12.4238 728 113.705 886.1 465.468
1424 0 60.3394 15.6614 945 110.516 885.463 465.022
1425 0 62.1512 11.0215 685 115.279 886.159 470.235
1426 0 66.2393 14.9609 991 109.159 885.93 470.992
1427 0 68.0369 14.11 960 110.496 884.2 471.879
1428 0 65.0884 11.2001 729 116.782 884.846 469.147
1429 0 70.174 12.7255 893 113.571 882.555 467.708
1430 0 72.1672 13.5241 976 112.724 882.739 464.477
1431 0 78.1211 14.2855 1116 110.039 880.857 465.912
1432 0 79.1328 15.4298 1221 108.012 881.757 467.849
1433 0 80.1715 12.2238 980 114.434 879.299 460.843
1434 0 85.2611 15.1183 1289 109.559 879.959 456.209
1435 0 83.1636 12.4453 1035 114.526 877.171 457.79
1436 0 89.3331 14.5635 1301 111.21 878.596 451.696
1437 0 90.2563 10.858 980 114.711 876.815 452.762
1438 0 94.2613 14.5022 1367 111.099 877.288 446.088
1439 1 53.0669 14.2839 758 107.93 875.547 473.737
1440 0 54.0282 12.1603 657 114.412 874.922 469.377
1441 0 56.1174 14.3984 808 108.464 877.825 467.934
1442 0 58.1325 12.8672 748 111.541 876.348 466.739
1443 0 56.1562 10.7201 602 121.316 875.752 461.887
1444 0 60.1614 13.8295 832 114.444 877.221 463.745
1445 0 66.2148 13.0484 864 114.862 876.999 460.38
1446 0 67.068 12.5246 840 115.211 877.705 457.189
1447 0 69.1461 18.15 1255 108.045 878.327 452.273
1448 0 70.3202 14.7184 1035 112.075 879.586 453.591
1449 0 71.0738 14.2809 1015 113.981 878.982 452.835
1450 0 74.1708 13.9812 1037 113.976 878.908 446.83
1451 0 75.1843 11.3721 855 118.346 881.283 448.953
1452 0 75.1843 11.2657 847 132.498 883.275 448.932
1453 0 75.1843 11.2258 844 132.11 885.27 448.891
1454 0 74.1986 11.3614 843 131.81 887.268 448.936
1455 1 51.0616 12.0051 613 112.175 881.775 465.119
1456 0 49.0389 10.0329 492 114.61 882.823 468.057
1457 0 49.0397 11.664 572 114.647 882.993 464.806
1458 0 51.1023 12.4848 638 114.129 883.049 466.567
1459 0 52.3328 12.1148 634 114.328 885.237 460.226
1460 0 53.5887 12.0175 644 115.003 884.984 462.098
1461 0 55.3231 12.5987 697 114.763 885.283 463.347
1462 0 54.3175 9.81267 533 118.058 885.032 463.953
1463 0 58.2451 15.8468 923 109.842 885.629 464.008
1464 0 58.2083 10.8747 633 117.618 885.022 463.191
1465 0 60.0764 11.4687 689 116.251 886.987 468.758
1466 0 62.0923 13.7698 855 113.195 887.241 465.746
1467 0 64.0589 11.5675 741 116.205 887.767 463.958
1468 0 68.1202 13.2707 904 112.597 887.001 466.93
1469 0 68.0586 13.6059 926 112.53 886.687 464.625
1470 0 72.149 14.6087 1054 110.834 886.062 465.835
1471 0 70.1929 11.7106 822 115.197 884.845 461.676
1472 0 75.1311 14.1486 1063 110.408 884.558 463.952
1473 0 80.1413 14.9236 1196 109.645 884.104 460.825
1474 0 82.1843 12.8735 1058 112.431 882.405 458.095
1475 1 43.0509 11.2425 484 113.246 882.93 477.591
1476 0 46.0581 11.3335 522 112.08 883.094 477.544
1477 0 47.348 11.7217 555 113.632 879.762 469.816
1478 0 49.1177 15.5952 766 107.813 876.97 474.714
1479 0 51.0901 13.1337 671 111.486 876.693 472.72
1480 0 54.1088 14.6002 790 107.776 875.841 474.865
1481 0 56.3765 11.7247 661 111.779 876.083 473.419
1482 0 56.094 13.0852 734 110.548 875.831 470.625
1483 0 57.0902 10.6148 606 115.526 875.302 466.086
1484 0 58.106 13.2344 769 112.583 875.731 464.495
1485 0 61.2692 13.302 815 112.485 875.84 465.052
1486 0 61.1151 13.5646 829 112.875 875.712 460.698
1487 0 63.1076 12.1855 769 114.242 876.031 461.07
1488 0 65.0539 12.0515 784 113.226 876.418 459.482
1489 0 69.1332 13.6548 944 110.694 876.459 455.558
1490 0 70.155 12.0733 847 113.063 877.551 449.246
1491 0 70.2885 12.0219 845 114.264 877.682 451.204
1492 0 76.2875 14.9697 1142 106.893 878.595 455.211
1493 0 79.2732 17.1937 1363 105.196 879.559 446.748
1494 0 81.0822 12.3455 1001 111.544 878.919 447.619
1495 0 81.0579 12.9537 1050 111.857 880.594 448.342
1496 0 84.1402 12.3484 1039 109.474 884.629 451.179
1497 1 47.0447 13.5828 639 106.498 884.69 464.383
1498 0 49.2361 15.8624 781 101.948 885.469 466.145
1499 0 49.5282 13.0027 644 109.679 885.382 464.278
1500 0 51.3682 15.3402 788 106.72 886.548 462.015
1501 0 54.218 14.9028 808 106.64 884.697 464.778
1502 0 55.3025 13.833 765 109.413 885.918 466.499
1503 0 54.3256 10.3266 561 115.314 886.068 466.845
1504 0 56.3068 13.5152 761 111.84 886.179 462.936
1505 0 57.2641 13.2719 760 111.553 887.601 467.771
1506 0 59.3443 12.0483 715 114.375 886.773 467.558
1507 0 62.3227 12.7402 794 113.403 887.524 467.868
1508 0 65.3066 14.2865 933 110.6 886.156 467.648
1509 0 68.3897 15.3093 1047 108.887 885.966 467.558
1510 0 71.5766 15.6755 1122 108.906 884.149 461.348
1511 0 71.2015 13.848 986 113.065 884.912 463.406
1512 0 73.3094 12.8769 944 114.325 885.028 467.191
1513 0 74.243 14.7623 1096 112.859 883.639 464.342
1514 0 77.3566 14.3879 1113 112.698 883.022 466.274
1515 0 80.1756 16.7632 1344 110.336 882.783 459.81
1516 0 80.1818 14.1803 1137 114.296 881.31 460.082
1517 0 84.2836 13.063 1101 114.326 881.708 465.715
1518 0 86.3018 11.6452 1005 119.44 880.891 457.069
1519 0 90.1966 14.1691 1278 114.841 881.304 456.32
1520 1 50.1535 11.2255 563 117.323 881.545 468.353
1521 0 56.2341 12.0745 679 112.891 881.105 467.875
1522 0 53.0302 13.5018 716 113.493 880.542 468.127
1523 0 59.2384 13.3191 789 112.051 879.575 468.845
1524 0 58.4361 13.9126 813 111.931 879.772 464.064
1525 0 64.6079 14.1623 915 108.603 879.494 469.499
1526 0 62.0672 12.6315 784 113.431 878.814 463.792
1527 0 64.3317 10.306 663 116.478 879.175 462.691
1528 0 66.2017 13.0812 866 112.553 879.52 459.908
1529 0 70.3144 15.6867 1103 108.79 879.948 455.118
1530 0 70.2067 13.9873 982 110.647 879.264 456.341
1531 0 75.8581 17.1636 1302 105.813 880.892 445.75
1532 0 76.3306 14.1097 1077 110.276 880.192 452.073
1533 0 85.414 6.83729 584 120.211 881.38 453.372
1534 0 87.1684 8.85642 772 115.775 880.858 455.155
1535 0 83.2623 13.9559 1162 111.416 880.972 443.174
1536 0 86.5808 10.5682 915 115.879 881.226 445.57
1537 0 88.465 12.7056 1124 115.541 882.524 439.535
1538 0 91.2711 9.83882 898 113.712 882.148 440.403
1539 0 97.3485 14.597 1421 106.723 882.833 441.466
1540 0 100.416 12.4781 1253 110.143 883.192 434.608
1541 0 102.435 14.3993 1475 108.05 883.597 431.224
1542 0 105.378 12.7825 1347 110.735 883.985 436.28
1543 0 108.395 13.0265 1412 112.813 885.055 431.518
1544 0 112.614 12.1477 1368 115.47 884.909 429.435
1545 0 114.357 12.9332 1479 113.707 885.305 426.569
1546 0 118.58 9.59688 1138 119.073 885.461 425.076
1547 0 126.554 14.0731 1781 112.556 885.395 423.453
1548 0 128.478 12.8193 1647 114.205 885.1 430.9
1549 0 134.459 11.5797 1557 116.167 885.239 427.53
1550 0 140.49 11.7944 1657 116.824 885.039 422.482
1551 0 147.338 13.8118 2035 114.166 884.715 425.8
1552 0 146.543 9.81967 1439 122.912 883.99 411.986
1553 1 79.4574 13.7055 1089 110.458 885.361 460.69
1554 0 81.2387 11.0169 895 114.744 884.76 458.886
1555 0 86.2589 10.7235 925 114.646 884.465 455.258
1556 0 89.3262 14.9228 1333 109.47 883.923 453.309
1557 0 89.4416 9.45869 846 116.785 883.002 454.61
1558 1 102.406 8.4175 862 117.452 882.543 451.817
1559 0 100.57 11.1266 1119 112.719 881.285 453.021
1560 0 105.541 13.3882 1413 110.587 880.701 444.797
1561 0 109.69 13.684 1501 108.736 879.909 448.062
1562 0 112.716 12.2343 1379 112.403 879.999 444.236
1563 0 115.587 12.164 1406 112.852 878.425 443.225
1564 0 116.674 13.1392 1533 113.02 878.637 436.986
1565 1 60.3339 13.2761 801 108.507 876.938 465.236
1566 0 59.063 10.0401 593 114.005 879.452 463.506
1567 0 62.5206 9.78878 612 116.48 875.431 463.74
1568 0 65.4534 12.4516 815 112.319 877.292 462.05
1569 0 69.4369 12.8318 891 111.937 876.783 459.764
1570 0 67.4158 9.01865 608 118.503 876.977 461.137
1571 0 66.1424 10.4925 694 117.597 877.098 457.362
1572 0 74.3032 14.0102 1041 110.736 877.503 454.005
1573 0 77.4157 14.9711 1159 109.899 876.605 451.761
1574 0 75.3495 13.0459 983 112.407 877.13 454.282
1575 0 83.4647 11.9212 995 115.703 877.567 448.098
1576 0 80.3434 10.9281 878 118.341 878.017 448.444
1577 0 86.3526 13.5375 1169 115.276 879.362 443.624
1578 0 87.3371 15.4574 1350 113.439 880.827 439.804
1579 0 92.2968 13.825 1276 114.333 880.641 443.401
1580 0 93.2802 13.1217 1224 117.788 881.06 437.512
1581 0 95.3205 12.1485 1158 119.785 881.674 435.229
1582 0 101.238 16.97 1718 111.649 882.962 439.36
1583 0 101.226 13.6032 1377 117.603 883.482 439.679
1584 0 103.27 14.1474 1461 117.94 884.038 438.374
1585 0 108.481 12.3616 1341 122.18 883.916 433.47
1586 0 113.546 14.329 1627 117.615 884.401 435.314
1587 0 116.423 18.364 2138 110.465 886.498 431.932
1588 0 118.374 12.8998 1527 121.413 885.244 428.773
1589 0 122.511 16.2679 1993 115.195 885.758 428.725
1590 0 125.656 13.7279 1725 120.114 885.019 422.405
1591 0 130.619 14.1327 1846 117.618 885.58 429.724
1592 0 134.652 13.353 1798 119.841 885.925 419.968
1593 0 140.69 15.0899 2123 117.222 885.565 427.442
1594 0 145.86 15.8851 2317 117.116 885.159 419.748
1595 0 153.82 17.5205 2695 113.79 884.269 419.068
1596 1 83.5813 11.1867 935 118.173 885.152 457.573
1597 0 89.7364 13.0493 1171 116.383 884.731 455.484
1598 0 87.3753 10.9756 959 121.31 883.486 451.81
1599 0 91.6486 12.1879 1117 118.86 883.316 453.957
1600 0 96.4722 14.9266 1440 115.592 881.959 449.019
1601 0 99.5256 13.8859 1382 117.929 881.795 447.93
1602 0 103.591 14.6924 1522 117.246 880.948 446.405
1603 0 103.378 11.1532 1153 124.264 879.776 439.399
1604 0 108.491 15.2823 1658 116.636 880.332 444.701
1605 0 109.545 10.5802 1159 122.5 880.113 441.676
1606 0 112.451 13.6059 1530 118.598 879.505 437.738
1607 0 112.243 14.7716 1658 116.666 878.113 421.855
1608 0 118.501 14.6581 1737 114.98 878.193 421.5
1609 0 121.374 13.1 1590 117.243 878.424 422.62
1610 0 127.415 13.2245 1685 117.682 877.703 420.03
1611 0 125.254 12.4866 1564 120.643 877.873 419.402
1612 0 136.424 15.144 2066 114.174 877.915 412.261
1613 0 140.656 14.475 2036 114.543 877.786 416.934
1614 0 144.544 12.8819 1862 117.425 876.724 415.491
1615 0 145.395 13.4942 1962 117.641 877.886 405.809
1616 0 156.33 14.7508 2306 114.45 876.624 399.603
1617 1 89.4369 11.0469 988 111.601 877.593 438.61
1618 0 87.3423 11.5064 1005 112.645 878.422 432.733
1619 0 92.1865 11.4659 1057 112.728 878.998 431.975
1620 0 95.2472 10.8455 1033 114.484 879.442 433.8
1621 0 99.2967 15.6299 1552 111.992 880.131 438.541
1622 0 101.498 13.6259 1383 117.108 880.51 433.301
1623 0 103.317 12.1664 1257 120.446 882.509 433.066
1624 0 109.131 12.0497 1315 118.303 883.757 435.253
1625 0 112.241 14.2818 1603 115.637 883.691 433.956
1626 0 117.264 16.3306 1915 112.215 884.609 430.349
1627 0 120.373 13.1425 1582 118.173 885.027 429.309
1628 0 125.764 21.5881 2715 105.203 885.752 422.507
1629 0 128.338 12.6463 1623 116.82 886.026 429.191
1630 0 137.257 9.60969 1319 121.407 885.049 429.172
1631 0 134.74 14.1532 1907 114.03 886.226 419.415
1632 0 138.761 10.8388 1504 118.592 885.749 416.656
1633 1 261.855 12.2587 3210 125.184 886.124 355.46
1634 0 274.138 17.1556 4703 116.948 885.831 349.621
1635 1 75.3856 11.0631 834 115.279 886.905 453.584
1636 0 79.4455 14.4376 1147 111.28 884.523 452.568
1637 0 81.1866 13.8077 1121 112.652 883.723 453.853
1638 0 82.1255 11.9086 978 115.061 884.17 456.601
1639 0 87.2427 14.2132 1240 111.773 882.435 454.794
1640 0 89.1444 12.2722 1094 113.511 883.51 452.907
1641 0 89.1444 12.3059 1097 137.142 885.521 452.861
1642 0 93.2837 10.0446 937 116.502 882.007 456.591
1643 0 99.2897 12.2067 1212 114.743 881.861 452.218
1644 0 101.153 12.9111 1306 115.271 879.579 451.074
1645 0 107.091 12.8209 1373 114.575 879.659 454.003
1646 0 106.266 11.8382 1258 116.265 878.076 453.043
1647 0 112.112 15.6629 1756 112.194 877.67 447.152
1648 0 113.277 12.7564 1445 115.224 878.66 449.172
1649 1 65.3316 13.4698 880 113.25 879.506 463.74
1650 0 65.3432 9.90157 647 114.535 878.838 450.283
1651 0 65.1424 12.5571 818 110.111 876.999 451.174
1652 0 65.1658 11.4938 749 113.497 876.869 449.326
1653 0 68.2621 11.573 790 113.876 876.175 447.673
1654 0 73.4811 14.5071 1066 107.512 876.765 451.909
1655 0 73.2783 10.849 795 116.18 876.283 443.848
1656 0 71.1966 11.2786 803 116.565 875.887 440.486
1657 0 77.1425 13.5204 1043 110.694 876.253 441.333
1658 0 78.192 12.8658 1006 113.819 877.287 438.502
1659 0 78.3479 9.22807 723 120.78 877.149 437.086
1660 0 83.3518 11.2175 935 118.309 877.228 432.786
1661 0 89.4914 13.4538 1204 113.895 877.71 435.125
1662 0 89.3167 14.3982 1286 114.04 876.886 428.137
1663 0 92.3103 13.9313 1286 114.037 878.233 434.984
1664 0 98.2522 13.4145 1318 119.36 879.956 434.644
1665 0 100.36 11.1997 1124 123.915 881.18 431.932
1666 0 108.37 14.4228 1563 110.372 881.135 437.752
1667 1 56.0849 10.7694 604 118.23 879.74 459.066
1668 0 59.2229 12.0055 711 118.537 879.945 456.565
1669 0 59.2229 11.9548 708 132.453 880.975 456.65
1670 0 63.1105 14.2132 897 114.629 880.876 456.821
1671 0 66.2558 12.0291 797 117.565 880.839 457.314
1672 0 65.2303 13.6286 889 114.531 881.639 458.18
1673 0 70.1842 17.9813 1262 106.336 882.018 460.9
1674 0 74.3396 14.0437 1044 113.781 882.839 455.506
1675 0 76.1874 13.8868 1058 113.184 883.618 456.41
1676 0 76.3438 19.5301 1491 105.428 881.716 455.799
1677 0 76.2213 14.1168 1076 114.388 882.626 455.342
1678 0 81.273 13.7192 1115 115.498 883.634 456.817
1679 0 83.0994 13.4538 1118 116.225 882.894 456.887
1680 0 87.2273 14.0208 1223 114.976 881.378 456.293
1681 0 92.0268 16.1257 1484 110.154 881.423 459.935
1682 0 88.4522 13.3405 1180 119.356 880.787 454.303
1683 0 91.9026 13.5469 1245 120.113 880.986 457.162
1684 0 95.5025 19.0885 1823 109.856 881.137 457.62
1685 0 99.0791 16.3304 1618 114.044 881.493 452.196
1686 1 47.153 10.625 501 116.192 879.437 467.802
1687 0 50.2895 10.8969 548 114.885 878.823 468.538
1688 0 52.5967 11.9779 630 114.787 878.063 463.459
1689 0 54.4965 10.4594 570 113.588 880.27 474.032
1690 0 55.3062 13.2173 731 111.166 880.33 470.523
1691 0 57.2335 11.5317 660 113.877 879.711 471.727
1692 0 56.2444 12.8724 724 111.395 880.099 472.069
1693 0 60.1397 10.9412 658 114.374 879.185 467.866
1694 0 61.3225 10.0616 617 115.076 879.306 470.237
1695 0 61.4201 11.1853 687 115.75 878.17 462.786
1696 0 67.5585 14.4319 975 109.163 877.833 462.994
1697 0 67.5348 11.9198 805 115.265 878.012 459.129
1698 0 69.4074 10.8202 751 117.333 877.522 456.027
1699 0 74.4686 16.5842 1235 107.14 877.432 454.062
1700 0 74.4372 13.9446 1038 112.125 877.629 452.581
1701 0 74.4227 11.7303 873 117.931 877.755 450.007
1702 0 80.7242 14.6796 1185 111.779 879.699 444.866
1703 0 83.873 16.9781 1424 108.02 879.032 446.833
1704 0 85.511 13.893 1188 114.753 880.102 442.716
1705 0 89.5628 13.912 1246 113.583 879.232 443.157
1706 0 92.7322 13.4258 1245 115.319 880.518 439.495
1707 0 95.0192 12.1239 1152 117.311 880.596 440.432
1708 0 95.0192 12.1239 1152 146.533 882.614 440.596
1709 1 51.308 11.5382 592 113.51 881.551 462.242
1710 0 55.3167 11.2443 622 113.818 882.603 460.65
1711 0 62.9467 10.7551 677 111.462 883.953 463.914
1712 0 58.6446 12.5502 736 110.099 883.857 461.462
1713 0 59.4379 11.6424 692 113.353 884.649 459.714
1714 0 61.3359 12.7169 780 111.208 885.238 459.649
1715 0 62.2617 10.7128 667 114.873 885.678 458.417
1716 0 64.2589 12.9009 829 111.936 886.957 456.867
1717 0 67.2073 16.4119 1103 106.296 886.713 459.024
1718 0 70.1474 15.3962 1080 108.408 886.991 458.008
1719 0 69.264 13.86 960 111.769 885.526 458.655
1720 0 71.1545 13.042 928 112.737 885.975 461.241
1721 0 75.1822 14.8173 1114 110.778 885.157 457.161
1722 0 79.3289 12.4545 988 113.984 885.211 460.564
1723 0 81.2372 12.0511 979 114.651 885.051 459.006
1724 0 84.1567 13.0233 1096 114.906 885.658 458.172
1725 1 47.1022 12.3561 582 108.576 885.648 479.198
1726 0 50.0836 12.7786 640 108.714 885.262 474.245
1727 0 49.1054 12.9314 635 110.58 885.337 472.543
1728 0 52.1287 12.9295 674 111.074 885.559 476.562
1729 0 50.102 10.4786 525 113.192 882.617 476.99
1730 0 53.2056 14.0587 748 115.201 880.722 472.652
1731 0 53.1248 10.8989 579 120.883 878.862 474.207
1732 0 55.1303 11.8265 652 119.302 879.342 474.429
1733 0 57.1841 11.1045 635 122.465 878.077 469.398
1734 0 57.1499 12.266 701 121.379 878.382 467.709
1735 0 60.1146 12.2766 738 120.238 876.995 469.396
1736 0 65.0793 15.289 995 112.157 877.095 468.605
1737 0 63.0789 12.2703 774 120.026 876.473 465.429
1738 0 66.1419 11.1881 740 122.1 876.539 464.638
1739 0 67.1547 10.4982 705 123.946 877.298 463.129
1740 0 69.2207 11.8895 823 120.892 877.175 463.245
1741 0 74.3841 13.6857 1018 116.578 878.483 459.04
1742 0 76.4696 12.9071 987 118.088 877.718 454.078
1743 1 36.1569 9.43111 341 120.956 879.24 472.065
1744 0 39.1613 11.5165 451 116.583 879.559 472.984
1745 0 39.1182 14.0344 549 112.075 879.641 471.67
1746 0 41.0281 13.0155 534 114.904 880.685 470.075
1747 0 42.0774 11.4075 480 115.69 880.654 468.069
1748 0 41.2076 11.163 460 118.287 880.326 466.702
1749 0 43.0487 11.7774 507 115.199 880.915 468.396
1750 0 44.081 12.3636 545 115.983 881.187 465.194
1751 0 45.3745 10.821 491 116.953 881.695 467.601
1752 0 47.1873 12.5457 592 114.434 882.326 463.203
1753 0 47.1162 14.4961 683 111.924 883.138 466.499
1754 0 49.1622 13.6487 671 115.313 883.62 463.466
1755 0 51.3672 13.3354 685 115.296 884.412 466.476
1756 0 51.3242 11.9437 613 117.67 884.504 464.891
1757 0 50.0483 12.7677 639 117.729 885.028 464.272
1758 0 53.0962 13.6733 726 116.293 886.131 463.333
1759 0 53.0962 13.6733 726 135.269 886.129 463.298
1760 0 59.5338 14.3616 855 115.419 886.087 464.43
1761 0 61.1105 16.2656 994 112.261 885.803 462.658
1762 0 61.1463 13.4268 821 119.153 886.687 463.812
1763 0 65.3197 14.2836 933 117.005 886.367 463.711
1764 0 65.2186 12.6804 827 120.984 886.122 464.571
1765 0 68.2205 18.279 1247 111.595 885.32 462.994
1766 0 71.3312 13.3322 951 118.346 884.893 465.4
1767 0 75.3152 18.1504 1367 110.039 884.585 463.757
1768 0 76.2743 16.0211 1222 115.656 884.304 466.047
1769 0 76.334 13.1003 1000 121.774 884.056 464.78
1770 0 84.1146 19.3545 1628 109.631 884.734 463.673
1771 0 83.2909 14.1072 1175 119.847 883 464.516
1772 0 85.2346 13.9145 1186 121.735 882.407 459.639
1773 0 90.3354 15.1436 1368 116.293 880.856 462.357
1774 0 90.6878 16.0992 1460 116.231 880.605 456.823
1775 1 52.4346 12.7206 667 122.732 880.409 476.214
1776 0 50.6261 12.5824 637 125.95 879.06 473.89
1777 0 52.2117 11.3576 593 125.496 878.577 475.079
1778 0 53.3854 12.3629 660 123.041 877.647 473.426
1779 0 57.4507 12.1321 697 123.172 877.085 470.443
1780 0 59.439 15.4612 919 112.156 875.916 470.176
1781 0 59.4768 14.8629 884 119.503 878.404 469.635
1782 0 61.3865 16.5509 1016 114.674 878.208 469.344
1783 0 62.2378 14.5731 907 117.677 878.524 468.533
1784 0 67.2735 15.5782 1048 115.143 877.885 464.768
1785 0 68.441 13.0331 892 120.608 878.535 462.795
1786 0 68.2388 13.6872 934 119.225 878.435 464.05
1787 0 74.6634 17.8401 1332 113.923 878.672 460.134
1788 0 74.6832 17.8353 1332 138.599 879.691 460.16
1789 0 77.6 15.4124 1196 118.608 878.126 457.328
1790 0 72.429 13.0058 942 127.756 879.283 453.027
1791 0 83.4244 16.0025 1335 118.718 879.769 452.029
1792 0 82.7876 14.9539 1238 123.377 880.584 443.799
1793 1 161.872 16.5934 2686 121.12 880.351 414.898
1794 0 164.742 13.7913 2272 124.313 880.807 406.342
1795 1 92.5169 17.359 1606 112.425 880.565 442.419
1796 0 94.6149 12.2285 1157 120.093 881.085 442.424
1797 0 96.4493 15.2308 1469 115.805 881.346 442.741
1798 1 55.261 12.2509 677 113.79 882.332 465.827
1799 0 54.2322 10.6394 577 117.44 881.972 466.062
1800 0 55.2546 10.9131 603 118.801 882.849 463.511
1801 0 59.1478 14.4215 853 111.669 884.492 463.531
1802 0 62.2289 14.1735 882 112.287 884.552 463.002
1803 0 63.0959 14.2006 896 112.648 884.894 465.387
1804 0 64.1609 13.6532 876 115.309 884.21 461.889
1805 0 70.3295 12.8822 906 115.742 883.646 462.97
1806 0 68.0925 15.9636 1087 111.493 884.576 463.22
1807 0 72.184 15.3497 1108 111.597 884.85 463.82
1808 0 73.2202 15.0368 1101 112.986 884.166 462.878
1809 0 76.0787 14.6033 1111 113.657 885.626 464.421
1810 0 77.1796 13.6953 1057 116.413 884.486 463.741
1811 0 82.1769 16.6835 1371 111.764 884.192 462.471
1812 0 86.128 17.5436 1511 109.068 883.668 466.17
1813 0 87.2995 16.598 1449 114.696 883.339 458.044
1814 0 91.16 14.8091 1350 117.639 881.581 459.233
1815 0 96.2737 14.0121 1349 117.342 881.174 460.388
1816 0 101.509 17.3285 1759 111.319 880.316 448.245
1817 1 49.3248 12.5089 617 118.002 880.081 472.405
1818 0 51.1459 12.3373 631 118.759 879.116 472.349
1819 0 54.5927 13.6648 746 118.146 878.389 472.898
1820 0 57.2868 14.7678 846 114.717 878.678 464.148
1821 0 56.5985 13.8166 782 117.439 877.703 466.431
1822 0 58.3017 16.0887 938 114.253 877.854 467.217
1823 0 59.8042 14.5976 873 115.434 877.22 465.486
1824 0 62.5291 16.1045 1007 113.639 877.026 464.676
1825 0 64.306 13.358 859 120.485 875.86 459.629
1826 0 67.589 14.4698 978 117.911 876.959 463.471
1827 0 68.5781 15.2673 1047 117.247 876.724 459.636
1828 0 70.6137 13.9491 985 120.344 876.666 455.497
1829 0 72.5426 13.082 949 121.748 875.997 456.104
1830 0 77.8645 15.938 1241 116.331 876.612 453.829
1831 0 76.5014 14.0782 1077 121.532 876.623 450.592
1832 0 80.7294 13.6629 1103 120.916 875.933 449.441
1833 0 84.7387 14.881 1261 118.209 876.451 449.806
1834 0 85.7613 15.0418 1290 120.729 877.926 445.14
1835 0 87.4216 14.7675 1291 122.027 877.682 443.588
1836 0 91.5275 12.2477 1121 125.197 879.224 443.687
1837 0 93.6927 14.1527 1326 123.291 879.606 439.172
1838 0 95.704 13.5209 1294 126.539 880.98 436.243
1839 1 52.3164 13.3228 697 120.479 879.902 461.433
1840 0 54.5718 13.9083 759 118.539 880.548 461.825
1841 0 53.3933 11.818 631 125.208 880.558 459.002
1842 0 55.2722 14.0396 776 121.987 881.491 461.871
1843 0 54.3827 10.8123 588 129.155 881.755 459.406
1844 0 61.4852 14.475 890 121.356 882.325 458.346
1845 0 61.5807 14.0953 868 121.437 882.535 460.456
1846 0 62.0601 12.1656 755 126.84 883.336 458.095
1847 0 66.5472 15.7933 1051 117.639 883.282 459.733
1848 0 67.6649 14.9708 1013 120.739 884.403 458.13
1849 0 69.5357 13.4176 933 122.895 883.88 460.812
1850 0 68.5514 12.8808 883 125.274 883.232 459.796
1851 0 72.4333 12.301 891 125.046 883.948 462.976
1852 0 74.5605 13.8277 1031 124.215 883.385 458.741
1853 0 78.8849 16.4417 1297 117.43 883.609 463.086
1854 0 78.8849 16.5558 1306 148.175 884.594 463.117
1855 0 83.3013 15.0778 1256 121.729 882.797 456.296
1856 0 89.5661 16.2227 1453 118.575 882.277 458.622
1857 0 90.7727 12.4597 1131 124.229 880.592 459.963
1858 0 95.7353 17.235 1650 118.058 881.001 453.648
1859 0 99.462 14.0456 1397 123.747 879.477 452.326
1860 1 53.3202 10.8589 579 122.173 878.622 474.617
1861 0 53.2921 11.0711 590 119.251 878.815 473.075
1862 0 54.2981 12.4314 675 117.437 878.025 471.476
1863 0 57.2744 12.6933 727 115.85 878.161 470.66
1864 0 58.2484 11.9488 696 118.22 876.72 467.432
1865 0 61.5002 13.4796 829 115.153 876.72 463.463
1866 0 64.3552 14.8084 953 116.399 876.028 464.056
1867 0 64.1441 12.3784 794 120.013 876.607 466.001
1868 0 65.2925 13.1102 856 120.129 877.124 460.592
1869 0 70.1868 12.253 860 120.373 876.602 461.599
1870 0 70.5565 13.3368 941 117.904 875.852 460.288
1871 0 71.47 12.4668 891 120.38 875.374 453.637
1872 0 72.0801 9.89178 713 123.369 875.558 454.052
1873 0 79.3656 13.3433 1059 116.106 875.282 454.225
1874 0 75.4096 9.15003 690 120.488 875.257 456.003
1875 1 44.0929 10.2738 453 113.336 874.795 468.552
1876 0 45.3011 10.8827 493 112.284 875.363 467.456
1877 0 43.1053 12.8522 554 111.186 875.931 464.327
1878 0 46.1023 11.8866 548 113.104 876.349 464.277
1879 0 48.0585 12.4432 598 111.413 878.105 463.49
1880 0 48.3375 11.7507 568 112.542 878.704 462.438
1881 0 49.2745 13.4146 661 108.961 878.911 463.92
1882 0 52.1883 12.7615 666 110.815 879.994 460.62
1883 0 53.1562 13.2816 706 110.382 880.086 461.399
1884 0 56.0838 12.3743 694 111.841 880.597 458.633
1885 0 55.1368 14.854 819 108.209 880.101 462.31
1886 0 58.1208 11.0976 645 113.659 879.757 462.474
1887 0 58.1881 12.5455 730 113.212 882.389 457.286
1888 0 61.2143 12.9382 792 111.028 882.831 459.735
1889 0 62.1589 12.0498 749 112.15 884.043 461.784
1890 0 63.0927 13.6466 861 111.092 884.196 457.22
1891 0 68.1487 12.957 883 111.267 884.949 458.64
1892 0 69.1338 9.64796 667 115.778 884.567 461.322
1893 0 73.1949 14.7141 1077 109.494 884.074 457.468
1894 0 73.1738 11.3292 829 115.427 883.507 457.76
1895 0 77.1604 10.4199 804 116.087 884.516 461.776
1896 1 41.0321 13.5991 558 107.627 885.229 478.638
1897 0 44.0824 13.0438 575 107.518 885.36 480.419
1898 0 44.1866 10.1162 447 111.51 884.899 479.139
1899 0 45.0657 11.805 532 106.983 884.07 477.485
1900 0 45.1059 12.3044 555 108.741 880.699 479.876
1901 0 47.1587 11.6415 549 112.601 879.206 477.823
1902 0 48.0542 14.6085 702 108.689 879.443 478.554
1903 0 50.0693 13.2017 661 110.716 878.48 480.216
1904 0 51.183 14.1063 722 108.683 877.612 477.341
1905 0 50.2192 10.3148 518 114.826 876.969 473.834
1906 0 53.1977 11.7486 625 112.666 876.842 475.445
1907 0 55.1248 10.703 590 114.925 876.798 472.686
1908 0 51.0678 8.4985 434 117.922 876.2 473.078
1909 0 57.1754 13.0301 745 110.001 875.368 470.732
1910 0 61.1409 13.4771 824 108.337 875.913 471.096
1911 0 57.1164 7.56351 432 118.975 874.748 473.681
1912 0 66.2123 12.0219 796 111.769 875.068 468.113
1913 0 63.104 11.1562 704 113.926 874.188 467.456
1914 0 63.104 11.0611 698 132.819 873.16 467.437
1915 0 72.1335 11.8392 854 112.83 874.741 457.235
1916 0 71.1706 8.65526 616 118.472 875.362 458.916
1917 1 40.2224 10.4668 421 112.625 875.39 474.23
1918 0 37.3086 7.85341 293 117.147 876.87 470.256
1919 0 38.0325 12.8574 489 107.002 875.141 460.155
1920 0 40.0742 12.0526 483 108.596 875.696 460.027
1921 0 39.029 9.96694 389 113.049 876.018 458.44
1922 0 37.0859 10.1926 378 114.349 876.384 457.193
1923 0 45.0962 12.7062 573 107.248 876.194 454.693
1924 0 44.0229 8.45014 372 116.341 878.422 456.212
1925 0 45.0342 8.66008 390 116.095 878.631 454.326
1926 0 49.1385 11.6406 572 109.089 879.453 456.899
1927 0 48.0659 12.1292 583 111.125 879.823 454.81
1928 0 52.1948 10.9973 574 111.423 880.7 456.157
1929 0 52.077 12.6735 660 109.289 881.18 455.385
1930 0 54.1023 13.2342 716 109.708 882.623 451.744
1931 0 57.2154 12.986 743 108.156 882.836 456.439
1932 0 57.1054 13.3788 764 109.737 883.186 453.499
1933 0 57.1282 10.4152 595 114.576 884.375 452.861
1934 0 62.1578 13.7392 854 107.952 884.077 455.392
1935 0 64.0964 12.8868 826 108.705 883.443 452.867
1936 0 62.1535 11.4233 710 111.376 883.697 455.239
1937 0 65.082 10.2025 664 111.255 883.25 459.157
1938 0 70.1219 12.7492 894 108.493 883.567 458.188
1939 0 77.1276 13.7435 1060 111.782 882.393 464.13
1940 0 75.0716 14.1465 1062 112.06 881.02 462.266
1941 0 77.2547 11.8957 919 116.707 881.46 460.238
1942 0 88.0592 13.9338 1227 110.083 881.462 465.809
1943 0 83.0299 10.6949 888 116.663 880.33 465.136
1944 0 88.1474 13.7043 1208 113.502 880.556 459.989
1945 0 92.377 12.8387 1186 114.938 878.56 457.967
1946 1 47.2076 11.5871 547 110.084 878.183 479.338
1947 0 49.0334 8.9327 438 116.747 876.655 475.982
1948 0 52.4247 11.1016 582 113.545 878.242 471.763
1949 0 52.1494 13.2887 693 104.153 879.455 472.007
1950 0 55.1433 13.2201 729 104.525 879.855 472.679
1951 0 54.1919 12.5296 679 107.761 877.99 469.918
1952 0 58.1734 10.7781 627 110.266 877.968 468.321
1953 0 60.1407 12.0551 725 108.617 878.211 466.764
1954 0 61.161 14.8951 911 105.605 877.856 465.546
1955 0 63.0997 14.2631 900 105.95 878.484 465.474
1956 0 66.1549 14.0579 930 103.63 877.158 466.498
1957 0 66.0894 11.9232 788 108.232 876.819 460.1
1958 0 68.2153 12.3726 844 108.395 877.791 457.399
1959 0 71.1817 15.0601 1072 104.167 878.1 457.832
1960 0 75.3741 14.7929 1115 104.23 878.681 456.011
1961 0 75.2875 13.1496 990 107.387 878.469 449.968
1962 0 78.337 13.8887 1088 106.204 878.869 452.647
1963 0 80.2763 14.6494 1176 107.2 879.173 445.607
1964 1 41.0909 10.3429 425 112.819 880.635 465.073
1965 0 43.1478 12.6774 547 108.002 881.675 465.914
1966 0 47.2222 14.5482 687 103.882 881.964 464.684
1967 0 43.2957 10.717 464 112.741 882.498 462.448
1968 0 49.2798 11.2825 556 109.39 883.621 466.942
1969 0 48.114 12.9276 622 108.318 883.871 466.436
1970 0 49.0638 11.4952 564 112.5 884.262 465.589
1971 0 49.1335 11.5196 566 113.288 884.866 463.562
1972 0 50.2471 12.538 630 111.61 885.302 463.021
1973 0 53.4282 13.0643 698 110.471 884.784 463.764
1974 0 50.2586 9.74957 490 119.359 885.202 463.686
1975 0 54.114 12.1041 655 116.125 886.16 460.666
1976 0 55.1323 11.1006 612 118.219 886.168 462.431
1977 0 59.1252 11.8731 702 115.392 886.808 465.734
1978 0 60.1597 10.522 633 118.174 887.283 463.856
1979 0 65.1274 11.4698 747 113.205 886.432 468.471
1980 0 68.1608 12.3972 845 114.712 886.405 463.858
1981 0 69.0952 11.419 789 116.27 886.01 465.136
1982 0 71.1607 12.2118 869 115.591 885.707 463.167
1983 0 73.2259 14.2436 1043 113.787 884.9 460.331
1984 0 77.1968 12.5264 967 114.887 885.557 466.317
1985 0 80.1741 12.0862 969 117.605 884.193 460.518
1986 1 45.1495 11.1186 502 116.669 885.655 480.464
1987 0 43.1217 11.456 494 119.156 882.751 477.656
1988 0 46.1896 13.2064 610 118.03 882.646 474.882
1989 0 48.0277 12.701 610 118.613 881.051 471.348
1990 0 49.0423 14.0899 691 115.197 882.362 472.444
1991 0 50.0655 13.0829 655 120.023 880.511 474.762
1992 0 52.1544 12.2904 641 121.357 879.374 473.15
1993 0 55.1494 12.856 709 119.134 879.069 471.427
1994 0 55.1342 13.9115 767 117.662 880.082 471.798
1995 0 56.0624 16.3033 914 114.922 878.507 468.546
1996 0 55.1543 11.6038 640 122.012 879.106 471.008
1997 0 61.1241 13.5789 830 118.99 878.002 465.842
1998 0 64.0673 9.97389 639 125.496 878.383 466.468
1999 0 68.3973 15.5708 1065 113.905 877.667 462.403
2000 0 65.1549 14.6574 955 117.495 877.751 461.337
2001 0 69.2914 14.6338 1014 116.513 877.067 461.486
2002 0 67.1159 13.7672 924 120.701 878.458 456.639
2003 0 67.1159 12.4561 836 149.432 879.437 457.715
2004 0 67.1159 12.4263 834 149.055 880.446 457.749
2005 0 75.3902 14.1928 1070 119.769 880.544 453.16
2006 0 83.3599 13.3397 1112 119.432 879.419 450.581
2007 0 82.2727 15.558 1280 117.566 880.673 447.081
2008 0 84.2944 14.9713 1262 118.945 881.529 443.586
2009 1 44.0638 11.8465 522 119.772 882.835 465.456
2010 0 44.066 10.28 453 124.23 884.596 464.925
2011 0 47.1869 11.0624 522 122.772 883.653 464.789
2012 0 51.0386 12.5395 640 119.478 885.455 464.242
2013 0 50.0692 11.9435 598 122.798 884.783 462.982
2014 0 52.1073 10.7663 561 124.545 885.916 462.87
2015 0 54.2621 12.9004 700 121.211 885.54 462.249
2016 0 56.0806 12.0541 676 121.778 886.093 462.8
2017 0 58.1182 13.1973 767 119.103 885.665 462.179
2018 0 61.1036 14.4345 882 116.592 886.571 458.977
2019 0 63.0764 13.9672 881 116.249 887.402 463.455
2020 0 64.0943 11.7951 756 121.749 886.874 460.722
2021 0 66.1205 13.8081 913 117.844 886.838 461.701
2022 0 68.0424 13.3152 906 118.107 887.007 462.215
2023 0 70.0648 11.6749 818 122.276 886.545 463.913
2024 0 74.1236 14.8805 1103 116.179 886.381 463.143
2025 0 78.2765 14.7682 1156 114.779 885.475 465.49
2026 0 79.076 12.8611 1017 119.655 886.051 458.692
2027 0 82.1029 13.8485 1137 118.277 884.122 458.34
2028 0 84.0809 13.7249 1154 117.728 884.897 460.344
2029 0 86.1177 11.8907 1024 121.33 884.857 458.797
2030 1 46.1164 8.50023 392 122.388 883.207 475.648
2031 0 49.0565 12.4754 612 112.812 883.809 477.922
2032 0 50.065 10.6462 533 116.75 883.122 477.835
2033 0 50.1727 10.5037 527 111.302 879.85 466.672
2034 0 49.4019 9.39234 464 113.558 880.42 465.591
2035 0 50.4006 7.9761 402 114.104 879.256 464.739
2036 0 54.3942 8.76932 477 111.031 878.732 467.159
2037 0 55.2336 13.452 743 104.41 879.14 465.666
2038 0 55.2656 9.4634 523 112.748 878.795 458.331
2039 0 59.3503 9.35125 555 110.928 878.456 460.746
2040 0 58.3536 9.69949 566 109.624 877.311 458.491
2041 0 61.414 11.8702 729 107.232 877.978 456.266
2042 0 66.3384 14.0492 932 102.798 877.32 456.317
2043 0 65.2549 11.8459 773 106.781 877.299 452.924
2044 0 65.2739 13.88 906 104.817 876.98 448.53
2045 0 67.5036 11.1402 752 107.746 876.598 449.763
2046 0 71.3818 11.5996 828 107.63 877.035 444.384
2047 0 71.1476 11.947 850 106.064 877.606 446.719
2048 0 75.1882 10.1612 764 107.381 878.356 444.911
2049 0 75.1882 10.1612 764 124.758 878.366 444.984
2050 0 80.447 13.5742 1092 103.28 879.65 437.394
2051 1 43.2395 8.62636 373 101.19 880.812 456.796
2052 0 39.1286 6.95143 272 104.548 880.162 455.632
2053 0 42.1004 8.3372 351 102.182 880.812 455.245
2054 0 45.0459 9.32382 420 101.255 880.788 456.81
2055 0 49.1703 12.1618 598 105.717 880.955 464.234
2056 0 50.1977 15.6382 785 104.657 880.735 461.262
2057 0 49.0955 9.22692 453 115.715 881.726 462.395
2058 0 49.0739 9.16985 450 130.316 883.711 462.333
2059 0 53.2331 11.6657 621 114.195 882.357 463.77
2060 0 58.0549 11.1963 650 112.328 882.908 466.606
2061 0 53.1218 9.44998 502 119.396 883.532 460.922
2062 0 62.2185 11.99 746 113.354 883.928 462.786
2063 0 61.1747 12.9792 794 113.788 883.873 461.571
2064 0 63.1985 14.2883 903 111.489 885.044 464.879
2065 0 65.2184 14.7044 959 111.131 883.769 463.405
2066 0 70.3078 12.5591 883 113.304 884.42 466.61
2067 0 68.2146 13.6334 930 111.66 882.796 467.094
2068 0 70.1511 13.642 957 112.83 883.05 466.139
2069 0 77.1794 13.7213 1059 111.332 881.772 464.399
2070 0 77.1737 12.3876 956 115.409 882.126 457.992
2071 0 82.1307 12.5288 1029 113.207 880.788 463.299
2072 0 84.2175 13.9282 1173 112.124 879.065 460.685
2073 1 46.0497 12.0739 556 110.838 878.827 480.169
2074 0 45.0711 9.69579 437 117.227 878.43 479.281
2075 0 48.1393 12.4015 597 111.97 876.581 472.831
2076 0 50.2077 12.4085 623 108.968 876.904 472.019
2077 0 51.4149 11.7087 602 110.291 876.326 468.947
2078 0 54.0694 14.6109 790 106.87 875.285 471.616
2079 0 53.0689 12.3424 655 112.082 875.826 473.009
2080 0 56.0593 13.3252 747 109.612 875.72 471.961
2081 0 59.1783 14.3296 848 109.13 874.932 466.428
2082 0 56.0436 10.8844 610 116.552 874.503 467.175
2083 0 61.0302 13.9603 852 110.067 874.116 467.332
2084 0 59.0471 13.159 777 114.398 874.171 462.793
2085 0 63.1668 13.0132 822 113.427 874.376 461.662
2086 0 67.1078 16.6747 1119 109.464 874.555 458.724
2087 0 66.0631 13.6687 903 115.373 874.168 458.748
2088 0 69.0906 13.4895 932 116.386 875.938 454.45
2089 0 69.1288 13.5544 937 117.662 875.57 452.711
2090 0 72.0918 12.3315 889 119.07 875.903 451.238
2091 0 75.1409 13.9338 1047 116.774 877.614 448.467
2092 0 76.0817 15.6148 1188 114.685 878.41 446.981
2093 0 77.1299 11.8372 913 121.264 878.101 447.009
2094 0 81.1639 12.6288 1025 121.021 878.29 444.82
2095 0 84.3234 13.3534 1126 120.14 880.402 443.81
2096 0 87.0874 15.3754 1339 116.79 879.695 442.508
2097 0 90.317 14.3052 1292 117.915 881.591 445.125
2098 0 91.1141 13.7739 1255 118.746 882.768 446.809
2099 0 95.303 12.1822 1161 121.222 883.886 445.193
2100 1 53.1269 11.1808 594 122.31 884.823 461.439
2101 0 51.053 12.1442 620 121.327 886.184 461.877
2102 0 56.4551 14.7374 832 115.24 884.858 461.964
2103 0 57.2527 12.6108 722 119.024 883.561 466.147
2104 0 58.094 15.7848 917 114.542 884.385 462.571
2105 0 57.1223 10.6438 608 124.115 883.564 463.66
2106 0 63.1052 15.2127 960 114.85 884.325 464.376
2107 0 64.0556 12.5984 807 119.553 883.191 463.81
2108 0 69.144 13.349 923 117.004 882.663 463.936
2109 0 70.0866 16.4083 1150 111.079 883.084 466.484
2110 0 71.0593 14.6497 1041 114.195 882.169 466.466
2111 0 76.0767 11.633 885 117.809 882.703 466.59
2112 0 76.1697 13.0892 997 115.953 881.77 465.492
2113 0 80.2748 15.1729 1218 113.437 881.511 462.429
2114 0 85.2158 14.0232 1195 115.003 880.144 460.81
2115 0 86.1232 14.5838 1256 115.231 880.024 457.671
2116 0 90.3302 13.0853 1182 117.077 878.787 456.239
2117 0 94.3172 13.656 1288 115.355 878.252 454.835
2118 0 96.2573 13.9002 1338 115.434 878.428 450.203
2119 0 99.3421 13.2371 1315 115.421 878.319 448.136
2120 0 104.311 17.074 1781 109.266 878.017 446.212
2121 0 107.161 15.6773 1680 110.519 876.594 448.564
2122 0 108.338 12.8487 1392 114.882 876.578 443.598
2123 1 58.1246 16.3442 950 104.136 876.223 468.881
2124 0 60.1102 13.1924 793 110.953 875.834 466.262
2125 0 60.1633 14.4773 871 110.295 875.869 462.87
2126 0 62.0619 13.5671 842 109.961 874.914 464.564
2127 0 65.2097 13.9396 909 110.173 874.457 462.13
2128 0 67.1254 15.1507 1017 108.292 875.509 455.734
2129 0 69.1013 16.9896 1174 105.205 874.573 455.92
2130 0 69.1013 17.033 1177 117.047 874.611 455.983
2131 0 74.0493 12.2486 907 111.186 875.343 454.043
2132 0 75.115 15.0702 1132 108.144 876.458 448.681
2133 0 78.3325 14.0427 1100 108.486 877.144 444.929
2134 0 82.1202 12.9323 1062 110.707 877.775 443.546
2135 0 84.2811 12.0668 1017 111.474 877.638 446.832
2136 0 90.262 14.6684 1324 107.092 878.153 445.89
2137 1 40.2092 11.092 446 110.278 878.439 462.733
2138 0 47.1183 9.57165 451 111.501 879.286 462.195
2139 0 48.1574 10.0711 485 110.887 880.138 462.297
2140 0 49.1231 13.0488 641 106.12 880.867 459.97
2141 0 52.413 12.764 669 105.888 881.574 464.027
2142 0 52.4022 10.8392 568 109.787 882.931 460.882
2143 0 55.2655 14.6565 810 103.762 882.556 459.401
2144 0 58.3655 10.7769 629 109.048 882.722 461.471
2145 0 62.2601 15.2586 950 101.212 884.833 460.836
2146 0 61.6695 11.6751 720 107.714 884.026 461.082
2147 0 63.4403 11.5542 733 107.928 885.484 462.512
2148 0 63.355 11.254 713 110.262 883.955 458.038
2149 0 65.4369 10.2694 672 111.93 884.557 457.585
2150 0 71.3003 13.2678 946 106.092 883.823 462.874
2151 0 73.4535 11.6945 859 109.403 883.534 459.976
2152 0 75.6533 11.1826 846 110.173 883.15 458.038
2153 0 81.3097 13.59 1105 106.309 882.548 460.782
2154 0 82.5343 10.9288 902 109.52 882.12 465.18
2155 0 85.5543 12.5534 1074 109.559 882.24 459.735
2156 0 89.557 13.5333 1212 107.956 881.592 457.7
2157 0 91.7962 13.5844 1247 108.959 881.269 452.492
2158 0 93.7112 9.53994 894 113.437 879.019 447.94
2159 1 55.8991 11.0556 618 107.474 879.872 471.686
2160 0 57.7611 10.1972 589 108.479 878.47 467.779
2161 0 56.7956 13.6278 774 105.447 878.709 468.602
2162 0 59.7164 17.9013 1069 99.4107 878.567 470.004
2163 0 62.1784 15.7772 981 103.251 875.952 470.194
2164 0 63.381 12.8587 815 107.973 876.537 466.925
2165 0 62.3397 15.993 997 104.38 875.718 466.25
2166 0 64.4629 12.3637 797 109.619 876.005 462.479
2167 0 67.4238 13.3039 897 108.175 875.363 462.983
2168 0 68.2938 14.2033 970 108.102 877.016 459.387
2169 0 71.7211 14.7098 1055 105.714 875.144 461.006
2170 0 72.3499 14.651 1060 107.325 876.392 456.415
2171 0 73.6543 13.6041 1002 108.963 876.608 457.682
2172 0 78.6761 15.5193 1221 105.848 876.532 452.973
2173 0 77.6344 13.4219 1042 109.25 877.42 453.369
2174 0 81.7295 15.796 1291 105.208 877.513 451.808
2175 0 82.2293 12.6962 1044 111.649 877.543 448.779
2176 0 87.9529 17.2251 1515 104.709 878.02 442.997
2177 0 91.2337 13.6572 1246 110.254 878.584 442.482
2178 1 48.6908 11.3574 553 111.094 879.405 460.078
2179 0 53.3355 11.7933 629 110.636 879.24 457.903
2180 0 53.7087 11.0597 594 111.689 880.66 458.907
2181 0 51.1432 10.4217 533 109.371 883.358 459.499
2182 0 55.035 11.7925 649 106.998 882.65 463.875
2183 0 59.1742 15.1586 897 107.663 883.926 460.797
2184 0 60.2956 13.5499 817 111.673 884.048 458.483
2185 0 63.2387 14.9908 948 108.945 883.827 459.978
2186 0 66.4816 14.8613 988 108.813 884.034 459.403
2187 0 66.4022 16.3248 1084 108.042 884.022 456.575
2188 0 68.4187 12.8181 877 113.856 884.127 459.372
2189 0 70.3154 11.804 830 114.855 884.569 461.606
2190 0 71.4684 14.8037 1058 112.657 885.274 454.326
2191 0 75.5336 12.2462 925 115.948 884.377 459.004
2192 0 76.3639 15.138 1156 112.305 884.087 458.256
2193 0 79.4797 14.4062 1145 114.077 884.703 456.591
2194 0 81.3843 13.0123 1059 116.833 884.208 453.063
2195 0 85.4039 13.9806 1194 114.482 883.058 456.274
2196 0 86.4099 15.2992 1322 113.389 883.594 454.382
2197 1 46.1313 8.34575 385 115.847 881.662 481.416
2198 0 47.085 10.4704 493 116.087 880.529 476.529
2199 0 49.073 12.1859 598 113.042 879.958 475.923
2200 0 52.0809 17.7224 923 103.787 878.922 475.018
2201 0 55.0498 11.4805 632 113.407 878.79 475.419
2202 0 53.0461 12.0461 639 114.701 875.704 472.801
2203 0 54.0591 12.4493 673 114.963 877.767 475.346
2204 0 56.0984 13.3337 748 112.572 876.139 474.632
2205 0 57.0248 11.7843 672 116.335 875.174 473.173
2206 0 60.0557 13.7705 827 113.377 875.571 468.237
2207 0 63.1208 13.1652 831 113.318 874.928 468.392
2208 0 61.0181 12.2914 750 116.469 874.411 467.507
2209 0 65.1653 14.5323 947 111.906 873.738 466.795
2210 0 66.1515 12.8039 847 114.548 874.571 461.976
2211 0 69.1597 11.9145 824 115.208 874.598 463.951
2212 0 69.0759 15.8956 1098 110.415 874.889 458.759
2213 0 72.1864 14.0193 1012 112.702 873.924 458.446
2214 0 74.224 11.6943 868 116.75 874.831 455.184
2215 0 71.1429 11.1466 793 117.997 873.598 455.039
2216 0 75.2674 12.2762 924 115.795 875.789 453.395
2217 0 78.1397 12.3113 962 115.672 875.307 451.828
2218 0 80.1993 13.6909 1098 111.811 876.148 452.72
2219 0 79.3027 11.5759 918 116.684 875.905 449.291
2220 0 86.0856 13.3936 1153 112.01 877.096 447.07
2221 0 84.0979 10.8802 915 117.37 877.815 443.291
2222 0 90.1363 12.2259 1102 114.522 877.845 442.33
2223 1 46.1434 10.2723 474 113.745 878.679 465.542
2224 0 46.1434 10.164 469 129.693 879.646 465.493
2225 0 54.1094 13.1585 712 108.919 881.412 462.029
2226 0 54.43 12.6768 690 110.725 881.42 458.264
2227 0 56.4225 13.3989 756 108.429 882.714 461.258
2228 0 56.401 15.0352 848 108.258 882.57 456.807
2229 0 61.6948 15.3173 945 106.109 884.633 458.069
2230 0 61.4252 14.9287 917 108.041 884.153 460.68
2231 0 62.4612 13.0481 815 111 885.258 460.371
2232 0 66.3603 18.3393 1217 103.26 886.14 456.754
2233 0 70.3587 15.4352 1086 105.493 884.347 461.484
2234 0 67.6239 12.3329 834 112.35 885.223 459.325
2235 0 74.1911 14.4087 1069 109.304 886.005 459.729
2236 0 75.2276 13.1335 988 112.207 885.322 457.191
2237 0 77.3556 13.2376 1024 112.482 885.562 456.562
2238 0 82.3582 14.3398 1181 110.129 883.74 460.278
2239 0 85.1978 13.0402 1111 113.198 884.032 459.076
2240 0 89.4169 14.3932 1287 110.981 883.229 459.928
2241 0 90.2241 13.3667 1206 114.822 882.875 458.601
2242 0 90.2241 13.4221 1211 136.368 881.864 458.37
2243 0 96.4482 13.1055 1264 116.604 881.884 453.301
2244 0 102.357 18.6113 1905 106.496 880.037 452.445
2245 1 50.0906 10.8404 543 115.418 879.057 476.622
2246 0 53.064 12.4378 660 113.342 877.711 475.297
2247 0 56.1622 13.372 751 111.808 876.981 471.342
2248 0 55.2057 14.7811 816 107.023 877.615 469.423
2249 0 60.1633 14.2944 860 107.426 877.035 468.316
2250 0 59.0824 17.3994 1028 106.677 877.003 467.842
2251 0 59.0824 17.3994 1028 121.622 876.017 467.767
2252 0 65.1318 14.8775 969 108.948 876.756 466.461
2253 0 65.1318 14.8468 967 125.224 877.748 466.311
2254 0 68.0517 15.1062 1028 110.147 875.639 459.465
2255 0 70.1219 16.4428 1153 108.372 875.614 456.338
2256 0 73.3249 14.5517 1067 110.312 875.634 459.483
2257 0 73.3249 14.4153 1057 129.922 876.612 459.489
2258 0 77.1876 14.251 1100 112.146 876.851 449.54
2259 0 79.2205 14.1251 1119 112.593 876.599 450.235
2260 0 78.2354 12.3474 966 115.477 877.134 451.123
2261 0 80.1784 17.7853 1426 106.862 878.184 445.856
2262 0 86.3194 11.8282 1021 116.559 878.164 444.088
2263 0 86.3258 12.754 1101 115.106 878.976 446.139
2264 0 85.2477 11.5546 985 117.031 879.702 443.078
2265 0 94.3014 13.3084 1255 113.926 880.735 438.578
2266 0 98.1983 14.3281 1407 112.231 880.688 435.341
2267 1 53.1345 11.2545 598 113.129 879.03 457.538
2268 0 53.0506 10.0282 532 116.891 879.374 456.959
2269 0 55.1415 9.59351 529 116.2 880.977 457.212
2270 0 56.0576 10.5071 589 116.486 881.119 457.374
2271 0 61.1823 12.144 743 111.786 881.467 458.938
2272 0 60.1531 10.3902 625 116.069 883.214 458.218
2273 0 65.1777 13.6857 892 109.566 882.872 457.936
2274 0 66.0815 11.9095 787 112.712 883.097 457.449
2275 0 69.1273 16.4769 1139 106.481 883.562 453.974
2276 0 72.1244 11.1058 801 114.33 883.642 456.493
2277 0 75.1138 11.9818 900 111.928 883.059 460.008
2278 0 73.1193 10.5034 768 142.831 883.021 457.159
2279 0 80.1986 13.3419 1070 111.527 883.507 454.523
2280 0 85.1859 14.8968 1269 107.698 884.01 459.141
2281 0 88.1904 13.1987 1164 111.721 881.67 455.41
2282 0 87.251 11.0715 966 116.449 882.461 455.401
2283 0 90.2971 9.88958 893 118.063 881.628 455.862
2284 0 98.2746 14.2255 1398 110.76 881.79 456.627
2285 0 98.6717 9.69883 957 119.409 880.727 449.031
2286 0 103.949 11.698 1216 112.465 880.102 449.744
2287 0 105.49 13.0533 1377 112.329 879.474 450.28
2288 1 56.2272 9.5861 539 112.217 878.327 476.545
2289 0 58.0899 10.6559 619 110.696 876.829 472.365
2290 0 61.1866 15.4119 943 106.768 877.437 468.386
2291 0 63.1386 12.1796 769 111.856 875.551 465.784
2292 0 63.137 11.1662 705 113.165 875.506 466.844
2293 0 65.0802 11.3706 740 113.553 874.782 462.923
2294 0 70.1977 15.2427 1070 107.375 874.963 460.675
2295 0 70.1789 13.4371 943 109.613 874.205 460.256
2296 0 71.0775 12.5075 889 111.246 875.416 460.396
2297 0 73.114 15.9477 1166 106.788 875.617 452.149
2298 0 74.0706 12.8121 949 110.989 875.534 455.215
2299 0 81.11 15.3125 1242 105.74 875.363 453.199
2300 0 76.0956 10.8416 825 114.996 875.43 449.928
2301 0 82.1155 13.7124 1126 109.96 876.084 447.599
2302 0 84.187 13.3275 1122 110.173 876.207 443.48
2303 0 89.4234 13.3075 1190 109.955 876.352 442.292
2304 0 90.1586 12.9882 1171 110.187 878.463 444.942
2305 0 95.4213 13.4037 1279 108.75 877.692 441.476
2306 0 96.2342 14.1322 1360 106.865 878.325 439.491
2307 0 100.142 13.9901 1401 107.687 877.911 438.423
2308 0 106.311 16.9879 1806 102.207 879.97 438.154
2309 0 104.239 13.7953 1438 107.944 879.795 434.287
2310 0 109.313 15.9176 1740 104.776 881.79 434.656
2311 0 114.458 13.5858 1555 107.937 881.814 432.745
2312 0 120.792 11.5653 1397 110.947 881.737 431.754
2313 1 65.3782 14.1026 922 104.108 883.317 456.757
2314 0 68.4644 11.831 810 107.519 884.717 454.86
2315 0 69.4716 14.6103 1015 104.672 885.253 452.765
2316 0 71.2378 12.8724 917 107.37 886.796 454.579
2317 0 76.2457 14.2041 1083 103.821 886.096 457.257
2318 0 78.4056 16.5039 1294 101.26 885.03 452.26
2319 0 79.2658 13.6755 1084 104.101 883.956 457.349
2320 0 81.5975 14.9392 1219 103.768 884.145 452.537
2321 1 158.839 14.436 2293 107.309 883.93 416.366
2322 1 247.754 14.1511 3506 111.343 884.442 373.092
2323 1 94.3087 14.5798 1375 104.042 884.774 452.576
2324 0 97.1485 13.0419 1267 108.008 884.084 453.159
2325 0 95.4037 12.6201 1204 110.852 883.549 447.978
2326 0 102.466 12.9506 1327 110.279 882.783 448.95
2327 1 56.4022 9.20176 519 111.434 881.272 473.033
2328 0 56.4711 12.5728 710 105.03 880.293 474.304
2329 0 62.1632 15.2824 950 101.913 878.622 471.271
2330 0 63.1349 13.1148 828 106.309 877.521 472.165
2331 0 61.088 12.572 768 108.552 876.966 470.453
2332 0 66.125 13.8223 914 105.42 876.9 471.428
2333 0 63.158 12.9991 821 110.445 876.665 464.927
2334 0 66.1554 13.166 871 109.137 875.261 467.785
2335 0 67.1244 12.678 851 110.304 875.521 465.412
2336 0 75.6945 14.1754 1073 105.409 874.838 466.553
2337 0 73.1637 13.0803 957 109.209 875.216 464.371
2338 0 76.085 10.7774 820 113.156 875.359 459.298
2339 0 78.2006 16.8157 1315 103.943 874.428 460.496
2340 0 78.3143 12.5137 980 112.172 874.281 455.669
2341 0 81.0934 12.4178 1007 112.942 875.803 453.618
2342 0 86.2397 16.0715 1386 106.53 875.382 453.234
2343 0 89.2527 13.557 1210 111.664 875.976 447.564
2344 0 87.1746 11.7121 1021 116.431 876.685 444.428
2345 0 94.3108 14.6749 1384 109.798 877.101 445.619
2346 0 96.2912 14.7989 1425 110.685 877.601 442.734
2347 0 98.1709 14.2303 1397 112.456 877.566 436.394
2348 0 103.234 14.4332 1490 111.136 878.679 439.088
2349 0 105.552 14.609 1542 110.715 878.517 438.497
2350 1 63.6443 14.4553 920 106.699 880.562 460.639
2351 0 59.1677 13.1322 777 108.462 880.532 460.165
2352 0 60.2151 15.9428 960 104.874 880.866 459.21
2353 0 62.14 14.3225 890 109.145 881.326 459.569
2354 0 67.4308 14.4296 973 107.496 882.065 457.703
2355 0 68.2069 18.4732 1260 103.283 882.728 456.071
2356 0 70.2712 15.0275 1056 106.658 883.257 459.759
2357 0 70.2693 10.3032 724 116.761 883.326 455.573
2358 0 75.0857 13.7843 1035 109.972 884.577 456.881
2359 0 77.3638 15.4336 1194 108.744 884.212 456.146
2360 0 77.1581 12.2605 946 115.113 884.418 453.699
2361 0 82.1673 18.2554 1500 105.106 883.68 458.029
2362 0 85.1485 15.103 1286 111.36 884.385 454.54
2363 0 89.2908 15.2647 1363 110.509 882.382 456.595
2364 0 90.2885 14.2765 1289 113.854 883.733 453.021
2365 0 94.3411 14.013 1322 114.074 882.916 454.141
2366 0 98.4931 15.5239 1529 111.156 882.244 451.968
2367 0 102.628 14.041 1441 113.922 881.929 449.877
2368 1 58.3513 10.0255 585 114.506 881.544 474.728
2369 0 61.3792 12.3332 757 111.517 880.091 470.089
2370 0 62.4385 14.0778 879 104.817 880.02 471.727
2371 0 66.2805 14.3783 953 108.01 877.743 469.626
2372 0 66.4202 13.2942 883 110.489 876.948 467.005
2373 0 68.3421 13.4471 919 111.03 876.478 464.442
2374 0 71.2551 12.35 880 112.343 874.873 464.681
2375 0 75.2204 14.1052 1061 110.493 875.236 461.325
2376 0 78.1532 14.817 1158 108.031 874.63 461.57
2377 0 79.3082 12.319 977 112.204 874.271 459.155
2378 0 84.2297 13.0951 1103 102.968 874.174 463.27
2379 0 87.2217 14.1135 1231 109.216 873.933 455.922
2380 0 88.0999 13.1442 1158 111.964 874.198 450.54
2381 0 92.1539 12.2621 1130 107.975 874.859 454.413
2382 0 92.1539 12.2838 1132 133.897 875.861 454.322
2383 1 48.1157 13.1558 633 105.708 873.526 469.657
2384 0 50.0381 11.4912 575 106.108 873.421 470.203
2385 0 50.0381 11.5312 577 125.258 873.426 470.173
2386 0 50.0363 11.6116 581 124.546 873.432 470.12
2387 0 52.1505 12.7516 665 106.88 876.179 463.526
2388 0 53.0407 10.6145 563 110.075 875.302 463.181
2389 0 59.26 14.3267 849 102.389 876.201 464.229
2390 0 59.26 14.428 855 128.501 876.116 464.38
2391 0 59.2303 11.7507 696 108.135 876.677 460.372
2392 0 61.1247 12.5972 770 107.448 876.713 456.523
2393 0 63.0666 11.4799 724 109.758 878.391 456.471
2394 0 68.0716 14.5288 989 103.986 878.229 456.565
2395 0 69.2619 14.1348 979 104.819 879.467 457.43
2396 0 70.179 14.4773 1016 106.298 879.369 453.627
2397 0 72.1064 15.8238 1141 104.414 880.796 454.594
2398 0 75.2166 12.2845 924 110.448 881.604 456.123
2399 0 79.1821 16.5694 1312 103.283 882.111 457.759
2400 0 83.2273 13.7695 1146 108.369 882.418 455.991
2401 0 85.3124 17.1605 1464 104.552 882.012 454.008
2402 0 87.4017 19.1415 1673 101.758 881.356 455.179
2403 0 91.2799 15.2717 1394 108.729 880.433 450.985
2404 0 95.2315 16.2131 1544 107.352 881.296 451.578
2405 0 98.5049 12.4359 1225 112.21 881.197 456.228
2406 0 98.5303 8.76888 864 117.3 880.367 458.002
2407 0 102.269 11.4209 1168 113.444 879.667 454.568
2408 1 60.1448 11.9046 716 110.179 879.662 476.473
2409 0 62.0965 14.9445 928 106.334 879.5 475.5
2410 0 67.3234 18.0769 1217 102.185 878.541 470.743
2411 0 68.1974 11.716 799 112.905 877.895 470.533
2412 0 73.1945 15.3017 1120 106.442 875.204 469.551
2413 0 74.2169 14.7136 1092 108.125 876.76 468.503
2414 0 76.3651 13.2521 1012 110.576 876.343 466.17
2415 0 79.1634 16.1817 1281 106.409 876.667 464.448
2416 0 83.433 15.857 1323 105.883 875.154 463.729
2417 0 86.2778 14.7778 1275 107.4 875.1 462.071
2418 0 86.1581 18.791 1619 103.427 874.888 459.039
2419 0 90.3952 16.1956 1464 108.941 874.555 455.667
2420 0 91.4146 13.8709 1268 113.299 874.614 450.407
2421 0 95.3355 14.1395 1348 111.986 873.885 452.358
2422 0 99.3606 15.016 1492 110.143 874.75 451.706
2423 0 100.638 15.034 1513 110.769 874.518 449.11
2424 0 104.459 14.7234 1538 112.202 874.051 441.668
2425 0 109.37 13.2577 1450 110.828 874.904 442.744
2426 1 64.3181 12.5159 805 106.591 876.017 462.537
2427 0 67.2628 13.9602 939 103.616 876.129 461.625
2428 0 64.2589 11.0646 711 110.796 875.321 460.501
2429 0 65.4397 12.7598 835 106.963 875.084 461.647
2430 0 71.2392 15.0619 1073 103.458 876.878 460.541
2431 0 72.5251 15.7049 1139 103.095 878.006 454.498
2432 0 73.3268 12.3284 904 108.613 877.728 454.988
2433 0 77.1919 14.1077 1089 104.959 878.802 452.939
2434 0 77.338 12.2967 951 105.74 878.506 459.627
2435 0 82.2514 14.1031 1160 105.636 879.162 450.64
2436 0 84.3748 14.8385 1252 104.741 880.484 448.903
2437 0 89.3454 17.2701 1543 100.555 880.819 447.723
2438 0 90.1258 14.5241 1309 103.992 880.4 446.561
2439 0 96.2868 13.7402 1323 104.611 881.626 447.468
2440 0 99.3283 15.7659 1566 102.11 882.543 446.275
2441 1 56.0548 14.1826 795 102.428 881.274 470.242
2442 0 57.1147 14.2695 815 102.719 881.937 472.042
2443 0 58.2312 14.0646 819 122.072 881.949 472.09
2444 0 58.0808 11.6906 679 108.454 880.946 471.295
2445 0 61.073 12.8699 786 107.107 879.623 471.601
2446 0 61.073 12.919 789 122.229 878.597 471.691
2447 0 66.3091 13.6482 905 106.591 879.843 472.876
2448 0 66.1108 11.0572 731 111.182 879.558 471.761
2449 0 71.1379 15.3224 1090 104.494 878.619 470.31
2450 0 73.1144 10.0801 737 111.928 879.069 471.065
2451 0 76.1632 11.948 910 109.965 878.202 469.338
2452 0 81.326 13.6365 1109 105.165 878.421 473.63
2453 0 81.1135 13.1297 1065 109.177 877.369 468.965
2454 0 85.3611 13.9993 1195 108.089 876.356 465.078
2455 0 97.1471 13.5156 1313 105.942 875.978 468.647
2456 0 93.417 12.8563 1201 109.478 875.235 462.002
2457 0 95.1578 13.693 1303 109.661 874.384 458.969
2458 1 52.0679 11.2929 588 113.117 872.362 476.024
2459 0 52.1993 12.8737 672 111.071 873.254 473.095
2460 0 58.2765 16.2158 945 102.465 873.75 475.371
2461 0 57.2364 18.3799 1052 98.2576 873.864 476.972
2462 0 57.164 12.9452 740 109.507 873.739 471.658
2463 0 57.0851 13.5937 776 108.862 873.075 471.162
2464 0 61.2072 18.0698 1106 106.377 874.324 468.285
2465 0 62.1973 15.3544 955 141.75 876.374 469.787
2466 0 64.1011 12.9015 827 115.2 873.472 466.283
2467 0 64.1655 14.4314 926 114.042 874.192 463.622
2468 0 69.1748 15.8584 1097 111.389 874.522 461.799
2469 0 68.1647 15.0078 1023 113.723 875.691 460.673
2470 0 71.398 15.6867 1120 113.242 876.943 457.417
2471 0 73.2608 12.5579 920 117.742 876.927 457.279
2472 0 75.2836 15.7803 1188 113.886 876.875 453.747
2473 0 79.4406 15.0175 1193 114.898 877.626 450.836
2474 0 82.5018 15.3815 1269 113.826 878.403 455.523
2475 0 81.3785 13.812 1124 117.716 879.048 454.335
2476 0 89.2073 14.9764 1336 114.272 880.177 452.108
2477 0 90.3053 15.3701 1388 113.921 880.718 451.752
2478 0 92.2561 18.4595 1703 109.913 880.984 451.105
2479 0 94.4221 14.0751 1329 116.883 883.128 447.707
2480 0 98.5144 12.6682 1248 119.226 882.502 446.581
2481 0 100.288 14.6678 1471 116.355 883.084 445.217
2482 0 104.34 13.9639 1457 116.73 882.202 445.493
2483 0 112.508 15.5811 1753 112.323 883.224 448.588
2484 0 112.324 13.9596 1568 116.518 881.436 445.128
2485 1 61.1347 15.7194 961 109.456 883.161 471.901
2486 0 61.0986 11.7515 718 117.166 883.185 471.361
2487 0 65.1978 16.9791 1107 109.174 883.043 472.578
2488 0 69.1867 13.254 917 115.037 882.325 470.058
2489 0 72.0894 12.7342 918 114.914 882.84 470.925
2490 0 72.0894 12.6787 914 144.445 883.829 470.85
2491 0 72.0721 12.654 912 143.973 884.839 470.922
2492 1 159.583 17.4329 2782 112.283 880.326 435.783
2493 0 159.583 17.4517 2785 144.948 876.311 435.595
2494 0 170.705 15.2017 2595 118.66 878.634 422.417
2495 0 177.315 14.2064 2519 119.484 878.987 426.7
2496 0 180.396 17.6833 3190 114.816 877.239 422.927
2497 0 188.582 16.3801 3089 117.447 877.579 411.121
2498 0 186.828 13.0387 2436 123.249 875.865 416.619
2499 0 187.536 10.6913 2005 126.364 875.841 419.599
2500 0 187.996 10.979 2064 123.375 875.81 422.356
2501 0 182.579 8.99884 1643 119.258 874.982 439.295
2502 1 57.3425 15.451 886 112.401 874.893 463.751
2503 0 58.5984 14.2666 836 115.289 874.977 467.952
2504 0 61.1143 13.7447 840 115.233 874.287 465.737
2505 0 61.6011 14.4316 889 115.895 874.919 463.346
2506 0 64.23 18.5739 1193 109.174 874.94 462.151
2507 0 64.2962 13.5933 874 119.989 875.006 457.285
2508 0 68.4769 13.0701 895 119.775 875.467 455.094
2509 0 72.1972 16.2472 1173 112.786 874.953 454.996
2510 0 70.2335 12.9141 907 122.169 875.375 444.999
2511 0 72.0855 13.8585 999 120.803 876.093 442.87
2512 0 75.1033 14.3669 1079 119.761 876.869 441.738
2513 0 78.49 15.7854 1239 116.366 877.892 444.498
2514 0 79.1408 16.199 1282 115.754 878.195 444.037
2515 0 83.3662 15.138 1262 117.281 878.855 441.971
2516 0 84.4427 14.945 1262 141.519 878.864 441.921
2517 0 87.1921 15.3569 1339 118.261 880.007 436.462
2518 0 91.2994 14.1622 1293 121.463 880.531 436.757
2519 0 97.3792 15.5372 1513 118.594 880.861 439.416
2520 1 53.2508 13.089 697 123.316 880.981 457.917
2521 0 54.3503 12.309 669 122.65 881.876 460.49
2522 0 58.3166 13.581 792 119.197 881.908 460.577
2523 0 58.2597 13.3025 775 121.333 882.808 455.862
2524 0 61.161 13.8487 847 120.28 881.628 456.934
2525 0 66.3147 14.3407 951 120.122 882.216 455.46
2526 0 69.2373 16.1474 1118 115.174 882.056 456.28
2527 0 71.3525 17.6588 1260 113.394 881.037 452.628
2528 0 74.2842 15.4003 1144 116.758 881.248 457.92
2529 0 76.4098 14.6709 1121 119.556 881.004 456.674
2530 0 82.3935 17.6106 1451 113.292 881.7 455.025
2531 0 84.3791 15.5607 1313 117.935 880.264 451.819
2532 0 90.2288 14.5408 1312 119.315 879.992 452.049
2533 0 93.2103 14.5585 1357 118.452 879.144 452.959
2534 1 54.1575 12.2975 666 116.281 879.428 471.676
2535 0 54.1168 11.5121 623 117.628 877.706 470.424
2536 0 57.1458 12.6169 721 116.578 877.169 464.555
2537 0 59.0875 14.4362 853 116.462 876.263 456.951
2538 0 61.0933 12.8492 785 118.196 875.256 461.768
2539 0 64.0974 14.5248 931 112.86 875.214 461.098
2540 0 64.0998 11.4977 737 119.045 874.844 457.376
2541 0 71.5581 13.3738 957 112.138 875.436 460.571
2542 0 71.2128 16.1628 1151 109.773 874.989 458.16
2543 0 71.1519 13.2252 941 116.456 875.96 450.698
2544 0 72.1488 11.2268 810 119.651 875.089 451.917
2545 0 74.1618 13.5919 1008 117.841 875.415 446.91
2546 0 79.3009 15.1322 1200 113.801 876.499 448.234
2547 0 78.645 11.3675 894 121.431 875.436 442.066
2548 0 85.2637 13.4876 1150 117.983 875.75 439.589
2549 0 88.354 16.4226 1451 111.81 875.773 437.772
2550 0 89.176 15.2395 1359 113.867 876.218 439.118
2551 0 94.2404 16.1184 1519 114.767 875.511 443.226
2552 0 95.4777 12.9454 1236 119.249 874.343 445.434
2553 0 92.3465 15.1928 1403 115.035 876.717 447.441
2554 0 102.177 14.7 1502 117.257 876.111 439.32
2555 0 105.34 12.5024 1317 121.008 877.567 441.842
2556 0 107.369 11.3534 1219 123.55 877.857 433.632
2557 0 110.371 12.3584 1364 123.546 878.784 424.891
2558 1 65.2643 13.1772 860 114.876 880.609 454.364
2559 0 66.2646 11.6955 775 136.952 881.658 455.45
2560 0 66.2487 11.6229 770 136.591 882.649 455.539
2561 0 72.0684 14.3059 1031 110.419 882.126 458.889
2562 0 74.1406 12.1391 900 115.02 882.913 450.428
2563 0 78.245 12.2564 959 113.979 883.553 453.853
2564 0 81.2544 14.953 1215 110.449 884.176 454.022
2565 0 83.2156 13.8796 1155 113.06 882.981 453.099
2566 0 85.1547 10.8978 928 118.909 884.056 451.97
2567 0 90.2921 13.4231 1212 115.769 883.308 449.993
2568 0 94.226 16.0253 1510 111.934 883.077 455.15
2569 0 99.3 15.1057 1500 115.696 882.818 453.789
2570 0 99.1699 13.6634 1355 119.895 881.579 449.218
2571 0 103.156 14.2309 1468 120.018 882.429 448.235
2572 0 107.185 15.8884 1703 116.896 880.925 449.207
2573 0 110.134 12.4393 1370 122.28 880.687 449.375
2574 0 114.274 17.8694 2042 114.6 879.943 448.187
2575 0 115.211 13.7834 1588 122.494 878.673 441.568
2576 0 115.211 13.7747 1587 135.561 878.682 441.626
2577 1 74.2488 11.8386 879 116.926 878.935 472.048
2578 0 72.2514 12.2351 884 117.741 878.991 468.551
2579 0 74.2663 15.0001 1114 113.522 877.461 463.18
2580 0 77.5435 16.4682 1277 112.886 876.641 463.53
2581 0 79.3509 13.497 1071 118.854 877.158 461.805
2582 0 82.2931 15.2868 1258 116.095 876.154 460.812
2583 0 83.2157 12.6539 1053 121.666 875.983 456.894
2584 0 86.5278 14.5849 1262 118.507 875.029 456.021
2585 0 87.2761 13.6578 1192 117.707 876.063 460.469
2586 0 90.3357 13.8816 1254 119.292 874.514 451.443
2587 0 94.3067 16.616 1567 114.215 874.853 450.743
2588 0 97.3302 16.7574 1631 114.674 874.604 445.058
2589 0 99.6934 15.5477 1550 116.057 875.539 444.647
2590 0 103.463 15.5224 1606 117.163 875.557 438.78
2591 0 104.385 13.7472 1435 119.61 875.63 439.733
2592 0 106.412 11.042 1175 123.369 876.584 440.473
2593 0 112.26 13.4687 1512 120.106 876.396 434.718
2594 0 116.301 14.2131 1653 118.676 876.75 434.479
2595 0 122.387 14.6748 1796 117.194 877.957 432.924
2596 0 129.575 15.1263 1960 115.132 878.13 433.11
2597 0 128.302 12.8603 1650 118.021 878.864 419.819
2598 1 70.2359 13.3123 935 108.262 879.866 452.404
2599 0 73.1498 10.5947 775 111.552 880.73 456.332
2600 0 76.1098 13.1521 1001 107.204 880.9 454.128
2601 0 79.1902 9.14255 724 112.5 881.224 458.838
2602 0 79.1902 9.09204 720 138.879 881.24 458.771
2603 0 81.2769 13.5709 1103 128.296 880.9 452.07
2604 0 89.205 13.1831 1176 106.787 883.631 445.556
2605 0 94.1036 14.7497 1388 103.483 883.628 452.826
2606 0 94.2978 12.2802 1158 106.646 883.555 450.137
2607 0 101.184 13.5594 1372 106.925 882.794 448.482
2608 0 101.184 13.5001 1366 134.028 881.787 448.405
2609 0 107.271 16.0342 1720 105.49 882.895 452.708
2610 0 109.27 11.8788 1298 112.425 882.461 446.798
2611 0 116.26 12.7903 1487 110.845 881.702 446.691
2612 0 119.222 12.9757 1547 109.54 881.579 446.844
2613 1 66.2353 8.12256 538 110.673 882.074 473.485
2614 0 69.2307 14.69 1017 104.235 881.991 468.023
2615 0 73.4965 13.1571 967 106.229 878.891 467.776
2616 0 73.4965 13.1163 964 136.081 877.91 467.798
2617 0 78.2936 11.4441 896 108.944 879.246 467.454
2618 0 81.2014 12.0195 976 107.43 878.283 465.558
2619 0 80.1799 8.8052 706 113.239 877.979 460.266
2620 0 87.3274 12.3558 1079 105.764 876.897 461.7
2621 0 88.4136 13.8327 1223 104.593 877.076 456.652
2622 0 88.4136 13.9119 1230 126.943 877.067 456.708
2623 0 95.7414 13.4633 1289 106.181 876.071 448.236
2624 0 99.6314 16.29 1623 103.036 875.091 443.789
2625 0 100.674 14.3433 1444 105.562 874.986 448.784
2626 0 105.664 13.5524 1432 107.037 874.425 444.575
2627 0 106.658 13.6417 1455 107.281 874.913 440.764
2628 0 111.487 15.7507 1756 103.983 875.747 437.195
2629 1 63.1483 13.6346 861 99.6597 876.553 459.804
2630 0 61.1494 12.1179 741 102.343 876.606 461.711
2631 0 62.3532 10.5688 659 101.558 875.234 462.558
2632 0 64.4423 11.6849 753 100.064 875.639 460.955
2633 0 69.2459 15.4233 1068 93.8904 874.992 460.239
2634 0 68.2345 11.1234 759 102.485 875.611 459.366
2635 0 73.2362 15.4159 1129 96.7679 875.482 460.09
2636 0 73.3219 9.81972 720 104.369 876.167 459.471
2637 0 74.2868 9.75947 725 106.389 876.593 453.742
2638 0 76.2177 11.4278 871 105.91 877.426 451.255
2639 0 83.4297 13.1368 1096 103.195 877.432 451.222
2640 0 84.3856 13.4502 1135 103.336 879.422 448.478
2641 0 89.2104 11.2767 1006 104.821 878.562 455.463
2642 0 91.2049 22.1589 2021 88.478 880.54 459.515
2643 0 89.1823 9.19465 820 99.7293 881.44 455.53
2644 1 64.173 14.9596 960 94.4344 881.942 471.026
2645 0 66.2642 9.71867 644 101.814 880.958 464.073
2646 0 68.5185 12.8286 879 96.9681 881.652 466.444
2647 0 71.2935 11.7963 841 97.547 880.245 469.172
2648 0 73.2552 13.8011 1011 96.2799 880.409 461.651
2649 0 76.1893 19.0315 1450 95.3393 879.044 469.668
2650 0 79.1353 13.5464 1072 101.438 878.294 466.561
2651 0 84.5495 16.1917 1369 100.08 878.163 463.964
2652 0 83.3056 14.1767 1181 104.274 878.084 462.655
2653 0 84.1714 13.0448 1098 106.071 876.387 459.948
2654 0 87.3118 18.0044 1572 99.958 875.962 460.305
2655 0 91.2519 13.5121 1233 104.001 875.715 458.427
2656 0 93.4973 16.7492 1566 98.8327 875.123 462.095
2657 0 95.4659 13.3032 1270 105.257 874.711 454.895
2658 0 99.5555 14.6752 1461 103.563 874.947 455.116
2659 0 103.472 13.0374 1349 105.575 873.311 452.671
2660 0 106.352 12.3176 1310 106.198 873.489 449.645
2661 0 109.329 14.1957 1552 105.431 872.693 444.604
2662 0 118.646 15.0617 1787 102.457 872.302 443.485
2663 1 63.647 16.7958 1069 98.5884 872.932 459.556
2664 0 63.2001 11.4399 723 99.2517 873.714 463.509
2665 0 68.3193 11.5633 790 100.646 873.944 464.766
2666 0 71.9149 18.3133 1317 93.5953 874.09 463.565
2667 0 67.438 10.3206 696 104.691 874.539 461.53
2668 0 75.3335 15.3717 1158 97.0345 875.338 460.414
2669 0 74.0822 13.8495 1026 101.148 874.536 457.617
2670 0 74.1573 13.6602 1013 100.665 876.057 459.135
2671 0 78.1491 13.9605 1091 100.235 875.256 456.572
2672 0 80.2125 16.0947 1291 99.0387 875.802 449.703
2673 0 82.4132 12.1704 1003 105.722 876.228 447.31
2674 0 85.2313 12.9647 1105 103.97 877.552 450.92
2675 0 90.3368 14.3242 1294 102.468 878.495 449.995
2676 0 87.2177 11.1904 976 108.996 878.922 445.751
2677 0 102.924 13.8063 1421 101.47 879.344 449.358
2678 0 96.2132 15.3617 1478 102.044 879.101 450.137
2679 0 94.2037 10.0102 943 111.423 880.935 444.025
2680 0 101.627 13.8152 1404 105.207 880.131 440.922
2681 0 101.627 13.7365 1396 135.471 880.135 440.824
2682 0 108.436 13.4457 1458 107.974 881.324 435.398
2683 0 114.065 18.165 2072 100.416 880.44 439.733
2684 0 118.415 13.3344 1579 103.323 879.872 434.156
2685 0 121.352 15.0637 1828 100.394 878.253 430.894
2686 1 66.2842 13.246 878 96.7187 878.399 462.128
2687 0 71.0997 21.73 1545 90.9256 877.815 465.277
2688 0 74.1939 13.8825 1030 99.9301 878.022 458.013
2689 0 78.4133 13.9007 1090 99.1688 878.307 459.758
2690 0 82.3762 12.8314 1057 100.065 876.575 456.994
2691 0 85.6151 14.5885 1249 97.7734 877.462 455.954
2692 0 86.642 14.2541 1235 99.2267 877.917 454.789
2693 0 89.5353 13.3914 1199 100.921 877.648 456.522
2694 0 94.9343 14.3152 1359 97.9691 876.976 458.848
2695 0 91.5481 10.8031 989 104.842 876.251 452.835
2696 0 91.5481 10.7266 982 141.747 875.253 452.904
2697 0 101.4 18.3136 1857 94.0824 875.065 457.433
2698 0 104.325 15.2121 1587 97.5595 876.079 450.267
2699 1 59.1929 10.7614 637 95.9623 876.523 475.874
2700 0 62.0387 10.977 681 96.3275 877.47 475.382
2701 0 65.0417 13.8834 903 95.3522 874.889 470.136
2702 0 68.2935 21.2758 1453 80.6222 873.321 465.621
2703 0 68.2322 6.33132 432 91.6991 870.463 472.139
2704 0 73.1521 22.5831 1652 79.2379 870.725 472.697
2705 0 73.1999 13.8388 1013 88.5459 870.562 460.456
2706 0 71.1417 10.8094 769 92.8414 870.094 461.596
2707 0 78.2862 15.1623 1187 85.3766 869.217 470.575
2708 0 76.341 14.9723 1143 89.0157 870.578 462.281
2709 0 80.2015 19.0395 1527 86.0524 871.265 459.257
2710 0 83.455 13.3605 1115 91.7291 871.36 456.673
2711 0 83.455 13.4444 1122 137.587 871.34 456.687
2712 0 91.6123 16.035 1469 87.3533 870.958 457.169
2713 0 87.7609 18.5504 1628 87.0608 872.755 457.773
2714 0 98.6659 9.88183 975 93.1354 874.92 456.425
2715 0 91.3241 16.3374 1492 90.1857 875.182 451.694
2716 0 97.1657 18.9367 1840 87.6793 875.128 451.77
2717 0 98.1921 14.4411 1418 95.1615 875.488 441.578
2718 0 100.362 12.4549 1250 93.5888 876.42 445.962
2719 0 102.267 12.927 1322 93.5651 876.068 444.808
2720 0 106.214 15.3275 1628 92.5663 876.206 440.158
2721 0 111.752 15.9281 1780 91.3871 876.401 443.897
2722 1 64.0784 12.8592 824 93.8265 876.88 460.761
2723 0 68.5595 19.7639 1355 82.1653 878.741 456.612
2724 0 68.5357 17.5529 1203 84.325 878.953 455.564
2725 0 66.2795 11.2855 748 92.2928 879.834 451.444
2726 0 68.2577 15.002 1024 87.9658 878.923 457.575
2727 0 69.1186 10.4169 720 94.1625 880.588 449.279
2728 0 80.3751 19.2473 1547 84.0459 880.485 455.029
2729 0 73.158 8.6115 630 96.3016 880.906 445.624
2730 0 77.3878 12.9995 1006 92.1392 880.876 449.108
2731 0 83.5485 11.6699 975 92.1456 879.856 454.943
2732 0 81.3531 11.8619 965 94.7192 880.293 447.502
2733 0 85.3507 15.5828 1330 90.0677 880.2 451.482
2734 0 87.2385 11.096 968 95.4432 880.589 445.238
2735 0 91.2315 12.4409 1135 93.2203 880.272 445.987
2736 0 94.048 15.4602 1454 89.4464 879.956 450.919
2737 0 98.45 16.5973 1634 90.2515 879.831 440.745
2738 0 99.4114 14.5657 1448 92.8073 879.448 438.64
2739 0 103.218 10.938 1129 95.9601 879.084 438.076
2740 0 103.218 11.1124 1147 157.425 878.061 438.287
2741 0 112.313 12.6344 1419 94.6427 877.249 439.266
2742 0 112.543 15.1231 1702 93.0423 875.91 440.295
2743 0 126.163 20.5528 2593 87.1535 875.518 436.1
2744 1 66.1398 8.96586 593 94.3373 875.278 458.207
2745 0 74.6645 12.2146 912 92.6491 875.482 467.618
2746 0 74.9632 20.6768 1550 85.1613 875.476 467.476
2747 0 81.1784 27.4457 2228 80.7581 875.258 465.356
2748 0 75.4208 13.723 1035 93.3671 874.422 459.187
2749 0 84.9927 18.0368 1533 86.7743 875.166 465.596
2750 0 80.1889 14.5033 1163 91.9828 873.651 459.801
2751 0 83.4487 15.0991 1260 92.9437 874.479 454.999
2752 0 87.5116 16.6492 1457 90.2368 874.572 458.121
2753 0 87.3823 12.4739 1090 94.9064 874.836 455.733
2754 0 93.2816 15.2227 1420 98.9662 876.037 455.191
2755 0 94.3961 13.3374 1259 103.137 875.064 443.96
2756 0 94.4533 12.4506 1176 104.991 875.659 446.516
2757 0 100.309 20.5764 2064 96.1453 875.207 443.383
2758 0 102.174 12.6158 1289 106.35 875.376 443.582
2759 0 107.525 16.1915 1741 101.262 876.072 444.841
2760 0 109.339 16.4626 1800 98.0556 876.761 442.318
2761 0 111.459 17.1094 1907 98.6314 878.239 434.763
2762 0 116.711 15.894 1855 99.9046 877.912 437.38
2763 1 75.6708 12.5808 952 98.7069 879.275 461.084
2764 0 69.706 12.7392 888 102.234 879.114 456.101
2765 0 71.2705 16.6689 1188 98.7904 879.458 459.414
2766 0 73.2797 14.1103 1034 102.712 878.932 459.799
2767 0 73.282 12.3768 907 106.965 880.55 455.72
2768 0 78.2397 15.5036 1213 102.619 879.852 455.902
2769 0 81.2551 17.0082 1382 100.348 880.062 459.957
2770 0 81.3443 15.1947 1236 103.765 880.646 457.038
2771 0 85.2228 12.7548 1087 108.976 880.202 453.405
2772 0 92.369 21.6739 2002 93.6958 879.531 465.385
2773 0 90.2851 13.4131 1211 107.72 880.137 455.771
2774 0 94.364 14.7514 1392 106.787 880.862 451.981
2775 0 92.4711 12.0578 1115 110.568 880.804 452.684
2776 0 100.354 15.8439 1590 104.677 881.404 454.491
2777 0 102.6 14.6296 1501 107.127 881.544 446.404
2778 0 108.954 15.4652 1685 105.392 882.094 449.967
2779 0 111.562 17.8287 1989 101.158 881.247 452.844
2780 1 209.505 24.1474 5059 98.6794 880.418 388.742
2781 1 113.177 13.2005 1494 105.284 880.837 446.465
2782 1 63.2915 9.44835 598 104.659 881.289 466.632
2783 0 67.2218 12.9869 873 100.427 880.241 470.633
2784 0 69.1159 17.9843 1243 94.2011 879.146 475.764
2785 0 73.2961 16.4265 1204 96.3355 879.282 465.743
2786 0 73.1584 12.6848 928 102.337 878.878 463.754
2787 0 77.2599 13.0986 1012 100.87 878.291 463.399
2788 0 77.2599 13.1892 1019 135.714 878.331 463.388
2789 0 80.5007 12.3353 993 103.501 875.531 457.987
2790 0 85.1907 17.3024 1474 97.1649 876.575 455.002
2791 0 88.2653 16.2578 1435 97.8153 875.463 455.674
2792 0 89.3758 16.9173 1512 97.7798 875.497 450.645
2793 0 93.5551 13.4894 1262 100.705 874.793 449.965
2794 0 92.2265 13.1307 1211 102.908 874.265 442.731
2795 0 97.4658 15.3079 1492 98.0985 874.204 448.708
2796 0 98.3317 13.6782 1345 101.578 874.59 447.196
2797 0 104.294 14.0372 1464 100.498 875.424 441.896
2798 0 105.348 15.9282 1678 101.483 875.604 436.958
2799 0 110.236 14.5869 1608 101.287 876.361 436.371
2800 0 115.271 16.292 1878 98.951 877.037 430.706
2801 0 118.339 13.174 1559 102.142 876.003 429.132
2802 0 126.632 18.9999 2406 95.478 877.646 425.431
2803 1 66.3605 12.628 838 99.0084 877.21 450.729
2804 0 70.2983 15.4911 1089 97.3756 878.285 449.549
2805 0 70.3281 11.8018 830 103.345 878.069 450.958
2806 0 74.509 13.6762 1019 101.018 879.313 449.57
2807 0 78.63 17.1054 1345 97.8959 880.548 452.799
2808 0 78.63 17.1309 1347 119.116 880.563 452.657
2809 0 82.2685 12.6294 1039 106.702 880.067 451.426
2810 0 84.4804 13.7428 1161 106.81 880.753 447.797
2811 0 90.5139 14.031 1270 105.267 881.169 449.911
2812 0 90.3755 13.8865 1255 106.935 881.676 444.272
2813 0 92.5806 12.9077 1195 108.878 881.634 445.268
2814 0 97.6031 15.1942 1483 104.595 881.634 445.666
2815 0 97.9007 15.9958 1566 104.301 882.442 444.356
2816 0 100.725 13.8496 1395 106.647 882.206 443.417
2817 0 102.684 14.0821 1446 106.532 882.943 437.813
2818 0 106.846 15.8359 1692 104.142 882.262 436.547
2819 0 112.658 16.7143 1883 103.571 882.413 434.874
2820 0 110.27 14.2196 1568 106.756 880.669 435.906
2821 0 113.161 10.6398 1204 108.904 880.945 443.477
2822 0 118.688 14.5423 1726 108.834 879.999 427.184
2823 0 118.337 14.501 1716 109.055 880.008 427.751
2824 0 130.507 14.6812 1916 107.113 879.461 429.406
2825 1 73.2234 11.3079 828 102.481 879.221 461.93
2826 0 74.5555 10.7705 803 107.391 879.975 450.553
2827 0 77.273 13.6141 1052 105.691 877.669 448.745
2828 0 78.2618 11.4743 898 110.937 876.823 443.519
2829 0 82.2374 13.3637 1099 106.611 877.546 443.453
2830 0 85.1264 12.6753 1079 107.738 876.15 439.275
2831 0 89.1437 14.9197 1330 104.732 875.989 439.332
2832 0 89.1437 14.9085 1329 138.834 875.007 439.384
2833 0 95.2211 16.6035 1581 102.069 875.125 435.409
2834 0 99.5375 14.5875 1452 104.393 875.416 436.211
2835 0 108.536 16.7041 1813 100.88 874.964 436.524
2836 0 103.409 13.3547 1381 108.949 874.923 431.345
2837 0 107.21 17.0226 1825 104.046 875.027 430.376
2838 0 105.419 14.2953 1507 109.245 875.2 422.129
2839 0 112.405 15.1417 1702 106.89 875.518 422.329
2840 0 117.275 14.8114 1737 106.261 874.872 428.871
2841 0 122.265 13.6916 1674 107.398 876.545 421.362
2842 0 123.601 14.1666 1751 105.717 876.358 414.577
2843 0 126.848 11.6202 1474 107.72 876.326 415.816
2844 0 126.848 11.7464 1490 146.601 876.336 415.621
2845 0 129.613 11.5575 1498 106.413 878.342 416.244
2846 0 122.442 8.32233 1019 109.782 879.103 415.104
2847 1 80.2937 16.2902 1308 96.0382 879.058 440.634
2848 0 87.2247 18.5498 1618 94.7206 880.855 436.22
2849 0 91.6264 13.7187 1257 100.482 880.477 428.45
2850 0 95.4455 15.5586 1485 97.9933 881.769 431.432
2851 0 95.2571 14.2772 1360 101.265 881.979 426.451
2852 0 100.356 12.4855 1253 102.864 881.723 431.615
2853 0 103.503 16.1831 1675 99.246 882.119 426.782
2854 0 103.487 12.1271 1255 106.767 883.281 426.318
2855 0 109.256 12.759 1394 104.506 883.101 432.848
2856 0 110.408 14.1203 1559 105.196 884.227 421.616
2857 0 116.286 15.5651 1810 101.652 883.076 427.72
2858 0 117.282 13.7447 1612 105.246 883.903 427.144
2859 0 119.318 12.1943 1455 107.236 883.513 431.093
2860 0 125.324 16.198 2030 100.776 883.897 436.495
2861 0 129.334 12.6881 1641 104.97 883.804 429.441
2862 0 134.342 15.7286 2113 101.225 883.529 437.218
2863 0 143.96 16.7199 2407 99.4566 882.69 433.434
2864 0 147.326 16.1682 2382 100.291 882.951 424.952
2865 0 150.331 14.8539 2233 102.624 882.417 416.304
2866 0 156.402 16.4128 2567 100.881 881.971 404.882
2867 1 90.501 13.7899 1248 97.9944 882.215 449.899
2868 0 91.5021 13.0707 1196 99.1931 881.323 445.775
2869 0 93.4332 13.325 1245 100.201 880.051 447.1
2870 0 94.5227 14.5891 1379 98.6352 879.006 459.806
2871 0 98.3289 16.2414 1597 98.3863 879.785 451.836
2872 0 100.408 15.0486 1511 99.9537 879.041 452.275
2873 0 105.52 15.561 1642 99.74 879.379 447.671
2874 0 109.458 17.4862 1914 96.9838 877.222 444.223
2875 0 112.559 14.0904 1586 101.453 876.728 439.241
2876 0 117.69 17.648 2077 96.7675 876.823 446.653
2877 0 119.001 10.8235 1288 106.72 877.164 436.876
2878 0 124.777 19.074 2380 98.9227 877.3 436.195
2879 0 128.657 14.1228 1817 102.155 876.538 436.012
2880 0 134.492 15.9117 2140 100.254 876.18 431.744
2881 0 138.396 19.8632 2749 97.7592 877.498 425.584
2882 1 74.2766 14.5537 1081 96.7697 875.296 454.51
2883 0 78.3458 15.5975 1222 96.7766 876.914 450.964
2884 0 79.4196 16.1043 1279 93.663 875.84 456.497
2885 0 82.3305 14.9155 1228 98.1751 877.859 444.954
2886 0 78.4444 10.364 813 106.721 877.51 437.262
2887 0 86.517 12.2866 1063 103.794 878.286 444.576
2888 0 88.3006 13.975 1234 102.433 878.882 445.04
2889 0 88.3449 13.3341 1178 104.716 878.186 437.398
2890 0 93.5672 13.0708 1223 105.449 878.895 442.767
2891 0 98.4379 14.3034 1408 103.482 879.694 441.185
2892 0 100.371 15.0342 1509 103.545 880.125 439.235
2893 0 102.371 11.595 1187 107.666 880.802 434.587
2894 0 108.779 14.5249 1580 103.631 881.051 434.256
2895 0 110.134 18.8407 2075 99.4463 881.965 432.773
2896 0 114.414 13.958 1597 105.596 882.258 428.193
2897 0 118.767 15.8377 1881 101.855 882.692 436.676
2898 1 54.3494 9.07094 493 101.882 882.828 465.828
2899 0 53.3814 10.9776 586 98.8311 882.993 466.592
2900 0 57.3177 11.8288 678 97.733 882.994 467.062
2901 0 59.2673 14.8143 878 96.8781 882.614 461.421
2902 0 59.5424 12.5289 746 98.4839 882.543 459.906
2903 0 63.2609 14.6694 928 98.2597 882.142 460.672
2904 0 62.243 9.35045 582 105.481 882.18 463.338
2905 0 65.417 14.4917 948 99.7131 882.443 459.982
2906 0 68.4011 19.064 1304 94.4425 881.35 462.571
2907 0 69.3119 13.7639 954 101.962 883.084 461.585
2908 0 72.3509 12.315 891 103.107 884.193 465.288
2909 0 73.777 14.8691 1097 99.0447 883.376 468.07
2910 0 74.3057 16.2033 1204 99.3289 884.022 468.002
2911 0 76.4478 18.8495 1441 98.3234 882.951 460.115
2912 0 77.5794 12.2197 948 105.345 882.739 466.533
2913 0 80.8735 13.7251 1110 105.921 880.884 458.047
2914 0 82.3997 14.8666 1225 103.238 880.64 464.144
2915 0 84.5789 13.9988 1184 105.285 879.036 457.37
2916 0 84.5282 16.9056 1429 100.955 879.912 454.686
2917 0 84.4428 12.0081 1014 109.257 879.619 449.62
2918 0 91.6941 14.1885 1301 105.866 878.963 446.351
2919 0 98.859 18.3393 1813 99.342 877.767 449.531
2920 0 98.4091 17.2342 1696 96.8962 877.365 451.885
2921 0 98.3612 10.1158 995 107.123 876.567 447.606
2922 0 105.556 10.7621 1136 107.54 877.326 435.124
2923 0 107.288 11.9958 1287 105.909 876.691 442.077
2924 0 114.518 15.4823 1773 101.087 876.22 438.751
2925 0 113.612 14.1798 1611 103.879 876.8 433.944
2926 0 117.939 16.5085 1947 100.88 877.179 434.395
2927 0 116.618 13.6514 1592 105.42 877.361 429.477
2928 0 121.655 13.604 1655 105.927 877.237 418.45
2929 0 128.536 15.0308 1932 104.021 878.017 423.573
2930 0 128.592 14.1145 1815 106.747 878.729 416.248
2931 0 134.04 13.9511 1870 106.011 877.856 420.476
2932 0 139.972 14.903 2086 106.086 877.592 413.715
2933 0 141.856 17.3274 2458 104.431 878.746 411.846
2934 0 141.856 17.3627 2463 131.071 879.72 411.997
2935 1 81.3182 17.2286 1401 97.9315 880.49 441.582
2936 0 87.3119 13.5491 1183 99.4776 881.646 447.21
2937 0 90.1376 13.2464 1194 101.477 881.511 443.252
2938 0 90.2778 12.2511 1106 102.947 883.67 444.542
2939 0 94.2445 9.76184 920 105.716 883.473 444.691
2940 0 98.5184 13.3376 1314 102.104 884.319 444.775
2941 0 99.3892 10.3734 1031 107.168 884.026 441.82
2942 0 106.418 14.1893 1510 102.364 884.155 441.227
2943 0 107.623 12.1629 1309 105.611 885.163 435.5
2944 0 107.164 11.2537 1206 107.097 885.43 435.255
2945 0 114.568 13.6688 1566 103.905 884.634 429.938
2946 0 115.692 12.127 1403 104.858 884.364 437.555
2947 0 121.456 15.0836 1832 101.771 883.201 433.842
2948 0 125.835 21.7427 2736 94.5808 883.879 440.338
2949 0 125.861 11.7113 1474 107.968 884.163 431.474
2950 0 128.531 11.6547 1498 107.678 882.959 427.13
2951 0 139.803 17.775 2485 99.1348 882.469 431.861
2952 0 145.258 23.9436 3478 92.9669 882.597 438.081
2953 0 146.53 13.9767 2048 106.299 883.032 424.503
2954 0 153.67 13.3533 2052 106.729 882.461 422.506
2955 1 89.289 14.5707 1301 102.69 882.26 444.364
2956 0 93.2902 17.2258 1607 99.9508 879.923 445.33
2957 0 93.3269 15.7618 1471 101.468 880.566 447.028
2958 0 98.2748 14.7037 1445 102.057 878.858 444.273
2959 0 101.627 15.1337 1538 98.5468 878.907 455.913
2960 0 101.339 14.6735 1487 102.34 878.9 447.346
2961 0 109.046 18.3134 1997 96.8948 878.025 445.731
2962 0 108.607 12.0526 1309 104.735 877.222 442.072
2963 0 110.47 15.0538 1663 102.984 878.12 433.623
2964 0 119.741 13.8632 1660 102.719 876.138 435.132
2965 0 112.254 15.661 1758 103.548 877.398 428.662
2966 0 119.376 15.7653 1882 102.752 877.176 424.113
2967 0 123.522 17.8834 2209 99.2775 877.484 424.068
2968 0 126.575 14.2287 1801 105.806 878.623 418.811
2969 0 130.718 15.8127 2067 103.188 876.754 416.644
2970 0 137.764 14.4667 1993 108.42 877.065 416.962
2971 0 140.195 12.5111 1754 108.649 876.442 413.738
2972 0 147.936 13.9858 2069 107.232 878.923 410.441
2973 0 153.047 16.08 2461 105.642 879.178 413.256
2974 1 88.6975 11.962 1061 107.033 878.445 443.839
2975 0 90.4884 11.8468 1072 106.189 879.273 439.959
2976 0 94.3733 9.57898 904 103.429 878.69 445.171
2977 0 97.3614 18.3646 1788 94.8814 880.927 446.32
2978 0 99.2088 13.9302 1382 100.394 880.673 439.599
2979 0 104.284 15.2468 1590 98.2862 881.531 441.511
2980 0 105.231 13.3705 1407 101.714 881.699 434.84
2981 0 108.35 21.0153 2277 92.9262 881.925 441.999
2982 0 111.292 12.8581 1431 102.427 883.072 428.312
2983 0 114.363 13.2736 1518 100.672 882.418 438.755
2984 0 118.388 20.1287 2383 93.4201 883.694 443.249
2985 0 120.553 16.9138 2039 97.7916 883.248 435.902
2986 0 122.534 11.9151 1460 104.618 884.045 431.151
2987 1 74.1885 10.0555 746 103.944 883.992 461.859
2988 0 74.1565 8.68433 644 107.05 885.677 462.803
2989 0 78.168 9.92734 776 105.719 885.043 460.631
2990 0 78.2897 13.5011 1057 98.4995 886.331 460.804
2991 0 83.3884 11.1766 932 105.12 884.943 456.897
2992 0 85.4099 12.5864 1075 103.511 885.547 456.569
2993 0 92.5728 18.0615 1672 95.7787 885.169 459.635
2994 0 91.3262 21.2425 1940 94.4273 884.429 451.07
2995 0 94.3456 15.8036 1491 99.835 884.171 454.769
2996 0 95.328 15.0533 1435 102.023 883.399 453.144
2997 0 98.2529 14.7171 1446 101.944 884.151 454.573
2998 0 101.469 13.3242 1352 104.507 883.911 451.977
2999 0 107.543 13.4272 1444 104.252 883.091 453.242
3000 0 108.304 13.3051 1441 105.543 882.032 448.175
3001 0 112.702 16.7256 1885 100.46 880.915 452.095
3002 0 115.347 14.2094 1639 104.428 880.275 446.009
3003 0 121.51 16.0069 1945 101.826 879.375 447.191
3004 0 118.553 12.3321 1462 108.531 879.984 436.298
3005 0 124.445 13.4999 1680 106.167 878.306 443.901
3006 0 124.457 11.5542 1438 111.043 877.646 431.714
3007 0 134.508 16.0883 2164 103.646 878.215 432.096
3008 0 134.396 11.0569 1486 110.452 877.46 432.602
3009 0 141.675 19.7989 2805 99.8763 877.459 431.399
3010 0 144.64 15.1687 2194 106.276 875.659 424.572
3011 0 147.641 12.4085 1832 110.307 876.028 420.241
3012 0 153.629 14.4048 2213 106.992 875.521 419.379
3013 0 160.532 11.8045 1895 108.766 875.615 422.447
3014 1 92.2913 14.4542 1334 101.686 875.421 432.434
3015 0 94.2155 17.5449 1653 98.4852 875.8 433.943
3016 1 175.785 11.2922 1985 108.135 875.344 408.605
3017 0 178.555 11.425 2040 109.092 876.109 402.489
3018 1 106.346 17.744 1887 98.1887 876.111 433.535
3019 0 105.421 19.4079 2046 97.0176 877.307 438.814
3020 0 112.649 20.8079 2344 95.4923 877.655 438.874
3021 0 110.234 12.5551 1384 106.084 878.454 435.346
3022 0 117.511 16.2793 1913 100.757 879.537 436.53
3023 0 119.222 15.9367 1900 102.389 881.272 432.967
3024 0 120.402 12.8902 1552 105.167 881.14 436.253
3025 0 126.331 16.5835 2095 102.311 882.005 423.802
3026 0 133.401 13.2307 1765 104.191 883.658 434.834
3027 0 136.613 17.297 2363 99.5358 884.322 431.594
3028 1 197.55 15.3176 3026 104.355 883.411 400.161
3029 1 145.549 14.6411 2131 106.586 884.214 418.962
3030 0 162.426 19.2765 3131 98.5915 883.218 427.148
3031 0 159.486 20.5911 3284 96.9811 884.358 432.306
3032 0 157.429 14.9211 2349 107.033 883.862 415.671
3033 0 167.647 13.9878 2345 106.917 883.454 419.955
3034 0 169.349 12.9555 2194 107.719 883.819 420.863
3035 0 175.67 14.9143 2620 106.348 882.8 407.507
3036 0 182.582 17.258 3151 101.729 883.421 415.396
3037 0 188.395 18.1428 3418 101.828 883.189 410.745
3038 0 190.613 15.3662 2929 107.074 882.794 400.548
3039 0 198.617 22.843 4537 98.1283 881.738 407.684
3040 0 200.486 12.6891 2544 107.316 881.495 407.35
3041 0 211.009 17.2789 3646 99.9043 880.827 407.68
3042 0 215.7 15.0302 3242 103.931 880.328 400.733
3043 0 222.722 13.2677 2955 108.009 879.738 386.623
3044 1 172.493 14.731 2541 104.487 878.44 419.849
3045 0 181.488 25.098 4555 92.2832 878.055 430.814
3046 0 184.49 15.2095 2806 105.867 876.145 411.187
3047 0 190.779 16.5847 3164 104.789 876.993 405.935
3048 0 195.794 16.2466 3181 106.377 877.037 406.685
3049 0 200.527 13.3398 2675 109.14 875.474 394.001
3050 0 201.762 13.5754 2739 108.001 875.878 397.463
3051 1 65.1814 7.53282 491 96.7475 874.491 463.33
3052 0 62.1896 5.80483 361 98.6122 875.1 461.792
3053 0 61.5429 8.70937 536 93.8489 874.19 464.321
3054 0 66.3349 12.5424 832 90.6731 874.472 461.833
3055 0 64.2464 10.0706 647 94.5301 876.213 466.969
3056 0 69.1676 11.3348 784 92.4617 875.601 467.857
3057 0 73.1304 17.5303 1282 86.8081 877.233 466.8
3058 0 73.0933 10.1788 744 95.9462 877.106 462.11
3059 0 73.2456 12.9564 949 93.078 877.431 456.871
3060 0 75.1522 12.335 927 93.9407 879.397 459.208
3061 0 79.1531 8.65412 685 97.9051 879.615 451.739
3062 0 82.1918 10.0983 830 97.2867 879.928 453.67
3063 0 86.3 16.3615 1412 90.165 880.298 453.829
3064 0 85.1338 12.1221 1032 99.0155 881.096 449.165
3065 0 88.8019 13.502 1199 99.7882 879.882 450.632
3066 0 91.3099 11.2584 1028 102.682 879.967 448.375
3067 0 97.9456 13.2012 1293 97.4022 881.834 455.663
3068 0 98.4798 14.3989 1418 97.5952 881.536 445.148
3069 0 102.338 13.9147 1424 98.3448 882.264 444.197
3070 0 103.557 13.1039 1357 102.049 882.645 442.478
3071 0 107.791 16.1701 1743 98.292 882.878 437.709
3072 0 114.258 11.3252 1294 103.321 882.367 439.832
3073 0 115.854 14.1299 1637 101.8 882.101 436.17
3074 0 111.656 15.1358 1690 101.056 883.102 429.163
3075 0 126.521 23.3005 2948 88.1347 881.517 432.063
3076 0 127.02 24.9332 3167 87.3628 881.281 430.345
3077 0 130.139 29.3301 3817 84.6233 881.702 430.665
3078 0 130.139 29.576 3849 112.915 881.685 430.476
3079 0 137.035 20.4182 2798 91.5243 881.399 419.516
3080 0 137.415 22.4648 3087 90.1153 881.267 416.542
3081 1 87.4423 15.1643 1326 89.8115 881.749 464.516
3082 0 84.1378 12.8836 1084 97.9926 881.407 452.324
3083 0 92.1222 15.6206 1439 92.5511 882.277 457.563
3084 0 88.4848 15.6976 1389 95.802 882.364 449.131
3085 0 89.2454 13.6702 1220 97.5885 880.758 449.997
3086 0 89.2454 13.6141 1215 136.682 879.752 450.05
3087 0 100.6 15.6063 1570 95.2083 881.417 449.569
3088 0 99.6775 10.9754 1094 103.261 880.123 439.899
3089 0 102.556 15.2892 1568 98.1148 879.005 442.224
3090 0 109.573 15.8342 1735 95.9942 878.217 444.688
3091 1 65.289 10.7522 702 99.953 878.038 458.887
3092 0 67.1672 10.3026 692 101.478 877.818 454.9
3093 0 66.4365 10.1902 677 100.628 874.439 456.055
3094 0 70.2754 13.6463 959 94.9812 875.645 455.645
3095 0 71.3901 11.6823 834 95.4005 874.898 458.458
3096 0 72.2597 9.96407 720 96.175 874.068 458.594
3097 0 73.7057 12.6178 930 95.5258 875.988 449.623
3098 0 75.7455 13.4925 1022 95.8728 874.474 454.952
3099 0 79.7406 16.1022 1284 91.7975 875.276 452.672
3100 0 84.7347 16.9234 1434 90.7308 876.498 448.437
3101 0 86.4156 13.6087 1176 93.7304 876.036 448.889
3102 0 82.344 13.4072 1104 96.0444 875.166 442.982
3103 0 89.0057 19.774 1760 88.1176 875.509 449.948
3104 0 88.5161 26.5714 2352 83.5442 875.593 452.745
3105 0 94.7364 14.229 1348 94.1766 876.955 444.588
3106 0 98.5331 12.7064 1252 96.1038 878.494 443.974
3107 0 104.956 17.0167 1786 90.86 877.904 447.442
3108 0 103.604 13.5709 1406 95.9651 879.132 434.695
3109 0 107.361 31.6222 3395 81.1228 878.135 452.529
3110 0 109.293 15.2252 1664 93.4754 878.852 440.894
3111 0 112.387 20.5807 2313 87.7432 878.73 451.669
3112 1 66.4885 14.98 996 86.9608 879.796 469.641
3113 0 64.3688 14.4169 928 93.5323 881.193 464.471
3114 0 67.3745 16.7274 1127 90.669 879.656 467.476
3115 0 67.5568 14.4323 975 94.4482 878.84 462.939
3116 0 72.9427 16.04 1170 91.0897 880.467 469.571
3117 0 72.4533 15.9827 1158 93.2297 879.23 458.959
3118 0 75.6498 15.77 1193 92.4652 880.662 467.64
3119 0 78.2985 12.7461 998 95.6042 880.457 465.178
3120 0 76.5267 11.1595 854 100.05 879.708 462.556
3121 0 85.6831 21.883 1875 87.7024 879.993 469.095
3122 0 85.6831 21.7896 1867 117.735 880.039 468.861
3123 0 88.5775 16.0763 1424 96.6475 879.833 464.033
3124 0 97.4196 21.9258 2136 90.3553 879.199 464.802
3125 0 93.558 11.3513 1062 103.195 879.839 460.55
3126 0 97.642 17.216 1681 96.8013 879.097 460.529
3127 0 101.642 14.4429 1468 100.72 878.851 456.744
3128 0 103.391 25.5729 2644 90.2303 878.233 456.311
3129 0 109.484 15.7466 1724 99.3063 876.471 456.401
3130 0 113.532 18.0389 2048 97.1914 875.548 450.355
3131 0 112.386 19.6822 2212 95.6343 875.969 452.421
3132 0 116.204 14.4745 1682 98.3609 875.237 451.975
3133 0 120.528 14.4199 1738 97.733 875.735 446.93
3134 0 126.621 12.7467 1614 98.8259 874.247 446.062
3135 1 73.2055 16.0507 1175 94.1804 875.793 467.743
3136 0 77.5118 14.0882 1092 96.2491 874.615 463.561
3137 0 79.4577 14.901 1184 95.3421 875.205 464.404
3138 0 80.3976 13.4706 1083 97.4386 875.124 462.792
3139 0 84.3328 13.4942 1138 96.5422 875.233 463.833
3140 0 88.4161 13.165 1164 101.295 876.079 456.449
3141 0 91.4539 15.3848 1407 96.2018 874.889 461.252
3142 0 94.3435 11.9563 1128 101.722 875.999 452.681
3143 0 95.5491 11.4915 1098 101.444 875.226 454.498
3144 0 97.4785 15.1623 1478 94.8823 875.773 457.202
3145 0 96.4782 12.9978 1254 99.9896 875.114 440.723
3146 0 106.501 11.69 1245 98.661 876.481 448.883
3147 0 106.731 12.508 1335 99.3296 875.698 446.029
3148 0 115.216 19.1466 2206 90.5811 875.563 437.357
3149 0 110.917 11.5672 1283 98.6875 875.591 437.599
3150 0 115.931 13.3096 1543 96.3227 877.194 435.643
3151 0 118.692 12.4692 1480 97.2784 876.374 435.061
3152 0 122.609 15.6677 1921 94.2467 877.742 433.746
3153 0 131.158 15.0124 1969 93.9005 878.689 438.544
3154 0 128.689 10.5603 1359 99.1001 878.448 434.281
3155 1 77.5908 16.3937 1272 90.1101 878.601 459.872
3156 0 77.3637 10.3408 800 95.7462 880.642 458.644
3157 0 85.3076 8.73311 745 96.6121 880.217 456.319
3158 0 90.6334 20.8201 1887 85.7456 881.855 461.625
3159 0 88.193 14.6157 1289 93.2335 881.816 455.602
3160 0 89.2839 19.1076 1706 89.6125 881.609 460.168
3161 0 92.1973 14.7727 1362 94.6006 881.632 453.985
3162 0 94.4162 12.8474 1213 95.2597 881.575 458.251
3163 0 97.3223 17.9918 1751 92.3124 880.499 454.09
3164 0 100.371 13.1911 1324 97.2644 881.54 450.924
3165 0 104.389 13.9287 1454 98.3769 881.045 451.655
3166 0 111.651 14.9663 1671 95.4596 880.94 455.645
3167 0 112.797 13.6262 1537 98.7495 881.286 446.424
3168 0 120.842 19.331 2336 92.0098 881.393 451.691
3169 0 118.502 13.7298 1627 99.032 880.337 446.101
3170 0 118.502 13.8817 1645 131.588 878.329 446.109
3171 0 125.349 16.9447 2124 96.1347 879.309 443.786
3172 0 130.299 17.6363 2298 94.2672 876.846 438.281
3173 1 75.2726 17.7887 1339 89.4115 878.266 470.294
3174 0 76.3946 14.3466 1096 90.1624 874.903 473.071
3175 0 85.4126 24.9846 2134 82.2905 874.834 473.883
3176 0 82.9019 15.4641 1282 91.9969 873.063 470.028
3177 0 82.416 18.2489 1504 89.8797 874.148 469.518
3178 0 89.8843 22.5735 2029 87.8645 873.337 460.479
3179 0 89.3728 17.276 1544 92.2247 874.177 463.264
3180 0 90.3098 13.5201 1221 95.3522 873.791 463.053
3181 0 95.5559 23.3476 2231 89.1188 874.811 457.535
3182 0 100.403 15.2586 1532 95.7846 875.163 455.796
3183 0 103.339 17.9119 1851 93.1977 874.281 452.277
3184 0 101.197 20.4848 2073 90.2045 874.314 459.529
3185 0 109.102 15.371 1677 95.8998 874.793 447.479
3186 0 112.297 24.6222 2765 86.0875 875.765 446.988
3187 0 113.445 22.7071 2576 89.2733 875.501 438.661
3188 0 115.744 12.6572 1465 99.7556 875.351 431.242
3189 0 114.494 15.6951 1797 98.8737 876.316 423.131
3190 0 127.611 15.8764 2026 96.9304 877.23 438.301
3191 1 74.1814 14.2219 1055 98.6199 877.731 457.262
3192 0 77.3549 14.259 1103 96.8332 878.398 461.415
3193 0 80.5039 15.5024 1248 97.3982 877.831 452.019
3194 0 90.1841 21.445 1934 88.318 878.461 462.99
3195 0 86.2851 11.52 994 98.3239 877.258 463.229
3196 0 88.1596 14.6779 1294 99.6723 878.533 451.206
3197 0 91.4854 13.6525 1249 100.356 878.653 456.926
3198 0 93.2301 13.8367 1290 102.148 879.078 451.177
3199 0 98.4091 17.0309 1676 98.0889 880.399 448.637
3200 0 100.381 13.9169 1397 99.2405 879.713 455.665
3201 0 103.309 15.9619 1649 99.148 881.022 446.867
3202 0 107.463 13.3534 1435 102.3 879.828 449.347
3203 0 114.568 18.0854 2072 96.4797 880.118 448.526
3204 0 114.479 13.8017 1580 103.465 881.22 446.821
3205 0 119.347 13.5152 1613 103.351 880.15 447.007
3206 0 119.373 16.1175 1924 99.8914 881.419 449.611
3207 0 124.472 18.245 2271 98.3126 880.077 434.41
3208 0 129.546 18.3333 2375 97.3259 880.025 442.41
3209 1 75.0984 13.236 994 100.531 877.996 464.041
3210 0 76.4445 17.7514 1357 92.9624 878.206 467.097
3211 0 80.155 18.065 1448 92.5221 877.93 464.186
3212 0 82.6769 13.8007 1141 96.3944 878.054 468.288
3213 0 82.6121 15.5183 1282 94.8596 877.208 466.313
3214 0 89.447 20.1125 1799 90.3357 877.494 464.14
3215 0 93.4389 8.8614 828 101.295 875.874 470.579
3216 0 92.3148 16.4221 1516 94.8529 876.407 463.625
3217 0 98.2945 22.5547 2217 89.5589 874.725 463.799
3218 0 99.5847 16.1772 1611 97.7598 875.431 455.239
3219 0 101.465 22.3821 2271 90.1251 874.736 468.767
3220 0 106.304 20.4696 2176 94.9136 874.527 455.718
3221 0 113.545 22.5989 2566 93.4466 875.42 453.081
3222 0 110.333 15.417 1701 101.833 875.402 451.578
3223 0 107.541 13.1484 1414 105.334 874.832 451.039
3224 0 117.632 14.5453 1711 101.635 873.086 451.448
3225 0 119.325 18.6633 2227 98.9906 874.344 440.87
3226 0 119.325 18.6465 2225 131.93 875.374 440.764
3227 0 122.361 13.8933 1700 103.969 875.238 438.012
3228 1 136.303 12.7803 1742 101.034 874.963 446.886
3229 0 135.596 15.0816 2045 101.347 874.992 437.724
3230 0 133.655 13.49 1803 103.923 875.03 424.423
3231 1 73.4056 11.1981 822 102.981 876.417 455.465
3232 0 76.4824 15.8729 1214 99.1359 875.661 449.186
3233 0 78.2267 10.2267 800 103.286 876.484 456.099
3234 0 80.2363 11.8151 948 103.068 878.014 453.182
3235 0 82.2517 14.2611 1173 100.827 878.437 452.525
3236 0 85.2035 16.0439 1367 99.5508 878.503 449.012
3237 0 90.2894 13.2352 1195 102.268 878.562 446.998
3238 0 89.1505 10.9702 978 106.201 877.937 441.474
3239 0 96.2113 16.339 1572 99.1851 879.431 445.172
3240 0 95.2012 13.7813 1312 107.082 880.287 440.351
3241 0 104.278 11.8913 1240 109.179 881.033 446.927
3242 0 101.483 11.5191 1169 111.568 880.885 437.235
3243 0 105.331 14.5067 1528 107.882 881.07 439.11
3244 0 107.263 15.6437 1678 106.651 881.866 441.338
3245 0 111.15 13.2254 1470 109.524 881.565 441.717
3246 0 115.203 14.9649 1724 107.405 882.185 438.101
3247 0 120.327 16.4302 1977 104.135 881.487 440.09
3248 0 122.261 12.6696 1549 110.192 882.194 434.486
3249 0 129.226 18.8584 2437 101.563 882.605 439.502
3250 0 127.3 12.7651 1625 111.733 882.518 434.57
3251 1 76.2071 11.2982 861 108.437 882.955 463.412
3252 0 79.1608 15.7527 1247 102.609 881.241 463.772
3253 0 84.1616 21.1023 1776 96.3846 882.135 465.218
3254 0 85.1137 13.0766 1113 110.349 882.013 458.671
3255 0 89.1588 16.0052 1427 104.128 881.661 464.16
3256 0 91.2437 16.856 1538 104.729 881.484 458.38
3257 0 90.3167 16.0325 1448 106.956 879.81 455.958
3258 0 95.2638 18.8424 1795 102.858 880.228 450.781
3259 0 97.2436 18.1297 1763 103.542 880.019 450.098
3260 0 99.2532 16.2111 1609 106.485 878.886 450.206
3261 0 103.192 17.7145 1828 103.722 879.711 449.985
3262 0 105.188 13.8609 1458 108.864 878.156 442.785
3263 0 110.374 14.7407 1627 107.272 877.604 443.086
3264 0 114.532 13.1492 1506 109.019 876.703 440.94
3265 0 119.134 16.964 2021 103.589 876.416 437.424
3266 0 121.308 14.6733 1780 106.599 876.099 439.116
3267 1 84.2423 9.92376 836 106.764 877.237 462.12
3268 0 80.1924 9.57696 768 110.301 876.104 455.129
3269 0 80.1132 11.983 960 105.121 877.501 456.709
3270 0 77.1354 11.0455 852 106.097 877.171 453.613
3271 0 85.6238 14.5287 1244 100.558 875.381 453.745
3272 0 86.368 25.4029 2194 89.9211 875.926 449.935
3273 0 89.3047 13.8627 1238 100.476 875.766 448.464
3274 0 89.3259 14.0273 1253 102.162 876.397 442.825
3275 0 93.4708 14.5072 1356 102.094 877.465 438.348
3276 0 98.5202 13.3983 1320 101.695 877.862 442.664
3277 0 102.309 17.3202 1772 98.1524 878.186 440.199
3278 0 106.344 18.2333 1939 97.5327 879.278 437.281
3279 0 109.356 15.6919 1716 101.894 878.44 431.193
3280 0 115.702 14.1052 1632 101.685 881.355 439.492
3281 0 113.315 12.6815 1437 105.752 881.493 432.74
3282 0 120.259 16.6224 1999 101.904 881.525 428.712
3283 0 122.298 14.1376 1729 104.644 882.115 428.566
3284 0 128.192 15.6016 2000 103.49 883.443 421.356
3285 0 130.641 13.1965 1724 106.905 883.255 423.945
3286 0 140.268 24.3962 3422 92.0313 883.403 434.396
3287 0 139.321 13.7453 1915 108.27 882.692 414.522
3288 0 139.321 13.7596 1917 144.497 881.684 414.396
3289 1 91.1701 13.6448 1244 102.811 883.83 450.728
3290 0 90.2064 13.8017 1245 105.929 884.061 447.95
3291 0 87.3838 13.2862 1161 106.141 883.136 442.563
3292 0 91.4358 12.9162 1181 108.518 882.837 445.349
3293 0 95.3941 12.852 1226 108.228 883.507 449.863
3294 0 104.563 13.6281 1425 106.044 882.986 449.267
3295 0 105.439 16.7586 1767 103.444 883.329 445.316
3296 0 105.335 15.0283 1583 107.758 883.153 439.721
3297 0 108.487 17.4675 1895 102.836 882.938 449.45
3298 0 111.264 14.3713 1599 108.77 882.103 441.738
3299 0 113.361 14.7934 1677 108.212 882.383 444.46
3300 0 115.568 16.6137 1920 105.658 880.902 442.127
3301 0 121.588 13.595 1653 109.082 879.36 437.342
3302 0 121.542 13.6825 1663 110.856 880.183 431.016
3303 0 130.289 13.731 1789 108.754 880.099 433.387
3304 0 134.483 13.3028 1789 110.417 879.936 431.585
3305 0 141.611 22.5407 3192 98.4204 879.285 429.764
3306 0 145.615 17.6973 2577 103.853 878.989 426.347
3307 0 146.357 12.7906 1872 112.341 878.871 417.202
3308 0 152.747 15.9217 2432 108.154 877.785 415.613
3309 0 158.402 14.5895 2311 109.539 878.225 415.934
3310 0 166.338 15.1559 2521 108.372 877.65 408.735
3311 0 170.305 14.4388 2459 108.924 879.535 410.267
3312 1 98.1828 12.7008 1247 105.315 879.199 444.658
3313 0 101.381 16.1371 1636 102.007 878.797 444.461
3314 0 109.491 15.5263 1700 101.531 879.416 441.537
3315 0 104.147 16.3903 1707 104.398 879.501 432.056
3316 0 106.279 13.2576 1409 109.286 878.576 433.142
3317 0 110.293 13.6636 1507 109.09 879.324 427.796
3318 0 115.228 13.3301 1536 108.236 879.869 428.477
3319 0 118.843 15.4826 1840 107.101 878.476 420.627
3320 0 121.357 12.1542 1475 111.26 878.949 409.35
3321 0 127.31 15.1205 1925 106.719 880.312 414.891
3322 0 128.491 17.2074 2211 103.634 881.204 414.372
3323 0 131.508 11.8852 1563 112.221 881.025 403.493
3324 0 137.308 14.7769 2029 106.751 883.321 405.759
3325 0 142.239 9.97619 1419 106.76 883.6 421.43
3326 1 85.4749 11.9099 1018 102.556 883.719 430.049
3327 0 97.4293 15.9808 1557 99.1952 885.712 438.29
3328 0 94.1973 13.4505 1267 104.395 884.624 438.466
3329 0 97.1486 11.0038 1069 106.774 882.697 444.062
3330 0 99.3577 14.3924 1430 104.031 883.778 438.915
3331 0 106.821 13.8737 1482 100.66 882.912 443.684
3332 0 103.445 16.6949 1727 100.072 884.992 437.566
3333 0 111.416 14.6208 1629 103.4 883.907 430.966
3334 0 113.206 14.1335 1600 104.561 885.409 436.172
3335 0 123.467 14.8785 1837 102.371 884.248 441.356
3336 0 121.255 11.6284 1410 107.999 884.433 434.984
3337 0 121.249 11.7939 1430 109.367 883.169 436.171
3338 0 126.281 11.9733 1512 110.365 882.458 435.597
3339 0 130.282 15.9423 2077 105.692 880.914 424.901
3340 0 133.5 15.3259 2046 106.831 882.477 426.867
3341 0 138.825 15.7537 2187 105.777 881.804 430.963
3342 0 143.511 14.7863 2122 109.509 883.492 419.189
3343 0 144.67 10.9353 1582 114.649 883.75 418.372
3344 0 152.432 13.1403 2003 109.828 883.292 422.705
3345 0 156.638 13.911 2179 110.004 882.989 414.337
3346 0 162.473 16.3781 2661 106.209 880.463 411.445
3347 0 164.508 13.9933 2302 110.538 880.912 404.358
3348 0 168.232 12.8216 2157 111.139 880.22 407.45
3349 0 178.5 13.367 2386 109.99 879.495 393.52
3350 0 184.778 13.481 2491 109.206 878.955 396.035
3351 0 190.899 16.8152 3210 104.981 879.101 395.989
3352 0 194.705 12.5369 2441 111.837 878.514 391.497
3353 0 199.479 15.33 3058 108.294 878.316 390.728
3354 0 203.552 12.95 2636 112.12 878.293 385.721
3355 0 210.944 15.6392 3299 108.743 878.697 384.017
3356 0 216.846 13.4888 2925 113.445 878.337 363.909
3357 1 57.1331 10.5718 604 98.0381 881.803 458.018
3358 0 60.4245 11.8495 716 96.5056 881.58 459.14
3359 0 55.2779 9.20801 509 102.978 880.067 458.546
3360 0 60.3189 10.7097 646 101.469 880.093 454.726
3361 0 63.3598 13.5259 857 97.972 880.622 453.291
3362 0 63.3598 13.5259 857 115.532 881.622 453.291
3363 0 66.7654 10.4246 696 101.792 881.766 454.832
3364 0 65.2991 10.2758 671 103.167 882.018 453.045
3365 0 73.9831 12.3271 912 97.3717 883.221 457.42
3366 0 71.6885 13.3773 959 99.2315 883.113 449.884
3367 0 71.5678 12.8689 921 101.055 884.072 447.734
3368 0 77.2025 17.0202 1314 94.4186 883.638 451.628
3369 0 77.5283 11.9053 923 102.417 884.401 447.076
3370 0 76.8023 11.1195 854 103.139 884.705 449.813
3371 0 79.4856 12.3041 978 101.137 884.8 449.861
3372 0 80.6916 10.7446 867 103.173 885.629 444.757
3373 0 85.5964 11.5309 987 100.83 884.778 447.668
3374 0 85.4331 9.03631 772 103.613 884.763 448.193
3375 0 88.62 11.5775 1026 100.972 884.942 450.68
3376 0 86.7083 9.83758 853 104.059 884.876 445.208
3377 0 92.3192 11.3952 1052 100.82 884.803 446.376
3378 0 92.3956 10.0438 928 102.703 884.501 444.518
3379 0 95.6588 9.8475 942 103.274 883.845 443.333
3380 0 101.279 9.99217 1012 100.101 884.251 452.946
3381 0 101.644 11.2648 1145 102.894 884.755 438.158
3382 0 106.547 13.3931 1427 98.15 884.056 447.03
3383 0 105.736 11.9543 1264 102.597 883.876 434.85
3384 0 108.522 19.5168 2118 93.2908 882.661 442.604
3385 0 113.636 11.4489 1301 100.394 881.426 443.827
3386 0 119.665 12.6854 1518 101.565 882.434 429.997
3387 0 120.688 11.6665 1408 103.014 881.195 432.116
3388 0 123.217 12.0357 1483 102.963 881.165 428.418
3389 0 124.556 10.8465 1351 104.198 880.594 428.92
3390 0 128.509 11.9136 1531 103.805 879.953 417.166
3391 0 135.851 15.8924 2159 96.9342 879.309 428.148
3392 0 136.277 16.7527 2283 95.3925 878.956 427.103
3393 0 141.219 12.5691 1775 101.822 879.743 420.445
3394 0 145.439 13.6621 1987 101.481 879.456 409.481
3395 0 147.217 14.7742 2175 99.869 878.488 415.424
3396 1 90.1489 10.7711 971 97.8239 880.018 444.591
3397 0 92.4168 12.6492 1169 96.7023 880.131 441.427
3398 0 95.4283 14.1153 1347 92.8515 880.964 446.644
3399 0 94.4195 8.51519 804 100.173 880.948 437.537
3400 0 100.196 11.1581 1118 97.4141 879.9 433.237
3401 0 104.459 11.191 1169 97.3071 880.799 430.041
3402 0 104.309 9.70195 1012 99.3755 878.763 426.95
3403 0 109.61 12.7817 1401 95.2898 880.51 434.258
3404 0 112.668 11.2543 1268 95.9472 881.032 431.228
3405 0 123.185 14.807 1824 92.6508 881.019 420.286
3406 0 119.736 18.8247 2254 89.8563 880.897 421.831
3407 0 118.571 12.2711 1455 97.3931 881.641 411.781
3408 0 122.746 14.3466 1761 93.7609 882.356 420.969
3409 0 125.304 9.08191 1138 99.9605 883.087 415.244
3410 1 14.0016 4.42806 62 86.7258 884.371 473.581
3411 0 10.0209 5.18914 52 88.4231 883.769 477.769
3412 1 140.437 16.584 2329 92.5517 883.634 415.504
3413 0 146.53 12.1272 1777 98.1688 884.733 408.153
3414 0 150.387 17.3021 2602 92.9051 885.369 415.788
3415 0 155.449 11.9847 1863 100.011 885.885 396.315
3416 1 90.703 10.3084 935 94.9947 886.042 447.513
3417 0 89.4228 10.7467 961 96.2404 885.696 443.557
3418 0 97.544 13.2556 1293 90.7788 886.395 448.421
3419 0 96.4061 8.56792 826 98.385 886.171 430.763
3420 0 104.53 15.0674 1575 90.2914 885.662 441.665
3421 0 105.56 12.8931 1361 92.3953 884.463 438.926
3422 0 106.495 11.3902 1213 93 884.228 439.214
3423 0 110.434 10.6398 1175 92.7566 884.526 432.703
3424 0 110.766 11.1496 1235 92.1741 884.408 439.983
3425 0 118.516 10.9521 1298 92.6718 884.058 434.508
3426 0 117.524 8.01535 942 96.0255 883.7 430.138
3427 0 117.445 8.68492 1020 95.2569 882.357 434.168
3428 0 127.345 15.5169 1976 88.3249 882.68 437.873
3429 0 126.582 10.744 1360 94.1949 881.701 419.581
3430 0 134.71 13.7257 1849 90.9546 881.415 420.263
3431 0 138.567 8.04663 1115 95.9964 880.458 422.489
3432 0 139.562 12.4174 1733 91.1044 880.593 432.838
3433 0 150.631 11.4385 1723 94.7545 879.742 412.636
3434 0 152.936 12.685 1940 93.3345 879.83 410.836
3435 0 159.119 9.13156 1453 96.2897 879.579 413.81
3436 1 98.5087 13.1156 1292 88.9954 879.748 447.803
3437 0 94.3581 8.01203 756 95.8333 879.898 435.36
3438 0 99.3009 10.8358 1076 93.3699 879.005 438.62
3439 0 105.52 14.8313 1565 88.5783 879.21 444.024
3440 0 105.373 11.6918 1232 92.9716 879.793 438.76
3441 0 105.298 10.7885 1136 96.0246 878.661 430.257
3442 0 111.273 11.6471 1296 94.8056 878.753 433.846
3443 0 115.35 12.5184 1444 93.6711 878.327 434.758
3444 0 119.347 13.8001 1647 92.5337 878.77 437.902
3445 0 119.293 14.3009 1706 92.7989 879.018 434.359
3446 0 126.44 11.0804 1401 97.0421 879.237 425.111
3447 0 128.467 13.4587 1729 95.3678 881.431 417.223
3448 0 129.344 14.2025 1837 95.282 881.065 420.095
3449 0 134.806 9.53963 1286 100.335 881.751 418.921
3450 0 139.613 10.6795 1491 100.392 881.427 404.895
3451 0 145.434 13.3119 1936 96.7526 882.961 412.256
3452 1 82.1382 10.7137 880 100.06 880.647 434.235
3453 0 88.4542 15.2395 1348 94.1899 883.104 435.579
3454 0 88.4542 15.0586 1332 111.078 885.05 435.496
3455 0 93.3346 12.2463 1143 100.051 884.482 436.537
3456 0 98.1839 15.4404 1516 95.8839 885.273 438.401
3457 0 97.3352 13.3559 1300 100.455 885.188 429.295
3458 0 98.2056 12.3211 1210 102.002 885.044 433.136
3459 0 105.296 15.2237 1603 98.3144 885.471 435.9
3460 1 262.943 10.3444 2720 108.289 884.051 367.311
3461 0 265.064 11.5821 3070 106.179 884.285 371.635
3462 1 112.35 13.5647 1524 101.491 884.751 433.262
3463 0 114.451 11.7168 1341 104.049 884.345 436.627
3464 0 117.241 11.8133 1385 104.355 884.419 438.599
3465 0 120.335 14.094 1696 102.856 883.071 426.501
3466 0 121.298 11.5335 1399 105.896 883.301 432.454
3467 0 124.502 13.0519 1625 104.439 883.018 425.694
3468 0 133.435 14.4865 1933 102.84 884.604 426.719
3469 0 137.212 13.337 1830 103.129 882.15 434.394
3470 0 144.636 14.2911 2067 101.114 882.72 433.127
3471 1 83.154 11.3164 941 99.423 883.678 460.216
3472 0 89.2995 10.7391 959 101.097 883.472 456.994
3473 0 87.3667 8.92788 780 98.7692 881.932 452.832
3474 0 91.4905 8.56919 784 99.6875 880.36 452.596
3475 0 95.2324 11.1097 1058 97.1919 879.197 452.536
3476 0 96.4587 7.27773 702 100.868 878.618 453.081
3477 0 100.452 8.86988 891 101.118 878.303 443.93
3478 0 102.532 10.348 1061 99.443 877.522 446.935
3479 0 104.361 12.8114 1337 97.0404 877.601 443.936
3480 0 105.2 12.1103 1274 98.1515 877.686 447.828
3481 0 111.304 11.7785 1311 99.7117 877.055 440.468
3482 0 114.6 12.8098 1468 99.3065 877.356 432.937
3483 0 114.292 12.7743 1460 100.262 877.547 435.54
3484 0 117.413 11.6767 1371 103.209 877.758 428.791
3485 0 119.623 15.1978 1818 99.0385 877.485 431.561
3486 0 122.641 13.3724 1640 103.916 878.278 425.324
3487 0 127.479 11.7039 1492 106.182 877.338 412.722
3488 0 131.692 15.4831 2039 101.636 877.677 427.204
3489 0 134.58 15.1806 2043 103.083 878.271 421.624
3490 0 143.694 16.5978 2385 100.888 877.996 420.595
3491 0 146.452 13.5881 1990 105.743 878.066 412.857
3492 0 149.46 13.5354 2023 106.301 878.941 408.452
3493 1 89.3195 15.5845 1392 95.8592 877.915 445.398
3494 0 89.3046 12.2054 1090 101.338 878.651 430.031
3495 0 91.6557 11.5432 1058 102.688 878.967 433.964
3496 0 93.436 11.2805 1054 103.322 879.491 441.855
3497 0 96.6572 13.8014 1334 97.2954 879.717 448.355
3498 0 99.3833 11.833 1176 103.641 881.1 435.463
3499 0 102.345 12.1745 1246 103.511 881.597 438.826
3500 0 105.334 12.4082 1307 104.067 882.238 432.692
3501 0 105.562 11.0646 1168 106.845 881.553 429.033
3502 0 111.565 11.1326 1242 107.279 882.248 432.683
3503 0 116.321 12.3366 1435 104.626 882.211 434.978
3504 0 117.488 13.5248 1589 104.789 882.177 432.767
3505 0 119.241 13.3092 1587 106.046 883.265 429.013
3506 0 123.702 12.9181 1598 107.605 882.914 422.32
3507 0 124.554 10.7183 1335 111.399 882.899 423.381
3508 0 133.405 13.0805 1745 107.562 883.555 425.962
3509 0 143.029 17.9194 2563 99.1409 882.403 438.576
3510 1 81.2143 12.6209 1025 103.597 883.354 456.992
3511 0 77.502 12.7739 990 103.408 881.759 454.21
3512 0 86.3209 12.6041 1088 109.318 881.427 453.594
3513 0 90.5037 11.3918 1031 111.208 880.646 455.122
3514 0 92.571 11.8288 1095 111.57 879.662 451.291
3515 0 92.3989 9.75119 901 115.214 879.145 452.481
3516 0 98.4431 12.525 1233 110.229 879.11 454.978
3517 0 101.316 11.4198 1157 111.797 879.188 449.906
3518 0 103.473 14.1582 1465 109.307 878.122 444.83
3519 0 103.224 12.6909 1310 112.039 877.608 442.873
3520 0 111.548 13.0706 1458 110.532 878.27 440.061
3521 0 112.637 12.5092 1409 111.682 877.573 436.319
3522 0 118.477 11.8504 1404 107.196 878.067 440.168
3523 1 14.0639 8.9591 126 90.8333 876.786 491.159
3524 0 13.0069 7.15004 93 95.1398 876.344 489.387
3525 1 75.264 8.22438 619 106.076 876.045 459
3526 0 73.2191 7.27952 533 106.919 875.368 462.55
3527 0 74.1409 10.8577 805 106.602 873.922 453.725
3528 0 76.2173 8.21336 626 105.347 876.527 458.359
3529 0 78.2224 9.20452 720 109.258 876.964 451.15
3530 0 82.3043 13.3893 1102 102.279 877.353 455.76
3531 0 82.1459 11.09 911 107.841 877.731 451.313
3532 0 88.3078 12.3772 1093 105.105 878.613 453.87
3533 0 86.3971 15.0468 1300 103.059 878.196 447.378
3534 0 89.2764 11.7724 1051 107.892 879.506 446.736
3535 0 92.329 13.5385 1250 104.818 879.55 445.558
3536 0 96.3519 11.7071 1128 106.892 879.204 443.568
3537 0 101.245 13.976 1415 104.877 878.626 439.175
3538 0 101.319 12.5544 1272 107.489 879.349 434.783
3539 0 104.177 15.205 1584 103.801 880.278 434.038
3540 0 109.342 13.9104 1521 105.323 880.915 436.477
3541 0 110.516 11.5368 1275 107.841 879.804 437.533
3542 0 113.448 9.80183 1112 112.956 880.673 429.999
3543 0 115.455 11.4157 1318 111.066 881.277 428.629
3544 0 119.416 17.5939 2101 103.079 881.942 428.913
3545 0 123.284 15.6792 1933 105.033 881.749 430.86
3546 0 130.659 16.9678 2217 102.411 882.776 430.295
3547 0 132.496 15.8797 2104 105.867 882.454 423.018
3548 0 132.496 15.8571 2101 132.19 882.476 422.718
3549 1 79.4137 9.85976 783 111.822 881.908 438.897
3550 0 78.3826 9.46639 742 108.635 882.737 445.282
3551 0 84.1909 12.6855 1068 102.673 882.728 448.702
3552 0 83.269 9.55938 796 109.471 882.902 441.603
3553 0 89.2196 12.5757 1122 104.722 882.898 438.575
3554 0 93.3287 12.3649 1154 102.802 881.719 452.992
3555 0 97.4834 13.9306 1358 103.866 881.845 444.119
3556 0 99.1567 14.8754 1475 102.119 880.801 448.285
3557 0 102.274 13.3661 1367 104.395 881.369 446.732
3558 0 108.466 12.8703 1396 106.999 880.42 439.11
3559 0 107.424 12.9859 1395 107.748 880.434 441.86
3560 0 111.358 15.5355 1730 105.197 879.577 437.312
3561 0 116.23 15.2629 1774 105.249 879.406 440.09
3562 0 119.24 11.6152 1385 110.782 878.181 433.819
3563 0 122.33 11.8696 1452 110.342 878.244 433.413
3564 0 126.354 15.0133 1897 106.194 876.268 430.136
3565 0 130.332 15.1766 1978 105.904 877.28 429.619
3566 0 133.588 14.4774 1934 107.531 877.214 424.793
3567 0 137.461 14.7969 2034 106.521 877.316 428.237
3568 0 139.339 13.8008 1923 110.069 877.336 414.763
3569 0 143.864 14.2357 2048 108.908 877.316 418.612
3570 0 149.6 13.603 2035 110.672 876.938 412.748
3571 0 154.368 15.9943 2469 107.68 876.146 409.447
3572 0 155.525 11.3293 1762 115.259 875.883 410.425
3573 0 165.685 14.1715 2348 111.441 875.476 406.241
3574 0 166.291 12.3579 2055 114.261 874.351 401.797
3575 1 83.2073 8.12429 676 112.08 875.398 438.47
3576 0 88.1692 12.1131 1068 107.403 877.153 437.879
3577 0 89.1805 10.3946 927 110.415 876.323 434.759
3578 0 93.291 15.2534 1423 101.595 877.072 431.765
3579 0 95.3137 13.3559 1273 104.626 876.577 430.208
3580 0 100.333 14.3821 1443 103.753 875.778 431.137
3581 0 100.198 10.7687 1079 109.798 876.234 430.126
3582 0 105.401 14.9334 1574 103.532 876.946 428.39
3583 0 108.513 16.0441 1741 101.801 877.127 419.847
3584 0 110.285 12.8757 1420 112.537 877.858 425.958
3585 1 52.1868 9.63846 503 108.195 878.644 461.851
3586 0 57.2463 11.4942 658 107.169 880.009 457.795
3587 0 57.4063 9.54599 548 110.737 880.896 456.297
3588 0 65.0866 16.2092 1055 100.355 880.392 458.074
3589 0 58.1153 10.2727 597 105.106 882.836 463.328
3590 0 62.2624 7.45233 464 107.744 882.067 464.812
3591 0 64.2255 14.091 905 100.861 882.986 461.745
3592 0 66.1032 12.7074 840 102.885 882.075 461.255
3593 0 71.2282 12.7618 909 101.597 882.981 465.449
3594 0 73.2433 13.5712 994 101.757 883.208 462.229
3595 0 73.3824 13.0413 957 103.513 882.268 465.29
3596 0 77.346 11.2869 873 105.328 882.448 462.85
3597 0 76.4307 10.8464 829 108.162 882.277 456.509
3598 0 80.4596 12.0557 970 106.564 882.181 460.93
3599 0 81.2077 17.9293 1456 98.5 881.47 461.117
3600 0 85.6608 15.97 1368 98.1053 881.336 464.188
3601 0 85.5782 11.0893 949 105.959 881.603 457.213
3602 0 87.1991 4.40372 384 115.651 880.604 455.602
3603 0 91.3297 14.7816 1350 102.647 880.168 451.486
3604 0 95.8398 13.2617 1271 104.515 879.039 451.883
3605 0 98.3695 13.8559 1363 103.509 879.359 453.55
3606 0 104.597 16.0903 1683 98.8598 877.847 457.719
3607 0 102.654 13.7451 1411 105.327 877.386 449.434
3608 0 105.26 13.4904 1420 106.399 877.468 443.374
3609 0 108.322 15.0754 1633 104.427 876.505 446.105
3610 0 111.31 13.6825 1523 106.691 875.9 443.054
3611 0 117.365 16.1035 1890 103.732 876.396 440.059
3612 0 119.52 17.5703 2100 102.785 874.953 437.334
3613 0 120.306 13.7732 1657 109.417 876.037 438.041
3614 0 122.381 14.6837 1797 108.459 875.375 432.741
3615 0 130.448 19.5173 2546 102.694 875.958 432.894
3616 0 129.247 13.4084 1733 111.565 875.249 430.988
3617 0 134.36 17.3638 2333 106.964 874.766 424.825
3618 0 138.439 15.0608 2085 111.311 876.089 412.285
3619 1 78.7484 11.7082 922 105.781 877.086 448.055
3620 0 81.3164 11.031 897 107.48 876.844 445.164
3621 0 84.5014 13.3134 1125 103.744 877.628 441.245
3622 0 89.081 15.8844 1415 99.5887 877.576 440.36
3623 0 87.3912 11.0537 966 108.035 877.853 445.996
3624 0 92.6026 15.248 1412 103.343 878.209 441.483
3625 0 98.2106 12.5037 1228 105.222 879.48 445.938
3626 0 94.3024 11.1132 1048 111.268 879.092 432.906
3627 0 95.4183 10.1029 964 112.177 880.182 437.278
3628 0 103.53 12.9431 1340 108.417 881.219 434.676
3629 0 108.403 15.3686 1666 103.586 881.753 439.026
3630 0 111.041 13.9858 1553 106.861 881.84 433.797
3631 0 111.274 14.3879 1601 107.307 880.651 431.597
3632 1 220.408 21.5691 4754 103.493 881.618 383.85
3633 0 220.704 18.6766 4122 106.016 880.448 393.682
3634 0 220.087 10.4323 2296 118.366 881.821 384.164
3635 0 220.349 9.36696 2064 117.076 882.231 391.254
3636 0 218.349 6.80104 1485 118.174 881.411 402.168
3637 1 202.904 13.6272 2765 111.7 881.173 389.894
3638 1 145.603 16.4351 2393 104.837 882.891 419.636
3639 0 149.622 12.6853 1898 109.739 881.325 420.064
3640 1 87.9663 11.8796 1045 102.331 881.851 455.059
3641 0 88.2611 14.6837 1296 99.1698 881.39 455.668
3642 0 91.6447 11.1627 1023 105.532 880.497 449.364
3643 0 93.3616 12.8747 1202 103.713 880.105 445.966
3644 0 94.6627 10.173 963 108.261 879.524 442.799
3645 0 102.545 13.4185 1376 101.873 878.914 447.218
3646 0 104.6 18.6711 1953 97.0763 879.006 440.542
3647 0 106.625 10.9542 1168 107.063 878.677 438.429
3648 0 111.608 15.4917 1729 100.22 879.702 441.218
3649 0 115.556 15.7758 1823 99.8552 878.137 441.267
3650 0 116.354 14.0433 1634 102.524 877.966 437.771
3651 0 124.57 19.9887 2490 94.4602 878.036 442.802
3652 0 125.588 14.4998 1821 103.459 878.188 429.579
3653 0 124.474 15.8588 1974 102.034 878.091 430.283
3654 0 132.627 14.7029 1950 102.434 876.093 431.813
3655 0 136.659 13.6324 1863 105.418 875.957 422.566
3656 0 142.537 14.4032 2053 104.216 877.306 420.291
3657 0 146.489 13.0453 1911 105.912 876.361 422.173
3658 0 149.619 13.1735 1971 106.427 876.561 420.025
3659 0 150.634 13.5694 2044 107.379 875.569 410.625
3660 0 157.642 15.9348 2512 104.336 876.422 407.84
3661 1 92.559 13.4509 1245 101.204 876.836 445.426
3662 0 92.5274 12.2126 1130 104.698 876.987 437.525
3663 0 97.7189 22.2884 2178 93.208 876.3 438.356
3664 0 100.385 15.1516 1521 101.35 877.592 436.112
3665 0 102.819 14.5985 1501 101.918 877.426 438.723
3666 0 102.662 14.465 1485 105.23 878.772 428.653
3667 0 108.971 15.9308 1736 101.801 878.949 435.026
3668 0 112.82 17.5767 1983 101.011 878.751 429.547
3669 0 115.946 13.9548 1618 106.007 879.248 427.229
3670 0 117.745 13.5717 1598 107.873 879.401 419.646
3671 0 118.804 14.9574 1777 106.595 879.549 418.588
3672 0 129.104 13.3148 1719 107.792 881.128 423.323
3673 0 132.788 14.2483 1892 106.244 881.144 421.727
3674 0 137.66 14.4269 1986 107.426 881.742 416.064
3675 0 141.885 14.4272 2047 107.619 883.103 416.567
3676 1 79.6357 8.4761 675 110.711 883.356 444.397
3677 0 82.4637 13.2665 1094 101.925 882.321 450.983
3678 0 85.6315 12.5421 1074 105.065 883.72 442.912
3679 0 87.5416 12.1542 1064 105.23 883.87 444.059
3680 0 89.3517 11.6842 1044 107.007 882.274 441.969
3681 0 94.7948 12.5534 1190 105.401 882.421 442.308
3682 1 175.581 10.7016 1879 112.025 883.111 412.546
3683 1 100.606 12.9118 1299 106.517 882.218 441.968
3684 0 102.642 10.1225 1039 110.99 880.827 439.939
3685 0 107.751 13.7075 1477 106.092 881.575 441.353
3686 0 110.655 13.6189 1507 106.94 881.082 437.739
3687 0 111.741 13.6655 1527 107.415 881.308 436.267
3688 0 116.551 16.6622 1942 104.234 880.129 433.999
3689 0 120.632 16.7534 2021 102.392 879.64 441.428
3690 0 125.575 14.7083 1847 105.769 878.42 437.697
3691 0 129.944 13.9829 1817 107.867 878.632 431.822
3692 0 133.57 16.0964 2150 105.593 879.478 427.031
3693 0 136.49 11.9642 1633 111.205 877.527 428.338
3694 0 141.649 14.1053 1998 108.168 877.487 428.856
3695 0 144.532 13.471 1947 111.055 877.701 417.566
3696 0 150.612 17.2895 2604 105.12 877.401 423.815
3697 0 154.451 16.7302 2584 106.982 876.584 412.671
3698 0 160.741 18.2903 2940 104.405 876.03 415.361
3699 1 92.2742 13.4165 1238 103.566 875.607 452.752
3700 0 96.2309 15.6499 1506 101.82 876.397 445.238
3701 0 98.6058 19.0252 1876 98.766 875.481 441.624
3702 0 99.2765 14.3538 1425 106.837 875.342 434.218
3703 0 102.252 11.3054 1156 110.931 875.161 434.034
3704 0 105.278 13.583 1430 106.805 875.327 440.785
3705 0 108.404 13.3574 1448 109.474 875.478 432.844
3706 0 110.509 13.0849 1446 110.523 876.941 426.42
3707 0 120.16 13.6817 1644 107.234 877.408 434.043
3708 0 122.089 14.9317 1823 105.739 876.755 433.309
3709 0 123.752 13.22 1636 109.873 878.307 426.717
3710 0 125.443 18.3191 2298 104.148 878.935 419.632
3711 0 126.557 12.7058 1608 112.467 879.397 418.359
3712 0 130.556 15.4723 2020 109.746 878.271 418.29
3713 0 135.158 12.4668 1685 113.725 879.356 418.09
3714 0 140.442 14.4259 2026 110.268 880.038 410.493
3715 0 140.442 14.3404 2014 146.404 882.051 410.339
3716 0 149.586 15.6766 2345 108.038 881.2 417.643
3717 0 155.446 14.2686 2218 112.105 880.773 403.658
3718 0 158.292 14.9091 2360 112.05 881.117 405.72
3719 0 163.797 15.3666 2517 113.708 882.842 402.99
3720 0 163.58 14.1032 2307 115.72 882.415 391.736
3721 0 175.07 12.5207 2192 116.084 883.155 405.635
3722 0 178.662 12.644 2259 118.86 882.023 391.807
3723 0 183.622 12.8362 2357 118 882.799 396.225
3724 0 189.947 16.6205 3157 110.787 882.502 398.496
3725 0 191.596 10.3081 1975 122.171 882.71 388.587
3726 0 195.927 11.4583 2245 116.467 881.897 404.638
3727 1 123.282 16.5312 2038 107.353 882.398 425.871
3728 0 128.304 16.6948 2142 107.282 881.303 427.71
3729 0 132.474 14.3047 1895 111.167 881.905 421.358
3730 0 138.357 17.5705 2431 106.361 882.165 420.326
3731 0 137.585 12.5522 1727 115.573 882.413 413.002
3732 0 145.7 15.0447 2192 111.272 881.917 412.501
3733 0 151.251 13.666 2067 113.425 881.487 405.56
3734 0 152.382 11.0774 1688 115.605 879.881 405.504
3735 0 160.807 14.6014 2348 110.113 879.905 404.701
3736 0 167.726 15.0185 2519 108.441 879.033 411.015
3737 0 171.794 13.7083 2355 110.455 879.054 404.955
3738 0 178.166 16.3162 2907 106.05 876.281 407.282
3739 1 106.783 9.70192 1036 112.407 878.056 429.165
3740 0 109.452 11.0185 1206 110.58 877.711 427.649
3741 0 111.781 13.7233 1534 107.538 877.435 425.175
3742 0 111.5 10.6995 1193 111.124 877.034 426.221
3743 0 115.524 13.798 1594 106.704 876.867 423.023
3744 0 115.524 13.6681 1579 132.958 876.891 422.84
3745 0 121.563 12.0349 1463 108.192 876.159 424.334
3746 0 128.601 13.4136 1725 107.492 877.97 412.271
3747 0 130.926 13.3052 1742 108.663 877.253 413.951
3748 0 136.847 15.4186 2110 105.277 878.336 415.43
3749 0 139.401 13.7947 1923 108.541 877.132 406.543
3750 0 144.726 13.8607 2006 108.948 879.054 404.63
3751 0 147.599 15.6911 2316 106.905 877.078 400.265
3752 0 153.64 13.3559 2052 110.34 878.423 400.15
3753 0 158.547 13.4282 2129 108.588 878.582 407.944
3754 0 165.544 16.6301 2753 106.727 878.579 394.292
3755 0 170.567 16.0523 2738 108.745 879.339 391.015
3756 1 108.459 11.0087 1194 108.131 879.008 426.741
3757 0 115.014 17.3544 1996 98.8262 878.847 429.585
3758 0 117.012 13.0585 1528 107.505 880.217 415.81
3759 0 118.648 12.339 1464 109.393 881.188 417.242
3760 0 121.604 11.817 1437 110.935 881.888 415.765
3761 0 123.57 13.636 1685 108.123 881.889 411.028
3762 0 126.426 17.3302 2191 98.4911 883.486 422.222
3763 0 129.65 12.4566 1615 107.84 883.863 415.014
3764 0 129.667 11.437 1483 111.465 883.914 402.334
3765 0 134.507 11.7168 1576 111.817 884.221 407.73
3766 0 141.576 13.6181 1928 108.79 882.015 406.967
3767 0 146.664 16.8617 2473 104.524 883.219 407.903
3768 0 148.495 11.96 1776 112.059 882.121 405.869
3769 0 151.401 10.7067 1621 115.332 883.271 395.907
3770 0 162.551 12.353 2008 112.574 882.214 400.636
3771 0 168.388 15.3218 2580 107.554 882.336 401.896
3772 0 171.424 11.8828 2037 114.55 880.199 388.176
3773 0 179.458 16.299 2925 107.257 881.042 390.28
3774 0 182.367 12.6558 2308 113.986 880.372 382.773
3775 0 184.612 12.9678 2394 114.927 880.58 374.493
3776 1 198.525 13.9882 2777 114.116 880.152 385.474
3777 1 6 6.33333 38 89.6053 878.763 479.868
3778 0 10 0.9 9 92.2222 877.889 481.667
3779 1 138.39 15.1239 2093 108.2 877.844 410.897
3780 0 139.424 13.6706 1906 110.48 877.975 403.471
3781 0 145.773 15.7643 2298 107.326 877.131 420.993
3782 0 148.56 12.776 1898 112.581 876.825 416.543
3783 0 156.392 12.2193 1911 113.82 877.232 411.905
3784 0 157.464 13.3428 2101 113.422 876.001 404.645
3785 0 162.385 15.5617 2527 110.207 876.85 406.124
3786 0 169.543 15.2705 2589 109.93 877.292 403.008
3787 0 172.776 13.8214 2388 113.276 876.367 389.376
3788 0 178.826 17.1563 3068 107.607 877.558 396.143
3789 0 181.573 16.0321 2911 109.904 877.874 390.869
3790 0 192.484 15.5909 3001 108.385 878.179 394.319
3791 0 191.533 14.6972 2815 110.226 877.161 383.108
3792 0 197.569 16.3639 3233 106.564 879.224 390.641
3793 0 196.565 14.4023 2831 112.658 877.827 367.22
3794 1 39.0825 9.54391 373 85.3807 879.509 469.416
3795 0 38.1709 5.23959 200 89.46 880.18 466.13
3796 0 36.094 8.45016 305 88.3574 880.426 460.528
3797 0 32.0164 2.71736 87 94.1494 881.621 461.23
3798 0 34.0891 6.57102 224 91.1518 881.33 464.411
3799 0 31.0881 1.96216 61 97.9836 881.197 461.918
3800 0 33.077 4.35347 144 93.3889 882.354 457.847
3801 0 38.1728 6.10382 233 90.7382 880.983 467.103
3802 0 34.0594 6.92907 236 90.1441 883.907 462.161
3803 0 36.2802 8.68241 315 87.5619 884.067 461.597
3804 0 35.1477 8.53541 300 87.03 884.117 463.697
3805 0 40.3613 8.20092 331 87.3172 884.743 463.227
3806 0 39.0767 6.09059 238 91.0126 884.727 468.378
3807 0 316.122 25.5724 8084 97.7375 883.1 309.215
3808 0 323.06 31.7866 10269 92.8717 883.584 305.611
3809 0 323.657 17.8677 5783 108.472 883.629 310.432
3810 0 336.728 21.4803 7233 103.075 883.384 310.604
3811 0 349.105 22.9071 7997 101.626 883.25 310.553
3812 1 52.4901 16.5364 868 83.2062 883.871 469.349
3813 0 44.1425 7.43048 328 91.4451 884.872 476.86
3814 0 49.3046 5.8818 290 92.7931 883.603 469.803
3815 0 44.1801 11.1136 491 88.5071 882.857 474.041
3816 0 45.3955 9.71461 441 90.2676 882.39 477.503
3817 0 46.1609 7.1489 330 92.3121 881.994 479.733
