time division length width area intensity CMx CMy
0 0 33.0334 13.3199 440 119.811 436.807 477.87
1 0 33.0904 12.5716 416 116.228 436.546 480.236
2 0 33.1378 11.7087 388 123.686 436.229 479.856
3 0 35.2063 12.8954 454 114.672 435.936 479.471
4 0 35.2063 12.8386 452 141.374 435.982 479.458
5 0 40.0708 14.2498 571 111.324 435.264 474.753
6 0 44.3257 16.7172 741 106.178 434.475 475.447
7 0 42.099 13.5633 571 117.03 433.998 475.482
8 0 41.1613 13.848 570 117.567 433.258 473.888
9 0 41.0198 13.2863 545 119.138 431.428 474.508
10 0 44.187 13.805 610 114.87 431.164 472.041
11 0 46.0236 14.0145 645 117.136 430.043 473.425
12 0 48.0588 14.4198 693 117.385 430.348 471.606
13 0 46.1653 15.921 735 115.245 430.574 470.748
14 0 46.1197 14.2455 657 119.81 429.779 467.709
15 0 49.169 15.5586 765 116.115 429.516 466.144
16 0 48.1318 13.9409 671 116.441 429.332 466.794
17 0 51.1201 16.2754 832 114.513 429.32 467.822
18 0 52.1502 15.3978 803 115.293 429.989 465.425
19 0 54.0612 16.3703 885 115.729 430.275 464.579
20 0 55.0259 15.5563 856 115.025 429.335 459.787
21 0 61.1791 16.1166 986 109.242 430.139 459.955
22 0 59.1166 15.5455 919 117.717 430.246 459.229
24 0 338.023 22.0133 7441 113.041 439.046 331.851
25 1 64.1068 15.9421 1022 115.021 444.076 451.982
26 0 66.1004 16.9893 1123 112.841 443.426 449.301
27 0 70.1451 20.1155 1411 105.625 443.058 456.835
28 0 73.187 18.8695 1381 109.332 442.097 449.802
29 0 74.2215 13.4732 1000 115.115 441.563 451.404
30 0 77.197 16.7882 1296 111.353 443.194 446.028
31 0 79.2132 14.9975 1188 113.361 442.378 444.486
32 0 84.1792 20.4326 1720 104.811 443.127 447.478
33 1 40.2324 14.4411 581 112.432 444.079 464.215
34 0 45.1049 12.5485 566 113.401 444.009 462.973
35 0 46.0457 16.918 779 107.596 444.778 466.691
36 0 45.166 16.074 726 110.329 443.806 460.204
37 0 48.1634 11.6686 562 111.027 445.778 465.795
38 0 49.0424 15.0482 738 105.9 443.732 466.149
39 0 50.0722 10.7445 538 111.704 444.745 466.803
40 0 52.1694 14.6829 766 104.711 443.153 466.061
41 0 55.1246 20.1362 1110 97.0207 442.184 471.212
42 0 58.279 12.4916 728 106.988 441.981 467.203
43 0 60.305 16.0517 968 101.184 441.526 469.079
44 0 62.096 17.795 1105 101.786 440.765 465.901
45 0 62.1808 13.8306 860 104.116 441.324 464.172
46 0 66.212 17.5044 1159 112.036 439.896 465.879
47 0 75.2245 21.9742 1653 103.548 438.295 468.987
48 0 71.1461 16.3185 1161 112.703 438.211 463.743
49 0 74.1229 15.6632 1161 116.558 437.212 459.348
50 0 76.1767 16.383 1248 118.018 437.712 460.239
51 0 78.0807 14.088 1100 125.772 436.157 456.824
52 0 83.2972 14.0821 1173 122.352 435.585 461.048
53 0 89.5813 17.3362 1553 116.415 434.621 457.117
54 0 91.1834 16.2859 1485 119.665 434.792 453.271
55 1 45.1408 9.63651 435 125.743 433.906 475.018
56 0 51.8488 14.7352 764 112.641 432.636 474.805
57 0 47.213 15.5889 736 115.716 432.629 470.63
58 0 53.1184 11.1637 593 121.489 433.626 470.376
59 0 52.304 11.4141 597 122.752 432.556 467.631
60 0 55.2731 12.0854 668 121.172 433.115 466.87
61 0 58.1103 12.6828 737 118.198 433.039 465.817
62 0 59.1088 13.9404 824 115.694 431.983 463.443
63 0 61.358 16.0696 986 113.215 430.557 460.34
64 0 62.2318 17.5955 1095 109.143 430.997 463.821
65 0 64.2867 11.6043 746 121.965 431.198 456.756
66 0 68.2356 16.3404 1115 112.142 431.042 457.842
67 0 69.2017 12.7453 882 119.271 431.206 454.289
68 0 70.2183 12.0624 847 114.092 431.021 457.758
69 0 74.2415 12.8365 953 113.761 431.748 454.954
70 0 74.3402 12.4966 929 119.045 433.013 450.807
71 0 78.1753 13.2906 1039 117.221 432.242 448.487
72 0 80.1929 11.3102 907 117.085 433.965 449.838
73 1 41.0741 12.9278 531 113.056 433.883 464.158
74 0 43.2067 10.0447 434 114.076 435.353 465.76
75 0 43.0825 11.8842 512 111.604 436.029 463.195
76 0 45.0827 9.22749 416 114.308 435.627 468.618
77 0 46.1618 13.431 620 110.455 435.906 467.448
78 0 43.2659 9.45316 409 116.411 436.071 468.443
79 0 46.0417 13.1403 605 111.81 436.75 467.231
80 0 50.0541 12.1269 607 112.245 438.937 468.862
81 0 52.1423 13.5782 708 110.866 438.948 468.175
82 0 51.0356 13.1477 671 114.024 439.62 464.788
83 0 54.1643 10.542 571 117.546 439.093 467.366
84 0 58.0664 12.8474 746 112.304 438.227 468.705
85 0 57.24 11.4431 655 115.65 438.212 470.424
86 0 60.1288 14.419 867 112.663 437.521 468.596
87 0 60.128 11.3591 683 118.663 437.173 468.849
88 0 63.1272 13.2431 836 117.158 436.028 465.439
89 0 67.2907 14.742 992 114.548 436.965 466.457
90 0 68.1761 14.9613 1020 112.271 436.198 469.98
91 0 70.1763 12.1124 850 117.884 434.416 467.291
92 0 72.108 13.3966 966 115.516 434.85 466.664
93 1 41.3867 12.6369 523 110.889 433.82 484.551
94 0 39.1576 12.488 489 116.695 431.867 480.963
95 0 39.0751 11.4651 448 122.21 432.438 479.386
96 0 36.1516 11.7837 426 119.394 432.188 479.007
97 0 43.0493 16.0514 691 109.436 433.181 479.784
98 0 42.0318 10.3969 437 119.394 431.268 479.597
99 0 42.1183 13.842 583 114.142 430.774 477.947
100 0 43.0543 11.1255 479 118.035 431.159 477.67
101 0 47.1226 12.9874 612 114.982 430.351 474.479
102 0 44.0957 9.70616 428 121.544 429.741 473.194
103 0 47.1326 11.4783 541 119.096 429.235 470.409
104 0 51.0902 14.2689 729 113.333 429.165 469.955
105 0 52.2645 14.9624 782 112.079 429.376 468.541
106 0 54.1814 13.6763 741 112.93 429.734 469.085
107 0 57.3193 15.4049 883 110.678 429.196 465.672
108 0 60.1277 15.4338 928 110.114 429.409 465.789
109 0 59.2554 15.9985 948 113.345 430.172 458.848
110 0 61.2405 17.1945 1053 109.105 430.854 461.481
111 0 63.2008 17.8953 1131 110.755 431.302 455.097
112 0 66.1116 17.5461 1160 111.308 431.432 454.828
113 0 67.1104 15.5267 1042 114.953 431.846 455.329
114 0 69.1787 14.9902 1037 116.543 433.143 452.362
115 0 70.1154 13.6204 955 118.343 432.813 452.437
116 0 73.2391 15.2787 1119 115.913 433.063 451.187
117 0 74.1023 12.3613 916 121.416 433.677 450.022
118 0 77.1914 14.6519 1131 119.279 434.955 446.83
119 0 79.6049 14.6599 1167 120.386 434.853 444.416
120 1 42.5114 11.9262 507 120.105 435.978 466.341
121 0 42.5202 12.1825 518 115.417 435.139 464.691
122 0 43.543 15.7086 684 112.382 435.344 464.43
123 0 47.4257 15.1816 720 113.426 434.924 463.143
124 0 46.4785 12.1131 563 120.332 436.236 462.934
125 0 49.5428 16.3899 812 113.436 436.296 462.244
126 0 48.161 11.9599 576 118.358 436.012 468.983
127 0 51.177 14.2251 728 113.968 436.412 469.624
128 0 54.2915 13.5012 733 114.952 434.892 469.216
129 0 54.1821 13.1409 712 115.733 436.383 470.162
130 0 57.2434 16.0717 920 110.273 434.916 470.43
131 0 58.1171 12.9394 752 116.654 435.007 471.43
132 0 59.2607 13.3309 790 117.063 433.956 468.576
133 0 61.1841 12.7647 781 116.433 433.939 470.918
134 0 66.352 13.5037 896 114.772 434.664 467.952
135 0 68.2189 11.082 756 118.381 433.524 468.972
136 0 73.1794 12.0662 883 117.233 433.496 465.339
137 0 72.3306 12.6226 913 115.72 430.698 466.543
138 0 74.1176 12.4802 925 116.899 431.985 464.926
139 1 42.1006 12.5651 529 114.07 429.006 475.569
140 0 43.0535 12.4032 534 113.491 429.901 476.824
141 0 45.1687 13.4385 607 110.6 428.806 477.679
142 0 42.1008 15.2254 641 105.148 429.956 482.53
143 0 44.0841 10.0263 442 116.98 428.962 476.005
144 0 47.0693 13.1083 617 110.763 429.128 476.862
145 0 47.1988 12.458 588 113.02 428.201 471.002
146 1 92.4152 12.552 1160 117.745 428.183 451.792
147 1 51.136 12.7503 652 112.957 427.29 467.842
148 0 51.1199 11.7762 602 115.324 427.576 467.392
149 0 52.0493 13.4104 698 115.652 427.838 466.464
150 0 54.1681 11.4089 618 116.922 427.265 465.871
151 0 58.1458 13.1566 765 113.85 428.163 464.6
152 0 57.4212 9.47386 544 119.708 427.936 464.796
153 0 62.1281 13.4722 837 113.636 428.939 458.724
154 0 63.1694 13.6142 860 114.816 429.143 456.153
155 0 64.0728 12.8604 824 115.984 428.45 456.79
156 0 65.2021 11.3493 740 117.746 429.674 453.266
157 0 68.1792 12.9952 886 115.956 430.442 451.526
158 0 73.3009 16.1526 1184 110.09 431.084 452.163
159 0 75.1413 12.0839 908 115.305 431.013 450.149
160 0 77.1977 13.446 1038 112.967 431.999 450.153
161 0 81.3311 10.1683 827 119.323 431.914 441.144
162 1 43.086 10.421 449 115.606 433.757 468.579
163 0 44.0559 11.894 524 116.242 431.139 464.002
164 0 46.0351 9.9272 457 118.906 433.414 463.241
165 0 45.0864 8.1621 368 119.717 433.688 468.766
166 0 47.1032 16.2197 764 106.414 435.635 464.342
167 0 48.1299 11.4897 553 114.423 435.828 466.396
168 0 52.0834 11.1936 583 114.377 434.624 468.719
169 0 56.0722 13.6075 763 109.005 434.982 469.702
170 0 55.1013 12.232 674 113.773 435.475 466.898
171 0 56.2146 15.9567 897 109.799 435.041 466.159
172 0 64.9088 17.5015 1136 101.901 436.056 474.555
173 0 56.0936 11.8552 665 118.701 434.436 468.69
174 0 59.0758 11.4429 676 118.234 433.979 472.967
175 0 62.2206 12.1664 757 117.888 434.284 471.276
176 0 65.2088 13.3878 873 116.942 432.927 467.342
177 0 67.1014 12.8164 860 119.017 433.572 467.573
178 0 72.1781 16.9303 1222 112.381 432.579 467.202
179 0 69.0757 11.3788 786 124.107 431.545 466.802
180 0 76.5625 13.2702 1016 118.843 431.47 464.203
181 0 76.0867 14.26 1085 118.666 430.218 464.821
182 0 77.237 13.9311 1076 119.496 429.641 465.255
183 0 81.5259 15.4307 1258 118.75 428.662 458.881
184 0 84.4986 13.1837 1114 120.791 429.222 459.976
185 1 45.2433 13.9247 630 118.478 427.94 476.243
186 0 47.2169 12.665 598 119.39 426.804 475.634
187 0 45.0601 11.9618 539 118.781 427.759 474.121
188 0 48.261 12.4738 602 113.156 427.075 472.754
189 0 49.0668 13.1454 645 110.405 425.927 475.257
190 0 51.0651 14.6871 750 110.827 425.445 470.287
191 0 52.0592 11.1027 578 115.458 425.374 471.599
192 0 54.0437 14.0627 760 112.98 425.162 466.929
193 0 56.0274 15.9565 894 110.811 425.332 466.489
194 0 56.0789 11.1272 624 116.675 425.354 465.506
195 0 60.0831 14.0472 844 111.014 425.537 467.964
196 0 61.1037 13.878 848 112.856 425.571 465.013
197 0 65.208 14.7375 961 112.43 425.641 459.852
198 0 68.2113 16.7128 1140 117.092 426.818 456.161
199 0 69.2437 14.9328 1034 119.358 426.959 455.513
200 0 70.2021 13.6606 959 121.521 427.68 456.618
201 0 76.467 16.0723 1229 117.725 428.899 452.945
202 0 77.592 16.4579 1277 116.415 428.861 453.813
203 0 79.3769 15.1555 1203 119.093 429.305 449.121
204 1 42.1091 12.5151 527 116.812 429.672 466.419
205 0 44.0335 12.9674 571 115.403 430.361 468.963
206 0 46.0669 13.8929 640 115.189 431.716 465.658
207 0 44.1152 11.8553 523 116.929 431.291 471.113
208 0 46.0618 12.2444 564 115.261 432.512 471.972
209 0 47.0944 12.3794 583 119.223 432.835 467.938
210 0 50.0757 15.3368 768 114.572 433.914 466.943
211 0 52.1991 16.5328 863 111.08 432.608 469.949
212 0 53.0229 19.633 1041 107.722 432.674 470.963
213 0 56.0586 14.8059 830 113.199 433.296 473.151
214 0 55.4056 13.5907 753 118.801 432.71 469.07
215 0 57.0844 16.6245 949 114.527 433.021 468.654
216 0 59.0958 13.1143 775 119.741 433.117 472.265
217 0 62.0773 14.7397 915 117.999 431.932 469.427
218 0 62.096 11.9815 744 121.741 432.067 473.282
219 0 65.1011 20.2454 1318 110.364 432.546 468.797
220 0 68.3745 14.7423 1008 116.741 431.352 471.519
221 0 67.202 12.9758 872 122.022 430.339 468.361
222 0 69.2215 13.1607 911 122.81 430.795 464.312
223 0 76.4244 15.2046 1162 118.25 429.744 466.975
224 0 77.2636 14.4829 1119 122.506 429.213 463.727
225 0 79.3846 15.1289 1201 121.588 427.588 462.771
226 1 41.093 11.7781 484 122.804 426.116 482.213
227 0 42.1296 9.85055 415 122.822 426.328 482.904
228 0 45.0748 12.8231 578 117.652 424.438 480.498
229 0 44.1118 13.8738 612 112.977 423.908 477.997
230 0 48.064 17.5807 845 105.62 424.593 477.541
231 0 48.1055 12.1192 583 120.648 423.84 478.014
232 0 50.0907 13.256 664 118.542 423.133 474.654
233 0 53.231 12.5866 670 118.528 423.054 473.781
234 0 51.1703 12.4291 636 120.418 423.432 472.733
235 0 55.1036 13.2659 731 119.553 422.358 469.888
236 0 56.0776 13.1247 736 119.791 422.337 468.149
237 0 59.2151 14.1518 838 117.9 423.206 466.338
238 0 62.1942 12.9112 803 119.787 422.692 464.249
239 0 62.2076 13.5996 846 118.356 424.216 464.941
240 0 62.1164 11.9936 745 122.907 422.345 461.568
241 0 69.0588 17.2751 1193 113.874 424.388 458.732
242 0 68.1518 13.9688 952 120.95 424.664 459.442
243 0 70.2367 16.3163 1146 118.144 425.247 456.583
244 0 71.1089 14.738 1048 121.101 426.818 456.757
245 0 72.0763 13.5551 977 125.155 426.576 452.418
246 0 76.2087 14.5915 1112 123.733 428.821 451.491
247 0 79.2189 16.8015 1331 119.305 427.518 452.508
248 0 82.1942 16.1325 1326 118.608 428.49 450.174
249 0 84.2144 18.061 1521 116.741 429.98 447.299
250 0 89.2729 17.6425 1575 117.036 430.049 447.432
251 1 137.296 13.3434 1832 123.625 431.466 430.366
252 0 139.287 13.8779 1933 123.514 431.475 425.356
253 1 97.1503 14.2974 1389 123.06 432.166 444.192
254 1 49.1745 13.0759 643 118.826 430.163 467.351
255 0 54.1949 13.9127 754 117.374 429.247 466.154
256 0 52.1836 17.5342 915 109.426 432.506 470.809
257 0 52.0989 13.8775 723 116.481 432.021 469.459
258 0 53.0396 12.7263 675 118.843 432.052 471.876
259 0 57.1236 13.1644 752 118.735 431.9 470.975
260 0 61.3601 16.118 989 115.204 431.601 469.245
261 0 63.1521 13.4437 849 117.549 430.093 473.803
262 0 66.1251 13.8677 917 119.161 430.372 468.482
263 0 67.1127 14.7811 992 120.383 430.654 469.338
264 0 69.1436 14.9544 1034 120.695 429.128 466.099
265 0 73.1097 16.3316 1194 118.012 430.24 468.394
266 0 74.1682 14.8177 1099 121.521 428.902 465.514
267 0 77.1853 14.4069 1112 121.428 429.049 466.303
268 0 80.1989 17.893 1435 115.652 427.681 465.667
269 0 82.1225 13.6625 1122 123.254 427.605 460.924
270 0 85.1033 14.6058 1243 120.79 426.461 458.858
271 1 45.1134 12.5462 566 120.954 425.708 481.405
272 0 47.1698 13.3348 629 121.995 425.806 477.011
273 0 49.0446 13.2125 648 123.065 424.809 476.103
274 0 52.2439 15.6382 817 119.016 424.22 473.987
275 0 53.085 12.4329 660 123.955 423.811 473.95
276 0 56.1282 16.9077 949 116.456 422.87 470.881
277 0 55.1974 15.3087 845 120.831 423.704 468.508
278 0 57.0939 16.972 969 118.026 423.701 465.821
279 0 61.1296 15.1481 926 117.715 422.856 468.031
280 0 61.1448 12.5931 770 125.165 422.618 466.066
281 0 61.2117 16.8922 1034 120.888 422.287 462.256
282 0 68.1197 16.5591 1128 120.391 423.248 460.468
283 0 67.1371 14.7906 993 123.026 423.276 460.347
284 0 67.1403 13.3005 893 125.156 424.311 456.703
285 0 71.1131 14.259 1014 123.274 424.87 455.134
286 0 73.1985 14.3036 1047 125.753 425.703 451.897
287 0 76.1822 17.6025 1341 119.143 426.441 448.544
288 0 79.1662 15.1201 1197 127.256 426.993 446.921
289 0 80.2814 14.1751 1138 127.72 427.299 447.731
290 0 83.2669 14.7838 1231 127.734 429.19 444.283
291 0 87.2013 17.7406 1547 121.08 429.171 445.671
292 0 92.496 17.6224 1630 120.519 431.136 443.97
293 0 91.2013 13.2125 1205 126.217 431.995 443.128
294 0 97.4401 15.3941 1500 123.5 433.556 439.999
295 0 101.256 15.6633 1586 123.215 432.463 437.929
296 0 102.296 15.3379 1569 123.392 434.235 436.728
297 0 110.613 16.5983 1836 119.489 435.356 438.249
298 1 61.5889 11.0897 683 117.654 433.389 467.527
299 0 60.2847 13.8344 834 114.416 434.674 464.15
300 0 61.2774 16.1887 992 113.951 434.424 461.847
301 0 62.2541 13.0754 814 121.254 433.015 462.086
302 0 64.2134 12.6453 812 120.666 433.257 462.337
303 0 70.2054 16.9075 1187 112.315 433.495 462.676
304 0 71.2491 13.137 936 118.895 433.88 462.559
305 0 73.3164 15.6173 1145 114.504 433.052 460.08
306 0 74.3969 11.7075 871 122.176 432.643 460.755
307 0 79.3348 16.3737 1299 114.893 430.893 459.539
308 0 79.2266 14.1872 1124 118.671 431.624 459.899
309 0 82.2497 13.459 1107 120.023 430.616 455.605
310 0 86.3006 12.6303 1090 120.781 430.961 457.534
311 0 88.4942 13.9218 1232 118.162 430.037 451.493
312 0 93.2395 19.7127 1838 109.779 428.638 453.113
313 1 48.1879 10.3138 497 121.139 428.594 472.372
314 0 51.1505 10.909 558 119.039 428.396 471.548
315 0 51.1252 11.3838 582 119.034 427.722 467.995
316 0 59.1819 11.7435 695 117.331 427.345 466.422
317 0 57.3899 14.8807 854 108.838 426.77 466.41
318 0 58.0985 13.5632 788 115.016 425.681 466.415
319 0 59.2231 16.2943 965 111.232 424.782 463.612
320 0 62.1519 13.7405 854 114.561 424.619 462.765
321 0 67.1002 16.1997 1087 110.772 426.294 462.238
322 0 66.1622 12.8472 850 117.564 426.848 459.842
323 0 69.2105 13.8563 959 115.643 427.097 458.527
324 0 72.3011 14.9928 1084 114.304 426.437 455.513
325 0 75.1151 15.0436 1130 115.381 426.067 453.044
326 0 76.1243 15.1463 1153 115.78 426.431 449.913
327 0 79.3141 15.3188 1215 116.137 427.325 448.8
328 0 81.1041 14.7588 1197 116.804 427.531 447.721
329 0 86.4267 15.6202 1350 116.228 428.621 443.035
330 0 87.1255 12.6025 1098 120.884 428.51 445.184
331 0 90.1311 15.2999 1379 115.129 429.639 445.953
332 0 91.3676 16.1983 1480 115.158 429.534 439.578
333 0 92.2902 14.5194 1340 118.465 430.098 437.176
334 1 46.3568 11.7566 545 111.422 431.072 463.099
335 0 49.0238 12.8305 629 109.219 431.572 462.881
336 0 52.0835 12.5568 654 107.271 431.446 462.058
337 0 54.541 13.6045 742 105.991 430.912 464.218
338 0 53.0858 14.6179 776 105.326 432.545 461.735
339 0 55.1156 13.6259 751 106.278 433.418 461.043
340 0 54.0716 11.7807 637 107.086 433.13 465.802
341 0 57.214 14.2622 816 106.164 435.127 462.305
342 0 58.2822 13.3831 780 108.29 434.891 461.719
343 0 62.2278 11.4418 712 110.14 434.353 459.212
344 0 65.199 12.9757 846 108.009 436.706 459.587
345 0 70.9624 13.8947 986 105.009 435.83 462.583
346 0 67.1104 12.0995 812 109.119 435 461.611
347 0 72.0597 13.1974 951 108.586 435.95 459.906
348 0 72.1441 13.5146 975 109.121 434.6 459.921
349 0 74.1955 14.4888 1075 109.484 435.195 458.568
350 0 76.1517 13.8671 1056 110.667 434.215 462.126
351 0 78.2006 14.7186 1151 112.022 433.86 458.647
352 0 80.4939 14.6222 1177 115.005 432.984 456.625
353 0 82.6792 14.7679 1221 116.164 432.453 454.79
354 0 85.4508 12.6974 1085 117.484 432.17 455.709
355 0 88.4234 10.6081 938 116.208 430.344 460.557
356 0 90.6946 11.3237 1027 119.171 431.191 450.748
357 1 48.2107 13.5032 651 112.336 429.942 470.556
358 0 50.2752 11.8548 596 113.104 429.471 473.151
359 0 52.2599 12.6866 663 115.069 429.056 470.149
360 0 55.2494 14.7151 813 112.91 427.531 466.966
361 0 57.0825 13.6469 779 113.358 430.208 467.134
362 0 60.2628 14.1713 854 112.247 430.307 466.245
363 0 63.131 14.3194 904 112.368 429.704 463.787
364 0 64.1161 14.3178 918 112.865 429.103 460.352
365 0 66.1363 14.0014 926 113.184 429.143 461.134
366 0 68.1685 16.8406 1148 109.634 429.314 457.099
367 0 71.1489 17.8921 1273 108.833 429.235 454.11
368 0 72.2125 14.5958 1054 114.868 428.874 454.481
369 0 76.133 14.7768 1125 113.899 429.06 452.522
370 0 75.1 12.5433 942 119.111 429.837 446.399
371 0 78.167 14.8656 1162 114.572 430.707 449.366
372 0 82.2801 15.9455 1312 113.6 430.027 443.877
373 0 85.1579 13.5513 1154 117.176 430.947 442.347
374 0 92.4028 17.1856 1588 110.332 431.876 442.715
375 0 92.1297 17.6599 1627 110.624 432.144 442.763
376 0 94.1339 20.354 1916 107.797 432.004 438.079
377 0 98.2027 17.3824 1707 111.241 431.89 437.754
378 1 58.8148 13.177 775 110.857 433.587 455.312
379 0 51.1632 10.7108 548 119.861 435.111 449.849
380 0 56.2842 13.5917 765 115.293 434.634 454.025
381 0 58.0921 14.3737 835 114.646 435.998 456.602
382 0 61.0955 15.9423 974 111.016 437.139 456.646
383 0 61.0902 11.7531 718 116.058 438.053 457.953
384 0 68.5432 13.5389 928 113.406 437.815 455.708
385 0 68.1054 12.3925 844 115.809 437.118 455.751
386 0 69.1607 13.0855 905 115.169 438.243 456.49
387 0 75.3575 16.8663 1271 107.108 438.673 459.965
388 0 74.3915 14.343 1067 111.879 439.268 458.623
389 0 76.351 13.6082 1039 115.033 438.722 453.782
390 0 82.365 19.9356 1642 105.831 437.814 454.738
391 0 84.2393 13.1411 1107 114.712 438.605 455.674
392 0 86.2328 16.4323 1417 110.907 437.414 455.132
393 0 92.9199 18.5644 1725 107.763 436.639 455.852
394 1 44.2665 11.4082 505 113.719 435.053 476.758
395 0 48.3969 15.4349 747 104.083 433.672 477.478
396 0 49.5661 14.4252 715 110.35 434.385 475.347
397 0 48.3461 12.7828 618 114.019 434.361 477.553
398 0 49.3422 17.328 855 107.294 432.818 476.904
399 0 50.4136 9.69977 489 119.74 430.697 477.898
400 0 51.3281 14.2028 729 115.03 430.417 472.695
401 0 53.2783 14.4149 768 113.322 430.434 474.451
402 0 53.1286 12.4415 661 115.05 430.132 473.107
403 0 55.2659 14.1498 782 114.029 429.18 471.189
404 0 56.1516 13.4814 757 115.676 429.07 471.275
405 0 58.0279 15.2858 887 113.256 428.172 467.917
406 0 64.1252 13.536 868 115.698 428.733 466.682
407 0 63.2958 12.955 820 117.112 427.985 464.254
408 0 68.1643 15.0959 1029 112.727 428.59 464.014
409 0 71.0558 16.9163 1202 113.306 428.085 461.635
410 0 73.1909 14.0045 1025 118.275 428.545 458.861
411 0 70.17 12.6122 885 124.095 427.859 453.74
412 0 76.2164 15.4166 1175 118.715 427.38 450.094
413 0 78.2847 14.7538 1155 119.955 428.448 447.703
414 1 41.0924 11.5593 475 120.276 429.547 469.625
415 0 43.0639 10.9605 472 119.661 429.583 468.028
416 0 43.0639 10.8676 468 152.966 429.568 468.011
417 0 45.0736 13.3337 601 115.346 430.566 462.715
418 0 47.1093 12.5665 592 119.392 431.718 464.047
419 0 48.0927 13.4948 649 117.715 433.262 460.213
420 0 50.1391 12.4254 623 119.551 433.273 462.474
421 0 54.2024 16.4015 889 109.051 433.196 464.917
422 0 56.1697 14.741 828 114.965 434.626 460.285
423 0 53.0826 14.0724 747 117.249 435.572 459.671
424 0 53.0826 13.9782 742 141.687 437.565 459.528
425 0 61.1388 15.2931 935 115.243 435.81 456.419
426 0 62.179 11.3543 706 122.237 437.909 458.452
427 0 65.1797 15.5263 1012 114.675 438.216 458.394
428 0 67.104 14.1124 947 117.759 437.722 457.923
429 0 66.1474 15.3294 1014 116.987 437.767 456.096
430 0 68.1521 13.6753 932 119.935 438.35 454.707
431 0 72.5308 13.6632 991 118.072 438.181 457.699
432 0 73.1548 12.7128 930 119.752 437.815 459.154
433 1 43.0967 14.2238 613 112.675 438.207 475.732
434 0 39.0612 10.9828 429 122.263 438.233 474.732
435 0 45.1187 13.3869 604 115.684 437.078 474.175
436 0 46.0541 14.5916 672 115.19 437.359 475.588
437 0 47.1951 14.5778 688 115.403 436.554 475.379
438 0 48.0956 15.0118 722 115.601 436.042 473.799
439 0 45.0703 12.3807 558 115.238 435.652 478.928
440 0 47.0863 11.8081 556 116.558 434.676 478.196
441 0 50.2314 14.7916 743 109.808 434.435 478.026
442 0 52.2136 12.9277 675 114.227 433.711 473.293
443 0 52.2099 11.2048 585 117.036 432.868 475.713
444 0 55.0714 15.5979 859 111.204 431.669 473.478
445 0 56.1121 12.9562 727 114.25 432.575 473.572
446 0 60.2172 23.9965 1445 98.2021 431.307 474.188
447 0 60.154 14.0805 847 111.656 430.71 470.15
448 0 63.2136 14.4589 914 110.408 430.28 468.453
449 0 66.1265 14.1849 938 113.163 429.955 464.954
450 0 65.0896 11.6301 757 117.443 430.425 464.089
451 0 70.3437 15.7797 1110 109.91 429.638 462.005
452 0 70.1281 11.1082 779 116.128 428.883 463.077
453 0 77.1037 14.9928 1156 110.273 428.147 455.369
454 0 78.3905 18.3823 1441 103.899 428.713 461.554
455 0 78.2439 11.707 916 114.489 428.253 454.787
456 0 85.1809 14.1346 1204 112.169 428.082 448.456
457 0 86.151 15.5425 1339 108.691 428.8 453.628
458 0 90.1421 14.1776 1278 112.22 428.754 447.09
459 0 94.2003 15.7006 1479 109.14 429.382 447.753
460 0 95.1691 12.462 1186 114.78 429.557 445.758
461 0 98.3448 13.0154 1280 114.353 430.223 441.124
462 0 103.205 14.5827 1505 111.753 430.466 440.817
463 0 104.335 10.9838 1146 115.953 429.599 442.039
464 1 57.0759 12.2118 697 134.121 429.034 461.076
465 0 60.1232 14.6033 878 114.474 432.893 459.372
466 0 62.111 13.009 808 117.087 432.829 460.243
467 0 65.2052 14.2627 930 114.61 433.425 458.397
468 0 67.0747 12.9706 870 115.777 434.103 459.24
469 0 72.1737 16.4326 1186 110.261 434.745 454.031
470 1 134.645 14.891 2005 113.369 434.087 426.052
471 0 136.556 18.6078 2541 107.255 435.047 432.057
472 1 75.075 10.6294 798 118.145 436.296 457.415
473 0 77.2055 12.3048 950 116.297 435.704 455.425
474 0 82.4128 13.7721 1135 113.136 435.113 455.523
475 0 86.5006 11.7109 1013 114.626 435.983 452.365
476 0 88.2487 13.2353 1168 113.718 434.347 453.349
477 0 92.3054 13.8453 1278 111.121 434.383 454.082
478 0 96.4498 13.8725 1338 109.492 433.537 454.2
479 1 50.4351 12.9473 653 107.147 431.925 478.827
480 0 52.3177 14.4884 758 106.438 431.773 477.728
481 0 55.5599 14.0209 779 106.203 430.727 480.687
482 0 55.256 12.7226 703 108.982 429.922 481.748
483 0 57.6476 16.3754 944 104.878 429.179 478.066
484 0 59.3873 15.6599 930 104.59 428.155 480.615
485 0 59.2162 12.885 763 110.993 427.649 475.788
486 0 61.2251 15.1082 925 104.583 427.178 477.81
487 0 63.1754 11.9192 753 109.819 427.432 475.469
488 0 65.1279 17.719 1154 101.2 427.309 474.685
489 0 65.1767 12.6426 824 109.862 426.152 471.334
490 0 71.4507 15.4652 1105 103.323 424.913 475.07
491 0 69.2165 12.3237 853 110.383 425.834 469.653
492 0 72.4814 11.7685 853 110.98 424.93 466.414
493 0 73.125 11.9248 872 110.778 424.835 467.209
494 0 81.8574 14.1343 1157 108.4 423.938 465.554
495 0 84.0245 17.7924 1495 104.262 423.325 462.644
496 0 86.1604 14.5426 1253 108.582 422.603 459.049
497 0 84.0255 11.794 991 112.586 422.486 455.675
498 0 87.8893 14.9961 1318 109.696 421.396 450.692
499 0 94.5326 15.6771 1482 107.016 421.193 451.209
500 1 49.8662 11.2702 562 107.73 422.753 469.068
501 0 56.6915 14.3231 812 101.43 422.917 468.374
502 0 51.9267 11.6318 604 105.513 423.503 465.132
503 0 53.9623 11.9157 643 104.911 423.86 465.533
504 0 57.4189 15.5698 894 105.182 425.683 466.225
505 0 53.2356 12.0596 642 109.961 425.718 462.961
506 0 57.3661 14.5033 832 107.059 427.123 462.352
507 0 58.3007 15.5744 908 106.493 427.524 459.949
508 0 57.4637 12.8603 739 110.927 428.06 462.3
509 0 60.694 14.0376 852 109.88 428.115 460.196
510 0 56.5872 11.6104 657 114.689 428.68 456.061
511 0 65.5025 14.7933 969 108.398 429.446 455.098
512 0 63.6591 12.9911 827 112.692 430.074 453.108
513 0 69.542 14.0922 980 109.403 431.096 455.63
514 0 68.7694 11.4295 786 115.985 430.902 455.327
515 0 75.5105 13.2962 1004 111.372 430.426 456.755
516 0 75.589 11.9726 905 115.141 432.155 454.567
517 0 78.69 20.3075 1598 102.452 431.704 457.881
518 0 82.7903 19.3139 1599 104.902 432.8 454.734
519 0 85.6418 13.9768 1197 112.594 432.703 453.945
520 0 89.924 14.6902 1321 112.781 432.195 454.169
521 0 93.2037 14.7419 1374 109.763 431.613 459.747
522 1 52.5773 10.0614 529 111.552 430.584 478.233
523 0 56.7871 13.3657 759 101.96 429.929 480.235
524 0 55.4282 13.098 726 105.93 429.051 476.309
525 0 57.3298 14.7742 847 101.766 429.704 481.391
526 0 57.1805 12.2419 700 108.381 429.12 476.984
527 0 61.228 14.4378 884 106.499 428.262 476.193
528 0 59.1305 11.9228 705 111.362 426.296 474.387
529 0 62.2516 12.6422 787 110.136 426.018 470.71
530 0 65.1866 17.8718 1165 102.825 424.45 473.816
531 0 68.2464 14.8726 1015 108.187 422.154 467.639
532 0 70.4288 14.1703 998 108.914 422.337 469.317
533 0 71.2562 12.7708 910 110.953 421.451 462.675
534 0 75.2047 12.7253 957 110.186 420.782 465.566
535 0 76.3148 12.1077 924 115.515 421.341 462.46
536 0 79.1884 13.2848 1052 112.338 420.779 461.99
537 0 81.2517 14.412 1171 111.177 420.788 459.071
538 0 87.261 16.2845 1421 105.761 421.028 462.018
539 1 44.0528 14.4372 636 105.115 420.294 476.596
540 0 47.0554 12.1984 574 106.207 421.162 478.354
541 0 48.1276 11.0539 532 105.053 418.957 477.019
542 0 48.1964 14.4409 696 101.386 419.059 472.359
543 0 51.2504 12.2145 626 102.874 422.487 468.225
544 0 51.0883 13.1146 670 102.027 423.837 471.082
545 0 50.1441 13.9797 701 102.163 423.512 471.456
546 0 53.428 14.4493 772 99.6399 424.554 466.566
547 0 54.1204 17.4426 944 96.6409 423.666 465.847
548 0 59.1339 12.7338 753 100.965 424.845 466.434
549 0 57.1258 17.7153 1012 97.4061 425.739 461.545
550 0 59.1073 12.6719 749 102.515 425.804 462.235
551 0 61.1995 13.5295 828 100.854 427.657 463.429
552 0 62.0653 13.0669 811 104.862 427.719 458.787
553 0 68.159 17.1217 1167 96.6067 426.978 466.277
554 0 67.3441 20.5215 1382 93.9964 427.436 466.245
555 0 68.2015 16.246 1108 101.613 428.328 457.324
556 0 71.3609 13.0043 928 105.24 430.377 454.309
557 0 73.2717 14.9444 1095 102.206 431.268 456.732
558 0 75.3314 14.1375 1065 102.901 431.761 455.024
559 0 77.3563 15.7453 1218 99.5961 430.421 463.054
560 0 79.3396 19.7884 1570 97.6 431.12 456.048
561 0 82.4345 18.1235 1494 98.6372 431.73 460.202
562 0 86.3147 15.2349 1315 101.573 431.706 457.249
563 0 86.3653 23.2385 2007 93.0927 431.549 463.592
564 0 88.3638 15.0627 1331 102.299 431.611 453.616
565 0 91.5589 11.6319 1065 104.835 431.234 456.161
566 1 52.3835 14.2411 746 97.4558 429.83 479.961
567 0 53.7425 8.74541 470 103.826 429.481 474.657
568 0 52.6352 11.0382 581 103.721 429.962 474.028
569 0 55.5011 10.6484 591 102.922 428.704 475.983
570 0 57.4696 16.0781 924 97.7035 428.924 473.434
571 0 60.6163 13.9566 846 99.4031 427.299 474.909
572 0 62.4066 11.8096 737 102.772 427.369 474.739
573 0 65.4992 15.6185 1023 98.6149 426.988 470.603
574 0 66.5472 12.3221 820 102.749 425.685 471.559
575 0 69.4499 12.8438 892 102.447 425.807 470.075
576 0 71.4607 16.8624 1205 98.6946 424.478 468.6
577 0 74.5004 12.3087 917 104.4 424.93 462.973
578 0 75.4189 16.0172 1208 100.387 425.503 463.211
579 0 74.2729 11.8213 878 106.73 424.825 457.591
580 0 80.2704 12.3956 995 105.432 424.791 459.482
581 0 81.4318 10.8926 887 108.245 423.766 456.455
582 0 87.141 12.8298 1118 105.725 423.62 455.763
583 0 90.1854 16.4661 1485 101.525 423.962 450.16
584 0 93.2979 16.5706 1546 100.928 425.248 451.976
585 0 97.2711 15.1432 1473 103.308 425.563 446.616
586 1 46.1443 7.43321 343 107.933 424.519 469.907
587 0 53.1081 10.1868 541 102.706 427.213 469.421
588 0 54.2008 10.5533 572 102.348 427.364 462.08
589 0 59.4033 17.5748 1044 94.25 427.717 467.417
590 0 60.1822 11.5483 695 102.324 428.142 463.85
591 0 58.1925 10.9808 639 104.408 428.48 463.28
592 0 62.1617 15.5401 966 98.9617 429.039 461.145
593 0 63.2046 12.8313 811 102.258 428.889 461.543
594 0 64.1121 15.3325 983 100.165 430.228 457.874
595 0 69.2419 16.5073 1143 98.9738 430.947 455.389
596 0 69.2028 14.9849 1037 101.161 431.218 457.301
597 0 73.081 13.3824 978 103.927 433.28 457.331
598 0 74.1139 11.9276 884 105.391 433.864 457.523
599 0 79.169 12.8965 1021 104.825 433.222 451.601
600 0 75.2719 10.6281 800 108.581 434.124 451.941
601 0 88.0117 12.3734 1089 102.665 435.298 460.331
602 0 86.2527 16.985 1465 99.6485 434.904 451.977
603 0 91.2456 16.5268 1508 100.871 434.475 450.757
604 0 91.3631 12.5652 1148 106.916 434.581 447.99
605 0 94.5213 14.5047 1371 103.894 434.46 455.53
606 0 99.2496 12.262 1217 106.463 433.924 454.551
607 0 103.33 16.2489 1679 100.584 432.829 456.316
608 0 105.24 14.2531 1500 105.219 433.442 451.408
609 0 106.734 11.9081 1271 107.241 431.485 448.902
610 0 107.218 10.8004 1158 109.415 431.024 448.352
611 1 59.0541 13.4622 795 98.0302 429.615 479.493
612 0 63.1866 14.6392 925 98.2173 429.869 474.465
613 0 65.19 11.2747 735 102.739 427.996 475.81
614 0 66.2068 12.2344 810 103.801 428.016 471.933
615 0 71.2885 14.28 1018 101.313 427.123 472.172
616 0 71.2791 10.8728 775 105.782 426.93 473.151
617 0 74.234 15.4377 1146 100.716 425.988 469.02
618 0 77.557 13.2161 1025 104.148 425.769 462.168
619 0 77.2365 11.8079 912 106.034 424.307 464.812
620 0 80.208 9.5003 762 108.648 424.385 464.238
621 0 86.3097 12.5826 1086 104.657 424.083 459.46
622 0 88.2365 15.2771 1348 102.501 423.18 459.266
623 1 46.0783 12.1749 561 108.15 426.225 476.087
624 0 46.1025 12.3204 568 109.331 425.91 474.912
625 0 50.0753 15.5765 780 101.335 425.356 477.656
626 0 50.1056 13.4715 675 107.55 425.067 472.545
627 0 52.0529 13.8897 723 106.254 426.326 468.834
628 0 51.1277 12.1265 620 109.565 426.829 471.294
629 0 56.0833 13.266 744 106.351 425.621 468.601
630 0 58.1204 12.3365 717 106.927 427.297 468.105
631 0 58.1359 17.7343 1031 100.909 427.516 463.217
632 0 60.22 15.8751 956 104.282 428.945 458.949
633 0 59.188 13.4825 798 108.081 427.813 463.148
634 0 64.1013 14.4927 929 105.912 429.209 459.503
635 0 68.2932 13.237 904 106.441 428.939 455.696
636 0 75.4685 21.1214 1594 96.0389 429.654 457.164
637 0 73.2012 15.9697 1169 102.706 429.561 458.782
638 0 72.2488 13.8549 1001 107.342 429.892 460.157
639 0 78.1667 15.4669 1209 104.294 430.154 456.941
640 0 78.0671 15.6916 1225 104.186 431.515 456.164
641 0 78.0671 15.5635 1215 130.934 433.524 456.1
642 0 87.1167 13.3269 1161 106.379 432.974 454.73
643 0 88.2068 13.3096 1174 107.216 432.844 448.204
644 0 89.2719 12.1315 1083 108.175 432.913 454.18
645 1 43.061 10.6593 459 108.388 431.617 472.584
646 0 49.1459 10.9877 540 105.667 430.107 476.069
647 0 50.161 12.4001 622 103.162 433.518 472.023
648 0 51.138 9.85568 504 104.304 433.929 473.857
649 0 54.1375 14.6664 794 96.4484 433.325 479.901
650 0 53.2384 15.7405 838 96.6742 432.99 477.268
651 0 55.2497 14.9503 826 96.7724 431.897 474.329
652 0 56.0801 12.1612 682 101.545 432.921 477.767
653 0 58.4409 11.7212 685 101.174 431.657 479.549
654 0 61.1786 17.784 1088 95.0092 432.144 475.11
655 0 62.2278 10.799 672 103.798 431.263 475.735
656 0 62.211 11.4931 715 104.059 431.338 474.287
657 0 66.1677 11.3348 750 104.559 431.332 471.831
658 0 68.2422 11.0635 755 105.381 430.197 472.077
659 0 70.1725 11.8708 833 104.792 430.558 474.363
660 0 75.7937 16.6768 1264 98.462 427.956 469.741
661 0 71.3191 13.6008 970 103.841 427.947 468.963
662 0 77.3254 13.3462 1032 105.732 427.008 465.354
663 0 79.3125 15.6974 1245 99.9606 427.049 473.169
664 0 82.1981 10.9248 898 110.185 426.108 464.355
665 0 84.3241 25.0581 2113 93.5144 425.186 463.348
666 0 88.4374 17.1195 1514 101.308 425.482 461.115
667 1 46.2318 12.5887 582 109.395 425.486 475.332
668 0 49.3872 13.8295 683 107.116 424.537 474.567
669 0 51.7024 11.7209 606 110.178 424.743 471.356
670 0 53.8201 15.1802 817 100.873 424.328 470.19
671 0 52.0497 8.89534 463 103.834 422.914 475.54
672 0 57.5064 13.8246 795 95.4881 423.616 476.975
673 0 60.7865 12.1079 736 100.5 424.141 471.234
674 0 56.1675 15.1689 852 98.7289 424.352 471.082
675 0 57.0894 11.3506 648 105.219 425.69 463.998
676 0 61.1989 15.6212 956 100.136 426.172 463.902
677 0 62.0996 16.1837 1005 99.803 426.843 462.454
678 0 64.1262 14.4559 927 101.73 426.66 464.672
679 0 64.163 12.5618 806 105.333 427.8 465.542
680 0 67.1732 14.4552 971 102.44 427.849 466.895
681 0 69.1937 19.5538 1353 98.221 429.796 462.752
682 0 72.1401 14.056 1014 106.108 430.484 458.87
683 0 74.2017 13.7059 1017 105.151 430.002 461.826
684 0 78.343 15.5215 1216 103.683 431.34 456.829
685 0 75.1734 12.9035 970 107.369 431.904 462.249
686 0 81.1489 14.8369 1204 106.862 431.911 454.692
687 0 83.2287 15.7157 1308 105.716 433.716 457.036
688 0 88.1574 15.1661 1337 106.316 433.614 460.044
689 0 87.3528 12.0431 1052 111.233 433.842 461.349
690 0 90.2371 13.8856 1253 110.462 433.509 457.144
691 0 93.2438 11.5289 1075 114.662 432.69 455.906
692 1 55.8383 12.2496 684 107.17 434.114 480.896
693 0 51.0703 12.6492 646 110.175 432.875 478.759
694 0 54.072 12.0765 653 113.006 433.516 476.352
695 0 57.3556 10.8098 620 113.079 429.956 479.702
696 0 57.3556 10.7226 615 138.442 428.938 479.685
697 0 59.5314 11.221 668 113.937 429.542 477.213
698 0 61.4575 12.952 796 111.079 429.93 478.641
699 0 62.354 13.3432 832 111.815 428.565 473.329
700 0 63.3651 9.56363 606 116.142 428.132 475.272
701 0 64.17 10.5033 674 111.2 428.402 474.763
702 0 68.1559 10.7107 730 108.868 425.988 474.916
703 0 70.1325 10.8652 762 108.71 425.898 477.022
704 0 73.1581 10.4158 762 109.812 425.104 470.37
705 0 71.1062 10.0132 712 111.315 424.166 465.389
706 0 78.0878 13.8434 1081 105.907 424.334 466.377
707 0 80.1046 13.5323 1084 106.042 424.671 464.835
708 0 78.2603 8.95728 701 111.856 423.748 462.961
709 0 82.1304 13.2107 1085 106.28 423.584 465.993
710 0 89.2044 13.0263 1162 106.418 424.145 462.628
711 0 90.2505 12.8753 1162 108.694 424.172 450.856
712 0 93.1195 9.22471 859 111.357 424.012 462.81
713 0 97.4104 12.1753 1186 109.309 422.037 448.449
714 0 99.4469 8.57744 853 114.532 423.889 447.771
715 0 104.434 15.0718 1574 103.307 423.063 451.247
716 0 105.302 13.0957 1379 109.405 424.672 445.825
717 0 110.433 12.1884 1346 109.917 423.943 443.356
718 1 56.0679 13.234 742 110.611 423.643 463.133
719 0 60.2048 11.8595 714 111.853 423.101 465.987
720 0 62.241 14.8937 927 107.72 425.125 463.203
721 0 64.2001 13.4268 862 111.723 425.706 461.964
722 0 66.0517 12.5205 827 113.415 426.345 461.64
723 0 68.1685 11.6769 796 114.202 426.102 458.062
724 0 70.1655 12.5275 879 113.249 427.336 458.341
725 0 75.134 14.1747 1065 109.835 427.911 459.768
726 0 74.3842 15.9846 1189 109.194 429.5 456.627
727 0 77.4538 14.1891 1099 111.781 430.414 456.425
728 0 77.3342 11.7154 906 116.317 430.659 460.254
729 0 79.3487 11.5314 915 118.297 431.067 455.931
730 0 85.4046 12.4466 1063 115.527 431.798 459.101
731 0 87.2935 13.6093 1188 114.813 431.657 455.022
732 0 92.5186 13.3703 1237 115.222 431.074 456.078
733 0 92.5213 12.7214 1177 115.085 431.615 460.434
734 0 95.2512 12.3463 1176 118.758 431.714 456.628
735 0 99.2375 13.4123 1331 117.502 432.137 452.981
736 0 101.331 15.1187 1532 114.711 432.355 449.595
737 0 103.146 11.2365 1159 117.917 431.939 453.342
738 1 54.1598 11.1891 606 119.219 429.69 474.847
739 0 52.0645 9.373 488 116.713 428.861 469.693
740 0 55.1086 9.30889 513 115.517 430.71 477.023
741 0 59.1435 11.9878 709 111.573 428.556 476.286
742 0 66.1818 13.4931 893 109.067 429.1 473.301
743 0 66.0861 13.1949 872 110.116 427.501 471.241
744 0 68.1371 12.5336 854 111.235 426.514 472.164
745 0 67.2721 12.5163 842 112.343 427.074 467.905
746 0 73.2173 15.6111 1143 107.517 426.647 469.749
747 0 76.3521 16.4632 1257 106.733 425.682 464.869
748 0 80.2289 15.5929 1251 108.571 426.252 466.061
749 0 82.4773 17.132 1413 108.258 425.377 464.637
750 0 82.1877 13.4813 1108 115.63 425.855 461.09
751 0 85.2879 15.2894 1304 111.495 424.909 457.541
752 0 91.1662 20.523 1871 103.697 424.18 458.999
753 1 49.0684 10.9032 535 117.879 423.445 476.211
754 0 47.0698 10.9837 517 118.542 424.294 477.203
755 0 50.1203 13.3479 669 115.673 426.058 473.688
756 0 52.0995 16.219 845 109.966 427.52 472.625
757 0 52.1364 12.9084 673 118.095 427.288 469.952
758 0 55.0339 12.1743 670 119.74 428.121 467.779
759 0 60.3227 16.6107 1002 109.358 429.325 468.166
760 0 58.1188 14.522 844 113.751 429.263 470.21
761 0 61.2751 14.6226 896 115.489 430.279 464.643
762 0 62.1824 14.6344 910 115.505 430.26 464.82
763 0 63.0653 14.9686 944 116.112 431.293 461.688
764 0 68.5618 15.8543 1087 112.557 431.719 461.851
765 0 67.0803 14.013 940 118 432.007 462.03
766 0 67.0449 13.2598 889 121.322 432.046 459.778
767 0 71.086 14.6442 1041 118.352 432.019 458.159
768 0 76.1138 13.9134 1059 118.006 433.432 459.697
769 0 79.1031 16.5354 1308 114.537 434.119 457.534
770 0 80.1619 16.4293 1317 115.237 434.333 456.432
771 0 82.0717 13.5979 1116 119.964 434.823 453.436
772 1 43.0653 8.66126 373 121.091 433.306 479.421
773 0 44.1564 11.7537 519 117.79 432.911 476.166
774 0 45.0565 13.25 597 110.625 433.025 475.893
775 0 48.0628 11.7346 564 114.617 434.089 473.562
776 0 48.0694 15.2696 734 109.049 433.496 474.409
777 0 52.1686 14.664 765 108.533 432.512 475.358
778 0 52.145 11.8899 620 113.723 431.539 476.732
779 0 53.0696 13.3975 711 112.827 430.352 475.762
780 0 55.3643 13.5466 750 112.723 430.483 476.084
781 0 60.3419 13.1749 795 112.971 430.752 477.738
782 0 61.1092 14.155 865 113.206 430.053 475.661
783 0 61.1102 16.1675 988 114.447 429.689 477.952
784 0 63.1245 14.0833 889 119.973 429.186 475.352
785 0 65.1667 13.6266 888 121.587 428.74 474.983
786 0 65.1224 12.561 818 125.249 427.644 473.18
787 0 70.2417 16.8418 1183 116.645 429.014 469.434
788 0 71.1795 14.6531 1043 120.299 427.181 471.696
789 0 73.0984 13.1056 958 124.928 426.916 468.456
790 0 78.3568 14.1277 1107 121.612 425.983 466.128
791 0 78.217 11.532 902 128.749 426.602 463.456
792 1 43.1479 10.4988 453 125.667 425.258 480.865
793 0 45.1382 13.8021 623 119.504 426.339 481.398
794 0 45.1356 13.9579 630 119.589 425.144 479.194
795 0 45.2176 14.3749 650 117.517 424.492 476.625
796 0 46.1168 13.6826 631 116.979 424.677 476.455
797 0 47.209 14.8489 701 115.344 425.505 472.912
798 0 47.3312 13.7119 649 117.624 425.37 469.401
799 0 50.1572 12.9792 651 118.771 425.942 470.854
800 0 51.2215 14.408 738 117.191 425.314 468.198
801 0 52.2887 12.2971 643 121.149 426.868 465.142
802 0 54.2142 12.0079 651 121.608 425.556 464.725
803 0 57.3307 13.3436 765 123.482 425.864 463.525
804 0 58.515 13.3641 782 125.855 426.822 463.854
805 0 61.3424 14.9489 917 120.583 427.793 464.772
806 0 63.6399 14.1264 899 122.755 427.764 460.933
807 0 60.5886 11.8504 718 129.923 428.118 458.171
808 0 64.4445 12.9879 837 126.695 430.516 456.405
809 0 67.5565 11.6199 785 127.532 430.47 458.636
810 0 70.5023 12.4961 881 126.301 431.194 456.716
811 0 74.4086 15.603 1161 120.202 432.745 454.401
812 0 74.5625 12.8617 959 125.876 431.914 453.056
813 0 78.3935 13.9425 1093 122.793 432.349 452.521
814 0 79.622 12.9487 1031 124.044 432.994 455.541
815 0 83.3251 13.4653 1122 122.649 432.894 454.307
816 0 87.2805 15.1924 1326 119.722 433.646 451.874
817 0 87.4265 14.3664 1256 121.956 432.801 454.361
818 0 90.6165 12.0729 1094 125.612 432.714 454.478
819 0 95.2742 14.6629 1397 121.014 433.052 451.278
820 1 48.0506 10.5306 506 120.644 432.769 475.893
821 0 51.0952 10.5098 537 120.713 434.182 473.655
822 0 50.3841 13.1391 662 119.947 431.841 474.772
823 0 53.0959 11.8842 631 120.83 431.235 474.735
824 0 56.1799 12.7626 717 118.801 431.656 475.895
825 0 60.3625 20.2609 1223 106.766 431.113 475.271
826 0 58.2132 13.6911 797 118.496 431.645 475.138
827 0 60.2237 14.3299 863 118.293 430.4 472.015
828 0 66.5553 16.6628 1109 112.769 430.454 471.526
829 0 64.3993 13.9132 896 120.051 428.452 469.086
830 0 68.2777 14.9536 1021 116.381 429.438 471.569
831 0 70.3976 16.0659 1131 116.026 428.547 464.793
832 0 73.5416 12.3196 906 121.966 428.066 466.591
833 0 74.4382 12.8026 953 121.456 427.333 463.913
834 0 76.9574 14.1507 1089 118.525 427.14 459.467
835 0 79.5298 13.8187 1099 116.01 427.213 457.602
836 0 84.3797 13.7592 1161 113.317 428.21 459.761
837 0 84.3535 14.5696 1229 113.606 428.323 453.758
838 0 88.5037 13.5136 1196 115.184 427.963 449.238
839 0 91.5709 12.9626 1187 114.795 427.174 452.012
840 0 96.4194 13.8561 1336 112.207 427.192 445.642
841 0 97.5041 11.7944 1150 114.76 428.215 444.16
842 0 103.368 15.0531 1556 111.337 427.558 442.434
843 1 58.2266 12.5716 732 109.339 427.363 465.93
844 0 59.1276 12.9381 765 110.252 427.055 462.192
845 0 58.0571 10.6447 618 115.99 427.225 458.961
846 0 61.2172 11.1243 681 114.649 426.467 460.652
847 0 66.4384 14.0882 936 110.637 427.455 458.894
848 0 68.1228 10.2756 700 114.423 428.95 459.719
849 0 69.0823 13.5635 937 111.195 428.982 454.281
850 0 73.1357 13.7689 1007 110.484 430.566 453.526
851 0 72.154 12.1407 876 116.223 430.689 452.354
852 0 75.1161 9.66504 726 119.072 431.989 454.431
853 0 80.2714 14.0897 1131 112.385 431.052 451.322
854 0 82.3673 13.0149 1072 113.501 433.312 452.45
855 0 86.2722 14.0601 1213 112.19 432.528 449.69
856 0 83.3379 7.2596 605 123.256 433.165 447.544
857 0 92.5161 15.5324 1437 110.718 432.9 445.134
858 1 46.1047 12.6885 585 110.077 434.193 471.443
859 0 54.6747 14.9064 815 103.915 434.379 471.758
860 0 46.13 12.5515 579 112.059 434.166 471.95
861 0 49.1739 13.5844 668 109.925 434.942 468.184
862 0 48.2269 16.1321 778 109.844 435.36 473.396
863 0 53.2259 13.3581 711 114.422 435.353 474.219
864 0 52.2387 10.4712 547 120.954 434.761 472.698
865 0 56.2156 11.6872 657 117.429 434.058 474.785
866 0 62.5333 15.4798 968 109.036 433.62 475.837
867 0 60.0978 12.6128 758 116.821 434.391 473.178
868 0 59.1364 15.3712 909 114.286 434.169 470.785
869 0 64.157 13.8566 889 116.099 432.56 473.46
870 0 65.1872 14.7728 963 114.81 432.103 472.497
871 0 66.2702 12.5396 831 120.028 431.343 467.404
872 0 66.202 14.0026 927 118.259 429.671 469.886
873 0 70.3558 12.4226 874 120.5 430.016 468.547
874 0 70.2816 13.9581 981 117.876 429.214 465.187
875 0 74.2578 16.6582 1237 111.653 428.726 467.553
876 0 77.3507 14.8027 1145 115.221 429.124 465.183
877 0 82.2935 13.4397 1106 117.667 428.443 463
878 0 82.2135 11.3363 932 121.512 429.262 458.043
879 1 44.1989 11.8781 525 114.983 426.695 478.509
880 0 44.2239 13.6126 602 128.262 425.801 477.05
881 0 47.193 13.1375 620 109.424 427.023 470.69
882 0 48.4754 11.0984 538 113.072 427.385 471.299
883 0 50.0235 13.1738 659 110.241 426.323 474.106
884 0 52.0644 12.3885 645 111.991 426.445 469.659
885 0 53.0419 13.1594 698 110.448 426.619 467.655
886 0 56.0768 16.0672 901 106.487 426.377 466.947
887 0 55.1764 13.8284 763 110.612 426.364 466.519
888 0 55.1701 11.7455 648 120.139 427.15 468.585
889 0 60.2945 14.396 868 117.594 428.667 462.711
890 0 63.3578 12.2952 779 119.145 427.869 462.317
891 0 65.2018 13.5119 881 117.649 429.167 459.932
892 0 64.3102 13.3105 856 120.236 430.241 456.453
893 0 67.2881 14.7277 991 116.872 430.3 457.687
894 0 68.3294 11.2836 771 124.394 429.942 459.691
895 0 70.2801 11.8668 834 124.042 429.93 455.787
896 0 78.9188 13.6343 1076 117.533 430.293 460.814
897 0 76.3481 13.0193 994 120.937 430.999 457.461
898 0 80.2742 14.1889 1139 115.645 432.595 452.788
899 0 82.4328 15.0668 1242 114.112 432.188 451.837
900 0 86.3948 12.9174 1116 116.378 432.51 452.456
901 0 88.5702 13.0857 1159 114.336 432.236 454.782
902 0 88.2207 11.2332 991 117.547 433.596 451.295
903 1 48.1984 10.0211 483 114.642 434.453 474.108
904 0 49.5514 13.1581 652 108.316 435.64 475.483
905 0 52.3995 12.8818 675 112.359 434.138 469.553
906 0 52.2495 12.3446 645 114.146 434.447 474.922
907 0 54.1616 13.1089 710 112.01 432.387 472.545
908 0 54.1578 11.4665 621 121.919 433.357 472.773
909 0 58.1159 11.5975 674 121.398 433.742 475.113
910 0 57.0972 11.6468 665 123.25 434.233 471.803
911 0 60.1268 10.1619 611 124.578 434.322 474.358
912 0 62.0914 11.0643 687 123.01 433.918 468.67
913 0 67.0891 15.4123 1034 113.893 431.776 474.141
914 0 68.0605 12.8709 876 119.127 432.882 470.233
915 0 71.2486 14.274 1017 116.57 429.719 468.144
916 0 73.1234 13.1148 959 117.657 430.236 471.047
917 0 75.1519 15.8346 1190 113.813 430.508 463.016
918 0 74.122 12.6953 941 119.702 428.055 466.896
919 0 82.1082 10.9733 901 120.507 428.502 464.206
920 0 85.1147 15.485 1318 111.734 428.276 464.204
921 0 85.0829 14.6445 1246 113.224 428.644 458.98
922 0 86.1443 12.0147 1035 117.075 427.981 459.487
923 1 51.0774 10.8071 552 116.337 427.712 474.038
924 0 48.0368 10.5752 508 116.384 427.634 472.098
925 0 50.0406 8.95274 448 118.504 427.411 472.353
926 0 51.0823 9.72939 497 112.797 426.197 473.584
927 0 56.1615 13.4078 753 108.069 426.069 469.993
928 0 53.1432 11.7231 623 109.941 426.217 470.189
929 0 54.1798 11.628 630 111.756 427.151 469.652
930 0 57.2106 12.6375 723 112.444 427.029 463.816
931 0 59.2332 12.5268 742 110.47 429.263 467.222
932 0 60.2239 9.81338 591 111.481 428.394 470.684
933 0 62.2277 12.0846 752 110.145 429.375 463.794
934 0 62.2846 13.5507 844 108.885 428.403 460.261
935 0 66.1027 12.768 844 109.998 430.308 458.916
936 0 69.2312 14.531 1006 107.757 430.641 454.869
937 0 69.0918 11.6512 805 111.781 431.319 458.884
938 0 74.2355 13.5784 1008 110.098 431.765 454.18
939 0 74.3058 13.5521 1007 110.209 431.759 454.159
940 0 78.2123 12.2104 955 111.002 431.962 453.752
941 0 82.5326 13.5462 1118 108.152 431.578 457.331
942 0 77.343 8.97302 694 117.497 433.356 450.441
943 0 86.4119 11.0633 956 111.198 433.476 452.4
944 0 87.3517 7.95634 695 115.042 434.073 446.447
945 0 94.4514 13.3084 1257 107.329 433.251 446.136
946 0 98.5076 14.3847 1417 104.78 433.191 448.948
947 0 101.739 18.9407 1927 100.053 434.128 441.684
948 1 51.1541 11.5924 593 107.508 434.509 468.909
949 0 58.3586 11.4122 666 106.922 433.488 473.464
950 0 57.4243 11.0232 633 105.487 431.221 468.264
951 0 63.2119 14.5384 919 98.7367 431.282 467.351
952 0 63.2119 14.4751 915 112.936 431.256 467.436
953 0 64.1134 9.5144 610 105.238 430.923 472.32
954 0 69.3877 12.3941 860 101.021 430.012 474.191
955 0 69.2491 12.3034 852 103.403 430.385 466.582
956 0 69.1679 15.354 1062 101.847 430.243 465.152
957 0 69.1388 10.5585 730 108.819 429.142 467.868
958 0 72.227 12.4607 900 106.161 427.691 465.123
959 0 76.3106 14.1396 1079 103.251 428.146 466.003
960 0 81.3166 13.4782 1096 103.808 426.172 464.745
961 0 84.14 12.0989 1018 106.084 426.336 461.782
962 0 89.8796 15.5096 1394 101.379 425.024 453.67
963 1 48.102 10.6856 514 105.045 424.971 477.796
964 0 49.1879 13.8652 682 102.409 424.044 475.562
965 0 51.2251 14.6217 749 98.8051 424.019 476.43
966 0 49.133 11.5605 568 101.049 424.479 479.306
967 0 51.5611 13.1882 680 100.71 424.326 469.299
968 0 52.1555 9.01152 470 105.157 424.219 473.932
969 0 51.1426 11.0475 565 104.735 424.738 469.248
970 0 55.102 13.0485 719 102.537 424.64 468.22
971 0 53.1408 12.0623 641 105.078 425.622 472.045
972 0 55.0554 8.10093 446 110.525 425.98 465.93
973 0 63.2329 17.0639 1079 99.9731 427.833 465.504
974 0 60.13 11.4419 688 109.693 427.298 461.948
975 0 65.203 14.5699 950 105.832 428.966 461.996
976 0 65.2411 12.3542 806 108.639 428.125 461.602
977 0 66.2324 10.0102 663 112.718 429.344 462.356
978 0 69.2033 13.0774 905 110.412 428.894 454.478
979 0 72.3768 12.4211 899 105.676 430.585 460.763
980 0 73.6042 17.5126 1289 102.724 429.673 452.51
981 0 75.2949 11.7405 884 110.154 431.018 455.318
982 0 78.233 13.9583 1092 112.058 430.949 452.088
983 0 84.9516 18.0573 1534 99.1375 431.582 458.464
984 0 84.5104 12.5547 1061 107.495 432.772 452.518
985 0 87.516 13.3918 1172 108.398 433.218 449.997
986 0 91.415 15.2163 1391 103.483 433.922 449.922
987 0 97.2431 17.5334 1705 100.144 433.947 454.669
988 0 97.4549 14.9402 1456 106.795 434.517 443.903
989 0 102.424 14.0397 1438 104.464 434.618 450.78
990 0 106.195 14.1062 1498 106.455 435.686 441.963
991 1 60.1913 13.4903 812 101.861 433.597 466.915
992 0 57.0743 9.14598 522 107.381 435.701 467.716
993 1 113.593 12.9057 1466 107.023 433.711 439.592
994 0 116.49 13.5462 1578 107.328 433.252 438.217
995 1 65.177 12.9187 842 97.9418 433.356 474.302
996 0 67.6501 10.3769 702 105.677 432.47 469.229
997 0 69.1256 12.5858 870 105.187 432.2 467.678
998 0 71.1552 12.9154 919 106.374 432.248 469.306
999 0 75.1378 12.364 929 102.605 431.947 472.774
1000 0 73.0995 15.1164 1105 102.918 430.757 463.471
1001 0 78.44 13.3733 1049 105.502 429.421 461.495
1002 0 80.1149 12.7692 1023 106.118 429.561 460.367
1003 0 82.3297 7.45782 614 113.116 428.578 462.033
1004 0 87.2727 11.9281 1041 106.723 427.937 461.593
1005 0 89.1573 12.2032 1088 107.766 427.547 461.504
1006 1 48.0996 10.0625 484 110.039 427.56 474.157
1007 0 50.0784 14.9765 750 103.4 427.055 474.579
1008 0 47.0713 10.8984 513 111.569 426.509 472.458
1009 0 47.1873 9.74839 460 112.252 426.011 475.865
1010 0 53.256 11.5855 617 108.645 427.002 471.859
1011 0 53.256 11.5104 613 125.708 428.002 471.752
1012 0 56.2868 12.2053 687 109.582 425.798 469.428
1013 0 54.0515 11.5075 622 106.542 424.432 469.297
1014 0 55.0772 10.4399 575 107.93 424.993 469.35
1015 0 56.0342 12.7422 714 105.231 426.007 466.686
1016 0 67.1116 4.82778 324 115.451 426.333 465.648
1017 0 61.0945 11.2612 688 112.589 426.734 455.786
1018 0 65.0949 12.2283 796 110.584 428.614 457.887
1019 0 62.2245 8.75861 545 114.334 425.539 454.593
1020 0 61.3886 8.81271 541 116.048 425.817 451.091
1021 0 68.1631 11.8686 809 111.467 425.834 452.571
1022 0 73.2484 14.799 1084 105.754 426.047 455.461
1023 0 73.1762 13.529 990 110.524 426.183 449.824
1024 0 76.1523 13.0791 996 111.036 426.809 448.05
1025 0 76.0911 13.3787 1018 111.365 428.127 451.258
1026 0 83.2554 14.2573 1187 109.436 428.618 451.526
1027 0 83.2554 14.2333 1185 138.817 428.628 451.684
1028 0 84.1667 10.9663 923 118.199 428.451 448.706
1029 0 93.923 17.0991 1606 107.35 429.446 450.828
1030 0 91.2265 12.6608 1155 118.263 430.877 448.229
1031 0 92.2303 15.9058 1467 112.815 430.984 448.13
1032 0 94.0827 13.3393 1255 116.992 430.022 447.477
1033 0 102.174 16.3349 1669 111.179 431.117 440.237
1034 0 100.199 12.4452 1247 118.909 431.25 439.805
1035 0 104.26 14.694 1532 113.749 430.607 445.413
1036 1 167.811 18.068 3032 111.902 430.994 418.782
1037 0 167.811 17.9369 3010 139.9 431.999 418.81
1038 1 115.558 15.6458 1808 115.009 429.25 441.243
1039 0 118.588 14.6221 1734 116.899 428.066 439.708
1040 0 123.497 15.385 1900 115.722 428.452 439.946
1041 0 124.519 11.7251 1460 122.19 429.07 436.116
1042 0 132.604 13.3405 1769 120.278 428.037 435.516
1043 0 137.829 14.7357 2031 118.484 427.56 433.079
1044 0 142.778 17.1945 2455 114.507 426.236 430.889
1045 0 145.457 16.5891 2413 116.827 426.017 428.811
1046 0 151.521 15.3576 2327 119.214 426.332 425.858
1047 0 155.48 12.947 2013 122.188 427.21 427.62
1048 0 163.532 16.9753 2776 117.164 427.536 417.81
1049 0 168.607 14.9519 2521 121.2 423.658 413.814
1050 0 174.592 18.5976 3247 112.93 424.135 412.352
1051 1 101.392 10.8391 1099 117.734 422.743 449.515
1052 0 104.241 14.3129 1492 112.395 421.982 449.655
1053 0 107.226 13.1032 1405 119.376 421.162 446.279
1054 0 112.374 18.0113 2024 111.107 423.002 443.288
1055 0 116.216 14.2063 1651 116.609 425.299 445.111
1056 0 119.346 13.6411 1628 117.979 425.138 436.277
1057 0 123.391 14.9606 1846 116.043 424.103 434.54
1058 1 70.1488 13.6424 957 110.346 423.805 465.274
1059 0 67.2434 12.9976 874 112.986 425.148 459.842
1060 0 71.2274 13.9553 994 111.449 427.18 459.065
1061 0 74.1399 12.4764 925 114.872 428.599 456.761
1062 0 75.0756 13.3066 999 115.18 427.136 450.025
1063 0 81.1692 14.8455 1205 111.778 428.859 452.308
1064 0 80.2607 17.1566 1377 109.378 428.898 448.314
1065 0 83.3307 14.7485 1229 113.158 430.39 448.058
1066 0 85.2124 14.5871 1243 113.187 429.961 448.274
1067 0 89.2304 12.4845 1114 118.289 431.38 444.365
1068 0 91.4841 13.3684 1223 116.506 431.03 443.872
1069 0 94.2025 15.5516 1465 113.227 431.236 440.973
1070 0 97.3351 16.0066 1558 110.332 430.193 443.884
1071 0 99.2191 10.4818 1040 116.994 430.671 451.228
1072 0 107.429 15.1263 1625 109.473 430.865 446.798
1073 1 59.2103 10.6063 628 115.906 432.546 468.732
1074 0 61.1441 13.2147 808 111.573 431.984 467.22
1075 0 62.2709 13.4092 835 112.327 431.705 466.196
1076 0 63.0736 13.4446 848 111.303 430.848 468.277
1077 0 65.1971 14.3411 935 108.909 431.496 467.736
1078 0 68.217 13.2811 906 106.384 432.712 467.246
1079 0 71.1648 13.4617 958 105.696 432.034 466.181
1080 0 71.3701 13.3249 951 105.834 432.671 462.603
1081 0 73.3386 13.0218 955 106.561 430.443 467.583
1082 0 77.173 12.9579 1000 108.592 430.828 465.375
1083 0 75.2054 11.8077 888 112.251 429.078 461.955
1084 0 83.1878 11.0593 920 110.408 429.607 466.47
1085 0 83.1878 11.0353 918 133.004 429.642 466.298
1086 0 88.3707 12.8889 1139 111.824 428.147 462.576
1087 0 91.1561 14.5355 1325 110.122 426.389 457.821
1088 0 93.3209 14.6698 1369 109.489 427.082 457.76
1089 1 54.0708 11.2445 608 110.814 424.854 475.34
1090 0 55.0566 10.2077 562 108.459 425.623 481.292
1091 0 53.1147 9.16883 487 113.376 424.678 477.183
1092 0 59.1841 13.3313 789 106.953 423.177 474.271
1093 0 59.035 13.6529 806 106.882 422.882 471.991
1094 0 61.0486 11.8758 725 108.223 422.246 473.88
1095 0 62.1543 13.4182 834 108.174 422.588 467.688
1096 0 66.3446 17.9065 1188 98.867 422.066 474.032
1097 0 63.2022 10.7275 678 112.146 422.59 468.171
1098 0 66.0469 12.9151 853 109.426 423.179 467.076
1099 0 68.2338 12.633 862 110.13 422.762 463.653
1100 0 71.162 19.5891 1394 99.0409 422.986 464.316
1101 0 72.2326 11.0338 797 111.473 422.853 459.986
1102 0 73.1242 14.0583 1028 106.756 423.737 459.026
1103 0 79.4823 13.676 1087 105.757 424.036 457.245
1104 0 81.2704 14.4087 1171 104.675 423.766 450.42
1105 0 84.0856 11.2504 946 109.196 424.673 452.785
1106 0 87.2084 14.2073 1239 104.971 424.912 449.799
1107 1 46.0758 10.5912 488 108.164 425.377 469.639
1108 0 50.0523 11.9875 600 105.595 424.907 465.615
1109 0 51.0552 12.1633 621 105.211 426.765 464.517
1110 0 54.0948 13.9755 756 101.396 427.128 468.452
1111 0 55.6581 17.4817 973 98.0329 427.853 462.663
1112 0 58.5924 14.7971 867 100.736 428.263 463.061
1113 0 58.5188 11.8253 692 105.776 429.853 460.214
1114 0 60.4187 9.69899 586 109.189 429.951 459.493
1115 0 62.4563 16.0112 1000 100.67 431.534 462.773
1116 0 67.4937 18.5795 1254 94.5518 430.199 466.219
1117 0 67.2926 14.0431 945 101.885 431.693 460.639
1118 0 71.5914 17.0831 1223 97.1603 430.406 465.743
1119 0 70.6922 12.6039 891 103.437 431.456 462.363
1120 0 71.5479 9.96536 713 108.379 431.339 459.816
1121 0 73.3391 14.2625 1046 102.124 431.489 458.194
1122 0 79.3349 13.2476 1051 103.504 431.34 460.049
1123 0 81.4183 14.9598 1218 101.796 430.877 459.827
1124 0 83.3819 14.9193 1244 102.96 430.867 459.474
1125 0 84.3082 14.8028 1248 103.876 430.452 461.777
1126 0 89.318 12.058 1077 107.303 430.351 460.622
1127 0 89.4391 12.1088 1083 108.154 429.287 454.614
1128 1 51.1321 13.0055 665 103.848 427.866 480.341
1129 0 51.2129 13.3951 686 103.937 427.904 477.134
1130 0 51.0713 12.8056 654 106.948 425.457 475.919
1131 0 54.1903 14.9289 809 102.269 425.18 479.457
1132 0 57.0748 13.5086 771 105.319 425.431 476.35
1133 0 57.1045 12.1707 695 108.006 424.02 475.324
1134 0 58.0752 12.6388 734 107.858 425.188 472.782
1135 0 59.079 13.1857 779 107.426 422.58 470.429
1136 0 65.1677 13.0126 848 105.539 423.429 472.565
1137 0 66.077 15.5727 1029 102.801 422.964 468.667
1138 0 68.4148 14.4559 989 105.396 423.174 467.872
1139 0 67.3208 11.2892 760 110.986 423.404 469.158
1140 0 67.3303 10.2628 691 113.055 422.295 464.588
1141 0 69.313 10.6762 740 111.842 421.628 463.384
1142 0 78.2497 13.9681 1093 107.131 422.524 463.603
1143 0 78.3768 14.5962 1144 108.05 422.273 458.894
1144 0 82.2017 16.6055 1365 104.571 422.862 460.99
1145 0 80.4068 12.5611 1010 111.646 422.619 458.042
1146 0 86.3797 15.5129 1340 106.705 423.21 458.58
1147 0 88.3603 14.6559 1295 108.117 422.927 455.264
1148 0 89.4318 14.3349 1282 109.8 423.796 449.076
1149 0 96.6021 17.1735 1659 104.66 423.561 448.31
1150 0 97.3235 14.7549 1436 109.454 426.971 442.426
1151 1 55.3646 10.4941 581 108.279 426.979 466.329
1152 0 55.4609 11.8642 658 108.502 427.202 466.223
1153 0 55.4609 11.8642 658 126.754 427.222 466.383
1154 0 56.4421 10.1697 574 112.078 429.129 463.11
1155 0 58.2319 11.3683 662 111.758 428.707 461.668
1156 0 60.3105 11.7061 706 111.271 430.472 460.993
1157 0 60.1335 12.3725 744 111.165 432.462 461.688
1158 0 67.5383 15.0877 1019 103.339 433.49 466.419
1159 0 69.2316 20.3953 1412 98.8484 433.841 458.987
1160 0 71.2775 14.6049 1041 106.365 434.352 459.541
1161 0 71.1866 13.7104 976 109.251 433 460.272
1162 0 72.0961 14.3697 1036 106.982 434.88 462.045
1163 0 77.3473 13.0709 1011 108.526 433.051 462.995
1164 0 78.7589 19.6168 1545 100.091 433.012 464.004
1165 0 79.4616 13.6796 1087 110.654 433.33 457.614
1166 0 82.4096 11.0181 908 115.293 432.372 459.427
1167 0 83.3895 10.5169 877 117.019 432.925 455.536
1168 0 90.4881 15.0517 1362 108.884 432.548 460.928
1169 0 92.3722 16.4119 1516 108.262 432.077 459.979
1170 0 94.6247 13.0938 1239 113.615 431.838 461.508
1171 0 97.4287 10.3666 1010 118.7 430.705 456.03
1172 0 101.29 12.0347 1219 110.367 429.463 456.23
1173 0 102.166 10.9136 1115 111.792 428.332 457.282
1174 0 106.327 16.4211 1746 105.002 427.814 450.241
1175 1 59.3891 12.3928 736 107.643 428.141 474.327
1176 0 62.3552 13.0222 812 106.429 427.296 471.381
1177 0 68.1405 15.7469 1073 103.962 423.694 474.716
1178 0 68.1706 14.7131 1003 106.355 423.153 469.189
1179 0 71.1639 15.0638 1072 104.597 423.198 471.542
1180 0 72.3399 12.3307 892 109.242 423.598 470.025
1181 0 74.2644 15.1082 1122 105.873 423.583 465.261
1182 0 78.2448 18.4293 1442 101.088 423.502 460.237
1183 0 79.2902 17.0261 1350 103.021 423.574 458.997
1184 0 82.2346 15.249 1254 105.738 423.799 458.957
1185 0 84.1229 15.2991 1287 106.72 422.711 453.461
1186 0 85.3927 9.95401 850 114.705 422.495 453.958
1187 0 90.341 12.962 1171 109.18 422.516 453.29
1188 0 92.2438 12.8355 1184 110.671 423.298 453.1
1189 0 96.4425 15.2526 1471 109.472 423.922 445.424
1190 0 99.4867 14.9266 1485 109.934 424.027 445.709
1191 0 103.334 15.9386 1647 108.872 424.173 441.803
1192 0 106.482 15.0072 1598 110.297 424.978 437.619
1193 1 53.1987 9.04157 481 116.545 424.206 456.397
1194 0 59.1633 15.1783 898 106.513 424.857 460.977
1195 0 59.3434 14.1212 838 109.092 426.536 456.149
1196 0 62.3546 12.8619 802 111.024 426.294 456.936
1197 0 62.4233 13.873 866 110.043 426.808 455.957
1198 0 66.3952 14.7149 977 108.187 427.615 457.029
1199 0 70.4685 16.4329 1158 105.607 428.209 457.528
1200 0 69.3783 18.3487 1273 104.802 429.855 451.298
1201 0 70.4112 13.833 974 111.256 430.395 451.979
1202 0 75.4912 14.3328 1082 110.4 431.253 452.156
1203 0 76.4093 13.5324 1034 112.842 431.431 452.319
1204 0 79.5321 15.1385 1204 111.524 431.515 451.556
1205 0 82.7498 14.6103 1209 112.37 431.769 450.538
1206 0 85.4563 17.4124 1488 107.278 431.337 454.077
1207 0 86.7214 12.4767 1082 116.06 432.599 450.634
1208 0 90.6585 12.1665 1103 116.263 432.894 453.722
1209 0 90.3319 12.3877 1119 118.896 433.181 454.765
1210 0 97.4003 15.1437 1475 113.344 432.482 455.121
1211 1 51.3925 13.4455 691 110.753 433.767 478.433
1212 0 53.7369 11.0352 593 115.675 431.678 474.231
1213 0 57.7398 11.2401 649 115.538 432.874 478.305
1214 0 59.6632 16.5596 988 107.651 430.984 478.843
1215 0 58.2726 8.51173 496 121.845 432.028 476.25
1216 0 62.4827 12.6435 790 114.994 430.935 474.991
1217 0 63.1202 15.2249 961 108.477 428.946 483.144
1218 0 67.4208 15.7518 1062 108.289 428.163 478.297
1219 0 64.3985 10.9475 705 119.024 428.647 473.539
1220 0 67.5624 15.7188 1062 112.58 427.405 471.416
1221 0 71.3345 14.9717 1068 111.756 427.97 470.033
1222 0 70.1973 14.4877 1017 114.371 426.03 467.235
1223 0 73.6427 14.1766 1044 113.564 425.986 467.109
1224 0 76.2542 13.9271 1062 112.318 425.272 463.702
1225 0 80.3757 19.1725 1541 101.707 424.506 471.541
1226 0 78.1141 10.5871 827 118.132 424.489 459.037
1227 0 79.4107 10.6031 842 117.589 424.994 461.131
1228 0 87.552 12.267 1074 115.021 424.735 459.035
1229 0 88.4673 13.8356 1224 113.298 424.761 452.249
1230 0 91.4572 13.4599 1231 112.201 424.91 455.472
1231 0 95.5246 13.9964 1337 111.198 425.402 452.39
1232 0 98.3533 13.055 1284 113.428 425.51 446.098
1233 1 50.5141 11.8383 598 106.518 424.868 458.472
1234 0 54.6711 10.1516 555 109.672 425.416 461.665
1235 0 55.2613 11.1289 615 107.985 426.769 462.894
1236 0 55.1171 11.9019 656 106.579 427.084 467.98
1237 0 56.0644 12.2538 687 107.325 427.639 463.767
1238 0 59.3792 11.6876 694 107.661 427.879 464.174
1239 0 62.3089 12.6306 787 106.633 426.868 462.466
1240 0 65.3314 13.332 871 105.549 428.45 462.993
1241 0 67.2245 13.388 900 104.914 428.782 461.004
1242 0 69.3698 14.0551 975 106.208 429.402 456.695
1243 0 69.2681 12.7043 880 107.797 429.584 458.208
1244 0 71.2462 11.2006 798 112.693 430.921 450.808
1245 0 73.1814 9.26465 678 115.227 430.202 458.031
1246 0 78.4504 17.527 1375 105.215 431.599 453.508
1247 0 80.5634 10.7245 864 113.348 432.693 458.001
1248 0 82.2611 14.8065 1218 107.525 433.316 459.961
1249 1 42.1192 10.4228 439 111.346 435.157 473.424
1250 0 45.2073 11.2814 510 109.059 434.394 475.939
1251 0 47.3138 9.87027 467 110.039 434.852 477.842
1252 0 46.344 12.062 559 109.816 433.485 476.758
1253 0 52.4471 12.6032 661 105.496 433.929 479.576
1254 0 53.2084 11.859 631 107.62 432.444 478.607
1255 0 49.1377 10.2976 506 113.46 429.194 478.221
1256 0 53.2184 9.56436 509 119.835 429.57 471.473
1257 0 54.2962 11.0873 602 118.208 429.206 473.008
1258 0 55.1001 9.49181 523 120.222 427.644 477.83
1259 0 55.224 14.6494 809 106.04 428.576 482.71
1260 0 58.174 13.3221 775 110.992 427.028 476.462
1261 0 61.1107 13.7783 842 110.278 426.392 475.906
1262 0 62.1295 12.812 796 111.618 425.354 475.237
1263 0 65.2468 14.4068 940 110.333 425.24 471.736
1264 0 67.2243 14.0872 947 109.964 424.935 471.149
1265 0 67.1435 11.3935 765 113.894 424.946 471.62
1266 0 69.2016 13.3667 925 112.223 423.854 470.468
1267 0 73.182 14.0198 1026 111.297 423.191 465.998
1268 0 73.2069 13.0452 955 113.64 423.138 466.706
1269 0 75.3437 13.0469 983 114.495 423.021 462.696
1270 0 77.2161 13.0413 1007 114.878 423.008 463.654
1271 0 79.1614 14.2241 1126 112.673 422.335 464.069
1272 0 81.1981 10.6776 867 119.354 423.806 459.702
1273 0 84.2535 15.572 1312 112.537 423.907 454.332
1274 0 86.2811 14.9511 1290 113.713 424.171 452.805
1275 0 92.3896 13.6163 1258 112.763 423.746 455.327
1276 0 92.2485 14.0707 1298 113.172 424.824 447.133
1277 0 96.3095 13.4981 1300 117.522 426.138 447.375
1278 0 98.3298 12.6208 1241 118.82 426.511 445.738
1279 0 101.448 14.362 1457 118.794 427.519 439.934
1280 0 101.448 14.4704 1468 141.329 428.51 439.712
1281 0 101.448 14.431 1464 140.996 429.533 439.74
1282 1 58.2457 12.0524 702 118.038 428.59 459.043
1283 0 59.2445 12.3218 730 135.83 429.558 459.751
1284 0 61.2837 11.8792 728 113.762 429.58 457.202
1285 0 65.2289 14.0582 917 111.406 431.112 459.019
1286 0 67.2169 13.5234 909 112.472 431.868 456.167
1287 0 69.2648 15.0726 1044 109.802 431.38 457.321
1288 0 70.3309 13.2659 933 113.221 431.941 457.255
1289 0 73.3721 12.5933 924 113.307 432.722 458.707
1290 0 74.3508 11.5533 859 116.773 432.955 457.483
1291 0 81.2924 14.5155 1180 109.911 432.833 461.531
1292 0 83.2833 16.7741 1397 108.814 433.591 454.512
1293 0 90.8705 21.4811 1952 101.168 432.848 458.898
1294 0 87.6927 15.5087 1360 110.694 432.382 452.979
1295 0 92.6693 13.1975 1223 113.595 431.56 453.828
1296 0 91.5618 14.624 1339 111.52 431.792 457.96
1297 0 96.6631 11.8866 1149 116.795 431.523 452.11
1298 0 100.121 15.1517 1517 109.065 431.894 454.721
1299 0 102.286 14.4204 1475 110.871 432.386 451.572
1300 0 105.283 12.3571 1301 113.244 431.124 454.513
1301 0 111.453 10.7579 1199 116.119 431.247 450.431
1302 0 115.737 12.9431 1498 112.804 430.248 442.09
1303 1 65.479 12.294 805 109.309 429.137 470.6
1304 0 66.6403 12.755 850 109.712 428.701 469.993
1305 0 64.6425 13.0255 842 110.88 427.114 465.064
1306 0 69.2337 10.8473 751 111.353 427.104 468.889
1307 0 72.2208 12.2818 887 109.867 427.253 467.229
1308 1 155.684 13.9385 2170 113.946 424.916 426.446
1309 0 157.651 15.4265 2432 114.602 424.884 420.567
1310 1 84.7341 12.7575 1081 114.275 424.191 453.966
1311 0 86.4399 12.876 1113 114.217 424.033 448.784
1312 0 90.4763 14.4679 1309 113.191 424.242 448.796
1313 0 91.4454 10.3778 949 117.725 424.103 444.276
1314 0 96.3818 15.3245 1477 110.504 424.238 446.222
1315 0 98.4254 11.3081 1113 116.544 423.97 444.336
1316 0 103.321 15.7471 1627 108.908 425.181 445.736
1317 1 52.2659 10.9249 571 113.107 424.94 464.571
1318 0 54.5036 10.0911 550 115.238 425.615 462.076
1319 0 57.1681 9.39336 537 115.531 425.97 463.654
1320 0 61.3083 14.1253 866 107.879 426.619 458.926
1321 0 59.0798 12.7286 752 111.297 426.04 457.539
1322 0 67.2146 14.357 965 108.063 426.936 458.42
1323 0 68.1823 12.2906 838 111.019 427.116 457.397
1324 0 68.1904 12.6997 866 111.923 428.965 453.419
1325 0 70.2762 9.03577 635 117.961 430.236 456.734
1326 0 73.2167 14.4503 1058 114.153 428.083 455.966
1327 0 79.2953 12.548 995 115.339 429.576 456.349
1328 0 80.4916 17.1943 1384 110.408 429.853 451.962
1329 0 82.3669 12.6143 1039 118.005 432.127 449.466
1330 0 86.2472 13.2178 1140 117.958 432.42 446.707
1331 0 88.5983 13.77 1220 116.534 432.639 448.728
1332 0 90.3921 13.1096 1185 118.21 433.344 449.097
1333 0 95.5237 14.8968 1423 115.576 431.987 443.301
1334 0 97.3884 13.7285 1337 116.532 433.016 449.43
1335 1 53.1562 9.53793 507 119.54 431.061 470.994
1336 0 56.1 11.9786 672 114.917 430.685 471.732
1337 0 59.0412 10.9923 649 115.747 429.846 471.602
1338 0 57.1666 11.1254 636 117.56 432.085 469.283
1339 0 60.1552 8.36171 503 120.889 433.155 473.509
1340 0 62.0459 13.5061 838 114.23 432.84 469.674
1341 0 65.0908 11.2919 735 114.932 432.6 473.644
1342 0 67.0533 13.9292 934 112.075 433.026 468.945
1343 0 70.1385 13.345 936 113.584 431.96 468.935
1344 0 70.077 11.787 826 116.64 430.892 469.137
1345 0 72.0728 13.1811 950 113.907 428.478 467.399
1346 0 77.0697 12.7028 979 114.058 429.039 464.533
1347 0 79.2583 14.131 1120 111.504 427.345 464.271
1348 0 80.2186 12.9521 1039 113.764 426.82 464.835
1349 0 82.1312 12.1513 998 116.384 427.017 458.071
1350 0 84.2767 12.5539 1058 115.508 426.106 459.919
1351 0 86.2343 11.5731 998 116.687 425.791 452.968
1352 0 89.2541 12.907 1152 114.043 424.772 454.418
1353 0 94.4007 13.3156 1257 115.574 426.079 448.21
1354 0 94.2319 12.2146 1151 117.543 425.35 450.954
1355 0 97.2573 14.0452 1366 115.679 425.783 444.98
1356 0 102.338 13.5922 1391 115.559 425.097 445.352
1357 0 106.476 13.9562 1486 114.693 424.462 442.748
1358 0 107.494 11.4517 1231 116.705 422.47 432.931
1359 0 111.14 10.3023 1145 117.478 422.461 430.63
1360 0 116.339 9.85053 1146 117.817 423.392 434.639
1361 1 68.27 14.3255 978 106.621 423.678 454.751
1362 0 70.1303 15.5282 1089 103.824 423.982 459.456
1363 0 71.2626 11.4646 817 110.263 424.887 457.315
1364 0 75.2729 12.1558 915 109.956 426.02 453.615
1365 0 77.2275 11.7575 908 113.466 425.82 452.394
1366 0 79.2939 11.6276 922 114.448 427.184 447.959
1367 0 84.4602 13.758 1162 108.948 428.513 450.912
1368 0 83.2528 11.9996 999 111.664 428.806 444.664
1369 0 88.2985 12.8088 1131 110.042 429.04 448.086
1370 0 91.2744 14.7029 1342 108.677 429.768 446.377
1371 0 92.1812 9.73083 897 114.736 430.185 445.2
1372 0 95.1464 11.435 1088 113.48 431.331 441.283
1373 0 96.2276 10.6414 1024 114.235 430.49 446.345
1374 0 104.204 13.1761 1373 113.06 430.703 443.557
1375 0 105.599 13.2293 1397 113.229 430.827 439.153
1376 0 109.312 13.8228 1511 111.07 431.931 444.762
1377 0 111.268 13.5798 1511 111.699 432.435 437.332
1378 0 117.251 11.8037 1384 113.07 431.891 439.845
1379 0 119.344 10.9264 1304 113.405 430.683 443.101
1380 0 123.452 12.9768 1602 111.887 432.058 441.404
1381 0 126.453 10.9764 1388 115.408 432.267 435.114
1382 0 125.167 9.17173 1148 118.382 431.943 429.546
1383 0 128.354 9.988 1282 118.275 431.029 428.154
1384 0 131.479 13.698 1801 113.649 431.017 427.043
1385 0 135.621 12.6013 1709 116.482 429.994 425.691
1386 0 137.724 6.82524 940 119.834 429.046 442.844
1387 0 131.301 6.61075 868 125.794 427.241 419.561
1388 1 90.3211 10.053 908 113.1 427.889 457.689
1389 0 94.4473 12.1549 1148 111.669 426.587 456.377
1390 0 94.4473 12.0808 1141 135.684 425.579 456.384
1391 0 101.143 14.8403 1501 107.021 424.867 449.282
1392 0 103.187 14.2653 1472 107.748 424.97 449.595
1393 0 104.263 9.00606 939 115.201 424.751 444.032
1394 0 105.153 14.1223 1485 108.384 425.075 443.648
1395 0 109.211 9.19318 1004 113.717 423.522 443.453
1396 1 119.548 13.5092 1615 107.474 423.342 445.16
1397 0 120.309 12.4928 1503 112.347 422.253 432.91
1398 1 71.227 14.0817 1003 106.171 424.455 464.882
1399 0 74.1345 11.9917 889 110.108 424.378 455.403
1400 0 76.095 9.43557 718 112.333 424.315 455.54
1401 0 80.092 9.10203 729 110.48 424.258 463.878
1402 0 80.084 10.8386 868 111.105 423.921 455.889
1403 0 78.3526 8.92121 699 113.917 422.671 454.229
1404 0 86.0994 12.1023 1042 109.699 423.381 450.069
1405 0 91.4979 12.973 1187 108.122 423.618 445.428
1406 0 91.2295 13.1208 1197 108.666 424.659 447.22
1407 0 95.3858 11.5216 1099 111.517 426.349 443.348
1408 0 95.2821 12.2583 1168 111.497 426.863 439.372
1409 0 99.5236 14.1373 1407 110.128 427.368 436.582
1410 0 104.378 13.6044 1420 110.218 427.563 439.908
1411 0 105.466 12.715 1341 113.177 429.032 438.407
1412 0 105.466 12.6961 1339 145.315 430.037 438.475
1413 0 110.501 12.1899 1347 114.151 429.184 438.142
1414 0 117.597 14.3116 1683 110.489 430.97 439.094
1415 0 118.351 13.7726 1630 112.066 431.882 436.96
1416 0 122.291 15.0216 1837 111.574 432.835 435.122
1417 1 71.3872 12.9855 927 107.268 433.424 462.508
1418 0 71.1581 12.8587 915 106.824 433.826 466.166
1419 0 72.1497 12.2939 887 109.847 433.241 458.041
1420 0 75.0525 13.5239 1015 110.377 434.019 464.767
1421 0 76.185 10.7764 821 114.881 434.82 463.132
1422 0 80.365 13.4014 1077 109.834 434.228 461.358
1423 0 86.8314 19.3133 1677 101.232 433.571 464.04
1424 0 85.4264 15.7563 1346 109.14 432.715 458.734
1425 0 86.265 11.4763 990 115.407 433.231 461.921
1426 0 88.1564 13.1925 1163 112.247 432.775 463.23
1427 0 94.2483 18.5998 1753 104.729 430.762 457.157
1428 0 96.2646 15.5509 1497 108.346 431.319 458.843
1429 0 102.53 14.3958 1476 108.407 429.472 461.012
1430 0 100.188 15.8603 1589 109.432 429.59 454.354
1431 0 103.254 13.7234 1417 112.228 427.826 454.663
1432 0 104.471 14.7218 1538 110.754 428.484 455.978
1433 0 106.218 10.8174 1149 119.037 426.457 447.008
1434 0 114.152 14.8836 1699 112.841 427.81 442.767
1435 0 122.354 19.5171 2388 106.222 424.578 438.909
1436 0 119.376 14.1318 1687 115.952 425.889 438.046
1437 0 123.355 13.6193 1680 114.029 424.376 441.832
1438 0 125.371 10.6803 1339 120.729 424.732 434.166
1439 0 132.407 14.6896 1945 114.644 424.352 431.45
1440 0 137.29 14.6187 2007 114.002 423.635 432.701
1441 0 133.225 9.26254 1234 121.591 424.84 434.457
1442 1 85.443 7.87659 673 118.761 422.437 454.572
1443 0 82.2911 10.8153 890 112.313 422.991 445.947
1444 0 85.63 11.8884 1018 114.994 423.98 442.348
1445 0 89.4187 13.8002 1234 111.256 423.746 444.874
1446 0 90.3276 11.569 1045 114.716 424.852 442.057
1447 0 94.5344 10.1021 955 115.472 424.328 447.709
1448 0 96.4586 13.6328 1315 112.63 426.399 439.868
1449 0 98.5117 10.547 1039 116.192 425.231 440.523
1450 0 102.46 12.2682 1257 114.103 426.063 434.118
1451 0 107.442 13.4119 1441 110.335 427.456 438.708
1452 0 107.442 13.3095 1430 130.842 429.462 438.643
1453 0 105.434 11.8367 1248 136.612 431.552 435.873
1454 0 116.456 13.0693 1522 111.849 429.158 434.609
1455 0 121.46 16.8039 2041 105.699 428.718 431.541
1456 0 122.345 14.2303 1741 110.627 430.141 430.151
1457 0 123.343 9.11281 1124 117.87 430.448 437.204
1458 0 127.446 13.5194 1723 115.086 431.63 421.528
1459 0 137.516 13.1476 1808 112.526 431.788 430.112
1460 0 140.145 13.6644 1915 111.646 432.117 420.644
1461 0 145.633 12.3461 1798 112.834 432.166 420.071
1462 0 153.692 12.2908 1889 112.52 432.178 421.354
1463 0 155.741 13.2527 2064 114.838 433.331 419.77
1464 1 88.1639 13.9967 1234 107.057 433.494 459.763
1465 0 83.3437 12.5024 1042 112.85 432.823 451.649
1466 0 87.2576 13.9128 1214 110.488 432.356 455.713
1467 0 91.1906 13.4224 1224 110.12 432.306 455.084
1468 0 92.1355 11.2877 1040 112.953 432.566 457.97
1469 0 95.2564 17.9515 1710 104.874 432.019 451.056
1470 0 99.3924 11.9828 1191 111.634 431.477 460.005
1471 0 102.303 14.7698 1511 108.74 431.243 453.769
1472 0 104.294 12.2251 1275 113.314 430.054 452.794
1473 0 100.401 10.5278 1057 116.121 429.201 448.428
1474 0 110.67 12.09 1338 112.692 427.345 442.703
1475 0 112.647 11.718 1320 115.684 427.727 444.43
1476 0 116.381 12.27 1428 113.151 427.6 449.125
1477 0 121.418 16.3402 1984 108.717 426.45 445.408
1478 0 123.521 11.415 1410 116.157 425.29 437.972
1479 0 126.52 15.7366 1991 109.528 424.603 438.936
1480 0 132.286 14.5972 1931 109.789 424.044 437.338
1481 1 75.1338 12.1117 910 109.091 425.436 463.16
1482 0 69.3979 10.5191 730 110.823 425.001 459.811
1483 0 75.1865 9.42989 709 110.697 424.364 466.724
1484 0 73.2705 8.35262 612 115.364 424.778 461.907
1485 0 83.31 12.6275 1052 111.536 425.002 451.55
1486 0 88.3132 11.1761 987 112.877 424.418 453.125
1487 0 88.1829 12.0318 1061 110.283 425.076 451.027
1488 0 94.6785 16.1283 1527 106.13 423.931 443.433
1489 0 94.4174 11.4809 1084 113.807 424.337 441.636
1490 0 98.6763 14.2993 1411 110.258 425.398 435.04
1491 0 99.5234 17.4331 1735 104.762 425.026 444.033
1492 0 104.717 13.9042 1456 111.247 426.016 433.561
1493 0 104.335 11.8848 1240 113.688 427.213 438.252
1494 0 107.655 12.345 1329 114.238 426.406 427.26
1495 0 116.561 13.2892 1549 111.396 427.722 432.595
1496 0 113.839 10.7081 1219 116.863 428.925 423.701
1497 0 120.552 14.6908 1771 111.102 428.639 424.602
1498 1 69.5398 15.7895 1098 105.955 429.26 452.556
1499 0 74.5764 13.4493 1003 107.485 429.42 453.607
1500 0 71.3828 15.1997 1085 105.821 430.858 452.143
1501 0 76.397 14.9482 1142 106.774 430.521 449.429
1502 0 79.339 12.5915 999 112.247 431.907 446.56
1503 0 82.2092 10.972 902 114.392 432.406 451.255
1504 0 82.1266 9.57059 786 117.015 433.033 451.812
1505 0 88.1588 14.3037 1261 108.591 433.309 455.776
1506 0 91.3761 13.9533 1275 111.447 432.145 445.616
1507 0 92.74 12.8424 1191 113.802 432.754 447.415
1508 0 94.321 13.9736 1318 112.48 431.646 445.48
1509 0 99.3446 12.6831 1260 112.605 432.097 449.799
1510 0 101.084 12.732 1287 112.346 431.367 444.355
1511 0 104.261 12.0275 1254 111.892 431.795 450.469
1512 1 61.1508 12.3302 754 108.423 431.736 472.542
1513 0 59.1284 9.11575 539 112.419 429.968 475.486
1514 0 60.0597 13.0537 784 110.065 430.497 470.619
1515 0 64.0526 12.7864 819 110.697 430.308 468.369
1516 0 61.1117 13.0908 800 107.736 426.871 468.995
1517 0 61.0486 12.1543 742 110.91 427.495 469.544
1518 0 68.1275 12.6821 864 109.228 426.591 469.438
1519 0 68.2765 12.6251 862 109.645 426.841 466.713
1520 0 73.0811 12.3151 900 109.932 427.387 463.684
1521 0 75.0509 11.299 848 109.917 426.717 464.745
1522 0 77.1345 14.7405 1137 105.536 426.496 457.901
1523 0 82.2135 12.2608 1008 108.091 425.875 460.299
1524 0 79.0613 9.72664 769 113.723 425.91 455.776
1525 0 84.1661 13.7466 1157 106.804 425.408 458.454
1526 0 88.2464 10.5273 929 111.677 425.002 453.48
1527 0 85.0957 9.96526 848 114.665 425.384 448.101
1528 0 95.3164 13.6598 1302 107.892 425.611 451.277
1529 0 95.2616 15.5152 1478 106.882 425.143 446.709
1530 0 98.2906 13.2159 1299 110.545 425.492 443.248
1531 0 103.167 15.4604 1595 106.983 427.041 438.004
1532 0 105.328 14.1938 1495 109.372 426.884 439.505
1533 0 111.209 12.6879 1411 111.735 427.819 437.51
1534 0 109.29 13.0479 1426 111.407 427.214 438.187
1535 1 66.035 15.9612 1054 105.206 427.724 456.621
1536 0 69.3436 14.9257 1035 105.595 425.722 446.848
1537 0 70.4317 14.0846 992 108.353 427.438 447.522
1538 0 75.7805 16.4818 1249 102.596 427.01 456.183
1539 0 75.3439 13.2459 998 110.53 428.596 446.128
1540 0 77.5196 14.4996 1124 108.474 428.622 451.784
1541 0 77.339 13.8093 1068 111.266 429.463 444.751
1542 0 79.6759 15.9019 1267 107.425 430.006 446.091
1543 0 82.0635 11.2352 922 114.184 432.663 450.887
1544 0 89.2517 14.3863 1284 108.991 432.786 449.831
1545 0 92.2039 15.1512 1397 107.107 433.075 450.671
1546 0 96.1671 18.3431 1764 103.613 433.181 448.706
1547 0 95.1193 14.5396 1383 111.101 433.553 448.358
1548 0 95.1242 10.5021 999 115.616 431.526 446.498
1549 0 103.155 15.1132 1559 108.972 433.287 449.192
1550 0 106.101 13.0158 1381 112.708 433.24 448.941
1551 1 57.0636 10.795 616 110.278 433.419 474.023
1552 0 59.0758 9.41163 556 112.971 432.865 472.363
1553 0 63.1306 10.2803 649 111.988 432.849 472.743
1554 0 64.3357 12.8855 829 108.897 429.703 468.593
1555 0 66.575 12.9027 859 108.477 429.595 464.726
1556 0 67.2884 13.4496 905 109.369 428.765 465.751
1557 0 71.3908 12.9429 924 109.84 427.917 464.894
1558 0 73.3578 13.2638 973 108.82 427.516 465.29
1559 0 77.6267 13.2815 1031 107.435 426.274 464.657
1560 0 78.2819 13.9751 1094 107.074 426.36 462.665
1561 0 80.5787 11.9511 963 110.58 425.556 462.494
1562 0 82.4593 13.6067 1122 109.152 425.582 456.793
1563 0 87.3614 13.965 1220 109.265 423.852 453.481
1564 0 87.2994 12.3139 1075 112.528 423.807 453.337
1565 0 89.559 16.0788 1440 106.94 423.276 457.731
1566 0 92.5158 10.4523 967 117.34 422.999 449.754
1567 0 99.7064 14.3622 1432 110.277 422.034 446.51
1568 0 101.395 17.2296 1747 106.464 423.165 448.286
1569 0 105.31 13.0092 1370 112.945 422.964 444.127
1570 0 107.296 12.4982 1341 114.292 423.658 443.65
1571 0 111.311 14.5808 1623 110.678 422.479 440.539
1572 0 111.391 11.5539 1287 116.463 422.775 431.916
1573 0 114.398 13.9775 1599 112.453 422.352 435.948
1574 0 117.456 14.1074 1657 112.688 423.444 432.26
1575 0 122.276 15.5877 1906 109.977 423.413 439.978
1576 0 127.381 12.6785 1615 114.774 424.129 427.678
1577 1 70.1761 9.67565 679 115.133 424.022 456.598
1578 0 72.2269 10.2593 741 114.381 427.605 449.725
1579 0 77.3967 15.6337 1210 105.093 427.748 452.906
1580 0 80.2637 14.6392 1175 104.597 428.614 456.757
1581 0 81.2099 14.9859 1217 107.584 428.947 446.406
1582 0 85.2867 14.4806 1235 107.428 429.854 451.9
1583 0 86.2618 12.578 1085 112.944 430.019 445.87
1584 0 91.461 11.7974 1079 114.141 430.373 447.774
1585 0 91.3741 13.6472 1247 112.56 430.321 446.714
1586 0 94.2362 14.5061 1367 111.853 430.71 443.053
1587 0 99.2754 14.7066 1460 109.527 432.955 442.278
1588 0 102.459 9.98452 1023 118.041 432.048 444.579
1589 0 103.458 14.3343 1483 112.152 432.276 443.496
1590 0 104.277 12.1599 1268 116.809 431.965 440.369
1591 0 108.575 12.5996 1368 119.27 432.626 442.017
1592 0 115.447 13.8852 1603 115.714 431.823 446.467
1593 1 64.3219 6.70068 431 119.923 432.436 473.529
1594 0 67.3878 9.61599 648 119.929 431.244 465.679
1595 0 70.5632 12.3719 873 112.81 430.183 465.997
1596 0 72.4287 13.4063 971 113.464 431.427 467.095
1597 0 72.4999 13.6 986 114.931 431.998 465.588
1598 0 75.165 16.2842 1224 110.358 430.832 469.591
1599 0 75.0943 11.4123 857 119.288 430.666 466.763
1600 0 80.2201 14.9588 1200 112.738 429.031 462.611
1601 0 82.2146 20.4951 1685 103.62 428.481 468.956
1602 0 83.2015 15.0478 1252 114.248 427.459 464.581
1603 0 84.201 13.2302 1114 118.806 427.019 460.139
1604 0 86.2545 12.9964 1121 117.778 426.885 464.229
1605 0 90.457 12.9454 1171 117.271 426.844 463.601
1606 0 91.1989 15.4717 1411 115.338 426.46 453.935
1607 0 94.2165 13.5327 1275 117.864 425.398 454.675
1608 0 99.4734 15.1598 1508 114.03 425.513 449.582
1609 0 100.422 15.9427 1601 112.961 425.58 450.913
1610 0 100.395 12.6898 1274 119.543 424.787 445.575
1611 0 107.406 17.336 1862 111.547 424.681 441.43
1612 0 107.619 12.8694 1385 119.313 424.355 439.609
1613 0 110.559 12.482 1380 121.191 424.678 433.418
1614 0 113.432 13.6028 1543 120.113 423.36 433.854
1615 0 116.372 14.3677 1672 118.028 424.806 437.18
1616 0 122.243 14.1849 1734 116.914 423.921 435.529
1617 1 69.146 10.1669 703 119.644 424.142 457.579
1618 0 71.5268 15.0293 1075 111.954 423.228 454.063
1619 0 70.4585 11.7232 826 115.176 424.551 446.054
1620 0 78.5908 16.2996 1281 108.611 424.773 451.973
1621 0 77.346 12.1402 939 117.699 424.843 447.066
1622 0 82.5849 15.2086 1256 112.205 425.971 445.053
1623 0 84.4401 14.1165 1192 114.194 427.671 446.047
1624 0 88.5259 15.0351 1331 112.13 427.589 446.522
1625 0 88.3046 15.0615 1330 112.678 427.781 446.208
1626 0 91.3753 12.5307 1145 116.631 428.788 442.591
1627 0 96.3418 14.7703 1423 112.976 429.306 441.41
1628 0 99.441 14.9435 1486 111.963 429.808 443.779
1629 0 104.453 14.686 1534 113.392 430.458 439.589
1630 0 105.509 17.9226 1891 107.168 430.351 446.817
1631 1 61.312 10.5363 646 113.902 428.972 464.666
1632 0 63.1649 9.68893 612 109.297 428.644 468.739
1633 0 61.4556 11.8785 730 108.522 430.025 460.122
1634 0 66.2243 12.1406 804 106.905 429.22 467.362
1635 0 65.2147 11.2398 733 109.136 430.619 465.909
1636 0 67.2932 11.918 802 109.203 428.96 465.143
1637 0 69.2441 12.3332 854 107.441 429.254 464.922
1638 0 70.2563 15.173 1066 103.423 430.141 463.8
1639 0 75.3491 12.8867 971 105.956 429.069 463.623
1640 0 79.2095 12.8772 1020 105.896 429.237 458.275
1641 0 79.2095 12.8267 1016 116.573 428.25 458.292
1642 0 82.2911 11.7024 963 107.731 427.51 462.123
1643 0 84.097 12.0932 1017 107.624 426.493 464.336
1644 0 89.2403 14.6459 1307 104.593 425.749 461.193
1645 0 90.2632 14.9673 1351 104.818 425.335 456.519
1646 0 91.6168 13.5019 1237 107.152 423.993 453.163
1647 0 95.2106 13.8325 1317 107.008 423.971 456.752
1648 0 96.2944 16.5015 1589 104.11 424.464 454.269
1649 0 98.3585 15.4943 1524 105.888 423.446 449.526
1650 0 104.267 18.0978 1887 102.254 423.68 448.411
1651 0 105.267 11.9791 1261 111.178 422.209 446.429
1652 0 107.331 12.0189 1290 112.598 422.348 439.705
1653 0 111.292 14.8978 1658 107.973 422.294 434.738
1654 0 115.422 13.3164 1537 110.468 422.174 440.641
1655 1 62.1753 10.6634 663 109.828 421.196 462.674
1656 0 65.21 10.9799 716 109.972 421.485 460.448
1657 0 69.2543 13.2122 915 106.343 424.131 459.998
1658 0 73.4567 13.0961 962 105.88 423.307 456.56
1659 0 74.6297 12.6893 947 107.44 423.902 456.721
1660 0 75.394 14.1788 1069 106.302 424.376 452.64
1661 0 79.7208 15.6421 1247 104.114 424.792 449.742
1662 0 79.5713 11.9641 952 110.549 424.392 446.488
1663 0 83.6134 11.6728 976 111.608 425.456 445.556
1664 0 89.6677 13.0928 1174 107.446 427.09 448.146
1665 0 84.5555 11.1879 946 111.462 426.492 448.821
1666 0 92.5064 15.8043 1462 106.273 427.905 443.864
1667 0 94.4644 13.9735 1320 109.358 428.265 446.277
1668 0 97.7169 15.6165 1526 107.748 428.658 440.169
1669 0 100.644 13.344 1343 110.803 427.891 442.331
1670 0 102.57 15.1213 1551 109.503 429.279 441.068
1671 0 106.613 14.8669 1585 109.351 429.026 442.657
1672 0 113.531 17.722 2012 105.233 429.194 435.346
1673 0 113.54 15.4483 1754 109.344 429.547 435.478
1674 0 117.323 16.152 1895 107.682 431.254 435.227
1675 1 63.2577 10.6232 672 109.155 431.583 468.43
1676 0 65.3704 16.7201 1093 100.995 429.952 467.067
1677 0 68.7522 22.9956 1581 95.907 430.056 462.225
1678 0 69.6753 12.142 846 110.355 431.129 464.767
1679 0 70.4137 14.1166 994 108.822 430.97 462.577
1680 0 75.3076 13.1461 990 105.348 429.047 466.916
1681 0 74.2058 11.5624 858 110.045 429.867 461.385
1682 0 77.0898 11.2077 864 110.868 429.154 465.354
1683 0 81.3864 11.5253 938 112.192 429.027 464.255
1684 0 82.2639 12.4356 1023 109.025 429.077 469.424
1685 0 82.2934 11.3982 938 112.505 428.919 463.717
1686 0 84.2296 12.6084 1062 113.136 426.918 461.613
1687 0 89.3152 13.0101 1162 112.33 426.231 459.821
1688 0 90.3089 12.5237 1131 113.352 425.206 457.223
1689 0 96.5308 14.3167 1382 109.887 425.821 458.556
1690 0 102.025 15.5059 1582 110.339 424.424 450.948
1691 0 102.638 14.0299 1440 113.499 423.806 450.324
1692 1 59.4554 7.68644 457 115.101 422.888 474.525
1693 0 60.5947 9.65431 585 115.356 422.692 467.309
1694 0 63.4545 12.7335 808 107.286 422.173 471.481
1695 0 62.3841 12.0063 749 107.159 421.469 464.567
1696 0 68.2476 13.1287 896 106.452 420.694 463.088
1697 0 70.3215 13.3814 941 106.93 421.254 459.605
1698 0 74.2203 14.6321 1086 103.523 420.787 461.418
1699 0 75.2691 13.0997 986 105.665 420.535 459.298
1700 0 77.2724 13.1095 1013 105.585 421.214 457.258
1701 0 80.3418 14.3636 1154 104.58 421.508 453.763
1702 0 80.2742 10.9001 875 107.976 423.446 454.861
1703 0 82.3579 13.2956 1095 105.216 422.926 449.751
1704 0 93.9403 14.0621 1321 101.329 424.283 451.69
1705 0 91.2636 14.3212 1307 102.187 423.081 446.493
1706 0 89.2638 14.698 1312 103.475 424.302 441.858
1707 0 96.2718 12.4024 1194 105.545 424.427 444.113
1708 0 96.2718 12.4232 1196 132.446 424.39 443.916
1709 0 102.438 13.7741 1411 105.794 424.687 432.892
1710 1 60.1877 11.2648 678 106.929 425.364 457.81
1711 0 63.494 14.1903 901 103.377 427.466 459.317
1712 0 69.6681 16.1767 1127 97.1517 428.221 460.269
1713 0 64.6004 14.6593 947 104.721 428.448 455.328
1714 0 67.3758 16.0592 1082 102.536 428.811 456.237
1715 0 68.5533 12.9826 890 106.761 429.482 458.261
1716 0 72.3964 14.6416 1060 104.384 430.339 456.886
1717 0 73.4259 13.0199 956 107.545 430.346 458.326
1718 0 76.3225 12.0803 922 109.874 430.625 457.548
1719 0 78.4802 17.8389 1400 102.028 431.338 455.886
1720 0 80.3369 15.6217 1255 105.304 431.404 458.798
1721 0 80.4559 12.628 1016 110.323 430.638 459.506
1722 0 87.2939 16.5647 1446 105.297 430.915 458.831
1723 0 87.6275 13.7057 1201 110.591 430.41 455.888
1724 0 92.6118 12.9573 1200 111.736 430.661 453.941
1725 0 96.8139 14.2025 1375 109.468 430.156 448.814
1726 0 99.8851 15.3877 1537 107.877 428.841 448.597
1727 1 57.6001 11.5798 667 108.85 429.126 474.25
1728 0 60.5621 11.9547 724 108.762 428.896 473.221
1729 0 61.6981 14.2792 881 100.134 428.084 472.989
1730 0 60.2808 9.45575 570 105.835 428.061 475.853
1731 0 62.3882 14.538 907 100.43 424.728 472.676
1732 0 63.4978 13.9847 888 102.511 425.22 471.119
1733 0 68.3423 14.3103 978 103.595 424.008 466.301
1734 0 66.2495 13.9775 926 105.653 423.739 461.354
1735 0 70.3051 12.332 867 106.279 423.044 467.066
1736 0 74.3358 12.9816 965 105.778 424.687 461.907
1737 0 71.2274 7.96042 567 114.587 424.252 459.864
1738 0 73.2143 12.7707 935 109.345 424.056 456.559
1739 0 77.4969 11.4585 888 110.601 422.821 456.042
1740 0 81.3419 15.0845 1227 106.335 422.412 452.874
1741 0 83.4731 12.5549 1048 109.906 423.447 450.629
1742 0 83.719 13.0556 1093 110.156 422.966 447.65
1743 0 85.2993 11.3131 965 113.533 422.578 445.59
1744 0 88.6608 14.5386 1289 109.455 423.085 446.38
1745 0 92.6807 10.4768 971 114.478 422.855 444.811
1746 0 94.4913 13.9166 1315 111.119 423.448 438.776
1747 0 99.6248 14.5145 1446 110.125 423.853 439.178
1748 0 101.344 15.107 1531 110.462 423.133 432.268
1749 0 105.796 12.524 1325 111.533 423.78 434.359
1750 0 108.699 15.2164 1654 110.164 424.433 426.978
1751 0 115.886 20.8653 2418 101.674 425.259 428.132
1752 1 67.2568 14.5859 981 106.338 425.345 452.703
1753 0 69.3338 11.2788 782 111.208 426.377 450.795
1754 0 70.3753 13.158 926 111.287 427.487 449.595
1755 0 73.6589 13.6304 1004 111.209 428.443 450.96
1756 0 73.4323 13.9584 1025 109.496 428.773 453.469
1757 0 76.4194 15.6767 1198 107.639 429.049 451.505
1758 0 80.5173 14.6056 1176 108.654 430.699 453.616
1759 0 80.5173 14.6677 1181 141.455 432.694 453.611
1760 0 86.6267 13.5293 1172 111.736 430.904 448.765
1761 0 97.5195 16.5198 1611 103.548 430.895 452.75
1762 0 91.5026 13.5297 1238 112.41 431.2 447.132
1763 0 95.8197 15.2891 1465 109.89 431.05 445.242
1764 0 98.5047 12.7913 1260 112.848 430.936 449.733
1765 0 104.063 13.3381 1388 112.032 430.447 440.252
1766 0 107.756 14.6534 1579 108.357 430.36 448.951
1767 0 111.896 19.831 2219 102 429.617 447.746
1768 0 111.607 15.1245 1688 110.162 429.461 444.041
1769 0 116.35 15.2041 1769 108.896 429.265 446.789
1770 0 120.727 12.8471 1551 112.583 430.221 441.079
1771 0 125.479 14.0502 1763 111.274 428.854 436.438
1772 0 131.787 11.7462 1548 115.156 427.969 434.491
1773 0 136.672 11.78 1610 114.38 426.667 431.224
1774 1 75.6039 9.45719 715 110.256 426.766 462.634
1775 0 81.1864 12.5883 1022 107.008 426.36 461.146
1776 0 81.3359 10.3521 842 111.097 424.752 457.874
1777 0 85.3527 14.3522 1225 103.763 424.247 460.291
1778 0 90.4337 12.0973 1094 106.948 423.63 454.894
1779 0 92.3685 12.4826 1153 106.6 422.745 448.951
1780 0 95.824 12.0429 1154 106.314 421.784 453.315
1781 0 96.1929 12.5581 1208 105.891 424.09 455.391
1782 0 100.288 11.3273 1136 108.008 423.607 450.78
1783 0 100.378 12.3035 1235 107.696 423.824 443.338
1784 0 106.509 13.6702 1456 104.389 423.405 443.249
1785 0 110.276 11.3805 1255 107.333 423.859 447.11
1786 0 114.762 15.554 1785 103.058 423.506 444.478
1787 1 63.2179 12.4016 784 101.62 424.647 466.017
1788 0 63.2179 12.3699 782 125.375 425.614 465.848
1789 0 66.3185 11.7463 779 103.334 423.579 457.37
1790 0 67.1549 14.8909 1000 104.675 425.846 456.529
1791 0 70.1994 13.7466 965 105.676 426.595 457.168
1792 0 75.3264 15.2403 1148 102.879 427.318 455.268
1793 0 71.3155 12.3255 879 108.945 426.987 452.519
1794 0 74.1698 10.1524 753 111.185 428.112 453.954
1795 0 78.5449 11.1656 877 108.414 427.881 455.105
1796 0 77.3924 11.8229 915 108.126 428.596 452.314
1797 0 80.4711 12.0292 968 108.865 428.694 446.022
1798 0 86.4238 13.7578 1189 105.88 429.684 447.193
1799 0 91.4949 13.5855 1243 105.748 429.783 450.672
1800 0 87.305 10.9959 960 110.252 430.858 449.126
1801 0 90.4914 8.01181 725 114.579 432.026 444.139
1802 0 98.4523 12.8895 1269 107.796 431.577 439.564
1803 0 101.845 11.6746 1189 109.761 431.722 442.065
1804 0 106.604 13.3484 1423 107.729 430.554 445.013
1805 1 56.3694 10.2006 575 112.908 431.454 460.508
1806 0 60.2728 8.14629 491 113.904 431.937 465.456
1807 0 62.2477 9.67104 602 112.854 432.385 462.978
1808 0 65.8307 10.8916 717 113.742 431.119 461.172
1809 0 68.2549 13.4789 920 109.19 431.678 466.214
1810 0 70.2762 13.447 945 110.418 430.822 465.534
1811 0 74.5388 12.034 897 112.171 431.035 466.401
1812 0 76.4091 13.9381 1065 109.036 430.223 466.932
1813 0 78.4029 12.2955 964 112.507 430.009 463.466
1814 0 77.4059 12.8156 992 112.802 428.486 464.503
1815 0 85.3301 11.2153 957 114.365 427.857 463.488
1816 0 87.5168 14.5915 1277 110.224 427.618 459.774
1817 0 87.2936 12.3949 1082 114.899 427.104 454.797
1818 0 95.7786 12.9883 1244 113.518 426.092 452.213
1819 0 96.5719 15.0872 1457 111.046 424.886 450.285
1820 0 97.7808 12.7019 1242 115.295 425.327 452.287
1821 0 100.762 13.914 1402 114.306 424.425 449.879
1822 0 102.667 13.5973 1396 113.802 424.277 448.069
1823 0 109.04 14.8753 1622 110.511 423.445 439.665
1824 1 62.388 14.49 904 107.102 423.117 468.663
1825 0 64.4665 12.2699 791 110.135 422.204 467.215
1826 0 64.2006 12.5232 804 111.711 424.318 469.239
1827 0 67.2704 14.3154 963 109.725 424.649 465.984
1828 0 69.0612 16.6374 1149 107.167 425 459.207
1829 0 70.1081 14.4919 1016 109.933 424.427 463.261
1830 0 72.1454 12.0728 871 114.134 425.119 461.073
1831 0 74.2148 12.5312 930 114.47 424.972 456.39
1832 0 76.0797 13.0258 991 113.974 424.353 454.042
1833 0 81.0834 15.0339 1219 108.312 424.756 454.285
1834 0 83.1721 14.1514 1177 110.947 426.403 452.282
1835 0 84.2778 11.5333 972 114.677 426.014 451.63
1836 0 85.1534 11.814 1006 115.694 427.471 447.951
1837 0 89.2807 14.8184 1323 110.556 427.749 445.717
1838 0 94.1145 11.486 1081 115.016 428.673 445.919
1839 0 95.1786 14.5411 1384 109.737 428.012 446.892
1840 0 97.166 11.9383 1160 114.409 428.834 446.172
1841 0 101.286 15.4413 1564 110.035 428.177 445.831
1842 0 101.344 11.9593 1212 114.717 428.857 443.724
1843 0 103.347 13.1499 1359 115.04 429.148 440.905
1844 0 109.631 12.4691 1367 116.895 429.854 432.235
1845 0 110.471 12.9264 1428 114.269 429.299 422.12
1846 0 113.814 14.1547 1611 112.578 430.354 423.609
1847 0 117.456 13.3412 1567 114.103 430.112 430.953
1848 1 69.477 10.8381 753 113.827 430.94 457.124
1849 0 70.3397 12.724 895 110.444 430.473 453.144
1850 0 73.2245 15.1179 1107 106.321 429.395 453.589
1851 0 76.3398 13.3875 1022 107.72 429.779 458.992
1852 0 79.3432 10.902 865 111.732 429.239 460.58
1853 0 82.2554 13.6526 1123 107.09 431.265 462.746
1854 0 82.2554 13.7012 1127 119.426 431.291 462.775
1855 0 89.2403 15.5871 1391 103.24 429.994 458.771
1856 0 94.2183 13.5855 1280 105.596 429.676 456.857
1857 0 96.5024 15.3882 1485 102.665 427.935 455.412
1858 0 100.347 15.7155 1577 102.115 427.931 458.186
1859 0 100.191 10.9491 1097 109.702 426.678 457.835
1860 0 104.326 13.0648 1363 106.975 425.85 451.927
1861 0 107.713 14.7522 1589 104.58 425.614 452.894
1862 0 109.308 13.1921 1442 109.069 425.424 442.949
1863 1 62.2925 8.41193 524 113.763 424.656 469.552
1864 0 64.4065 13.1509 847 106.044 423.234 470.342
1865 0 69.3267 11.9002 825 105.118 422.213 462.629
1866 0 71.2559 9.54307 680 108.891 421.684 451.593
1867 0 72.2602 13.7697 995 102.583 421.444 452.933
1868 0 75.2116 13.9207 1047 101.831 421.42 460.24
1869 0 77.2623 14.3278 1107 102.356 421.257 459.614
1870 0 79.1718 12.1129 959 104.614 420.897 460.76
1871 0 81.2458 13.8592 1126 102.776 420.925 454.821
1872 0 85.3946 13.9587 1192 103.043 421.138 450.699
1873 0 87.3271 11.7833 1029 107.036 420.801 450.914
1874 0 86.2281 15.5518 1341 103.186 421.402 445.244
1875 0 89.1962 11.0655 987 109.499 421.645 446.46
1876 0 95.4374 14.596 1393 104.681 421.945 442.637
1877 0 101.203 18.458 1868 98.5658 422.328 443.502
1878 0 103.489 15.3059 1584 104.143 422.891 441.524
1879 0 105.133 13.9252 1464 107.511 423.782 435.901
1880 0 111.211 12.3189 1370 109.619 424.268 439.499
1881 0 110.155 14.1801 1562 109.485 424.552 431.609
1882 0 116.261 14.2524 1657 109.792 425.453 430.607
1883 1 64.2533 12.3262 792 111.004 425.909 456.261
1884 0 70.1436 13.8145 969 109.395 427.889 458.28
1885 0 74.2104 17.0865 1268 104.468 426.034 455.471
1886 0 73.123 14.3047 1046 109.409 425.757 453.669
1887 0 78.0746 13.359 1043 111.114 428.387 453.343
1888 0 80.206 14.4254 1157 109.114 427.592 454.67
1889 0 87.1905 12.8454 1120 111.571 428.862 452.627
1890 0 83.2638 12.3703 1030 113.509 429.711 452.705
1891 0 87.4156 14.1737 1239 111.092 430.613 454.235
1892 0 94.5299 16.0796 1520 105.886 429.36 457.842
1893 0 91.3668 11.7877 1077 116.823 429.327 450.028
1894 0 98.3717 18.054 1776 106.842 428.941 450.82
1895 0 100.35 13.2137 1326 114.927 429.688 447.757
1896 0 105.335 13.2244 1393 113.8 429.398 452.738
1897 0 108.733 12.9859 1412 114.159 429.954 448.183
1898 1 64.2173 9.91945 637 113.73 429.484 464.223
1899 0 60.3061 12.7019 766 112.27 428.906 464.505
1900 0 66.2885 16.0209 1062 104.257 427.597 465.681
1901 0 69.2962 12.1219 840 112.585 428.317 461.077
1902 0 72.3169 15.8469 1146 106.489 428.239 469.236
1903 0 73.4407 14.8555 1091 108.611 427.263 469.039
1904 0 75.1871 18.2079 1369 100.805 425.985 472.4
1905 0 78.2187 13.4495 1052 111.175 425.466 465.142
1906 0 80.3504 11.6614 937 114.988 425.098 461.928
1907 0 83.4365 14.6099 1219 109.733 424.891 464.417
1908 0 86.5548 13.3095 1152 111.575 424.347 459.655
1909 0 87.2689 13.7621 1201 111.206 423.408 454.132
1910 0 91.374 14.271 1304 111.047 423.54 455.828
1911 0 94.3723 13.7434 1297 112.184 422.87 450.969
1912 0 96.5078 14.5895 1408 110.94 422.906 450.628
1913 0 99.6959 16.7108 1666 108.245 421.956 447.235
1914 0 99.6959 16.7008 1665 126.536 420.933 447.235
1915 0 106.549 11.7223 1249 115.461 422.772 441.542
1916 0 109.812 15.9545 1752 108.31 422.791 444.072
1917 1 60.6258 11.9256 723 111.289 422.335 464.711
1918 0 64.6783 11.6268 752 110.702 423.601 462.702
1919 0 64.2113 15.34 985 105.987 423.817 459.785
1920 0 66.215 15.8423 1049 103.115 422.79 457.928
1921 0 67.0825 16.0698 1078 103.911 423.095 461.127
1922 0 68.1359 13.385 912 107.319 422.762 458.922
1923 0 73.4074 14.3719 1055 105.519 422.309 455.251
1924 0 76.4245 18.0963 1383 101.095 424.774 455.247
1925 0 76.3368 14.9993 1145 105.736 425.114 453.188
1926 0 79.2538 15.5576 1233 104.191 426.112 453.446
1927 0 80.3481 12.9188 1038 108.031 426.055 452.899
1928 0 81.1183 17.0615 1384 101.263 427.129 453.552
1929 0 85.2207 15.7591 1343 103.379 427.902 448.979
1930 0 89.1514 15.8831 1416 102.443 428.956 450.765
1931 0 88.2248 13.1936 1164 108.266 429.281 449.805
1932 0 94.2792 16.1329 1521 103.591 430.636 439.885
1933 0 96.7025 13.7949 1334 107.833 432.75 445.975
1934 0 97.567 11.3256 1105 111.246 432.201 448.443
1935 0 101.347 17.2772 1751 102.978 431.413 443.553
1936 0 104.623 14.2225 1488 106.84 431.439 440.966
1937 0 104.512 12.0177 1256 108.551 430.435 440.771
1938 0 108.536 14.2902 1551 105.636 430.654 441.561
1939 0 110.642 12.075 1336 109.836 429.676 432.647
1940 0 117.482 15.7982 1856 103.838 428.817 439.058
1941 0 120.53 18.1781 2191 101.648 429.047 431.84
1942 0 119.448 12.4071 1482 110.741 428.746 431.152
1943 0 126.483 10.8394 1371 112.176 427.726 425.117
1944 0 137.571 17.2274 2370 101.519 427.612 432.119
1945 0 137.436 19.5508 2687 100.589 425.12 421.404
1946 1 80.3255 12.3 988 103.935 425.572 456.447
1947 0 83.2314 16.6043 1382 102.033 424.708 458.034
1948 0 84.3247 14.2426 1201 106.422 425.016 439.182
1949 0 89.2021 14.5737 1300 105.131 424.88 440.338
1950 0 92.3884 13.4757 1245 106.663 424.642 433.852
1951 0 93.4171 13.9589 1304 107.474 423.222 425.331
1952 0 97.3746 13.8024 1344 108.291 423.025 423.202
1953 0 99.2514 14.1963 1409 107.864 423.098 427.895
1954 0 112.586 16.947 1908 101.609 422.706 428.698
1955 0 108.262 13.9476 1510 105.811 423.468 430.456
1956 0 111.641 18.022 2012 100.555 422.008 424.199
1957 0 112.619 15.8411 1784 103.122 421.721 420.496
1958 0 114.653 14.9494 1714 105.576 422.619 412.117
1959 0 114.382 12.3446 1412 109.336 422.771 413.271
1960 0 115.213 11.2661 1298 110.542 423.021 416.837
1961 1 67.1931 10.5666 710 104.941 422.046 447.731
1962 0 72.1542 14.8294 1070 98.5935 422.809 455.59
1963 0 73.4757 12.4395 914 102.684 423.647 446.646
1964 0 78.4777 14.9851 1176 101.094 424.51 437.328
1965 0 78.2834 10.2448 802 107.466 426.148 444.315
1966 0 91.4338 19.238 1759 92.3798 426.686 450.122
1967 0 85.2868 13.4605 1148 103.443 427.598 440.815
1968 0 87.2376 15.9908 1395 101.526 427.662 433.933
1969 0 88.1972 14.1841 1251 105.203 428.078 432.43
1970 0 89.5392 11.7937 1056 108.141 428.745 436.867
1971 0 92.1962 11.1501 1028 108.138 429.04 440.684
1972 0 97.3088 13.2054 1285 105.129 429.452 438.803
1973 0 100.123 14.7518 1477 103.538 427.818 436.829
1974 0 104.296 12.081 1260 107.163 428.422 439.52
1975 0 109.518 12.9842 1422 104.921 429.384 443.903
1976 0 113.136 15.1765 1717 104.216 429.347 430.722
1977 0 118.295 13.72 1623 105.768 430.761 436.86
1978 0 117.407 14.437 1695 105.354 431.295 438.09
1979 0 123.466 11.7522 1451 108.039 429.637 436.796
1980 0 131.386 13.4641 1769 105.133 429.937 435.206
1981 0 131.35 10.6129 1394 110.107 430.339 422.707
1982 0 142.425 19.5261 2781 98.7889 429.787 434.121
1983 0 145.678 11.4911 1674 107.931 429.91 433.547
1984 0 154.514 15.1249 2337 102.955 430.286 424.899
1985 0 160.711 13.7327 2207 104.898 429.222 426.13
1986 0 164.683 11.7984 1943 107.185 429.554 427.793
1987 0 171.429 14.5716 2498 104.256 426.439 421.415
1988 0 175.39 11.6597 2045 107.009 426.942 424.736
1989 0 174.369 11.0857 1933 141.66 427.961 422.298
1990 1 102.12 12.3482 1261 101.895 426.358 455.386
1991 0 110.34 11.2289 1239 102.958 425.471 452.529
1992 0 112.284 12.4328 1396 104.685 424.718 443.536
1993 0 113.175 12.4232 1406 104.877 424.175 444.532
1994 1 68.1962 9.54598 651 101.344 424.814 472.634
1995 0 67.3839 11.8426 798 98.807 420.972 467.252
1996 0 69.1937 10.3478 716 103.479 424.726 467.138
1997 0 70.3302 10.4365 734 103.693 423.09 467.977
1998 0 75.2464 12.891 970 100.502 423.812 459.927
1999 0 76.2433 12.9847 990 101.637 422.771 454.805
2000 0 73.3019 8.88108 651 108.06 423.366 460.966
2001 0 76.2443 10.2565 782 107.761 422.426 456.166
2002 0 80.6357 15.8367 1277 98.7016 423.999 461.248
2003 0 79.3406 15.4398 1225 102.789 424.051 454.007
2004 0 79.3406 15.3263 1216 132.439 425.095 453.967
2005 0 85.2956 12.146 1036 109.068 426.14 450.01
2006 0 87.411 14.9867 1310 105.011 423.597 451.379
2007 0 88.2847 12.1425 1072 111.213 425.02 448.736
2008 0 91.8054 13.8881 1275 107.1 424.755 445.955
2009 0 94.9852 15.4235 1465 107.156 426.153 440.149
2010 0 96.4624 13.9536 1346 110.118 427.934 438.078
2011 0 103.63 16.7712 1738 104.796 427.828 434.868
2012 0 103.535 14.7873 1531 110.445 429.035 432.698
2013 0 102.489 16.3042 1671 108.537 428.287 441.89
2014 0 104.328 13.8026 1440 114.243 429.708 433.003
2015 1 57.4887 10.3499 595 117.22 429.412 462.519
2016 0 60.5376 12.422 752 110.278 428.846 463.001
2017 0 62.1237 16.4993 1025 99.6585 428.5 467.889
2018 0 60.2152 12.1896 734 109.054 428.941 461.398
2019 0 67.0968 13.9649 937 107.48 429.413 464.57
2020 0 69.1196 13.1801 911 109.019 428.565 466.033
2021 0 70.0454 11.8352 829 110.72 428.894 467.683
2022 0 72.1426 12.1981 880 112.662 429.141 463.352
2023 1 143.214 15.8713 2273 109.466 428.85 436.883
2024 0 147.346 14.5576 2145 112.858 428.764 432.417
2025 1 76.1496 14.4584 1101 110.295 427.603 465.321
2026 0 76.1804 13.1267 1000 113.09 428.391 464.295
2027 0 77.382 11.7728 911 115.456 426.918 463.658
2028 0 81.2639 15.8988 1292 109.307 427.964 462.923
2029 0 84.4334 16.4035 1385 107.339 427.695 464.879
2030 0 85.3383 15.7842 1347 108.339 426.125 463.829
2031 0 84.2721 12.7563 1075 113.828 426.429 461.994
2032 0 87.2548 14.6926 1282 110.29 426.151 460.35
2033 0 90.365 14.8952 1346 110.591 425.538 455.203
2034 0 97.4392 19.7559 1925 102.002 425.296 452.677
2035 0 93.2164 12.9376 1206 111.373 424.058 451.874
2036 0 96.4844 13.2457 1278 107.989 423.37 452.016
2037 0 100.419 13.832 1389 107.354 423.383 448.429
2038 0 100.431 12.5359 1259 108.798 422.974 448.042
2039 0 103.414 16.4291 1699 103.161 422.859 443.051
2040 0 107.182 15.8142 1695 103.087 421.532 445.126
2041 0 108.491 14.3975 1562 105.979 422.554 440.795
2042 0 111.248 19.8206 2205 99.6458 421.792 437.477
2043 0 114.328 17.5636 2008 102.131 421.778 442.476
2044 0 116.305 14.4018 1675 106.857 421.365 432.891
2045 0 122.246 17.2602 2110 102.59 421.365 435.062
2046 0 123.279 13.8304 1705 107.568 421.534 430.61
2047 0 130.679 16.6821 2180 103.533 422.461 423.564
2048 0 131.406 13.6219 1790 106.241 423.25 433.459
2049 0 131.406 13.6675 1796 137.178 423.249 433.483
2050 0 139.544 18.7683 2619 100.462 425.783 424.464
2051 0 144.696 15.6674 2267 104.049 427.067 425.186
2052 0 148.334 17.8516 2648 102.845 426.13 416.434
2053 1 80.2894 11.4087 916 108.703 425.596 445.385
2054 0 84.2173 13.9995 1179 104.309 426.462 449.567
2055 0 90.2958 15.5932 1408 102.94 428.422 445.535
2056 0 92.2138 13.4796 1243 105.952 427.268 432.339
2057 0 95.1452 15.324 1458 103.359 428.806 433.056
2058 0 95.1452 15.2504 1451 130.213 430.817 432.771
2059 0 97.2359 14.6859 1428 107.011 429.508 437.494
2060 0 95.2959 10.672 1017 113.349 429.747 436.457
2061 0 102.293 12.1514 1243 111.732 430.414 427.584
2062 0 107.239 13.1575 1411 109.735 430.473 426.391
2063 0 109.219 14.9241 1630 108.194 430.641 426.587
2064 0 116.224 14.4549 1680 109.081 431.757 422.971
2065 0 117.255 17.3212 2031 105.601 430.411 429.791
2066 0 122.17 13.5466 1655 110.535 431.322 436.088
2067 0 126.342 11.9121 1505 113.026 430.138 440.824
2068 0 133.462 13.5319 1806 109.937 430.32 436.758
2069 0 139.487 14.9405 2084 109.836 429.532 433.663
2070 1 84.461 12.6331 1067 109.641 430.407 463.703
2071 0 87.3026 13.0008 1135 110.73 428.26 455.981
2072 0 90.3422 12.7515 1152 111.058 426.434 456.353
2073 0 93.4228 14.0223 1310 109.102 426.382 455.95
2074 0 94.3595 13.1836 1244 112.003 426.264 452.016
2075 0 97.3473 11.1868 1089 114.505 424.849 447.311
2076 0 102.547 11.5947 1189 113.4 424.175 448.865
2077 0 105.651 13.4405 1420 111.682 423.612 444.033
2078 0 108.224 12.2985 1331 110.074 422.598 448.2
2079 0 112.369 13.0196 1463 109.792 421.56 438.694
2080 0 113.368 8.86491 1005 115.983 421.643 444.815
2081 1 64.2324 10.2907 661 111.133 421.74 463.451
2082 0 68.1299 15.2209 1037 103.941 420.906 465.544
2083 0 68.2125 12.7982 873 109.268 421.502 461.186
2084 0 69.2097 12.007 831 112.014 420.514 456.267
2085 0 72.2964 11.4252 826 112.19 420.501 455.579
2086 0 76.503 14.6922 1124 107.242 421.949 453.578
2087 0 77.2758 13.3418 1031 109.883 421.398 450.49
2088 0 80.5344 13.0007 1047 110.081 422.947 452.495
2089 0 79.4708 12.1428 965 112.318 422.605 450.76
2090 0 81.4999 11.3006 921 114.118 422.973 446.851
2091 0 84.3619 10.8935 919 113.803 424.466 452.367
2092 0 88.5191 13.4886 1194 111.749 425.294 442.936
2093 0 91.3187 13.7978 1260 111.652 424.894 443.151
2094 0 94.3857 12.9469 1222 113.023 425.098 440.359
2095 0 93.2624 12.2665 1144 115.696 427.184 438.361
2096 0 98.4466 13.0731 1287 114.43 426.339 438.16
2097 0 102.42 13.5326 1386 113.453 427.184 441.496
2098 0 110.936 15.4053 1709 109.159 428.253 441.561
2099 0 108.48 13.468 1461 115.038 429.318 434.788
2100 0 114.641 15.5529 1783 111.347 429.526 436.551
2101 0 118.479 10.812 1281 111.207 429.396 438.81
2102 1 70.4534 11.7383 827 106.67 429.78 457.466
2103 0 73.389 12.1272 890 106.725 430.509 456.7
2104 0 73.241 13.1347 962 106.588 431.02 455.007
2105 0 77.5784 15.4682 1200 103.332 430.305 457.674
2106 0 77.1756 10.8713 839 110.851 431.863 457.718
2107 0 81.2444 15.1518 1231 105.52 429.729 456.136
2108 0 84.4622 12.4434 1051 108.851 429.126 458.101
2109 0 85.5005 14.3625 1228 107.547 429.637 455.888
2110 0 89.6423 17.871 1602 102.793 428.363 459.196
2111 0 90.4211 14.9744 1354 109.597 428.933 453.419
2112 0 97.4584 14.7961 1442 108.847 427.848 455.225
2113 0 95.3346 12.0628 1150 115.303 428.086 447.254
2114 0 98.5345 13.985 1378 113.167 426.385 449.406
2115 0 103.285 11.6474 1203 115.744 426.35 450.85
2116 0 104.259 12.0374 1255 114.421 425.241 451.532
2117 0 111.485 12.6385 1409 112.188 424.423 451.526
2118 0 115.597 15.5713 1800 109.599 424.465 437.435
2119 0 118.602 14.4516 1714 110.681 424.313 441.401
2120 0 120.452 13.7067 1651 112.114 423.823 439.669
2121 0 123.379 12.9276 1595 113.771 422.724 435.322
2122 0 127.388 13.5334 1724 110.653 422.648 438.658
2123 0 129.511 13.6745 1771 113.176 422.381 425.548
2124 0 135.588 13.8877 1883 111.182 422.476 433.255
2125 0 139.675 13.9538 1949 113.933 422.482 421.068
2126 1 202.939 12.8364 2605 118.274 421.728 392.158
2127 1 153.533 16.8238 2583 108.387 421.031 422.501
2128 1 82.43 16.6929 1376 102.826 422.238 451.895
2129 0 81.4231 11.3973 928 111.205 421.533 444.642
2130 0 87.4102 14.9182 1304 105.169 422.578 441.215
2131 0 89.3891 12.3729 1106 108.318 421.856 440.211
2132 0 93.3286 16.6937 1558 102.874 422.705 440.78
2133 0 94.3169 13.4228 1266 106.117 423.295 444.19
2134 0 97.1904 9.85694 958 111.9 424.101 440.307
2135 0 102.414 10.5943 1085 110.711 424.088 437.922
2136 0 106.416 16.0314 1706 104.57 425.392 436.134
2137 0 106.279 15.7134 1670 105.657 426.173 437.142
2138 0 110.202 13.8564 1527 107.301 426.614 439.196
2139 0 113.496 12.8639 1460 110.161 426.958 431.164
2140 0 119.259 13.6007 1622 108.727 427.338 432.803
2141 0 123.369 13.9419 1720 108.252 427.04 427.199
2142 0 124.222 17.7022 2199 103.042 428.319 427.896
2143 0 129.465 12.9301 1674 109.899 427.992 422.246
2144 0 133.467 11.531 1539 110.187 428.177 428.331
2145 0 138.253 11.9491 1652 110.552 430.203 426.198
2146 0 145.454 17.2907 2515 103.84 429.907 422.171
2147 0 144.532 11.1256 1608 113.917 431.208 414.264
2148 0 147.539 7.71321 1138 116.568 429.363 429.289
2149 1 90.2896 13.0137 1175 108.61 430.134 450.015
2150 0 92.1707 10.4806 966 114.789 429.727 440.937
2151 0 97.4973 14.1337 1378 109.272 429.808 445.578
2152 0 101.443 13.6924 1389 110.599 429.224 438.539
2153 0 105.509 13.5155 1426 110.439 428.724 443.523
2154 0 115.546 15.4051 1780 107.129 429.588 443.627
2155 0 112.269 15.9616 1792 108.643 429.323 442.533
2156 0 115.328 11.1941 1291 116.516 427.629 441.874
2157 0 118.355 15.4535 1829 109.851 427.043 444.867
2158 0 123.374 12.1743 1502 109.658 425.725 443.718
2159 0 127.185 12.3128 1566 108.547 425.051 441.488
2160 0 135.513 17.9983 2439 99.8942 424.486 445.104
2161 0 137.282 15.6248 2145 105.063 423.827 428.441
2162 0 146.581 15.8069 2317 104.839 424.56 431.975
2163 0 148.36 17.7541 2634 103.043 423.928 428.476
2164 0 152.454 12.2332 1865 110.411 423.049 420.412
2165 0 163.713 20.7802 3402 99.1446 421.02 417.291
2166 1 91.242 11.4092 1041 103.65 421.532 449.164
2167 0 92.5132 14.0304 1298 104.602 421.354 442.4
2168 0 96.469 15.1448 1461 102.864 422.095 448.081
2169 0 97.2862 11.091 1079 108.498 420.536 443.25
2170 0 102.383 16.8095 1721 100.074 421.453 450.616
2171 0 103.297 11.7816 1217 108.975 421.929 440.461
2172 0 108.672 12.1467 1320 108.046 421.511 440.793
2173 0 109.467 11.3733 1245 110.254 422.757 433.696
2174 0 112.404 12.4818 1403 108.914 422.401 436.157
2175 0 117.408 15.3567 1803 105.855 422.74 436.229
2176 0 119.522 13.6544 1632 109.648 423.218 426.871
2177 0 123.601 15.5096 1917 108.324 424.088 419.501
2178 0 123.528 11.8677 1466 111.775 425.359 419.023
2179 0 127.265 14.0102 1783 108.868 425.21 415.244
2180 0 129.371 14.3077 1851 109.052 426.63 414.862
2181 0 135.344 18.0577 2444 104.499 427.675 411.924
2182 0 139.553 15.392 2148 108.466 427.864 409.27
2183 1 80.3423 11.1772 898 107.293 427.39 449.003
2184 0 87.2405 9.15859 799 105.771 427.861 455.721
2185 0 89.3602 11.9292 1066 105.278 429.402 446.02
2186 0 90.2427 14.5275 1311 102.031 429.564 445.022
2187 0 93.434 13.8922 1298 102.96 430.604 445.12
2188 0 97.3975 13.5322 1318 103.526 430.858 445.794
2189 0 99.2415 10.1772 1010 107.997 431.542 447.235
2190 0 101.712 10.7362 1092 110.298 431.155 436.001
2191 0 104.448 10.7326 1121 110.324 430.574 440.248
2192 0 108.281 14.3792 1557 104.85 429.754 444.709
2193 0 113.38 16.4932 1870 102.117 430.271 444.421
2194 0 117.354 13.4976 1584 106.203 429.831 440.905
2195 0 120.377 14.1721 1706 105.795 428.725 441.283
2196 0 124.477 14.348 1786 105.596 429.169 445.176
2197 0 127.394 11.5861 1476 111.932 429.629 431.404
2198 0 133.697 16.4551 2200 105.062 428.265 434.331
2199 0 136.783 13.8102 1889 108.229 427.707 430.822
2200 1 81.3544 9.18205 747 106.163 426.064 462.793
2201 0 86.6023 10.6117 919 105.541 426.65 460.442
2202 0 88.5497 11.1576 988 107.918 423.748 454.163
2203 0 90.8287 10.4372 948 107.911 424.769 452.273
2204 0 95.3672 13.1911 1258 104.608 423.849 454.509
2205 0 97.1839 15.0848 1466 102.289 423.362 460.138
2206 0 99.4241 11.1039 1104 109.512 424.145 445.957
2207 0 113.089 17.9592 2031 97.1393 423.386 456.033
2208 0 104.692 11.6533 1220 110.648 423.22 439.065
2209 0 108.457 13.0928 1420 108.723 422.442 440.411
2210 0 110.498 11.6383 1286 111.043 423.263 436.257
2211 0 113.574 14.9682 1700 107.226 423.246 432.889
2212 0 115.639 16.4563 1903 104.797 423.325 438.489
2213 0 122.737 12.2457 1503 111.806 422.4 431.11
2214 0 124.607 10.6174 1323 113.359 423.317 429.417
2215 0 128.678 14.0195 1804 107.945 422.035 429.53
2216 0 134.526 16.822 2263 104.73 423.989 423.788
2217 0 136.649 15.0605 2058 108.262 423.391 421.232
2218 1 77.4109 8.1513 631 109.517 424.312 450.263
2219 0 80.9469 6.81929 552 111.257 424.25 449.466
2220 0 83.5309 13.9469 1165 102.585 425.569 450.427
2221 0 83.7411 11.7386 983 107.152 426.259 444.226
2222 0 86.3213 13.8552 1196 104.199 426.236 446.814
2223 0 87.6761 13.4472 1179 105.776 427.175 443.552
2224 0 90.545 14.5563 1318 105.29 428.085 436.088
2225 0 91.5739 10.396 952 111.748 429.707 441.949
2226 0 95.5939 13.8503 1324 108.097 429.542 440.634
2227 0 106.061 12.7191 1349 106.11 430.472 446.207
2228 0 102.55 12.9693 1330 110.161 429.799 438.592
2229 0 107.557 13.6021 1463 106.728 431.781 440.238
2230 0 108.524 14.1075 1531 107.152 431.641 438.315
2231 0 110.588 14.5314 1607 107.413 432.702 435.199
2232 0 112.61 13.489 1519 110.113 432.964 429.635
2233 0 115.666 14.1702 1639 109.931 431.794 432.609
2234 0 121.575 14.3862 1749 109.909 432.647 430.28
2235 0 125.366 14.3739 1802 110.62 433.347 431.555
2236 0 129.656 13.2582 1719 112.876 432.464 429.027
2237 0 134.33 10.5486 1417 116.05 432.767 429.696
2238 0 140.245 15.8081 2217 108.71 431.133 426.883
2239 0 147.482 16.7885 2476 105.851 431.735 433.16
2240 0 150.427 14.3258 2155 111.01 430.742 421.447
2241 0 156.428 13.6932 2142 111.639 430.208 425.399
2242 0 156.428 13.7187 2146 136.466 428.21 425.486
2243 1 95.2696 10.486 999 108.015 429.62 460.216
2244 0 99.3172 13.5324 1344 105.286 426.432 459.401
2245 0 104.345 16.7521 1748 102.019 425.617 455.072
2246 0 102.143 13.0895 1337 108.392 424.774 453.212
2247 0 105.276 14.2197 1497 107.815 424.621 450.222
2248 0 108.239 13.1468 1423 109.253 424.443 448.275
2249 0 111.235 14.1952 1579 107.97 423.128 440.902
2250 0 113.251 13.2802 1504 110.422 422.98 435.876
2251 0 113.251 13.3773 1515 135.54 421.007 435.964
2252 0 121.424 14.6923 1784 109.59 422.962 433.533
2253 0 121.424 14.7088 1786 136.207 425.996 433.685
2254 0 131.901 14.9506 1972 108.222 421.827 432.589
2255 0 131.362 11.5558 1518 113.574 421.617 432.2
2256 0 136.228 12.714 1732 113.436 421.83 425.405
2257 0 136.228 12.6333 1721 143.133 421.828 425.339
2258 0 141.599 11.5962 1642 117.178 422.991 415.054
2259 0 145.376 14.2458 2071 112.031 422.654 421.373
2260 0 153.699 12.3228 1894 114.37 423.549 419.51
2261 0 154.592 14.3669 2221 111.446 424.159 415.861
2262 1 97.3252 10.8708 1058 107.692 424.216 440.671
2263 0 96.4096 10.2065 984 107.436 425.457 433.131
2264 0 95.2955 8.43691 804 109.993 426.412 430.567
2265 0 103.323 11.4689 1185 109.113 426.035 442.399
2266 0 106.317 13.5915 1445 101.956 427.988 445.598
2267 1 183.92 14.7184 2707 111.249 427.192 393.682
2268 0 189.416 13.663 2588 112.867 427.765 391.968
2269 1 112.282 13.0386 1464 104.178 429.736 442.648
2270 0 112.282 13.003 1460 125.19 430.716 442.936
2271 0 121.212 11.2943 1369 106.869 429.835 433.053
2272 0 124.408 11.7758 1465 106.375 431.565 437.827
2273 0 126.242 10.2264 1291 109.476 430.964 430.987
2274 0 132.353 13.8342 1831 103.548 431.461 433.851
2275 0 135.341 9.79011 1325 110.149 431.851 428.488
2276 1 157.345 10.4865 1650 100.7 432.423 449.316
2277 0 151.462 6.72777 1019 110.904 431.614 437.991
2278 0 155.497 16.6306 2586 101.036 430.879 432.791
2279 0 156.709 12.7179 1993 102.874 431.867 439.629
2280 0 161.34 11.919 1923 108.394 432.647 423.93
2281 0 168.394 12.1442 2045 110.259 430.684 418.594
2282 0 174.242 10.8183 1885 111.466 431.062 415.983
2283 0 179.412 11.1643 2003 114.099 430.22 406.779
2284 0 186.679 10.5582 1971 114.561 430.303 411.888
2285 0 192.617 13.519 2604 111.492 428.15 401.75
2286 0 197.455 10.8987 2152 112.188 426.958 418.572
2287 1 207.721 16.1322 3351 107.048 425.954 401.883
2288 0 210.688 12.2551 2582 114.361 426.11 389.477
2289 1 246.528 9.17542 2262 113.705 424.753 404.809
2290 0 243.577 6.25674 1524 114.667 425.145 411.999
2291 0 242.803 9.67449 2349 114.304 423.359 390.243
2292 0 246.773 11.5085 2840 113.156 423.806 372.298
2293 0 255.813 12.7046 3250 111.696 422.563 359.755
2294 0 261.824 13.9941 3664 110.946 422.144 367.769
2295 0 272.027 14.414 3921 110.437 421.624 363.596
2296 0 278.862 12.906 3599 111.897 423.124 367.376
2297 0 284.842 13.0072 3705 112.896 423.091 356.06
2298 0 356.23 19.9618 7111 105.568 423.142 292.844
2299 1 300.839 13.6186 4097 112.368 423.116 349.282
2300 0 309.02 13.1836 4074 113.005 423.385 345.603
2301 1 75.168 9.93774 747 102.74 422.448 459.627
2302 0 81.1599 11.0523 897 102.634 422.371 448.954
2303 0 81.5435 14.2623 1163 100.858 422.213 453.067
2304 0 86.2757 8.46125 730 109.06 422.973 451.156
2305 0 85.3464 12.1153 1034 104.97 423.244 448.948
2306 0 86.4745 9.40161 813 109.478 423.661 448.347
2307 0 87.2967 10.1608 887 110.285 423.357 443.161
2308 0 92.2366 11.0802 1022 105.295 425.729 443.944
2309 0 95.2656 12.3549 1177 104.763 425.157 443.794
2310 0 95.3583 12.9302 1233 105.275 427.126 443.483
2311 0 99.4848 14.173 1410 103.752 427.258 437.543
2312 0 101.599 12.136 1233 106.59 427.466 437.386
2313 1 57.1097 9.19283 525 99.1638 428.888 456.318
2314 0 62.3926 12.4214 775 93.311 431.643 462.295
2315 0 63.8926 12.0671 771 93.952 431.757 462.18
2316 0 66.3995 10.6477 707 95.5078 431.744 438.656
2317 0 66.2109 14.6501 970 92.9608 431.338 436.052
2318 0 70.0922 12.0127 842 94.2827 430.34 433.259
2319 0 72.1759 18.7597 1354 88.8996 429.088 434.41
2320 0 73.2246 13.8068 1011 94.7765 428.976 435.22
2321 0 72.241 12.0153 868 97.8975 428.403 438.089
2322 0 75.1095 10.2384 769 100.692 428.609 440.784
2323 0 78.3223 16.7513 1312 93.3003 428.22 442.639
2324 0 79.3012 13.5181 1072 99.2743 428.156 440.185
2325 0 83.1592 18.2662 1519 94.8637 427.802 439.434
2326 0 83.5084 14.5255 1213 99.4188 427.087 443.459
2327 0 86.2262 11.7018 1009 105.283 427.014 440.231
2328 0 86.2094 12.2376 1055 104.763 426.293 444.32
2329 0 93.2082 17.6808 1648 96.2445 425.883 448.043
2330 0 93.1544 14.2452 1327 102.853 424.912 446.078
2331 0 98.3348 12.9252 1271 105.073 424.335 444.926
2332 0 98.3269 17.5944 1730 99.2746 423.748 450.397
2333 0 102.538 19.2514 1974 98.8197 424.159 443.092
2334 0 104.436 15.8566 1656 102.563 422.284 447.899
2335 0 107.513 13.2821 1428 105.644 422.445 447.578
2336 0 110.387 15.0109 1657 104.994 422.163 437.908
2337 0 113.297 16.9731 1923 102.665 422.446 436.615
2338 0 115.627 15.0398 1739 104.712 422.614 434.459
2339 0 117.486 15.0827 1772 105.991 421.383 430.391
2340 0 117.466 15.0086 1763 107.347 421.551 427.368
2341 0 119.413 13.3151 1590 108.967 422.816 430.779
2342 0 128.328 17.4241 2236 104.953 422.084 427.255
2343 0 126.604 13.1196 1661 111.352 422.688 418.663
2344 0 131.477 14.6946 1932 108.762 423.24 423.959
2345 0 135.402 15.2213 2061 107.879 423.676 417.815
2346 1 79.358 10.7992 857 110.142 425.655 449.44
2347 0 86.281 12.7838 1103 101.71 426.071 460.518
2348 0 86.2678 16.5879 1431 101.661 426.706 448.34
2349 0 87.148 15.1811 1323 104.209 426.711 443.693
2350 0 87.2445 17.1357 1495 101.767 428.839 448.096
2351 0 92.3027 16.3484 1509 101.8 429.256 446.472
2352 0 94.2914 14.0946 1329 106.287 429.133 440.859
2353 0 98.32 13.8527 1362 105.833 429.588 440.647
2354 0 102.252 12.6844 1297 105.813 430.431 444.096
2355 0 109.237 13.164 1438 106.106 431.175 438.396
2356 0 107.194 12.0436 1291 107.983 431.124 438.533
2357 0 108.199 11.904 1288 109.03 431.61 436.167
2358 0 108.236 10.7543 1164 111.284 432.713 431.678
2359 0 117.284 14.3156 1679 106.39 432.122 429.285
2360 0 124.419 12.7955 1592 108.647 432.389 435.994
2361 0 130.667 14.9617 1955 105.514 431.211 434.391
2362 0 135.429 15.8755 2150 104.085 431.827 432.311
2363 1 76.127 9.79942 746 104.229 429.172 458.507
2364 0 79.1346 11.6637 923 102.83 429.986 458.931
2365 0 82.4733 11.8948 981 101.754 429.295 456.416
2366 0 88.2914 12.4814 1102 99.5644 427.874 461.792
2367 0 91.2458 8.73464 797 103.269 427.977 461.217
2368 0 96.1248 13.0976 1259 98.9118 427.329 457.355
2369 0 101.263 16.8473 1706 93.9021 425.625 458.954
2370 0 106.433 17.6073 1874 93.2919 425.404 455.343
2371 0 108.219 8.6214 933 101.617 425.032 460.785
2372 0 111.428 16.7193 1863 95.6742 423.909 444.98
2373 0 115.311 12.3926 1429 100.588 423.546 447.492
2374 0 117.541 12.7785 1502 101.929 422.217 437.195
2375 0 124.827 13.6669 1706 99.9789 422.436 445.831
2376 0 128.274 13.5959 1744 101.364 421.743 433.207
2377 0 135.496 12.886 1746 101.233 421.472 432.289
2378 0 145.685 17.476 2546 91.7844 421.608 434.907
2379 0 143.684 15.033 2160 99.6301 422.083 428.938
2380 0 149.799 15.6076 2338 100.253 422.333 420.658
2381 0 154.43 13.3006 2054 102.191 422.663 418.077
2382 0 154.43 13.3006 2054 143.557 423.65 418.067
2383 1 92.4761 15.4851 1432 95.6774 421.842 451.175
2384 0 90.279 8.5845 775 106.44 421.707 445.759
2385 0 97.4561 11.0409 1076 107.026 423.126 446.474
2386 0 97.4561 11.1845 1090 154.019 424.107 446.434
2387 0 103.923 18.1673 1888 97.3014 424.436 442.312
2388 1 193.027 17.8058 3437 100.031 423.138 401.042
2389 1 110.652 13.4295 1486 103.653 424.301 438.917
2390 0 114.472 18.0044 2061 97.4609 424.436 435.904
2391 0 116.745 17.0201 1987 99.7101 424.724 433.931
2392 0 119.804 13.4553 1612 104.417 424.95 432.832
2393 0 120.449 11.9884 1444 108.019 426.2 430.695
2394 0 128.672 14.8439 1910 102.957 425.277 424.449
2395 0 132.349 19.5997 2594 98.1619 427.091 416.44
2396 0 136.738 14.6777 2007 102.526 427.236 426.602
2397 0 135.789 15.5756 2115 102.821 428.392 420.537
2398 1 148.061 12.6232 1869 106.185 429.254 421.564
2399 0 148.237 14.5713 2160 103.804 429.342 416.698
2400 0 155.78 15.9776 2489 102.213 429.595 414.226
2401 0 157.678 17.2693 2723 100.646 429.455 406.683
2402 0 163.896 20.4764 3356 95.8701 428.484 421.127
2403 0 167.913 13.7988 2317 104.075 427.906 418.682
2404 0 173.907 14.0477 2443 104.26 428.632 413.325
2405 0 179.708 15.6476 2812 102.68 428.299 407.781
2406 0 187.597 14.0407 2634 103.583 427.455 413.282
2407 0 195.76 14.0223 2745 104.63 426.585 403.022
2408 0 202.973 13.7062 2782 105.996 427.374 391.302
2409 0 202.817 11.4142 2315 107.332 426.816 408.565
2410 1 215.916 14.9688 3232 103.192 425.613 398.589
2411 0 223.921 12.3794 2772 107.545 425.37 388.753
2412 0 236.696 17.6598 4180 98.6469 422.543 401.999
2413 0 239.267 13.8256 3308 105.081 423.265 378.063
2414 0 250.087 16.5183 4131 101.411 422.643 382.663
2416 0 305.554 17.5288 5356 98.2911 421.459 357.906
2417 1 223.633 14.184 3172 103.458 420.747 402.576
2418 0 228.287 14.3547 3277 105.067 420.642 392.604
2419 0 233.782 13.2089 3088 107.327 420.139 382.919
2420 0 244.038 17.6612 4310 100.662 420.286 392.732
2421 0 251.208 18.5543 4661 101.554 419.596 379.8
2422 0 259.952 16.9762 4413 104.02 420.633 372.524
2423 0 264.894 17.2635 4573 104.735 420.25 353.133
2424 0 272.966 14.9762 4088 107.105 419.802 363.679
2425 1 344.164 11.8374 4074 111.07 420.473 322.682
2426 0 347.463 11.4429 3976 107.443 420.889 361.106
2427 0 345.064 11.2501 3882 109.406 421.295 344.709
2428 0 341.953 8.44853 2889 111.079 421.913 366.337
2429 1 331.306 21.0319 6968 98.5703 421.222 297.473
2430 0 334.252 13.8189 4619 108.873 423.194 324.229
2431 1 263.929 25.4008 6704 93.9382 422.8 374.877
2432 0 272.622 19.925 5432 100.534 424.489 349.485
2433 0 281.015 19.636 5518 101.8 425.269 349.441
2434 0 289.27 17.8656 5168 103.95 425.349 353.52
2435 0 298.929 21.6038 6458 99.9289 425.441 334.637
2436 0 285.972 6.46567 1849 116.847 426.406 380.716
2437 0 285.937 10.5198 3008 115 427.026 364.019
2438 0 287.987 14.7125 4237 110.194 426.839 356.989
2439 1 310.177 11.2 3474 115.902 428.237 346.684
2440 0 308.937 15.7022 4851 111.656 429.367 327.246
2441 1 65.4934 11.2225 735 98.7293 427.842 457.95
2442 0 69.4416 10.1668 706 99.8371 428.51 464.899
2443 0 69.4411 10.3253 717 123.095 430.51 464.911
2444 0 73.2185 9.7926 717 106.683 428.371 460.604
2445 0 79.2014 13.4089 1062 102.539 426.672 462.883
2446 0 77.2674 10.8713 840 108.035 427.627 459.358
2447 0 82.4371 12.5065 1031 104.933 426.545 462.987
2448 0 87.7396 17.3582 1523 99.086 425.976 460.718
2449 0 87.455 10.6226 929 108.455 424.526 461.812
2450 0 93.2081 12.7135 1185 102.194 427.014 463.984
2451 0 97.3284 12.8328 1249 102.04 425.362 463.058
2452 0 101.335 14.684 1488 99.8495 425.733 452.774
2453 0 110.704 15.9073 1761 97.8711 424.175 456.614
2454 0 106.413 10.8352 1153 107.417 423.245 449.903
2455 0 110.331 12.3356 1361 105.688 422.769 448.38
2456 0 110.587 10.5256 1164 107.385 422.107 444.248
2457 0 116.333 12.6017 1466 106.624 421.226 439.902
2458 1 75.2917 13.2286 996 97.742 420.074 466.547
2459 0 74.2233 9.59268 712 104.173 420.844 468.937
2460 0 75.312 12.5744 947 102.775 421.661 468.559
2461 0 77.3676 14.528 1124 98.9991 421.266 466.793
2462 0 76.1437 13.0017 990 101.464 420.487 463.294
2463 0 80.3358 11.1158 893 102.766 420.823 460.669
2464 0 79.2786 9.38462 744 105.926 421.957 461.087
2465 0 79.2786 9.47292 751 130.694 421.92 461.12
2466 0 81.2119 13.1508 1068 104.844 421.286 455.102
2467 0 85.1455 12.3671 1053 104.987 421.901 456.465
2468 0 87.1719 15.8423 1381 101.007 422.324 456.981
2469 0 89.0772 11.6079 1034 108.461 423.283 451.906
2470 0 90.2276 14.1974 1281 104.738 422.901 455.266
2471 0 93.2197 14.6428 1365 105.529 422.776 449.912
2472 0 96.1481 15.5177 1492 105.035 422.737 446.491
2473 0 101.386 14.134 1433 104.908 423.426 451.77
2474 0 100.217 15.3667 1540 107.401 423.834 443.204
2475 0 102.378 11.604 1188 111.988 424.556 446.875
2476 0 103.429 13.4779 1394 111.401 425.481 442.714
2477 0 109.489 12.5309 1372 113.431 426.181 442.485
2478 0 109.409 14.7154 1610 112.324 425.966 439.258
2479 0 112.537 14.3419 1614 111.753 427.675 442.098
2480 0 108.873 10.5076 1144 117.299 427.285 441.894
2481 1 119.976 13.6777 1641 114.273 428.147 435.642
2482 0 123.798 14.2975 1770 114.6 427.697 430.792
2483 0 126.975 15.1762 1927 113.476 428.567 434.8
2484 0 131.88 14.5587 1920 113.317 426.523 438.138
2485 0 138.896 17.3655 2412 110.721 427.89 433.553
2486 0 143.726 14.0754 2023 115.378 427.429 426.55
2487 1 85.5222 11.7046 1001 110.772 427.155 459.207
2488 0 88.4867 14.4316 1277 107.351 426.471 453.894
2489 0 91.2058 11.7756 1074 110.614 427.953 458.642
2490 0 91.2058 11.7427 1071 131.149 428.964 458.827
2491 0 92.1727 10.3176 951 133.707 429.978 460.005
2492 1 104.351 15.2275 1589 106.052 426.638 461.121
2493 0 105.189 14.0889 1482 110.298 426.11 453.458
2494 0 108.305 12.3078 1333 113.721 424.946 450.53
2495 0 110.513 12.7134 1405 114.106 424.98 447.189
2496 0 115.667 12.6311 1461 113.057 422.118 449.736
2497 0 116.579 11.503 1341 116.699 422.723 438.634
2498 0 124.538 15.4491 1924 108.991 421.02 445.253
2499 0 123.941 11.8444 1468 114.897 420.878 442.836
2500 0 128.528 12.6976 1632 114.513 421.094 435.012
2501 0 130.612 14.5698 1903 111.212 420.135 438.627
2502 0 137.718 12.3368 1699 114.998 419.904 432.576
2503 1 79.417 9.74602 774 115.279 419.859 454.789
2504 0 88.5578 12.6019 1116 110.994 419.952 455.031
2505 0 88.3543 12.6196 1115 111.398 420.472 452.515
2506 0 93.4531 14.114 1319 111.139 420.284 450.754
2507 0 94.5188 17.3087 1636 107.714 420.45 444.556
2508 0 98.4498 15.6323 1539 109.737 420.725 446.743
2509 0 100.397 17.1121 1718 106.822 420.247 446.28
2510 0 105.541 16.2022 1710 108.987 420.886 442.153
2511 0 104.298 14.7846 1542 111.845 421.69 438.202
2512 0 107.348 13.3677 1435 112.903 421.962 443.483
2513 0 110.487 15.83 1749 110.197 422.991 438.829
2514 0 114.557 15.7563 1805 109.901 423.284 436.63
2515 0 117.466 14.0892 1655 112.909 423.706 433.246
2516 0 117.466 14.0466 1650 133.568 423.705 433.132
2517 0 124.532 15.2893 1904 112.053 425.308 430.592
2518 0 133.248 12.8032 1706 115.329 426.267 431.917
2519 0 133.335 14.6173 1949 113.98 426.933 430.032
2520 0 140.413 15.4117 2164 112.448 426.885 429.435
2521 1 81.5134 10.5995 864 113.958 427.545 451.703
2522 0 84.2646 14.9173 1257 107.934 427.394 453.528
2523 0 85.3403 12.7841 1091 112.498 429.397 455.763
2524 0 90.1913 13.8151 1246 111.303 428.445 454.038
2525 0 95.4053 18.2694 1743 104.341 428.679 454.73
2526 0 100.387 16.3268 1639 106.785 428.578 455.486
2527 0 101.284 13.2301 1340 113.138 427.781 448.431
2528 0 106.338 14.3035 1521 112.009 427.799 447.882
2529 0 110.293 13.7724 1519 112.608 427.853 451.427
2530 0 113.263 13.7909 1562 113.623 428.334 445.812
2531 0 119.162 13.3684 1593 114.598 427.136 443.341
2532 0 122.312 15.2969 1871 112.246 426.917 441.094
2533 0 130.228 18.7287 2439 106.327 426.023 445.335
2534 0 135.609 17.8749 2424 108.381 425.701 440.42
2535 0 139.326 16.5008 2299 110.623 424.731 436.936
2536 0 142.39 16.4056 2336 113.261 424.408 431.839
2537 0 147.3 13.8493 2040 117.472 423.934 430.228
2538 0 153.717 14.4812 2226 116.695 422.908 428.102
2539 0 157.398 13.3229 2097 118.828 422.363 419.23
2540 0 162.531 15.8554 2577 112.905 421.872 421.655
2541 0 167.378 14.0699 2355 117.567 422.063 414.767
2542 0 173.239 14.91 2583 115.605 421.491 412.127
2543 0 179.38 14.6226 2623 114.747 421.817 407.413
2544 0 185.523 13.691 2540 116.546 421.115 403.511
2545 0 188.477 18.6495 3515 110.113 421.458 400.936
2546 0 195.516 16.3209 3191 114.415 422.47 388.487
2547 0 199.66 21.4615 4285 107.81 421.366 386.147
2548 0 207.495 15.9329 3306 112.497 421.43 403.099
2549 0 213.624 14.8064 3163 117.541 421.938 381.617
2550 0 221.599 14.1923 3145 117.684 421.985 381.879
2551 1 19.054 7.45249 142 95.1056 422.183 479.373
2552 0 13.0231 6.75723 88 92.5455 421.159 482.364
2553 1 173.473 15.328 2659 112.181 423.611 395.305
2554 0 178.535 15.4984 2767 111.843 422.841 398.928
2555 0 184.543 14.5657 2688 114.358 424.534 393.433
2556 0 190.606 13.5673 2586 116.019 424.646 384.331
2557 0 200.526 14.1129 2830 114.617 424.923 384.688
2558 0 205.587 16.4845 3389 112.529 425.452 382.132
2559 0 212.518 16.568 3521 112.669 426.927 378.207
2560 1 256.36 7.62599 1955 123.706 426.129 378.367
2561 0 263.477 9.91357 2612 116.868 427.435 389.45
2562 0 260.662 13.0399 3399 115.268 427.062 375.284
2563 0 260.517 6.7251 1752 119.062 427.429 390.797
2564 0 259.652 17.6621 4586 110.365 428.181 346.402
2565 1 201.606 11.3985 2298 117.603 427.115 386.054
2566 0 207.581 14.3414 2977 112.619 429.125 394.22
2567 0 216.605 14.1271 3060 114.056 428.199 382.362
2568 0 224.804 15.4179 3466 112.101 428.37 386.08
2569 0 232.506 13.2814 3088 116.616 427.671 376.384
2570 1 64.1549 7.85599 504 104.198 426.438 461.853
2571 0 65.2084 6.0575 395 105.628 428.248 470.575
2572 0 70.2249 6.70702 471 110.703 426.989 468.31
2573 0 75.1494 12.7746 960 101.291 427.527 471.538
2574 0 74.2837 15.4677 1149 100.29 426.904 464.782
2575 0 78.117 12.5837 983 106.228 426.362 468.638
2576 0 81.0454 12.7089 1030 107.226 426.037 466.799
2577 0 82.0477 15.04 1234 105.611 425.03 461.566
2578 0 85.0968 12.2449 1042 107.879 424.801 466.603
2579 0 88.0755 13.9199 1226 104.33 423.931 464.536
2580 0 89.1894 12.6024 1124 108.667 422.809 457.198
2581 0 92.1076 13.8968 1280 106.174 424.017 453.937
2582 0 193.245 5.76988 1115 109.596 423.102 444.38
2583 0 191.201 5.51774 1055 111.414 422.584 442.813
2584 0 192.954 11.3602 2192 96.214 421.571 418.894
2585 0 191.976 28.9099 5550 79.0546 420.656 390.309
2586 0 181.167 22.2116 4024 85.7286 419.622 398.966
2587 0 359.843 16.8101 6049 103.017 419.76 275.661
2588 0 115.426 19.493 2250 99.2991 420.137 415.031
2589 0 116.273 16.1172 1874 103.299 421.21 410.334
2590 0 122.441 27.4255 3358 90.7248 420.879 401.919
2591 0 125.336 22.7468 2851 94.6643 421.366 415.137
2592 0 131.697 21.3444 2811 94.529 422.334 406.413
2593 0 128.237 20.6025 2642 96.3149 422.295 400.617
2594 0 133.402 16.6564 2222 102.877 423.086 398.374
2595 0 138.665 34.3489 4763 85.966 421.8 409.116
2596 0 145.723 22.2134 3237 96.2935 423.006 402.881
2597 0 146.917 21.7538 3196 95.0288 424.082 397.167
2598 0 153.473 20.2772 3112 97.4242 425.254 399.031
2599 0 148.348 16.8927 2506 100.252 426.028 405.391
2600 0 160.862 28.049 4512 88.2828 425.258 395.201
2601 1 84.482 14.6303 1236 91.4207 427.363 454.607
2602 0 76.2474 14.5448 1109 95.2245 427.418 451.206
2603 0 76.2474 14.6497 1117 132.098 428.412 451.14
2604 0 82.3848 16.2773 1341 91.1409 429.314 464.606
2605 0 85.1792 13.9118 1185 95.1823 429.317 458.498
2606 0 88.2652 15.9406 1407 91.9908 429.046 453.863
2607 0 88.1642 12.9644 1143 97.5319 428.463 457.993
2608 0 93.3417 15.1165 1411 95.7186 428.442 459.521
2609 0 97.3203 13.7587 1339 97.5945 428.472 460.107
2610 0 97.2836 14.504 1411 96.9398 428.071 459.257
2611 0 107.875 17.0475 1839 93.6052 427.434 462.055
2612 0 104.252 12.4986 1303 100.604 427.066 454.845
2613 0 110.568 14.9953 1658 96.0277 427.341 463.366
2614 0 110.181 14.3491 1581 99.7141 426.837 453.639
2615 0 120.252 8.34079 1003 104.255 424.845 459.113
2616 0 121.246 10.1859 1235 146.228 423.901 454.572
2617 0 118.181 14.7401 1742 100.544 424.007 448.863
2618 0 128.465 16.8061 2159 98.3868 423.457 441.2
2619 0 129.507 19.721 2554 93.9883 422.708 453.457
2620 0 130.434 22.8469 2980 93.195 422.131 442.588
2621 0 136.321 13.2995 1813 103.361 422.479 435.678
2622 0 139.582 17.7816 2482 98.8582 421.875 435.943
2623 0 145.522 18.2516 2656 97.3742 421.718 435.495
2624 1 157.526 14.2643 2247 102.227 420.677 430.323
2625 0 153.379 14.3175 2196 104.158 420.568 422.786
2626 0 155.507 16.4945 2565 102.212 419.935 412.775
2627 0 163.643 16.1266 2639 102.208 420.531 411.986
2628 1 97.3262 11.7748 1146 101.699 421.566 445.051
2629 0 93.1781 15.5616 1450 99.8524 420.246 444.584
2630 1 106.286 11.5443 1227 102.671 421.286 448.973
2631 0 106.257 12.545 1333 99.4636 421.205 448.11
2632 0 109.268 12.5105 1367 97.5026 421.187 444.285
2633 0 111.457 14.9475 1666 93.4688 421.064 444.471
2634 0 113.371 17.2001 1950 92.4985 421.69 446.54
2635 0 116.325 11.0294 1283 101.861 421.593 434.297
2636 0 122.456 18.6027 2278 92.8367 422.846 439.727
2637 0 123.412 14.0262 1731 98.6256 422.993 435.214
2638 1 228.858 11.8938 2722 109.233 424.003 384.369
2639 0 235.859 15.7213 3708 104.408 424.109 383.714
2640 0 245.631 16.7121 4105 102.909 425.818 375.077
2641 0 250.841 14.3398 3597 106.086 424.979 374.645
2642 0 244.878 16.5633 4056 98.2505 427.119 379.601
2643 0 252.89 20.3922 5157 93.84 427.784 375.254
2644 0 259.912 21.0725 5477 94.2344 427.955 383.452
2645 0 268.919 15.2165 4092 100.855 427.96 368.129
2646 0 275.987 20.856 5756 95.4911 427.947 365.208
2647 0 284.284 15.2524 4336 101.026 426.997 366.761
2648 0 292.812 28.8957 8461 90.4757 426.174 345.477
2649 1 321.426 32.4367 10426 88.1186 425.526 327.128
2650 0 329.013 22.8137 7506 94.4106 425.115 316.613
2651 0 332.501 29.5067 9811 90.314 424.198 335.042
2652 0 337.265 21.8463 7368 96.6139 424.762 350.875
2653 1 170.337 14.2541 2428 101.612 422.783 418.197
2654 0 176.561 13.3268 2353 102.163 421.945 422.005
2655 0 182.55 15.2725 2788 100.428 421.367 418.323
2656 0 186.638 12.7734 2384 101.102 420.727 424.956
2657 0 192.631 17.9099 3450 99.3652 420.588 405.741
2658 0 189.682 11.6247 2205 107.939 420.873 407.715
2659 1 199.562 11.415 2278 110.595 419.372 382.507
2660 0 209.97 16.2881 3420 105.623 419.58 383.184
2661 0 218.994 19.7722 4330 101.488 418.379 391.043
2662 0 223.523 16.5934 3709 105.341 418.011 385.134
2663 0 229.75 17.0229 3911 103.309 418.571 388.341
2664 0 237.841 17.4696 4155 102.976 417.98 382.791
2665 0 242.414 18.8438 4568 104.447 418.662 372.685
2666 0 252.284 16.9769 4283 104.947 418.258 375.021
2667 0 260.654 20.6327 5378 101.652 418.38 367.828
2668 0 266.1 22.1345 5890 100.202 419.231 380.135
2669 0 270.768 14.1339 3827 110.878 418.598 369.786
2670 0 281.709 20.8371 5870 102.098 420.021 333.832
2671 0 288.006 26.7702 7710 96.8868 418.636 328.369
2672 1 20.0155 9.34275 187 80.9572 418.69 485.497
2673 0 12.0017 2.58296 31 91.1935 419.29 482.742
2674 0 8.00013 3.87494 31 84.129 421.323 489.161
2675 0 16.0191 6.30497 101 85.7228 421.812 481.693
2676 0 11.0023 3.36294 37 92.3243 421.351 480.054
2677 1 269.262 11.4461 3082 116.982 423.866 365.26
2678 0 262.693 13.0304 3423 118.381 423.888 341.203
2679 0 274.525 16.1588 4436 112.979 425.45 347.461
2680 0 281.919 17.9484 5060 110.062 425.031 345.072
2681 0 281.919 17.8704 5038 147.345 425.04 345.076
2682 0 273.918 15.804 4329 111.225 426.336 353.768
2683 0 277.033 11.0131 3051 113.969 426.69 372.482
2684 1 12.0167 8.0721 97 82.866 426.021 485.969
2685 0 11.0019 3.45394 38 83.8421 425.184 487.921
2686 0 8.00113 5.37424 43 83.5349 424.558 482.093
2687 0 12.0029 2.4994 30 88.9333 423.533 476.433
2688 0 13.0064 2.15278 28 89.7143 424.107 479.357
2689 0 7.00018 4.2856 30 83.1333 425.633 489.867
2690 0 4 7.5 30 81.6333 422.4 489.8
2691 0 12.0515 8.6296 104 78.2885 423.933 493.231
2692 0 13.0021 1.15366 15 85.4667 423.533 494.867
2693 0 11.0032 3.45353 38 83.9474 424.526 492.632
2699 0 28.3924 5.49443 156 91.2436 418.192 478.936
2700 0 31.0582 12.3639 384 83.1458 419.003 478.677
2701 0 34.0317 6.49394 221 91.2443 417.195 478.475
2702 0 36.1065 6.56392 237 77.9958 418.646 489.781
2703 0 48.0778 12.9374 622 73.0531 415.283 469.957
2704 0 53.6784 18.2755 981 71.4332 416.534 470.225
2705 0 61.3 22.6264 1387 68.5963 415.652 470.323
2706 0 43.5766 18.7486 817 72.896 415.431 471.004
