time division length width area intensity CMx CMy
0 0 37.0772 13.2966 493 133.485 589.083 476.635
1 0 39.0563 12.5204 489 129.986 588.798 476.697
2 0 39.0413 12.2434 478 135.946 588.312 476.038
3 0 41.1406 15.4106 634 124.793 587.722 474.599
4 0 41.1406 15.289 629 133.024 586.707 474.583
5 0 43.1175 13.2197 570 129.139 586.247 474.646
6 0 46.0586 12.788 589 130.404 585.572 474.567
7 0 45.0958 13.1941 595 135.682 585.592 473.454
8 0 45.0798 13.5094 609 133.256 584.663 472.878
9 0 48.0588 15.3354 737 129.17 582.924 472.445
10 0 48.0588 15.4186 741 132.579 581.908 472.466
11 0 50.0433 13.848 693 134.063 581.615 468.257
12 0 51.0327 15.6958 801 130.122 582.025 468.7
13 0 53.0597 15.5108 823 129.808 582.012 465.085
14 0 56.1756 15.9856 898 128.246 581.258 463.457
15 0 58.1344 14.2429 828 128.306 580.942 464.83
16 0 63.0659 14.6989 927 123.75 580.516 460.772
17 0 61.1321 15.5401 950 127.188 580.952 458.874
18 0 63.0893 15.2641 963 125.835 581.381 457.211
19 0 64.0745 12.8756 825 132.518 581.834 457.861
20 0 68.0842 15.9655 1087 122.27 580.762 454.695
21 0 71.1163 13.8787 987 123.051 581.614 451.37
22 0 74.0876 17.1014 1267 121.796 581.801 452.519
23 0 74.0876 17.0339 1262 126.124 581.767 452.466
24 1 56.1613 13.2297 743 131.012 596.04 441.751
25 1 84.3499 15.0919 1273 121.79 595.509 446.424
26 0 88.3783 16.1126 1424 119.557 594.916 444.191
27 1 44.0895 11.8622 523 128.524 594.837 461.033
28 0 48.1309 15.3747 740 122.239 593.854 458.591
29 0 49.1414 13.7562 676 121.169 593.601 459.519
30 0 48.0453 15.1107 726 120.802 594.917 455.762
31 0 55.2492 15.9097 879 115.615 593.365 458.406
32 0 57.5097 14.9888 862 114.343 594.94 460.986
33 0 56.0729 15.1945 852 115.839 595.977 458.739
34 0 57.1365 13.634 779 118.616 596.225 456.534
35 0 60.0845 14.8624 893 118.187 596.343 454.984
36 0 61.1015 15.0896 922 115.112 595.845 458.08
37 0 66.2272 16.6548 1103 114.587 597.336 455.931
38 0 62.1226 12.6363 785 123.422 595.493 452.973
39 0 69.1322 17.2568 1193 112.904 596.391 454.85
40 0 71.2607 15.9836 1139 110.164 594.82 459.091
41 0 75.2337 14.435 1086 114.501 594.414 457.395
42 0 76.1723 17.8805 1362 109.358 593.845 454.965
43 0 80.2229 16.878 1354 109.897 593.347 452.581
44 0 79.0804 13.7455 1087 116.81 592.194 453.155
45 0 85.4048 16.5799 1416 107.667 592.93 452.843
46 0 87.1276 18.3065 1595 119.475 591.469 453.569
47 0 91.1286 15.9994 1458 123.874 590.43 452.966
48 0 93.1747 13.7913 1285 125.744 589.518 451.925
49 0 95.2732 14.6001 1391 126.464 588.401 448.385
50 0 99.2515 13.0779 1298 131.166 588.7 451.418
51 0 105.184 15.1735 1596 128.1 587.343 445.759
52 0 109.234 13.4025 1464 131.553 586.662 441.296
53 1 58.1048 13.7682 800 122.928 585.986 470.459
54 0 58.0831 13.7562 799 125.641 585.372 466.3
55 0 63.0647 13.7161 865 124.328 584.926 464.458
56 0 64.0758 14.8418 951 122.939 584.41 464.545
57 0 67.205 15.0435 1011 122.199 584.089 459.228
58 0 70.0764 14.7125 1031 122.497 584.077 460.428
59 0 74.1664 15.3978 1142 121.276 583.687 458.905
60 0 77.1275 15.3382 1183 119.462 583.947 459.431
61 0 77.1133 12.8383 990 124.732 583.762 454.451
62 0 79.2158 12.8762 1020 125.506 582.301 451.308
63 0 83.2031 14.8552 1236 124.142 581.786 446.485
64 0 87.1319 16.7447 1459 120.76 582.712 445.082
65 0 88.0814 15.3608 1353 123.298 582.706 445.398
66 0 90.1375 15.3876 1387 122.458 582.524 442.976
67 0 95.1208 14.0348 1335 124.395 583.175 440.48
68 1 49.0164 15.6274 766 115.55 583.662 460.225
69 0 50.052 14.0454 703 118.555 584.172 457.717
70 0 53.2743 10.6055 565 122.535 585.835 460.446
71 0 57.0272 14.0985 804 114.07 584.06 461.083
72 0 56.0982 13.0842 734 118.18 585.425 453.613
73 0 60.0944 13.5121 812 116.861 585.913 454.935
74 0 60.1336 11.3581 683 119.59 586.804 455.123
75 0 63.3186 14.4192 913 115.198 587.127 454.865
76 0 65.3656 14.1359 924 116.782 588.041 451.304
77 0 65.176 12.9649 845 118.316 588.07 454.348
78 0 71.0893 14.5451 1034 116.012 588.444 451.476
79 0 73.1029 13.5973 994 117.804 588.766 450.359
80 0 74.2358 12.7162 944 119.023 590.924 451.728
81 0 77.1493 10.5639 815 122.455 591.405 451.155
82 0 82.1677 12.1946 1002 120.76 591.176 446.832
83 0 84.1768 14.7428 1241 116.056 590.434 450.115
84 0 88.1376 14.6816 1294 116.406 589.477 447.43
85 0 89.6627 12.2682 1100 120.005 589.717 449.005
86 1 45.0427 11.7666 530 120.94 587.492 467.896
87 0 49.0498 11.6005 569 120.889 587.084 469.06
88 0 49.0937 11.5493 567 117.877 586.222 473.125
89 0 50.0542 12.7662 639 116.534 587.246 471.336
90 0 53.0439 10.5196 558 117.808 585.536 472.799
91 0 56.1141 10.4965 589 119.491 585.526 470.492
92 0 57.0311 12.6598 722 115.819 585.896 469.083
93 0 58.1056 12.1675 707 117.359 585.279 469.929
94 0 60.0971 9.70097 583 121.458 583.569 469.393
95 0 64.1639 13.3097 854 117.157 583.59 465.722
96 0 66.1326 12.2784 812 119.17 582.351 465.039
97 0 67.0752 11.8673 796 120.856 582.459 463.121
98 0 70.0879 11.8708 832 121.924 581.707 463.213
99 0 70.1295 13.2612 930 119.243 582.38 462.617
100 0 76.0748 12.33 938 120.078 582.616 461.373
101 0 77.191 11.6205 897 123.595 581.867 456.435
102 0 81.1068 14.9926 1216 117.677 580.94 454.778
103 0 84.2058 13.0989 1103 120.666 580.776 455.499
104 0 90.4607 11.1982 1013 122.402 580.681 452.853
105 0 90.4573 14.4377 1306 118.164 580.896 450.04
106 1 48.0761 10.941 526 121.359 581.622 464.989
107 0 51.043 10.305 526 124.228 580.865 463.456
108 0 52.1906 11.5347 602 121.086 581.332 465.65
109 0 52.2572 11.0033 575 122.751 582.082 463.984
110 0 57.1211 12.5348 716 119.662 582.616 460.828
111 0 57.1616 14.9401 854 118.013 582.329 457.988
112 0 61.0481 13.5139 825 118.675 582.886 457.116
113 0 62.1415 12.8899 801 119.426 582.958 457.07
114 0 63.121 13.5296 854 119.585 584.204 454.5
115 0 64.1438 13.1579 844 119.305 584.155 453.905
116 0 71.3741 14.6412 1045 113.841 585.039 456.3
117 0 70.1191 12.0509 845 121.74 585.502 450.34
118 0 71.0683 13.5644 964 119.906 586.799 449.555
119 0 72.1364 13.8765 1001 121.348 586.956 448.941
120 0 75.1047 12.8487 965 123.609 588.198 448.94
121 0 77.0958 12.9579 999 123.519 588.201 450.05
122 0 82.1442 14.4015 1183 119.856 588.252 449.358
123 0 82.1921 12.6898 1043 123.836 586.57 447.077
124 0 84.202 12.1019 1019 125.63 587.856 448.592
125 0 90.4509 14.7926 1338 119.341 587.527 447.648
126 0 88.2446 11.1168 981 126.632 587.617 445.727
127 1 48.0377 11.72 563 114.995 589.096 469.917
128 0 48.1104 10.081 485 116.247 587.474 471.751
129 0 48.0482 7.74222 372 118.89 587.664 474.685
130 0 51.0706 13.9023 710 109.999 586.261 470.282
131 0 53.1551 10.1778 541 115.972 586.401 471.819
132 0 53.0652 11.2126 595 114.676 585.506 471.808
133 0 56.1343 13.0936 735 111.358 585.671 469.397
134 0 56.0784 11.6623 654 113.465 586.372 469.347
135 0 59.1814 18.5024 1095 103.203 586.974 467.493
136 0 62.0992 11.9486 742 110.384 586.737 472.818
137 0 61.1073 11.9298 729 111.108 584.08 470.417
138 0 63.1023 11.1089 701 112.666 585.391 470.118
139 0 66.3003 12.4132 823 110.611 583.06 465.203
140 0 69.2098 14.391 996 106.717 583.809 465.758
141 0 71.2547 13.2482 944 109.63 582.05 464.412
142 0 68.4761 9.82825 673 115.99 581.845 462.623
143 0 73.1712 15.6209 1143 107.178 581.006 459.231
144 0 79.2443 14.7771 1171 106.714 581.221 462.686
145 0 79.1426 13.6589 1081 110.628 579.853 454.612
146 0 82.261 14.3932 1184 109.014 580.26 454.062
147 0 85.4596 11.9121 1018 112.249 578.607 451.971
148 1 39.2297 14.5298 570 105.039 579.612 474.339
149 0 41.1146 13.5718 558 108.998 579.086 471.125
150 0 43.1086 14.4287 622 105.781 577.979 471.418
151 0 40.0096 9.34775 374 114.441 578.717 474.417
152 0 39.0217 12.9159 504 112.806 578.042 470.306
153 0 44.0372 10.6501 469 112.733 579.505 468.475
154 0 43.1599 9.6154 415 116.952 577.54 465.66
155 0 44.1066 12.3791 546 113.709 576.938 462.848
156 0 46.1263 12.7693 589 111.779 579.937 464.02
157 0 52.2137 17.2943 903 104.181 580.313 459.891
158 0 47.0565 12.1768 573 113.443 582.873 459.832
159 0 51.0803 11.6875 597 112.395 582.859 462.987
160 0 53.256 11.4729 611 112.535 583.989 461.756
161 0 54.1997 15.7565 854 108.363 583.662 458.658
162 0 54.2221 15.7132 852 108.919 583.378 458.59
163 0 56.0764 13.339 748 113.332 581.821 456.505
164 0 56.3379 11.1648 629 118.895 583.226 458.188
165 0 58.0629 12.5554 729 117.119 583.645 457.845
166 0 64.0758 12.2355 784 116.245 585.608 459.057
167 0 64.2802 13.13 844 115.546 585.679 460.136
168 0 65.2972 12.5273 818 116.916 584.836 459.38
169 0 71.1076 16.7914 1194 110.023 585.137 456.838
170 0 72.1681 13.4131 968 115.991 585.921 459.573
171 0 72.1706 12.6506 913 119.211 586.624 456.539
172 0 75.1977 12.2876 924 119.391 586.156 459.443
173 0 79.0624 16.5313 1307 113.363 584.897 457.076
174 1 44.0269 9.51691 419 125.695 583.439 473.663
175 0 45.1042 12.8148 578 112.031 583.993 472.96
176 0 43.0962 10.5346 454 116.738 584.822 471.104
177 0 45.1715 9.38646 424 116.755 585.283 471.495
178 0 45.0854 11.8885 536 114.793 584.252 469.164
179 0 46.0431 10.8594 500 116.31 583.042 470.324
180 0 47.0929 7.64446 360 121.675 583.114 467.75
181 0 53.0842 11.8868 631 112.952 581.983 470.51
182 0 53.1591 12.7165 676 112.501 581.096 467.238
183 0 54.2394 9.49495 515 118.072 580.05 464.175
184 0 57.144 11.6373 665 113.729 580.302 462.701
185 0 55.1545 5.74749 317 116.038 577.931 466.574
186 0 58.0718 13.4661 782 106 577.018 465.175
187 0 59.1959 11.8589 702 109.326 578.145 456.399
188 0 59.1422 11.8866 703 109.203 577.452 458.834
189 0 66.1284 11.9918 793 108.066 577.001 454.464
190 0 68.0918 12.3216 839 106.665 576.308 456.313
191 0 67.1179 9.41627 632 112.946 576.402 448.87
192 0 73.1659 12.9705 949 113.733 575.537 458.202
193 0 77.0759 16.6978 1287 108.904 576.356 454.435
194 0 79.1651 13.6676 1082 113.823 575.991 452.478
195 1 43.1008 10.9511 472 116.386 575.339 469.831
196 0 44.1946 12.4676 551 114.241 575.664 467.724
197 0 42.2217 10.9659 463 119.255 577.698 463.054
198 0 45.0931 11.9752 540 113.215 576.5 465.739
199 0 47.1557 12.851 606 109.893 577.119 465.046
200 0 49.1527 11.8813 584 112.731 577.955 462.892
201 0 50.1205 12.4101 622 112.878 578.59 461.063
202 0 55.1196 15.7113 866 105.685 578.931 463.233
203 0 55.0631 18.7785 1034 101.568 579.077 462.289
204 0 54.0398 17.7647 960 104.9 580.871 455.841
205 0 60.1246 22.9523 1380 96.7406 581.011 462.067
206 0 59.2679 14.1729 840 108.499 582.289 460.329
207 0 59.0974 12.2679 725 111.054 582.128 461.884
208 0 62.0871 14.7051 913 107.913 582.744 461.041
209 0 62.0886 14.3505 891 110.92 583.645 460.405
210 0 65.1345 15.1993 990 109.519 585.073 457.721
211 0 66.1402 12.6852 839 112.051 583.944 458.16
212 0 71.2121 12.0204 856 112.48 583.859 457.641
213 0 75.5262 12.5387 947 108.51 584.581 464.596
214 0 74.2327 15.869 1178 107.095 584.512 455.039
215 0 79.1994 22.0835 1749 99.0886 583.902 462.077
216 0 79.1243 14.1929 1123 111.863 584.651 456.166
217 0 81.2702 12.7968 1040 114.025 583.707 459.338
218 0 84.2979 13.7489 1159 113.55 583.76 455.078
219 0 90.2345 14.1077 1273 111.986 584.177 458.643
220 1 46.0962 14.1226 651 111.521 582.661 475.22
221 0 47.1062 14.3081 674 111.645 583.969 474.279
222 0 49.1587 13.1818 648 106.366 584.014 477.204
223 0 50.1296 10.5526 529 111.824 582.824 476.285
224 0 51.0894 16.2852 832 102.899 581.911 477.886
225 0 51.2409 11.3581 582 111.23 579.942 474.048
226 0 54.1891 13.4898 731 109.241 577.382 476.568
227 0 55.3979 13.5384 750 105.301 577.272 479.375
228 0 59.1213 15.9672 944 105.078 575.814 472.721
229 0 59.1507 12.3752 732 108.574 574.684 471.933
230 0 58.1437 11.7812 685 109.273 574.594 474.236
231 0 61.1292 12.0237 735 111.819 574.883 470.844
232 0 64.3316 13.0263 838 110.434 574.205 465.415
233 0 66.1033 15.385 1017 107.647 574.338 463.128
234 0 68.1578 12.7792 871 113.65 574.724 460.846
235 0 67.1906 10.18 684 115.931 573.594 464.993
236 0 74.3805 14.6409 1089 111.14 573.661 459.087
237 0 77.1928 12.3975 957 113.751 574.383 458.07
238 0 79.1865 14.4343 1143 112.755 574.18 452.155
239 0 82.2203 12.576 1034 115.285 575.585 450.672
240 0 87.1469 16.6041 1447 107.863 573.445 454.187
241 1 47.079 15.1235 712 107.147 574.639 468.691
242 0 47.2526 13.2268 625 111.189 575.32 468.114
243 0 50.0647 15.2203 762 107.003 574.332 463.938
244 0 49.0445 12.8659 631 109.655 575.729 464.662
245 0 50.0957 12.7556 639 110.516 575.302 465.654
246 0 49.1031 11.0176 541 113.039 577.68 466.957
247 0 53.0428 12.3297 654 111.639 576.394 465.046
248 0 53.1142 11.4847 610 113.059 577.721 460.007
249 0 55.0792 12.5274 690 111.349 579.436 460.664
250 0 56.2443 14.0992 793 108.831 579.357 463.246
251 0 59.1787 13.1973 781 109.324 581.02 461.252
252 0 60.2022 11.8268 712 111.198 581.073 459.685
253 0 61.0878 13.7507 840 109.563 581.888 460.095
254 0 68.5544 14.8349 1017 105.504 582.328 460.441
255 1 136.581 13.7427 1877 116.656 581.93 427.542
256 0 143.464 13.0974 1879 116.125 583.403 429.784
257 1 73.18 13.6103 996 107.639 583.156 464.088
258 0 73.117 11.7209 857 113.331 583.462 460.757
259 0 78.0866 12.1276 947 111.857 583.515 461.129
260 1 37.0733 12.5427 465 110.215 584.437 478.301
261 0 41.0948 12.5807 517 109.907 582.704 478.133
262 0 43.0588 14.0273 604 107.159 582.093 477.864
263 0 40.0339 13.7134 549 108.962 581.614 482.521
264 0 43.114 11.2029 483 107.493 580.503 486.979
265 0 43.0196 10.2511 441 113.433 581.168 484.58
266 0 47.4988 15.7267 747 105.171 579.705 482.799
267 0 44.2085 11.2422 497 116.243 580.101 478.59
268 0 44.014 13.9501 614 112.415 578.606 479.699
269 0 46.1011 11.2796 520 116.048 578.352 479.008
270 0 49.0859 11.4493 562 116.345 577.431 476.486
271 0 49.1296 11.3984 560 117.707 576.207 475.812
272 0 51.0442 12.4402 635 116.271 576.641 475.353
273 0 53.081 12.5092 664 115.988 576.128 472.986
274 0 57.1333 13.8448 791 113.398 575.235 472.664
275 0 57.0477 14.1285 806 113.733 574.775 471.373
276 0 55.0992 13.9203 767 116.937 573.875 468.471
277 0 60.1458 13.1015 788 116.228 574.591 468.168
278 1 132.28 14.2577 1886 121.592 575.068 430.924
279 0 137.27 15.8592 2177 119.166 574.254 425.301
280 0 139.352 10.7354 1496 125.958 574.092 431.074
281 0 144.814 13.6382 1975 124.078 573.81 416.009
282 0 149.846 11.1915 1677 126.641 574.844 423.58
283 0 154.778 13.9361 2157 122.56 574.923 413.78
284 0 158.431 13.5706 2150 122.741 576.032 410.792
285 1 78.2483 16.486 1290 112.031 576.2 449.012
286 0 80.2117 12.467 1000 118.311 577.49 449.765
287 0 84.5219 14.162 1197 116.045 577.823 445.869
288 1 48.1091 14.2385 685 111.971 577.88 464.029
289 0 48.0664 12.8572 618 118.045 578 461.757
290 0 51.0751 12.276 627 117.74 579.166 462.145
291 0 53.0897 13.1852 700 118.497 581.856 456.911
292 0 57.1511 15.3453 877 113.449 583.794 459.208
293 0 59.2738 13.3111 789 114.527 584.544 461.15
294 0 60.1352 13.5528 815 116.41 586.049 457.622
295 0 60.0315 14.6923 882 115.991 585.161 459.232
296 0 65.6654 15.7617 1035 111.575 586.508 461.683
297 0 63.1465 14.791 934 118.069 587.283 455.66
298 0 64.0692 14.0005 897 119.149 586.304 458.336
299 0 68.1108 15.4895 1055 117.164 586.992 455.05
300 0 70.1361 13.2599 930 120.181 587.143 458.557
301 0 71.294 15.5553 1109 119.377 586.176 456.685
302 0 71.0832 12.0422 856 126.002 586.459 457.613
303 0 75.2043 14.5072 1091 121.757 586.322 457.17
304 0 81.1131 19.5653 1587 112.442 585.895 459.422
305 0 83.419 16.3512 1364 118.589 585.635 456.473
306 0 85.3376 16.3234 1393 120.464 585.472 457.474
307 1 44.0184 13.0627 575 116.67 584.28 477.976
308 0 45.0558 12.2071 550 117.295 584.587 476.315
309 0 46.2045 13.2022 610 115.603 582.664 478.775
310 0 45.0621 11.4065 514 121.189 581.872 477.16
311 0 48.0512 14.4637 695 117.394 580.396 473.686
312 0 50.0543 15.3034 766 114.495 578.849 475.667
313 0 52.1729 13.3403 696 119.32 578.779 472.494
314 0 53.0948 15.1239 803 115.94 578.599 472.804
315 0 54.0517 15.2447 824 116.5 578.078 469.835
316 0 57.095 13.9242 795 116.375 577.962 472.416
317 0 56.0398 13.4012 751 120.037 577.366 466.928
318 0 58.112 15.126 879 117.711 577.297 465.799
319 0 61.0503 16.7239 1021 113.83 575.814 467.151
320 0 64.2156 13.9219 894 118.11 576 464.853
321 0 67.2446 16.8638 1134 112.969 575.92 462.439
322 0 66.1552 14.3148 947 118.829 576.164 459.207
323 0 70.1815 16.1581 1134 115.473 576.269 457.381
324 0 70.162 13.8536 972 120.825 575.595 454.512
325 0 70.4208 11.8289 833 124.773 575.198 453.642
326 0 74.2173 13.4739 1000 122.332 575.751 450.685
327 0 78.1043 13.3924 1046 121.947 576.513 450.196
328 0 80.2653 10.9761 881 126.061 577.156 446.79
329 0 84.1066 14.5292 1222 119.186 578.24 447.472
330 0 81.1927 13.0554 1060 123.183 577.981 447.294
331 0 89.5533 14.6505 1312 119.891 579.173 441.724
332 0 93.3555 12.6613 1182 121.402 579.08 440.74
333 1 54.136 14.168 767 119.372 579.592 457.313
334 0 53.4619 13.8229 739 117.131 581.985 452.238
335 0 51.1508 10.5179 538 121.749 583.169 449.816
336 0 53.2373 11.0073 586 113.007 582.947 451.657
337 0 59.1056 14.1949 839 112.968 584.234 454.232
338 0 61.0672 14.0174 856 113.2 585.25 454.404
339 0 61.131 12.1542 743 113.147 586.217 458.941
340 0 63.1938 14.5426 919 112.266 585.413 454.448
341 0 64.0951 8.44058 541 120.76 587.366 455.684
342 0 67.1671 13.7121 921 113.168 586.812 454.233
343 0 71.0799 15.3208 1089 110.606 586.092 456.521
344 1 136.383 12.7875 1744 122.141 587.684 420.661
345 0 141.348 19.0027 2686 112.633 587.485 423.103
346 1 74.1724 13.0776 970 115.978 587.319 453.802
347 0 81.3077 13.8978 1130 113.849 588.04 454.891
348 0 83.1848 14.0771 1171 114.126 586.678 453.704
349 0 88.172 12.7365 1123 114.85 587.357 456.427
350 0 89.2441 14.5892 1302 113.57 585.535 451.583
351 0 94.4268 14.5404 1373 113.496 585.224 450.664
352 0 97.155 12.1455 1180 116.782 584.884 452.917
353 0 101.121 15.7138 1589 112.841 584.424 445.373
354 0 103.149 14.0573 1450 115.144 584.136 441.739
355 0 109.319 13.5658 1483 114.481 582.557 450.48
356 0 112.383 12.1637 1367 118.878 582.63 442.163
357 1 61.277 11.3419 695 120.023 582.488 464.153
358 0 62.2416 10.4592 651 120.588 582.436 467.455
359 0 65.2225 11.9437 779 120.652 581.243 463.175
360 0 66.0756 12.3344 815 123.893 581.337 463.063
361 0 71.1017 14.6973 1045 118.944 582.026 461.468
362 0 70.1203 12.122 850 125.194 582.085 458.069
363 0 74.2146 17.0452 1265 115.953 581.311 458.858
364 0 75.1024 13.2619 996 123.676 580.676 453.561
365 0 77.1167 13.7843 1063 123.762 580.766 451.597
366 0 79.0844 15.1104 1195 121.657 580.972 449.465
367 0 84.1661 11.3823 958 125.398 581.014 451.577
368 0 86.1007 12.4621 1073 124.15 581.185 448.77
369 0 91.2205 16.2354 1481 116.249 580.756 446.745
370 0 92.1648 14.8538 1369 120.447 581.123 438.06
371 0 96.1735 12.8206 1233 121.329 582.41 441.174
372 0 98.2777 12.6275 1241 122.736 581.358 437.374
373 0 103.293 15.7319 1625 118.836 582.055 433.426
374 1 43.1906 10.6042 458 118.655 582.928 461.109
375 0 47.1871 15.1524 715 109.927 584.133 459.179
376 0 49.1141 11.8907 584 115.298 584.214 457.502
377 0 52.2385 14.7592 771 104.773 583.575 459.846
378 0 52.0437 15.3141 797 105.202 584.841 457.27
379 0 54.2806 14.8119 804 106.647 586.693 455.789
380 0 53.1194 11.7471 624 111.019 586.441 459.247
381 0 60.1815 14.4895 872 105.529 587.573 460.577
382 0 60.2013 12.6409 761 107.657 588.898 460.603
383 0 61.1062 13.3538 816 107.283 589.442 458.752
384 0 63.1208 13.9257 879 108.043 589.421 458.94
385 0 63.2921 17.6799 1119 104.458 588.361 454.515
386 0 64.0826 14.7934 948 108.804 589.79 456.673
387 0 66.0903 13.1789 871 111.042 590.214 456.783
388 0 68.1388 12.5626 856 110.464 590.817 459.805
389 0 71.2839 18.784 1339 102.229 590.278 461.358
390 0 73.2483 18.8673 1382 102.908 589.206 459.842
391 0 75.3183 12.6397 952 111.099 589.836 457.239
392 0 82.2841 17.6583 1453 104.379 588.323 453.679
393 0 80.2737 14.7869 1187 109.499 587.909 457.174
394 0 84.1856 11.439 963 114.442 587.044 455.077
395 0 93.8478 20.5013 1924 100.705 586.859 455.84
396 0 87.3224 10.1578 887 117.158 586.391 455.135
397 1 51.1816 14.1848 726 105.749 585.788 475.515
398 0 50.0452 13.0282 652 107.416 584.742 474.784
399 0 55.2334 12.4925 690 106 581.19 478.62
400 0 52.1656 10.9651 572 110.9 580.713 474.456
401 0 54.0924 13.3106 720 107.826 581.097 469.481
402 0 60.5043 15.2551 923 102.213 580.048 470.641
403 0 59.2569 12.3024 729 107.082 579.453 465.9
404 0 59.1507 12.3752 732 107.247 579.112 468.62
405 0 60.1708 12.9465 779 107.208 577.94 466.137
406 0 61.0665 13.9029 849 105.899 578.171 465.794
407 0 64.4006 10.7452 692 110.023 577.832 462.887
408 1 130.385 13.6442 1779 112.816 578.707 429.047
409 1 175.742 10.3277 1815 117.241 577.618 420.198
410 1 140.515 14.5607 2046 111.633 577.839 420.971
411 0 143.68 13.2447 1903 112.911 577.139 416.782
412 0 147.66 12.0615 1781 115.355 576.943 407.703
413 0 153.502 10.508 1613 115.764 578.479 412.353
414 0 158.355 15.6989 2486 110.587 579.599 400.329
415 0 165.657 14.6085 2420 111.88 579.73 399.151
416 0 165.657 14.4938 2401 133.926 580.729 399.213
417 1 97.4387 11.6278 1133 108.078 580.951 440.949
418 0 98.4475 9.61934 947 111.634 581.888 438.693
419 0 98.4822 10.4892 1033 111.547 583.427 433.19
420 0 97.4848 13.3046 1297 111.517 583.449 433.705
421 0 102.463 14.6882 1505 109.25 583.301 435.405
422 0 104.385 13.1437 1372 112.625 584.843 432.268
423 0 109.298 14.9591 1635 111.98 585.959 433.293
424 0 106.304 12.897 1371 118.706 585.369 427.813
425 0 114.395 16.1021 1842 113.205 585.99 429.137
426 0 118.44 15.2229 1803 113.434 588.056 432.598
427 0 125.678 14.2507 1791 115.183 588.295 430.685
428 0 125.621 12.474 1567 118.866 588.119 428.629
429 1 195.713 17.1272 3352 112.238 587.676 402.101
430 0 188.796 11.4939 2170 119.859 587.769 400.791
431 1 208.855 15.4414 3225 116.953 587.962 390.671
432 0 213.534 16.906 3610 113.12 587.582 389.262
433 1 151.598 16.0293 2430 112.327 587.986 416.6
434 1 77.3049 17.2434 1333 107.937 586.822 451.749
435 0 83.4067 17.1809 1433 106.01 586.191 456.107
436 0 86.3878 18.7064 1616 104.048 586.312 457.045
437 0 84.6013 13.3686 1131 113.034 585.338 452.217
438 0 87.2385 13.6752 1193 112.065 585.07 454.272
439 0 89.6178 12.2967 1102 114.106 585.419 455.541
440 0 94.409 12.1705 1149 114.38 584.732 449.285
441 0 103.506 11.9413 1236 114.25 584.189 446.604
442 0 102.577 16.5535 1698 109.986 583.585 441.213
443 0 107.281 14.6158 1568 114.439 582.95 445.367
444 0 106.308 14.11 1500 117.526 581.633 436.515
445 0 112.755 14.6867 1656 115.734 582.617 437.486
446 0 116.587 12.4113 1447 117.681 580.832 437.01
447 1 60.2128 12.4558 750 110.468 580.555 462.661
448 0 63.1923 14.2739 902 105.869 581.181 464.215
449 0 70.5652 14.1713 1000 106.975 581.746 460.837
450 0 67.3921 12.1528 819 112.33 581.844 456.47
451 0 72.3144 13.2892 961 109.124 581.37 458.13
452 0 74.2695 14.9052 1107 106.525 580.074 457.958
453 0 77.3913 12.4691 965 111.927 579.854 451.379
454 0 78.392 14.3382 1124 109.244 579.87 451.831
455 0 85.4055 16.4158 1402 107.243 579.823 447.649
456 0 85.4055 16.568 1415 134.307 579.841 447.647
457 0 84.23 13.0357 1098 115.586 580.377 442.801
458 0 86.3234 9.93937 858 120.45 580.289 442.782
459 0 90.3851 12.0595 1090 116.073 581.118 442.918
460 0 93.5165 15.4732 1447 113.67 581.143 438.107
461 0 94.3816 12.1422 1146 118.503 581.96 437.16
462 0 101.336 13.4405 1362 115.534 582.247 437.177
463 0 102.406 13.4856 1381 116.163 581.336 432.022
464 0 102.406 13.4953 1382 136.167 581.336 432.211
465 1 58.1566 12.7243 740 108.978 583.984 456.842
466 0 59.2812 9.07539 538 112.954 584.322 461.357
467 0 66.2701 18.7868 1245 98.4217 584.933 461.092
468 0 64.1136 13.1797 845 108.909 585.284 457.789
469 0 66.3032 13.7097 909 106.911 585.724 460.349
470 0 71.43 13.8037 986 105.845 586.011 457.216
471 0 77.8268 19.4406 1513 95.8903 587.387 463.594
472 0 74.1923 14.5298 1078 107.058 586.895 454.132
473 0 77.3738 11.1666 864 112.041 586.684 457.666
474 0 78.3225 12.3464 967 112.133 586.033 454.655
475 0 81.1977 12.4511 1011 111.25 586.456 456.755
476 0 84.3051 14.1628 1194 109.24 585.2 460.183
477 0 89.3751 14.0084 1252 110.141 585.139 455.17
478 0 91.3139 11.7835 1076 114.183 584.899 455.141
479 0 95.3973 14.7069 1403 111.349 583.507 451.043
480 1 49.1509 13.428 660 109.55 584.906 476.377
481 0 51.2293 12.4148 636 113.513 583.407 475.7
482 0 52.3665 14.5513 762 108.42 583.066 476.109
483 0 54.1452 13.353 723 109.621 582.353 479.057
484 0 54.0861 14.4769 783 110.275 580.216 476.821
485 0 57.0744 14.7877 844 108.646 578.77 479.896
486 0 55.0471 13.1524 724 113.914 577.566 477.247
487 0 57.164 16.094 920 108.536 577.816 476.977
488 0 60.1375 14.7163 885 109.741 579.123 476.294
489 0 59.0729 11.6297 687 114.827 577.475 476.21
490 0 61.185 13.3203 815 114.072 576.702 470.733
491 0 64.0957 11.4828 736 114.645 578.029 474.58
492 0 68.4407 18.264 1250 104.71 576.965 473.377
493 0 67.1526 13.4023 900 114.486 577.021 468.792
494 0 69.236 12.5657 870 115.445 575.998 465.517
495 0 69.2456 12.073 836 116.961 575.4 465.347
496 0 75.1285 11.8464 890 116.062 574.778 463.193
497 0 77.1788 11.9592 923 114.367 574.634 464.556
498 0 78.1645 11.1943 875 118.16 573.411 457.053
499 0 86.6042 10.9694 950 114.1 573.072 454.994
500 1 47.1158 13.817 651 108.017 575.154 470.598
501 0 43.0626 8.03481 346 117.061 575.37 472.824
502 0 47.0886 12.1686 573 108.557 575.462 471.538
503 0 48.0918 8.23424 396 113.03 575.553 471.798
504 0 50.0408 11.2308 562 114.422 577.799 467.302
505 0 51.0467 13.1448 671 110.48 576.945 464.028
506 0 53.2498 10.723 571 113.946 579.469 464.368
507 0 55.1802 14.7698 815 110.36 580.013 457.931
508 0 57.0912 13.4522 768 112.082 581.014 462.264
509 0 58.2952 11.8363 690 114.712 581.145 463.088
510 0 58.3304 11.7092 683 131.971 581.127 463.168
511 0 63.5183 12.6893 806 112.428 582.761 463.362
512 0 62.2334 12.4531 775 115.581 583.178 459.014
513 0 65.1629 13.612 887 112.864 584.229 458.975
514 0 66.0764 13.9384 921 112.838 583.616 457.809
515 0 69.2468 14.4555 1001 111.564 583.592 459.146
516 0 70.1765 18.767 1317 105.985 584.792 460.951
517 0 74.2543 15.393 1143 110.854 584.729 459.586
518 0 77.1515 16.0723 1240 110.055 585.756 458.402
519 0 77.1056 12.9173 996 115.635 585.316 461.494
520 0 77.1056 12.9692 1000 135.817 585.305 461.436
521 0 80.085 12.1621 974 116.153 584.479 459.344
522 0 89.8234 21.6759 1947 101.511 584.018 461.43
523 0 89.4591 12.5197 1120 114.717 583.505 458.914
524 0 92.3134 15.7074 1450 110.571 582.705 456.619
525 1 48.0904 14.1608 681 110.938 584.079 482.609
526 0 50.043 11.3103 566 116.256 581.461 482.332
527 0 49.4336 12.9062 638 113.337 582.21 479.332
528 0 55.3346 14.7828 818 108.373 580.665 482.87
529 0 52.0982 14.108 735 111.77 580.101 482.984
530 0 54.1307 15.4995 839 111.391 578.335 478.92
531 0 55.145 13.3285 735 116.533 576.094 475.999
532 0 58.0776 15.7376 914 111.932 576.036 474.397
533 0 61.2202 17.3145 1060 106.267 574.983 474.514
534 0 61.2626 14.3317 878 112.945 574.097 469.949
535 0 63.0771 14.728 929 112.83 574.819 470.522
536 0 64.1797 16.7654 1076 110.477 574.26 470.069
537 0 68.0983 15.7566 1073 110.28 574.082 471.267
538 0 67.2574 12.3704 832 116.758 574.267 465.661
539 0 71.245 15.7485 1122 110.299 574.496 463.357
540 0 70.2599 11.5571 812 117.68 575.317 462.121
541 0 75.2529 16.5841 1248 109.445 573.109 457.099
542 0 77.2469 13.6705 1056 112.491 572.996 458.312
543 0 80.4243 15.269 1228 111.173 575.766 454.572
544 0 83.3315 12.7083 1059 113.956 576.911 453.992
545 1 134.359 11.3725 1528 115.075 576.94 439.907
546 1 89.2982 15.3083 1367 109.16 577.922 451.96
547 0 90.3451 18.7503 1694 106.256 575.404 447.161
548 0 94.4629 20.2513 1913 103.234 576.713 450.663
549 0 97.484 14.8332 1446 110.668 577.313 444.902
550 1 57.1166 16.0024 914 104.768 577.011 465.575
551 0 58.4016 15.5989 911 100.407 579.769 459.032
552 0 57.363 15.6024 895 101.304 580.316 458.217
553 0 59.1333 14.1714 838 102.862 579.329 457.584
554 0 61.2091 11.7466 719 104.896 579.926 460.914
555 0 64.1328 16.5438 1061 99.9152 580.463 460.97
556 0 67.1706 11.2103 753 105.806 581.357 459.985
557 0 70.1449 12.2461 859 104.879 582.716 453.655
558 0 72.1567 13.2074 953 103.162 582.34 458.998
559 0 75.1444 14.6119 1098 101.564 581.699 460.196
560 0 79.1678 12.4293 984 103.922 581.956 458.001
561 0 83.1499 15.0451 1251 99.3086 582.551 463.32
562 0 82.0877 8.73456 717 108.488 582.484 456.551
563 0 91.3513 20.5909 1881 96.6906 582.585 460.451
564 0 91.2301 14.9731 1366 103.151 582.181 459.49
565 0 92.4614 11.2155 1037 106.694 581.989 453.364
566 1 48.1597 11.0881 534 100.813 582 482.193
567 0 50.0694 14.1404 708 96.4802 579.919 482.432
568 0 51.079 10.6502 544 97.9688 580.456 479.55
569 0 53.1035 10.9409 581 99.8606 579.501 478.466
570 0 56.0702 12.8767 722 96.9266 579.294 479.601
571 0 57.059 10.2 582 99.9777 577.785 478.881
572 0 57.1602 12.0888 691 99.2098 577.949 476.993
573 0 61.1257 15.3945 941 95.1233 577.022 478.386
574 0 61.0722 9.74257 595 102.355 576.289 474.728
575 0 65.1088 15.9733 1040 95.3875 576.786 474.176
576 0 66.1259 9.99608 661 103.905 575.144 469.867
577 0 68.0651 8.58002 584 103.034 575.464 464.443
578 0 71.3078 13.3365 951 99.2692 576.54 465.368
579 0 75.2864 16.2181 1221 96.181 576.023 457.647
580 0 75.2421 6.81799 513 106.131 575.288 464.298
581 0 80.0841 13.4858 1080 99.975 574.781 457.563
582 1 40.2773 12.985 523 97.021 573.614 477.419
583 0 40.0499 11.7603 471 98.7771 573.724 476.066
584 0 44.2882 11.651 516 98.1899 575.143 472.012
585 0 45.215 11.4121 516 99.7016 574.95 472.36
586 0 45.215 11.4121 516 110.161 575 472.244
587 0 48.2061 14.8114 714 95.6275 575.104 470.099
588 0 47.1678 11.7665 555 99.4901 576.674 469.463
589 0 48.0871 10.6266 511 102.035 575.91 469.673
590 0 48.329 11.0079 532 102.566 576.237 468.639
591 0 51.2279 10.9315 560 101.786 576.777 469.398
592 0 52.8363 14.4787 765 97.4915 577.999 460.876
593 0 55.255 15.1479 837 97.2593 577.257 463.262
594 0 55.0892 13.705 755 100.626 579.423 464.525
595 0 57.2062 13.3552 764 100.78 579.673 463.798
596 0 60.1048 13.2435 796 101.033 579.903 464.833
597 0 60.1819 15.2538 918 99.5784 581.853 467.263
598 0 63.1601 15.1836 959 99.5787 582.241 463.593
599 0 65.2329 15.1917 991 100.225 582.175 461.599
600 0 63.1053 13.422 847 103.456 582.736 462.021
601 0 67.1963 15.1199 1016 101.258 584.114 461.93
602 0 69.187 15.7978 1093 99.4712 584.164 458.887
603 0 72.2905 11.5091 832 104.147 583.179 466.274
604 0 74.1821 19.0342 1412 97.2861 583.987 459.505
605 0 76.2495 18.4526 1407 98.209 583.562 462.305
606 0 79.2242 14.2507 1129 102.632 583.258 459.577
607 0 82.2794 14.7668 1215 101.834 582.113 461.389
608 0 86.1812 19.7491 1702 97.8267 583.15 455.354
609 1 46.0827 13.9749 644 102.326 581.146 479.719
610 0 46.1404 12.592 581 103.552 580.516 478.797
611 0 50.7582 17.278 877 96.1665 580.243 482.903
612 0 49.1004 10.9775 539 105.703 580.282 481.568
613 0 52.1371 12.8507 670 104.345 579.64 480.084
614 0 53.0703 14.2453 756 104.152 579.644 478.616
615 0 54.0571 14.1702 766 104.739 578.401 477.332
616 0 56.1005 12.1211 680 107.531 578.672 476.151
617 0 56.1673 15.0443 845 104.065 577.344 476.021
618 0 61.1605 14.9279 913 103.446 576.853 472.84
619 0 59.1317 14.3409 848 104.658 575.627 473.447
620 0 63.1795 18.4553 1166 99.2693 575.594 473.43
621 0 67.1336 14.6722 985 104.076 574.894 470.054
622 0 64.0558 13.8941 890 107.935 574.373 468.02
623 0 72.1044 14.0075 1010 106.753 574.681 465.71
624 0 72.0959 14.0507 1013 108.975 574.121 461.88
625 0 75.1415 11.3918 856 110.312 573.943 464.662
626 0 79.2402 16.8475 1335 103.63 573.856 459.026
627 1 41.0471 10.3052 423 111.979 574.674 477.617
628 0 44.0351 13.9888 616 104.019 575.617 477.122
629 0 43.0552 11.7291 505 107.03 574.15 472.651
630 0 46.0703 14.6949 677 101.641 575.563 470.79
631 0 47.1221 13.412 632 104.025 575.878 470.286
632 0 50.0821 13.5777 680 104.01 577.443 467.079
633 0 50.0578 14.1436 708 104.298 576.158 469.499
634 0 52.2749 9.83264 514 108.401 577.632 468.772
635 0 54.0848 17.0658 923 101.365 577.494 464.839
636 0 57.1286 14.4236 824 104.201 578.507 464.226
637 0 57.1286 14.3536 820 125.533 579.493 464.157
638 0 63.6113 15.2331 969 102.219 579.444 466.433
639 0 59.2288 13.8108 818 106.518 579.386 462.072
640 0 63.1134 11.6932 738 108.69 580.335 460.388
641 0 63.1134 11.5506 729 126.757 581.322 460.372
642 0 69.1171 15.8716 1097 103.172 582.104 460.896
643 0 70.1669 12.2708 861 108.69 581.226 462.372
644 0 74.1404 16.0371 1189 103.431 582.088 459.388
645 0 74.1498 17.6939 1312 103.242 582.281 457.898
646 0 79.2105 15.301 1212 105.98 581.825 458.781
647 0 81.1253 13.2511 1075 109.015 582.114 455.85
648 0 86.2064 13.9897 1206 105.133 582.493 459.478
649 1 45.049 12.2977 554 106.534 581.372 480.762
650 0 46.1467 12.0485 556 105.612 584.304 475.174
651 0 46.2024 10.3458 478 105.462 584.692 478.797
652 0 53.3248 13.0146 694 100.081 584.612 480.298
653 0 52.1639 14.5503 759 99.8959 583.855 475.436
654 0 52.1171 13.7767 718 101.567 584.095 477.76
655 0 53.1042 13.5018 717 102.185 581.941 478.912
656 0 55.2359 16.2575 898 98.7494 581.375 478.042
657 0 57.1202 13.6029 777 101.005 582.695 479.622
658 0 63.1481 20.6816 1306 93.1485 581.005 476.76
659 0 61.0636 11.8729 725 104.766 578.806 474.921
660 0 63.2466 12.8386 812 103.693 576.544 474.484
661 0 67.1077 13.0983 879 104.065 576.342 469.611
662 0 68.195 16.2915 1111 101.494 575.813 468.694
663 0 70.1185 13.6198 955 105.187 575.333 465.728
664 0 71.1487 11.1035 790 107.996 574.567 466.472
665 0 76.0944 15.7436 1198 101.951 574.606 462.109
666 1 41.2322 15.6431 645 99.555 573.896 481.405
667 0 38.084 12.8926 491 105.635 573.619 479.64
668 0 44.2416 14.8955 659 99.0531 573.684 479.344
669 0 41.0428 10.7449 441 111.497 573.515 472.592
670 0 44.0299 14.9217 657 104.417 574.105 472.068
671 0 41.0388 9.81998 403 111.809 573.238 471.794
672 0 45.072 11.6702 526 108.848 574.93 470.196
673 0 48.1163 12.0957 582 107.445 574.979 470.888
674 0 51.2913 12.6142 647 106.182 575.224 472.065
675 0 53.0355 14.2169 754 105.344 576.564 470.973
676 0 50.172 11.1616 560 114.166 576.779 466.389
677 0 55.7345 12.5595 700 108.903 577.237 467.756
678 0 55.2198 11.3546 627 112.367 577.93 467.413
679 0 58.3028 14.7506 860 107.272 579.162 465.5
680 0 57.2013 11.783 674 113.273 578.619 465.046
681 0 59.0745 16.5554 978 106.7 580.618 461.732
682 0 59.1097 13.4157 793 111.653 581.121 461.866
683 0 61.1277 15.1159 924 109.531 580.977 460.715
684 0 62.1371 15.0635 936 107.89 581.885 465.787
685 0 63.0959 11.2686 711 115.298 582.402 460.579
686 1 141.439 14.805 2094 111.481 583.856 425.849
687 1 63.2358 10.3106 652 119.557 582.218 460.347
688 0 72.059 12.1289 874 115.408 581.977 461.882
689 0 73.1921 13.4714 986 113.864 582.055 461.529
690 0 74.1675 13.038 967 114.96 581.641 464.66
691 0 78.2368 12.6667 991 115.815 580.766 462.802
692 0 79.2226 17.6086 1395 107.469 581.647 466.705
693 0 83.2554 15.6506 1303 111.617 580.919 462.424
694 0 83.1194 13.1016 1089 118.733 581.53 461.013
695 0 89.3034 17.7597 1586 109.326 580.72 463.082
696 1 48.1007 14.2202 684 112.135 580.958 481.509
697 0 50.1021 13.6521 684 112.301 580.079 482.142
698 0 52.179 12.3421 644 117.045 580.464 479.455
699 0 54.109 13.1771 713 114.659 579.254 481.325
700 0 55.1538 13.1088 723 111.696 578.563 477.107
701 0 59.0911 14.943 883 108.807 578.068 476.861
702 0 58.0812 11.8627 689 114.239 577.136 477.781
703 0 62.1037 16.8911 1049 106.131 577.153 474.696
704 0 64.1649 12.4367 798 111.737 575.919 475.892
705 0 67.1 16.468 1105 106.25 575.253 473.858
706 0 68.1641 13.0861 892 112.533 575.013 467.558
707 1 131.598 16.0033 2106 110.915 575.709 440.902
708 0 136.712 15.8509 2167 109.996 574.605 439.793
709 0 144.016 21.5392 3102 103.142 574.624 436.299
710 1 77.2903 16.3798 1266 107.774 574.933 459.01
711 0 83.1754 12.636 1051 113.611 574.934 457.425
712 0 86.5258 18.2027 1575 105.2 575.057 457.264
713 0 91.3426 26.0777 2382 96.5785 572.607 451.303
714 1 45.0497 11.3652 512 112.928 574.074 473.742
715 0 46.3486 14.693 681 109.841 575.025 470.7
716 0 47.2424 14.2245 672 104.659 578.171 470.024
717 0 49.1378 12.4955 614 105.349 577.989 470.078
718 0 46.0768 11.0251 508 111.045 577.996 464.228
719 0 48.0461 12.0093 577 109.464 576.749 463.322
720 0 50.0666 11.6844 585 103.918 577.111 465.884
721 0 54.1888 13.5268 733 102.479 577.634 462.69
722 0 55.2375 11.2424 621 106.063 577.998 463.858
723 0 54.1501 13.8319 749 103.139 578.13 463.065
724 0 58.0774 10.6065 616 106.906 579.07 463.724
725 0 61.182 10.5913 648 110.569 581.12 462.628
726 0 59.2265 8.91493 528 115.07 581.784 458.812
727 0 62.1362 10.139 630 112.437 582.792 460.386
728 0 67.2925 13.6865 921 107.55 583.125 458.896
729 0 64.2979 8.55394 550 118.173 583.182 452.465
730 0 69.1881 11.8807 822 112.012 583.063 453.651
731 0 75.3506 15.6203 1177 106.313 583.185 456.613
732 0 74.2486 11.1517 828 111.272 583.138 461.562
733 0 75.3677 9.28779 700 117.449 583.911 453.733
734 0 77.4941 12.1945 945 116.744 583.128 452.241
735 0 84.2069 12.3505 1040 114.638 583.042 454.015
736 0 85.3376 12.1517 1037 115.695 583.076 452.179
737 0 87.4523 13.0814 1144 113.804 583.472 457.519
738 0 88.3165 13.0893 1156 115.261 583.005 453.655
739 0 93.3737 13.869 1295 114.437 581.507 451.364
740 0 94.485 12.0125 1135 117.978 582.318 446.758
741 0 98.2494 14.2698 1402 113.877 581.563 451.784
742 0 102.353 14.1373 1447 113.737 581.472 454.563
743 0 107.238 13.6985 1469 113.807 579.658 452.455
744 0 110.421 14.6168 1614 114.061 578.685 452.466
745 0 115.518 14.699 1698 114.333 579.778 448.373
746 0 115.679 9.95861 1152 124.133 579.067 441.048
747 1 62.222 10.0608 626 117.169 578.733 471.573
748 0 61.2513 9.42021 577 119.14 579.444 471.251
749 0 66.4319 12.0876 803 113.781 578.291 469.333
750 0 70.4043 11.8885 837 115.716 578.437 465.883
751 0 72.3305 17.1712 1242 108.813 577.454 466.28
752 0 74.6218 13.2267 987 111.583 577.551 457.96
753 0 77.1917 13.8357 1068 112.04 577.513 461.404
754 0 76.17 11.645 887 116.763 578.705 458.497
755 0 76.17 11.7632 896 125.433 579.712 458.302
756 0 87.3057 15.3942 1344 111.04 575.529 452.63
757 0 85.0602 11.6035 987 116.786 576.504 455.322
758 0 89.1854 12.3114 1098 115.535 577.501 452.944
759 0 91.2601 13.9163 1270 113.937 577.506 449.337
760 0 93.182 12.0517 1123 117.11 577.243 444.963
761 0 99.3323 12.7753 1269 114.864 578.235 449.517
762 0 100.154 14.0284 1405 113.71 578.322 445.806
763 0 97.3222 10.7992 1051 118.836 579.359 446.537
764 1 106.294 11.7411 1248 118.311 579.861 439.401
765 0 110.144 12.3929 1365 118.289 580.282 438.214
766 0 114.299 14.0072 1601 113.926 580.384 443.206
767 0 117.335 12.4856 1465 119.048 581.187 432.113
768 0 123.264 15.7223 1938 113.358 581.873 436.526
769 0 126.665 15.3949 1950 114.673 582.922 432.099
770 1 137.711 11.1973 1542 120.519 583.043 432.549
771 0 136.482 13.5769 1853 116.823 583.435 431.455
772 1 75.0818 17.3677 1304 107.421 581.899 462.012
773 0 75.0604 11.977 899 117.457 583.013 457.815
774 0 80.194 13.9911 1122 116.911 582.508 457.163
775 0 81.2543 13.6731 1111 115.742 583.873 462.836
776 0 83.3155 14.043 1170 119.016 584.605 457.556
777 0 86.1081 15.4109 1327 114.569 585.327 455.036
778 0 88.1168 13.5729 1196 117.666 585.346 459.477
779 0 88.2975 13.8396 1222 119.66 584.21 459.05
780 0 95.1475 15.4812 1473 116.201 585.188 455.086
781 0 95.1368 12.1299 1154 124.66 585.445 453.138
782 0 99.0924 13.0888 1297 122.2 584.677 451.972
783 0 98.2243 12.502 1228 117.971 583.71 457.539
784 0 103.091 11.3493 1170 120.465 583.362 454.495
785 0 105.446 11.8924 1254 115.086 581.732 448.241
786 0 106.29 10.7254 1140 122.316 581.652 453.739
787 1 162.43 13.6489 2217 120.87 581.864 423.116
788 1 113.324 11.0656 1254 121.203 580.861 446.004
789 0 116.249 13.6861 1591 119.111 580.262 441.211
790 0 122.502 12.0488 1476 118.117 579.493 447.444
791 0 125.357 17.0393 2136 113.364 579.91 436.881
792 0 130.498 13.9236 1817 116.78 578.7 438.424
793 0 134.224 14.7887 1985 117.092 579.589 435.489
794 0 142.498 14.73 2099 116.802 578.394 432.059
795 0 144.643 13.6957 1981 120.531 577.355 421.149
796 0 152.498 13.9346 2125 118.532 577.763 425.809
797 0 155.416 14.7218 2288 119.552 578.327 411.879
798 1 87.1529 10.3955 906 118.181 578.426 448.371
799 0 91.2202 13.3413 1217 114.177 578.795 450.081
800 0 93.2552 13.4255 1252 113.341 578.205 449.165
801 0 99.2953 13.5152 1342 113.87 579.744 444.22
802 0 101.345 12.8571 1303 115.23 578.307 439.831
803 0 105.375 13.3903 1411 115.366 578.419 443.5
804 0 108.524 13.3704 1451 118.293 579.214 438.604
805 0 111.364 11.9607 1332 120.414 580.024 431.883
806 1 58.3983 10.7024 625 121.39 580.501 462.682
807 0 57.197 10.6824 611 123.805 581.069 457.74
808 0 61.4334 12.5502 771 118.678 582.642 461.201
809 0 61.5364 14.5442 895 118.046 581.64 456.755
810 0 64.2797 11.6055 746 120.65 583.914 460.962
811 0 66.2014 11.9635 792 122.741 585.23 455.907
812 0 70.1935 11.1406 782 122.208 584.596 459.399
813 0 72.1493 14.0819 1016 118.033 584.526 456.971
814 0 73.2128 14.3144 1048 115.886 585.236 460.394
815 0 73.4603 12.5102 919 120.733 585.396 454.009
816 0 75.2239 13.9052 1046 118.49 585.948 456.384
817 0 78.2426 15.0941 1181 116.804 584.914 456.123
818 0 79.1622 13.2639 1050 121.039 585.17 457.86
819 0 83.178 13.7296 1142 119.817 585.347 458.163
820 0 85.1428 12.9547 1103 119.817 585.92 456.031
821 0 89.2586 15.3823 1373 116.303 585.948 450.334
822 0 91.339 11.5066 1051 123.091 584.26 450.193
823 0 93.2501 13.0724 1219 120.136 583.475 449.98
824 0 97.3253 12.3709 1204 120.678 583.859 453.711
825 1 49.1103 6.61775 325 120.252 580.982 479.163
826 0 52.2921 11.1872 585 115.656 582.084 476.726
827 0 51.365 11.6032 596 118.054 581.037 474.312
828 0 51.1705 13.2303 677 108.705 582.786 468.504
829 0 57.2441 11.6344 666 104.467 579.551 473.311
830 0 54.1827 10.5753 573 108.768 580.042 471.812
831 0 57.1676 13.5566 775 104.871 579.152 469.182
832 0 59.0685 10.0053 591 110.007 578.946 465.981
833 0 62.1392 13.0192 809 104.691 578.001 469.261
834 0 63.2449 13.0445 825 104.514 577.686 466.704
835 0 67.1752 12.5642 844 105.107 577.826 463.028
836 0 70.4038 13.2663 934 103.757 578.099 465.225
837 0 70.2746 11.8677 834 107.013 578.435 455.841
838 0 71.3061 13.6735 975 105.125 578.006 454.639
839 0 76.494 12.8899 986 106.161 577.323 452.359
840 0 75.3915 12.2428 923 105.704 577.141 453.629
841 0 82.1698 14.2997 1175 102.574 578.163 451.517
842 0 82.1037 15.4073 1265 105.074 576.996 448.862
843 0 83.2556 14.4014 1199 106.219 577.131 448.57
844 0 84.2526 11.9522 1007 106.15 577.22 450.041
845 0 87.185 9.97878 870 111.149 577.437 443.729
846 0 92.1601 12.1962 1124 111.214 576.278 442.539
847 0 94.2483 13.5175 1274 109.635 577.705 444.589
848 0 97.1891 11.6062 1128 112.385 578.154 443.656
849 0 98.3594 10.0956 993 114.133 579.695 443.908
850 0 104.269 12.7843 1333 108.404 580.656 435.116
851 0 105.162 10.6598 1121 110.885 580.8 433.01
852 1 50.1035 9.75979 489 107.495 581.8 460.074
853 0 50.1968 12.3115 618 104.028 581.136 458.282
854 0 50.0868 13.1372 658 103.017 582.536 464.65
855 0 55.1231 10.5582 582 106.761 581.586 460.67
856 0 54.2605 5.04971 274 113.697 582.682 461.883
857 0 58.0366 12.4404 722 108.004 582.089 466.476
858 0 61.0904 13.8811 848 103.289 583.338 461.101
859 0 62.0442 10.8632 674 108.559 583.052 457.053
860 0 67.1667 13.8908 933 103.379 583.337 464.059
861 0 66.1379 14.243 942 104.384 584.186 464.711
862 0 68.1671 11.3398 773 109.86 584.113 461.988
863 0 71.1612 10.8205 770 110.365 584.332 465.797
864 0 72.2304 19.6178 1417 100.738 583.735 462.049
865 0 74.5594 14.7533 1100 107.047 582.904 462.118
866 0 76.135 9.70644 739 113.453 582.651 465.062
867 0 80.2022 13.7652 1104 107.645 583.447 463.494
868 0 84.2184 16.3979 1381 104.925 583.316 464.059
869 1 41.1032 11.2643 463 113.231 581.395 483.553
870 0 46.1766 12.5605 580 109.716 581.997 479.466
871 0 46.0792 12.4785 575 112.183 582.49 481.073
872 0 45.1406 13.0481 589 113.783 580.834 478.686
873 0 47.0455 12.1372 571 114.867 580.996 480.124
874 0 48.1273 14.3162 689 110.955 580.295 476.54
875 0 48.0632 12.4419 598 114.04 580.242 474.865
876 0 49.175 12.181 599 115.846 580.534 474.554
877 0 55.3388 12.5048 692 111.89 579.803 477.435
878 0 53.0776 12.7172 675 114.007 580.276 472.785
879 0 56.1891 15.8038 888 108.662 578.955 470.039
880 0 56.1891 15.7682 886 121.093 576.954 470.046
881 0 60.1833 10.8336 652 114.436 578.609 470.629
882 0 60.1767 12.2639 738 114.411 578.474 463.875
883 0 62.2262 11.9564 744 114.563 578.562 468.815
884 0 64.2686 14.0193 901 112.949 579.181 462.624
885 0 67.2808 13.6889 921 113.76 578.991 460.645
886 0 70.2532 13.0955 920 114.957 579.296 458.938
887 0 71.1956 10.3518 737 119.577 579.368 457.441
888 0 72.2233 10.2737 742 119 579.577 459.821
889 0 76.1581 12.4478 948 117.438 580.764 456.449
890 0 79.2213 13.0016 1030 115.458 579.721 451.78
891 0 80.1171 12.7438 1021 116.041 580.768 449.833
892 0 85.1955 12.3011 1048 115.431 582.214 449.306
893 0 85.3019 12.403 1058 116.498 582.458 447.524
894 0 88.289 12.9914 1147 115.901 582.827 449.027
895 0 92.2055 13.1771 1215 115.82 582.584 444.028
896 0 96.3789 13.1668 1269 117.02 582.768 444.628
897 0 99.2414 13.7543 1365 115.607 583.678 444.059
898 1 51.2201 10.7575 551 118.695 585.555 465.595
899 0 57.086 12.7001 725 113.916 584.917 466.6
900 0 58.1828 12.9248 752 108.669 585.234 464.883
901 0 59.1643 13.8597 820 109.03 584.63 467.572
902 0 60.2761 10.8667 655 112.779 585.904 465.496
903 0 61.3123 9.67179 593 114.191 586.13 468.535
904 0 65.4103 11.1756 731 111.594 587.048 469.373
905 0 66.1905 11.9353 790 112.053 586.078 464.647
906 0 70.3669 11.909 838 111.266 586.459 464.89
907 0 71.2049 12.9766 924 109.735 585.588 464.449
908 0 73.3232 10.1196 742 114.699 584.702 462.935
909 0 76.2578 13.3888 1021 110.526 585.026 464.542
910 0 81.2342 14.3289 1164 110.485 584.101 462.435
911 0 85.5033 13.5316 1157 108.465 584.839 469.831
912 0 86.2098 11.9012 1026 112.8 584.179 463.629
913 0 92.3384 21.3562 1972 101.18 583.127 460.313
914 0 94.3538 11.5099 1086 115.598 583.159 456.113
915 0 95.4382 14.0929 1345 112.719 580.979 458.074
916 0 97.292 13.4132 1305 114.457 581.521 457.752
917 0 103.347 13.4788 1393 113.914 580.371 456.515
918 0 106.502 15.4645 1647 110.927 578.71 456.613
919 0 109.351 12.9675 1418 116.725 579.08 451.211
920 0 109.283 11.7676 1286 119.601 579.019 446.121
921 1 61.1773 14.8584 909 108.057 579.521 473.45
922 0 62.3803 13.0811 816 115.98 578.675 470.277
923 0 64.1984 12.5081 803 118.983 578.929 469.447
924 0 68.4101 12.3228 843 116.851 578.306 467.512
925 0 68.6302 12.1812 836 118.394 577.817 464.572
926 0 73.8013 14.6881 1084 111.467 577.786 466.344
927 0 71.4718 12.3545 883 120.46 577.675 459.636
928 0 72.4403 12.2584 888 118.843 577.925 459.743
929 0 68.3861 7.86709 538 124.658 578.66 462.829
930 0 80.3322 13.8923 1116 117.846 577.668 452.619
931 0 82.2867 10.6457 876 122.239 579.445 452.168
932 0 85.5364 14.5903 1248 114.91 579.074 449.757
933 0 89.4926 10.6713 955 121.147 579.689 449.801
934 1 48.2193 12.2565 591 114.47 578.956 466.162
935 0 49.2524 10.5173 518 108.894 579.34 462.515
936 0 50.1324 18.0721 906 102.753 579.806 465.759
937 0 52.1461 16.0319 836 105.567 580.183 466.525
938 0 55.2269 17.4009 961 104.818 580.734 463.072
939 0 56.2698 13.5064 760 109.77 580.828 466.564
940 0 57.2619 19.6117 1123 102.776 580.836 461.405
941 0 56.4151 14.1629 799 112.064 580.811 464.347
942 0 56.1736 13.3871 752 115.033 582.375 464.581
943 0 62.1371 14.645 910 109.601 583.134 465.131
944 0 61.1492 13.835 846 112.037 583.616 465.23
945 0 65.0831 11.5084 749 108.885 583.762 460.069
946 0 65.2236 9.65908 630 111.687 583.381 459.311
947 0 71.1948 12.824 913 107.356 584.057 460.185
948 0 72.2415 12.4305 898 106.836 584.255 463.209
949 0 74.1834 13.2375 982 107.635 583.244 462.833
950 0 81.2777 12.9187 1050 104.104 582.826 467.066
951 1 34.0729 6.83828 233 114.931 582.506 478.292
952 0 34.0768 6.80815 232 115.444 582.496 478.448
953 0 41.1046 11.4342 470 117.302 584.164 483.536
954 0 46.233 17.109 791 101.96 584.137 480.375
955 0 44.2072 10.8353 479 111.994 583.939 482.453
956 0 46.287 13.1138 607 108.554 583.285 480.048
957 0 45.2821 9.18685 416 113.416 582.053 478.673
958 0 50.2226 13.2012 663 108.072 580.317 479.264
959 0 50.2226 13.261 666 112.805 579.302 479.203
960 0 48.2213 10.2444 494 112.962 579.164 478.01
961 0 51.2157 8.98162 460 112.459 579.489 478.75
962 0 53.1211 10.316 548 109.392 577.714 480.314
963 0 61.173 14.4999 887 104.163 578.699 473.1
964 0 58.1926 14.5723 848 103.662 577.401 476.812
965 0 60.2184 10.7774 649 109.94 577.257 472.957
966 0 63.2174 12.5124 791 107.678 577.674 470.057
967 0 63.1078 12.6292 797 108.723 577.494 464.699
968 0 66.1341 13.4424 889 106.463 577.408 465.211
969 0 68.2545 10.3876 709 108.811 577.891 469.793
970 0 68.1816 13.2881 906 106.972 576.528 464.646
971 0 72.1628 14.301 1032 106.499 577.18 460.454
972 0 77.2271 16.6133 1283 102.786 576.971 457.751
973 0 79.1699 17.6835 1400 102.626 577.969 458.384
974 0 78.2386 11.5927 907 114.078 577.017 455.794
975 0 85.1534 13.1058 1116 111.028 578.497 454.128
976 1 44.1166 11.0616 488 108.037 577.887 470.238
977 0 50.7608 18.0848 918 97.2102 579.007 470.485
978 0 50.4368 14.6322 738 103.497 578.492 462.339
979 0 50.2398 11.5645 581 103.473 579.886 468.943
980 0 51.1458 11.477 587 104.491 579.707 468.136
981 0 54.078 16.2913 881 98.5255 581.296 468.701
982 0 53.3012 16.5475 882 103.731 581.741 465.442
983 0 57.2861 15.2917 876 99.2922 582.131 461.121
984 0 58.1846 13.0275 758 101.672 582.91 465.885
985 0 59.2151 12.6826 751 103.602 583.461 466.71
986 1 116.45 10.1932 1187 110.427 583.707 433.661
987 1 63.1911 12.4543 787 101.455 584.271 467.319
988 0 67.1754 16.0475 1078 100.54 585.054 462.183
989 0 68.2451 21.1883 1446 94.1335 584.68 467.756
990 0 73.3048 13.8599 1016 103.04 586.333 458.183
991 0 75.4015 13.2093 996 102.456 585.507 466.647
992 0 78.2237 19.0735 1492 96.9605 586.084 459.259
993 0 75.2154 9.67887 728 103.777 586.508 466.712
994 0 81.3875 11.7954 960 104.493 585.685 452.344
995 1 44.3515 10.7099 475 101.356 586.187 479.114
996 0 47.0725 12.7038 598 103.358 585.164 479.069
997 0 45.1631 10.9603 495 108.851 584.891 480.222
998 0 46.1165 14.5067 669 106.729 584.463 479.042
999 0 49.0373 14.2341 698 106.837 584.059 481.583
1000 0 48.1418 14.2496 686 108.885 582.7 480.032
1001 0 52.3289 13.3005 696 110.629 581.237 478.466
1002 0 52.3194 11.2769 590 114.724 581.453 477.049
1003 0 55.1808 13.9904 772 111.079 580.363 476.416
1004 0 56.2066 18.7523 1054 105.104 579.481 473.662
1005 0 56.4121 12.6923 716 117.419 579.126 473.387
1006 0 58.4373 14.4942 847 114.019 578.901 472.476
1007 0 60.1516 17.3562 1044 110.832 578.333 469.658
1008 0 62.4119 16.8878 1054 110.545 578.061 471.263
1009 0 66.2842 18.6319 1235 107.993 577.718 469.232
1010 0 64.1523 13.2809 852 118.705 578.366 466.934
1011 0 64.1523 13.3588 857 140.371 579.335 466.841
1012 0 67.3042 12.0498 811 121.506 576.785 466.127
1013 0 70.3461 15.0826 1061 114.311 576.745 461.751
1014 0 74.414 14.9166 1110 114.415 576.829 463.581
1015 0 75.5481 14.8912 1125 115.621 577.695 457.585
1016 0 74.5664 12.2709 915 122.38 577.901 454.702
1017 0 79.3094 13.4284 1065 120.086 575.931 453
1018 0 86.7175 15.7754 1368 113.727 577.993 455.078
1019 0 86.4534 18.6574 1613 112.603 574.941 445.785
1020 0 89.5239 15.7835 1413 117.683 575.448 446.023
1021 0 90.352 13.7462 1242 121.406 575.322 446.093
1022 0 94.6826 15.9163 1507 117.81 575.758 441.754
1023 0 98.6219 17.2071 1697 115.61 575.434 439.642
1024 1 51.3972 13.3276 685 120.292 576.042 458.781
1025 0 50.2549 8.13852 409 124.049 577.538 459.029
1026 0 55.2786 11.2702 623 120.679 578.498 454.136
1027 0 55.2786 11.3245 626 142.387 578.5 454.182
1028 0 59.1881 12.9249 765 118.522 579.401 457.878
1029 0 60.1842 13.2095 795 119.014 580.649 457.584
1030 0 62.1873 13.4111 834 119.277 581.835 458.054
1031 0 63.2409 12.1915 771 119.518 581.696 456.117
1032 0 65.2788 11.6117 758 113.803 580.083 460.412
1033 0 66.1989 9.84911 652 118.15 580.966 456.405
1034 0 71.3045 10.5463 752 115.741 580.601 461.727
1035 0 74.2771 14.244 1058 111.012 580 461.037
1036 0 74.188 12.2392 908 114.919 580.733 461.84
1037 0 74.188 12.1448 901 126.264 581.728 461.758
1038 0 81.3074 12.6926 1032 115.991 579.955 458.115
1039 0 84.1387 15.7953 1329 106.924 578.75 467.693
1040 0 86.2502 14.3188 1235 118.079 579.577 460.354
1041 0 89.2159 15.087 1346 118.529 579.734 459.385
1042 1 48.0307 11.9299 573 122.134 577.836 480.101
1043 0 50.1338 11.8084 592 122.405 577.49 481.049
1044 0 50.0866 11.4602 574 124.127 575.967 477.267
1045 0 54.2674 16.3818 889 114.146 576.53 479.201
1046 0 53.1619 12.6971 675 121.39 578.751 478.564
1047 0 59.2279 16.3605 969 112.922 579.441 476.705
1048 0 58.1348 13.5719 789 119.615 579.793 475.139
1049 0 59.0859 14.9613 884 116.688 575.894 475.707
1050 0 62.1839 13.4279 835 118.97 576.407 471.577
1051 0 65.1886 14.7725 963 116.603 575.265 471.83
1052 0 68.1504 15.6272 1065 114.607 574.753 469.374
1053 0 70.1558 15.5939 1094 113.786 574.073 465.09
1054 0 69.0803 12.9704 896 120.102 575.529 466.074
1055 0 72.0822 14.2892 1030 116.625 575.782 465.922
1056 0 75.063 14.5078 1089 117.299 575.709 461.94
1057 0 79.0613 14.8239 1172 116.102 576.742 459.88
1058 0 80.2267 14.5214 1165 116.887 576.863 459.314
1059 0 81.3344 13.2662 1079 116.461 576.61 458.473
1060 0 87.0776 18.0644 1573 108.671 577.317 457.873
1061 1 48.0782 12.4797 600 117.05 577.447 472.652
1062 0 45.1013 11.9952 541 121.608 575.671 470.213
1063 0 51.0785 14.5071 741 114.379 578.561 469.611
1064 0 49.0506 14.1487 694 119.098 579.615 469.228
1065 0 51.0418 13.2441 676 121.263 580.834 468.432
1066 0 51.0606 13.4742 688 120.991 580.385 469.142
1067 0 54.1918 13.3969 726 122.576 581.814 464.629
1068 0 53.0924 7.53404 400 132.468 581.818 468.52
1069 0 58.1012 14.0961 819 119.752 582.236 465.845
1070 0 59.1258 13.0738 773 123.226 583.64 465.451
1071 0 60.1019 12.6452 760 123.549 584.221 467.572
1072 0 64.1748 13.993 898 121.16 584.024 466.193
1073 0 62.1131 11.946 742 127.054 585.674 468.608
1074 0 62.1131 12.1231 753 140.408 587.64 468.637
1075 0 69.1833 12.1128 838 124.965 586.045 467.619
1076 0 71.2166 15.6143 1112 118.565 585.212 468.469
1077 0 75.2068 16.0491 1207 119.222 585.249 462.584
1078 0 77.2629 13.7841 1065 124.754 586.303 459.068
1079 0 80.2426 13.2224 1061 126.504 585.385 462.082
1080 0 86.4715 16.8842 1460 119.927 585.855 458.284
1081 1 44.1645 13.0874 578 123.099 584.287 481.481
1082 0 46.3047 13.0224 603 122.058 584.104 482.035
1083 0 48.3614 14.0608 680 124.879 581.743 475.315
1084 0 50.2007 11.6333 584 124.973 582.485 474.337
1085 0 50.2007 12.3305 619 144.037 583.422 475.04
1086 0 52.0935 13.3222 694 126.045 582.696 479.517
1087 0 55.0546 15.4937 853 121.951 580.811 477.407
1088 0 55.0914 13.3959 738 125.076 581.587 480.916
1089 0 56.0487 11.9004 667 130.582 580.099 474.25
1090 0 59.0716 14.9141 881 123.509 581.022 473.05
1091 0 62.0425 15.1831 942 122.225 580.094 472.111
1092 0 63.1776 14.1031 891 123.824 578.303 470.212
1093 0 66.1406 16.1323 1067 120.321 578.012 468.064
1094 0 68.1233 15.0022 1022 122.287 577.198 465.98
1095 0 68.0753 12.8093 872 127.005 577.478 463.171
1096 0 73.1771 15.565 1139 120.627 576.788 463.119
1097 0 74.2168 14.8214 1100 123.377 577.185 460.193
1098 0 78.2401 13.9826 1094 123.928 577.636 458.687
1099 0 80.1467 16.3575 1311 120.252 576.899 455.179
1100 0 84.1952 15.4284 1299 120.355 577.075 451.693
1101 0 86.1487 14.5446 1253 122.531 577.158 448.633
1102 0 89.2852 14.8849 1329 121.688 577.997 444.302
1103 0 90.1799 13.4176 1210 122.723 578.436 444.598
1104 1 50.091 13.9945 701 118.187 578.234 466.957
1105 0 51.1672 14.9315 764 115.699 578.343 465.694
1106 0 53.1281 15.6414 831 112.227 578.786 466.108
1107 0 56.0733 17.5128 982 109.379 579.671 462.769
1108 0 56.1508 14.1405 794 114.374 579.083 460.792
1109 0 60.1855 15.3692 925 111.253 581.024 461.664
1110 0 61.1755 13.4531 823 114.803 580.826 458.762
1111 0 65.0859 14.7651 961 111.613 580.879 458.71
1112 0 66.3031 14.3885 954 112.798 581.196 458.391
1113 1 132.277 11.2189 1484 119.809 581.621 426.782
1114 1 69.4544 18.1846 1263 107.758 582.523 455.717
1115 0 71.0941 14.2769 1015 113.784 584.393 454.027
1116 0 74.286 14.3365 1065 112.076 583.283 454.488
1117 0 80.2092 15.7588 1264 108.782 584.345 452.515
1118 0 79.1757 14.4489 1144 110.998 583.012 456.54
1119 0 84.1903 15.3818 1295 110.067 583.654 446.88
1120 0 87.1742 13.0658 1139 113.971 583.544 452.619
1121 0 89.1846 13.2534 1182 113.953 583.704 448.913
1122 1 45.0338 10.8363 488 116.816 584.234 469.607
1123 0 48.046 12.8211 616 112.825 583.701 473.812
1124 0 50.0489 13.0273 652 114.198 583.834 470.678
1125 0 53.1286 13.7967 733 112.375 583.6 467.681
1126 0 53.0614 11.2134 595 118.585 583.375 467.319
1127 0 54.1401 14.9427 809 111.946 582.357 466.676
1128 0 57.2792 15.4332 884 109.23 581.402 472.361
1129 0 60.5089 13.8327 837 110.658 580.989 474.415
1130 0 62.2541 14.5051 903 110.627 579.126 469.583
1131 0 65.2463 12.9662 846 111.941 578.742 471.52
1132 0 65.7892 12.3121 810 113.585 578.759 469.878
1133 0 69.4497 10.7272 745 114.766 577.138 469.877
1134 0 72.4979 13.5728 984 111.288 578.018 465.8
1135 0 72.5788 11.0501 802 119.681 575.314 461.739
1136 0 79.826 14.5441 1161 112.18 575.892 462.311
1137 0 82.8809 15.6248 1295 111.597 575.018 455.793
1138 0 81.9183 12.6834 1039 118.036 574.634 452.695
1139 0 85.4742 16.5196 1412 108.271 574.719 460.288
1140 0 90.4219 15.671 1417 105.385 572.889 454.752
1141 0 93.9256 14.4157 1354 105.637 572.916 453.511
1142 0 95.499 15.4452 1475 108.388 573.941 445.92
1143 1 51.7283 11.4444 592 109.596 572.897 469.171
1144 0 51.7916 14.3846 745 105.742 573.929 468.424
1145 0 55.7376 13.0971 730 109.237 574.222 462.285
1146 0 56.1861 12.9747 729 106.735 573.642 465.258
1147 0 58.2858 11.5294 672 108.781 573.26 465.499
1148 0 60.3348 13.1102 791 105.755 574.014 466.576
1149 0 60.1305 13.6204 819 106.845 573.7 463.705
1150 0 62.4162 12.3045 768 108.397 576.098 461.048
1151 0 64.2051 12.4757 801 108.838 575.881 459.237
1152 0 67.1898 11.7429 789 109.657 576.649 457.878
1153 0 67.1898 11.6833 785 129.363 577.652 457.924
1154 0 72.2584 13.8254 999 106.446 579.089 452.487
1155 0 76.2564 13.8742 1058 106.422 579.267 455.533
1156 0 79.1763 17.5684 1391 101.096 580.344 454.589
1157 0 82.2307 15.9551 1312 104.062 580.479 451.347
1158 0 83.108 14.2586 1185 105.643 581.767 452.976
1159 0 86.2302 11.8288 1020 108.439 583.645 452.376
1160 0 90.2154 14.3102 1291 105.405 583.723 448.875
1161 0 93.2115 12.3054 1147 109.432 582.279 447.901
1162 0 94.37 11.137 1051 109.305 584.616 453.931
1163 1 49.2272 7.98339 393 106.305 584.995 475.636
1164 0 50.1433 10.4102 522 105.732 584.602 468.695
1165 0 55.3878 14.2089 787 99.817 584.842 471.797
1166 0 54.1789 14.8582 805 100.19 583.127 470.573
1167 0 58.7456 14.0947 828 99.9287 582.931 468.425
1168 0 58.3513 11.3108 660 104.895 583.986 475.95
1169 0 57.3631 8.14112 467 108.792 583.193 476.116
1170 0 64.3681 13.2364 852 102.374 583.137 476.59
1171 0 65.3224 12.7521 833 102.774 581.66 472.984
1172 0 65.2995 11.8684 775 104.788 581.076 469.305
1173 0 70.2534 13.3517 938 102.051 580.84 475.27
1174 0 75.6944 13.5149 1023 100.211 579.651 474.32
1175 0 73.3445 11.6982 858 105.438 578.81 463.846
1176 0 76.3752 13.5777 1037 103.552 578.152 463.068
1177 0 74.2575 5.91186 439 115.774 576.699 462.062
1178 0 77.3968 9.35439 724 110.887 576.043 458.834
1179 0 81.4892 9.68226 789 109.243 576.959 458.688
1180 0 82.6414 11.205 926 109.286 576.793 453.297
1181 0 89.5977 14.5874 1307 102.403 576.94 458.21
1182 1 135.788 11.0982 1507 108.83 576.736 438.522
1183 0 141.778 11.511 1632 110.185 576.915 426.167
1184 1 48.4115 6.73393 326 108.488 577.463 470.776
1185 0 52.4656 10.6737 560 102.811 576.53 473.471
1186 0 54.3442 10.5071 571 102.247 575.326 473.989
1187 0 54.2155 8.96423 486 105.735 573.469 467.947
1188 0 56.2612 10.8245 609 103.99 574.177 469.591
1189 0 58.2311 14.1162 822 101.599 574.394 463.864
1190 0 63.2514 13.2803 840 101.211 574.471 465.839
1191 0 60.3615 9.89041 597 107.395 574.276 463.72
1192 0 64.3601 12.2747 790 103.905 575.52 458.432
1193 0 65.3593 11.6892 764 104.894 575.941 459.768
1194 0 67.493 12.6828 856 103.672 576.595 457.574
1195 0 71.2843 10.4371 744 106.196 576.934 458.866
1196 0 72.3403 11.6947 846 105.806 576.948 453.8
1197 0 76.1967 12.9533 987 103.767 577.378 455.187
1198 0 78.3658 15.0831 1182 100.03 578.542 451.45
1199 0 78.3355 12.3699 969 104.884 579.196 447.289
1200 0 80.1813 11.4865 921 104.988 580.344 449.884
1201 0 80.1813 11.5987 930 128.825 581.349 449.831
1202 0 87.4001 13.2151 1155 103.885 581.955 446.125
1203 1 48.3049 11.8622 573 101.503 581.103 469.312
1204 0 48.1391 9.99187 481 108.455 581.58 472.925
1205 0 50.1406 12.4649 625 103.27 584.594 471.858
1206 0 50.0703 13.2614 664 101.831 584.282 469.235
1207 0 55.3908 14.154 784 98.0702 585.168 476.705
1208 0 55.1509 12.6381 697 101.9 585.326 474.128
1209 0 56.1689 12.8363 721 101.886 585.264 472.1
1210 0 59.39 13.083 777 100.772 584.625 474.614
1211 0 60.2419 10.4246 628 104.783 585.717 472.627
1212 0 62.2019 13.6973 852 99.6561 584.795 475.423
1213 0 63.2552 15.1292 957 98.2968 584.387 472.176
1214 0 65.206 14.0018 913 99.9025 582.906 471.064
1215 0 67.1359 11.9608 803 101.795 583.384 474.183
1216 0 70.1893 13.8055 969 99.8555 582.119 469.89
1217 0 72.2847 13.0456 943 100.716 580.285 470.49
1218 0 72.1767 11.4026 823 103.373 579.945 466.868
1219 0 78.3776 12.6056 988 101.187 579.855 461.319
1220 0 78.2075 13.5025 1056 100.578 578.984 467.498
1221 1 43.0116 13.136 565 99.7115 580.096 482.919
1222 0 43.0797 12.7438 549 101.557 577.951 478.337
1223 0 45.1322 11.9427 539 101.434 578.002 479.134
1224 0 42.1655 9.39157 396 104.018 576.801 478.833
1225 0 46.2689 10.7848 499 101.886 576 472.253
1226 0 49.3446 9.82885 485 102.194 575.969 467.977
1227 0 49.1083 12.5233 615 99.7415 573.514 472.564
1228 0 50.0603 10.3275 517 102.83 573.35 471.093
1229 0 53.1058 18.1524 964 93.3216 573.212 465.513
1230 0 52.1544 13.4025 699 99.2747 573.731 468.252
1231 0 55.0392 13.0089 716 99.2807 574.087 464.155
1232 0 57.0486 9.93889 567 102.155 574.229 468.765
1233 0 58.1074 13.6644 794 98.2809 574.961 462.32
1234 0 61.0569 11.088 677 100.696 575.809 460.372
1235 0 64.0744 12.2358 784 99.2436 575.506 464.167
1236 0 64.0494 9.41461 603 103.514 576.905 463.139
1237 0 67.1468 11.6312 781 101.507 578.131 457.793
1238 0 68.1588 10.6516 726 102.785 578.27 453.084
1239 0 70.2945 11.2384 790 102.818 577.609 457.133
1240 0 72.0988 13.0793 943 101.537 579.29 453.154
1241 0 74.2143 13.8248 1026 100.69 579.74 452.721
1242 0 77.1523 11.5745 893 103.515 580.233 451.092
1243 0 78.0848 13.2036 1031 101.058 580.771 446.967
1244 0 83.1172 12.1756 1012 103.689 581.789 449.954
1245 0 85.0896 15.9832 1360 99.8118 581.144 448.576
1246 0 88.1695 13.5421 1194 103.096 582.409 447.832
1247 0 92.2269 15.9389 1470 99.4136 583.663 444.337
1248 1 51.0927 11.3715 581 104.754 582.921 468.324
1249 0 54.1117 13.8787 751 100.776 583.634 469.855
1250 0 58.0324 13.9405 809 104.213 582.977 470.828
1251 0 57.3166 13.7133 786 105.851 583.167 467.873
1252 0 62.2453 10.2658 639 109.728 582.254 473.723
1253 0 59.0701 12.9338 764 107.576 581.963 470.984
1254 0 64.2181 13.5476 870 107.131 580.717 468.511
1255 0 65.1783 11.5376 752 109.863 580.569 473.028
1256 1 121.339 9.79897 1189 111.629 581.595 448.249
1257 0 126.406 11.8427 1497 110.188 581.24 444.724
1258 0 126.31 7.74285 978 116.462 579.294 444.958
1259 1 75.13 14.242 1070 109.733 578.689 464.799
1260 0 78.1217 14.375 1123 109.719 577.823 466.408
1261 0 80.1053 15.2549 1222 109.805 577.308 461.736
1262 0 81.171 15.2887 1241 110.527 576.265 462.474
1263 0 87.2697 13.0286 1137 114.065 575.934 458.687
1264 0 91.1799 13.1827 1202 112.798 575.672 460.869
1265 1 45.1742 10.2271 462 116.823 575.403 476.494
1266 0 49.1752 12.0386 592 113.88 574.882 475.736
1267 0 51.1677 14.0909 721 110.829 573.609 473.162
1268 0 52.1167 10.8411 565 114.598 574.779 479.474
1269 0 53.1677 14.0499 747 105.622 573.944 472.677
1270 0 52.2291 9.8987 517 108.389 574.725 474.652
1271 0 54.1315 15.0744 816 102.223 574.114 471.942
1272 0 55.0675 11.4405 630 109.116 575.257 467.232
1273 0 57.0825 13.717 783 106.123 575.378 465.284
1274 0 61.1742 17.7689 1087 100.191 575.613 463.333
1275 0 61.1674 16.9044 1034 106.94 574.864 462.197
1276 0 66.2418 13.6621 905 117.201 576.114 463.452
1277 0 67.0408 14.9312 1001 114.487 574.786 463.474
1278 0 69.3534 18.0813 1254 111.147 575.372 456.301
1279 0 67.0877 13.9221 934 120.452 577.596 456.611
1280 0 67.0877 13.9817 938 141.414 578.581 456.53
1281 0 75.2108 16.9391 1274 113.824 577.974 453.676
1282 0 78.901 16.0074 1263 112.224 579.404 458.056
1283 0 79.1345 15.0124 1188 115.066 579.279 452.763
1284 0 81.3283 13.5377 1101 117.296 579.971 450.88
1285 0 82.2633 14.4414 1188 116.544 581.086 452.412
1286 0 88.1167 16.4214 1447 113.337 581.974 449.075
1287 0 89.3005 12.8667 1149 119.684 581.765 447.434
1288 0 91.1303 13.9251 1269 117.75 582.287 450.716
1289 0 93.5503 14.1956 1328 117.887 583.392 448.88
1290 0 97.2736 18.7204 1821 110.673 583.647 448.1
1291 0 99.2001 16.0685 1594 116.218 583.575 443.87
1292 0 104.282 13.3581 1393 119.818 584.478 441.808
1293 0 107.526 16.5542 1780 115.22 584.704 438.432
1294 1 55.1107 11.1412 614 111.998 582.855 468.366
1295 0 59.1262 12.5156 740 108.932 582.028 472.63
1296 0 65.4473 17.8923 1171 100.075 582.449 474.896
1297 0 62.0347 14.7176 913 105.759 581.806 475.069
1298 0 65.0865 16.1938 1054 103.394 582.18 474.271
1299 0 67.1954 13.8105 928 107.365 582.309 472.365
1300 0 70.1633 14.7085 1032 107.147 580.967 471.622
1301 0 74.2096 11.5484 857 109.161 582.023 463.89
1302 0 76.1966 14.1739 1080 105.355 580.561 466.075
1303 0 77.3289 16.6173 1285 101.521 579.929 466.547
1304 0 79.2453 13.5655 1075 107.284 579.272 462.003
1305 0 81.2206 15.6364 1270 104.848 577.684 459.267
1306 0 84.2838 14.2376 1200 107.77 578.069 457.46
1307 0 86.0876 13.556 1167 108.871 577.48 456.581
1308 0 94.3371 14.9146 1407 108.596 574.929 452.124
1309 0 95.2227 13.4107 1277 111.1 575.583 451.305
1310 0 99.181 13.0267 1292 111.66 575.574 449.772
1311 0 103.381 15.7476 1628 107.606 575.311 449.44
1312 0 107.134 13.3758 1433 112.957 575.317 445.208
1313 0 109.211 13.57 1482 112.923 574.936 439.061
1314 0 114.197 14.0985 1610 110.826 575.042 439.997
1315 1 65.0931 13.5191 880 106.728 574.539 467.158
1316 0 66.1519 13.3783 885 110.636 575.219 456.762
1317 0 69.1418 15.2585 1055 107.417 575 453.571
1318 0 70.2451 13.9796 982 109.8 575.548 455.706
1319 0 73.3692 14.5838 1070 107.836 575.703 456.692
1320 0 76.1495 14.5372 1107 109.181 576.271 450.061
1321 0 79.3332 14.2311 1129 109.398 576.323 451.141
1322 0 81.169 16.5581 1344 107.366 577.414 450.749
1323 0 84.6068 14.1596 1198 110.007 577.236 447.436
1324 0 87.213 15.5367 1355 107.722 578.803 449.925
1325 0 90.2512 18.2712 1649 104.23 580.141 448.53
1326 0 94.1342 17.2626 1625 105.851 579.546 443.964
1327 0 99.303 15.1355 1503 106.952 581.261 447.907
1328 0 102.213 16.5439 1691 106.446 581.11 440.425
1329 0 104.379 15.3 1597 107.605 581.915 444.398
1330 1 55.3173 15.6913 868 102.346 582.547 466.722
1331 0 56.0847 15.6192 876 104.316 582.553 466.959
1332 0 61.0913 14.1591 865 107.955 582.849 469.652
1333 0 61.1152 12.8609 786 108.314 581.609 461.246
1334 0 62.168 11.9032 740 106.995 583.732 466.401
1335 0 63.0568 9.59452 605 111.122 583.235 465.845
1336 0 68.0413 13.918 947 105.871 583.201 464.637
1337 0 68.1223 12.0812 823 108.988 583.113 465.041
1338 0 68.1122 10.1597 692 112.143 582.818 466.039
1339 0 73.1503 13.2877 972 109.569 583.5 466.044
1340 0 74.1201 11.6972 867 112.993 583.105 465.618
1341 0 79.1726 13.5274 1071 108.89 582.571 465.394
1342 0 81.1208 14.4229 1170 108.896 583.071 465.144
1343 0 84.1343 13.0387 1097 110.828 582.006 466.01
1344 0 87.3683 16.4819 1440 107.989 581.024 457.992
1345 0 88.2229 11.2556 993 116.186 578.532 463.457
1346 0 91.3723 11.7432 1073 115.565 579.235 462.976
1347 0 95.3222 15.82 1508 109.469 577.505 461.115
1348 0 102.446 20.6646 2117 103.767 577.198 454.683
1349 0 104.587 18.1667 1900 109.031 577.414 449.513
1350 0 106.169 11.2557 1195 120.387 576.408 450.727
1351 0 109.428 16.5772 1814 112.816 575.916 448.605
1352 1 59.1287 15.2887 904 114.274 574.699 466.913
1353 0 63.1102 14.5777 920 114.287 576.01 460.439
1354 0 62.2102 13.0847 814 115.803 575.273 465.129
1355 0 67.1884 13.6482 917 118.289 575.736 460.062
1356 0 67.245 13.7259 923 116.551 575.386 459.585
1357 0 73.1464 14.5462 1064 114.961 575.299 456.465
1358 0 74.2763 15.5231 1153 122.064 574.984 456.062
1359 0 77.3493 17.156 1327 119.498 575.047 455.767
1360 0 80.221 17.6138 1413 118.983 576.183 454.827
1361 0 82.091 15.9092 1306 124.255 576.541 449.529
1362 0 86.2001 15.928 1373 122.729 576.75 449.975
1363 0 88.4039 18.0648 1597 120.21 577.452 446.546
1364 0 88.4039 18.1892 1608 135.219 579.451 446.581
1365 0 95.5296 16.4242 1569 124.164 578.11 442.727
1366 0 95.2532 16.0414 1528 126.848 578.693 441.512
1367 0 102.177 19.5054 1993 119.878 579.076 441.291
1368 1 51.2046 11.249 576 133.785 579.323 462.477
1369 0 55.071 14.7264 811 125.665 580.169 462.767
1370 0 56.1286 12.4179 697 131.334 580.887 463.69
1371 0 58.2175 15.3047 891 124.337 581.223 463.632
1372 0 60.1437 17.3252 1042 119.492 581.971 463.038
1373 0 63.2794 17.7625 1124 124.247 580.881 462.081
1374 0 65.1181 16.5085 1075 127.276 581.722 461.113
1375 0 67.3435 15.1759 1022 129.17 581.523 461.358
1376 0 69.4585 17.0894 1187 126.372 582.649 461.761
1377 0 71.1533 16.9071 1203 126.903 583.03 460.862
1378 0 74.5838 17.1887 1282 125.048 582.04 460.924
1379 0 78.2577 19.1035 1495 120.427 581.172 461.578
1380 0 82.7214 17.9881 1488 121.133 582.292 462.524
1381 0 84.658 19.5965 1659 118.124 582.225 461.875
1382 0 84.6338 14.9231 1263 125.971 581.816 462.46
1383 0 87.4458 17.8167 1558 122.092 580.99 460.87
1384 0 89.5256 15.4146 1380 126.119 581.074 461.507
1385 0 90.7112 15.9958 1451 125.47 579.793 461.407
1386 0 95.3298 15.6824 1495 125.968 578.961 460.97
1387 0 100.783 16.3122 1644 124.616 577.388 457.746
1388 1 51.1491 15.1909 777 130.166 577.586 478.665
1389 0 53.468 14.9809 801 130.855 576.658 477.042
1390 0 53.468 14.9061 797 160.782 575.662 477.029
1391 0 60.4317 18.4506 1115 121.481 575.744 469.044
1392 0 60.2275 21.452 1292 117.472 576.171 472.724
1393 0 61.5087 17.2984 1064 126.826 575.582 467.049
1394 0 64.6502 19.737 1276 119.857 575.929 472.431
1395 0 66.6649 20.7006 1380 120.725 575.142 465.029
1396 0 68.5518 16.9215 1160 127.664 574.933 465.539
1397 0 69.1181 18.4033 1272 126.208 573.767 463.142
1398 0 73.4525 17.2356 1266 127.208 574.984 460.246
1399 0 74.106 15.6128 1157 132.48 574.037 456.602
1400 0 77.4095 15.5149 1201 131.875 575.066 460.132
1401 0 79.144 20.2795 1605 123.872 575.013 455.125
1402 0 82.5236 16.6619 1375 129.577 574.672 455.737
1403 0 88.2257 17.7273 1564 126.277 574.229 450.734
1404 0 89.3767 14.9144 1333 132.202 574.754 449.056
1405 0 93.3054 17.7053 1652 126.71 575.258 445.052
1406 0 95.3702 16.8921 1611 127.317 576.369 444.468
1407 0 98.6276 18.9298 1867 121.906 578.154 446.196
1408 1 53.2376 16.3606 871 131.192 578.24 463.573
1409 0 56.2578 18.2197 1025 127.462 578.686 463.519
1410 0 54.2076 15.6989 851 134.974 578.998 463.286
1411 0 57.2309 15.0793 863 135.013 580.212 462.568
1412 0 57.2309 15.0967 864 167.595 582.185 462.618
1413 0 62.3486 16.7927 1047 132.791 580.511 462.728
1414 0 64.248 16.2807 1046 133.967 581.244 462.645
1415 0 67.2405 15.5412 1045 135.103 581.956 461.063
1416 0 64.1818 14.0694 903 141.285 582.616 459.848
1417 0 70.2397 15.1624 1065 137.018 582.21 460.292
1418 0 73.1892 16.6828 1221 133.581 582.451 461.825
1419 0 75.3779 16.2647 1226 133.294 581.909 462.443
1420 0 80.2696 18.114 1454 127.768 583.457 462.594
1421 1 40.1519 12.0044 482 136.166 582.741 480.759
1422 0 38.1485 11.7436 448 137.859 582.304 481.783
1423 0 42.1992 15.332 647 129.507 582.213 480.374
1424 0 40.1157 14.6576 588 133.427 581.973 482.282
1425 0 41.0841 14.1174 580 134.986 581.502 481.184
1426 0 44.2143 14.3619 635 133.261 581.217 481.454
1427 0 44.095 13.8791 612 135.23 579.418 481.139
1428 0 45.1297 16.0205 723 130.391 579.971 482.23
1429 0 46.2827 16.4857 763 127.653 578.097 483.055
1430 0 48.1492 14.5174 699 131.764 578.153 481.454
1431 0 47.1209 13.8368 652 136.287 576.604 479.098
1432 0 50.0511 14.9647 749 134.531 577.206 477.25
1433 0 52.327 15.1738 794 133.018 575.02 478.373
1434 0 53.0411 13.103 695 140.178 576.573 474.137
1435 0 54.2089 14.8684 806 136.231 574.189 473.331
1436 0 53.1726 15.7036 835 137.354 575.613 470.145
1437 0 57.1255 19.0983 1091 123.587 573.822 473.815
1438 0 59.1052 15.5824 921 134.587 574.149 468
1439 0 60.2479 17.345 1045 131.234 573.998 467.596
1440 0 59.2221 15.6023 924 136.499 573.036 466.529
1441 0 62.1066 20.4487 1270 126.307 573.686 465.002
1442 0 62.1664 16.488 1025 135.825 574.526 463.594
1443 0 61.1794 14.907 912 141.953 573.581 462.116
1444 0 65.1029 15.2528 993 140.564 574.49 461.236
1445 0 63.104 13.042 823 147.609 574.798 458.3
1446 0 66.0677 16.1804 1069 142.025 576.186 453.6
1447 0 69.177 14.5858 1009 145.213 576.414 455.144
1448 0 70.0984 15.3356 1075 144.397 577.658 452.322
1449 0 71.0613 14.2272 1011 147.714 576.708 451.758
1450 0 73.0843 15.5437 1136 145.435 576.988 448.43
1451 0 73.1971 14.5088 1062 148.531 578.915 449.341
1452 0 73.1971 14.5088 1062 164.524 579.918 449.331
1453 0 73.1971 14.5498 1065 163.922 580.909 449.346
1454 0 80.2513 13.7817 1106 150.273 579.761 444.808
1455 0 82.1552 13.6936 1125 150.046 580.107 447.239
1456 0 80.3073 16.138 1296 144.996 581.244 448.384
1457 1 25.0357 7.22967 181 158.204 581.442 476.801
1458 0 23.0861 7.97018 184 163.451 581.587 478.435
1459 0 22.0047 8.18006 180 174.644 581.322 478.322
1460 0 26.1541 10.3234 270 164.411 580.856 479.422
1461 0 21.0075 6.04546 127 201 581.488 478.323
1462 0 24.1168 9.95155 240 165.467 582.021 482.767
1463 0 26.0333 7.1447 186 186.737 581.28 483.005
1464 0 26.0436 4.79964 125 205.72 580.944 481.04
1465 1 68.3276 9.00076 615 102.686 584.657 457.769
