time division length width area intensity CMx CMy
0 0 57.1348 13.7394 785 131.726 740.392 468.243
1 0 63.0516 20.7766 1310 116.928 740.342 464.306
2 0 65.0952 15.6079 1016 125.229 739.619 463.623
3 0 64.1931 15.9519 1024 123.842 738.803 462.765
4 0 67.1412 14.6408 983 124.299 737.985 464.027
5 0 70.1439 15.511 1088 121.81 736.882 463.69
6 1 35.077 11.7171 411 127.523 735.557 479.71
7 0 37.0444 11.7966 437 126.49 734.448 478.684
8 0 39.1103 11.9406 467 127.458 734.358 478.377
9 0 40.3454 14.5494 587 122.295 733.198 476.584
10 0 42.1856 14.9577 631 120.689 733.72 475.926
11 0 42.0801 16.2072 682 118.148 732.773 472.899
12 0 44.0625 18.156 800 114.041 732.97 477.715
13 0 45.1758 12.064 545 121.283 732.772 472.257
14 0 47.6123 17.7265 844 114.191 732.655 470.139
15 0 50.174 17.5788 882 113.035 732.119 468.316
16 0 51.204 16.0339 821 114.482 732.33 467.03
17 0 55.2654 25.7123 1421 100.695 731.908 465.603
18 0 52.2042 14.0027 731 121.892 732.057 465.941
19 0 56.208 12.0446 677 122.536 730.261 465.278
20 0 57.2827 16.0956 922 114.037 731.471 460.509
21 0 58.0274 13.89 806 118.814 732.034 457.244
22 0 62.0371 15.7648 978 114.434 733.062 456.422
23 0 62.0371 15.9098 987 135.763 734.052 456.391
24 0 69.3238 17.6707 1225 113.066 736.357 456.013
25 0 69.3238 17.4832 1212 128.523 738.376 455.97
26 0 71.0866 14.5597 1035 119.622 738.459 451.975
27 0 73.1908 15.2068 1113 118.256 738.305 447.677
28 0 79.1854 12.6791 1004 123.077 738.618 446.859
29 0 78.1734 15.6319 1222 117.509 739.768 442.647
30 0 81.2391 14.0819 1144 119.19 739.205 443.152
31 0 82.1228 12.871 1057 124.916 741.54 441.096
32 0 86.1793 15.8623 1367 117.97 741.776 439.887
33 0 89.3324 14.8882 1330 119.795 741.746 438.987
34 0 94.2978 15.8752 1497 118.275 742.2 437.633
35 0 96.2619 13.8788 1336 122.813 741.967 439.551
36 0 102.295 14.8101 1515 118.896 743.467 435.95
37 0 104.168 16.5982 1729 113.892 742.54 434.416
38 1 58.0694 12.3129 715 116.427 743.277 458.059
39 0 61.0806 12.8191 783 108.112 743.697 460.747
40 0 65.0969 15.4539 1006 107.841 743.46 462.352
41 0 66.1016 15.3854 1017 110.091 743.291 460.066
42 0 68.1542 15.2742 1041 109.284 742.715 461.869
43 0 71.1664 14.698 1046 110.281 742.446 460.756
44 0 76.1142 15.9628 1215 106.589 741.813 459.252
45 0 78.1295 13.7336 1073 116.453 740.787 460.194
46 0 81.1642 15.7582 1279 119.19 740.315 456.344
47 0 84.2363 15.7177 1324 120.031 740.233 459.56
48 0 86.2288 14.8326 1279 119.153 739.665 459.34
49 0 88.1156 13.6639 1204 123.311 739.402 455.788
50 0 93.2111 18.2382 1700 118.236 737.6 456.998
51 0 90.1965 13.9251 1256 127.617 737.279 454.932
52 0 99.1591 17.5375 1739 119.714 736.587 450.936
53 0 101.345 15.6791 1589 124.622 736.288 445.491
54 0 108.297 15.3467 1662 125.655 735.924 448.174
55 0 109.242 15.4702 1690 125.331 735.301 446.976
56 0 115.197 15.1306 1743 126.149 735.437 440.947
57 0 119.262 14.3717 1714 126.404 734.602 441.138
58 0 127.222 17.1747 2185 120.142 733.61 440.419
59 0 129.435 14.9651 1937 126.585 734.979 430.184
60 0 135.355 19.7851 2678 118.722 733.522 423.727
61 0 139.234 14.6157 2035 127.395 733.055 423.782
62 0 145.284 14.7986 2150 125.996 733.54 421.753
63 0 151.362 17.2764 2615 122.133 734.277 416.207
64 1 80.1342 12.8285 1028 122.942 733.675 450.173
65 0 83.2551 12.2275 1018 115.182 733.66 444.11
66 0 85.207 11.7596 1002 125.978 734.124 445.165
67 0 85.2907 11.068 944 126.621 734.949 443.457
68 0 94.1675 13.4229 1264 122.525 734.856 442.069
69 0 94.145 13.5854 1279 122.119 734.843 442.604
70 0 98.1528 13.2141 1297 122.656 734.483 441.526
71 0 100.167 12.589 1261 126.144 736.552 431.964
72 0 106.24 13.6766 1453 123.261 736.842 432.919
73 0 109.315 14.4445 1579 120.07 737.791 434.3
74 0 113.128 13.6659 1546 122.669 738.01 428.123
75 0 117.305 14.4068 1690 119.495 738.059 433.363
76 0 120.222 12.1276 1458 124.327 739.06 429.705
77 0 123.479 12.2045 1507 123.802 739.624 424.865
78 0 128.408 13.5661 1742 122.943 739.65 423.176
79 1 68.1757 13.1572 897 117.509 741.27 456.663
80 0 67.2192 11.1427 749 121.589 740.212 457.276
81 0 70.1378 11.8196 829 115.293 740.037 457.16
82 0 72.0994 12.4412 897 115.109 739.298 454.842
83 0 76.1384 14.802 1127 110.329 739.106 455.597
84 0 76.1384 14.7495 1123 122.07 738.121 455.56
85 0 79.089 13.7061 1084 113.802 738.68 455.524
86 0 80.2277 10.196 818 118.489 738.423 459.692
87 0 83.1508 13.4575 1119 114.686 738.859 456.546
88 0 88.2033 9.58015 845 119.47 738.299 458.237
89 0 89.2744 13.5201 1207 115.634 738.2 451.396
90 0 95.2442 16.085 1532 109.263 737.304 460.2
91 0 95.2447 12.4416 1185 116.592 737.425 453.848
92 0 99.3078 13.9667 1387 115.191 736.557 450.696
93 0 102.129 11.3778 1162 118.274 736.04 449.185
94 0 106.258 15.6035 1658 110.735 736.394 454.417
95 0 110.286 14.1541 1561 113.176 734.336 449.734
96 0 113.436 18.1336 2057 107.342 734.899 444.271
97 0 117.475 11.5258 1354 116.482 734.169 443.968
98 0 122.312 14.7409 1803 112.07 734.16 442.049
99 0 128.332 12.7404 1635 114.473 733.673 441.277
100 0 131.268 12.9582 1701 115.507 732.719 436.239
101 1 68.0949 11.1168 757 111.066 732.487 462.978
102 0 73.3841 10.7516 789 110.996 732.939 466.673
103 0 75.2013 10.9573 824 112.125 732.319 463.674
104 0 79.2362 14.766 1170 105.221 731.745 459.742
105 0 78.2169 9.88277 773 117.207 731.997 455.541
106 0 80.3341 10.7675 865 117.41 730.951 450.829
107 0 83.2192 12.3049 1024 111.131 731.332 454.483
108 0 83.167 15.6793 1304 106.781 731.174 452.75
109 0 85.2371 13.0108 1109 111.622 730.83 453.353
110 1 175.544 12.0483 2115 121.29 731.288 405.179
111 0 179.765 16.3547 2940 114.057 731.645 408.409
112 1 100.355 15.4352 1549 110.554 734.441 444.117
113 0 98.2126 16.0876 1580 110.368 734.922 446.198
114 0 101.164 15.0351 1521 113.761 735.949 436.412
115 0 104.345 11.414 1191 118.676 735.621 435.916
116 0 106.261 16.2242 1724 111.978 736.644 435.493
117 0 110.162 12.9083 1422 117.674 736.741 433.403
118 0 110.462 15.5257 1715 113.865 736.693 434.462
119 0 115.104 16.003 1842 111.445 736.611 436.178
120 0 115.305 13.8502 1597 110.507 736.18 429.979
121 0 117.244 8.57186 1005 115.091 737.172 433.753
122 0 125.44 12.0456 1511 111.428 737.946 432.373
123 0 129.354 14.9358 1932 108.257 739.405 438.116
124 0 133.186 13.2371 1763 111.979 738.825 429.974
125 0 139.321 19.1214 2664 106.223 739.588 420.12
126 1 77.2646 10.3023 796 108.688 739.165 460.467
127 0 77.2438 8.85508 684 111.475 739.92 460.231
128 0 80.2885 6.82538 548 114.781 740.339 458.792
129 0 85.2789 10.3074 879 111.817 739.02 454.499
130 0 88.2017 13.4011 1182 106.617 739.401 459.464
131 0 92.1504 15.7243 1449 104.104 738.885 457.235
132 0 95.2179 9.53602 908 110.63 739.204 463.46
133 0 98.1709 12.03 1181 111.533 736.906 448.772
134 0 100.315 12.3311 1237 110.428 735.58 452.729
135 0 105.27 11.5702 1218 111.466 736.983 452.913
136 0 105.203 12.0624 1269 112.279 735.95 447.34
137 0 110.321 14.2312 1570 109.883 736.274 440.513
138 0 117.26 10.66 1250 113.726 733.983 449.982
139 0 116.254 10.0212 1165 115.281 734.501 451.701
140 1 66.1127 14.687 971 107.331 731.54 469.179
141 0 64.2916 11.9922 771 112.022 731.039 467.667
142 0 66.1087 12.4946 826 112.364 731.186 467.83
143 0 69.1193 11.0534 764 114.411 730.622 467.407
144 0 70.0759 11.5732 811 113.811 729.85 467.255
145 0 71.2434 12.6749 903 112.606 730.496 464.608
146 0 75.2191 13.2679 998 111.666 729.698 462.994
147 0 78.2809 11.5098 901 114.689 729.382 459.215
148 0 78.1449 7.02541 549 118.656 730.676 459.925
149 0 83.246 14.5713 1213 111.35 729.642 455.298
150 0 86.0857 12.3598 1064 113.669 730.519 456.696
151 0 88.3124 12.8521 1135 113.499 730.418 454.169
152 0 90.2773 16.1281 1456 110.361 730.368 446.701
153 0 93.3138 12.1525 1134 114.333 730.637 451.011
154 0 96.0995 14.0896 1354 113.403 731.152 444.441
155 0 100.196 12.6552 1268 113.948 731.185 445.047
156 1 49.2121 10.0382 494 116.749 732.089 465.383
157 0 54.1554 14.2737 773 110.486 732.561 461.713
158 0 56.0732 18.4224 1033 104.017 732.676 461.352
159 0 55.0544 11.9881 660 115.647 733.342 461.471
160 0 57.1034 15.148 865 110.306 733.624 460.215
161 0 59.216 12.0576 714 115.534 734.601 460.384
162 0 63.0846 12.5229 790 112.644 734.971 465.135
163 0 67.3131 20.8281 1402 101.046 736.364 463.567
164 0 64.448 12.289 792 114.97 736.511 456.482
165 0 67.081 14.49 972 118.602 737.55 455.932
166 0 71.3121 15.7477 1123 115.279 738.272 457.608
167 0 73.1727 13.1743 964 120.173 737.702 456.995
168 0 74.1057 13.5212 1002 120.136 738.66 455.7
169 0 76.1544 12.3827 943 120.802 739.116 459.421
170 0 80.2009 15.7729 1265 116.295 738.468 454.011
171 0 80.2009 15.2866 1226 129.783 737.519 453.863
172 0 83.325 15.2055 1267 118.775 738.168 453.566
173 0 88.2729 15.0782 1331 117.154 737.914 457.023
174 0 91.1842 14.1143 1287 118.675 737.995 457.417
175 0 90.3872 11.6609 1054 122.652 737.07 456.8
176 0 99.1935 14.4969 1438 117.206 736.897 454.494
177 0 99.2882 14.9967 1489 117.484 736.51 452.269
178 0 106.395 16.6456 1771 112.867 735.458 455.29
179 0 106.443 14.7027 1565 117.443 735.396 451.107
180 1 52.1388 12.4092 647 116.499 734.986 477.454
181 0 54.0781 12.3525 668 108.521 732.754 474.198
182 0 57.1099 11.0839 633 110.032 731.905 473.3
183 0 56.1494 12.9298 726 109.023 731.948 473.08
184 0 60.2191 12.1888 734 114.286 731.01 473.155
185 0 59.0922 11.6767 690 115.722 731.033 470.538
186 0 64.1248 11.9143 764 114.313 730.776 467.956
187 0 64.0675 8.08522 518 119.284 728.948 469.293
188 0 69.2527 15.1041 1046 110.347 729.737 464.772
189 0 67.2694 10.7181 721 117.072 728.803 461.964
190 0 74.2935 21.3747 1588 100.286 728.519 467.149
191 0 79.1793 14.0693 1114 109.54 727.757 461.378
192 0 79.2675 11.4549 908 113.969 728.697 457.587
193 0 79.2675 11.354 900 145.493 729.716 457.579
194 0 85.1804 9.3214 794 113.423 728.567 461.373
195 1 43.1221 10.5283 454 112.165 729.844 470.167
196 0 48.3074 12.1513 587 111.218 729.993 470.373
197 0 49.1436 11.7411 577 111.454 730.733 470.7
198 0 54.1004 5.97039 323 114.548 730.783 467.969
199 0 53.0863 3.80512 202 130.678 731.921 473.054
200 0 54.2804 13.7434 746 101.586 732.619 461.346
201 0 53.2273 11.4227 608 109.332 731.768 463.336
202 0 51.1563 5.57116 285 116.681 733.018 467.958
203 0 51.1703 5.66735 290 142.034 734.024 467.969
204 0 51.1656 5.66787 290 141.486 735 468.021
205 0 59.0909 14.8246 876 106.029 735.075 462.434
206 0 59.156 11.9853 709 110.677 733.858 462.506
207 0 64.131 12.3029 789 110.186 734.196 462.322
208 0 64.156 14.153 908 105.068 735.486 468.644
209 0 67.1257 13.8248 928 108.69 736.404 461.175
210 0 69.0748 14.5494 1005 109.787 736.062 461.623
211 0 67.205 8.83862 594 118.923 736.987 459.87
212 0 73.3035 12.155 891 114.354 737.135 461.99
213 0 79.0891 16.2222 1283 108.779 736.274 459.253
214 0 80.3618 13.7628 1106 112.21 736.128 461.565
215 0 81.1643 12.1359 985 116.297 736.663 457.058
216 0 84.1358 13.7278 1155 114.235 736.616 457.82
217 0 89.1669 14.5794 1300 112.182 735.748 458.815
218 0 90.2617 12.1425 1096 115.667 735.544 460.266
219 0 92.4184 11.0368 1020 117.575 736.158 458.366
220 0 100.163 15.0455 1507 110.566 734.37 455.221
221 0 99.4521 11.7645 1170 119.615 734.521 457.303
222 1 51.0372 10.9332 558 114.731 733.649 481.115
223 0 53.0634 10.5723 561 116.061 731.562 480.456
224 0 53.033 9.14524 485 118.26 730.969 480.536
225 0 54.034 9.25344 500 123.33 728.97 480.492
226 0 59.0607 12.9697 766 112.945 730.721 477.721
227 0 58.1262 11.5783 673 117.187 729.556 472.915
228 0 63.1184 14.8451 937 111.662 729.149 473.696
229 0 64.079 15.0595 965 115.397 728.485 469.853
230 0 67.1132 13.3953 899 116.228 727.615 474.169
231 0 68.2334 13.5271 923 117.952 726.468 470.538
232 0 68.087 11.5147 784 123.198 727.264 467.337
233 0 71.1666 11.0867 789 124.641 727.494 463.47
234 0 71.0963 11.9556 850 124.36 726.169 462.302
235 0 79.1162 13.6887 1083 119.066 727.674 463.276
236 0 81.4176 11.2138 913 123.517 727.456 458.438
237 1 44.0464 9.30837 410 122.095 728.054 477.4
238 0 49.0666 12.5544 616 116.558 728.045 474.271
239 0 52.0289 13.6847 712 113.973 727.458 471.699
240 0 50.1136 13.4694 675 113.855 728.581 473.584
241 0 49.0708 10.8007 530 110.589 726.758 466.596
242 0 51.1468 10.03 513 111.93 727.735 464.029
243 0 53.167 10.815 575 111.198 728.125 465.226
244 0 54.1435 11.9313 646 109.375 728.107 466.41
245 0 54.1038 11.5519 625 110.549 729.936 462.643
246 0 57.1586 9.76231 558 113.385 729.661 461.572
247 0 57.0904 13.1546 751 109.936 730.838 459.655
248 0 60.0589 13.6366 819 108.974 730.851 461.58
249 0 62.1835 14.1195 878 109.625 731.89 460.923
250 0 64.1202 12.8353 823 112.006 732.386 456.496
251 0 64.201 10.1089 649 114.686 731.949 462.812
252 0 67.2226 9.84788 662 115.714 733.704 461.55
253 0 71.0709 12.9167 918 111.714 734.346 459.927
254 0 70.1797 11.8695 833 115.687 734.348 459.121
255 0 74.2367 11.9887 890 115.154 734.34 459.28
256 0 76.1124 9.80129 746 118.48 733.66 459.622
257 0 80.1696 12.511 1003 115.575 735.328 456.68
258 0 82.0664 14.3908 1181 119.927 734.516 461.587
259 1 45.0377 12.4562 561 121.332 734.633 479.984
260 0 45.1078 11.2176 506 123.745 734.881 480.951
261 0 46.1091 12.0584 556 121.87 734.651 480.71
262 0 48.2026 12.9454 624 119.183 735.178 480.29
263 0 49.0498 15.5352 762 114.906 733.925 481.02
264 0 51.0975 11.8401 605 122.24 734.775 480.618
265 0 53.0668 14.3969 764 116.881 733.404 482.055
266 0 53.0998 14.9718 795 118.245 733.155 478.61
267 0 56.1131 12.0115 674 122.052 731.926 477.472
268 0 58.1568 14.4609 841 117.509 731.541 477.629
269 0 58.1568 14.5297 845 134.536 731.56 477.49
270 0 59.232 14.2322 843 119.441 728.408 474.072
271 0 63.1298 14.8107 935 115.889 728.341 475.098
272 0 65.1234 16.4764 1073 114.132 729.117 472.571
273 0 65.1234 16.4304 1070 126.406 730.118 472.629
274 0 67.0784 11.3151 759 123.103 727.495 470.072
275 0 72.0518 14.0316 1011 119.256 726.818 465.276
276 0 74.1347 13.7452 1019 119.432 727.508 462.881
277 0 75.0775 13.4394 1009 120.933 726.66 459.393
278 0 77.1436 10.5517 814 123.031 726.464 464.071
279 0 79.1528 11.7621 931 121.74 727.679 460.476
280 0 85.0664 14.0831 1198 117.791 726.791 458.952
281 0 88.0947 14.6093 1287 117.922 727.018 448.612
282 0 91.1325 14.3308 1306 119.374 726.455 448.604
283 0 90.2168 12.8136 1156 121.849 727.856 450.905
284 0 95.1248 15.4954 1474 118.298 728.202 448.525
285 0 99.2622 17.5293 1740 113.853 728.837 448.932
286 1 52.2671 13.278 694 121.22 728.082 462.715
287 0 58.1454 19.5028 1134 107.908 728.949 464.435
288 0 60.2119 15.2296 917 113.543 729.365 465.328
289 0 57.0761 11.4058 651 124.097 729.879 462.312
290 0 61.26 10.7411 658 124.473 730.593 460.578
291 0 65.2106 12.8967 841 120.29 731.975 458.971
292 0 63.1891 12.3281 779 124.056 732.107 455.471
293 0 68.1468 11.2698 768 122.203 734.227 459.148
294 0 72.2434 11.8627 857 119.778 733.471 458.73
295 0 73.2029 11.2427 823 120.806 734.526 459.555
296 0 74.1567 8.52249 632 125.519 734.964 457.994
297 0 79.1724 14.8663 1177 116.357 735.938 453.929
298 0 82.29 14.0236 1154 117.953 737.245 453.887
299 0 83.6224 12.2694 1026 121.205 736.476 451.877
300 0 86.1406 12.0617 1039 120.807 737.192 454.249
301 0 90.3408 12.32 1113 119.534 736.37 452.916
302 1 47.0863 11.5108 542 118.22 736.109 474.769
303 0 48.0885 14.8268 713 112.983 735.421 474.568
304 0 51.0837 16.6394 850 106.056 735.498 477.233
305 0 50.041 12.19 610 115.989 735.939 476.046
306 0 53.1147 12.9719 689 113.083 733.695 474.456
307 0 52.088 11.327 590 117.125 735.178 478.4
308 0 52.1121 8.04036 419 121.609 733.632 480.279
309 0 56.1578 12.8388 721 117.318 733.908 475.588
310 0 56.1334 14.6615 823 115.233 733.623 475.654
311 0 58.1162 11.4082 663 121.388 732.232 474.781
312 0 61.1167 13.8096 844 118.297 731.847 473.342
313 0 63.2128 13.9054 879 117.997 730.817 471.221
314 0 65.1402 19.3122 1258 109.796 730.836 468.992
315 0 63.1035 12.3923 782 122.715 729.596 466.774
316 0 68.1747 12.2186 833 122.601 730.266 468.551
317 0 68.2515 12.4686 851 123.603 728.142 462.792
318 0 68.2515 12.4246 848 143.876 726.151 462.785
319 0 75.1912 13.6718 1028 122.046 727.538 459.275
320 0 78.186 15.6294 1222 117.806 727.031 458.763
321 0 80.184 11.8727 952 124.682 727.302 455.6
322 0 85.1112 16.5783 1411 116.743 727.076 452.955
323 0 84.0712 14.904 1253 119.589 727.551 454.544
324 0 88.1486 13.3298 1175 123.532 726.863 445.806
325 0 92.2855 11.7136 1081 124.234 727.944 451.244
326 1 53.0299 13.879 736 114.683 728.179 466.492
327 0 53.0299 13.8601 735 127.41 728.233 466.446
328 0 53.0646 12.1173 643 117.24 729.568 466.633
329 0 53.1805 11.8841 632 119.84 729.144 464.619
330 0 58.1685 14.2517 829 115.881 731.082 461.998
331 0 59.1033 14.6523 866 115.45 731.291 459.388
332 0 60.2537 10.9537 660 123.062 732.611 456.648
333 0 63.084 13.1729 831 119.018 732.469 458.034
334 0 63.053 10.6418 671 120.355 732.598 461.946
335 0 67.0561 16.2699 1091 114.356 733.86 455.3
336 0 66.1546 10.8382 717 123.102 733.674 453.091
337 0 67.1819 11.7889 792 121.648 734.804 452.187
338 0 76.2466 15.8827 1211 112.815 736.352 452.879
339 0 75.167 13.3569 1004 118.063 737.382 450.572
340 0 79.1909 13.6632 1082 116.584 738.438 452.616
341 0 83.1047 13.9583 1160 116.936 737.445 451.112
342 0 86.1205 14.8861 1282 114.19 738.01 451.877
343 0 90.1464 13.9107 1254 113.697 739.169 455.002
344 1 46.0444 10.8591 500 120.126 738.89 469.81
345 0 51.0799 12.6468 646 113.306 739.385 472.55
346 0 51.1813 12.485 639 115.272 739.577 470.712
347 0 54.1204 12.0842 654 115.514 737.382 472.821
348 0 53.1501 12.3424 656 122.137 736.447 469.447
349 0 60.0785 13.5157 812 116.749 736.729 473.276
350 0 58.1562 12.0881 703 122.156 736.001 470.356
351 0 61.0548 13.3323 814 118.158 735.473 472.937
352 0 65.089 13.6121 886 119.798 735.433 466.827
353 0 66.1 13.7368 908 118.84 735.134 468.209
354 0 68.0987 13.7741 938 119.49 734.441 466.655
355 0 69.1079 15.1068 1044 117.909 733.181 463.139
356 0 72.0926 14.4675 1043 117.481 732.378 465.711
357 0 75.2376 15.7368 1184 116.079 732.183 462.662
358 0 76.2954 12.9366 987 120.686 731.76 460.815
359 0 79.2455 12.2531 971 121.669 731.917 460.232
360 0 82.0956 19.0022 1560 110.001 732.031 462.454
361 0 86.2276 18.7991 1621 109.759 730.18 461.049
362 0 86.2593 13.6101 1174 118.44 730.613 456.102
363 0 90.2633 13.6933 1236 118.79 729.478 451.821
364 0 91.3345 12.4487 1137 121.456 729.496 446.51
365 0 94.133 13.9271 1311 118.748 729.776 445.117
366 0 98.1554 12.847 1261 118.894 730.662 445.749
367 0 98.1554 12.8368 1260 134 731.636 445.967
368 1 53.1992 10.4701 557 112.864 730.715 470.862
369 0 52.0998 7.5816 395 118.208 729.392 467.696
370 0 57.2397 13.0154 745 111.621 730.4 462.06
371 0 61.235 16.0366 982 105.435 731.411 463.645
372 0 58.0925 15.0106 872 110.889 732.175 459.227
373 0 60.1908 11.5632 696 115.888 731.904 458.409
374 0 64.0726 13.9217 892 112.228 733.311 455.082
375 0 66.1269 14.4117 953 111.938 733.596 452.097
376 0 69.1001 12.4168 858 113.049 733.948 456.379
377 0 66.0522 9.73472 643 119.201 736.222 453.997
378 0 66.0522 9.59847 634 126.817 738.238 453.945
379 0 74.1834 11.849 879 116.28 737.313 447.79
380 0 77.202 13.523 1044 113.883 737.958 447.574
381 0 80.2243 13.9235 1117 112.161 737.369 448.108
382 0 81.3299 12.6645 1030 114.402 739.244 449.476
383 0 87.2288 15.167 1323 110.98 739.772 445.229
384 0 89.2262 12.1825 1087 114.854 738.95 445.84
385 0 92.2022 13.709 1264 112.809 739.657 446.528
386 0 94.4223 11.1414 1052 116.544 739.694 445.72
387 0 98.2191 12.4212 1220 114.666 740.255 439.561
388 0 98.2191 12.4212 1220 129.169 740.255 439.561
389 0 99.3454 7.92186 787 119.882 738.886 440.892
390 1 50.1171 11.4731 575 108.725 738.116 471.96
391 0 53.1491 12.6061 670 106.088 737.663 470.519
392 0 55.1376 16.3228 900 101.722 737.884 470.618
393 0 53.1031 9.94292 528 110.475 735.956 473.362
394 0 56.0377 10.5822 593 108.852 736.847 474.514
395 0 62.1236 14.6482 910 102.533 735.192 473.685
396 0 61.1438 10.2872 629 109.528 735.932 473.477
397 0 63.2382 14.8961 942 103.585 735.784 472.277
398 0 65.1336 14.1248 920 105.275 733.856 469.396
399 0 68.1537 10.5937 722 108.67 733.165 468.144
400 0 68.0856 16.6702 1135 102.507 732.761 468.46
401 0 72.3845 13.1244 950 106.516 732.748 470.097
402 0 74.2141 16.1829 1201 103.805 732.119 462.15
403 0 78.136 12.811 1001 105.737 732.134 465.514
404 0 77.2202 11.8751 917 108.593 731.257 467.926
405 0 82.0849 12.9013 1059 107.86 731.097 461.601
406 1 44.0597 13.6633 602 107.03 729.806 475.179
407 0 45.1171 8.82148 398 113.003 729.917 476.111
408 0 47.035 11.9698 563 106.265 728.552 479.448
409 0 48.1398 10.428 502 110.787 729.773 474.002
410 0 52.0751 18.8766 983 99.0417 729.939 472.705
411 0 52.2316 16.4268 858 103.756 730.571 469.561
412 0 52.1511 18.0437 941 101.861 730.642 469.477
413 0 55.3555 18.7335 1037 101.575 729.696 462.307
414 0 55.1953 17.1029 944 103.282 729.755 465.637
415 0 59.1764 18.0646 1069 101.882 730.189 463.339
416 0 65.1687 10.2196 666 111.719 730.823 462.488
417 0 62.4089 14.1486 883 108.617 730.796 457.642
418 0 62.4089 14.1967 886 132.095 730.828 457.665
419 0 63.3799 14.4999 919 130.071 730.78 457.968
420 0 68.1917 13.594 927 110.66 733.008 457.143
421 0 72.1137 13.2984 959 111.794 735.661 453.498
422 0 73.1344 19.8402 1451 104.662 735.631 449.938
423 0 76.2335 16.0428 1223 114.752 737.074 449.291
424 1 42.1318 12.1998 514 119.181 736.809 466.391
425 0 43.1989 11.204 484 118.3 737.667 470.172
426 0 45.1349 13.8917 627 114.463 738.383 468.896
427 0 43.0874 11.8364 510 119.12 738.62 468.086
428 0 46.237 13.4957 624 117.05 739.386 469.119
429 0 47.2398 11.8756 561 119.394 739.362 469.793
430 0 51.0603 14.0422 717 115.803 739.752 469.303
431 0 48.197 12.0754 582 121.591 738.675 467.955
432 0 53.1822 12.8426 683 116.589 738.999 471.592
433 0 55.3291 14.6397 810 114.732 738.943 470.59
434 0 57.1293 12.6905 725 116.473 737.935 472.112
435 0 59.1947 20.7789 1230 105.206 738.659 469.687
436 0 60.1568 15.2768 919 113.708 737.992 468.242
437 0 63.2922 15.3889 974 112.702 738.103 472.777
438 0 63.2361 15.0547 952 114.943 737.44 469.435
439 0 67.2685 12.8589 865 118.671 736.699 469.18
440 0 69.1669 12.7229 880 118.873 736.307 469.3
441 0 70.2264 12.5024 878 120.671 735.769 467.321
442 0 75.335 14.8006 1115 115.82 734.744 467.389
443 0 77.2652 15.8156 1222 114.605 735.065 463.911
444 1 37.0604 11.036 409 118.247 733.817 483.682
445 0 42.1047 12.1839 513 114.739 731.959 482.7
446 0 44.0417 14.0321 618 110.82 731.966 481.04
447 0 44.3275 15.002 665 109.705 732.244 477.579
448 0 43.2065 12.3361 533 114.966 731.554 478.028
449 0 47.3365 13.3512 632 111.657 730.826 477.522
450 0 48.1305 13.6504 657 110.817 729.954 476.51
451 0 48.1251 15.9376 767 109.193 729.877 472.421
452 0 51.1684 11.5696 592 115.167 729.61 472.166
453 0 51.1946 14.3179 733 111.256 729.333 468.621
454 0 54.2122 15.6054 846 109.177 729.428 469.61
455 0 54.2408 11.8177 641 116.254 729.106 466.66
456 0 56.2165 15.9562 897 108.891 729.391 468.39
457 0 55.1506 11.4233 630 116.63 727.41 463.644
458 0 63.0877 18.8468 1189 102.786 727.706 466.443
459 0 63.0932 18.4014 1161 105.232 726.577 460.973
460 0 63.2064 13.9859 884 111.463 727.472 459.83
461 0 68.0993 16.4759 1122 107.885 728.791 455.967
462 0 71.202 24.8588 1770 95.909 729.874 464.002
463 0 70.4524 13.2288 932 113.52 731.264 456.018
464 0 74.3432 14.7559 1097 111.732 730.994 453.964
465 0 77.2328 15.8093 1221 109.939 733.385 454.739
466 0 78.171 14.174 1108 112.23 733.823 457.441
467 0 81.294 16.0652 1306 110.896 733.136 453.679
468 0 84.3103 13.6757 1153 114.465 734.872 455.153
469 0 88.2873 15.0984 1333 111.144 735.432 456.981
470 0 90.3102 14.1512 1278 113.672 735.728 457.124
471 1 50.1089 12.393 621 114.593 735.052 476.374
472 0 48.0604 14.2113 683 114.982 735.663 475.192
473 0 54.1751 12.4411 674 115.168 735.599 476.221
474 0 54.0474 18.1322 980 107.276 735.928 475.82
475 0 55.047 14.2605 785 113.497 735.428 476.029
476 0 57.0662 13.3354 761 115.695 734.951 474.873
477 0 59.1248 13.5984 804 114.928 734.169 475.677
478 0 63.1971 13.3392 843 115.225 733.406 476.79
479 0 66.2232 15.2665 1011 110.262 733.503 479.908
480 0 68.0641 17.3219 1179 109.259 732.975 472.481
481 0 69.1432 13.8987 961 114.92 732.587 474.878
482 0 73.3554 15.5135 1138 111.831 732.497 475.171
483 0 74.3546 14.2426 1059 114.164 731.058 473.517
484 0 74.3856 11.1581 830 116.688 730.406 479.635
485 0 80.2749 12.5195 1005 114.502 727.696 473.997
486 0 79.2227 13.5062 1070 114.49 726.834 468.786
487 0 82.371 11.9217 982 116.387 727.18 468.158
488 0 86.3548 10.4453 902 120.067 726.58 466.602
489 1 44.1031 9.00163 397 117.469 725.468 488.3
490 0 44.0456 10.3529 456 113.612 725.588 488.857
491 0 44.1365 9.17607 405 117.43 725.798 484.212
492 0 47.0605 11.2834 531 113.181 725.041 485.65
493 0 47.0605 11.3471 534 126.204 724.03 485.654
494 0 51.0632 13.7281 701 110.703 723.816 480.163
495 0 52.0644 9.79555 510 114.112 723.449 484.571
496 0 52.0612 11.9475 622 113.873 723.079 479.748
497 0 52.1719 12.4971 652 114.146 723.77 476.785
498 0 54.157 12.3345 668 117.479 724.945 473.642
499 0 56.0574 10.2395 574 118.577 725.49 473.354
500 0 59.042 14.1086 833 114.264 725.12 468.752
501 0 62.0771 13.6121 845 114.663 726.837 469.33
502 0 61.2743 12.1421 744 119.223 727.669 466.125
503 0 65.2098 15.5498 1014 112.228 728.214 466.025
504 0 68.1322 13.5472 923 116.362 728.387 461.33
505 0 71.1041 14.0498 999 115.14 729.446 461.49
506 0 75.2289 13.8777 1044 116.493 730.461 459.812
507 0 73.1196 15.3857 1125 117.773 730.565 456.415
508 0 79.1354 17.2995 1369 112.735 732.007 458.088
509 0 79.2388 12.8472 1018 118.588 732.71 453.494
510 0 82.1386 13.6964 1125 119.646 732.855 454.736
511 0 85.1155 10.4329 888 122.274 733.571 460.295
512 0 86.326 14.6885 1268 118.41 734.417 452.706
513 0 89.2966 13.0464 1165 120.494 735.093 445.265
514 0 91.1459 13.045 1189 120.534 735.053 453.622
515 0 98.4562 16.779 1652 115.657 736.479 451.97
516 1 53.1122 12.7278 676 121.25 737.234 473.331
517 0 55.1448 11.6421 642 122.852 737.905 475.883
518 0 57.1464 14.4541 826 116.278 737.456 477.304
519 0 59.0541 16.4256 970 115.254 737.243 474.5
520 0 59.0406 13.5839 802 120.98 736.946 476.984
521 0 62.1783 13.606 846 120.521 736.895 477.16
522 0 64.1303 13.5194 867 120.315 736.165 478.482
523 0 66.1316 14.0024 926 119.366 735.222 477.316
524 0 69.2895 13.523 937 119.528 734.45 475.59
525 0 71.2198 13.6198 970 120.523 731.286 471.247
526 0 74.3307 14.7853 1099 117.403 732.067 476.076
527 0 75.5395 13.7147 1036 120.131 731.128 473.086
528 0 78.4184 13.2622 1040 121.093 730.184 471.963
529 0 81.2755 14.5185 1180 118.842 728.342 469.518
530 0 83.2745 13.0772 1089 121.337 727.186 466.565
531 0 87.2746 14.483 1264 118.072 728.036 464.653
532 0 88.3606 13.8523 1224 119.756 726.451 460.071
533 0 92.2243 14.3997 1328 117.732 725.801 461.149
534 0 94.3868 13.54 1278 118.383 723.765 459.164
535 0 104.293 18.1892 1897 107.763 722.382 458.93
536 0 102.342 10.9925 1125 116.63 724.092 454.064
537 1 49.1212 10.1382 498 109.908 722.38 475.285
538 0 50.2822 7.81589 393 110.593 722.468 475.967
539 0 55.3054 11.5359 638 105.431 722.113 470.295
540 0 56.2472 16.6408 936 98.2297 724.699 476.696
541 0 59.3384 14.173 841 102.628 721.906 471.096
542 0 62.3733 13.0024 811 105.825 721.848 464.988
543 0 62.1432 13.131 816 105.598 725.298 470.246
544 0 65.2578 13.1938 861 105.628 725.923 467.282
545 0 66.213 16.0845 1065 102.4 726.723 463.627
546 0 67.4251 15.3949 1038 103.024 727.007 466.659
547 0 71.2022 19.859 1414 96.5148 728.404 468.921
548 0 71.1682 11.2972 804 108.652 728.555 461.586
549 0 71.1837 8.10579 577 111.723 728.771 464.586
550 0 78.3002 13.6654 1070 106.825 729.758 454.948
551 0 82.3767 12.8313 1057 106.728 728.875 453.778
552 0 84.2805 12.5059 1054 108.639 729.009 452.717
553 0 86.2988 13.7893 1190 106.692 729.928 448.882
554 0 88.3291 13.6648 1207 107.265 730.145 446.79
555 0 92.4886 17.094 1581 102.991 731.044 443.941
556 0 96.3406 12.5596 1210 111.24 731.072 447.998
557 1 51.2088 12.6541 648 104.756 732.358 472.677
558 0 52.2091 10.6686 557 107.352 732.853 474.397
559 0 54.4404 12.6744 690 105.142 732.761 472.213
560 0 51.2133 11.3447 581 108.472 732.876 469.876
561 0 55.2286 12.5116 691 105.861 732.271 474.069
562 0 55.2862 11.7389 649 107.239 732.926 472.385
563 0 57.184 10.6498 609 108.936 732.058 471.746
564 0 59.0947 12.7084 751 107.258 731.778 473.948
565 0 61.1642 8.74695 535 111.529 731.772 474.968
566 0 63.2947 12.8289 812 106.271 731.225 471.571
567 0 67.3826 12.4068 836 105.86 731.482 474.133
568 0 69.4134 12.5192 869 105.835 730.589 473.711
569 0 71.3912 15.5341 1109 102.041 730.983 471.707
570 0 71.2319 15.4425 1100 103.255 729.595 468.452
571 0 73.2597 15.0014 1099 104.321 728.135 468.815
572 0 76.4243 12.0381 920 106.885 728.779 472.323
573 0 80.1293 11.9182 955 106.508 727.665 473.41
574 0 84.7262 20.2299 1714 97.4061 727.68 469.555
575 0 84.2234 15.542 1309 104.062 726.482 464.244
576 0 89.3083 17.0645 1524 100.819 726.304 467.063
577 0 87.3682 11.1253 972 109.741 726.111 466.897
578 0 93.2278 13.054 1217 107.724 725.496 462.736
579 1 53.2281 12.0425 641 105.81 725.85 481.942
580 0 51.0641 11.3974 582 109.942 724.11 476.887
581 0 54.1126 13.9893 757 104.297 726.001 474.964
582 0 55.1713 11.3102 624 109.168 725.79 474.894
583 0 59.2118 17.9694 1064 100.437 726.646 472.454
584 0 59.1556 12.3234 729 109.189 726.652 470.715
585 0 60.2048 13.1219 790 108.332 725.677 471.884
586 0 64.1994 12.9596 832 108.201 726.811 468.242
587 0 65.0545 12.9122 840 109.161 727.56 467.113
588 0 68.131 13.5328 922 108.055 728.33 465.819
589 0 71.2384 14.1076 1005 107.499 727.643 463.085
590 0 75.2588 15.9848 1203 104.993 727.185 460.791
591 0 74.1611 13.5246 1003 110.264 728.646 460
592 0 76.0726 12.5538 955 110.536 729.703 461.725
593 0 77.2369 10.7332 829 115.241 730.16 457.197
594 0 81.3115 13.5282 1100 112.704 730.398 455.945
595 0 86.1847 21.1638 1824 102.247 730.781 451.76
596 0 87.2706 12.1347 1059 115.046 731.805 451.691
597 0 92.1184 14.8287 1366 111.769 732.084 449.663
598 1 51.2593 11.6272 596 114.091 732.242 472.139
599 0 51.3594 12.286 631 112.9 732.138 469.956
600 0 54.3765 11.0342 600 114.433 733.008 469.36
601 0 56.1187 12.0993 679 113.566 733.887 471.801
602 0 59.0524 18.9662 1120 103.545 734.518 469.333
603 0 59.0524 18.9323 1118 111.002 734.521 469.343
604 0 63.1056 12.1859 769 112.043 734.992 468.78
605 1 119.391 11.299 1349 118.191 733.033 441.33
606 1 72.3532 12.7016 919 107.81 735.188 473.682
607 0 71.1189 12.1346 863 110.036 735.006 470.946
608 0 70.0893 11.9419 837 111.547 733.476 468.969
609 0 77.135 13.2106 1019 108.649 733.453 469.317
610 0 78.1598 13.7283 1073 109.06 732.453 468.322
611 0 79.2322 14.0347 1112 108.215 730.967 465.174
612 0 88.3432 12.0779 1067 109.116 730.18 467.672
613 0 85.2204 13.4475 1146 109.653 730.495 461.513
614 0 86.4218 11.8141 1021 113.955 729.706 459.445
615 1 42.1378 10.347 436 108.569 727.456 485.761
616 0 43.098 12.1119 522 106.693 727.791 485.623
617 0 42.0224 10.0661 423 106.411 726.189 484.752
618 0 49.1193 10.6068 521 101.971 726.054 479.82
619 0 50.135 11.5488 579 101.594 726.109 483.774
620 0 53.3139 11.9856 639 99.2332 724.385 483.665
621 0 53.1735 10.7949 574 102.005 724.993 479.136
622 0 52.1579 6.05852 316 108.62 724.892 486.01
623 0 52.1814 7.68473 401 108.367 724.416 478.309
624 0 53.351 10.1029 539 105.417 723.694 474.022
625 0 56.1439 11.5774 650 103.395 724.308 472.371
626 0 56.4774 9.402 531 107.328 725.021 470.582
627 0 60.3854 9.75401 589 106.604 723.951 468.98
628 0 61.5283 10.9381 673 104.211 724.507 473.706
629 0 64.2443 7.93845 510 108.333 725.516 472.951
630 0 68.3633 11.5559 790 104.192 725.856 467.657
631 0 67.4154 9.38954 633 107.747 726.141 469.512
632 0 72.4917 11.2151 813 106.951 726.438 463.084
633 0 75.2349 11.4043 858 106.672 728.061 463.435
634 0 76.2714 12.39 945 108.525 726.534 458.869
635 1 43.0307 9.64428 415 111.851 727.484 476.272
636 0 45.0244 12.149 547 105.815 728.066 476.965
637 0 45.1636 12.9086 583 110.161 731.012 473.261
638 0 46.0281 11.7102 539 114.098 732.056 470.568
639 0 47.1881 13.4568 635 111.646 731.688 469.528
640 0 47.1295 9.52694 449 117.281 732.929 472.541
641 0 50.0497 12.5076 626 112.53 733.989 473.243
642 0 49.0671 9.45644 464 119.295 733.884 471.83
643 0 52.0854 12.0379 627 114.936 734.021 471.997
644 0 55.0676 11.4223 629 115.145 734.806 472.782
645 0 53.2388 10.9319 582 116.529 734.842 473.363
646 0 55.2778 9.73266 538 118.74 734.242 472.612
647 0 60.1152 18.3814 1105 103.306 734.162 475.529
648 0 61.0364 12.6646 773 112.7 734.014 473.418
649 0 61.0413 9.58367 585 118.533 734.304 469.085
650 0 62.0981 12.6413 785 115.969 732.797 470.015
651 0 64.1043 12.7605 818 115.127 733.155 471.691
652 0 69.0868 14.214 982 110.789 734.254 473.829
653 0 71.0765 12.9016 917 112.537 734.354 473.998
654 0 74.1153 12.7234 943 112.206 734.007 474.97
655 0 70.0709 9.9328 696 118.591 733.859 469.529
656 0 79.1035 13.9817 1106 110.062 732.286 470.785
657 0 79.1597 12.999 1029 112.789 730.194 467.142
658 1 41.0432 13.1569 540 109.35 731.228 485.324
659 0 41.1617 12.9003 531 110.205 729.113 485.983
660 0 43.4042 11.9574 519 110.447 729.195 485.274
661 0 44.1127 12.6041 556 108.457 726.581 482.455
662 0 45.0847 17.944 809 104.577 725.51 482.392
663 0 46.0626 12.3962 571 112.981 725.282 483.779
664 0 46.1001 11.8004 544 115.588 724.787 480.377
665 0 47.0619 11.878 559 115.968 724.005 480.277
666 0 49.0925 13.6884 672 113.183 723.683 477.641
667 0 55.1375 14.6361 807 109.043 723.344 478.641
668 0 54.0592 13.6517 738 112.142 724.432 475.874
669 0 55.1025 14.101 777 111.474 723.51 474.591
670 0 57.2501 14.6201 837 112.346 724.404 471.547
671 0 57.2501 14.5677 834 137.98 725.428 471.586
672 0 56.1012 12.317 691 117.075 724.938 470.243
673 0 58.1056 10.894 633 119.597 725.117 470.739
674 0 63.1673 14.612 923 113.675 725.882 467.126
675 0 64.1404 13.564 870 116.151 724.703 463.157
676 0 69.1448 15.0988 1044 112.539 726.97 465.034
677 0 67.1329 14.1063 947 116.03 727.853 461.502
678 0 68.1661 12.6456 862 119.451 727.813 460.403
679 0 73.1495 14.9283 1092 115.151 728.529 457.76
680 0 74.127 11.3184 839 120.114 729.632 461.024
681 0 77.0807 13.6999 1056 116.169 728.634 459.432
682 0 80.2662 12.6953 1019 117.477 728.727 457.41
683 1 41.0505 13.1302 539 112.525 730.384 477.425
684 0 42.0402 11.7506 494 115.287 730.597 474.907
685 0 40.1302 8.97079 360 117.275 731.333 474.761
686 0 44.127 12.532 553 115.277 732.743 475.483
687 0 49.2154 15.8284 779 110.506 733.755 476.724
688 0 47.2469 12.2336 578 117.64 733.237 479.294
689 0 48.2035 12.1568 586 118.461 733.387 478.578
690 0 49.1965 14.2896 703 110.889 733.404 476.765
691 0 54.0614 12.8928 697 116.271 735.258 479.887
692 0 55.1459 14.1443 780 116.106 733.613 478.819
693 0 57.0998 12.7496 728 118.004 733.674 481.016
694 0 58.1384 13.8291 804 116.646 733.654 481.189
695 0 60.252 14.1904 855 115.294 733.089 483.277
696 0 62.2954 14.1423 881 116.597 731.078 477.154
697 0 66.2026 15.1051 1000 114.055 732.39 480.316
698 0 69.2304 15.3979 1066 113.133 731.488 479.229
699 0 69.2242 14.518 1005 116.524 730.884 477.99
700 0 71.1766 15.4405 1099 115.986 729.184 475.266
701 0 72.1372 16.2052 1169 115.667 728.627 472.554
702 0 74.2914 12.7067 944 122.289 727.45 471.218
703 0 77.5052 13.8055 1070 119.812 728.207 471.402
704 0 83.4736 15.3222 1279 115.753 726.814 472.231
705 0 82.4458 15.9984 1319 137.688 725.763 471.981
706 1 41.4429 12.5474 520 117.646 726.048 488.588
707 0 44.2322 12.57 556 112.624 724.331 485.559
708 0 45.1086 13.3456 602 111.125 725.088 487.017
709 0 46.1396 13.7192 633 111.64 724.142 485.278
710 0 48.1221 12.5098 602 114.563 723.327 481.674
711 0 50.223 16.6059 834 106.653 724.219 480.318
712 0 50.0303 17.9292 897 106.095 723.802 481.309
713 0 51.0692 12.0621 616 115.031 724.968 479.911
714 0 50.0555 13.0655 654 116.107 723.914 477.714
715 0 54.125 15.1686 821 111.465 724.765 474.773
716 0 55.1255 18.4125 1015 106.426 725.292 477.069
717 0 58.1117 15.2465 886 111.483 725.227 471.108
718 0 62.1249 13.9075 864 112.914 725.153 472.334
719 0 62.0895 13.0296 809 115.792 726.098 470.074
720 0 63.1286 13.0052 821 116.456 725.625 467.549
721 0 66.2121 15.5712 1031 112.048 726.713 466.176
722 0 67.1294 14.9413 1003 112.951 726.666 467.107
723 0 71.0835 11.9718 851 117.838 728.855 467.234
724 0 74.14 18.6809 1385 107.676 729.279 465.066
725 0 76.1122 11.0363 840 118.995 730.59 462.224
726 0 80.5011 14.9191 1201 112.804 731.125 462.835
727 0 81.159 12.9376 1050 116.887 732.04 462.422
728 1 44.0174 12.495 550 118.025 733.393 479.718
729 0 45.0157 11.1961 504 118.315 732.816 481.151
730 0 46.0659 11.6355 536 118.304 734.11 480.243
731 0 49.0773 12.572 617 115.809 733.293 480.282
732 0 51.0487 15.926 813 110.608 733.768 481.478
733 0 51.0571 16.178 826 109.969 733.659 483.672
734 0 53.0361 13.3305 707 115.577 733.412 480.721
735 0 57.1268 17.5224 1001 107.378 733.215 479.14
736 0 57.1691 15.4979 886 111.097 731.685 481.586
737 0 59.1764 16.1382 955 110.137 732.243 476.641
738 0 61.1694 16.626 1017 109.184 730.755 483.548
739 0 58.0718 10.9175 634 121.224 730.965 483.249
740 0 64.0724 12.6732 812 115.007 729.734 486.78
741 0 65.063 13.4946 878 115.789 730.557 477.798
742 0 67.2427 14.0238 943 115.499 729.578 476.384
743 0 70.2002 16.168 1135 111.224 728.537 478.526
744 0 72.1884 17.4543 1260 109.912 728.902 475.431
745 0 72.1172 11.8834 857 118.298 728.296 476.467
746 0 78.1934 14.0421 1098 114.896 728.048 471.973
747 0 78.1171 14.2478 1113 115.534 727.314 472.921
748 0 82.2093 13.6481 1122 116.57 726.873 464.691
749 0 85.2182 11.6876 996 119.249 727.017 469.976
750 0 89.2031 21.1876 1890 105.427 727.138 461.099
751 1 46.127 13.7446 634 116.696 726.812 483.388
752 0 46.1803 11.3035 522 121.374 726.508 481.567
753 0 48.0932 11.8104 568 121.285 725.889 476.299
754 0 47.0218 12.2284 575 119.146 725.804 479.299
755 0 50.1416 14.0602 705 116.123 725.948 478.657
756 0 50.0637 13.6027 681 117.862 726.859 477.818
757 0 51.1039 12.1517 621 118.829 727.25 478.82
758 0 54.0508 12.5068 676 118.518 727.797 475.317
759 0 54.2261 12.6692 687 119.562 727.978 471.312
760 0 59.3751 15.68 931 112.105 729.289 469.301
761 0 58.3015 12.7784 745 116.256 727.893 470.999
762 0 64.1354 17.6346 1131 106.816 729.899 468.698
763 0 62.2338 12.7744 795 115.404 729.628 468.567
764 0 68.2 13.3724 912 112.67 730.084 466.03
765 0 69.3975 12.7382 884 114.826 730.29 460.976
766 0 73.2596 14.1142 1034 112.103 731.342 461.999
767 0 72.1951 10.527 760 116.703 731.603 460.474
768 0 78.2083 13.8604 1084 110.901 732.517 462.448
769 0 79.1721 11.3171 896 116.157 732.264 460.299
770 0 82.1947 18.2128 1497 105.093 732.494 460.276
771 0 85.1026 11.351 966 115.029 732.694 461.032
772 0 87.1517 15.9607 1391 109.597 733.727 454.945
773 0 93.1959 14.3032 1333 111.104 733.555 456.034
774 1 49.1539 13.6917 673 115.599 733.117 474.606
775 0 51.1236 14.7486 754 114.347 733.782 477.004
776 0 52.2244 13.6718 714 116.909 733.801 479.374
777 0 55.0359 14.427 794 114.126 734.365 479.555
778 0 55.1087 12.8292 707 117.546 732.938 480.68
779 0 59.0578 15.2732 902 113.333 732.914 476.922
780 0 60.0716 17.5624 1055 110.401 732.95 479.148
781 0 64.1212 15.845 1016 111.802 731.899 479.266
782 0 62.3812 11.9267 744 119.384 732.159 480.421
783 0 65.4337 11.8135 773 119.354 731.908 478.115
784 0 70.2164 16.1073 1131 111.239 731.826 478.92
785 0 69.132 14.1324 977 116.774 730.917 473.394
786 0 72.3628 17.8821 1294 111.047 730.308 475.635
787 0 74.1437 11.1405 826 122.033 728.702 473.476
788 0 78.2168 14.2808 1117 116.451 728.662 467.783
789 0 81.2538 15.4577 1256 113.962 727.945 464.408
790 0 85.1985 13.897 1184 116.823 728.067 465.698
791 1 40.1578 11.9279 479 119.662 726.704 482.756
792 0 43.1391 11.7759 508 120.114 727.852 482.996
793 0 43.1172 13.5445 584 119.543 727.714 481.587
794 0 46.3304 14.6772 680 117.397 727.019 481.918
795 0 47.4395 14.861 705 117.576 727.976 481.255
796 0 48.2842 14.3111 691 119.308 727.684 478.773
797 0 48.2842 14.2697 689 131.377 726.723 478.714
798 0 53.2211 16.0838 856 115.398 727.138 477.268
799 0 52.2325 13.6888 715 122.032 726.152 473.94
800 0 54.1932 12.806 694 122.63 727.709 473.517
801 0 55.1303 15.1641 836 120.311 726.903 468.311
802 0 59.2347 15.5652 922 118.936 727.96 467.672
803 0 57.2564 15.3171 877 120.001 728.481 467.893
804 0 63.2793 18.2682 1156 113.464 729.497 464.336
805 0 66.1981 17.4174 1153 114.311 730.284 459.439
806 0 71.7821 21.7046 1558 107.065 730.612 464.946
807 0 68.3668 14.232 973 121.772 732.086 461.628
808 0 70.1108 16.6593 1168 117.869 730.854 460.358
809 0 72.3531 15.0512 1089 119.275 731.514 457.91
810 0 74.343 15.2671 1135 119.791 733.145 459.556
811 0 78.403 15.6117 1224 118.764 732.963 461.559
812 1 42.6842 15.0641 643 115.275 734.687 481.306
813 0 39.3825 13.3562 526 125.895 733.973 477.557
814 0 41.22 13.8283 570 124.975 733.819 477.561
815 0 45.2071 13.5598 613 124.484 735.437 477.799
816 0 44.0875 15.696 692 122.338 734.915 476.754
817 0 46.2109 15.6889 725 122.331 735.465 479.459
818 0 45.0953 15.3231 691 125.628 734.295 478.369
819 0 50.1801 16.4009 823 120.93 735.171 480.807
820 0 50.107 15.5068 777 124.69 735.626 479.221
821 0 52.3474 15.5691 815 125.067 734.534 478.123
822 0 52.3474 15.5882 816 158.663 733.545 478.143
823 0 55.2753 16.3907 906 123.979 735.29 478.72
824 0 55.2753 16.3907 906 150.117 736.29 478.72
825 0 59.2682 15.1177 896 126.194 733.177 477.281
826 0 60.2578 16.0975 970 124.315 731.507 478.615
827 0 65.2999 15.314 1000 125.221 733.182 475.758
828 0 67.1016 14.7686 991 127.477 732.686 474.716
829 0 72.3048 17.3847 1257 121.076 732.329 475.247
830 1 36.2719 14.3362 520 128.64 730.55 489.2
831 0 37.1905 13.2292 492 131.323 730.874 489.341
832 0 38.3865 13.338 512 131.26 729.627 487.391
833 0 41.1163 14.5684 599 128.371 729.249 486.227
834 0 44.114 14.0998 622 127.764 729.471 485.754
835 0 44.0656 15.2273 671 127.289 729.641 484.194
836 0 45.4985 13.0554 594 131.333 729.729 481.089
837 0 46.2078 14.9542 691 129.357 729.138 479.02
838 0 48.187 15.4191 743 126.918 729.244 478.719
839 0 51.0955 16.4594 841 124.099 729.038 474.848
840 0 51.0772 14.5662 744 129.742 729.374 478.116
841 0 52.2932 14.3422 750 128.529 727.863 475.744
842 0 56.1998 17.7759 999 121.145 728.347 473.167
843 0 56.2829 15.6175 879 125.349 729.057 472.414
844 0 57.2657 14.3891 824 129.341 729.142 469.905
845 0 58.1625 16.0585 934 126.754 729.027 465.951
846 0 60.0909 15.8593 953 128.36 729.805 466.726
847 0 63.2818 17.0823 1081 124.826 731.103 465.346
848 0 62.2061 15.3361 954 130 731.517 465.546
849 0 65.1834 16.7834 1094 127.016 731.827 463.174
850 0 66.2647 16.3737 1085 128.139 731.633 465.316
851 0 68.3349 17.1216 1170 127.589 732.319 459.75
852 0 72.1757 15.7671 1138 128.7 731.482 465.011
853 0 74.1413 16.1583 1198 129.491 733.513 460.21
854 0 78.2515 17.8399 1396 125.708 733.378 456.437
855 0 80.1423 21.2247 1701 118.616 734.919 461.175
856 0 83.45 17.0042 1419 127.608 734.597 460.166
857 0 85.1962 16.6322 1417 128.599 735.301 456.927
858 0 88.2525 16.0449 1416 129.076 735.488 456.539
859 0 91.1292 15.3518 1399 131.171 736.053 457.038
860 0 99.2636 21.8408 2168 116.762 736.32 452.094
861 0 101.218 18.8306 1906 123.472 736.298 451.615
862 1 51.0521 11.9877 612 135.518 736.245 480.355
863 0 50.0685 12.6427 633 138.385 735.318 478.9
864 0 52.0464 13.2574 690 135.872 735.744 480.564
865 0 54.061 14.1692 766 134.991 735.437 479.037
866 0 55.1185 13.8792 765 136.719 734.671 478.09
867 0 60.0696 14.7163 884 133.661 734.253 478.033
868 0 63.0706 14.238 898 134.637 731.87 476.753
869 0 63.245 13.5663 858 136.89 732.181 476.26
870 0 68.1564 15.8312 1079 131.843 731.348 473.478
871 0 68.1336 15.998 1090 131.023 731.671 474.215
872 0 70.1671 14.8645 1043 135.009 731.272 470.603
873 0 74.1574 14.6445 1086 133.956 729.088 468.42
874 0 77.0996 15.668 1208 130.345 730.296 466.942
875 0 79.1358 14.2413 1127 134.189 729.535 465.846
876 0 83.2448 15.5325 1293 130.766 728.304 463.632
877 0 85.2916 19.322 1648 123.06 728.706 462.241
878 0 88.2395 13.9507 1231 133.38 726.767 460.232
879 0 90.4236 15.4827 1400 130.905 728.886 458.457
880 0 92.1789 16.1425 1488 128.722 728.732 450.152
881 0 97.8519 14.8899 1457 130.232 729.204 450.695
882 0 97.7337 15.9617 1560 128.779 728.611 446.36
883 0 104.422 17.1994 1796 124.531 729.131 443.23
884 1 57.3983 8.53683 490 120.939 728.714 474.267
885 0 60.2317 12.9666 781 117.864 728.727 466.457
886 0 61.1156 10.9301 668 113.801 728.867 469.853
887 0 61.1156 10.8483 663 123.318 728.864 469.802
888 0 64.1949 9.56462 614 117.417 729.917 469.08
889 0 65.2136 5.61232 366 122.77 730.191 472.317
890 0 68.2343 8.98375 613 119.166 730.661 463.44
891 1 140.334 17.2731 2424 122.14 730.836 424.142
892 0 143.36 16.1551 2316 124.96 730.643 417.896
893 0 149.27 16.3931 2447 124.848 732.318 415.741
894 0 153.513 16.7478 2571 124.765 732.215 413.319
895 0 160.314 15.6817 2514 126.652 732.345 412.87
896 0 165.588 14.21 2353 129.475 733.473 411.946
897 1 90.2488 8.33252 752 121.411 733.62 455.148
898 0 91.2335 8.74679 798 119.995 733.886 454.194
899 0 93.0923 7.25087 675 121.348 734.238 455.13
900 0 101.186 9.12181 923 118.648 735.403 452.836
901 0 100.189 7.06665 708 124.792 735.479 451.773
902 0 101.184 9.60626 972 120.637 735.44 454.062
903 0 105.192 9.61096 1011 120.865 735.355 450.918
904 0 111.371 8.34149 929 121.745 735.129 453.369
905 0 114.252 11.851 1354 118.758 734.507 448.399
906 0 115.35 6.87474 793 127.98 734.878 437.845
907 0 125.363 8.17627 1025 119.963 734.692 456.095
908 0 133.529 8.28284 1106 121.453 735.165 452.658
909 0 133.495 9.37864 1252 123.923 734.873 440.03
910 1 76.2067 13.1353 1001 113.169 734.63 468.882
911 0 78.3263 13.9289 1091 112.551 734.26 467.663
912 0 80.2354 8.17595 656 120.521 733.672 474.149
913 0 82.3037 11.3482 934 118.53 732.85 467.015
914 0 84.1567 11.7044 985 118.322 731.576 470.147
915 0 88.1171 9.81649 865 122.838 731.591 468.333
916 0 89.3146 9.89759 884 122.592 729.958 468.938
917 0 89.305 10.0666 899 122.028 730.407 471.433
918 0 93.387 7.3779 689 128.749 729.84 469.379
919 0 99.2541 12.2917 1220 121.132 728.644 457.78
920 0 105.462 14.1094 1488 117.608 728.814 455.248
921 0 104.297 11.9755 1249 117.65 728.155 459.183
922 0 104.382 11.0651 1155 120.95 727.92 451.549
923 0 111.536 11.8706 1324 120.829 727.022 444.634
924 0 120.359 12.9446 1558 117.388 727.015 447.386
925 0 117.482 12.9382 1520 118.347 727.64 444.145
926 0 117.485 12.8783 1513 121.755 728.627 444.166
927 0 125.389 12.3057 1543 119.981 727.856 442.48
928 0 129.491 12.5414 1624 120.666 727.919 437.89
929 0 131.452 9.8515 1295 125.992 727.852 430.615
930 1 200.692 10.0353 2014 126.322 728.726 409.993
931 0 205.833 10.7903 2221 126.928 727.705 395.077
932 0 212.009 12.8343 2721 124.205 729.146 393.655
933 1 82.1498 12.3068 1011 116.728 728.583 456.703
934 0 82.15 12.2824 1009 123.087 729.589 456.799
935 0 88.2848 8.04215 710 120.659 729.348 458.745
936 0 89.3275 9.26926 828 120.172 730.891 451.827
937 0 95.2025 10.9241 1040 117.796 731.146 448.469
938 0 100.333 11.1728 1121 117.726 731.317 447.984
939 1 56.2097 13.592 764 115.103 732.344 469.272
940 0 58.1898 15.4323 898 111.096 732.518 468.575
941 0 59.1734 12.8098 758 118.19 732.327 469.379
942 0 59.192 11.1164 658 121.822 731.853 470.321
943 0 62.2101 12.4417 774 118.497 731.872 468.882
944 0 65.5188 16.377 1073 114.038 733.668 466.748
945 0 65.499 12.6414 828 121.001 733.204 466.617
946 0 68.411 13.6235 932 118.431 733.455 470.025
947 0 72.7376 22.2444 1618 102.923 733.328 472.082
948 0 71.4734 13.2357 946 120.587 734.622 466.697
949 0 74.2954 13.5002 1003 119.42 733.603 465.288
950 0 76.3662 13.0555 997 120.429 734.449 465.098
951 0 79.4874 14.3419 1140 118.774 734.778 461.954
952 0 82.6108 13.3033 1099 119.943 732.802 466.596
953 0 83.5427 13.4183 1121 121.451 733.914 465.422
954 0 88.4899 15.2334 1348 117.204 733.382 466.558
955 0 91.5192 14.4013 1318 118.562 732.362 460.102
956 1 48.1661 12.0417 580 113.916 732.462 486.329
957 0 48.3303 10.8421 524 119.363 731.017 482.408
958 0 51.3438 12.9909 667 116.639 731.009 482.555
959 0 53.1712 11.905 633 123.645 729.365 480.687
960 0 55.1948 12.8092 707 122.157 728.904 482.349
961 0 56.2838 12.7213 716 122.986 727.543 480.179
962 0 59.2138 14.8783 881 116.95 729.2 480.347
963 0 58.3076 14.0119 817 120.682 727.261 475.919
964 0 60.4288 13.7848 833 120.245 728.593 476.497
965 0 63.1442 13.8097 872 118.36 727.558 477.661
966 0 64.3096 14.2747 918 118.877 727.393 475.267
967 0 65.1447 13.3702 871 121.016 727.519 471.511
968 0 67.289 15.6489 1053 116.122 727.051 471.162
969 0 71.286 15.7955 1126 115.409 726.853 466.111
970 0 72.3365 17.1559 1241 111.545 727.166 468.792
971 0 79.3663 14.6284 1161 115.626 726.688 464.992
972 0 77.3142 13.2705 1026 118.715 727.573 457.055
973 0 78.3164 14.9777 1173 117.501 727.259 457.57
974 0 81.4299 16.9839 1383 112.899 727.701 455.699
975 0 86.2462 12.7774 1102 119.107 728.012 456.788
976 0 86.1039 13.565 1168 118.973 730.222 451.296
977 1 47.3325 11.303 535 115.609 729.488 474.905
978 0 50.1447 14.518 728 110.603 730.512 471.951
979 0 50.2457 10.9263 549 115.614 731.124 472.097
980 0 50.2574 15.6992 789 106.07 731.029 472.791
981 0 53.2507 14.1219 752 108.98 731.374 467.987
982 0 54.238 13.1089 711 111.661 731.734 468.557
983 0 55.3503 14.887 824 105.865 732.221 466.618
984 0 58.2511 11.5534 673 109.371 731.93 469.287
985 0 56.366 12.7027 716 110.123 733.299 469.436
986 0 61.3822 15.4116 946 104.617 734.268 466.165
987 0 61.3822 15.4768 950 131.636 735.274 466.068
988 0 66.176 15.4437 1022 104.087 733.837 469.19
989 0 68.2108 12.5933 859 109.558 734.494 467.229
990 0 69.2156 13.5519 938 111.353 735.155 464.108
991 0 77.2827 14.7252 1138 104.722 734.883 469.718
992 0 77.3009 16.5328 1278 103.642 734.653 459.767
993 0 82.2878 16.6124 1367 101.277 734.437 472.715
994 0 82.2878 16.6246 1368 127.655 735.455 472.598
995 0 85.4172 20.3706 1740 98.5512 733.966 459.88
996 1 43.0822 11.745 506 112.344 733.787 482.885
997 0 44.3027 13.0918 580 108.083 733.69 477.709
998 0 52.2412 14.3182 748 100.548 732.389 480.942
999 0 54.0754 11.8168 639 103.435 732.368 479.376
1000 0 50.5281 12.6464 639 102.546 732.261 482.261
1001 0 54.4799 12.0595 657 102.633 730.053 483.489
1002 0 55.3574 9.82706 544 103.392 728.61 485.421
1003 0 55.3664 13.2572 734 106.473 729.835 482.287
1004 0 56.0558 6.74328 378 109.868 729.852 480.714
1005 0 59.2349 8.50849 504 108.869 727.982 479.665
1006 0 59.1472 8.36895 495 107.574 726.945 479.798
1007 0 64.0896 11.8272 758 106.542 728.076 475.327
1008 0 65.1199 13.6517 889 104.699 728.003 474.512
1009 0 68.1448 12.2093 832 105.478 727.542 474.721
1010 0 70.584 15.3718 1085 103.006 727.068 474.706
1011 0 69.1689 13.2429 916 107.352 727.986 470.969
1012 0 67.4081 12.2686 827 110.752 727.892 467.623
1013 0 73.3591 17.1894 1261 102.711 727.582 467.645
1014 0 75.4754 15.8462 1196 105.478 727.92 465.185
1015 0 75.3899 12.7736 963 110.649 726.686 464.263
1016 0 75.1265 11.048 830 115.352 727.974 462.714
1017 0 79.236 12.8224 1016 113.097 728.521 458.383
1018 0 79.3203 12.7206 1009 114.021 728.295 460.955
1019 0 86.2695 16.1934 1397 109.571 729.242 456.757
1020 0 87.5574 18.7306 1640 107.185 730.296 451.343
1021 1 45.24 13.6826 619 113.346 730.79 470.079
1022 0 46.1446 12.1358 560 115.641 730.909 472.348
1023 0 52.6797 13.5726 715 115.059 731.204 470.385
1024 0 55.8914 14.2777 798 114.52 731.092 470.297
1025 0 53.1566 12.529 666 115.74 732.518 469.524
1026 0 54.287 16.8733 916 110.533 731.585 467.205
1027 0 55.1681 12.1084 668 118.12 732.097 469.07
1028 0 56.3799 14.0298 791 115.628 730.386 467.047
1029 0 59.4558 14.1954 844 113.743 730.418 469.908
1030 0 61.6561 13.2023 814 116.828 731.135 466.706
1031 0 65.4096 12.3835 810 116.777 730.57 468.615
1032 0 69.0688 18.5902 1284 107.186 730.821 469.516
1033 0 69.1866 11.534 798 119.386 731.753 468.61
1034 0 73.4422 15.8492 1164 112.194 731.342 468.614
1035 0 75.6386 14.4503 1093 113.431 731.507 470.152
1036 0 76.5437 12.8946 987 117.84 729.417 462.337
1037 0 79.4836 13.4493 1069 117.057 730.86 465.942
1038 0 90.4838 20.4346 1849 103.531 730.725 457.876
1039 0 88.8335 14.6116 1298 113.667 730.546 461.53
1040 1 47.1678 12.1481 573 116.766 729.569 487.368
1041 0 51.8216 15.592 808 113.207 729.316 484.217
1042 0 50.6186 13.5918 688 121.199 728.754 481.977
1043 0 52.6328 13.5467 713 122.05 727.825 481.029
1044 0 53.0751 15.8455 841 112.792 726.522 479.767
1045 0 55.5505 13.6992 761 114.895 727.095 480.795
1046 0 57.386 13.9233 799 115.32 726.771 479.016
1047 0 58.2197 12.7105 740 118.458 726.466 477.116
1048 0 62.5503 18.1934 1138 108.073 726.047 476.501
1049 0 61.2899 13.8359 848 115.396 724.969 475.455
1050 0 65.3975 13.5326 885 115.511 723.89 471.594
1051 0 66.5209 11.3348 754 119.424 725.342 473.243
1052 0 69.4758 16.7684 1165 111.635 724.509 468.21
1053 0 72.2711 16.1337 1166 111.247 725.052 470.388
1054 0 73.3043 14.9923 1099 114.656 724.177 464.997
1055 0 73.5114 13.6577 1004 118.752 723.783 463.696
1056 0 79.2915 14.2638 1131 115.936 724.908 463.584
1057 0 80.2647 14.34 1151 117.515 725.4 457.944
1058 0 86.6101 15.2292 1319 115.014 724.88 455.507
1059 0 88.4645 17.4081 1540 111.474 725.71 455.47
1060 1 44.2073 13.1652 582 116.21 726.187 475.01
1061 0 47.6756 10.1939 486 117.296 726.63 475.687
1062 0 50.3478 13.8636 698 113.281 726.377 472.003
1063 0 52.2695 13.9469 729 116.937 725.742 473.497
1064 0 53.2783 13.0072 693 115.036 727.974 467.468
1065 0 56.2433 16.2686 915 110.175 728.141 467.515
1066 0 56.2433 16.2864 916 122.037 728.132 467.525
1067 0 57.2907 14.4002 825 115.815 728.811 465.206
1068 0 59.1512 14.7081 870 115.513 730.328 466.363
1069 0 62.2299 14.3661 894 115.247 731.296 467.875
1070 0 64.1945 13.942 895 117.684 732.523 466.988
1071 0 67.2925 19.5267 1314 111.995 733.527 464.5
1072 0 70.0663 14.6147 1024 118.501 732.854 464.02
1073 0 71.1436 14.2247 1012 118.622 734.587 464.393
1074 0 73.2295 14.2566 1044 119.63 735.906 465.852
1075 0 75.4804 12.4933 943 123.135 734.321 462.481
1076 0 80.1632 16.167 1296 116.611 735.123 460.535
1077 0 82.2822 14.0735 1158 121.619 734.787 460.943
1078 0 85.1814 15.6489 1333 119.19 734.456 464.104
1079 0 87.2868 14.4695 1263 121.674 734.234 462.01
1080 0 92.2156 14.4553 1333 121.869 732.985 461.06
1081 0 95.2067 15.0725 1435 120.437 733.491 458.578
1082 0 99.1072 13.7023 1358 122.644 733.287 459.437
1083 0 102.452 14.5238 1488 121.06 733.286 458.105
1084 1 50.1427 9.11399 457 124.718 733.059 483.055
1085 0 53.216 13.5861 723 119.221 732.447 480.485
1086 0 54.0986 12.699 687 120.301 731.908 478.226
1087 0 55.0542 12.1698 670 122.427 731.719 482.012
1088 0 57.1672 16.8103 961 116.385 730.662 485.712
1089 0 62.2508 14.0882 877 120.966 730.138 479.553
1090 0 62.1212 14.2141 883 120.964 728.6 473.593
1091 0 66.1504 14.724 974 118.953 728.636 478.773
1092 0 68.2022 15.2488 1040 118.838 728.612 474.299
1093 0 68.127 14.9867 1021 120.779 727.786 469.812
1094 0 71.1802 14.948 1064 120.874 727.017 471.353
1095 0 74.4386 15.1803 1130 119.632 727.245 468.722
1096 0 73.1403 13.6177 996 124.011 727.141 465.491
1097 0 79.2328 15.852 1256 120.06 728.112 463.974
1098 0 80.5049 13.7383 1106 124.637 727.316 464.161
1099 0 84.148 14.7835 1244 126.781 726.733 461.76
1100 0 90.1949 13.2823 1198 124.224 727.184 460.148
1101 0 89.1473 14.033 1251 130.302 727.356 456.413
1102 0 89.1473 13.9432 1243 162.658 726.363 456.407
1103 1 101.322 12.8205 1299 126.588 727.199 450.9
1104 1 51.5775 9.73292 502 122.624 727.562 475.39
1105 0 53.2652 14.2307 758 117.359 728.059 468.904
1106 0 59.4629 12.4615 741 123.59 729.584 466.131
1107 0 57.1512 15.0653 861 118.62 728.379 467.735
1108 0 60.1129 14.1567 851 119.825 730.059 467.257
1109 0 62.2878 15.6532 975 117.178 729.667 464.888
1110 0 65.1742 14.8525 968 118.452 731.711 464.116
1111 0 65.2871 15.2863 998 120.485 731.798 460.954
1112 0 68.1681 17.0461 1162 116.363 732.738 462.633
1113 0 71.2109 16.8233 1198 117.805 733.029 455.959
1114 0 74.2813 16.0875 1195 116.47 733.072 459.544
1115 0 76.1215 13.8331 1053 119.958 734.093 462.761
1116 0 78.1498 13.6789 1069 121.543 734.428 460.7
1117 0 80.1945 13.6668 1096 121.72 733.472 460.724
1118 1 44.0618 14.1392 623 118.778 735.412 478.734
1119 0 41.4511 9.04681 375 128.341 734.661 478.968
1120 0 45.0875 15.5254 700 116.243 735.194 478.904
1121 0 46.1961 11.9707 553 121.584 733.62 480.119
1122 0 53.1394 10.1243 538 120.63 734.928 480.47
1123 0 47.4782 13.3956 636 124.132 734.239 483.178
1124 0 49.2646 13.2144 651 125.43 733.132 482.568
1125 0 50.2977 11.8693 597 128.152 733.734 480.797
1126 0 51.3006 9.29814 477 130.956 733.568 483.941
1127 0 56.3497 15.4393 870 117.793 733.522 484.162
1128 0 58.3296 13.458 785 122.357 732.055 482.946
1129 0 57.3229 11.3044 648 125.552 730.958 482.873
1130 0 61.3725 12.2531 752 123.348 730.428 482.29
1131 0 62.2382 11.8898 740 123.792 729.743 481.361
1132 0 62.2881 11.0776 690 126.475 728.787 481.149
1133 0 67.2608 15.6555 1053 118.624 727.881 478.014
1134 0 68.3019 11.7274 801 125.035 726.392 475.301
1135 0 71.1678 12.3511 879 122.662 727.444 472.779
1136 0 71.2465 9.34783 666 127.881 725.904 469.518
1137 1 38.1047 7.95178 303 122.129 727.432 490.043
1138 0 40.1516 10.7094 430 118.326 726.8 489.886
1139 0 40.0587 9.28637 372 122.073 726.452 485.645
1140 0 42.0719 10.696 450 115.698 725.633 486.107
1141 0 46.0636 13.3511 615 110.314 726.228 486.364
1142 1 82.6654 10.1735 841 124.512 725.002 466.468
1143 0 84.5106 14.1047 1192 118.477 724.391 462.495
1144 0 87.5506 11.1707 978 123.966 724.335 460.93
1145 0 89.4942 12.7047 1137 122.243 725.354 458.697
1146 0 91.9022 12.818 1178 122.83 725.959 452.797
1147 0 99.9489 11.636 1163 121.753 726.54 455.913
1148 0 101.007 12.2269 1235 120.355 726.364 451.616
1149 0 101.79 10.4529 1064 124.224 727.854 446.497
1150 0 105.763 11.2799 1193 122.721 727.262 442.204
1151 0 105.774 6.68409 707 128.455 729.264 446.102
1152 0 111.592 11.56 1290 122.572 730.441 439.343
1153 0 115.969 8.54539 991 127.363 729.73 437.1
1154 0 120.792 11.4081 1378 121.929 730.937 439.092
1155 0 124.542 10.4944 1307 123.995 731.374 434.662
1156 0 127.376 8.85568 1128 126.005 732.256 440.707
1157 0 125.556 12.2574 1539 121.41 731.876 434.689
1158 0 124.405 4.22813 526 129.882 731.53 449.629
1159 0 128.116 6.25995 802 129.55 733.591 436.665
1160 0 128.104 6.01075 770 125.803 736.583 437.921
1161 1 79.6077 8.0771 643 120.719 733.829 458.165
1162 0 81.4277 8.05623 656 120.712 732.165 457.285
1163 0 85.4142 11.7428 1003 114.716 732.46 459.16
1164 0 86.2142 7.63215 658 122.983 732.694 455.643
1165 1 48.1407 9.57609 461 116.111 732.388 478.03
1166 0 52.2463 9.55091 499 115.505 733.192 482.838
1167 0 50.3262 10.3525 521 116.282 732.994 479.919
1168 0 51.1228 10.152 519 116.472 732.437 484.869
1169 0 52.3771 12.3527 647 115.088 731.652 481.093
1170 0 55.2785 8.15869 451 120.131 729.386 483.9
1171 0 57.3788 10.1431 582 125.443 730.912 483.093
1172 0 59.3578 11.557 686 124.64 730.245 480.018
1173 0 60.2634 9.79036 590 130.898 730.059 482.664
1174 0 60.4979 10.4962 635 129.332 728.994 479.447
1175 0 69.3844 10.7229 744 127.565 728.172 476.798
1176 0 69.2985 9.69718 672 126.35 727.906 474.158
1177 0 71.3541 12.0806 862 121.918 727.262 475.897
1178 0 70.1986 10.1427 712 126.018 726.837 474.507
1179 0 73.193 11.0666 810 118.852 726.736 470.021
1180 0 76.4444 12.2573 937 115.664 726.082 471.565
1181 0 78.2093 11.725 917 117.713 724.746 464.17
1182 0 83.4154 14.0622 1173 112.784 723.964 465.058
1183 0 84.3002 13.1198 1106 118.722 723.635 462.8
1184 0 85.3384 10.8158 923 121.731 724.147 459.612
1185 0 90.2311 12.1355 1095 117.115 723.779 461.408
1186 0 94.2405 10.7809 1016 120.301 723.317 454.92
1187 0 95.2362 7.92766 755 123.499 724.788 458.276
1188 0 103.285 14.736 1522 112.426 723.861 455.719
1189 0 106.317 13.7513 1462 115.295 724.487 448.163
1190 1 53.1247 12.8377 682 109.63 726.009 473.227
1191 0 52.1797 11.7862 615 113.042 728.65 474.455
1192 0 56.0784 12.4112 696 110.514 728.862 472.835
1193 0 57.0977 11.2614 643 113.138 729.09 470.393
1194 0 61.1097 15.9713 976 104.802 729.896 469.219
1195 0 60.1935 13.2905 800 109.125 728.484 470.27
1196 0 61.144 11.1049 679 111.474 727.103 466.554
1197 0 64.2257 14.4491 928 107.12 728.235 463.258
1198 0 66.0831 11.6671 771 110.206 728.789 466.525
1199 0 70.1257 8.42772 591 114.306 732.406 467.97
1200 0 70.1326 11.4925 806 109.68 732.017 465.478
1201 0 69.2223 8.4077 582 112.713 733.897 471.117
1202 0 76.0918 12.1695 926 108.559 733.707 464.067
1203 0 81.1908 16.3196 1325 101.614 734.829 463.354
1204 0 80.1638 12.9984 1042 105.23 734.565 468.068
1205 0 81.2301 9.39307 763 112.315 734.772 463.035
1206 0 86.2728 12.1243 1046 109.137 735.748 461.88
1207 0 89.3088 10.9844 981 109.935 735.184 461.196
1208 0 91.3498 10.3339 944 111.589 735.181 459.896
1209 0 99.2419 13.8953 1379 106.286 734.817 457.803
1210 0 100.273 15.0788 1512 105.613 734.425 459.106
1211 0 107.262 12.0452 1292 109.623 733.635 459.186
1212 0 107.289 10.6908 1147 113.963 733.641 455.053
1213 0 107.327 10.6683 1145 115.295 733.635 454.768
1214 1 54.1669 11.5938 628 109.041 733.021 481.884
1215 0 52.1381 10.7024 558 112.539 731.574 485.76
1216 0 53.1758 10.4747 557 111.768 730.341 480.686
1217 0 58.1814 10.7766 627 110.47 730.742 480.876
1218 0 61.1167 10.9463 669 110.333 729.877 480.454
1219 0 59.2034 11.8405 701 112.133 729.247 477.147
1220 0 64.3362 10.1964 656 113.215 729.277 477.651
1221 0 65.1928 8.88135 579 113.838 727.045 478.316
1222 0 68.1223 10.5399 718 111.804 728.905 475.091
1223 0 71.0673 11.7916 838 109.853 728.041 475.69
1224 0 71.0624 11.891 845 111.338 728.44 467.944
1225 0 71.1735 10.9872 782 113.835 726.804 468.495
1226 0 76.1807 8.16479 622 118.479 726.961 470.235
1227 0 81.1129 12.4148 1007 111.167 726.951 468.081
1228 1 41.0394 11.0138 452 113.889 727.38 480.155
1229 0 39.1534 6.1042 239 114.176 726.787 477.699
1230 0 45.2533 12.5516 568 107.526 727.062 476.486
1231 0 46.0756 11.8284 545 111.991 727.56 479.411
1232 0 45.0439 9.87924 445 116.681 727.151 476.011
1233 0 49.1169 13.4577 661 109.856 725.831 470.301
1234 0 50.2707 11.458 576 113.837 725.88 470.764
1235 0 53.2365 10.7069 570 114.098 727.27 473.726
1236 0 54.1997 13.1366 712 110.969 726.052 468.091
1237 0 55.1164 14.1882 782 109.533 727.799 469.399
1238 0 55.16 13.76 759 121.086 729.806 469.078
1239 0 57.2219 13.4214 768 111.26 729.098 468.25
1240 0 61.0788 13.4744 823 109.65 730.145 468.482
1241 0 58.1488 11.5222 670 115.761 730.678 467.558
1242 0 60.1387 11.6231 699 112.937 731.446 471.136
1243 0 62.0479 12.7805 793 113.832 732.705 464.448
1244 0 66.2194 13.8932 920 109.458 731.645 468.524
1245 0 69.3661 13.2918 922 109.894 732.936 469.061
1246 0 69.133 12.136 839 113.215 733.696 462.908
1247 0 71.3072 8.24602 588 117.505 733.585 466.896
1248 0 70.0978 10.4568 733 115.452 734.036 470.823
1249 0 79.2052 13.383 1060 109.308 733.466 468.712
1250 0 79.2617 14.9126 1182 107.657 733.554 467.338
1251 0 80.2602 15.7114 1261 107.601 733.547 462.14
1252 0 84.1689 14.7323 1240 106.311 734.194 470.285
1253 0 83.2508 13.0449 1086 111.553 732.815 462.454
1254 0 93.2431 8.22581 767 116.705 732.7 468.404
1255 0 91.1126 12.8961 1175 110.709 732.481 464.094
1256 0 87.2935 10.7454 938 115.16 732.626 457.112
1257 0 93.2398 8.63365 805 117.95 731.234 461.637
1258 1 51.0491 11.4008 582 111.847 730.603 483.89
1259 0 54.1732 11.7217 635 112.033 730.474 479.368
1260 0 58.117 10.6509 619 113.061 728.711 482.342
1261 0 61.0825 12.0165 734 113.119 727.872 479.602
1262 0 50.0934 11.3787 570 108.94 728.558 468.711
1263 0 57.1576 6.64828 380 114.179 728.15 465.929
1264 0 58.0654 10.2643 596 110.664 727.555 470.659
1265 0 65.157 11.8637 773 110.92 725.131 468.453
1266 0 69.1729 7.30055 505 113.341 725.677 471.388
1267 0 73.253 10.0883 739 110.566 726.004 468.567
1268 0 71.1863 9.55241 680 111.359 726.553 466.809
1269 0 75.1396 12.4036 932 108.069 725.923 464.379
1270 0 74.1886 7.64269 567 118.06 725.205 464.908
1271 0 77.1738 9.18706 709 112.702 725.288 473.278
1272 0 82.2033 12.0555 991 112.104 725.377 458.684
1273 0 86.1824 14.5389 1253 108.32 725.537 456.049
1274 0 89.2765 11.2348 1003 111.416 725.364 459.093
1275 0 89.2765 11.3132 1010 128.664 725.353 459.001
1276 0 90.2125 12.138 1095 113.041 726.217 447.787
1277 0 96.3201 12.3027 1185 111.334 727.455 451.749
1278 0 96.32 12.3339 1188 128.505 728.456 451.72
1279 0 102.378 15.4233 1579 107.56 727.486 443.138
1280 0 106.477 12.0965 1288 110.944 728.401 445.257
1281 0 109.241 17.3836 1899 104.583 729.658 437.819
1282 0 112.506 12.8794 1449 111.793 730.509 441.412
1283 0 116.508 13.7587 1603 110.576 730.866 435.362
1284 1 64.1087 11.8237 758 109.83 731.582 465.484
1285 0 67.1852 12.0265 808 108.204 733.103 460.665
1286 0 66.167 12.0604 798 108.168 735.123 460.919
1287 0 73.1806 13.4188 982 105.483 733.062 459.096
1288 0 74.2135 13.8789 1030 106.366 733.584 459.884
1289 0 78.4001 12.6275 990 109.565 734.154 463.007
1290 0 81.2006 8.65758 703 118.289 733.572 459.329
1291 0 80.1413 13.7133 1099 111.861 734.186 453.623
1292 0 87.2828 15.994 1396 106.891 733.466 457.975
1293 0 91.2961 9.21178 841 115.061 733.502 463.092
1294 0 92.3738 10.4142 962 114.064 733.118 456.546
1295 0 93.2119 10.5459 983 115.325 734.024 455.819
1296 0 95.2883 11.5859 1104 113.638 733.058 456.174
1297 0 87.1951 9.64504 841 117.423 733.501 447.622
1298 0 182.574 9.62895 1758 120.811 733.326 417.836
1299 0 179.417 3.77333 677 130.066 732.809 416.499
1300 1 158.318 11.6601 1846 117.765 732.259 430.879
1301 0 157.246 8.54709 1344 111.93 732.303 442.006
1302 1 65.1755 12.1058 789 110.376 730.607 478.882
1303 0 64.1713 12.825 823 119.981 729.595 478.951
1304 0 68.1637 9.68258 660 112.262 728.48 474.3
1305 0 66.1411 8.55747 566 115.341 728.314 470.684
1306 0 75.1894 15.4277 1160 103.552 727.478 474.226
1307 0 75.1505 15.0498 1131 106.848 727.487 469.594
1308 0 82.2076 12.2981 1011 113.58 726.206 463.212
1309 0 84.1887 11.2129 944 116.788 726.212 459.87
1310 1 46.0479 7.70937 355 114.541 726.287 483.039
1311 0 50.2363 10.4307 524 111.779 725.653 478.33
1312 0 50.0761 11.7222 587 111.571 725.276 474.099
1313 0 53.3681 9.83733 525 112.297 724.105 471.669
1314 0 55.2846 11.2509 622 109.635 723.862 473.314
1315 0 54.2797 13.0988 711 106.693 724.087 467.501
1316 0 56.0948 11.4449 642 109.558 724.724 473.441
1317 0 57.1437 11.9523 683 110.997 724.447 468.451
1318 0 62.0745 14.3698 892 106.489 725.276 465.99
1319 0 61.0745 12.1327 741 110.73 725.011 465.524
1320 0 64.0621 12.9406 829 109.185 725.454 462.557
1321 0 65.0504 11.5141 749 110.857 727.232 464.812
1322 0 68.0936 14.392 980 108.114 726.55 462.038
1323 0 70.055 11.4481 802 118.687 728.118 459.989
1324 0 70.055 11.3339 794 136.043 730.122 459.889
1325 0 73.0843 12.8619 940 115.707 728.667 462.95
1326 0 75.1141 11.9685 899 119.795 730.061 454.19
1327 0 78.0789 12.91 1008 117.865 729.55 457.819
1328 0 80.0689 11.3527 909 120.538 730.451 458.711
1329 0 84.2758 12.7676 1076 117.357 731.36 454.22
1330 0 86.4434 14.5529 1258 113.99 731.588 457.436
1331 0 90.1942 11.8189 1066 117.831 732.538 458.838
1332 0 96.1451 13.1052 1260 115.339 731.641 455.594
1333 1 48.1656 10.2148 492 113.827 733.669 482.738
1334 0 53.0879 13.1292 697 108.067 732.851 478.373
1335 0 53.0644 11.5332 612 112.797 734.642 478.603
1336 0 52.2805 8.4544 442 118.113 734.075 474.672
1337 0 55.1448 11.1887 617 114.987 733.311 476.778
1338 0 55.2412 8.23661 455 119.833 733.908 479.292
1339 0 55.1926 10.3999 574 117.057 733.986 477.127
1340 0 56.3164 7.6887 433 121.233 733.224 480.155
1341 0 56.1964 8.64824 486 119.504 732.979 475.938
1342 0 59.0805 10.2572 606 118.01 730.358 474.12
1343 0 62.1107 7.13243 443 121.573 731.558 477.808
1344 0 66.4151 10.1182 672 117.561 729.748 477.443
1345 0 65.1342 5.94158 387 122.979 730.186 471.757
1346 0 69.1907 9.87127 683 117.044 728.666 471.322
1347 0 72.3155 10.3712 750 116.157 729.124 471.513
1348 0 76.2681 10.922 833 115.134 728.975 472.654
1349 0 80.3271 12.362 993 112.949 727.987 469.521
1350 0 80.1531 8.5711 687 115.956 727.464 475.303
1351 0 75.1806 6.0787 457 124.274 726.891 466.289
1352 0 84.1164 7.70361 648 120.529 726.761 463.366
1353 1 47.078 9.94096 468 113.746 725.425 484.105
1354 0 48.1133 10.0596 484 112.752 725.058 478.917
1355 0 51.2829 12.2068 626 109.296 723.767 477.506
1356 0 51.1739 10.2787 526 111.011 725.559 482.255
1357 0 49.0623 12.0867 593 111.769 726.691 475.523
1358 0 53.1943 12.9901 691 109.825 725.933 474.726
1359 1 101.248 8.24706 835 119.666 726.614 459.443
1360 0 105.46 9.41587 993 118.384 726.364 451.312
1361 0 105.22 6.78576 714 123.412 726.16 449.923
1362 0 110.333 10.0786 1112 120.549 727.807 443.215
1363 0 113.173 11.4338 1294 118.762 727.934 443.951
1364 0 119.355 13.3552 1594 115.89 729.223 437.173
1365 0 122.337 11.4029 1395 118.697 730.15 439.34
1366 0 124.304 10.1204 1258 121.352 730.453 434.211
1367 0 131.599 11.4743 1510 119.106 731.005 433.392
1368 0 137.289 13.4388 1845 115.504 731.147 431.366
1369 0 141.501 11.3498 1606 119.465 731.842 427.921
1370 1 37.0784 10.0598 373 114.718 731.555 476.499
1371 0 40.0295 10.6421 426 113.392 732.106 479.495
1372 0 43.0713 9.96022 429 114.515 731.96 477.522
1373 0 44.0343 11.4456 504 110.631 732.629 477.508
1374 0 41.0876 7.73957 318 115.544 732.84 481.582
1375 0 39.0867 8.36602 327 114.914 734.336 483.541
1376 0 47.0662 9.8797 465 111.604 734.413 482.172
1377 0 45.076 5.19123 234 118.803 734.32 483.154
1378 0 45.3642 7.56104 343 116.7 733.542 481.571
1379 0 48.2345 11.0709 534 110.045 733.818 480.601
1380 0 50.0289 14.5316 727 105.014 732.979 484.549
1381 0 53.1231 11.671 620 109.726 731.958 479.723
1382 0 49.1215 7.04376 346 116.668 730.928 478.153
1383 0 51.0738 8.2234 420 116.033 732.083 482.562
1384 0 53.0264 10.5042 557 112.194 731.795 478.461
1385 0 57.1565 7.20828 412 117.201 731.405 481.097
1386 0 54.0842 6.6378 359 118.499 729.73 483.886
1387 1 125.616 10.0784 1266 119.688 729.418 446.31
1388 1 61.117 9.86632 603 113.129 728.081 476.867
1389 0 64.2123 9.53089 612 114.029 727.925 476.65
1390 0 66.2017 8.08137 535 116.462 727.52 478.445
1391 0 61.0437 3.96437 242 121 726.975 487.198
1392 0 73.2081 10.8185 792 111.514 727.486 473.831
1393 0 72.108 12.1068 873 110.266 727.128 470.27
1394 0 77.1642 10.8988 841 111.885 726.432 471.397
1395 1 39.0714 9.16271 358 117.115 725.587 485.668
1396 0 43.1201 13.358 576 108.976 724.597 481.497
1397 0 42.1204 13.3427 562 111.956 724.653 482.495
1398 0 44.0598 10.7808 475 116.238 723.728 478.267
1399 0 43.1121 12.1776 525 114.581 723.684 478.185
1400 0 48.1353 14.7293 709 109.337 723.533 475.278
1401 0 46.1696 11.0029 508 111.27 724.319 477.986
1402 0 47.0972 11.2746 531 113.002 724.91 476.145
1403 0 47.0857 9.9818 470 114.832 724.894 475.5
1404 0 47.0713 12.8953 607 112.061 725.161 472.904
1405 0 47.0713 12.9591 610 124.252 725.19 472.907
1406 0 51.1392 11.8109 604 112.03 727.031 475.06
1407 0 52.0816 9.0051 469 117.094 727.188 472.667
1408 0 53.0754 15.3555 815 110.425 728.153 470.809
1409 0 55.1827 13.1382 725 112.396 728.301 469.903
1410 0 54.1022 10.9977 595 116.242 729.963 469.968
1411 0 56.1031 10.8015 606 117.525 731.12 468.837
1412 0 59.1215 10.1655 601 118.042 731.003 469.983
1413 0 64.1627 9.38239 602 118.422 731.556 470.035
1414 0 64.0992 11.2638 722 117.165 732.033 467.467
1415 1 130.296 14.398 1876 117.594 733.374 436.657
1416 0 135.483 10.887 1475 122.7 733.94 441.532
1417 0 135.483 10.8353 1468 139.973 733.945 441.589
1418 1 71.1368 11.6536 829 120.908 734.546 462.858
1419 0 73.3286 11.919 874 120.127 734.467 465.254
1420 0 76.104 11.0901 844 122.243 734.276 466.086
1421 0 79.1804 12.1368 961 120.476 733.904 467.288
1422 0 81.3696 12.1544 989 120.797 733.941 466.624
1423 0 83.2441 14.932 1243 117.146 733.582 463.17
1424 0 86.2213 10.4383 900 123.893 733.303 465.072
1425 1 46.0731 13.1964 608 119.298 733.316 483.164
1426 0 48.0764 13.1249 631 117.868 732.906 484.155
1427 0 48.1434 10.9049 525 124.088 732.242 483.627
1428 0 49.2004 11.7885 580 121.736 731.081 485.722
1429 0 48.2138 10.806 521 122.977 731.027 483.392
1430 0 52.0295 8.18766 426 125.862 730.385 486.211
1431 0 50.137 12.047 604 121.417 730.243 481.306
1432 0 48.0669 5.74199 276 131.659 729.315 479.511
1433 0 55.1333 12.098 667 120.171 728.528 476.46
1434 0 56.1502 11.5227 647 121.21 727.38 475.79
1435 0 61.1283 11.7131 716 120.757 727.601 474.722
1436 0 62.4278 12.8308 801 119.363 726.121 475.839
1437 0 64.2115 11.8359 760 121.387 726.518 470.825
1438 0 66.0792 12.5153 827 121.033 726.375 467.988
1439 0 69.1693 12.3899 857 121.161 726.006 468.807
1440 0 71.18 14.0348 999 118.085 726.51 465.674
1441 0 73.0921 15.2274 1113 120.029 725.789 467.854
1442 0 75.1948 15.0542 1132 121.071 725.8 460.918
1443 0 78.2462 13.8154 1081 121.281 726.213 463.826
1444 0 80.1892 13.7425 1102 123.393 726.137 457.918
1445 0 85.2314 17.7399 1512 115.54 726.134 454.872
1446 0 85.2696 12.8885 1099 125.442 726.376 456.366
1447 0 88.1665 14.8696 1311 121.375 727.67 450.9
1448 0 89.1844 16.2697 1451 118.779 727.66 453.818
1449 0 94.2979 17.3811 1639 115.614 728.893 451.597
1450 1 46.0464 11.9879 552 121.207 730.763 471.79
1451 0 48.0697 12.0658 580 121.555 730.147 473.209
1452 0 50.0174 9.75661 488 127.414 731.541 469.75
1453 0 50.0161 9.6369 482 146.098 732.535 469.678
1454 0 57.1673 14.6937 840 120.654 731.705 469.142
1455 0 56.1962 12.7233 715 125.92 731.674 468.625
1456 0 57.3116 11.4462 656 128.116 731.806 467.3
1457 0 61.2344 14.3547 879 120.903 731.91 468.83
1458 0 63.1937 10.9188 690 126.394 734.026 470.332
1459 0 66.4299 15.3395 1019 119.063 733.361 468.319
1460 0 66.4041 12.6046 837 126.29 734.517 463.545
1461 0 68.3523 12.4356 850 123.789 734.556 468.256
1462 0 71.6748 10.157 728 128.214 734.173 466.565
1463 0 73.2012 11.7621 861 126.494 733.61 464.423
1464 0 76.2351 13.0255 993 124.465 733.627 464.978
1465 0 79.2575 14.7494 1169 119.98 733.269 466.189
1466 0 81.3725 12.1294 987 124.026 733.848 467.351
1467 1 44.1503 11.2117 495 118.626 733.287 483.705
1468 0 42.0441 9.34734 393 121.084 733.567 486.491
1469 0 46.19 11.1496 515 117.614 731.782 484.668
1470 0 46.0821 10.1124 466 119.633 732.03 482.715
1471 0 46.0772 7.9866 368 123.736 731.427 487.106
1472 0 46.2301 8.78216 406 124.586 730.566 484.015
1473 0 47.1981 9.0258 426 125.378 729.476 483.967
1474 0 53.1906 13.0286 693 116.906 729.38 480.358
1475 0 54.1224 10.698 579 120.454 729.13 483.029
1476 0 53.2255 8.84915 471 124.27 728.571 480.558
1477 0 55.1334 9.26842 511 124.589 727.992 477.591
1478 0 56.1384 10.8304 608 122.033 727.079 473.186
1479 0 60.1797 10.2526 617 121.856 726.758 474.047
1480 0 62.2894 12.0887 753 119.398 726.651 472.685
1481 0 63.2595 9.87994 625 121.981 725.395 475.246
1482 0 64.0803 9.00433 577 125.612 725.185 469.605
1483 0 68.1506 9.5377 650 125.54 725.525 465.325
1484 0 72.2832 12.2435 885 121.419 725.469 465.388
1485 0 72.1013 10.1801 734 125.187 725.621 461.379
1486 0 76.2234 9.61647 733 125.25 726.078 463.522
1487 0 78.2855 11.8157 925 123.481 726.377 457.165
1488 0 78.2335 9.16487 717 128.084 726.081 456.191
1489 0 85.2954 10.786 920 125.2 726.482 452.742
1490 1 47.0484 12.519 589 120.178 726.754 472.465
1491 0 47.2456 12.6149 596 121.198 727.864 470.883
1492 0 47.0841 9.66356 455 125.815 728.875 473.499
1493 0 48.1613 10.1326 488 124.695 729.238 473.492
1494 0 51.2342 10.3837 532 123.989 729.607 472.583
1495 0 49.5459 12.9173 640 120.642 729.748 470.6
1496 0 55.1153 12.6462 697 120.35 731.191 468.29
1497 0 55.1251 12.4263 685 121.723 730.94 466.801
1498 0 58.1316 12.1793 708 120.942 731.376 468.343
1499 0 57.0538 10.3762 592 125.071 732.605 466.584
1500 0 60.1889 13.225 796 119.038 732.216 466.406
1501 0 63.246 12.9811 821 118.158 733.244 470.459
1502 0 68.1864 11.2486 767 120.415 733.789 469.724
1503 0 66.2312 9.30075 616 124.839 733.765 467.091
1504 0 70.2811 9.74657 685 122.187 733.879 470.765
1505 0 72.3078 11.4096 825 120.515 732.901 467.41
1506 0 74.2484 11.4481 850 121.562 734.732 464.259
1507 1 39.0563 12.0595 471 116.707 733.282 485.614
1508 0 40.027 14.79 592 112.13 733.162 487.12
1509 0 42.1273 12.486 526 114.66 732.278 485.24
1510 0 40.0837 10.9271 438 118.694 732.74 487.194
1511 0 40.0601 10.9835 440 120.998 731.702 486.095
1512 0 42.0324 8.77893 369 123.485 730.808 486.537
1513 0 43.0366 10.2471 441 122.465 731.265 487.336
1514 0 44.0497 6.62888 292 127.127 730.836 487.795
1515 0 47.0403 9.37495 441 122.56 728.848 487.075
1516 0 48.0379 7.49408 360 127.367 728.011 483.869
1517 0 49.1373 10.8471 533 121.895 727.293 486.221
1518 0 49.1373 10.8471 533 115.295 726.287 486.158
1519 0 45.026 5.59677 252 131.179 726.972 489.702
1520 0 53.0899 10.7553 571 124.14 726.911 482.678
1521 0 56.1043 11.5856 650 121.78 726.958 480.103
1522 0 57.0565 10.586 604 124.368 726.281 478.328
1523 0 58.097 10.2071 593 125.519 726.022 475.138
1524 0 62.1216 5.31216 330 130.939 725.533 479.167
1525 0 63.1368 8.39446 530 126.808 724.957 471.566
1526 0 65.1506 12.8625 838 120.21 725.802 471.037
1527 0 69.1691 7.77804 538 129.42 725.944 467.744
1528 0 70.0637 10.9329 766 123.518 725.851 462.556
1529 0 74.0922 9.62314 713 125.053 725.735 464.48
1530 1 42.0502 9.36975 394 121.944 726.832 481.766
1531 0 44.0924 10.7728 475 119.985 725.11 477.598
1532 0 42.0642 10.3413 435 123.255 726.858 474.366
1533 0 45.0211 11.8833 535 121.916 726.604 473.852
1534 0 45.0211 11.8389 533 125.433 726.614 473.818
1535 0 50.0365 10.0527 503 124.495 727.145 471.119
1536 0 48.0557 11.0497 531 121.136 728.266 474.409
1537 0 48.0882 10.5431 507 125.333 729.598 471.773
1538 0 52.1044 11.5729 603 123.108 729.968 471.982
1539 0 54.0232 11.2729 609 123.401 730.254 469.076
1540 1 99.2235 9.52396 945 134.987 730.982 441.742
1541 0 104.444 7.90854 826 137.462 731.569 445.916
1542 0 115.328 10.7173 1236 130.426 731.303 445.537
1543 0 115.463 11.1291 1285 130.608 731.654 441.602
1544 0 116.17 11.8103 1372 130.815 732.009 439.29
1545 0 121.258 12.3044 1492 130.014 732.399 436.446
1546 0 125.316 11.9298 1495 130.328 732.67 435.304
1547 1 68.0598 11.8425 806 124.172 732.775 466.675
1548 0 70.0996 12.4965 876 123.037 733.509 466.277
1549 0 74.2165 10.7928 801 125.149 732.547 468.114
1550 0 76.1081 11.0895 844 126.209 732.718 465.181
1551 1 44.0806 9.61875 424 124.281 732.292 483.842
1552 0 44.0329 9.49289 418 126.01 732.356 484.148
1553 0 46.0918 11.8893 548 122.863 733.078 484.801
1554 0 48.1195 13.2587 638 120.431 733.128 485.176
1555 0 48.2093 11.5953 559 125.22 731.952 481.603
1556 0 53.08 9.66466 513 127.515 731.924 484.665
1557 0 52.1451 12.1967 636 124.247 730.821 481.835
1558 0 54.0878 12.757 690 122.435 730.006 483.178
1559 0 53.0811 11.6991 621 124.821 729.57 480.955
1560 0 54.1466 9.64049 522 129.425 728.439 479.366
1561 0 59.0907 11.0508 653 126.551 728.397 477.086
1562 0 59.1367 11.3804 673 125.756 727.284 478.293
1563 0 60.1139 12.443 748 124.945 728.142 475.563
1564 0 62.2176 11.7812 733 125.13 727.603 473.966
1565 0 64.1277 10.5727 678 126.97 726.566 474.901
1566 0 67.046 13.8711 930 120.401 726.394 470.71
1567 0 70.1279 11.3222 794 124.809 726.827 470.102
1568 0 70.1905 11.2123 787 126.114 725.898 468.722
1569 0 73.1438 15.7771 1154 118.023 726.341 467.206
1570 0 71.2152 11.5986 826 124.828 725.27 467.913
1571 1 37.0124 9.99666 370 122.943 725.414 478.886
1572 0 42.0394 14.3913 605 110.803 725.755 483.121
1573 0 39.0519 9.73065 380 123.276 726.492 478.211
1574 0 43.0796 9.33156 402 121.816 726.358 478.124
1575 0 45.0479 11.5655 521 119.013 726.988 475.392
1576 0 46.1016 11.6482 537 116.333 726.587 470.156
1577 0 47.2758 12.7549 603 112.66 727.355 473.045
1578 0 48.0486 13.4239 645 111.253 727.22 473.566
1579 0 51.0275 12.8166 654 113.39 728.255 469.694
1580 0 51.0805 15.4266 788 109.398 729.476 469.843
1581 0 54.0617 14.2245 769 110.477 729.886 468.524
1582 0 57.2151 12.4443 712 119.635 730.177 469.503
1583 0 58.1874 11.3427 660 121.898 730.68 469.27
1584 0 59.1332 13.2751 785 119.043 731.704 468.307
1585 0 61.0731 12.6242 771 119.968 731.748 470.597
1586 0 62.151 12.888 801 120.312 732.298 468.119
1587 0 64.1802 14.2723 916 117.291 731.807 468.452
1588 0 67.2768 13.5559 912 119.596 732.694 463.73
1589 0 69.1329 13.0618 903 120.509 732.646 465.078
1590 0 71.1416 15.0264 1069 117.488 732.384 465.093
1591 0 72.2238 13.4582 972 121.408 732.913 464.799
1592 0 73.3897 11.4049 837 124.726 732.977 463.891
1593 0 77.1418 12.678 978 122.411 732.31 464.455
1594 0 78.2335 12.2837 961 122.944 733.192 463.114
1595 0 78.1744 11.8325 925 124.712 732.579 464.601
1596 0 83.3428 13.6184 1135 121.369 730.699 463.51
1597 0 86.1895 13.5283 1166 121.901 730.534 461.794
1598 0 87.3326 10.5573 922 128.203 730.53 463.448
1599 0 92.3242 14.5141 1340 120.199 730.648 462.581
1600 0 94.44 12.41 1172 124.699 730.862 452.627
1601 1 52.0987 10.9408 570 121.437 728.423 482.809
1602 0 54.0887 12.9787 702 116.912 729.054 480.952
1603 0 53.1075 8.62402 458 125.845 727.456 480.09
1604 0 60.0931 13.3127 800 114.552 727.234 479.416
1605 0 61.0992 12.1278 741 117.753 726.645 475.005
1606 0 61.1068 10.588 647 121.236 725.247 471.798
1607 0 66.3634 12.522 831 117.875 726.959 474.572
1608 0 68.0728 11.282 768 121.647 726.658 469.751
1609 0 70.0784 11.1161 779 122.475 726.317 465.777
1610 0 75.248 16.1067 1212 111.625 726.081 468.853
1611 0 74.1479 13.4596 998 118.616 725.909 462.194
1612 0 76.1418 13.5274 1030 117.118 725.476 458.613
1613 0 80.1375 12.4286 996 119.099 724.701 462.97
1614 0 82.4117 14.561 1200 116.19 725.282 457.667
1615 0 84.3504 12.5666 1060 120.077 723.138 453.54
1616 0 84.3504 12.5311 1057 128.934 722.152 453.461
1617 0 91.4335 12.6321 1155 119.65 725.488 448.287
1618 0 96.1513 14.3836 1383 111.469 725.035 449.362
1619 0 97.2092 15.9347 1549 109.655 724.976 442.667
1620 0 103.306 12.4195 1283 114.193 726.444 440.345
1621 1 53.1692 13.899 739 108.36 727.06 467.146
1622 0 53.1213 14.2316 756 109.511 727.107 463.39
1623 0 55.124 12.4447 686 111.484 727.184 461.128
1624 0 57.0566 12.1283 692 111.285 729.438 465.668
1625 0 60.111 13.0259 783 109.179 731.038 461.129
1626 0 63.2023 12.8318 811 109.195 730.419 461.222
1627 0 60.133 14.7839 889 107.883 731.483 463.975
1628 0 63.1448 9.21692 582 115.4 732.419 466.34
1629 0 65.1746 9.37481 611 115.265 732.794 461.21
1630 0 69.1166 7.8997 546 115.778 732.996 464.696
1631 0 70.1979 9.98605 701 113.161 733.207 462.285
1632 0 73.1596 12.6573 926 108.481 733.724 463.739
1633 0 78.385 13.893 1089 104.601 733.378 466.447
1634 0 81.233 11.4362 929 109.895 735.057 458.445
1635 0 82.1001 11.6809 959 108.548 733.591 465.985
1636 1 170.702 9.13875 1560 122.978 733.304 415.188
1637 1 88.3159 11.5947 1024 111.334 732.287 462.099
1638 0 94.244 11.8947 1121 111.36 733.008 457.579
1639 0 95.2631 10.9591 1044 112.165 732.534 459.311
1640 1 52.1479 11.5249 601 111.01 732.258 475.902
1641 0 53.1855 13.1991 702 107.491 731.658 477.496
1642 0 52.1658 10.7733 562 110.79 730.687 477.927
1643 0 55.1332 10.8102 596 110.346 730.044 476.678
1644 0 55.1332 10.8465 598 116.607 730.044 476.681
1645 0 53.1204 9.67613 514 113.018 728.218 477.63
1646 0 54.1998 9.94468 539 112.883 728.024 479.781
1647 0 60.3106 8.90391 537 113.391 727.89 478.75
1648 0 61.14 9.84626 602 109.947 727.302 480.201
1649 0 64.2352 11.7692 756 107.63 727.022 478.306
1650 0 68.121 12.2723 836 107.519 725.324 470.689
1651 0 70.2858 12.3923 871 107.106 725.677 468.746
1652 0 71.3542 8.89926 635 113.723 726.471 471.104
1653 0 73.1806 8.3492 611 113.29 725.151 465.923
1654 0 76.2258 11.256 858 109 723.51 468.717
1655 0 78.238 11.1071 869 110.471 724.243 458.364
1656 0 83.2677 12.742 1061 108.543 723.393 458.728
1657 0 86.1963 9.7452 840 111.176 723.573 459.482
1658 0 90.274 10.2023 921 110.384 723.861 457.515
1659 1 51.227 12.1616 623 107.44 724.82 474.856
1660 0 52.2188 10.4369 545 109.761 725.022 468.327
1661 0 51.0478 15.985 816 104.882 726.355 467.039
1662 0 52.0343 11.6462 606 109.243 726.307 470.906
1663 0 56.133 13.7887 774 105.191 727.136 468.176
1664 0 58.1608 11.8981 692 107.756 725.408 466.723
1665 0 58.1054 13.6304 792 106.333 727.58 465.966
1666 0 59.049 9.68688 572 111.28 728.837 468.101
1667 0 65.1476 13.5385 882 105.586 729.357 463.543
1668 0 64.224 14.4027 925 104.594 728.81 461.987
1669 0 67.2081 16.4415 1105 101.835 730.17 461.424
1670 0 67.2332 16.3312 1098 102.553 731.163 461.197
1671 0 67.2932 10.432 702 114.87 730.842 463.664
1672 0 72.3192 11.5599 836 113.187 730.652 461.736
1673 0 73.2114 10.6268 778 112.815 733.041 465.519
1674 0 78.1859 14.683 1148 105.432 732.779 458.72
1675 1 39.0238 11.4802 448 108.234 733.926 480.056
1676 0 40.0506 13.483 540 104.789 733.506 479.554
1677 0 39.0563 8.8078 344 113.148 732.381 480.262
1678 0 42.0923 8.50512 358 114.388 733.383 480.452
1679 0 44.1786 13.3775 591 108.574 731.81 477.024
1680 0 46.1736 13.6658 631 106.545 731.735 479.707
1681 0 49.572 11.4177 566 108.265 731.376 483.988
1682 0 49.1378 13.0857 643 107.703 731.26 483.03
1683 0 51.1954 10.1962 522 112.475 730.661 479.776
1684 0 52.22 11.0494 577 111.191 730.792 481.289
1685 0 51.0485 8.59966 439 113.815 729.474 485.084
1686 0 54.0633 10.0253 542 112.518 728.052 478.683
1687 0 58.126 13.574 789 106.696 727.578 479.356
1688 0 57.2156 13.1782 754 107.336 727.52 480.926
1689 0 56.1249 10.1381 569 113.476 726.401 476.1
1690 0 61.1362 9.94501 608 112.421 726.316 474.646
1691 0 64.1366 9.68246 621 110.915 725.57 477.7
1692 0 65.242 14.2086 927 105.779 724.462 472.653
1693 0 68.48 11.0981 760 110.025 723.946 469.288
1694 0 69.1696 14.7174 1018 105.724 723.674 468.978
1695 0 73.1779 11.4652 839 110.013 723.553 469.899
1696 0 74.3155 11.209 833 111.511 723.475 467.581
1697 1 38.099 10.7352 409 111.467 722.721 481.873
1698 0 41.0527 11.7166 481 109.283 722.944 478.873
1699 0 45.1177 11.8579 535 107.32 723.376 481.955
1700 0 46.1476 13.3485 616 104.617 724.263 478.083
1701 0 47.0732 12.3 579 108.097 725.541 476.299
1702 0 48.3174 17.2195 832 101.633 724.927 470.887
1703 0 51.2582 14.1441 725 106.59 725.847 471.586
1704 0 51.1449 15.2899 782 105.738 724.602 471.687
1705 0 51.1378 12.5543 642 110.508 727.114 469.85
1706 0 53.1655 14.1633 753 108.147 727.445 470.244
1707 0 54.1491 11.7823 638 111.655 728.415 468.114
1708 0 56.1035 12.4413 698 114.798 729.424 464.527
1709 0 60.0396 13.8742 833 112.497 730.493 463.947
1710 0 62.074 12.4045 770 114.375 730.391 464.901
1711 0 60.1648 10.5876 637 118.157 731.316 465.617
1712 0 63.0846 13.6483 861 113.83 731.784 461.214
1713 0 67.2098 11.2186 754 115.862 731.743 458.511
1714 0 68.1206 13.9165 948 112.692 732.308 462.415
1715 0 70.1058 12.8377 900 114.241 732.614 463.081
1716 0 75.1138 14.0587 1056 110.448 733.749 465.426
1717 0 75.1138 14.0853 1058 126.004 734.726 465.285
1718 0 77.1754 11.5322 890 114.745 732.042 463.711
1719 0 78.2599 10.2351 801 117.95 733.215 459.561
1720 0 83.266 15.0361 1252 111.547 733.855 459.376
1721 0 88.4326 14.3725 1271 111.16 733.145 460.227
1722 0 90.3979 12.7879 1156 114.406 732.502 460.797
1723 1 50.3211 13.6722 688 106.817 732.911 486.27
1724 0 49.2012 11.9509 588 109.874 731.235 477.777
1725 0 50.0941 10.3206 517 112.725 730.778 479.224
1726 0 54.4123 11.468 624 110.968 731.319 459.423
1727 0 53.2121 11.3884 606 111.909 730.454 469.896
1728 0 55.2624 13.7707 761 106.863 729.565 480.694
1729 0 55.2908 11.2496 622 112.006 729.344 476.429
1730 0 58.3092 10.9417 638 111.934 726.034 476.4
1731 0 60.2096 9.30084 560 113.602 726.918 477.393
1732 0 59.3972 8.73778 519 113.95 726.802 476.665
1733 0 67.3115 15.5248 1045 104.351 727.09 469.078
1734 0 67.2707 13.8396 931 110.092 725.545 475.967
1735 0 67.1121 10.9369 734 115 726.04 472.392
1736 0 71.3712 13.5349 966 107.461 724.233 469.738
1737 0 73.199 15.3281 1122 106.277 724.366 468.111
1738 0 75.1536 13.4125 1008 110.628 724.296 462.995
1739 0 79.3396 13.1208 1041 108.762 723.871 469.203
1740 0 77.3482 11.2091 867 114.63 724.341 459.481
1741 0 82.1548 13.0729 1074 111.534 723.905 461.099
1742 0 84.1994 11.5797 975 115.27 723.553 466.322
1743 1 45.0767 11.0478 498 114.829 723.737 477.307
1744 0 48.1829 11.5601 557 112.068 724.332 465.474
1745 0 51.0912 10.6281 543 114.886 723.818 473.155
1746 0 52.237 16.1571 844 107.011 724.363 470.262
1747 0 57.374 14.9545 858 106.714 723.721 463.803
1748 0 66.2553 17.5986 1166 98.416 725.55 457.624
1749 0 62.3196 14.217 886 107.733 725.764 467.403
1750 0 57.2076 11.8341 677 116.069 726.053 463.502
1751 0 62.2925 12.8266 799 113.886 726.949 462.121
1752 0 65.1378 14.8147 965 110.748 727.655 463.048
1753 0 66.3097 12.2003 809 114.881 727.65 460.773
1754 0 68.3038 15.3725 1050 109.505 728.762 461.805
1755 0 72.3445 13.3804 968 112.871 729.305 458.777
1756 0 72.3445 13.3804 968 133.567 729.305 458.777
1757 0 75.2822 15.4884 1166 109.41 729.467 460.71
1758 0 79.3443 13.7376 1090 112.354 729.637 462.278
1759 0 84.276 14.7373 1242 109.722 731.566 460.538
1760 0 86.4169 15.0549 1301 110.427 732.172 459.889
1761 0 91.2746 18.7128 1708 103.858 732.463 454.666
1762 0 89.1423 13.5962 1212 113.491 731.389 459.278
1763 0 92.314 14.0282 1295 113.303 731.737 456.963
1764 0 96.1949 12.9841 1249 115.554 731.709 456.705
1765 1 53.2345 11.9096 634 110.669 732.852 482.279
1766 0 56.1195 11.333 636 113.844 732.748 478.953
1767 0 58.0811 14.7724 858 108.338 731.85 481.592
1768 0 58.0835 11.1219 646 116.721 732.54 479.028
1769 0 62.2048 14.9988 933 110.211 730.612 477.503
1770 0 63.3546 15.8473 1004 108.822 729.112 477.834
1771 0 62.3036 12.1181 755 115.768 728.836 475.876
1772 0 66.2 12.4471 824 113.834 727.24 477.624
1773 0 67.2475 15.6883 1055 109.158 727.63 472.866
1774 0 69.4175 12.5473 871 112.529 726.293 477.228
1775 0 71.2305 13.3651 952 112.326 725.829 473.515
1776 0 79.3559 13.8868 1102 109.186 724.907 473.572
1777 0 74.2324 11.8008 876 115.143 724.139 467.58
1778 0 81.3221 15.2849 1243 109.047 724.083 465.507
1779 0 81.2557 13.3529 1085 112.413 724.098 464.974
1780 0 84.3499 12.8038 1080 114.183 723.86 462.536
1781 0 88.528 16.4694 1458 107.608 724.244 461.931
1782 0 90.6052 13.178 1194 111.961 724.168 460.162
1783 0 92.349 13.319 1230 112.751 724.161 458.377
1784 1 47.4584 8.892 422 115.685 723.31 477.744
1785 0 50.4033 13.3523 673 107.823 723.306 475.939
1786 0 55.0712 11.585 638 106.017 725.423 477.429
1787 0 52.0757 13.1539 685 105.012 723.943 472.455
1788 0 54.3058 12.1166 658 106.032 726.264 470.061
1789 0 61.2149 16.5319 1012 97.8083 726.367 472.159
1790 0 58.0918 11.7056 680 106.506 725.957 466.329
1791 0 60.0794 11.5514 694 106.434 726.994 464.065
1792 0 65.165 17.8623 1164 97.4957 727.123 465.503
1793 0 63.1823 10.1136 639 109.188 728.072 462.432
1794 0 68.1699 13.9211 949 102.808 728.318 464.272
1795 0 73.3781 12.129 890 104.231 729.48 463.418
1796 0 72.0699 12.8209 924 104.228 728.856 459.34
1797 0 72.4559 10.848 786 108.436 730.057 458.501
1798 0 77.2994 13.8552 1071 104.023 729.852 456.985
1799 0 76.2635 10.4899 800 109.422 730.294 454.85
1800 0 80.5148 12.8175 1032 105.896 730.833 456.159
1801 0 83.2874 12.4268 1035 106.637 730.881 456.645
1802 0 88.3794 11.6769 1032 106.116 731.833 459.955
1803 0 86.3378 9.98404 862 110.747 731.906 456.68
1804 0 88.2841 10.5228 929 110.13 731.522 455.478
1805 1 48.0897 10.2933 495 109.406 733.141 476.853
1806 0 52.1 13.263 691 103.994 732.745 479.003
1807 0 50.3195 12.6194 635 105.669 732.888 473.699
1808 0 53.1276 12.0276 639 104.897 732.831 476.966
1809 0 52.1418 10.6249 554 107.718 731.619 473.193
1810 0 55.0714 11.131 613 106.574 731.465 474.065
1811 0 57.0882 11.8939 679 105.683 731.352 475.2
1812 0 61.1613 11.5596 707 105.591 731.375 474.539
1813 0 63.1144 13.024 822 103.911 731.061 475.223
1814 0 64.0611 12.41 795 104.595 730.634 477.328
1815 0 67.0762 10.5552 708 105.811 729.451 477.565
1816 0 65.1671 8.36311 545 112.108 728.978 472.103
1817 0 72.2404 11.1295 804 107.228 727.554 472.185
1818 0 76.2235 12.8307 978 105.069 728.03 469.881
1819 0 79.1444 13.8102 1093 103.778 727.033 464.35
1820 0 78.2387 9.91836 776 109.722 726.772 466.857
1821 0 85.1841 14.3337 1221 100.927 726.511 472.961
1822 0 87.283 12.4308 1085 106.459 723.691 464.36
1823 0 91.2822 20.1573 1840 96.4462 723.42 461.958
1824 1 50.029 13.0524 653 102.487 722.329 484.943
1825 0 48.0923 11.2076 539 104.212 722.514 485.711
1826 0 52.0314 11.8967 619 105.549 721.619 479.8
1827 0 52.1226 13.0462 680 105.143 720.974 475.81
1828 0 55.0472 14.751 812 101.289 721.346 474.534
1829 0 54.0571 10.4334 564 108.246 722.544 473.321
1830 0 55.1247 10.9751 605 108.617 721.945 468.759
1831 0 59.1759 11.9136 705 106.713 721.165 472.569
1832 0 58.096 12.9097 750 106.472 722.596 469.283
1833 0 62.1707 12.337 767 107.335 722.641 466.434
1834 0 64.0955 12.3722 793 107.947 722.998 464.53
1835 0 63.0904 9.93812 627 111.388 723.71 461.566
1836 0 68.0816 11.1484 759 109.324 723.184 462.011
1837 0 71.1443 11.315 805 110.103 725.246 458.843
1838 0 75.1221 14.6295 1099 104.668 725.552 460.321
1839 0 74.1666 12.5528 931 108.11 726.867 460.027
1840 0 77.0738 11.9366 920 107.168 726.323 463.991
1841 0 77.0874 13.6079 1049 108.991 727.343 453.691
1842 0 77.0874 13.5301 1043 123.467 727.354 453.758
1843 0 87.216 16.4075 1431 104.03 728.37 450.621
1844 0 90.2411 11.4139 1030 110.238 728.968 456.863
1845 0 92.1155 13.8196 1273 108.249 729.753 455.87
1846 1 46.0919 10.7611 496 113.232 728.681 472.508
1847 0 48.0736 10.796 519 113.197 730.035 474.397
1848 0 50.1302 11.7295 588 111.682 729.192 469.964
1849 0 61.1621 7.3575 450 112.562 729.509 474.707
1850 0 54.0407 12.9902 702 106.993 729.722 462.964
1851 0 55.1307 12.425 685 109.647 729.625 464.956
1852 0 57.0807 10.8092 617 110.934 729.112 468.737
1853 0 58.122 12.078 702 111.557 727.528 467.603
1854 0 61.1372 15.1299 925 104.797 727.675 474.412
1855 0 59.1064 10.9125 645 114.485 727.566 468.685
1856 0 61.0285 11.0113 672 114.496 726.991 467.216
1857 0 65.1789 10.3714 676 115.092 727.086 470.738
1858 0 68.0502 13.4607 916 110.414 726.261 467.912
1859 0 71.1403 14.2957 1017 109.168 725.507 470.532
1860 0 73.0855 11.9586 874 113.675 725.483 466.768
1861 0 73.2185 12.1691 891 114.185 724.43 460.675
1862 0 83.1658 13.8759 1154 109.52 724.6 462.607
1863 0 87.3202 22.9042 2000 94.591 723.604 452.905
1864 0 85.4846 12.9263 1105 108.932 723.591 457.797
1865 0 88.4354 14.0668 1244 107.588 724.01 457.015
1866 0 88.211 12.9236 1140 111.122 723.926 454.171
1867 0 91.6465 11.1297 1020 111.633 723.987 458.773
1868 0 90.5171 9.30211 842 116.164 723.224 453.64
1869 0 93.1398 12.4651 1161 114.692 722.41 453.23
1870 0 97.1922 13.3756 1300 114.636 722.059 461.858
1871 0 99.1396 11.5796 1148 119.969 722.369 454.055
1872 0 106.349 18.4957 1967 106.023 721.987 456.547
1873 0 106.163 11.8121 1254 118.759 722.715 449.701
1874 0 110.255 13.5957 1499 115.742 722.74 443.795
1875 1 61.1054 12.2248 747 115.526 721.799 467.699
1876 0 65.1619 13.9038 906 112.31 723.014 465.012
1877 0 66.0976 14.5845 964 110.235 723.571 465.295
1878 0 69.1453 15.0552 1041 110.41 723.477 459.197
1879 0 74.8524 14.041 1051 108.503 723.555 464.815
1880 0 73.1622 11.6044 849 116.973 724.06 457.393
1881 0 77.1147 12.9547 999 112.805 725.409 460.215
1882 0 80.2507 14.6665 1177 110.992 725.582 456.404
1883 0 79.1138 12.6527 1001 116.019 726.476 456.676
1884 0 79.1279 12.7389 1008 136.288 726.476 456.665
1885 0 86.3062 12.8844 1112 116.563 727.582 453.261
1886 0 88.195 11.7921 1040 118.171 728.08 454.374
1887 0 91.2534 14.4871 1322 114.489 728.11 448.034
1888 1 48.1405 9.20223 443 120.174 728.657 469.698
1889 0 50.1316 12.0882 606 114.274 728.858 473.677
1890 0 49.0625 10.9452 537 118.752 729.236 471.223
1891 0 52.0701 13.2322 689 113.405 731.938 465.028
1892 0 54.0842 11.8149 639 116.678 733.23 460.391
1893 0 57.1048 14.6398 836 111.58 733.2 469.506
1894 0 54.0855 12.6097 682 119.152 732.826 465.12
1895 0 58.1896 16.6009 966 109.39 731.918 471.278
1896 0 58.0945 13.0821 760 114.387 731.562 473.201
1897 0 62.0196 11.6576 723 119.418 731.144 469.645
1898 0 64.0732 15.2482 977 114.138 731.329 467.559
1899 0 65.1693 14.0557 916 113.655 729.457 471.064
1900 0 68.2414 12.7049 867 116.922 728.843 470.469
1901 0 70.2836 14.598 1026 114.241 728.206 470.333
1902 0 72.2803 14.6236 1057 114.014 727.466 465.401
1903 0 75.2151 12.5374 943 117.819 727.053 469.759
1904 0 78.2609 14.5667 1140 115.461 726.225 464.702
1905 0 79.3184 11.4601 909 121.879 726.04 462.979
1906 0 83.4129 14.2784 1191 117.917 725.223 458.886
1907 0 84.461 14.8234 1252 117.486 724.054 460.561
1908 0 87.444 14.4778 1266 118.535 722.893 450.07
1909 0 88.375 13.2617 1172 121.074 722.501 451.007
1910 1 47.1467 7.25395 342 121.386 722.187 473.398
1911 0 49.4219 8.84224 437 118.046 723.531 473.519
1912 0 52.2268 12.216 638 112.685 723.227 470.163
1913 0 54.1532 11.8922 644 112.373 724.236 474.093
1914 0 64.5644 14.5746 941 108.199 724.896 468.282
1915 0 58.0956 14.2696 829 110.154 723.904 462.918
1916 0 58.0925 13.0998 761 112.937 723.494 462.41
1917 0 60.0857 11.8497 712 112.511 723.833 466.639
1918 0 62.1787 14.5709 906 109.469 723.306 463.029
1919 0 61.2434 12.4911 765 114.303 724.448 460.952
1920 0 64.1618 12.8114 822 117.195 724.135 465.656
1921 0 65.0679 13.0172 847 116.307 724.504 469.688
1922 0 67.1855 14.646 984 114.368 725.334 465.135
1923 0 69.1322 11.9481 826 118.041 726.657 466.156
1924 0 73.2072 13.0861 958 116.284 726.434 460.859
1925 0 77.2056 12.5898 972 116.123 727.378 462.025
1926 0 75.1695 13.729 1032 114.965 728.065 460.018
1927 0 80.2917 12.9403 1039 115.295 728.684 457.261
1928 0 80.1729 11.1758 896 116.321 728.991 453.8
1929 0 87.1907 13.3042 1160 111.922 729.526 449.603
1930 0 92.1579 10.8726 1002 114.575 729.679 455.486
1931 0 90.2672 13.172 1189 113.627 730.2 451.304
1932 0 92.306 13.5636 1252 138.683 729.154 452.212
1933 0 101.349 16.4481 1667 106.485 730.53 452.916
1934 0 101.28 12.7863 1295 114.966 730.605 449.951
1935 1 53.2025 12.1611 647 114.499 732.025 480.524
1936 0 53.0989 12.2413 650 117.942 732.382 475.494
1937 0 54.1754 12.9394 701 119.086 731.586 472.449
1938 0 58.0973 12.5479 729 119.77 731.768 476.557
1939 0 58.0973 12.4791 725 136.777 730.779 476.545
1940 0 63.0704 14.6027 921 114.678 730.714 478.352
1941 0 62.1123 12.7833 794 119.781 730.296 478.066
1942 0 66.2761 13.5192 896 118.872 728.981 473.66
1943 0 68.3158 14.228 972 117.689 727.525 473.079
1944 0 70.398 12.6992 894 120.094 726.233 473.377
1945 0 72.3138 16.4422 1189 114.26 726.865 471.092
1946 0 74.2533 12.2553 910 121.915 725.958 470.007
1947 0 78.2935 12.0572 944 122.602 726.257 462.531
1948 0 79.2351 12.5449 994 121.523 724.258 462.907
1949 0 83.2014 16.9348 1409 112.137 723.913 466.812
1950 0 86.3016 15.5849 1345 116.142 723.77 462.914
1951 0 86.39 12.2584 1059 121.978 722.907 460.234
1952 0 92.2274 14.9196 1376 117.198 722.334 460.159
1953 0 94.2292 14.0402 1323 118.883 722.884 457.846
1954 0 96.1331 12.3371 1186 122.708 722.619 456.968
1955 0 99.1865 15.1029 1498 117.829 722.347 456.469
1956 0 100.168 12.479 1250 116.77 723.617 457.18
1957 0 106.254 14.3901 1529 111.356 724.024 458.889
1958 0 105.224 14.2267 1497 112.815 723.273 452.191
1959 0 108.31 14.7817 1601 112.094 723.515 447.197
1960 0 113.16 17.2941 1957 108.06 723.549 442.289
1961 0 115.143 14.6166 1683 113.07 723.699 441.935
1962 1 66.2089 9.83251 651 121.014 723.954 467.359
1963 0 68.2337 12.3399 842 117.553 723.684 463.055
1964 0 70.3574 13.5736 955 112.266 723.971 458.484
1965 0 69.2051 15.3746 1064 105.307 724.147 456.642
1966 0 76.4427 12.8331 981 108.461 725.522 455.279
1967 0 76.439 12.3759 946 110.325 726.365 453.976
1968 0 79.2183 9.07619 719 115.147 727.305 452.288
1969 0 81.1977 10.7023 869 113.945 727.344 448.146
1970 0 85.3106 11.3351 967 112.9 728.211 446.14
1971 0 93.3526 13.1223 1225 108.381 729.318 446.96
1972 0 95.2546 15.2014 1448 107.081 728.896 449.162
1973 0 96.5977 12.6401 1221 111.255 730.083 445.898
1974 0 100.476 12.9981 1306 110.881 730.166 447.989
1975 0 108.438 16.5071 1790 103.449 730.612 435.306
1976 1 55.4861 10.9397 607 111.512 729.857 470.033
1977 0 57.2738 12.9379 741 109.645 729.677 471.483
1978 0 58.1499 12.6397 735 112.646 729.786 470.996
1979 0 60.1948 12.9081 777 111.994 730.014 474.009
1980 0 61.0998 13.2897 812 112.278 729.276 471.925
1981 0 63.2557 14.3386 907 110.94 728.721 470.822
1982 0 65.2604 11.7682 768 116.116 728.494 471.789
1983 0 68.1984 15.4109 1051 110.491 728.172 472.101
1984 0 69.2207 12.7852 885 116.199 727.04 469.459
1985 0 74.151 14.3086 1061 110.301 727.386 476.388
1986 0 72.0855 13.8447 998 114.914 726.12 471.797
1987 0 74.1389 13.2724 984 116.941 725.194 470.505
1988 0 80.1303 15.35 1230 111.69 723.259 468.342
1989 0 79.1344 12.6494 1001 117.968 724.61 466.666
1990 0 87.2424 15.0042 1309 111.222 723.755 467.3
1991 0 84.0903 11.9158 1002 119.631 723.208 460.822
1992 0 88.0935 14.1895 1250 113.906 723.898 463.749
1993 0 96.2771 17.7093 1705 108.171 723.459 452.739
1994 0 96.2771 17.7197 1706 132.438 723.481 452.859
1995 0 96.2016 13.1079 1261 115.906 722.856 447.289
1996 0 102.271 17.219 1761 107.458 721.624 448.153
1997 1 61.2338 8.45937 518 116.506 723.039 468.369
1998 0 61.0506 9.0253 551 115.151 721.918 467.495
1999 0 64.1366 11.4755 736 110.792 723.034 466.043
2000 0 66.2293 10.9317 724 109.762 722.784 466.865
2001 0 71.3194 10.6843 762 108.581 723.465 465.084
2002 0 70.1976 13.4762 946 105.627 723.045 462.017
2003 0 76.2156 13.16 1003 105.023 724.164 461.275
2004 0 76.2819 13.3321 1017 105.524 724.128 458.749
2005 0 81.2668 15.3937 1251 102.153 725.244 449.962
2006 0 81.1925 14.1146 1146 105.049 725.893 450.405
2007 0 86.1705 12.1735 1049 107.198 726.038 452.319
2008 0 87.2462 11.9776 1045 107.973 726.31 446.622
2009 0 90.1562 10.8368 977 109.434 725.986 449.38
2010 0 94.2236 14.8901 1403 104.309 726.85 445.186
2011 0 98.1731 12.8548 1262 107.362 728.025 439.319
2012 0 95.1412 9.09175 865 116.495 729.869 441.615
2013 0 104.275 12.6013 1314 106.96 728.534 443.737
2014 0 107.145 11.7598 1260 109.031 728.113 437.015
2015 0 113.222 14.1404 1601 104.484 729.633 439.523
2016 0 115.155 12.7827 1472 105.883 730.01 435.556
2017 0 122.246 12.4994 1528 105.24 730.267 436.963
2018 1 65.0893 12.3676 805 100.519 730.047 466.504
2019 0 65.1603 10.7274 699 108.222 730.582 460.821
2020 0 66.2916 6.86361 455 110.138 730.413 466.694
2021 0 70.1884 11.6543 818 109.032 728.513 467.637
2022 0 69.2042 10.5918 733 110.697 729.304 466.864
2023 0 76.1636 15.3485 1169 102.51 729.618 468.733
2024 0 76.2712 11.5247 879 108.122 729.426 466.094
2025 0 78.1344 14.0911 1101 103.818 728.466 468.595
2026 1 89.2229 20.813 1857 92.8444 728.146 463.889
2027 0 94.2691 16.7287 1577 97.2999 728.769 456.179
2028 0 90.2163 10.109 912 107.712 728.216 464.359
2029 0 94.2183 12.5347 1181 105.012 727.876 464.577
2030 0 96.297 11.6411 1121 105.925 728.158 460.268
2031 0 100.402 10.0696 1011 108.457 726.948 458.207
2032 0 104.243 9.81359 1023 108.599 725.792 461.357
2033 1 59.1723 13.6719 809 102.085 724.637 475.697
2034 0 63.1324 14.3191 904 104.759 723.362 477.358
2035 0 64.2882 11.044 710 111.244 723.138 471.082
2036 0 65.2266 10.2566 669 112.233 722.659 472.732
2037 0 70.3676 14.879 1047 105.03 722.311 469.172
2038 0 69.3343 13.0094 902 108.631 722.498 468.489
2039 0 72.3934 13.4266 972 107.738 722.171 468.908
2040 0 71.4165 11.2579 804 112.97 722.315 462.679
2041 0 75.4284 13.8277 1043 107.948 721.31 460.526
2042 0 78.6486 13.2742 1044 109.172 722.254 461.37
2043 0 80.3807 13.8342 1112 109.016 722.014 456.626
2044 0 82.3618 16.6461 1371 105.052 721.805 457.818
2045 0 84.5428 15.5897 1318 106.376 722.79 451.41
2046 0 88.4244 11.9537 1057 111.444 723.703 458.575
2047 0 89.5724 12.1243 1086 112.852 724.117 452.467
2048 0 91.5546 12.9103 1182 112.85 725.827 441.566
2049 0 94.6887 14.9648 1417 110.5 725.479 435.602
2050 1 51.4561 10.9997 566 109.687 727.141 463.231
2051 0 52.3519 11.3654 595 108.741 727.77 465.541
2052 0 54.2586 10.6158 576 110.649 729.184 455.387
2053 0 55.1621 13.977 771 107.516 729.045 451.711
2054 0 56.0812 12.2323 686 109.36 730.092 453.784
2055 0 58.2007 12.7318 741 109.931 729.46 449.259
2056 0 60.1426 14.2162 855 105.977 730.8 452.488
2057 0 60.0617 12.7369 765 110.937 731.604 453.763
2058 0 62.0624 12.0685 749 112.136 731.892 452.896
2059 0 61.111 12.9109 789 110.779 733.47 455.791
2060 0 63.0767 11.922 752 112.432 733.315 456.952
2061 0 67.1373 12.7351 855 110.727 732.786 462.046
2062 0 70.0916 16.2074 1136 104.634 732.912 465.799
2063 0 70.2824 14.1856 997 109.15 733.073 464.703
2064 0 73.2916 15.4724 1134 106.749 731.685 465.941
2065 0 76.3031 17.3781 1326 105.117 732.816 465.586
2066 0 77.1513 16.7334 1291 107.263 731.222 463.145
2067 0 79.333 13.4748 1069 112.212 731.525 463.631
2068 0 86.1136 15.526 1337 107.581 730.861 463.022
2069 0 86.1499 12.8381 1106 112.411 731.306 463.103
2070 0 88.2933 12.5944 1112 112.451 730.311 462.302
2071 0 90.0744 8.40416 757 117.911 729.251 464.209
2072 0 96.31 16.1977 1560 105.663 729.499 457.794
2073 0 97.2807 12.8186 1247 111.054 728.371 461.46
2074 1 110.163 7.48888 825 115.167 727.078 465.389
2075 0 105.331 15.57 1640 102.871 724.917 448.727
2076 0 107.347 11.4955 1234 109.729 724.642 448.614
2077 0 109.202 13.5163 1476 108.11 724.755 450.446
2078 0 109.252 13.501 1475 107.058 724.782 461.721
2079 0 109.252 13.4094 1465 134.134 724.824 461.454
2080 1 59.2488 11.7133 694 105.752 723.62 479.267
2081 0 65.3212 14.2527 931 102.16 723.563 476.102
2082 0 63.0687 8.51453 537 107.912 723.849 482.505
2083 0 66.3949 10.302 684 109.001 723.481 471.959
2084 0 68.1681 14.2882 974 103.243 723.434 471.594
2085 0 68.1257 11.1118 757 108.317 723.674 465.962
2086 0 73.2684 14.4946 1062 103.13 723.247 466.099
2087 0 76.4935 13.2952 1017 104.347 723.811 463.489
2088 0 77.3903 11.0479 855 108.009 723.382 463.034
2089 0 77.3903 11.035 854 141.24 723.379 463.007
2090 0 80.3333 13.3568 1073 106.423 724.666 459.336
2091 0 84.0905 16.3395 1374 103.743 724.028 455.683
2092 1 47.7391 11.1649 533 107.826 724.636 474.008
2093 0 47.2857 11.1027 525 110.585 724.806 470.194
2094 0 50.2233 10.971 551 111.481 726.174 466.256
2095 0 51.3215 12.6458 649 110.052 726.881 470.182
2096 0 53.139 15.2242 809 106.928 729.344 461.728
2097 0 56.2381 14.4564 813 107.055 729.913 468.357
2098 0 55.214 12.6961 701 111.341 729.645 468.086
2099 0 56.0535 17.9115 1004 104.764 730.098 467.068
2100 0 58.2515 19.6218 1143 102.25 731.29 468.535
2101 0 60.0738 14.8318 891 109.854 730.758 464.561
2102 0 62.0651 16.2249 1007 107.515 731.531 468.91
2103 0 65.1339 15.7675 1027 107.334 732.217 468.252
2104 0 64.1125 13.5543 869 113.709 731.108 463.687
2105 0 69.2195 15.3858 1065 109.627 731.982 467.988
2106 0 69.189 14.2219 984 114.581 732.233 465.097
2107 0 72.1278 14.7793 1066 113.083 732.252 467.104
2108 0 76.2126 14.4989 1105 113.566 732.073 466.297
2109 0 75.1463 13.0812 983 116.036 731.144 469.329
2110 0 80.2098 14.3623 1152 114.766 730.839 462.437
2111 0 80.0865 14.1472 1133 115.921 730.109 465.515
2112 0 82.1015 15.018 1233 116.479 729.839 461.321
2113 0 85.2761 13.6029 1160 118.936 729.373 463.541
2114 0 86.1331 11.3429 977 123.642 728.905 462.38
2115 0 92.1056 13.8211 1273 118.006 727.396 460.406
2116 1 49.1184 10.0777 495 117.97 726.986 482.543
2117 0 54.2118 14.1298 766 113.08 726.099 481.715
2118 0 51.285 10.0224 514 122.512 725.426 481.71
2119 0 52.0846 11.2317 585 117.046 725.429 480.267
2120 0 56.2241 14.5134 816 110.543 725.281 481.168
2121 0 58.0481 14.6258 849 112.252 724.373 477.451
2122 0 59.0397 13.4994 797 115.238 723.521 475.926
2123 0 57.0592 10.0773 575 120.675 723.663 476.489
2124 0 63.0792 14.6007 921 111.846 723.992 475.485
2125 0 62.0828 12.1129 752 116.41 723.883 472.491
2126 0 67.0736 13.7461 922 113.743 722.166 469.951
2127 0 69.1316 14.3928 995 112.605 723.057 471.187
2128 0 71.1381 15.7581 1121 110.609 722.637 464.541
2129 0 73.0834 13.2178 966 115.403 723.344 463.877
2130 0 75.1249 14.0832 1058 113.801 721.837 464.007
2131 0 77.0948 14.8518 1145 111.485 722.714 463.04
2132 0 79.1401 11.5618 915 115.942 723.714 464.345
2133 0 80.1276 10.7578 862 118.119 724.457 459.891
2134 0 85.2257 16.0046 1364 109.474 724.519 453.887
2135 0 88.1048 14.846 1308 110.654 724.932 450.823
2136 1 44.3084 9.70471 430 118.084 725.379 475.109
2137 0 47.1458 12.4083 585 114.026 726.209 472.938
2138 0 46.0907 16.5109 761 107.953 726.351 471.449
2139 0 46.0907 16.6628 768 117.852 726.339 471.344
2140 0 52.3554 13.4848 706 113.017 727.361 467.035
2141 0 54.4067 13.7115 746 111.731 728.942 470.429
2142 0 56.3485 13.0616 736 112.569 728.995 466.679
2143 0 56.2678 13.4535 757 112.785 730.013 465.905
2144 0 60.1723 15.7381 947 107.909 730.721 468.163
2145 0 58.2945 12.454 726 112.175 729.545 470.612
2146 0 58.2945 12.4368 725 130.127 729.577 470.681
2147 0 63.4846 14.6807 932 111.359 730.053 466.474
2148 0 67.5313 14.7635 997 110.626 730.429 467.486
2149 0 68.1952 12.4349 848 114.868 730.429 465.972
2150 0 71.608 13.8532 992 111.765 730.211 469.059
2151 0 76.2522 12.5504 957 107.418 730.823 475.212
2152 0 77.1738 10.9623 846 112.648 730.038 472.443
2153 0 78.1564 12.0783 944 113.458 730.562 470.452
2154 0 80.1189 13.2428 1061 112.373 730.22 470.582
2155 0 85.3606 14.3392 1224 111.275 729.534 466.175
2156 0 87.2209 12.818 1118 114.981 728.603 465.899
2157 1 46.0515 12.486 575 112.831 727.438 487.525
2158 0 50.045 12.9683 649 110.524 727.216 488.566
2159 0 51.0442 16.1233 823 106.242 725.959 485.847
2160 0 54.1217 12.398 671 110.356 726.28 489.437
2161 0 55.0739 13.2368 729 110.775 725.08 486.47
2162 0 57.055 13.5659 774 110.596 724.487 482.039
2163 0 57.1911 13.2888 760 112.168 724.975 481.296
2164 0 60.1238 15.5346 934 108.423 724.336 477.881
2165 0 61.0335 12.9765 792 112.124 723.985 479.357
2166 0 62.0742 13.3711 830 113.157 723.848 476.38
2167 0 62.1748 11.725 729 116.642 724.283 472.18
2168 0 69.2168 15.9354 1103 109.08 723.292 473.08
2169 0 72.416 13.1877 955 113.602 723.887 469.629
2170 0 74.1566 13.4445 997 113.707 723.639 469.143
2171 0 74.3558 13.7716 1024 114.437 723.66 465.265
2172 0 79.3023 14.8545 1178 112.422 723.424 465.292
2173 0 78.1926 13.147 1028 116.155 723.104 460.359
2174 0 78.1926 13.0447 1020 124.026 722.12 460.287
2175 0 88.125 17.305 1525 108.56 724.485 460.807
2176 1 46.0412 13.097 603 113.292 724.99 479.536
2177 0 45.0347 12.5459 565 116.735 725.158 476.565
2178 0 47.0676 12.089 569 117.462 725.186 476.035
2179 0 49.085 14.0165 688 113.703 727.128 475.721
2180 0 51.0961 15.6176 798 108.192 727.099 473.368
2181 0 50.0888 12.2183 612 117.575 727.278 470.479
2182 0 53.1156 12.3881 658 117.02 728.181 469.977
2183 0 57.1282 15.0889 862 110.386 728.556 472.124
2184 0 57.1338 13.1446 751 115.507 729.162 468.868
2185 0 60.0892 15.0609 905 111.402 729.559 469.572
2186 0 60.0892 15.2107 914 121.864 729.604 469.594
2187 0 65.1448 16.6859 1087 108.78 730.121 468.46
2188 0 64.2127 13.4241 862 115.747 731.092 468.348
2189 0 68.1443 14.0878 960 114.679 731.505 463.668
2190 0 68.1443 14.1905 967 133.399 731.497 463.635
2191 0 72.2139 13.0584 943 116.137 731.868 466.202
2192 0 78.1773 14.0578 1099 113.495 731.378 463.642
2193 1 39.2854 12.7019 499 116.16 731.064 484.279
2194 0 40.5266 11.3506 460 118.8 732.004 485.27
2195 0 42.2548 11.1703 472 118.75 730.593 484.403
2196 0 44.1575 12.7498 563 117.535 729.249 482.831
2197 0 46.2353 12.7392 589 117.338 728.65 484.932
2198 0 44.1274 12.4412 549 119.521 729.851 483.574
2199 0 49.127 12.9867 638 119.124 727.702 482.616
2200 0 49.1501 13.2655 652 118.204 726.544 481.767
2201 0 50.0411 10.891 545 121.774 725.372 483.794
2202 0 52.1085 13.6062 709 118.021 725.746 481.378
2203 0 56.1399 12.8073 719 118.374 725.284 479.314
2204 0 57.1765 15.7932 903 113.599 725.194 477.71
2205 0 60.1505 17.3066 1041 109.163 724.011 475.698
2206 0 60.2016 12.4415 749 117.334 723.804 476.446
2207 0 64.2486 15.2533 980 112.904 722.704 470.504
2208 0 65.1582 13.8893 905 115.776 723.455 466.421
2209 0 64.1583 16.3658 1050 108.815 722.654 471.482
2210 0 61.0563 10.8916 665 120.334 722.266 468.744
2211 0 59.0615 11.378 672 120.345 722.789 467.208
2212 0 61.1638 10.3493 633 119.513 723.028 471.046
2213 1 80.3645 15.5168 1247 110.566 723.733 456.52
2214 0 83.2967 15.1507 1262 110.772 722.675 457.605
2215 0 82.2011 17.737 1458 109.192 724.217 449.995
2216 0 83.3246 18.3019 1525 108.778 722.713 449.237
2217 0 84.4433 13.4173 1133 117.618 723.987 450.257
2218 0 90.1282 22.2572 2006 102.399 723.894 439.497
2219 0 95.7692 21.0088 2012 103.5 725.607 449.241
2220 0 95.3445 16.5295 1576 112.749 725.371 443.189
2221 0 98.5134 15.1147 1489 114.886 726.344 443.973
2222 0 100.216 13.401 1343 118.348 727.339 441.766
2223 0 100.304 13.7183 1376 117.406 727.32 439.298
2224 1 48.1994 12.0126 579 121.18 728.218 464.302
2225 0 48.1994 12.0956 583 140.465 728.187 464.274
2226 0 55.2192 13.9444 770 116.855 729.112 460.788
2227 0 56.0836 13.7295 770 117.314 728.964 459.812
2228 0 59.304 17.0815 1013 111.433 730.218 460.314
2229 0 62.3313 15.0326 937 113.651 729.791 464.892
2230 0 62.171 15.3287 953 114.707 731.618 460.932
2231 0 66.0959 17.7469 1173 110.733 731.773 459.63
2232 0 68.1127 16.4287 1119 113.208 731.24 460.685
2233 0 73.3317 16.364 1200 111.087 731.576 462.405
2234 0 70.2796 11.0274 775 123.057 732.075 458.655
2235 0 77.3274 16.5271 1278 111.236 731.287 463.312
2236 0 79.1859 11.8203 936 119.654 731.095 459.933
2237 0 85.1315 16.3394 1391 112.017 729.367 459.063
2238 0 86.2877 13.9185 1201 118.445 730.732 458.817
2239 0 88.2093 18.6035 1641 110.418 730.19 463.289
2240 0 93.1028 12.4486 1159 122.523 729.826 456.123
2241 0 94.3626 15.8643 1497 117.508 728.309 453.67
2242 0 99.3977 15.2418 1515 118.283 728.859 450.091
2243 0 101.469 13.3439 1354 120.939 726.901 448.531
2244 0 108.469 13.0175 1412 119.775 727.339 451.003
2245 0 113.275 12.7389 1443 120.398 726.441 447.621
2246 0 113.275 12.7477 1444 154.922 725.442 447.766
2247 1 61.1973 13.6117 833 113.181 725.564 471.519
2248 0 64.2058 12.6624 813 117.818 725.554 470.536
2249 0 68.3221 14.4463 987 114.033 725.114 469.325
2250 0 67.1024 12.5033 839 120.099 724.769 465.393
2251 0 72.2272 14.5236 1049 114.906 724.148 470.595
2252 0 73.2049 15.723 1151 113.44 724.193 467.749
2253 0 76.132 12.1762 927 120.386 723.937 465.263
2254 0 78.0646 11.0806 865 122.047 721.613 462.777
2255 0 78.0646 11.0421 862 159.827 720.611 462.876
2256 0 84.3479 13.634 1150 116.844 721.581 462.481
2257 0 85.1324 12.0988 1030 121.557 722.489 455.095
2258 0 89.317 13.9279 1244 118.178 722.024 457.462
2259 0 92.3359 14.5014 1339 117.528 722.632 451.453
2260 0 94.494 13.0802 1236 120.913 723.736 451.748
2261 0 96.2143 12.441 1197 122.524 724.004 451.074
2262 1 56.1478 12.9302 726 116.455 724.64 465.993
2263 0 58.1312 13.7792 801 115.035 725.218 465.371
2264 0 59.2444 15.1238 896 113.015 725.756 460.97
2265 0 59.0756 11.9508 706 119.8 725.391 463.877
2266 0 61.1368 11.4661 701 121.381 725.404 463.929
2267 0 65.2458 13.702 894 116.319 726.692 462.229
2268 0 67.1718 13.4729 905 116.114 726.738 463.271
2269 0 70.0821 15.1251 1060 112.682 726.884 463.856
2270 0 72.0515 13.754 991 115.796 726.891 461.555
2271 0 74.0684 12.772 946 116.669 727.061 461.16
2272 0 77.2555 14.9633 1156 112.856 727.613 460.413
2273 0 77.1292 12.0318 928 118.83 728.637 457.71
2274 0 81.2047 11.1816 908 112.91 731.849 460.296
2275 0 84.1357 12.1708 1024 111.05 731.265 461.495
2276 1 47.3279 14.1988 672 98.5253 729.381 475.961
2277 0 47.0179 10.7831 507 108.751 730.509 480.578
2278 0 50.0557 13.7846 690 104.335 731.006 479.859
2279 0 52.247 13.2448 692 105.906 731.276 480.74
2280 0 51.0421 8.2481 421 112.401 728.278 483.42
2281 0 52.108 9.34597 487 111.741 728.858 482.561
2282 0 54.0758 6.65733 360 114.656 727.108 486.903
2283 0 59.2681 9.39797 557 112.926 727.479 481.198
2284 0 63.2664 10.5901 670 108.509 727.34 484.319
2285 0 60.0608 7.39251 444 116.682 726.022 482.475
2286 0 63.1636 11.209 708 111.568 726.045 474.692
2287 0 63.1636 11.3198 715 117.298 726.07 474.808
2288 0 71.1546 11.2572 801 109.388 723.788 472.144
2289 0 70.1473 9.77942 686 111.077 724.504 477.372
2290 0 74.1843 11.404 846 109.69 722.866 473.8
2291 0 79.2358 9.84403 780 111.664 724.169 471.305
2292 1 40.054 10.6107 425 111.849 723.828 484.416
2293 0 43.0519 11.521 496 108.917 725.129 486.393
2294 0 45.1636 13.1522 594 107.601 723.835 482.034
2295 0 45.1636 13.1965 596 113.19 722.898 482.223
2296 0 47.041 9.1197 429 114.289 722.965 483.755
2297 0 46.1788 11.4338 528 111.477 723.648 482.667
2298 0 46.081 9.30969 429 114.007 722.839 485.126
2299 0 48.0646 13.2738 638 110.683 723.321 478.29
2300 0 50.0857 12.3588 619 112.003 723.67 475.827
2301 0 51.0361 9.89496 505 114.556 724.166 478.804
2302 0 57.0305 8.08339 461 115.941 724.579 480.31
2303 0 56.047 13.453 754 110.955 725.447 469.667
2304 0 57.1013 13.3447 762 110.605 724.924 469.192
2305 0 58.2391 11.1952 652 115.807 725.813 469.62
2306 0 60.1999 14.5681 877 110.803 725.726 467.455
2307 0 67.1632 11.5242 774 112.528 726.362 468.399
2308 0 65.3992 15.0919 987 106.279 726.488 469.237
2309 0 65.2512 12.5821 821 113.932 727.569 462.077
2310 0 68.2802 12.1265 828 114.268 727.971 464.051
2311 0 71.0986 17.6234 1253 105.686 727.753 461.477
2312 0 73.1177 10.9276 799 113.906 729.189 466.263
2313 0 73.2753 10.058 737 117.608 729.308 460.962
2314 0 77.1142 13.4476 1037 111.668 730.204 456.128
2315 0 79.3648 11.025 875 115.173 730.742 459.039
2316 1 42.2531 10.4371 441 115.023 730.689 473.848
2317 0 43.116 9.83394 424 116.427 731.752 477.752
2318 0 44.2286 12.1641 538 112.195 730.888 480.636
2319 0 45.2329 14.0385 635 110.224 730.606 478.746
2320 0 47.0999 11.8896 560 112.132 730.877 484.473
2321 0 47.123 13.5815 640 110.17 730.644 477.859
2322 0 53.2916 12.7787 681 110.789 730.032 483.31
2323 0 52.3048 13.1154 686 111.649 729.534 479.149
2324 0 54.0732 10.7447 581 115.535 728.914 482.85
2325 0 58.1256 12.1461 706 114.037 728.279 484.603
2326 0 60.1949 14.3534 864 114.235 728.899 480.019
2327 0 62.4215 12.9282 807 114.663 727.664 479.478
2328 0 64.1176 15.3624 985 109.837 726.463 479.223
2329 0 66.1268 16.0601 1062 108.607 726.705 480.06
2330 0 66.1235 11.2819 746 119.185 725.53 480.575
2331 0 69.1293 12.9178 893 117.316 725.368 470.898
2332 0 73.4415 13.2486 973 115.234 724.791 473.394
2333 0 74.2523 17.1712 1275 109.022 724.922 467.773
2334 0 78.3214 14.9385 1170 113.608 724.668 457.82
2335 0 77.6193 11.2214 871 116.777 723.256 470.745
2336 0 81.2268 15.229 1237 114.427 723.822 458.034
2337 0 81.4515 11.4056 929 121.047 724.033 459.377
2338 0 87.4236 15.3162 1339 114.249 723.837 454.701
2339 0 89.5001 14.7709 1322 116.336 723.222 451.595
2340 0 96.532 18.0976 1747 109.001 724.261 449.364
2341 0 98.4637 23.1659 2281 102.402 723.434 448.386
2342 0 104.663 18.5644 1943 107.662 724.324 436.962
2343 1 50.2442 13.5339 680 112.587 724.352 469.949
2344 0 50.2664 9.19104 462 120.413 724.128 467.972
2345 0 52.2669 11.6135 607 117.133 725.465 465.203
2346 0 55.318 8.73134 483 119.828 725.662 467.656
2347 0 57.3545 11.4551 657 116.186 726.306 463.966
2348 0 61.3346 14.103 865 111.696 725.674 464.334
2349 0 62.242 13.319 829 114.685 727.586 462.832
2350 0 62.3247 14.1517 882 113.143 728.181 464.096
2351 0 67.4167 13.6613 921 114.62 728.965 458.446
2352 0 69.4297 13.8702 963 112.616 728.941 462.829
2353 0 73.4825 14.9696 1100 111.526 730.352 458.276
2354 0 71.2477 12.9688 924 117.172 730.344 454.876
2355 0 75.3861 14.2334 1073 113.699 731.202 455.478
2356 0 81.4332 16.3447 1331 109.722 731.118 456.588
2357 0 80.2665 14.7633 1185 113.479 731.338 457.49
2358 0 83.6748 13.4927 1129 116.309 730.826 455.652
2359 0 85.4551 12.1701 1040 118.807 731.992 455.213
2360 0 88.3308 12.8721 1137 117.467 731.632 458.033
2361 0 94.2932 15.2079 1434 113.453 730.505 457.125
2362 0 98.4421 14.699 1447 113.402 730.201 457.635
2363 1 49.1883 10.1244 498 117.727 730.735 478.056
2364 0 54.1976 13.3401 723 112.484 730.274 477.963
2365 0 58.3469 14.4995 846 108.084 729.161 479.885
2366 0 60.316 15.6841 946 106.625 729.421 478.013
2367 0 64.1961 11.6206 746 112.261 728.95 478.92
2368 0 67.2494 13.2641 892 110.314 727.192 475.459
2369 0 68.187 13.7856 940 111.049 727.462 472.257
2370 0 70.2815 12.763 897 111.884 726.049 471.625
2371 0 73.1144 13.4447 983 110.415 723.821 474.907
2372 0 78.4169 13.5557 1063 109.927 722.745 470.615
2373 0 79.2157 14.5805 1155 110.585 721.836 465.069
2374 0 83.1972 14.9524 1244 109.856 722.429 467.474
2375 0 84.2204 13.5122 1138 111.698 721.192 467.731
2376 0 87.2436 19.6805 1717 101.456 721.174 470.55
2377 0 92.181 14.3305 1321 111.537 720.432 461.52
2378 1 45.0401 11.079 499 113.347 720.541 483.735
2379 0 45.0659 10.6954 482 114.384 723.62 478.18
2380 0 46.0621 12.266 565 110.979 723.439 478.899
2381 0 50.1983 14.5224 729 105.551 723.298 478.701
2382 0 50.2437 11.902 598 110.074 722.615 473.766
2383 0 50.255 12.1978 613 110.589 723.827 472.395
2384 0 53.3517 12.202 651 109.673 724.404 471.624
2385 0 51.1202 8.079 413 117.801 724.615 469.288
2386 0 56.1039 12.4412 698 110.734 724.88 471.405
2387 0 58.1022 12.6673 736 109.242 723.967 472.516
2388 0 56.0909 10.5008 589 115.134 724.382 468.194
2389 0 60.116 11.9436 718 111.742 724.645 468.081
2390 0 63.1546 12.2556 774 109.57 724.589 468.397
2391 0 61.0677 8.90815 544 116.226 725.375 465.662
2392 0 66.1602 13.3464 883 109.606 726.65 462.993
2393 0 68.0555 10.4033 708 113.753 726.215 463.323
2394 0 69.1898 11.2878 781 111.778 728.122 463.474
2395 0 81.0496 14.3739 1165 105.565 728.192 462.663
2396 0 74.1762 12.1872 904 111.22 728.563 461.169
2397 0 77.1722 9.80923 757 113.26 726.141 464.376
2398 0 77.0777 12.9609 999 110.942 727.654 460.368
2399 0 82.0855 11.7073 961 112.012 728.662 461.956
2400 0 85.1354 10.7006 911 112.911 730.72 463.327
2401 0 87.2103 12.8311 1119 111.42 730.64 456.271
2402 0 95.3352 11.6012 1106 110.97 730.799 462.429
2403 1 49.067 11.2296 551 109.813 731.456 482.711
2404 0 52.0501 11.047 575 110.207 730 478.438
2405 0 54.0295 15.2694 825 105.907 729.355 481.401
2406 0 54.0976 10.9432 592 113.542 728.742 481.797
2407 0 59.2025 12.5333 742 109.003 729.128 485.234
2408 0 62.2198 13.1791 820 108.577 729.551 483.29
2409 0 64.1224 14.7998 949 106.614 728.146 481.456
2410 0 65.0755 14.2757 929 108.624 727.371 479.09
2411 0 67.072 14.3726 964 109.733 725.862 478.755
2412 0 68.1684 10.3714 707 116.987 725.982 474.86
2413 0 69.2996 12.4099 860 113.873 724.312 472.885
2414 0 75.3032 13.7444 1035 110.766 723.773 475.452
2415 0 75.4382 14.5947 1101 110.604 723.251 471.337
2416 0 79.4897 14.4799 1151 111.865 723.157 466.579
2417 0 77.5217 12.8609 997 115.914 722.258 464.725
2418 0 80.3796 12.2046 981 117.684 721.327 464.778
2419 0 84.433 14.4138 1217 113.001 721.671 459.8
2420 0 88.5571 17.0624 1511 108.376 720.962 460.308
2421 0 92.4354 15.4919 1432 112.888 721.95 462.22
2422 0 93.2006 13.6373 1271 112.278 721.731 458.688
2423 0 97.1019 12.5435 1218 115.057 721.206 457.471
2424 1 48.2966 10.7254 518 113.909 719.319 476.905
2425 0 48.3642 12.9641 627 110.904 719.545 475.507
2426 0 51.2225 15.7743 808 105.65 719.606 472.017
2427 0 54.1681 13.5504 734 108.559 720.527 473.139
2428 0 53.1493 14.337 762 112.608 720.374 470.449
2429 0 57.0449 15.1284 863 109.392 721.159 471.819
2430 0 57.0895 12.4892 713 115.288 721.668 468.899
2431 0 60.0467 13.1897 792 113.188 722.254 469.057
2432 0 61.2073 13.4134 821 113.686 723.149 465.423
2433 0 63.1 14.1838 895 112.383 723.974 466.502
2434 0 64.248 12.9342 831 115.256 724.596 465.906
2435 0 63.213 11.7539 743 118.659 725.487 463.494
2436 0 68.1029 10.631 724 119.727 725.294 462.656
2437 0 68.1078 10.7477 732 142.794 724.321 462.594
2438 0 74.1047 13.4404 996 115.092 727.198 463.784
2439 0 75.134 13.4027 1007 117.058 727.281 460.869
2440 0 79.0996 14.5766 1153 113.3 726.656 460.706
2441 0 83.1725 14.5721 1212 112.987 727.8 463.521
2442 1 44.0711 12.2529 540 116.274 727.322 477.441
2443 0 46.0694 11.2222 517 115.689 726.977 482.015
2444 0 48.0564 13.9003 668 107.184 726.422 477.799
2445 0 48.1889 11.8077 569 107.585 729.311 479.761
2446 0 48.2246 8.5641 413 114.31 728.308 478.375
2447 0 52.0948 11.0184 574 109.199 728.106 478.756
2448 0 55.2351 15.1896 839 103.642 727.992 478.807
2449 0 57.1123 12.1865 696 108.256 727.792 480.254
2450 0 58.0743 12.0363 699 108.552 726.123 480.481
2451 0 58.0432 11.0435 641 112.09 726.248 477.778
2452 0 63.1035 12.9945 820 108.127 724.55 480.437
2453 0 63.1209 12.6266 797 109.294 724.206 474.824
2454 0 63.0636 9.32393 588 114.139 723.787 474.342
2455 0 67.3168 13.533 911 107.069 722.446 475.988
2456 0 70.1877 13.2359 929 108.011 722.83 472.553
2457 0 73.2414 11.7966 864 110.339 721.931 469.081
2458 0 73.1325 9.38023 686 114.121 722.074 466.571
2459 1 35.0705 9.3811 329 109.343 721.34 485.511
2460 0 41.2281 7.39787 305 109.436 720.607 483.931
2461 0 42.1736 10.5753 446 105.307 720.767 483.572
2462 0 41.2207 10.3346 426 106.038 720.777 479.892
2463 0 45.1901 10.3562 468 105.87 722.09 476.579
2464 0 46.1224 11.7297 541 102.599 720.719 479.475
2465 0 49.1238 10.8705 534 104.451 721.058 477.124
2466 0 49.1344 14.959 735 99.7061 720.81 475.822
2467 0 48.3064 10.4127 503 107.35 720.68 475.129
2468 0 50.0758 9.98486 500 109.83 721.176 472.7
2469 0 53.1802 11.3012 601 107.464 721.384 471.471
2470 0 59.3717 13.0197 773 101.847 722.502 475.805
2471 0 55.1136 12.6648 698 106.501 722.751 470.195
2472 0 58.1382 17.0112 989 99.5531 723.692 466.265
2473 0 60.2377 13.2309 797 103.871 724.148 469.322
2474 0 60.1404 10.3924 625 109.946 724.054 464.786
2475 0 65.1953 17.7007 1154 99.6473 725.166 462.482
2476 0 66.1996 13.2629 878 106.055 726.104 464.298
2477 0 70.1771 14.0929 989 104.407 725.754 463.45
2478 0 71.1716 11.2826 803 108.234 727.255 461.635
2479 0 76.1955 12.5073 953 105.908 726.022 459.942
2480 0 76.1456 13.7762 1049 105.691 727.595 461.059
2481 0 81.3641 12.8312 1044 107.907 727.969 457.79
2482 0 80.3654 12.0325 967 124.631 727.744 459.062
2483 0 87.2219 14.1134 1231 104.812 727.852 460.632
2484 1 43.1558 11.8872 513 103.39 728.033 482.154
2485 0 45.3115 10.2844 466 107.762 726.386 480.352
2486 0 47.2917 13.5753 642 108.908 726.749 480.921
2487 0 47.0934 11.5515 544 112.062 725.906 483.307
2488 0 49.217 12.2112 601 110.732 725.424 486.546
2489 0 50.2361 12.1626 611 111.604 726.417 485.146
2490 0 52.1319 12.9671 676 110.109 726.095 483.922
2491 0 53.1495 12.8129 681 111.32 726.044 485.814
2492 0 57.1949 16.1903 926 105.393 725.592 483.152
2493 0 59.2134 14.1184 836 108.982 724.739 481.715
2494 0 61.1324 10.4691 640 114.538 724.188 485.842
2495 0 61.1324 10.4364 638 128.075 724.168 485.901
2496 0 68.2153 13.7506 938 109.807 722.779 480.503
2497 0 69.1258 13.1499 909 111.658 720.84 480.619
2498 0 73.279 16.5805 1215 107.404 722.194 475.426
2499 0 75.1346 14.321 1076 112.283 721.387 475.714
2500 0 79.1631 16.5986 1314 107.607 721.227 468.921
2501 0 79.1848 16.8593 1335 109.115 720.669 473.986
2502 0 81.1961 10.0867 819 121.006 720.813 471.928
2503 0 83.3318 12.2882 1024 118.665 720.971 466.017
2504 0 85.4371 12.9803 1109 118.172 720.809 461.701
2505 0 86.2148 13.5244 1166 117.317 720.545 464.7
2506 0 86.4717 12.8713 1113 117.666 721.397 465.756
2507 0 93.3765 13.7936 1288 116.718 722.151 459.648
2508 0 93.2643 11.3334 1057 121.183 720.912 458.079
2509 1 51.1331 12.1448 621 113.01 720.965 476.799
2510 0 52.0719 12.79 666 112.089 721.845 475.656
2511 0 55.1634 12.0732 666 112.179 722.096 476.258
2512 0 56.2763 12.794 720 111.996 722.078 474.412
2513 0 56.175 11.304 635 116.202 722.846 471.647
2514 0 56.1485 9.7064 545 118.635 723.066 469.112
2515 0 64.5566 16.2648 1050 104.906 724.211 471.761
2516 0 62.118 11.5747 719 115.01 724.815 469.49
2517 0 66.1218 13.8381 915 110.215 725.607 465.675
2518 0 69.2452 13.1706 912 106.772 726.566 462.87
2519 0 71.1648 13.6163 969 106.465 726.749 459.031
2520 0 71.3213 10.8102 771 110.84 727.568 461.547
2521 0 75.335 11.8006 889 109.633 727.588 457.318
2522 0 80.2622 13.4559 1080 106.885 728.379 457.385
2523 0 80.4983 11.081 892 110.852 727.837 460.68
2524 1 40.2455 8.67177 349 111.989 728.372 477.639
2525 0 40.1779 6.69522 269 114.554 727.342 479.703
2526 0 40.1779 6.54589 263 135.293 726.414 479.734
2527 0 46.1354 9.86228 455 109.163 727.864 477.273
2528 0 48.129 13.9209 670 104.431 728.322 480.416
2529 0 49.0613 10.2117 501 109.443 727.501 480.423
2530 0 52.1937 15.7299 821 100.205 726.636 482.407
2531 0 53.1146 10.5432 560 108.064 727.534 478.111
2532 0 55.2397 10.735 593 108.801 726.04 480.646
2533 0 55.2397 10.9161 603 122.226 725.071 480.65
2534 0 54.2101 9.6661 524 113.817 724.595 477.183
2535 0 61.0736 14.7199 899 104.493 724.328 474.898
2536 0 63.3626 12.6415 801 106.978 724.251 477.447
2537 0 66.1578 16.506 1092 102.429 723.273 473.665
2538 0 67.2494 12.3719 832 109.309 723.153 472.618
2539 0 68.2556 10.4314 712 114.229 722.872 468.178
2540 0 71.0935 13.4893 959 110.108 722.686 471.145
2541 0 76.1402 13.6065 1036 109.078 722.038 469.754
2542 0 78.0809 17.4178 1360 103.272 721.989 458.64
2543 0 79.1674 12.8209 1015 112.448 721.702 461.191
2544 0 80.0937 15.0574 1206 111.529 722.178 459.548
2545 0 84.2342 16.5016 1390 108.812 722.79 460.941
2546 1 41.0324 10.1627 417 113.664 722.079 479.372
2547 0 44.0749 11.004 485 110.967 723.027 478.144
2548 0 44.0588 8.96528 395 112.749 721.957 477.063
2549 0 45.129 10.9907 496 112.716 722.296 476.565
2550 0 50.0754 12.7807 640 110.897 723.409 472.902
2551 0 50.1306 10.5524 529 113.473 723.953 474.894
2552 0 53.088 15.0881 801 107.077 724.845 470.102
2553 0 54.1043 16.1355 873 103.824 722.849 470.668
2554 0 57.1551 11.3201 647 109.105 725.411 474.498
2555 0 56.1137 14.4528 811 103.772 724.12 471.7
2556 0 58.0606 14.6743 852 103.487 725.265 472.414
2557 0 61.1029 14.2055 868 103.421 725.396 467.743
2558 0 61.3553 11.2297 689 108.181 727.675 466.702
2559 0 65.043 13.3296 867 104.555 726.964 466.454
2560 0 67.1335 12.2145 820 108.634 728.28 468.761
2561 0 70.0769 11.2591 789 108.564 727.612 467.81
2562 0 66.1899 8.40007 556 111.829 728.698 464.02
2563 0 73.2469 9.96629 730 108.555 729.86 467.712
2564 0 83.2376 20.6998 1723 95.91 729.154 460.726
2565 0 83.2823 17.4707 1455 101.417 730.172 462.144
2566 0 83.3881 17.4126 1452 102.278 729.076 460.857
2567 0 85.2228 11.4993 980 110.69 728.474 467.492
2568 0 90.2144 11.5392 1041 110.802 727.918 460.895
2569 1 47.1164 10.803 509 108.436 726.637 489.862
2570 0 48.2833 9.87919 477 111.887 725.857 484.964
2571 0 48.159 11.7527 566 109.519 726.217 488.21
2572 0 57.3149 16.4355 942 99.7442 726.327 483.514
2573 0 58.2815 19.2686 1123 97.504 725.784 484.586
2574 0 59.0764 16.2502 960 101.707 724.982 483.224
2575 0 61.1002 16.6284 1016 101.898 724.053 484.464
2576 0 63.2198 12.8915 815 106.027 722.414 486.41
2577 0 63.1733 11.4764 725 111.157 723.211 483.48
2578 0 65.2486 10.7282 700 112.153 721.636 479.527
2579 0 68.2088 11.3768 776 111.879 721.188 479.491
2580 0 68.1469 9.84638 671 115 721.636 476.28
2581 0 72.4264 12.5783 911 111.177 720.684 473.62
2582 0 77.13 15.2599 1177 106.551 720.641 472.828
2583 0 78.1412 11.1721 873 113.273 720.59 470.785
2584 0 80.249 11.0032 883 113.477 719.771 469.413
2585 0 82.1897 12.4346 1022 108.645 719.774 473.342
2586 0 84.3667 11.9123 1005 111.09 719.848 467.78
2587 1 44.015 12.2231 538 110.909 719.152 482.301
2588 0 47.0628 13.1739 620 108.215 719.321 482.055
2589 0 46.0407 11.8374 545 110.994 719.204 479.956
2590 0 50.0452 15.1263 757 103.394 720.184 482.797
2591 0 49.0933 11.5494 567 112.665 723.917 475.136
2592 0 51.1846 15.5515 796 104.171 722.868 474.028
2593 0 51.2024 15.7415 806 104.364 724.217 473.73
2594 0 54.1876 15.1511 821 105.289 723.786 470.563
2595 0 55.0725 13.11 722 109.126 723.909 471.792
2596 0 57.0575 11.69 667 111.526 725.199 471.519
2597 0 59.1285 13.9358 824 107.35 725.664 467.26
2598 0 63.0731 15.268 963 102.923 725.763 470.201
2599 0 65.1696 14.4239 940 104.755 727.938 467.942
2600 0 67.0991 13.7409 922 106.016 726.108 469.851
2601 0 68.2289 13.2056 901 106.877 726.556 467.335
2602 0 69.0872 16.1101 1113 104.42 726.443 466.568
2603 0 72.1826 16.7215 1207 103.153 727.242 465.226
2604 0 77.1911 15.2479 1177 104.738 727.054 465.26
2605 0 78.2716 14.9096 1167 106.371 726.732 461.416
2606 0 80.2128 13.2896 1066 104.223 727.059 459.127
2607 0 83.1509 13.3492 1110 107.355 727.14 457.9
2608 0 86.1895 12.4841 1076 109.27 726.511 461.736
2609 0 91.2025 14.9338 1362 108.25 727.129 464.858
2610 0 93.2117 12.2195 1139 111.227 727.708 467.213
2611 1 52.1105 13.4714 702 102.715 726.836 486.892
2612 0 51.279 11.2912 579 105.782 727.014 488.332
2613 0 55.138 15.6879 865 105.429 727.983 485.487
2614 0 57.0569 14.6696 837 105.274 726.972 486.609
2615 0 60.1503 15.8935 956 103.899 726.491 481.964
2616 0 62.1789 14.2974 889 106.183 724.772 481.546
2617 0 68.1737 15.4752 1055 103.252 724.298 481.21
2618 0 68.1157 14.9305 1017 103.562 723.511 478.135
2619 0 70.1359 12.2191 857 107.653 723.424 477.53
2620 0 74.1875 13.2907 986 105.599 722.086 473.799
2621 0 77.1983 12.4096 958 106.749 722.304 469.999
2622 0 80.1712 12.2987 986 105.903 721.408 471.588
2623 1 39.0263 9.35268 365 109.929 722.162 490.918
2624 0 44.1306 12.395 547 106.463 721.98 486.64
2625 0 41.1229 11.4535 471 108.558 721.698 487.168
2626 0 44.0312 15.1938 669 103.229 721.94 482.725
2627 0 46.0428 10.8595 500 109.666 721.296 482.69
2628 0 48.0234 13.306 639 106.197 721.848 479.344
2629 0 47.0668 11.728 552 109.438 722.246 477.543
2630 0 54.0576 13.1526 711 104.046 722.473 476.307
2631 0 53.0445 11.7449 623 107.133 722.786 473.483
2632 0 53.0387 16.5917 880 100.984 722.686 474.989
2633 0 54.0636 13.928 753 103.809 722.927 474.155
2634 0 56.0524 12.3456 692 108.672 723.204 470.26
2635 0 59.0937 14.5024 857 104.543 723.546 469.345
2636 0 61.1469 13.4921 825 106.173 724.316 469.229
2637 0 61.0552 12.6443 772 107.535 725.692 468.541
2638 0 60.0354 13.0923 786 108.313 726.491 466.844
2639 0 60.0354 13.0423 783 134.092 727.517 466.796
2640 0 69.1205 14.1058 975 105.581 726.664 468.332
2641 0 69.1068 13.1535 909 107.997 727.547 467.07
2642 1 51.2448 15.748 807 94.2627 729.886 483.41
2643 0 49.1039 14.1944 697 97.5323 730.208 482.811
2644 0 50.8234 15.6817 797 100.379 729.045 483.264
2645 0 52.2737 15.8971 831 97.4874 727.105 486.927
2646 0 53.4324 14.13 755 100.991 727.05 481.942
2647 0 52.0961 14.1661 738 101.738 726.031 481.906
2648 0 57.3251 10.2573 588 104.752 726.895 484.296
2649 0 58.2408 12.5513 731 103.412 728.108 481.476
2650 0 60.5853 15.6474 948 98.8534 725.96 480.532
2651 0 62.0965 13.6884 850 101.569 727.142 479.972
2652 0 63.6549 10.9497 697 103.641 725.31 477.349
2653 0 68.4376 20.8219 1425 93.2386 724.563 476.856
2654 0 71.6286 12.6765 908 102.575 723.181 478.396
2655 0 73.3272 14.3057 1049 98.7617 721.865 476.997
2656 0 73.2472 14.3077 1048 100.278 722.052 471.067
2657 0 76.3484 12.2727 937 102.14 721.391 468.648
2658 0 80.4985 15.0438 1211 98.1635 719.686 470.922
2659 0 80.4985 14.9444 1203 141.869 718.668 470.917
2660 0 84.3081 16.2143 1367 96.8552 718.757 468.036
2661 1 39.2235 6.50121 255 105.31 720.047 482.278
2662 0 47.3901 14.0325 665 95.2451 718.887 481.171
2663 0 46.2251 12.2228 565 94.2372 717.584 485.281
2664 0 49.3065 18.456 910 85.1802 719.144 479.554
2665 0 49.3415 22.5571 1113 83.9012 717.853 476.671
2666 0 51.1256 14.1416 723 97.0249 717.159 479.337
2667 0 52.1155 13.3166 694 97.2694 716.412 475.223
2668 0 55.0563 20.0704 1105 90.3068 717.046 477.943
2669 0 58.1248 14.7958 860 95.6384 717.792 475.654
2670 0 59.0915 15.2983 904 96.5774 717.323 472.298
2671 0 61.1013 14.9424 913 96.1752 718.306 472.755
2672 0 63.2903 15.1208 957 96.9801 718.664 469.201
2673 0 67.9397 24.139 1640 88.1006 719.33 470.037
2674 0 66.4204 17.043 1132 96.2597 719.53 467.129
2675 0 66.0853 9.00352 595 107.578 720.975 464.022
2676 0 68.1326 11.2575 767 104.499 720.612 465.057
2677 0 72.0977 12.7605 920 101.64 720.716 467.433
2678 0 74.3097 12.1518 903 103.913 721.812 463.413
2679 0 75.0809 13.1991 991 104.166 722.705 462.591
2680 0 74.1715 11.7565 872 107.427 723.05 459.062
2681 0 83.3432 15.4902 1291 101.421 723.028 458.857
2682 0 83.0732 13.7469 1142 104.331 722.378 459.237
2683 0 89.2816 17.652 1576 99.7963 724.38 460.109
2684 0 92.2187 15.0512 1388 101.92 723.515 463.206
2685 0 93.173 16.6572 1552 101.332 724.43 458.462
2686 1 49.0379 10.0331 492 106.445 723.555 483.156
2687 0 51.0522 15.5135 792 100.212 724.011 480.778
2688 0 51.2916 14.1154 724 102.235 724.155 481.721
2689 0 53.0483 12.1022 642 105.391 721.782 482.488
2690 0 54.1093 11.7355 635 106.55 723.072 481.241
2691 0 55.067 17.8147 981 97.8165 723.626 485.348
2692 0 57.0482 17.4063 993 98.6727 722.553 485.24
2693 0 59.3557 14.2867 848 102.77 722.446 480.796
2694 0 61.1645 17.0687 1044 97.1207 721.488 486.401
2695 0 63.0992 13.8829 876 103.282 721.191 480.166
2696 0 63.0992 13.867 875 147.569 721.186 480.008
2697 0 69.0776 16.4019 1133 99.6461 721.216 479.066
2698 0 69.1892 13.9762 967 102.829 721.101 480.215
2699 0 72.1019 18.8761 1361 96.147 720.906 474.579
2700 0 74.21 11.6426 864 102.382 719.527 473.667
2701 0 76.1905 14.7394 1123 101.651 718.845 473.296
2702 0 80.2317 21.3881 1716 85.5087 718.39 473.905
2703 0 86.2681 13.9101 1200 89.06 718.544 479.887
2704 0 83.2326 13.0358 1085 94.0166 717.076 463.684
2705 0 86.1965 10.6849 921 96.5646 717.353 468.461
2706 0 88.1453 13.8975 1225 93.9641 717.258 459.207
2707 0 87.2931 16.2098 1415 91.5534 717.596 463.071
2708 1 47.0812 14.5068 683 91.7291 716.985 481.508
2709 0 50.2026 11.593 582 94.9639 716.883 477.12
2710 0 50.0526 7.91167 396 91.8131 718.2 475.609
2711 0 54.5798 17.8637 975 84.2523 718.528 475.308
2712 0 53.1918 12.8215 682 90.6774 719.283 475.397
2713 0 55.0731 13.0735 720 92.4028 718.419 475.024
2714 0 59.1581 17.766 1051 87.3663 718.595 476.956
2715 0 61.2548 10.9542 671 94.0149 719.03 477.137
2716 0 62.2217 18.2091 1133 88.0644 720.691 475.531
2717 0 62.0862 11.5646 718 96.1657 719.96 468.362
2718 0 65.2082 16.777 1094 88.2212 720.863 473.963
2719 0 67.1364 11.0372 741 96.3711 720.754 467.151
2720 0 72.1258 17.9547 1295 87.339 722.147 471.812
2721 0 74.2454 16.1357 1198 90.369 722.216 466.76
2722 0 70.1332 13.9449 978 94.184 721.068 460.937
2723 0 78.5154 15.6912 1232 91.4156 723.168 468.2
2724 0 78.2902 14.0631 1101 94.4787 724.072 462.98
2725 0 83.5473 17.3554 1450 91.4317 724.319 461.837
2726 0 83.363 12.1037 1009 96.9475 724.912 463.141
2727 0 89.2597 23.5045 2098 86.0214 724.754 465.564
2728 1 43.1238 10.2032 440 96.2068 723.03 484.227
2729 0 47.1041 17.0474 803 87.2827 724.281 478.452
2730 0 44.2722 7.70235 341 91.0381 725.384 476.44
2731 0 50.0846 18.6884 936 85.734 725.386 485.912
2732 0 51.097 11.1553 570 93.3193 723.639 486.214
2733 0 53.2301 13.5074 719 89.7789 724.36 485.652
2734 0 52.1482 8.28408 432 95.5185 723.75 487.558
2735 0 54.2297 10.3818 563 93.9343 723.666 483.293
2736 0 58.1957 16.8569 981 88.4312 724.222 481.23
2737 0 59.1301 18.5692 1098 85.7177 723.163 488.37
2738 0 60.1716 19.7934 1191 86.2376 722.848 483.736
2739 0 64.2217 11.4914 738 92.2737 721.566 483.695
2740 0 65.2092 13.587 886 92.3533 721.944 478.405
2741 0 66.3042 14.4033 955 91.6733 720.691 479.694
2742 0 74.3447 16.2083 1205 88.9784 720.015 480.642
2743 0 71.1909 18.5417 1320 88.8674 720.956 472.952
2744 0 72.2059 17.0762 1233 88.1598 719.251 483.144
2745 0 75.3374 11.6277 876 93.4989 719.153 480.459
2746 0 76.2039 13.7919 1051 93.589 719.058 474.453
2747 0 80.1901 11.0113 883 96.3228 718.432 473.42
2748 0 91.365 18.4753 1688 88.1718 717.996 464.992
2749 1 45.0621 13.781 621 93.2512 715.119 485.438
2750 0 50.2758 19.214 966 85.5072 717.224 486.013
2751 0 51.1919 20.7064 1060 87.0981 717.361 481.545
2752 0 51.1 13.0333 666 91.8559 718.794 476.444
2753 0 55.4919 16.6511 924 92.7965 720.518 479.372
2754 0 54.1751 12.072 654 106.599 720.45 479.768
2755 0 54.0957 11.4797 621 104.522 721.114 478.277
2756 0 55.1719 14.5908 805 103.099 721.154 475.725
2757 0 57.1774 11.9628 684 103.994 721.822 477.224
2758 0 68.1486 12.3113 839 102.327 722.625 474.01
2759 0 63.4372 12.3744 785 104.609 723.875 470.092
2760 0 63.2895 15.4212 976 100.194 723.197 472.739
2761 0 67.3258 14.0511 946 103.357 724.642 467.88
2762 0 69.3343 12.5191 868 105.854 725.111 466.68
2763 0 73.3363 19.5674 1435 97.2648 724.619 465.939
2764 0 75.7376 16.0818 1218 102.53 724.912 462.329
2765 0 76.5538 16.5243 1265 102.755 725.465 464.467
2766 0 80.3281 17.5655 1411 103.62 726.556 460.226
2767 0 82.627 16.1448 1334 104.256 725.618 462.146
2768 0 87.5239 15.093 1321 105.401 727.533 460.961
2769 0 89.1499 15.2664 1361 106.565 728.076 461.704
2770 0 92.3566 13.9893 1292 109.029 727.659 458.085
2771 1 48.0474 14.5065 697 108.217 728.307 478
2772 0 49.0926 12.3237 605 106.344 728.926 477.871
2773 0 53.2702 13.929 742 105.763 728.594 480.528
2774 0 54.0471 11.527 623 110.782 727.146 480.035
2775 0 59.5475 14.5766 868 106.38 727.371 480.271
2776 0 60.2652 13.1419 792 107.929 726.46 481.865
2777 0 62.3352 11.8553 739 109.773 726.612 480.742
2778 0 65.544 14.784 969 105.917 726.721 475.912
2779 0 66.8878 14.2477 953 107.413 727.085 479.395
2780 0 67.4971 14.4303 974 106.713 725.172 480.026
2781 0 72.4771 13.287 963 108.518 724.902 474.822
2782 0 77.2367 15.7438 1216 102.979 724.676 476.692
2783 0 77.5268 15.2592 1183 105.031 723.477 467.855
2784 0 80.7309 16.3382 1319 103.588 723.324 468.252
2785 0 82.8653 15.9536 1322 104.444 723.324 465.477
2786 0 82.5651 14.3886 1188 106.983 723.363 459.9
2787 0 89.8353 14.2594 1281 105.733 721.491 462.692
2788 1 46.5965 13.4774 628 104.772 721.777 482.725
2789 0 43.6199 12.4943 545 108.022 720.64 480.495
2790 0 48.3919 11.4275 553 109.063 720.237 480.723
2791 0 48.2707 14.6051 705 105.349 721.204 473.262
2792 0 52.5742 13.2574 697 106.082 719.862 474.872
2793 0 53.1124 12.916 686 105.243 719.036 454.825
2794 0 54.2747 20.82 1130 97.6832 719.962 445.919
2795 0 56.3677 15.3102 863 101.856 720.4 452.922
2796 0 60.2686 16.0283 966 102.127 720.452 448.715
2797 0 60.412 11.3388 685 108.436 719.746 450.499
2798 0 62.1847 12.3825 770 107.414 721.352 444.494
2799 0 67.358 14.1631 954 103.433 722.171 446.106
2800 0 68.3741 19.0862 1305 97.2927 721.807 446.655
2801 0 68.7498 16.2909 1120 101.255 722.454 447.924
2802 0 65.2369 12.9375 844 105.825 723.386 434.18
2803 0 71.2639 14.4814 1032 102.57 724.241 434.529
2804 0 70.2607 12.8948 906 140.053 724.236 432.551
2805 0 76.2195 23.2618 1773 94.6695 725.591 435.432
2806 0 78.2445 14.672 1148 103.217 725.577 440.104
2807 0 79.3715 13.4305 1066 105.921 726.301 437.217
2808 0 86.3438 21.0554 1818 96.4835 726.608 446.166
2809 0 83.3322 12.3242 1027 108.129 727.262 441.165
2810 0 86.3508 12.3913 1070 108.333 727.915 448.291
2811 0 89.264 15.8182 1412 103.478 728.3 451.392
2812 0 91.6346 15.3326 1405 104.484 727.578 452.613
2813 0 96.5083 13.7501 1327 106.566 728.366 452.468
2814 0 97.318 11.6217 1131 108.619 728.2 451.762
2815 0 100.321 16.1581 1621 102.028 727.831 455.494
2816 0 105.39 15.6657 1651 103.74 728.8 450.211
2817 0 110.339 14.1473 1561 101.705 727.385 459.657
2818 0 115.719 16.1857 1873 102.315 728.149 451.026
2819 1 62.3436 12.9444 807 103.468 726.647 474.587
2820 0 66.2668 13.1287 870 102.918 726.352 471.017
2821 0 70.2723 12.2096 858 103.59 725.728 472.963
2822 0 67.357 10.3182 695 107.196 727.232 470.645
2823 0 67.357 10.3775 699 131.525 729.249 470.572
2824 0 73.1948 13.0747 957 104.701 726.764 472.286
2825 0 77.2789 12.4096 959 105.547 726.557 469.736
2826 0 81.3787 14.7336 1199 102.764 726.726 466.916
2827 0 83.3765 13.9008 1159 103.963 725.625 464.528
2828 0 86.2593 14.2246 1227 103.151 724.386 463.28
2829 0 90.581 10.0352 909 107.913 724.114 457.99
2830 0 96.2398 21.2178 2042 94.0793 723.536 454.607
2831 0 98.2122 15.4869 1521 100.381 723.109 456.323
2832 0 103.518 16.5478 1713 97.3106 723.132 460.842
2833 0 110.819 16.7481 1856 97.4186 723.191 453.609
2834 0 108.427 16.2506 1762 96.2384 721.913 454.927
2835 0 115.186 13.2134 1522 99.6991 722.078 448.158
2836 1 59.2113 14.5411 861 96.3252 722.339 471.208
2837 0 65.2611 15.2924 998 91.7275 722.807 476.661
2838 0 63.3059 15.9701 1011 92.5094 722.78 474.395
2839 0 69.2261 14.4021 997 92.8877 723.123 471.464
2840 0 69.4978 10.8205 752 97.5452 724.136 469.225
2841 0 72.1289 18.5917 1341 90.0932 722.833 464.114
2842 0 72.2958 12.1031 875 96.7897 723.875 464.517
2843 0 75.1682 13.8622 1042 96.1478 724.076 462.079
2844 0 76.1931 10.5653 805 100.431 724.142 461.312
2845 0 79.2051 11.5018 911 99.8935 724.382 458.504
2846 0 84.1781 15.0514 1267 95.4428 725.273 457.617
2847 0 86.3698 14.7389 1273 97.3802 726.083 453.585
2848 0 88.0854 14.6335 1289 97.9604 726.244 453.429
2849 0 92.3186 11.1029 1025 100.883 727.073 456.842
2850 0 88.1551 12.7729 1126 101.143 727.502 449.113
2851 0 98.2258 14.3038 1405 98.2818 726.082 446.76
2852 0 98.3904 13.5684 1335 100.365 726.835 443.143
2853 0 101.326 13.6687 1385 98.6419 727.472 452.405
2854 0 110.279 22.6517 2498 91.9748 727.158 444.555
2855 0 111.285 16.4263 1828 98.7637 728.068 441.917
2856 0 112.216 13.6255 1529 101.611 728.489 444.307
2857 1 63.3587 12.6739 803 101.259 729.919 467.254
2858 0 68.0535 11.7995 803 101.522 729.626 471.514
2859 0 66.2288 10.8261 717 103.962 730.29 467.413
2860 0 62.2176 10.0293 624 133.518 732.409 469.131
2861 0 75.4582 13.968 1054 98.7315 729.84 464.42
2862 0 75.4154 13.1406 991 100.556 729.946 468.722
2863 0 79.243 15.1054 1197 98.8212 729.906 466.086
2864 0 83.4746 13.8246 1154 97.604 729.016 458.183
2865 0 87.632 15.5879 1366 96.0732 728.611 460.82
2866 0 90.2445 15.5799 1406 96.5875 728.06 460.206
2867 0 92.293 14.4215 1331 99.5875 728.21 463.207
2868 0 97.4506 13.1143 1278 102.771 726.777 459.929
2869 0 96.51 10.5274 1016 105.264 727.333 468.432
2870 0 100.413 12.8569 1291 104.294 726.206 450.978
2871 0 103.587 14.915 1545 101.678 724.515 448.057
2872 1 53.3607 15.7044 838 93.6766 725.428 484.721
2873 0 54.7666 11.3025 619 98.5848 723.85 481.428
2874 0 58.4961 12.3598 723 97.6584 723.491 477.696
2875 0 61.2465 10.8088 662 99.4275 723.518 481.379
2876 0 60.1732 12.0818 727 99.9023 723.063 475.121
2877 0 62.3488 12.5103 780 99.6282 723.322 472.282
2878 0 65.4019 14.6938 961 97.0302 723.01 469.149
2879 0 71.5871 18.8721 1351 91.151 722.669 470.657
2880 0 71.1749 14.0499 1000 98.043 723.92 466.541
2881 0 71.2876 11.124 793 101.41 722.277 463.168
2882 0 74.3038 12.9872 965 99.3306 722.693 462.849
2883 0 76.7716 14.198 1090 99.4321 721.857 458.327
2884 0 80.766 14.4244 1165 98.9013 724.403 459.19
2885 0 82.2921 12.6622 1042 99.9837 724.211 458.93
2886 0 82.3764 13.6447 1124 100.264 724.209 454.586
2887 0 85.4854 10.7621 920 103.482 723.984 453.045
2888 0 92.9487 19.2149 1786 92.2032 724.856 456.363
2889 0 91.3551 11.0776 1012 104.321 725.477 450.748
2890 0 95.5561 11.7523 1123 103.158 725.873 442.886
2891 0 208.644 10.7264 2238 106.256 726.82 399.54
2892 1 166.585 12.8463 2140 102.96 727.589 414.729
2893 0 168.639 10.5907 1786 106.63 728.066 412.714
2894 0 172.502 13.194 2276 104.082 727.902 411.272
2895 1 54.2495 13.4563 730 96.3877 728.436 467.99
2896 0 57.206 19.8755 1137 90.467 729.884 469.274
2897 0 59.3499 13.294 789 96.3866 729.356 470.251
2898 0 62.4188 11.2466 702 98.7892 729.621 469.288
2899 0 64.1313 11.1646 716 98.4874 729.796 468.585
2900 0 65.3706 14.4866 947 95.1964 729.931 469.989
2901 0 66.3165 12.7872 848 95.9847 730.441 475.369
2902 0 70.3563 11.6265 818 98.4523 729.66 473.348
2903 0 70.2593 12.4966 878 100.215 730.803 469.547
2904 0 75.366 15.166 1143 96.3797 731.272 471.163
2905 0 76.4576 13.6546 1044 98.3065 729.529 469.744
2906 0 80.5763 14.8307 1195 98.4218 731.011 467.085
2907 0 88.2827 18.2029 1607 92.5327 730.472 466.798
2908 0 80.262 8.44733 678 103.417 729.884 470.649
2909 0 84.6378 18.4669 1563 93.0557 729.933 469.388
2910 0 90.8289 15.9641 1450 95.6828 729.021 464.382
2911 0 94.3649 17.3264 1635 93.7768 728.431 468.061
2912 0 96.3219 13.2369 1275 96.4306 728.749 474.954
2913 1 54.2321 14.3273 777 96.7542 727.633 486.985
2914 0 51.1112 14.3022 731 98.5869 726.565 485.402
2915 0 54.1655 10.8187 586 102.003 726.722 488.285
2916 0 55.2162 15.4665 854 97.7693 725.275 483.542
2917 0 56.129 12.6851 712 100.247 725.892 483.072
2918 0 58.3082 13.24 772 99.7228 724.123 481.504
2919 0 62.1661 17.6945 1100 95.1073 724.899 476.74
2920 0 64.2712 12.245 787 100.273 724.238 477.009
2921 0 66.393 17.1855 1141 95.4698 725.187 472.951
2922 0 70.3226 13.9927 984 99.0671 723.404 473.217
2923 0 66.0852 14.2241 940 100.081 724.252 474.878
2924 0 77.2059 16.035 1238 97.1107 724.979 465.373
2925 0 76.1543 13.709 1044 98.3554 723.582 471.982
2926 0 80.4989 15.0188 1209 99.0414 724.418 464.38
2927 0 81.333 16.5615 1347 96.5063 723.572 465.187
2928 0 88.7762 23.5311 2089 89.3092 723.705 466.013
2929 0 86.2018 14.5473 1254 98.236 723.675 466.844
2930 0 89.1895 15.6296 1394 99.5438 723.903 456.09
2931 0 94.48 15.5589 1470 99.2306 724.601 455.342
2932 0 97.5289 17.8101 1737 96.5222 725.71 451.945
2933 0 101.441 20.1989 2049 93.6437 724.683 453.874
2934 0 107.441 18.1122 1946 92.5704 726.129 459.754
2935 1 58.0845 17.4918 1016 99.3573 727.698 469.298
2936 0 60.1668 11.7008 704 107.152 727.153 464.621
2937 0 65.1334 14.217 926 103.499 728.076 468.131
2938 0 65.2649 19.9342 1301 97.7663 726.67 467.613
2939 0 63.3323 16.8792 1069 102.299 729.039 469.297
2940 0 65.2499 12.2452 799 108.487 729.252 461.884
2941 1 133.519 13.8632 1851 102.515 730.155 443.464
2942 1 72.317 17.6584 1277 101.369 731.088 464.305
2943 0 76.2962 14.8369 1132 103.344 730.822 470.71
2944 0 75.3466 14.1612 1067 105.377 731.107 469.8
2945 0 79.4451 19.7747 1571 97.8912 731.48 470.168
2946 0 83.1851 15.2792 1271 103.838 730.979 467.08
2947 0 86.3846 11.4835 992 109.118 731.132 466.698
2948 0 89.5813 16.8785 1512 101.324 730.734 459.79
2949 1 46.2793 14.218 658 102.722 730.173 481.474
2950 0 49.0565 12.9646 636 102.16 729.451 481.259
2951 0 52.2626 10.1985 533 100.34 730.156 470.293
2952 0 52.1823 13.9319 727 97.6836 729.524 469.466
2953 0 52.1823 14.0469 733 139.453 729.552 469.542
2954 0 50.1028 18.5818 931 93.7057 728.686 476.324
2955 0 51.1964 13.4189 687 101.696 726.942 474.961
2956 0 55.2755 14.2016 785 98.8586 728.372 483.315
2957 0 54.1892 13.3975 726 101.041 726.028 484.084
2958 0 56.2715 14.8032 833 101.431 726.563 482.675
2959 0 58.2186 13.7928 803 101.68 725.583 476.448
2960 0 60.1218 16.6163 999 98.2573 725.08 482.152
2961 0 62.1611 11.2289 698 105.582 724.771 478.683
2962 0 64.2857 17.2511 1109 96.6222 725.149 478.761
2963 0 69.3755 17.499 1214 95.846 723.576 476.781
2964 0 70.204 15.1701 1065 99.1502 724.537 475.3
2965 0 73.2989 15.9484 1169 99.4867 723.118 470.855
2966 0 76.4711 16.673 1275 98.6714 722.903 469.14
2967 0 79.0904 19.2059 1519 96.2357 723.437 468.797
2968 0 80.3153 15.2897 1228 101.379 722.669 462.546
2969 1 42.1316 13.8851 585 101.966 722.906 480.668
2970 0 43.0922 11.6726 503 106.724 722.592 479.887
2971 0 48.2276 18.1639 876 97.581 724.602 481.832
2972 0 46.2086 12.1623 562 105.628 723.858 479.196
2973 0 50.5795 14.5118 734 101.783 724.781 478.342
2974 0 54.2237 14.4217 782 99.78 725.183 479.322
2975 0 49.2681 11.407 562 108.557 725.176 476.911
2976 0 51.1252 13.8288 707 110.74 726.769 472.867
2977 0 51.1252 13.7701 704 150.841 728.781 472.848
2978 0 57.1719 17.4561 998 105.403 727.484 470.308
2979 0 59.2692 16.4841 977 107.494 727.869 470.972
2980 0 68.2728 25.984 1774 93.2204 726.714 460.542
2981 0 73.3738 18.0718 1326 101.063 727.529 465.926
2982 0 73.3142 22.4513 1646 98.1586 728.544 463.553
2983 0 71.5622 18.3617 1314 103.905 729.176 464.638
2984 0 78.1746 22.0532 1724 98.7477 729.367 461.222
2985 0 76.3959 28.2476 2158 94.7405 730.103 460.854
2986 0 76.5028 16.7837 1284 109.041 730.196 467.031
2987 0 76.3972 16.5058 1261 110.797 730.6 464.676
2988 0 77.1921 14.7165 1136 114.162 730.54 465.376
2989 0 80.2984 15.0065 1205 114.312 730.442 466.277
2990 0 85.8538 14.7809 1269 111.545 731.437 470.383
2991 0 83.269 15.3479 1278 114.081 730.537 465.036
2992 1 45.0647 22.612 1019 104.761 729.19 484.926
2993 0 48.2752 19.596 946 107.473 729.645 485.73
2994 0 51.7 21.4893 1111 103.804 730.628 488.089
2995 0 49.1095 18.4486 906 111.184 728.492 487.031
2996 0 52.2567 17.2227 900 113.077 729.658 485.493
2997 0 54.1537 17.5611 951 113.017 728.281 484.804
2998 0 55.3187 15.2028 841 116.122 727.234 486.269
2999 0 61.0802 19.0733 1165 109.524 727.683 483.796
3000 0 59.3632 17.7046 1051 113.168 726.724 482.482
3001 0 65.4185 18.3281 1199 110.235 725.687 482.884
3002 0 67.937 17.0452 1158 111.674 725.851 482.372
3003 0 67.368 17.9165 1207 112.214 726.017 478.155
3004 0 70.3183 16.9799 1194 113.211 723.791 476.922
3005 0 74.9334 19.2705 1444 108.161 724.445 479.914
3006 0 74.5783 13.878 1035 118.695 723.593 475.162
3007 0 76.6003 17.4281 1335 114.13 722.014 471.118
3008 0 79.4374 14.93 1186 118.192 722.04 470.505
3009 0 84.2874 19.0894 1609 111.901 722.011 470.035
3010 1 38.3623 21.1145 810 109.638 722.7 488.953
3011 0 38.31 15.1658 581 120.589 722.176 487.16
3012 0 40.4187 16.8239 680 118.826 722.222 485.288
3013 0 43.4193 18.0565 784 113.679 722.756 487.339
3014 0 48.5594 20.3462 988 109.844 723.194 482.556
3015 0 46.3195 20.337 942 112.365 722.869 481.722
3016 0 48.3443 20.9952 1015 111.21 724.065 481.868
3017 0 54.5192 18.709 1020 112.434 723.854 476.949
3018 0 48.3589 15.3229 741 125.351 724.729 478.858
3019 0 52.45 23.4128 1228 110.394 723.45 474.684
3020 0 55.4168 24.1624 1339 107.546 725.24 474.557
3021 0 58.4004 17.8595 1043 117.174 725.767 474.213
3022 0 60.3119 25.2023 1520 107.109 726.371 473.589
3023 0 68.7503 21.8472 1502 107.101 726.79 468.085
3024 0 67.3457 25.6587 1728 104.105 727.226 467.289
3025 0 70.3448 22.148 1558 109.162 728.056 471.411
3026 0 69.3723 29.8534 2071 102.196 728.622 469.724
3027 0 69.3378 18.4892 1282 118.402 729.182 469.64
3028 0 70.3743 20.9878 1477 115.223 729.223 467.586
3029 0 75.4009 21.9759 1657 112.641 728.566 469.295
3030 0 75.4009 23.2491 1753 127.635 727.573 468.356
3031 0 77.2783 20.9244 1617 118.529 730.082 470.11
3032 0 76.5777 17.2766 1323 127.435 729.392 474.893
3033 0 84.7022 21.2273 1798 117.34 729.862 468.377
3034 0 86.448 24.7895 2143 112.194 729.051 465.746
3035 0 86.4438 24.7328 2138 124.705 728.052 465.703
3036 1 40.134 12.9815 521 133.167 728.823 491.917
3037 0 41.0658 14.3672 590 130.771 727.849 491.192
3038 0 42.2938 14.7776 625 127.405 728.048 492.234
3039 0 44.132 17.7196 782 121.276 728.844 491.633
3040 0 45.2266 13.2002 597 127.278 728.075 493.209
3041 0 50.2841 21.478 1080 111.185 727.093 488.071
3042 0 50.2841 21.6172 1087 132.246 725.081 488.117
3043 0 59.528 28.054 1670 100.966 725.025 486.599
3044 0 59.2706 19.9762 1184 111.319 725.73 485.253
3045 0 57.2658 19.261 1103 114.978 723.921 483.675
3046 0 55.2197 17.9103 989 120.915 723.815 484.554
3047 0 59.2068 19.6937 1166 116.462 723.7 483.268
3048 0 60.1731 20.574 1238 115.978 723.431 482.126
3049 0 60.2539 15.6836 945 125.028 723.425 481.419
3050 0 62.2014 16.7359 1041 122.964 722.33 481.757
3051 0 61.1719 15.8406 969 124.776 722.589 480.709
3052 0 64.422 17.5251 1129 122.786 722.063 475.703
3053 0 69.0948 14.9215 1031 124.885 722.111 478.112
3054 0 71.358 15.6394 1116 124.413 722.424 472.352
3055 0 77.4062 22.1688 1716 111.755 722.858 471.049
3056 0 77.1455 24.3436 1878 110.729 723.088 467.177
3057 0 76.2802 17.7635 1355 121.713 721.428 467.641
3058 0 82.2743 21.5377 1772 115.36 722.442 466.405
3059 0 83.5785 19.3351 1616 117.851 722.837 467.242
3060 0 89.1584 21.4113 1909 115.22 722.493 462.639
3061 0 90.346 18.0086 1627 122.262 723.283 460.594
3062 0 91.3792 18.3849 1680 122.695 722.97 456.68
3063 0 99.5163 24.8803 2476 110.908 724.58 446.574
3064 0 103.562 26.6796 2763 109.504 724.064 451.676
3065 0 105.662 21.3605 2257 117.981 725.129 455.025
3066 0 105.422 24.9284 2628 114.273 726.302 446.919
3067 0 107.3 19.7671 2121 123.53 726.57 448.91
3068 0 106.224 16.5688 1760 130.882 727.722 454.8
3069 0 113.36 19.275 2185 123.96 727.804 453.255
3070 0 111.303 16.7292 1862 132.681 727.542 447.521
3071 0 118.295 17.9635 2125 128.652 727.459 451.238
3072 0 120.871 18.3336 2216 126.413 726.227 453.038
3073 1 213.333 9.58125 2044 138.306 727.042 440.036
3074 0 214.136 6.93485 1485 149.588 727.004 453.764
3075 0 214.425 6.8089 1460 152.336 726.896 440.515
3076 0 216.401 5.91957 1281 152.891 726.13 476.597
3077 1 56.5742 20.3096 1149 152.445 725.146 487.872
