time division length width area intensity CMx CMy
0 0 53.1168 14.5152 771 126.446 135.048 475.589
1 0 53.0982 14.6521 778 122.898 134.704 476.965
2 0 58.0927 14.8556 863 121.394 134.336 473.385
3 0 58.119 12.3712 719 125.765 133.597 473.957
4 0 62.1597 21.2678 1322 108.845 133.012 472.621
5 0 62.3805 12.9848 810 124.51 131.795 470.367
6 0 66.1689 15.8534 1049 119.048 130.865 468.438
7 0 68.1399 15.8204 1078 120.144 129.048 466.109
8 0 68.1467 15.8628 1081 138.553 128.079 466.118
9 0 74.1786 15.6379 1160 122.1 128.023 463.549
10 0 75.1335 16.9166 1271 118.024 128.404 461.612
11 1 36.0351 14.2639 514 122.679 127.006 478.377
12 0 41.0181 14.3351 588 119.463 127.626 481.432
13 0 41.0589 13.9799 574 119.134 127.786 477.406
14 0 41.1572 14.3596 591 120.65 127.354 476.391
15 0 43.13 14.4679 624 119.24 126.585 473.455
16 0 46.1345 12.2468 565 117.786 127.094 475.853
17 0 44.1206 16.5909 732 114.209 126.646 470.779
18 0 46.0965 13.6019 627 122.979 126.821 470.978
19 0 49.0893 17.5395 861 114.003 125.045 471.505
20 0 49.1256 13.1703 647 118.141 126.107 469.832
21 0 50.0921 16.4497 824 111.993 126.63 470.278
22 0 51.0795 15.0941 771 116.887 127.746 463.668
23 0 51.0795 14.9962 766 145.894 128.777 463.584
24 0 55.0805 15.8314 872 120.466 131.156 461.472
25 0 57.0913 14.0126 800 121.746 131.535 461.794
26 0 60.1283 16.8307 1012 116.884 133.283 461.062
27 0 61.1363 14.345 877 122.583 133.384 458.827
28 0 66.1267 14.1849 938 122.92 133.39 456.306
29 0 67.1348 14.4188 968 121.364 134.613 454.802
30 0 70.1746 17.3852 1220 117.262 134.116 452.943
31 0 72.2235 16.3936 1184 117.96 136.308 454.095
32 0 76.1388 14.6312 1114 121.817 136.601 452.158
33 0 79.0939 17.8016 1408 115.215 136.683 450.808
34 0 81.1601 18.5313 1504 114.373 137.1 452.716
35 0 84.2499 16.4154 1383 119.581 136.766 451.049
36 0 88.2108 17.3788 1533 115.847 138.038 448.047
37 0 86.1994 15.6962 1353 119.653 137.234 445.123
38 0 90.27 15.1435 1367 123.203 138.063 446.54
39 0 95.1911 14.3711 1368 117.704 138.23 447.263
40 1 48.0554 12.7561 613 114.612 137.938 472.39
41 0 52.157 15.4534 806 108.939 138.155 472.459
42 0 52.0496 12.661 659 111.716 137.589 471.539
43 0 54.1165 12.4916 676 112.827 136.859 471.142
44 0 55.1202 13.2438 730 111.815 136.082 470.795
45 0 59.0917 14.249 842 117.538 135.6 469.532
46 0 63.1675 13.393 846 125.284 135.112 471.072
47 0 62.0788 16.2696 1010 123.602 134.824 468.225
48 0 66.1749 15.4439 1022 121.286 134.18 469.208
49 0 70.1715 15.6046 1095 122.579 133.897 467.795
50 0 71.2312 17.5485 1250 122.992 131.997 468.014
51 0 73.2127 15.735 1152 127.424 132.032 463.906
52 0 74.1115 14.2623 1057 130.609 131.983 460.837
53 0 80.1636 15.2064 1219 127.089 131.64 461.185
54 0 83.0801 15.8642 1318 127.21 131.126 459.288
55 0 85.1566 14.6788 1250 129.592 130.422 455.711
56 0 89.1513 17.532 1563 123.848 130.393 453.946
57 0 93.2829 15.319 1429 127.269 129.466 452.036
58 1 51.0361 12.9712 662 126.77 128.627 471.686
59 0 52.1175 9.47858 494 129.277 130.204 475.542
60 0 53.1498 12.286 653 127.44 128.006 471.142
61 0 55.1033 14.6815 809 119.913 127.75 464.691
62 0 59.2367 18.2151 1079 114.499 127.351 468.13
63 0 60.111 15.7875 949 119.501 128.993 464.683
64 0 62.1226 13.586 844 122.011 128.077 464.364
65 0 65.1561 11.5876 755 123.98 129.066 464.144
66 0 67.1294 13.6602 917 121.595 128.887 458.921
67 0 68.1635 15.2721 1041 118.558 129.529 458.376
68 0 67.0449 13.0211 873 123.669 129.688 455.088
69 0 72.1609 13.0957 945 124.62 129.912 455.024
70 0 76.297 21.5343 1643 107.758 129.13 459.959
71 0 75.256 14.5769 1097 123.418 131.368 450.734
72 0 80.1307 15.1627 1215 119.589 131.493 450.742
73 0 81.2903 14.5282 1181 122.344 131.986 446.614
74 0 86.4587 13.7175 1186 123.788 132.131 445.738
75 0 88.5142 15.4213 1365 119.996 132.212 448.605
76 0 91.3845 16.0859 1470 119.739 133.286 443.811
77 0 94.2323 13.2863 1252 122.459 133.601 445.509
78 1 49.1419 12.9014 634 115.497 132.938 465.651
79 0 52.0969 11.1139 579 115.715 135.886 468.183
80 0 51.1371 8.60433 440 117.823 135.325 472.309
81 0 54.1799 11.794 639 114.313 135.831 470.074
82 0 55.0984 11.053 609 115.688 135.072 470.286
83 0 57.0409 10.3961 593 116.523 135.128 469.057
84 0 58.1375 9.63233 560 116.689 135.952 471.564
85 0 59.1538 8.3173 492 118.266 135.114 474.52
86 0 61.1076 9.90057 605 117.962 135.078 470.631
87 0 62.1762 11.4835 714 111.063 135.277 478.294
88 0 65.1266 9.98056 650 113.914 135.008 475.489
89 0 67.2367 11.4075 767 115.469 134.511 468.953
90 0 71.3664 12.667 904 114.265 133.566 468.028
91 0 73.1925 11.258 824 117.194 133.818 468.459
92 0 77.0713 15.4532 1191 112.191 132.96 464.86
93 0 74.0954 11.1478 826 119.728 132.415 465.584
94 1 85.1058 11.0333 939 118.557 131.997 464.782
95 0 86.3244 14.237 1229 115.311 129.167 463.077
96 0 85.1045 9.52946 811 122.45 129.85 461.956
97 0 91.1859 14.3443 1308 115.865 129.144 457.382
98 0 91.1859 14.3553 1309 136.136 128.139 457.308
99 0 101.252 16.2269 1643 112.833 128.705 451.539
100 0 102.247 14.4063 1473 114.961 127.25 450.428
101 1 58.0396 13.6458 792 111.643 125.785 471.923
102 0 60.126 10.611 638 116.423 126.047 475.492
103 0 57.1316 13.0401 745 110.538 127.342 473.153
104 0 62.1448 12.487 776 109.836 127.405 475.477
105 0 61.1062 10.9972 672 113.774 127.588 473.396
106 0 65.1948 11.1512 727 113.964 126.724 469.025
107 0 63.1215 10.6303 671 117.846 127.443 467.988
108 0 68.0974 13.9506 950 114.121 127.304 463.519
109 0 69.0655 11.1488 770 117.453 127.313 465.43
110 0 72.1479 13.8466 999 115.249 127.801 457.745
111 0 77.1174 9.18081 708 120.395 127.74 461.516
112 0 77.101 16.3422 1260 113.344 129.205 451.679
113 0 81.19 14.8541 1206 113.75 129.513 450.988
114 0 85.1671 16.8962 1439 110.183 130.199 453.414
115 0 89.2975 15.0396 1343 113.899 130.004 452.104
116 0 92.1781 15.9257 1468 112.838 131.01 447.875
117 1 45.3502 12.3704 561 117.082 131.28 470.583
118 0 47.2625 12.6316 597 113.729 131.291 471.563
119 0 45.0699 13.3792 603 115.682 132.197 470.408
120 0 47.0679 15.2121 716 113.318 131.585 468.014
121 0 49.0734 15.1813 745 114.544 132.984 467.792
122 0 50.1868 12.1147 608 119.941 133.711 469.516
123 0 52.2652 14.1968 742 117.364 134.58 468.274
124 0 53.1543 12.8118 681 117.349 133.877 471.728
125 0 56.1614 11.3601 638 121.696 134.616 469.044
126 0 56.3405 14.7851 833 117.385 133.598 468.555
127 0 58.1959 15.1901 884 115.969 134.58 467.594
128 0 59.1782 17.1178 1013 112.657 134.814 471.939
129 0 60.389 13.5124 816 120.9 133.621 469.01
130 0 63.1142 14.957 944 117.65 133.829 468.857
131 0 65.1751 13.4254 875 118.87 134.51 469.786
132 0 68.1368 22.1906 1512 104.854 134.232 472.927
133 0 69.2371 15.1942 1052 116.651 132.748 469.741
134 0 71.1824 11.309 805 122.916 130.361 469.604
135 0 73.4054 15.1896 1115 117.284 131.098 464.648
136 0 73.468 12.3047 904 123.407 130.353 462.551
137 0 79.4626 20.7267 1647 107.64 130.385 466.367
138 0 80.4506 13.1012 1054 121.959 128.523 462.049
139 0 83.4377 17.8457 1489 114.373 128.993 462.636
140 0 86.4152 12.1506 1050 124.87 127.118 457.91
141 0 90.3162 15.1246 1366 119.227 126.337 458.346
142 1 46.2409 11.1373 515 123.835 125.994 473.977
143 0 52.1386 12.8312 669 121.572 125.401 476.191
144 0 50.1018 12.295 616 125.294 123.506 472.891
145 0 55.1972 13.334 736 121.253 125.148 474.74
146 0 57.1199 15.0911 862 118.666 125.444 471.021
147 0 60.0731 13.9497 838 120.215 125.171 468.839
148 0 60.0685 12.8353 771 122.233 126.15 469.952
149 0 62.0552 12.1988 757 123.618 125.271 467.462
150 0 69.1274 10.4589 723 122.537 126.036 467.532
151 0 69.0686 14.681 1014 116.244 125.801 464.218
152 0 67.0745 14.4168 967 118.612 125.917 461.323
153 0 67.0745 14.4019 966 148.203 126.894 461.414
154 0 68.1656 13.1885 899 120.503 127.033 456.988
155 0 73.1467 13.4251 982 118.056 126.795 458.341
156 0 75.0898 16.0475 1205 115.27 127.304 454.17
157 0 80.206 14.5126 1164 115.485 127.742 454.882
158 0 80.0922 14.0963 1129 117.498 128.126 450.055
159 0 83.4103 16.9284 1412 113.404 129.054 451.155
160 1 41.158 9.23271 380 121.476 129.155 465.584
161 0 43.2956 16.0293 694 109.86 129.607 467.925
162 0 47.241 14.5425 687 110.4 129.604 467.461
163 0 45.2482 13.0392 590 111.702 129.934 468.602
164 0 49.0633 14.3284 703 110.45 131.91 467.947
165 0 50.1493 14.2973 717 109.555 132.462 470.095
166 0 54.0533 16.2987 881 106.39 132.666 470.57
167 0 55.4097 15.8998 881 107.132 131.694 471.268
168 0 50.1571 10.7263 538 118.087 131.686 471.641
169 0 53.3928 17.8301 952 106.922 132.439 470.683
170 0 56.2908 12.9861 731 113.497 131.741 473.427
171 0 57.1923 12.5716 719 114.75 131.917 473.011
172 0 60.3515 12.5432 757 114.033 132.066 474.088
173 0 61.2316 15.0249 920 111.659 131.582 471.601
174 0 62.1388 13.0675 812 114.995 131.615 471.533
175 0 64.2358 15.2719 981 111.987 130.837 469.764
176 0 66.1441 14.4684 957 113.692 130.945 468.573
177 0 71.2077 16.2061 1154 110.043 130.442 470.991
178 0 71.267 11.0149 785 118.29 129.206 471.845
179 0 75.4577 18.1824 1372 107.341 129.3 470.702
180 0 78.3025 15.1081 1183 111.24 128.009 470.799
181 0 79.0995 13.9445 1103 113.721 126.765 468.903
182 0 82.1077 13.2996 1092 116.056 126.826 466.592
183 0 84.1959 13.3023 1120 117.802 127.186 462.455
184 0 89.132 14.6861 1309 115.886 125.435 459.532
185 0 91.0783 13.3511 1216 118.228 124.935 461.396
186 1 49.3443 9.54517 471 121.828 125.268 479.597
187 0 53.7246 13.8856 746 113.087 124.361 477.31
188 0 55.0676 13.8012 760 111.953 123.939 475.174
189 0 56.1314 14.1632 795 109.031 123.143 475.113
190 0 55.0594 14.6387 806 109.614 123.445 473.321
191 0 60.0585 11.6053 697 112.382 123.026 472.683
192 0 61.0965 12.1938 745 113.577 123.748 467.397
193 0 61.0965 12.2102 746 131.954 124.756 467.335
194 0 68.1858 16.2644 1109 105.94 123.335 469.497
195 0 69.1829 16.8394 1165 106.564 124.36 464.561
196 0 72.3486 15.3562 1111 109.553 124.41 459.887
197 0 71.1079 13.374 951 114.326 125.262 456.247
198 0 74.1347 11.9782 888 116.943 125.631 454.729
199 0 77.3635 14.3866 1113 112.454 126.42 453.526
200 0 80.2727 14.8743 1194 113.902 127.157 452.044
201 0 82.3139 13.8494 1140 118.654 126.425 450.365
202 0 85.2812 17.1081 1459 114.256 127.611 448.48
203 0 88.4857 12.4427 1101 122.142 128.243 451.221
204 1 46.058 10.921 503 117.137 129.04 472.916
205 0 48.1017 14.8228 713 111.91 130.604 469.808
206 0 51.0534 11.4586 585 118.335 131.118 468.904
207 0 52.4343 14.8758 780 109.54 129.738 469.538
208 0 52.0547 11.4879 598 114.659 132.231 471.589
209 0 55.0469 13.4794 742 112.162 133.305 471.596
210 0 56.1309 16.9604 952 109.515 132.546 469.679
211 0 59.1212 14.8678 879 111.914 133.763 469.484
212 0 57.2925 11.4151 654 118.239 133.829 472.96
213 0 59.1269 15.2215 900 114.601 132.747 469.029
214 0 59.134 12.125 717 118.795 132.616 472.801
215 0 64.0869 15.2761 979 111.43 133.069 475.845
216 0 64.0738 16.4186 1052 112.54 133.093 472.245
217 0 66.1095 14.6878 971 116.223 132.045 468.222
218 0 69.2057 15.7357 1089 114.178 132.186 469.143
219 0 70.1654 16.0478 1126 114.266 131.59 469.115
220 0 71.1283 14.5793 1037 116.836 130.365 468.945
221 0 73.3628 12.9766 952 119.239 130.401 472.143
222 0 76.1512 14.6288 1114 116.102 129.89 472.225
223 0 80.0816 13.6111 1090 118.247 128.205 470.318
224 0 81.2863 13.0403 1060 119.117 127.193 466.054
225 0 84.3725 14.6967 1240 116.871 126.062 465.776
226 0 87.2269 13.9521 1217 117.694 125.821 466.043
227 0 90.3143 17.0848 1543 113.763 124.692 461.924
228 0 93.6061 13.2897 1244 117.965 123.776 462.871
229 0 96.3088 15.5126 1494 115.911 122.816 456.194
230 1 49.1057 9.38792 461 115.638 120.809 482.141
231 0 51.1568 11.064 566 111.454 121.03 479.219
232 0 54.1101 13.4171 726 108.242 121.785 476.751
233 0 55.1885 15.13 835 106.589 121.996 475.537
234 0 58.3065 14.218 829 107.568 120.59 473.77
235 0 58.1621 14.855 864 106.58 121.789 472.779
236 0 59.2085 13.9169 824 108.674 121.383 468.323
237 0 64.0569 17.4844 1120 101.956 120.983 469.131
238 0 68.2605 12.9797 886 107.261 120.904 466.235
239 0 68.2177 12.6946 866 107.068 120.17 465.499
240 0 72.242 13.4409 971 106.308 122.13 465.872
241 0 75.2679 15.1725 1142 105.193 121.875 460.947
242 0 73.187 15.1803 1111 107.162 122.826 461.536
243 0 76.3006 12.9095 985 114.306 123.355 455.289
244 0 79.3052 13.0256 1033 114.316 122.777 453.758
245 0 82.205 13.4055 1102 113.773 124.52 453.075
246 0 85.2234 15.0546 1283 111.86 124.274 450.496
247 1 48.0432 14.7992 711 106.132 124.584 472.678
248 0 49.1234 15.6748 770 103.712 125.27 471.177
249 0 49.0829 11.5926 569 110.148 125.912 473.453
250 0 53.1642 21.1421 1124 100.397 127.037 469.937
251 0 53.141 13.7559 731 107.658 126.445 471.769
252 0 53.0936 9.92587 527 113.607 127.981 471.774
253 0 54.1766 9.21062 499 114.922 128.172 473.77
254 0 53.1943 10.3582 551 115.751 128.78 471.69
255 0 59.2355 17.8103 1055 103.339 128.184 473.247
256 0 59.311 14.1289 838 110.835 128.042 470.465
257 0 61.3644 13.4443 825 111.805 129.515 469.874
258 0 63.0614 10.7197 676 112.359 128.743 475.438
259 0 64.3395 11.859 763 113.313 129.638 470.291
260 0 68.1883 14.2253 970 108.194 128.936 473.712
261 0 69.2002 14.4942 1003 110.282 128.829 466.714
262 0 71.3135 15.9717 1139 107.472 128.995 466.959
263 0 71.3381 12.602 899 113.33 127.872 468.338
264 0 74.086 15.401 1141 108.522 128.709 467.498
265 0 78.4025 12.793 1003 111.897 127.216 467.849
266 0 81.1454 13.482 1094 111.482 127.122 463.528
267 0 82.2826 12.53 1031 112.971 125.781 465.831
268 0 89.3404 12.0214 1074 112.656 125.221 465.717
269 0 91.2389 15.169 1384 109.882 123.674 458.289
270 1 48.1065 11.9942 577 109.586 122.83 474.328
271 0 47.1133 6.57988 310 116.668 123.539 471.942
272 0 52.1642 14.6844 766 104.03 124.407 471.048
273 0 56.173 17.5707 987 99.8652 123.59 477.497
274 0 54.0968 11.3131 612 110.201 123.07 473.007
275 0 59.1059 13.2305 782 107.572 122.317 472.526
276 0 62.193 15.2107 946 104.937 123.022 470.587
277 0 65.3046 15.7263 1027 103.203 122.059 471.353
278 0 63.104 15.4982 978 105.931 121.61 465.016
279 0 64.3177 12.6715 815 110.234 122.735 463.377
280 0 67.1467 15.2204 1022 107.928 122.086 462.975
281 0 69.2019 18.8723 1306 103.051 121.586 459.537
282 0 69.2041 11.7768 815 112.801 121.447 457.847
283 0 71.2582 11.5215 821 112.189 123.247 459.938
284 0 73.067 12.208 892 112.938 123.386 458.703
285 0 78.1336 16.1134 1259 107.614 123.893 453.1
286 0 82.2305 13.9364 1146 110.587 124.012 453.531
287 0 82.2529 13.8111 1136 111.782 125.157 449.335
288 0 85.0895 20.3198 1729 101.884 125.168 452.816
289 0 90.1903 13.0502 1177 111.935 125.964 447.791
290 0 93.337 14.6244 1365 110.377 126.593 444.533
291 0 94.1944 15.1389 1426 110.696 127.845 440.518
292 0 100.231 13.0997 1313 113.529 127.828 444.493
293 0 103.365 15.4501 1597 110.412 129.844 439.646
294 0 110.297 15.2407 1681 106.068 129.128 442.851
295 1 51.1388 8.7018 445 111.276 130.78 467.692
296 0 52.1612 10.18 531 107.092 130.465 466.94
297 0 55.0875 8.56819 472 107.682 130.979 470.892
298 0 60.1768 15.9696 961 98.6452 132.328 469.375
299 0 58.0865 10.777 626 106.018 132.131 466.532
300 0 58.2256 11.8333 689 105.582 132.792 467.466
301 0 59.1275 12.7859 756 103.905 132.139 468.217
302 0 67.0811 16.1744 1085 99.0498 132.321 467.278
303 0 67.1975 12.1135 814 102.826 131.757 471.124
304 0 70.0958 13.0678 916 106.214 131.141 465.235
305 0 76.3657 12.2961 939 104.347 132.07 470.298
306 0 76.1472 18.9764 1445 100.509 130.202 462.219
307 0 78.2332 16.3869 1282 102.302 130.968 469.216
308 0 82.1449 12.8553 1056 107.221 129.79 463.328
309 0 82.2515 14.2611 1173 106.171 129.656 465.151
310 0 84.4055 14.2882 1206 107.685 128.95 461.425
311 0 85.5112 12.6416 1081 108.204 127.166 464.973
312 0 91.4971 16.6672 1525 104.148 126.536 459.162
313 0 95.5382 20.5154 1960 99.5265 125.977 458.779
314 0 96.3026 14.5064 1397 106.712 125.945 454.51
315 0 100.495 15.5431 1562 105.794 125.006 452.637
316 0 103.268 17.0334 1759 103.386 125.544 456.522
317 1 56.1474 12.4672 700 102.393 122.95 479.277
318 0 56.1474 12.6453 710 143.068 120.052 479.441
319 0 56.1514 11.5758 650 110.045 122.243 472.823
320 0 61.1305 12.9559 792 108.913 121.423 468.561
321 0 59.3757 12.8167 761 111.181 122.509 465.28
322 0 63.3303 14.0691 891 108.312 122.055 464.101
323 0 63.1595 15.7696 996 105.1 122.602 467.099
324 0 66.4987 14.0003 931 109.313 122.184 460.027
325 0 69.5013 13.3523 928 108.233 122.513 463.769
326 0 72.3082 14.6318 1058 108.261 123.298 456.517
327 0 72.3076 14.6734 1061 109.317 123.82 454.553
328 0 73.3268 14.2104 1042 110.352 124.349 451.548
329 0 77.1444 16.3978 1265 107.272 123.99 452.96
330 0 79.1724 14.7779 1170 108.24 125.73 455.572
331 0 83.2726 21.0994 1757 101.083 126.733 448.748
332 0 82.2639 13.9916 1151 112.639 127.516 445.797
333 0 86.2915 11.577 999 112.72 127.516 451.19
334 0 90.7332 16.3336 1482 108.738 127.392 444.452
335 0 90.2517 14.2269 1284 110.657 128.533 445.369
336 0 95.2547 15.1699 1445 109.395 129.547 441.89
337 0 101.171 16.6253 1682 106.387 129.771 442.517
338 1 57.2295 14.2758 817 104.428 130.913 464.745
339 0 60.1103 15.0557 905 104.306 132.076 463.577
340 0 61.245 15.5278 951 104.777 133.035 460.037
341 0 62.07 11.9704 743 109.817 132.257 463.782
342 0 66.2636 19.2715 1277 97.2412 132.449 468.605
343 0 66.2857 13.7435 911 108.06 133.39 460.358
344 0 65.1373 13.2029 860 109.436 133.047 460.488
345 0 71.1539 15.3049 1089 105.672 133.699 462.42
346 0 72.1477 14.6644 1058 105.905 133.233 466.248
347 0 74.1351 18.6821 1385 102.034 133.006 463.496
348 0 76.2235 14.7199 1122 107.141 132.306 461.352
349 0 79.2759 18.4041 1459 102.824 132.541 462.583
350 0 79.2304 14.5777 1155 109.672 132.17 457.528
351 0 82.1266 13.7714 1131 110.75 131.69 456.235
352 0 84.2438 16.4048 1382 108.15 131.034 454.58
353 0 86.1563 14.0094 1207 111.439 131.354 456.929
354 0 90.2063 15.8636 1431 108.29 130.695 458.539
355 0 94.1336 16.4341 1547 107.966 129.277 456.334
356 0 94.1033 14.3247 1348 112.037 128.07 454.203
357 0 97.1503 13.8857 1349 113.413 127.973 449.618
358 0 101.168 16.8828 1708 108.718 127.897 448.406
359 0 105.202 13.2507 1394 113.128 127.633 450.494
360 0 109.442 17.571 1923 108.363 126.935 441.776
361 1 58.289 12.6096 735 105.886 125.569 465.488
362 0 62.2028 11.4625 713 106.39 126.219 465.478
363 0 61.2533 12.4075 760 110.592 125.583 463.936
364 0 65.3172 14.5903 953 105.696 125.458 466.256
365 0 67.2519 11.6874 786 112.164 125.514 460.784
366 0 70.1785 12.3115 864 112.369 126.277 457.649
367 0 73.1686 13.9677 1022 110.673 126.638 454.022
368 0 76.2685 11.7349 895 112.988 125.371 456.369
369 0 79.3623 13.9361 1106 107.969 124.913 454.566
370 0 81.2116 15.1456 1230 110.603 126.879 448.307
371 0 85.2909 17.0475 1454 105.413 127.285 449.34
372 0 85.2039 16.6307 1417 106.817 126.984 447.586
373 0 90.1907 17.2191 1553 104.58 126.886 448.646
374 0 90.1442 13.3453 1203 111.564 127.81 441.611
375 0 94.3729 14.4215 1361 110.583 128.043 438.558
376 0 96.2516 14.2439 1371 113.454 128.764 441.276
377 0 99.3046 12.8594 1277 115.198 130.316 441.603
378 0 100.226 15.3552 1539 112.58 130.135 436.153
379 0 104.123 16.4709 1715 110.068 130.906 434.675
380 0 107.101 13.2025 1414 114.7 131.963 435.281
381 0 112.276 12.2644 1377 117.106 130.784 432.71
382 1 62.2971 12.9541 807 107.056 134.426 458.696
383 0 62.1933 13.5706 844 109.092 132.259 460.772
384 0 66.2566 11.3951 755 110.722 131.513 462.734
385 0 67.0686 15.9538 1070 106.579 133.072 459.667
386 0 69.0971 13.4014 926 109.705 132.524 458.811
387 0 68.0521 11.5794 788 114.17 133.132 455.387
388 0 73.031 12.6658 925 112.627 133.746 455.475
389 0 77.1668 13.4643 1039 110.458 133.079 459.266
390 0 80.1336 14.8252 1188 109.62 132.769 460.618
391 0 82.1399 16.0701 1320 109.467 132.543 457.562
392 0 85.1604 15.1831 1293 110.47 132.428 457.367
393 0 86.1756 12.8807 1110 115.25 130.812 455.06
394 0 89.1042 13.8153 1231 111.809 131.776 461.51
395 0 92.1608 15.0823 1390 112.152 130.024 458.546
396 0 94.0966 14.0069 1318 115.024 130.501 453.533
397 0 99.1241 16.3129 1617 111.273 130.417 453.019
398 0 100.295 14.6268 1467 114.339 128.459 454.757
399 0 104.196 18.1677 1893 108.917 127.742 454.059
400 0 106.215 15.1297 1607 115.466 127.535 446.508
401 0 113.202 16.422 1859 112.102 127.815 449.649
402 0 114.264 14.1427 1616 115.845 127.235 447.948
403 0 118.18 15.6964 1855 113.189 126.916 446.122
404 1 69.3311 12.3466 856 113.185 127.499 469.401
405 0 70.3641 14.0839 991 114.048 126.693 462.824
406 0 74.2241 14.6987 1091 111.878 124.368 462.749
407 0 74.2989 15.6395 1162 112.067 124.633 460.339
408 0 76.2876 14.9697 1142 111.264 123.467 460.396
409 0 78.2666 14.9617 1171 112.136 124.266 457.073
410 0 81.235 12.3838 1006 116.539 124.661 452.179
411 0 84.3065 13.6051 1147 115.051 124.914 452.109
412 0 89.1806 14.4314 1287 110.807 125.645 453.002
413 0 90.1683 11.8667 1070 115.321 125.449 445.154
414 0 91.0801 10.7707 981 115.736 126.081 443.781
415 0 97.0674 14.9175 1448 108.926 126.262 442.872
416 0 101.143 12.9618 1311 111.782 126.979 439.078
417 0 105.137 16.0172 1684 107.608 126.503 436.296
418 0 105.301 12.564 1323 111.565 127.269 438.122
419 0 110.326 17.5933 1941 105.221 128.179 436.866
420 0 115.306 13.5726 1565 109.459 128.399 438.232
421 1 61.094 12.5053 764 107.36 130.314 458.166
422 0 65.1644 13.8573 903 105.059 130.216 457.404
423 0 67.1583 21.2632 1428 96.8922 130.908 456.061
424 0 68.2483 12.1468 829 108.322 130.608 457.094
425 0 71.3344 13.7101 978 106.145 131.993 456.654
426 0 69.1467 11.8733 821 109.983 132.618 452.904
427 0 74.2795 15.6571 1163 104.552 132.781 455.118
428 0 77.1163 15.3275 1182 105.367 134.727 455.708
429 0 78.2786 13.7202 1074 108.341 134.964 453.299
430 0 83.3307 12.0604 1005 109.533 134.735 456.971
431 0 84.1807 12.3306 1038 110.687 134.027 453.721
432 0 85.1162 13.8399 1178 109.379 134.407 450.634
433 0 91.2475 15.1566 1383 104.904 134.472 459.826
434 0 93.1702 15.6488 1458 104.944 133.286 457.844
435 0 96.3352 12.9132 1244 109.988 133.66 451.022
436 0 100.282 10.1514 1018 112.831 133.238 455.416
437 1 56.1909 8.04401 452 113.336 132.283 475.803
438 0 58.2758 12.8355 748 107.852 131.422 471.187
439 0 57.2244 9.19188 526 113.23 130.829 473.31
440 0 61.2119 13.8208 846 108.31 130.683 471.297
441 0 62.3758 12.7613 796 113.656 131.322 470.21
442 0 66.0658 15.0153 992 108.602 128.638 472.624
443 0 68.1613 11.4141 778 114.438 128.878 469.846
444 0 70.0979 11.0274 773 116.418 128.675 468.457
445 0 72.1301 11.4793 828 113.72 126.763 471.092
446 0 73.1188 9.61448 703 117.566 126.76 463.239
447 0 78.1545 12.4497 973 110.662 126.427 466.484
448 0 79.1469 15.6039 1235 108.16 126.206 456.426
449 0 80.0845 13.8229 1107 110.71 125.715 461.918
450 0 84.1627 15.7671 1327 107.559 124.496 456.289
451 0 86.0664 14.268 1228 110.08 124.346 453.581
452 0 88.2277 14.0772 1242 109.965 124.073 451.841
453 0 86.1268 10.3684 893 115.112 123.749 455.152
454 0 96.2347 12.4487 1198 112.555 123.857 448.714
455 1 50.0886 10.2219 512 109.912 123.031 471.508
456 0 53.1318 11.1797 594 107.022 123.424 470.643
457 0 52.1536 10.9676 572 106.977 121.996 464.878
458 0 56.1039 13.1542 738 100.557 121.939 471.886
459 0 59.2898 11.857 703 105.272 120.57 466.317
460 0 61.1063 14.0575 859 100.416 124.553 464.406
461 0 60.1704 13.0961 788 102.104 124.617 462.768
462 0 63.0866 14.2661 900 100.451 126.688 461.371
463 0 67.1458 15.6525 1051 97.5347 127.628 464.065
464 0 67.2652 15.4166 1037 99.2295 127.544 462.748
465 0 67.0656 8.96137 601 106.607 129.975 460.2
466 0 71.1343 13.8892 988 101.542 130.285 455.051
467 0 78.1497 19.5522 1528 93.606 129.941 458.06
468 0 78.1685 15.0188 1174 99.5596 131.426 456.652
469 0 81.1335 13.3607 1084 100.897 132.389 458.144
470 0 81.2069 13.6442 1108 100.413 132.166 461.539
471 0 87.2583 16.6059 1449 97.9386 130.954 460.013
472 0 89.1478 13.214 1178 104.087 130.382 455.357
473 0 91.2399 18.3144 1671 98.1448 130.388 456.165
474 0 92.2698 13.829 1276 103.101 130.85 457.607
475 0 94.1406 9.90009 932 108.275 130.299 453.48
476 0 100.095 15.0557 1507 100.319 129.893 459.346
477 0 103.251 12.455 1286 105.111 128.47 456.916
478 1 54.1206 10.8092 585 105.152 127.338 480.166
479 0 58.423 13.2653 775 98.9897 126.68 482.265
480 0 56.4454 12.614 712 99.7739 126.743 479.322
481 0 61.6897 17.2962 1067 94.1265 126.694 475.8
482 0 60.0547 12.2055 733 104.255 126.922 483.608
483 0 62.1306 14.8236 921 102.097 125.59 478.222
484 0 65.146 16.0562 1046 99.7361 124.962 480.907
485 0 68.333 13.1123 896 103.756 122.372 476.711
486 0 69.5634 16.4598 1145 97.6891 121.047 481.316
487 0 72.377 13.9962 1013 103.175 121.864 474.786
488 0 72.1969 10.1389 732 109.954 121.072 473.674
489 0 75.4107 16.072 1212 102.552 121.013 469.329
490 0 79.3753 15.5842 1237 102.925 121.071 467.415
491 0 80.1771 11.9485 958 107.728 120.824 467.856
492 0 81.2193 13.2358 1075 104.497 119.438 467.751
493 0 86.2135 16.5867 1430 100.53 119.843 466.364
494 0 83.4102 11.4015 951 107.796 118.764 464.096
495 0 89.3342 13.7685 1230 104.314 118.36 464.38
496 1 48.2978 12.1123 585 103.997 117.576 479
497 0 49.1478 13.2051 649 100.581 118.527 481.475
498 0 52.1414 11.4496 597 104.618 118.747 475.209
499 0 54.5661 14.4229 787 100.36 119.925 470.277
500 0 52.0769 11.4446 596 105.681 119.894 469.698
501 0 58.1251 13.4021 779 104.041 121.334 472.163
502 0 61.1586 11.0696 677 106.767 122.4 470.346
503 0 57.0637 10.094 576 109.54 122.998 469.474
504 0 60.1414 10.3589 623 108.632 123.241 467.098
505 0 62.0723 13.3554 829 105.368 124.006 460.73
506 0 66.1242 13.9888 925 103.804 125.414 464.651
507 0 67.2073 13.8675 932 105.373 125.809 460.738
508 0 69.1774 14.8025 1024 103.967 126.736 460.487
509 0 71.258 17.6401 1257 99.5473 127.242 458.209
510 0 74.2286 16.8399 1250 99.2392 127.194 465.953
511 0 81.4017 14.3486 1168 103.152 127.811 460.1
512 0 76.1741 13.3379 1016 107.115 128.941 456.815
513 0 80.232 17.4619 1401 101.942 129.83 455.953
514 1 46.0294 8.9508 412 107.437 128.687 478.495
515 0 46.1082 11.4947 530 103.496 132.513 477.234
516 0 46.0952 11.78 543 105.328 132.186 477.899
517 0 48.1012 13.0766 629 104.269 132.256 478.172
518 0 52.1279 12.7571 665 103.665 131.15 480.92
519 0 52.108 14.8921 776 101.805 132.616 481.978
520 0 47.0603 10.7947 508 112.4 132.248 478.642
521 0 52.0793 16.8973 880 103.006 131.725 481.023
522 0 56.4292 13.7517 776 105.951 131.313 483.878
523 0 55.1078 15.261 841 105.724 130.319 481.82
524 0 57.2316 14.2578 816 107.239 129.243 482.259
525 0 55.0645 12.7669 703 112.333 127.902 480.087
526 0 64.1415 14.7175 944 106.356 128.674 484.378
527 0 61.2026 13.104 802 111.949 127.794 479.525
528 0 61.2562 13.9578 855 111.938 126.687 478.378
529 0 64.0554 12.7702 818 113.529 125.013 480.031
530 0 67.2072 14.9389 1004 108.8 123.839 480.195
531 0 71.1931 17.4876 1245 106.218 124.374 477.163
532 0 69.1551 15.9352 1102 110.393 122.558 472.937
533 0 70.2473 13.8938 976 113.925 122.295 472.224
534 0 73.4383 16.1088 1183 110.477 119.135 469.642
535 0 71.1149 14.4414 1027 111.013 117.241 473.067
536 1 151.551 15.79 2393 115.222 117.956 432.441
537 0 160.715 15.7857 2537 114.22 117.941 429.099
538 1 83.5097 17.7584 1483 105.023 118.399 463.156
539 0 85.2753 14.5646 1242 108.329 117.95 462.882
540 0 88.5715 15.9193 1410 108.501 120.457 459.249
541 0 90.3468 14.5108 1311 110.429 117.466 456.704
542 0 91.3243 12.0778 1103 114.389 117.199 453.354
543 1 63.308 14.9902 949 107.644 121.512 471.655
544 0 58.1017 13.0977 761 109.217 122.289 472.608
545 0 62.1765 17.5629 1092 103.524 123.153 467.972
546 0 61.2413 13.4876 826 114.311 123.304 466.824
547 0 65.1159 13.0844 852 113.047 125.108 468.648
548 0 67.1605 21.5007 1444 101.741 124.805 464.757
549 0 66.2117 14.8614 984 111.492 125.44 461.433
550 0 71.1896 16.126 1148 108.733 125.671 461.473
551 0 71.2724 11.1684 796 116.548 125.193 454.309
552 0 72.3256 14.9463 1081 112.56 124.726 458.744
553 0 73.3097 13.2452 971 115.066 125.974 458.804
554 0 75.2088 13.8814 1044 112.977 126.029 460.299
555 0 78.1049 14.058 1098 112.368 127.042 458.058
556 0 80.1496 14.7973 1186 110.295 127.756 455.835
557 0 82.3112 18.6609 1536 104.204 129.068 458.314
558 0 80.2365 11.9896 962 114.095 129.253 454.831
559 0 88.1798 15.1168 1333 107.441 128.818 459.406
560 0 90.1709 11.6002 1046 111.598 129.227 458.562
561 0 93.596 16.7208 1565 103.581 128.788 458.498
562 0 94.1639 12.3827 1166 108.953 129.25 458.603
563 0 96.312 13.6224 1312 107.655 128.317 458.804
564 0 97.4006 15.3284 1493 106.906 127.833 454.514
565 0 100.347 13.0148 1306 109.574 127.818 451.702
566 0 100.281 15.1075 1515 105.756 127.427 459.824
567 0 102.358 15.1821 1554 107.009 127.861 452.371
568 0 110.421 15.441 1705 103.351 126.699 458.222
569 0 111.175 14.9404 1661 106.035 126.698 449.545
570 1 63.095 13.4559 849 105.545 125.755 474.572
571 0 64.3206 11.7536 756 107.831 124.604 471.728
572 0 64.3315 16.9746 1092 101.032 125.535 471.031
573 0 66.0737 10.3672 685 108.368 124.409 468.888
574 0 69.1061 13.3707 924 104.723 124.055 469.684
575 0 70.2119 12.035 845 106.284 122.798 467.323
576 0 75.0979 15.1669 1139 101.462 122.536 469.036
577 1 134.309 14.4368 1939 105.966 121.756 436.687
578 1 79.2344 13.7566 1090 103.884 121.375 462.373
579 0 82.278 14.0986 1160 103.446 121.116 464.924
580 0 81.1643 12.6041 1023 106.251 119.26 464.353
581 0 83.3449 12.0223 1002 108.109 119.93 457.553
582 0 86.1954 14.9892 1292 104.259 119.611 455.706
583 0 93.2234 17.8496 1664 100.54 120.216 454.367
584 0 94.1774 13.7931 1299 105.777 120.987 455.262
585 0 100.408 17.1798 1725 100.898 120.258 454.985
586 0 102.48 15.3981 1578 102.849 121.204 453.155
587 0 103.258 17.2577 1782 101.425 122.008 447.599
588 1 53.2767 11.8814 633 105.886 123.009 468.812
589 0 57.1468 14.454 826 99.7107 121.869 470.305
590 0 58.0942 12.0838 702 101.879 122.188 467.1
591 0 60.0729 11.5193 692 102.367 123.03 467.168
592 0 63.0951 11.8076 745 101.839 124.015 467.326
593 0 65.1048 13.4399 875 100.96 125.016 463.43
594 0 63.0727 9.41771 594 107.564 124.918 465.493
595 0 69.3768 15.1059 1048 102.844 125.18 462.053
596 0 69.0384 8.38664 579 111.071 126.333 464.624
597 0 70.1325 11.9773 840 108.713 126.806 457.965
598 0 76.1102 10.787 821 108.618 127.391 460.055
599 0 75.1203 12.5266 941 106.984 128.809 462.79
600 0 79.2339 12.4568 987 107.418 129.169 457.234
601 0 83.1638 13.9123 1157 104.371 128.736 460.409
602 0 85.0746 12.6712 1078 104.824 129.4 463.405
603 0 85.0746 12.7653 1086 126.377 130.379 463.401
604 1 43.0556 10.1729 438 103.733 129.137 484.986
605 0 45.0983 10.4217 470 106.432 127.498 480.8
606 0 48.0603 13.2334 636 101.546 127.597 480.184
607 0 50.0671 11.7642 589 101.311 128.333 483.574
608 0 52.128 13.2558 691 100.156 126.614 483.085
609 0 52.0532 15.3113 797 99.2271 127.138 482.773
610 0 53.1111 12.5774 668 103.475 126.852 482.798
611 0 53.1606 13.3746 711 101.395 126.602 485.235
612 0 56.137 10.3497 581 105.361 126.327 483.265
613 0 57.2088 10.2956 589 104.47 125.951 486.017
614 0 62.0579 15.2761 948 98.366 125.159 483.802
615 0 61.1393 12.725 778 102.393 124.393 482.839
616 0 65.1155 12.3166 802 103.597 122.291 477.183
617 0 65.2599 10.9715 716 105.115 123.372 477.392
618 0 69.1567 13.6212 942 101.668 123.588 470.486
619 0 70.1932 12.2946 863 103.535 122.572 471.163
620 0 73.1406 15.7778 1154 98.338 121.471 469.915
621 0 74.1632 12.7017 942 100.858 121.869 473.701
622 0 77.2258 12.1592 939 102.857 121.006 472.015
623 0 80.3162 17.2692 1387 98.9582 120.075 463.968
624 0 83.1193 12.055 1002 105.017 119.059 465.89
625 0 89.1112 15.5087 1382 100.959 120.049 463.632
626 0 90.0748 14.2437 1283 104.085 120.69 460.641
627 0 90.244 11.1032 1002 108.297 119.284 459.436
628 0 97.5199 15.525 1514 102.873 119.501 459.571
629 1 52.2352 15.0665 787 99.554 119.53 479.086
630 0 54.253 12.4048 673 106.262 119.412 476.398
631 0 54.2316 12.7785 693 109.278 120.01 472.278
632 0 56.2228 13.571 763 108.316 120.026 470.62
633 0 60.1656 9.82288 591 113.887 121.807 471.261
634 0 59.2072 14.9813 887 108.54 120.253 470.125
635 0 60.2155 13.5513 816 109.161 122.566 470.944
636 0 63.2382 13.5677 858 111.063 122.943 465.77
637 0 66.2862 20.1098 1333 99.4974 123.914 470.422
638 0 66.2257 12.9255 856 112.154 124.305 464.276
639 0 66.5454 11.2104 746 115.465 124.609 464.296
640 0 70.4782 12.0605 850 114.214 125.305 462.966
641 0 74.4805 15.0643 1122 107.439 126.763 466.166
642 0 75.4284 12.4356 938 111.735 126.94 466.239
643 0 77.2869 12.0719 933 113.474 127.217 461.904
644 0 83.2277 13.5171 1125 109.595 128.325 464.081
645 0 82.4669 11.1802 922 113.905 128.27 462.204
646 0 88.6769 16.859 1495 105.436 127.948 458.759
647 0 91.3617 9.79623 895 113.636 127.697 463.494
648 0 93.4649 13.1814 1232 109.456 127.942 454.64
649 1 50.3418 12.5939 634 103.377 127.421 482.461
650 0 52.0642 13.6754 712 102.949 125.897 485.188
651 0 50.2561 11.0036 553 103.49 125.682 483.541
652 0 51.3235 10.0539 516 103.86 126.322 484.529
653 0 52.3031 9.52143 498 104.01 126.715 485.813
654 0 53.3613 11.3565 606 105.368 127.097 484.137
655 0 54.1744 11.9245 646 102.941 126.376 486.032
656 0 58.2692 12.7855 745 102.346 124.866 480.032
657 0 59.1404 15.8098 935 98.7626 122.552 480.456
658 0 60.199 15.7644 949 99.7039 123.431 477.544
659 0 62.2597 11.9981 747 103.474 122.023 481.216
660 0 64.2675 13.9262 895 103.593 122.042 475.223
661 0 67.2812 13.3767 900 105.438 120.84 473.862
662 0 67.217 11.3067 760 109.014 121.351 472.646
663 0 69.5128 14.6879 1021 105.406 121.495 470.208
664 0 71.2868 13.1441 937 106.783 120.867 466.582
665 0 71.3372 10.3172 736 111.406 120.317 465.651
666 0 77.568 13.9233 1080 105.145 120.053 466.069
667 0 79.2784 13.7869 1093 105.378 119.592 462.373
668 0 79.3268 13.0851 1038 106.952 120.571 458.876
669 0 85.1963 14.1086 1202 104.178 119.522 462.674
670 0 87.3667 13.1629 1150 107.088 120.57 458.043
671 0 88.4856 13.6632 1209 106.008 121.417 453.299
672 0 91.3765 15.2665 1395 102.785 120.894 455.29
673 0 96.2979 12.939 1246 105.113 121.777 455.587
674 0 96.8324 13.1568 1274 105.246 122.464 444.783
675 1 53.2634 11.6778 622 105.246 121.802 468.542
676 0 53.271 15.1677 808 101.402 124.146 464.484
677 0 58.2066 14.1908 826 101.904 124.453 466.989
678 0 58.175 15.3502 893 101.948 122.945 466.358
679 0 60.2242 10.5937 638 109.014 123.781 464.353
680 0 62.2818 13.1178 817 103.275 124.966 468.769
681 0 63.3795 13.6637 866 103.184 124.149 463.931
682 0 68.4297 13.3568 914 103.338 124.289 462.641
683 0 71.4657 12.3136 880 103.556 126.142 464.612
684 0 75.3072 14.4608 1089 100.653 126.492 465.857
685 0 76.2917 13.2649 1012 102.735 126.56 463.545
686 0 76.2868 13.8032 1053 101.896 126.229 464.764
687 0 80.4295 17.966 1445 97.8817 127.14 461.511
688 0 85.276 14.6348 1248 102.126 127.02 458.53
689 0 85.1272 20.393 1736 96.8957 126.981 459.764
690 0 87.191 12.4095 1082 105.93 128.488 460.694
691 0 91.6925 15.3448 1407 102.607 129.163 458.146
692 0 97.2662 14.4038 1401 101.61 127.752 458.316
693 0 96.5996 14.3582 1387 102.04 127.996 459.748
694 0 103.89 14.0052 1455 102.616 127.794 458.85
695 0 105.681 14.2693 1508 101.562 127.374 458.267
696 1 57.3052 12.477 715 101.88 125.15 476.618
697 0 61.3529 17.1141 1050 99.2029 126.484 477.111
698 0 63.2771 13.0221 824 103.854 125.563 480.676
699 0 66.2308 13.5888 900 103.881 124.306 481.803
700 0 68.2134 15.774 1076 99.4229 122.636 484.61
701 0 71.1485 15.8823 1130 99.5478 122.511 484.288
702 0 71.1132 11.4887 817 108.018 121.61 478.481
703 0 77.1019 15.1228 1166 102.148 121.87 475.925
704 0 80.0554 13.0784 1047 104.172 120.117 475.29
705 0 81.1689 13.8969 1128 104.297 121.5 470.743
706 0 83.1533 14.2748 1187 104.045 120.883 467.814
707 0 87.3148 14.2358 1243 104.088 120.043 463.421
708 0 91.0936 16.3129 1486 101.137 120.495 465.098
709 0 90.0754 13.1223 1182 105.794 119.318 463.014
710 0 94.287 12.3665 1166 107.316 118.266 456.699
711 1 51.0589 11.7315 599 104.295 118.427 479.349
712 0 56.1644 13.3715 751 100.992 118.321 479.194
713 0 56.2975 14.7254 829 100.639 121.232 477.145
714 0 60.3605 18.5386 1119 96.0304 120.08 475.296
715 0 62.622 14.1643 887 101.175 120.602 473.623
716 0 61.1585 14.2744 873 102.572 120.777 473.286
717 0 64.39 11.6944 753 104.011 120.87 476.036
718 0 67.1061 13.8139 927 103.246 120.443 471.469
719 0 69.1517 12.6533 875 105.84 121.248 470.178
720 0 70.4914 17.9029 1262 98.0666 121.521 471.724
721 0 70.3278 15.6268 1099 101.371 122.503 470.568
722 0 74.1981 21.9278 1627 94.6687 122.203 469.613
723 0 77.2577 15.8043 1221 102.247 124.555 467.78
724 0 79.3029 16.4937 1308 101.686 124.726 465.43
725 0 79.2931 11.943 947 108.804 125.535 464.599
726 0 82.2588 13.8222 1137 107.276 125.824 461.916
727 0 84.1458 16.7566 1410 103.653 126.456 457.938
728 0 88.3196 13.972 1234 108.265 126.93 457.605
729 0 91.2999 14.0416 1282 106.724 127.503 462.064
730 0 92.4426 14.0736 1301 107.593 128.817 462.12
731 0 95.2102 14.0006 1333 104.537 128.524 466.371
732 0 98.3627 12.6267 1242 109.808 128.51 459.419
733 1 55.0833 12.7443 702 106.011 129.464 482.722
734 0 56.0252 13.9223 780 105.195 128.903 482.373
735 0 56.2007 12.0461 677 110.356 129.112 481.558
736 0 59.156 12.4755 738 110.473 127.859 480.379
737 0 59.1174 10.9443 647 112.638 128.022 483.598
738 0 60.0695 12.8185 770 110.956 126.945 481.695
739 0 63.1754 10.7004 676 113.142 127.447 483.281
740 0 67.17 13.9348 936 109.068 125.967 479.25
741 0 67.041 11.9181 799 112.564 126.539 478.333
742 0 70.2578 13.6497 959 111.023 125.968 474.396
743 0 72.5322 15.0692 1093 108.428 124.486 477.612
744 0 74.3029 14.7908 1099 110.334 124.742 474.318
745 0 78.3449 17.474 1369 105.462 124.329 469.834
746 0 78.8274 14.8679 1172 109.025 123.845 474.204
747 0 82.3667 14.5204 1196 110.616 122.417 470.426
748 0 80.411 12.1376 976 115.392 122.097 466.884
749 0 86.3537 13.5258 1168 111.924 122.335 470.388
750 0 88.4189 12.011 1062 116.04 122.328 464.248
751 0 91.6603 15.2083 1394 111.141 122.378 457.91
752 0 96.4546 15.8417 1528 109.842 121.959 458.001
753 1 49.4435 10.6789 528 113.917 121.998 478.794
754 0 51.4835 11.1103 572 112.105 120.745 477.556
755 0 50.2005 11.4939 577 113.26 121.374 475.454
756 0 50.4563 11.0194 556 114.86 122.063 474.412
757 0 54.5731 13.0834 714 111.688 122.724 469.696
758 0 56.5102 14.316 809 109.989 123.283 469.106
759 0 57.3595 15.5859 894 106.253 122.932 469.38
760 0 58.3489 19.8804 1160 100.091 123.902 470.046
761 0 63.5036 14.3141 909 107.517 122.903 466.716
762 0 62.269 17.3602 1081 102.909 124.812 464.994
763 0 63.1779 12.4885 789 110.782 124.787 464.896
764 0 66.5379 18.1851 1210 101.556 124.955 465.003
765 0 67.4024 13.7236 925 108.759 125.205 460.19
766 0 69.3392 13.4268 931 110.44 126.189 459.647
767 0 73.5674 14.7892 1088 106.824 126.839 456.308
768 0 76.6755 17.3849 1333 102.719 127.131 460.967
769 0 78.6106 14.3492 1128 108.014 127.442 457.597
770 0 82.817 17.2066 1425 103.199 127.696 457.889
771 0 85.1126 17.3535 1477 103.801 127.871 453.573
772 0 88.4758 13.9812 1237 110.463 128.872 449.62
773 0 89.5052 17.8984 1602 104.941 128.47 451.432
774 0 94.7001 17.6557 1672 105.167 128.787 451.504
775 1 48.2169 9.70615 468 113.788 129.4 471.996
776 0 49.319 16.9306 835 103.452 128.805 473.992
777 0 52.2192 13.9221 727 107.294 129.194 472.84
778 0 50.2528 12.4769 627 109.931 127.427 472.447
779 0 52.0806 14.4968 755 107.257 127.499 473.825
780 0 54.2213 12.3014 667 110.358 127.195 475.003
781 0 57.2965 18.605 1066 99.561 126.712 479.171
782 0 61.145 13.5416 828 108.105 126.777 473.529
783 0 63.4968 22.3791 1421 96.684 126.766 475.495
784 0 64.2205 14.0142 900 108.48 126.583 471.088
785 0 68.33 18.4107 1258 101.762 125.514 470.827
786 0 69.2047 16.0105 1108 106.425 124.683 467.324
787 0 70.3191 15.9132 1119 106.12 123.661 469.962
788 0 73.3297 14.7962 1085 108.385 123.874 464.879
789 0 72.2488 13.9103 1005 109.669 123.122 464.93
790 0 80.6031 17.0465 1374 104.236 122.86 467.327
791 0 81.1906 22.8844 1858 99.0441 122.102 466.316
792 0 84.4676 16.4442 1389 108.14 122.665 457.824
793 0 84.2795 16.0774 1355 109.504 122.528 459.235
794 0 87.4562 12.6806 1109 115.755 121.454 456.745
795 0 90.2013 14.7781 1333 112.407 122.661 455.945
796 1 51.086 14.8377 758 111.392 121.579 471.1
797 0 51.086 14.8377 758 142.803 120.594 471.273
798 0 54.0461 16.0789 869 110.509 122.337 467.348
799 0 56.1235 12.7041 713 115.275 120.366 465.261
800 0 62.288 17.1462 1068 104.594 122.886 471.486
801 0 64.47 22.6152 1458 99.4472 122.231 465.517
802 0 66.1356 15.8462 1048 108.52 123.258 464.336
803 0 70.3071 20.638 1451 100.518 123.772 462.141
804 0 70.0799 15.4966 1086 108.793 124.665 457.259
805 0 71.0934 16.3728 1164 107.933 125.712 458.274
806 0 70.1939 10.3998 730 117.303 125.908 457.841
807 0 74.1132 15.0041 1112 111.02 127.404 454.955
808 0 78.0998 15.0833 1178 107.815 126.214 454.094
809 0 81.5824 14.562 1188 106.883 126.816 453.359
810 0 82.2069 13.6485 1122 113.769 127.303 446.135
811 0 88.4938 16.9616 1501 106.957 127.197 453.398
812 0 87.5563 11.9809 1049 113.045 128.963 453.794
813 0 92.2979 14.7457 1361 111.201 129.018 451.531
814 0 97.4607 18.4792 1801 106.624 128.13 448.097
815 1 53.1852 12.4095 660 111.645 128.57 467.652
816 0 52.1803 7.99152 417 121.343 127.777 464.851
817 0 57.217 12.8283 734 112.74 128.335 467.136
818 0 59.1839 13.5848 804 111.808 128.188 467.536
819 0 62.1881 16.3858 1019 106.259 128.692 471.881
820 0 60.1729 12.1151 729 114.79 128.941 471.719
821 0 65.5432 14.4332 946 113.19 128.108 472.282
822 0 68.4262 13.7813 943 112.38 128.58 474.025
823 0 72.3701 17.3138 1253 106.904 128.743 475.296
824 0 70.5045 11.8149 833 116.073 126.884 471.66
825 0 73.3792 13.5324 993 114.404 126.68 468.396
826 0 74.272 15.3625 1141 112.418 125.053 466.322
827 0 75.1997 12.9655 975 117.407 126.782 465.504
828 0 80.3741 16.9831 1365 110.429 126.421 463.007
829 0 84.4401 15.6679 1323 112.885 125.832 460.065
830 0 89.1411 17.0292 1518 109.443 124.271 461.531
831 0 88.2051 15.4526 1363 114.151 124.238 455.532
832 0 89.2178 12.4078 1107 120.062 123.122 454.239
833 0 99.5941 13.6253 1357 115.825 122.906 453.495
834 0 103.792 19.1441 1987 107.202 122.948 453.428
835 0 103.159 16.0238 1653 113.353 123.087 442.952
836 1 53.1738 12.2993 654 112.26 122.659 469.714
837 0 56.1328 12.5595 705 114.65 122.342 470.712
838 0 58.3062 18.0427 1052 106.677 122.532 467.654
839 0 58.2677 13.3522 778 112.474 122.144 467.694
840 0 60.3419 14.3184 864 111.429 122.409 473.612
841 0 62.5218 13.9471 872 111.006 121.423 468.72
842 0 63.3476 15.1387 959 108.956 121.714 466.477
843 0 67.5344 14.3038 966 109.46 122.442 462.966
844 0 68.2196 12.6943 866 111.992 122.319 461.3
845 0 70.3525 14.8822 1047 107.777 122.45 459.815
846 0 73.407 16.2927 1196 107.445 123.189 455.881
847 0 77.6568 15.0663 1170 104.804 124.429 458.423
848 0 80.2689 11.8228 949 111.949 124.329 451.489
849 0 82.1932 11.6311 956 112.536 124.998 447.802
850 0 83.4384 14.8493 1239 108.261 124.896 449.78
851 0 83.4711 11.3452 947 113.524 125.547 451.215
852 0 88.368 10.9089 964 114.888 124.649 450.052
853 0 94.3297 15.2974 1443 108.355 127.004 445.954
854 0 95.3199 13.7747 1313 109.733 126.95 448.066
855 0 97.4879 11.8579 1156 114.926 128.971 438.926
856 0 100.281 11.7769 1181 115.384 128.509 437.746
857 0 105.431 15.2233 1605 109.72 129.429 439.095
858 1 56.2519 11.3596 639 109.562 128.626 464.776
859 0 61.5192 14.1257 869 107.733 129.427 469.739
860 0 62.2104 11.8469 737 106.849 129.442 471.716
861 0 69.2009 12.2831 850 107.364 129.291 471.54
862 0 67.2663 13.6918 921 106.54 129.529 469.991
863 0 68.2352 11.1966 764 111.33 129.136 467.843
864 0 71.2824 12.2892 876 109.458 129.591 466.893
865 0 74.2519 13.7909 1024 107.439 129.799 467.732
866 0 76.3712 13.5915 1038 110.394 128.834 466.589
867 0 79.4552 11.5033 914 112.685 128.739 465.013
868 0 82.2222 11.0554 909 112.287 126.79 462.111
869 0 89.5722 12.2918 1101 110.63 127.313 462.022
870 0 93.6867 17.9748 1684 102.806 126.691 460.727
871 0 91.4221 11.3321 1036 113.471 127.009 457.448
872 0 99.4335 15.88 1579 105.213 126.989 463.505
873 0 99.3116 11.7912 1171 112.191 124.762 452.995
874 0 107.91 15.0311 1622 105.814 126.139 455.003
875 1 50.2594 9.15252 460 107.998 125.604 484.141
876 0 53.5078 14.4652 774 102.399 124.052 477.32
877 0 54.402 11.6356 633 106.891 124.167 477.415
878 0 55.5206 10.9149 606 108.368 121.736 475.856
879 0 55.1087 11.9219 657 106.495 123.563 479.79
880 0 59.1154 13.2791 785 104.283 123.304 476.66
881 0 66.3847 15.9374 1058 100.915 124.007 475.347
882 0 64.1696 12.3111 790 107.396 123.411 474.515
883 0 68.5098 13.8228 947 105.302 124.077 469.82
884 0 70.599 14.986 1058 103.888 123.566 466.496
885 0 71.7449 12.5305 899 108.043 124.474 462.438
886 0 74.6197 12.4096 926 107.23 123.784 463.182
887 0 77.5026 14.0899 1092 105.965 123.903 456.897
888 0 78.7507 13.6126 1072 106.85 125.234 457.722
889 0 82.3507 13.9161 1146 105.69 125.263 458.35
890 0 86.4588 12.931 1118 106.594 125.879 455.584
891 0 85.5486 10.7307 918 109.01 126.072 458.556
892 0 91.6501 12.886 1181 107.972 126.105 451.806
893 0 94.392 20.1394 1901 100.13 127.419 444.793
894 0 98.4744 10.4697 1031 111.706 127.894 448.801
895 1 54.4079 16.3396 889 100.321 128.13 467.575
896 0 53.336 12.1869 650 106.103 129.375 471.895
897 0 56.5257 14.8782 841 102.166 129.235 471.832
898 0 55.2284 12.3668 683 106.881 129.508 471.044
899 0 59.6148 12.0943 721 108.888 127.994 470.105
900 0 62.3682 14.5266 906 106.408 129.359 468.844
901 0 61.2594 11.8676 727 110.363 129.858 471.506
902 0 61.281 12.4998 766 109.727 129.612 471.054
903 0 65.323 12.3999 810 109.842 130.204 468.852
904 0 69.6013 13.6204 948 108.378 129.565 467.369
905 0 69.4043 11.5843 804 111.034 128.92 471.396
906 0 69.287 12.9462 897 110.855 129.394 468.254
907 0 73.3743 13.0155 955 110.727 128.921 467.054
908 0 75.4456 13.1883 995 109.969 129.312 469.622
909 0 78.2386 13.4588 1053 109.677 128.443 470.773
910 0 81.6562 13.1649 1075 109.271 128.436 471.98
911 0 81.5013 13.9875 1140 109.922 128.118 466.501
912 0 85.7305 13.2858 1139 110.308 127.285 465.637
913 0 88.6572 11.7306 1040 112.322 126.803 465.388
914 0 93.51 13.0788 1223 110.141 125.811 466.524
915 0 98.6484 12.0326 1187 110.767 126.345 468.338
916 0 98.4545 11.1727 1100 111.005 124.406 468.115
917 0 100.342 18.6761 1874 103.604 124.248 456.107
918 0 102.321 13.3892 1370 110.902 123.621 455.553
919 0 105.59 12.6527 1336 111.493 122.615 448.305
920 0 111.348 12.5372 1396 109.794 122.819 458.523
921 0 114.287 14.0086 1601 108.836 122.608 452.906
922 0 115.329 14.0294 1618 109.833 122.062 447.399
923 0 120.295 14.3813 1730 110.359 121.566 441.638
924 0 126.227 15.9791 2017 107.984 121.705 442.996
925 0 131.343 13.4762 1770 111.121 122.678 440.31
926 1 66.2883 12.853 852 112.33 122.265 463.2
927 0 70.378 15.2747 1075 107.074 122.529 458.995
928 0 67.2116 9.53704 641 117.803 122.328 457.376
929 0 74.2978 14.3611 1067 110.877 122.286 453.896
930 0 74.3421 10.3306 768 116.579 122.957 456.4
931 0 81.1818 16.346 1327 107.564 121.882 452.943
932 0 81.2005 11.6502 946 114.757 123.291 448.815
933 0 84.5038 12.4847 1055 113.885 123.991 449.815
934 0 88.3362 14.4675 1278 109.835 124.729 443.665
935 0 93.4615 15.5465 1453 107.454 124.908 446.27
936 0 91.3517 15.0189 1372 111.98 126.527 437.359
937 0 94.4065 15.7934 1491 111.539 126.561 434.964
938 0 101.216 13.7034 1387 113.022 126.927 438.307
939 0 102.319 11.513 1178 115.574 128.446 442.583
940 0 105.231 17.1527 1805 109 128.054 438.086
941 0 108.34 12.4238 1346 115.973 128.846 441.338
942 0 113.315 16.785 1902 110.415 128.339 437.786
943 1 62.1711 13.3181 828 112.638 128.617 462.138
944 0 63.2535 11.6199 735 116.203 129.264 460.869
945 0 64.2159 12.4268 798 116.434 129.224 457.228
946 0 65.3812 12.2665 802 114.97 129.19 458.283
947 0 72.5736 12.4563 904 113.593 128.442 459.268
948 0 75.2604 14.9614 1126 110.702 130.099 457.68
949 0 77.2284 14.9427 1154 111.117 128.878 455.507
950 0 82.8036 19.2141 1591 103.282 129.571 460.525
951 0 83.2872 14.396 1199 111.48 129.946 459.037
952 0 85.2063 11.8771 1012 116.639 127.738 454.448
953 0 91.3532 11.1436 1018 117.297 128.757 456.222
954 0 92.353 12.1057 1118 117.129 127.931 453.977
955 0 95.2526 12.6926 1209 117.763 126.552 451.309
956 0 101.552 17.3507 1762 109.58 126.833 450.885
957 0 103.318 14.586 1507 114.853 125.516 449.834
958 1 57.334 14.058 806 110.36 125.567 473.345
959 0 59.1153 12.6363 747 113.187 124.337 472.452
960 0 62.1447 11.2962 702 114.813 125.068 475.382
961 0 62.1412 15.159 942 110.035 122.204 474.086
962 0 62.1877 12.9125 803 115.58 123.497 473.795
963 0 65.3071 13.092 855 113.787 121.614 472.101
964 0 66.2244 12.1708 806 116.156 123.31 464.47
965 0 67.1279 11.426 767 117.451 122.368 466.163
966 0 70.1328 13.0324 914 114.246 122.557 463.526
967 0 72.0392 13.7703 992 112.493 122.694 462.219
968 0 72.2215 13.2924 960 114.259 122.111 460.815
969 0 75.2048 12.2997 925 115.35 121.947 459.978
970 0 78.2318 13.2938 1040 114.201 122.483 456.492
971 0 78.3965 12.373 970 115.687 121.984 456.637
972 0 87.2903 16.6112 1450 108.295 122.628 448.928
973 0 89.1387 12.0262 1072 116.854 122.458 451.421
974 1 49.0799 12.6936 623 107.372 123.344 472.971
975 0 51.1017 11.937 610 109.72 122.67 474.23
976 0 54.1024 13.5299 732 107.858 125.036 470.389
977 0 55.0636 11.8408 652 109.604 124.873 469.36
978 0 54.0879 10.5199 569 112.694 126.014 466.522
979 0 58.1106 13.612 791 107.02 126.69 469.442
980 0 61.0683 12.4614 761 106.604 127.557 469.173
981 0 63.0684 10.8295 683 108.429 127.69 470.794
982 0 63.2166 15.6921 992 104.931 128.136 461.171
983 0 66.4896 18.1081 1204 97.9626 128.299 464.85
984 0 68.1769 13.6263 929 101.957 128.466 463.526
985 0 68.0684 17.4383 1187 98.8736 129.543 469.79
986 0 73.0837 14.2166 1039 101.687 129.864 465.002
987 0 75.4209 15.3273 1156 101.79 130.027 463.968
988 0 77.1098 13.8244 1066 104.161 130.044 464.178
989 0 78.3314 12.2939 963 112.725 131.107 456.83
990 0 83.0861 15.9473 1325 106.845 131.868 462.089
991 0 85.2128 13.6482 1163 109.728 131.38 463.696
992 0 87.232 14.7996 1291 108.59 130.33 461.362
993 0 91.1508 13.0114 1186 109.292 130.495 463.752
994 0 96.1993 14.6467 1409 108.767 130.295 455.066
995 0 100.486 24.899 2502 96.3609 128.071 455.728
996 0 101.263 12.4329 1259 112.393 129.465 458.97
997 1 56.1513 8.95794 503 112.392 128.517 482.805
998 0 62.3331 13.0268 812 107.339 126.887 478.5
999 0 65.2394 14.9756 977 100.11 127.351 476.691
1000 0 65.2183 11.1932 730 105.084 126.918 477.099
1001 0 67.0715 12.2407 821 104.096 125.898 475.4
1002 0 69.2256 11.2097 776 103.031 124.302 479.499
1003 0 70.077 12.1295 850 104.844 125.138 476.756
1004 0 74.2014 13.5846 1008 104.072 125.12 469.465
1005 0 77.2393 15.8728 1226 101.135 123.767 472.091
1006 0 78.122 15.7318 1229 103.42 123.778 466.932
1007 0 80.1953 11.3348 909 115.793 122.343 463.641
1008 0 80.2207 9.91016 795 117.97 122.58 464.141
1009 0 87.2266 14.8005 1291 109.173 122.116 462.574
1010 0 87.5889 10.8347 949 118.128 121.782 458.996
1011 0 90.4334 14.1209 1277 112.449 122.78 456.863
1012 0 94.463 14.2701 1348 111.82 122.492 453.723
1013 0 94.5881 11.8197 1118 115.174 122.237 453.839
1014 0 100.828 13.9643 1408 111.482 122.352 452.296
1015 0 101.516 14.3819 1460 109.548 121.25 452.768
1016 0 106.74 12.9099 1378 111.403 122.565 447.009
1017 1 55.1814 8.8798 490 108.796 124.098 472.159
1018 0 54.1147 10.4777 567 108.469 124.452 471.847
1019 0 55.1399 9.88395 545 111.411 124.982 469.626
1020 0 54.1335 6.04062 327 116.3 125.927 471.11
1021 0 64.3888 11.6324 749 107.076 125.948 469.7
1022 0 63.2455 11.4475 724 110.011 125.917 464.862
1023 0 62.1495 7.49805 466 115.665 127.189 468.268
1024 0 67.2469 10.0228 674 111.218 126.531 465.316
1025 0 71.3033 11.8368 844 108.118 127.836 466.088
1026 0 67.488 8.40149 567 112.577 126.917 467.517
1027 0 76.4498 7.69133 588 112.883 127.065 465.361
1028 0 78.4716 12.0043 942 106.555 125.318 463.617
1029 0 77.2391 9.03687 698 111.768 125.981 463.476
1030 0 82.5618 13.0811 1080 107.167 126.789 461.064
1031 0 81.3419 12.552 1021 109.748 126.154 456.543
1032 0 82.3036 10.279 846 111.719 126.948 462.397
1033 0 90.29 10.6546 962 113.416 127.44 457.023
1034 0 94.2895 9.12085 860 113.059 126.469 460.181
1035 0 98.2845 12.7182 1250 106.824 126.646 463.749
1036 1 51.1721 9.30194 476 115.273 126.069 479.903
1037 0 55.1407 13.0031 717 104.054 126.015 481.602
1038 0 55.1646 13.0337 719 107.51 126.591 481.36
1039 0 55.1215 13.1346 724 108.182 126.236 480.122
1040 0 56.1208 12.4909 701 108.197 125.291 481.31
1041 0 58.1416 15.0839 877 105.12 124.568 478.568
1042 0 63.1477 16.4377 1038 103.495 124.116 479.522
1043 0 58.5613 11.4069 668 113.693 123.391 482.46
1044 0 58.2047 9.98202 581 113.823 122.155 482.504
1045 0 63.2006 12.3891 783 110.64 122.137 478.816
1046 0 62.1118 10.0786 626 112.941 121.917 483.434
1047 0 65.2301 11.3904 743 112.989 121.581 474.452
1048 0 69.1713 13.1413 909 109.974 120.908 472.296
1049 0 67.2295 9.66837 650 116.157 120.337 470.185
1050 0 72.2166 10.6762 771 112.065 118.734 475.124
1051 0 72.1356 12.726 918 111.139 120.286 471.507
1052 0 74.2737 13.7599 1022 110.106 119.463 469.133
1053 0 76.1678 12.735 970 111.638 119.738 464.012
1054 0 78.3848 13.0765 1025 109.881 118.276 468.647
1055 0 81.1884 12.1692 988 111.992 118.413 463.867
1056 0 84.1312 14.9885 1261 107.067 119.37 464.86
1057 0 88.3023 11.9363 1054 111.78 120.143 461.962
1058 0 88.1094 14.4593 1274 108.578 118.878 462.008
1059 0 91.2538 12.1968 1113 113.813 119.619 454.399
1060 0 95.2057 11.8165 1125 114.493 120.336 455.075
1061 1 54.1121 6.85614 371 118.256 121.361 476.553
1062 0 53.0609 12.382 657 115.537 121.059 472.568
1063 0 55.1661 11.2388 620 115.144 121.156 473.544
1064 0 54.3557 10.928 594 117.697 122.377 469.532
1065 0 57.0705 12.3356 704 116.638 123.148 468.092
1066 0 62.1032 16.8912 1049 107.899 124.139 470.218
1067 0 63.1421 12.8282 810 114.22 124.435 467.325
1068 0 64.1255 13.0993 840 114.708 127.038 463.545
1069 0 64.1551 12.5945 808 116.599 127.749 461.207
1070 0 66.1102 11.8287 782 117.474 129.202 463.384
1071 0 70.1846 15.502 1088 111.842 129.731 459.449
1072 0 69.2229 14.5761 1009 113.634 129.403 462.956
1073 0 71.5491 14.0463 1005 114.714 131.069 459.781
1074 0 73.3053 13.4915 989 115.456 132.215 462.338
1075 0 78.3238 16.4956 1292 110.45 130.533 459.642
1076 0 80.2602 13.1198 1053 114.802 131.143 461.119
1077 0 84.5807 14.1049 1193 110.339 129.2 457.334
1078 0 87.2744 15.056 1314 108.938 129.177 462.941
1079 0 88.2861 12.8333 1133 115.993 129.127 460.678
1080 0 93.6493 14.1912 1329 111.85 127.411 454.382
1081 0 99.7179 14.6413 1460 110.551 127.923 458.018
1082 1 54.1785 12.9572 702 112.551 127.875 479.915
1083 0 56.3698 14.0323 791 111.038 127.029 476.464
1084 0 59.3505 11.5921 688 113.055 126.007 478.347
1085 0 59.2047 11.9247 706 115.632 125.678 468.551
1086 0 64.1867 14.4111 925 110.782 125.155 470.668
1087 0 64.2044 13.1299 843 114.057 125.081 471.655
1088 0 72.3697 12.4914 904 112.583 123.768 477.563
1089 0 69.1988 12.3991 858 115.287 123.65 470.77
1090 0 72.1552 12.9166 932 113.482 122.025 470.462
1091 0 75.1766 14.6056 1098 111.189 122.09 472.801
1092 0 79.2761 14.8847 1180 109.736 121.712 470.956
1093 0 82.284 14.219 1170 110.15 120.862 469.249
1094 0 82.219 16.3709 1346 108.285 120.364 466.939
1095 0 83.1858 15.832 1317 109.621 120.423 464.639
1096 0 84.2192 12.515 1054 114.315 120.328 465.905
1097 1 46.1607 11.1133 513 112.596 120.48 483.242
1098 0 48.0595 12.7966 615 111.117 120.255 479.19
1099 0 54.332 13.3071 723 106.815 122.418 481.679
1100 0 55.0625 16.7083 920 102.561 123.205 479.587
1101 0 50.2241 11.9066 598 112.709 123.796 476.564
1102 0 52.1315 11.5285 601 113.875 122.89 474.195
1103 0 59.1652 15.4652 915 104.299 123.27 475.87
1104 0 59.1384 12.6314 747 110.249 123.993 473.106
1105 0 58.4851 13.5932 795 111.953 123.18 465.155
1106 0 61.3355 12.1789 747 114.088 124.199 466.384
1107 0 63.3329 17.1317 1085 106.593 123.355 463.983
1108 0 67.3771 15.8659 1069 105.602 125.186 471.05
1109 0 66.3226 16.6007 1101 107.807 124.689 464.581
1110 0 69.3655 14.7335 1022 110.115 126.59 464.366
1111 0 69.2686 13.989 969 114.291 126.64 460.33
1112 0 78.6799 17.3615 1366 103.876 127.999 468.138
1113 0 72.1365 13.9874 1009 110.841 127.543 463.28
1114 0 75.4899 13.419 1013 109.631 127.317 462.535
1115 0 79.2082 17.7507 1406 105.203 128.587 459.086
1116 0 81.2487 11.1386 905 112.284 129.108 460.573
1117 0 85.4544 14.4404 1234 107.339 128.512 460.248
1118 0 86.3229 13.6812 1181 109.256 129.878 457.854
1119 0 88.1813 12.3949 1093 110.322 128.794 461.156
1120 0 90.4094 12.919 1168 111.143 129.634 459.985
1121 0 92.2247 10.9949 1014 113.948 129.016 459.989
1122 0 97.1876 14.3537 1395 109.978 128.858 456.785
1123 0 98.232 12.5621 1234 113.576 129.157 456.763
1124 0 101.159 14.6997 1487 112.643 127.381 457.827
1125 0 106.247 13.1674 1399 115.129 127.434 458.955
1126 1 55.2038 10.9594 605 114.641 126.202 481.043
1127 0 58.0373 13.0433 757 109.908 128.114 479.974
1128 0 59.1626 13.5897 804 111.586 126.243 479.403
1129 0 63.129 14.6367 924 105.318 126.253 485.594
1130 0 64.2067 10.0145 643 117.062 125.389 480.306
1131 0 69.1172 11.9073 823 113.707 124.823 481.168
1132 0 70.2897 15.6495 1100 109.558 123.638 475.334
1133 0 71.3693 11.3915 813 117.081 122.877 476.256
1134 0 73.2025 13.9749 1023 113.86 121.227 475.084
1135 0 74.2213 13.6484 1013 114.22 122.345 471.452
1136 0 77.4494 14.3061 1108 112.95 120.925 471.213
1137 0 78.2086 13.5279 1058 114.473 121.262 468.146
1138 0 79.4593 13.5038 1073 115.691 120.994 468.375
1139 0 84.3099 14.933 1259 112.484 120.183 465.146
1140 0 86.2945 13.3381 1151 116.345 119.928 460.474
1141 0 88.1466 12.8309 1131 117.295 120.678 463.176
1142 0 92.6031 15.1723 1405 113.218 119.27 459.913
1143 0 91.4108 12.143 1110 120.193 118.978 452.406
1144 0 95.6101 13.4086 1282 117.362 118.543 453.842
1145 0 99.5176 14.3392 1427 116.199 119.463 450.447
1146 0 104.347 13.1772 1375 114.999 120.351 450.63
1147 0 107.467 16.3213 1754 111.094 120.496 443.001
1148 0 107.523 11.5976 1247 119.068 120.606 438.287
1149 0 113.534 13.3088 1511 115.233 121.79 439.246
1150 1 62.2538 10.0556 626 110.609 122.23 464.514
1151 0 66.4024 16.4151 1090 103.528 122.805 458.24
1152 0 68.1815 11.0734 755 111.185 125.017 461.734
1153 0 70.2915 13.9704 982 106.446 124.454 461.23
1154 0 76.4272 11.7105 895 108.126 126.035 465.431
1155 0 74.1323 12.4642 924 108.598 126.725 464.74
1156 0 78.192 14.2086 1111 107.363 127.226 461.454
1157 0 81.3084 12.8646 1046 109.473 126.842 460.127
1158 0 83.2546 12.5278 1043 113.076 126.466 458.723
1159 0 87.2228 13.4025 1169 112.068 128.75 457.264
1160 0 88.2608 13.2902 1173 121.623 130.729 457.217
1161 0 89.2547 10.935 976 116.612 129.931 461.033
1162 1 172.428 13.0142 2244 118.004 127.84 417.939
1163 0 176.362 13.0754 2306 116.82 129.078 419.156
1164 0 185.609 14.8915 2764 114.303 129.288 418.567
1165 1 101.342 11.9792 1214 114.336 128.464 455.391
1166 0 105.227 15.5948 1641 107.204 129.122 461.959
1167 1 59.1472 10.1949 603 112.949 129.088 479.871
1168 0 60.1767 11.3333 682 113.594 128.63 478.861
1169 0 63.1868 14.9557 945 104.891 127.998 478.003
1170 0 61.0936 10.7704 658 111.954 126.634 481.757
1171 0 62.1999 10.1286 630 112.008 127.362 478.932
1172 0 67.0894 11.5368 774 110.053 125.863 481.056
1173 0 68.1392 9.75943 665 112.068 126.43 484.358
1174 0 67.2941 11.9178 802 105.69 125.39 485.592
1175 0 76.1817 12.5883 959 106.704 124.105 476.143
1176 0 78.2452 11.0806 867 108.397 123.511 476.083
1177 0 79.2986 9.47054 751 112.959 123.121 467.615
1178 0 80.2116 11.3201 908 109.247 122.649 474.96
1179 0 84.1978 12.6013 1061 107.465 121.707 472.025
1180 0 86.3946 12.0494 1041 108.604 121.548 470.413
1181 0 89.1911 13.1179 1170 107.556 119.675 462.676
1182 0 90.2524 12.5426 1132 108.827 118.778 460.829
1183 0 96.2288 7.63805 735 114.158 118.476 462.546
1184 1 55.0577 15.3475 845 99.4675 118.046 483.021
1185 0 58.1169 13.5417 787 105.233 116.794 476.658
1186 0 56.4257 10.9525 618 108.003 117.638 473.058
1187 0 57.458 11.6955 672 108.287 118.946 470.436
1188 0 60.4349 13.0388 788 111.289 117.997 470.39
1189 0 61.5487 18.4732 1137 103.897 119.073 465.686
1190 0 64.4596 12.3023 793 111.202 118.42 467.576
1191 0 65.4791 13.1187 859 111.368 121.055 466.105
1192 0 65.3443 13.6508 892 111.456 121.304 463.206
1193 0 66.4501 10.6396 707 115.455 120.894 465.287
1194 0 70.414 14.2301 1002 109.814 122.323 464.345
1195 0 73.4616 13.9529 1025 110.513 121.911 458.841
1196 0 74.2476 16.243 1206 107.509 122.912 459.413
1197 0 74.2159 10.4829 778 117.064 124.792 455.577
1198 0 79.3009 11.1852 887 115.104 123.769 459.044
1199 0 81.2342 14.452 1174 111.653 125.252 454.431
1200 0 81.3455 12.4531 1013 115.086 125.208 455.361
1201 0 85.2452 12.8101 1092 114.821 126.354 452.419
1202 0 90.2627 12.7406 1150 114.574 126.457 452.187
1203 0 91.2467 12.5155 1142 113.708 128.144 452.64
1204 0 96.1563 13.5925 1307 112.711 127.568 455.227
1205 0 98.1796 14.3003 1404 112.491 127.13 453.98
1206 0 103.688 13.0487 1353 114.081 128.251 454.772
1207 1 57.1711 11.8766 679 111.477 126.978 474.938
1208 0 58.0683 11.1076 645 111.851 129.501 477.66
1209 0 61.2391 11.4306 700 108.971 129.679 479.653
1210 0 59.1343 10.2817 608 111.289 130.202 474.151
1211 0 61.1035 13.2889 812 107.899 129.346 475.33
1212 0 62.1475 13.0335 810 109.795 128.662 476.911
1213 0 61.1448 11.8244 723 105.371 129.649 478.757
1214 0 67.1209 12.8723 864 107.954 128.304 480.287
1215 0 70.1828 11.3561 797 111.172 127.163 477.57
1216 0 71.1312 11.1765 795 112.157 125.891 472.469
1217 0 74.129 12.7211 943 110.093 125.709 473.792
1218 0 78.1374 14.065 1099 106.982 124.948 473.306
1219 0 80.2683 16.2331 1303 103.531 124.715 475.956
1220 0 78.1272 9.21574 720 114.735 124.751 470.388
1221 0 83.265 13.5351 1127 107.107 122.578 470.452
1222 0 84.3607 13.5371 1142 108.806 123.425 461.433
1223 0 89.167 15.4429 1377 105.546 122.06 463.703
1224 0 90.15 12.457 1123 110.619 123.105 462.838
1225 1 50.1325 11.2302 563 110.163 122.528 479.291
1226 0 52.1942 11.1315 581 111.477 122.661 480.196
1227 0 52.0498 10.3555 539 113.79 120.171 479.154
1228 0 56.2074 10.7993 607 115.875 119.779 477.012
1229 0 54.4375 10.6544 580 118.014 121.084 471.538
1230 0 54.1086 10.5528 571 117.373 119.567 474.168
1231 0 57.2264 12.8262 734 108.23 122.108 474.53
1232 0 55.1414 9.15828 505 112.59 121.424 476.323
1233 0 59.0713 10.0726 595 112.286 123.874 471.01
1234 0 61.3099 9.37858 575 113.423 123 471.53
1235 0 65.2006 10.8741 709 111.458 125.444 468.148
1236 0 69.1101 13.6594 944 107.645 123.45 461.136
1237 0 69.2379 9.80676 679 111.3 125.566 465.844
1238 0 69.2379 9.83565 681 125.407 127.559 466.082
1239 0 75.202 10.2391 770 111.351 126.188 463.362
1240 0 78.2819 14.2817 1118 104.955 125.032 461.933
1241 0 75.3545 11.1075 837 111.492 125.333 458.701
1242 0 80.2409 10.78 865 111.108 126.489 459.314
1243 1 157.789 11.1098 1753 118.985 127.8 418.322
1244 0 163.63 13.1883 2158 114.563 127.878 427.46
1245 1 49.2858 12.9043 636 105.333 129.539 481.964
1246 0 47.3143 9.97585 472 112.79 128.581 473.002
1247 0 51.3841 9.55548 491 113.165 128.784 472.919
1248 0 53.2758 14.2279 758 105.699 128.517 478.661
1249 0 56.1992 12.0108 675 109.572 127.668 475.959
1250 0 52.2546 10.0661 526 114.833 128.785 476.489
1251 0 58.0421 15.7127 912 105.92 128.877 475.635
1252 0 56.1952 11.3177 636 113.991 128.53 476.332
1253 0 62.242 13.1262 817 110.995 127.532 472.16
1254 0 60.1641 10.6043 638 115.901 127.511 478.158
1255 0 63.119 14.5281 917 109.897 127.508 477.274
1256 0 68.2119 16.6833 1138 105.944 126.619 474.633
1257 0 70.1859 15.6014 1095 108.684 125.837 474.379
1258 0 71.3017 13.2255 943 112.913 125.841 475.953
1259 0 74.2232 11.7349 871 116.18 125.692 472.489
1260 0 73.3247 14.1562 1038 113.687 123.523 469.924
1261 0 80.3746 15.8383 1273 109.48 122.773 466.082
1262 0 79.1667 12.2526 970 116.445 122.891 462.936
1263 0 82.1912 15.8533 1303 110.253 121.768 468.342
1264 0 83.2565 15.2901 1273 111.799 121.688 460.535
1265 0 89.2675 15.7056 1402 111.066 119.663 461.976
1266 1 49.0379 8.5648 420 119.719 119.314 478.545
1267 0 52.0964 13.1295 684 112.181 121.187 480.465
1268 0 53.1205 11.2763 599 112.821 122.733 479.881
1269 0 52.2199 12.658 661 113.15 121.469 473.245
1270 0 55.3646 12.4267 688 117.672 121.372 472.967
1271 0 57.319 14.7246 844 114.444 121.584 472.039
1272 0 58.1852 14.2132 827 115.15 121.052 472.179
1273 0 59.1805 12.7914 757 117.631 121.288 469.694
1274 0 62.1762 11.9177 741 117.857 121.239 470.816
1275 0 64.0853 13.6693 876 114.985 122.797 465.039
1276 0 68.1387 17.0975 1165 108.633 122.332 464.952
1277 0 68.1072 15.0645 1026 112.261 123.824 466.471
1278 0 69.2084 14.348 993 114.014 123.803 463.24
1279 0 73.0401 16.3061 1191 110.191 123.583 461.639
1280 0 73.1937 14.769 1081 111.838 124.608 464.565
1281 0 75.3014 13.758 1036 115.597 125.381 458.068
1282 0 78.1296 14.0792 1100 116.199 126.457 457.053
1283 0 78.1141 14.4404 1128 114.898 126.607 459.221
1284 0 82.4094 13.3116 1097 118.295 127.745 458.254
1285 0 82.3544 12.1426 1000 122.023 129.067 450.933
1286 1 47.11 12.1206 571 117.681 127.182 473.592
1287 0 48.0459 13.4871 648 110.202 128.557 471.867
1288 0 52.3927 11.9291 625 110.966 128.675 475.253
1289 0 52.1705 12.1525 634 112.248 128.85 472.29
1290 0 54.3122 11.1577 606 113.267 127.954 475.157
1291 0 56.3135 13.6024 766 109.834 128.363 473.277
1292 0 56.1336 12.3277 692 111.779 128.61 477.454
1293 0 57.0745 10.5827 604 114.079 128.849 478.253
1294 0 58.08 11.2603 654 114.306 128.41 476.472
1295 0 61.2206 16.3344 1000 108.299 129.01 474.229
1296 0 65.4812 15.6992 1028 107.481 127.088 476.472
1297 0 63.1285 11.3419 716 115.27 128.184 474.256
1298 0 69.0942 14.2704 986 110.213 128.505 477.023
1299 0 71.2621 15.5763 1110 108.077 127.009 471.946
1300 0 71.2855 12.4149 885 113.373 126.553 471.259
1301 0 76.1379 15.8266 1205 106.566 125.954 478.055
1302 0 79.273 14.4059 1142 107.512 125.162 477.002
1303 0 80.4204 14.3247 1152 107.644 124.18 476.974
1304 0 82.1703 7.31408 601 117.361 124.141 470.378
1305 1 43.1093 11.3664 490 107.761 124.063 489.902
1306 0 47.0193 11.1231 523 110.329 122.828 484.969
1307 0 50.0565 12.1662 609 109.473 122.872 483.172
1308 0 56.156 13.7118 770 103.834 121.674 483.305
1309 0 54.0931 11.739 635 109.564 121.913 479.345
1310 0 58.1011 14.0961 819 105 121.38 477.973
1311 0 60.2123 14.0503 846 104.883 120.326 470.831
1312 0 63.092 13.4407 848 106.975 120.379 473.297
1313 0 64.1047 21.6521 1388 95.1254 119.921 473.696
1314 0 64.0875 14.2774 915 104.333 120.083 472.332
1315 0 68.0861 15.4951 1055 102.215 120.376 461.337
1316 0 68.0792 12.4561 848 107.035 120.804 467.139
1317 0 76.1965 11.1685 851 108.317 120.833 466.204
1318 0 74.1865 12.172 903 107.035 121.666 464.369
1319 0 81.1679 13.6138 1105 104.028 120.943 462.31
1320 0 78.1532 13.4735 1053 106.51 121.225 455.167
1321 0 82.139 12.8806 1058 107.579 123.151 455.398
1322 0 82.215 11.4578 942 110.294 122.556 450.342
1323 0 87.1903 10.4943 915 113.901 124.645 454.492
1324 0 88.086 14.1453 1246 109.291 124.636 451.76
1325 0 95.4386 15.4026 1470 104.746 123.985 457.831
1326 0 97.1451 14.6379 1422 108.822 125.554 449.196
1327 0 99.1252 12.6103 1250 112.423 124.702 446.748
1328 0 105.212 13.9243 1465 111.564 125.018 442.846
1329 1 57.1174 11.6077 663 109.64 125.753 471.983
1330 0 58.1372 14.2422 828 107.17 125.645 463.895
1331 0 59.059 11.8356 699 106.898 127.674 472.159
1332 0 59.0779 9.46208 559 109.597 128.104 472.032
1333 0 61.2527 10.5301 645 108.239 128.026 475.169
1334 0 64.1071 10.888 698 113.986 127.746 470.295
1335 0 66.1701 12.1354 803 113.027 128.301 470.218
1336 0 65.282 10.3244 674 116.203 126.927 471.632
1337 1 135.536 11.4951 1558 115.586 126.481 439.345
1338 1 75.3494 13.4706 1015 109.786 127.367 469.847
1339 0 74.404 10.5908 788 114.632 127.459 471.135
1340 0 75.1399 10.3008 774 115.508 126.811 468.775
1341 0 79.1561 10.0813 798 114.85 126.738 467.345
1342 0 83.1751 12.9846 1080 111.06 123.928 467.166
1343 0 88.2303 12.1614 1073 112.714 124.962 463.601
1344 0 88.0772 12.8751 1134 112.661 123.927 465.145
1345 0 89.1663 9.22994 823 117.373 124.614 459.815
1346 0 95.3738 15.0565 1436 106.235 121.816 465.414
1347 0 99.4154 13.3983 1332 110.209 122.231 459.14
1348 0 100.351 14.1703 1422 110.255 122.371 461.428
1349 0 105.302 12.0605 1270 115.896 121.602 455.068
1350 0 109.429 15.2062 1664 110.236 121.383 456.193
1351 0 111.333 13.7066 1526 113.87 120.499 447.657
1352 0 113.282 14.2653 1616 113.363 120.637 449.747
1353 0 121.302 18.4086 2233 105.816 121.144 451.708
1354 0 121.242 11.0935 1345 118.431 120.185 442.883
1355 1 65.178 12.3968 808 112.567 118.927 468.338
1356 0 70.3619 14.5391 1023 109.122 119.512 469.5
1357 0 72.1456 12.4055 895 113.97 120.596 466.641
1358 0 76.2269 13.2499 1010 110.498 120.264 462.824
1359 0 76.1476 12.2788 935 112.571 121.805 466.774
1360 0 78.2309 14.7512 1154 108.725 121.593 459.542
1361 0 83.2036 13.4489 1119 109.088 121.399 461.862
1362 0 87.5184 14.1113 1235 107.194 123.959 464.1
1363 0 88.2101 13.6606 1205 112.541 123.796 453.099
1364 0 90.1616 12.7549 1150 113.165 124.53 457.577
1365 0 93.0993 16.1226 1501 109.684 125.296 453.89
1366 0 97.4126 16.3531 1593 109.986 125.584 448.885
1367 0 101.184 15.2297 1541 112.173 126.488 447.156
1368 0 103.35 10.566 1092 118.492 126.744 451.152
1369 0 107.279 11.0739 1188 118.521 127.203 447.628
1370 0 111.146 13.6397 1516 114.02 126.349 448.358
1371 1 64.3659 14.8837 958 106.998 127.741 475.427
1372 0 64.1563 14.0438 901 111.775 129.004 466.688
1373 0 65.1879 15.1255 986 111.735 129.13 465.032
1374 0 67.1609 15.5894 1047 108.63 128.641 460.394
1375 0 69.2681 13.3395 924 111.781 130.373 468.15
1376 0 70.1066 15.7617 1105 108.348 130.121 468.143
1377 0 76.6886 15.2826 1172 105.983 130.036 472.75
1378 0 74.0565 14.7185 1090 109.64 128.929 465.366
1379 0 74.2568 11.7026 869 116.048 128.796 470.106
1380 0 76.1377 11.2165 854 116.255 127.93 474.105
1381 0 82.1667 13.4726 1107 112.401 127.699 470.054
1382 0 85.2685 13.5689 1157 110.972 126.513 469.461
1383 0 86.2869 16.3177 1408 108.499 127.472 468.711
1384 0 87.1985 11.2158 978 121.33 126.37 457.52
1385 0 88.1347 12.3107 1085 121.137 126.215 466.146
1386 0 96.22 15.5373 1495 113.414 124.353 467.805
1387 1 57.1594 11.8616 678 118.791 124.779 482.948
1388 0 56.2197 10.8503 610 120.374 122.939 481.692
1389 0 58.3148 11.7294 684 117.506 122.768 484.89
1390 0 59.078 14.8786 879 114.587 121.109 483.405
1391 0 59.0858 11.9826 708 120.732 120.809 478.304
1392 0 66.8482 13.5082 903 114.685 122.386 478.01
1393 0 63.1775 17.2688 1091 111.915 121.056 474.26
1394 0 63.4582 13.6153 864 118.343 120.5 472.818
1395 0 69.0861 15.2274 1052 114.075 120.975 475.506
1396 0 69.1185 14.6705 1014 116.712 120.481 469.348
1397 0 69.0652 15.0727 1041 116.887 121.857 469.1
1398 0 73.135 16.6678 1219 114.041 120.857 466.726
1399 0 74.3645 13.4204 998 118.569 120.824 468.122
1400 0 76.1026 15.1769 1155 116.335 120.248 463.218
1401 0 78.1964 15.9726 1249 114.637 119.523 463.392
1402 0 79.5645 14.6673 1167 119.353 120.467 456.584
1403 0 83.2828 14.9851 1248 118.832 120.204 455.852
1404 0 87.3246 15.826 1382 115.312 120.064 458.742
1405 0 87.3246 15.9749 1395 138.328 120.043 458.83
1406 1 48.2869 12.5914 608 119.59 121.28 473.311
1407 0 51.2628 11.6264 596 120.052 121.708 469.329
1408 0 52.3136 15.388 805 112.298 122.478 471.024
1409 0 51.1501 15.0146 768 113.96 122.294 471.001
1410 0 53.3628 13.9423 744 116.249 124.298 469.981
1411 0 54.1362 16.0152 867 113.102 125.557 474.029
1412 0 55.2779 12.8623 711 119.885 124.98 471.422
1413 0 57.2556 15.0204 860 116.701 125.727 470.412
1414 0 58.1244 16.9636 986 113.975 126.043 471.85
1415 0 60.3384 15.8937 959 116.473 127.279 471.277
1416 0 62.2475 13.7194 854 120.576 127.642 472.624
1417 0 63.2344 13.9007 879 121.371 128.254 472.561
1418 0 64.1114 13.4765 864 123.284 128.442 471.875
1419 0 68.0954 16.1391 1099 117.515 128.155 472.52
1420 0 68.0738 14.117 961 122.081 128.026 471.028
1421 0 71.2868 14.2944 1019 122.089 127.702 472.031
1422 0 74.2108 15.0787 1119 121.915 127.479 467.276
1423 0 75.2875 14.7435 1110 122.909 127.265 469.082
1424 0 78.3193 14.1855 1111 122.892 126.71 469.6
1425 0 79.0766 16.8571 1333 118.83 126.452 470.326
1426 0 80.1258 14.5396 1165 122.803 127.13 469.894
1427 0 83.21 14.0007 1165 123.608 126.352 470.533
1428 0 87.3364 17.3009 1511 116.83 125.007 466.398
1429 0 90.2874 15.3953 1390 120.696 125.011 466.631
1430 0 92.3224 16.2691 1502 119.841 123.968 464.388
1431 0 94.171 15.1533 1427 121.714 124.05 463.704
1432 0 95.1782 15.865 1510 120.989 122.957 462.332
1433 0 99.191 14.1545 1404 123.208 122.477 459.572
1434 1 54.0772 14.9416 808 118.046 121.349 480.644
1435 0 56.3674 12.8443 724 121.942 121.762 478.394
1436 0 58.1255 14.9332 868 117.257 120.181 477.477
1437 0 56.1973 11.2461 632 126.321 120.744 471.339
1438 0 61.2167 16.2864 997 116.868 120.396 468.644
1439 0 65.3343 21.0609 1376 108.719 120.309 467.042
1440 0 66.2288 16.0655 1064 117.096 120.556 465.829
1441 0 67.1532 16.8272 1130 117.302 120.012 461.709
1442 0 67.2215 14.8316 997 119.352 120.042 465.349
1443 0 70.153 15.6515 1098 121.85 120.767 459.57
1444 0 74.187 15.2183 1129 122.122 120.518 457.319
1445 0 73.1048 15.9087 1163 123.395 120.398 453.037
1446 0 77.2914 16.3019 1260 120.469 121.011 453.771
1447 0 81.1683 15.203 1234 121.303 122.331 454.675
1448 0 80.2469 13.5332 1086 124.201 122.098 456.005
1449 0 83.2431 14.5478 1211 123.022 123.219 449.99
1450 0 87.2356 15.4524 1348 120.7 124.416 445.114
1451 0 90.1706 19.7958 1785 114.334 123.812 442.466
1452 0 93.3924 15.3117 1430 123.477 125.114 442.496
1453 0 93.3924 15.376 1436 145.883 127.111 442.468
1454 1 54.1185 13.2672 718 127.273 125.833 462.017
1455 0 56.0455 13.1143 735 126.566 126.347 463.233
1456 0 57.0447 13.5683 774 126.66 126.574 459.62
1457 0 59.1648 19.8429 1174 114.202 126.526 462.345
1458 0 63.1558 15.8814 1003 119.27 128.353 462.262
1459 0 64.1972 18.1939 1168 116.749 128.017 459.535
1460 0 65.1144 13.9447 908 124.387 129.168 457.012
1461 0 67.0812 15.2949 1026 121.842 128.926 460.096
1462 0 71.1137 12.5855 895 124.968 128.68 462.926
1463 0 73.142 15.8186 1157 121.756 128.233 459.106
1464 0 76.3762 15.3844 1175 121.882 128.182 460.79
1465 0 76.1936 13.072 996 126.982 127.694 458.541
1466 0 85.2796 15.244 1300 120.481 128.269 458.502
1467 0 85.0936 15.5711 1325 121.269 127.501 455.769
1468 0 91.2086 16.0621 1465 119.055 128.027 458.405
1469 0 92.1741 19.1052 1761 114.831 126.304 451.05
1470 1 49.1263 13.8826 682 123.233 126.416 477.714
1471 0 51.1474 15.8952 813 120.706 125.812 476.828
1472 0 51.2385 11.3196 580 129.162 124.826 476.514
1473 0 55.0871 15.5209 855 121.821 123.736 476.225
1474 0 55.0871 15.5935 859 145.459 122.724 476.163
1475 0 60.1554 16.3909 986 118.923 123.499 471.096
1476 0 60.1766 16.3519 984 120.056 122.604 468.741
1477 0 63.4343 15.5121 984 119.116 122.403 472.45
1478 0 68.3352 14.0045 957 119.982 121.245 468.172
1479 0 72.2286 17.0293 1230 114.558 120.775 463.088
1480 0 70.191 12.8649 903 123.508 120.774 462.526
1481 0 75.2525 14.1656 1066 121.157 119.621 461.593
1482 0 79.4116 16.0052 1271 117.926 119.338 455.928
1483 0 79.2685 13.5615 1075 122.566 119.682 456.465
1484 0 83.3023 14.7895 1232 118.685 119.79 456.734
1485 0 85.3712 14.1383 1207 120.625 120.016 451.761
1486 0 88.3353 14.7732 1305 118.697 120.309 450.985
1487 0 89.3969 15.7276 1406 118.062 120.802 448.37
1488 0 97.6781 18.5303 1810 111.477 120.443 447.593
1489 1 52.2898 14.018 733 115.746 121.016 464.943
1490 0 55.2732 13.5147 747 117.407 120.787 462.594
1491 0 54.1864 12.4939 677 118.913 121.925 460.62
1492 0 58.2012 14.5358 846 114.559 123.296 459.628
1493 0 61.0394 14.6135 892 113.238 123.621 455.796
1494 0 63.164 15.721 993 111.323 123.839 456.112
1495 0 63.0799 13.4116 846 114.474 124.442 451.572
1496 0 67.2367 13.0881 880 114.999 125.75 455.461
1497 0 66.1196 13.279 878 116.329 125.638 450.325
1498 0 72.226 15.7422 1137 111.767 125.945 451.112
1499 0 74.2956 13.9443 1036 114.563 127.162 449.456
1500 0 77.1677 18.2848 1411 107.728 126.872 448.725
1501 0 77.192 14.4056 1112 114.567 127.696 446.076
1502 0 83.1228 13.6064 1131 114.032 128.196 446.791
1503 0 89.1584 14.85 1324 110.714 128.212 447.495
1504 0 88.196 12.6536 1116 114.668 128.315 453.363
1505 1 48.0912 11.8733 571 115.79 127.639 466.056
1506 0 51.1114 14.6738 750 107.645 129.183 473.613
1507 0 50.061 10.0078 501 118.545 127.802 467.976
1508 0 52.1195 10.7062 558 116.434 127.636 469.016
1509 0 58.0261 17.1474 995 104.853 126.747 470.57
1510 0 55.1257 12.5531 692 114.61 127.254 468.397
1511 0 58.3237 15.2768 891 109.595 126.596 472.796
1512 0 58.1917 11.3246 659 117.231 125.71 468.379
1513 0 60.1505 13.7489 827 113.03 126.208 469.904
1514 0 62.1157 11.7362 729 117.726 125.694 464.994
1515 0 67.1368 13.5246 908 112.66 123.909 468.401
1516 0 67.1447 14.1485 950 113.188 123.102 462.589
1517 0 72.2295 12.4326 898 115.21 122.06 463.771
1518 0 75.1731 16.4021 1233 109.488 121.974 461.516
1519 0 75.081 14.5976 1096 113.529 121.534 460.439
1520 0 78.1625 14.585 1140 113.589 121.675 457.382
1521 0 77.2498 14.2784 1103 115.882 121.576 451.493
1522 0 83.3769 13.2171 1102 117.13 120.854 451.857
1523 0 86.15 15.5543 1340 113.637 120.655 453.807
1524 0 90.2496 19.2134 1734 108.619 119.679 450.383
1525 0 93.1956 17.7583 1655 110.882 119.593 447.715
1526 0 93.3068 13.8897 1296 118.374 120.289 448.924
1527 0 99.2598 18.9503 1881 111.424 120.173 443.024
1528 0 101.253 13.6094 1378 120.579 120.291 434.047
1529 0 103.427 16.2434 1680 115.799 120.089 437.552
1530 0 107.245 16.01 1717 116.044 120.729 428.752
1531 0 113.269 16.1562 1830 113.972 119.39 430.811
1532 0 118.405 15.9706 1891 114.662 120.823 431.337
1533 0 118.254 15.8895 1879 116.454 120.144 428.788
1534 0 125.291 17.2079 2156 113.731 120.912 426.115
1535 0 130.564 19.9519 2605 110.403 121.486 415.052
1536 0 135.533 17.1987 2331 114.417 122.931 419.563
1537 0 143.586 19.0339 2733 111.798 123.883 413.331
1538 0 143.586 19.0339 2733 139.819 125.883 413.331
1539 0 150.347 19.7011 2962 111.933 124.857 411.508
1540 0 155.157 18.0849 2806 115.129 125.903 409.546
1541 0 162.269 16.8917 2741 117 126.382 410.049
1542 0 164.273 18.2623 3000 115.802 126.214 398.596
1543 0 170.622 18.1278 3093 116.156 126.436 394.852
1544 0 181.384 18.9708 3441 114.475 126.649 401.35
1545 0 182.574 15.3143 2796 121.869 127.193 400.879
1546 0 190.286 17.5157 3333 119.207 127.472 403.99
1547 1 151.309 14.3415 2170 125.014 127.507 424.153
1548 0 156.339 18.3063 2862 117.492 128.102 425.901
1549 0 157.335 13.6587 2149 121.562 127.665 410.474
1550 0 163.477 14.5097 2372 120.108 127.684 413.751
1551 0 170.524 17.8098 3037 113.668 127.087 417.754
1552 0 179.455 16.2548 2917 115.76 127.052 410.775
1553 0 187.508 16.0474 3009 117.877 127.6 410.653
1554 0 194.631 16.9449 3298 117.311 127.342 407.055
1555 1 74.1518 11.7192 869 111.226 126.376 463.666
1556 0 79.0552 10.8152 855 112.716 126.371 463.717
1557 0 81.4987 12.172 992 107.288 125.659 468.732
1558 0 86.3129 11.1571 963 108.759 124.856 470.221
1559 0 86.3634 12.0653 1042 108.346 124.09 463.854
1560 0 89.2544 14.4755 1292 104.979 122.909 462.611
1561 0 93.1687 13.4273 1251 106.835 123.006 459.975
1562 0 96.2334 11.9501 1150 109.874 122.063 459.06
1563 0 101.477 10.9877 1115 115.988 123.031 455.833
1564 0 102.39 10.0009 1024 118.162 122.145 450.408
1565 0 105.243 12.3428 1299 113.836 121.078 453.657
1566 0 111.465 12.0935 1348 113.768 120.751 446.704
1567 0 111.429 10.9038 1215 113.97 121.106 449.598
1568 0 115.565 10.0982 1167 114.76 119.988 446.311
1569 0 121.419 12.4198 1508 111.633 120.269 440.927
1570 0 120.666 10.0608 1214 114.968 119.411 434.474
1571 0 127.597 10.7761 1375 112.146 119.688 435.789
1572 0 134.851 13.0217 1756 109.463 120.391 428.54
1573 0 136.478 11.5256 1573 112.299 120.684 423.783
1574 0 144.773 10.216 1479 113.202 121.048 422.88
1575 0 145.311 6.56521 954 117.982 121.987 422.618
1576 0 147.555 11.9955 1770 113.269 122.603 420.844
1577 0 150.475 11.8957 1790 114.292 123.103 408.959
1578 0 158.823 13.7134 2178 111.354 122.883 413.063
1579 0 167.897 9.30333 1562 116.376 124.122 413.004
1580 0 167.594 10.8656 1821 115.057 125.17 409.558
1581 0 174.351 12.3773 2158 112.927 125.669 406.148
1582 0 178.046 12.025 2141 114.518 125.532 400.688
1583 1 98.5025 9.13682 900 107.246 125.719 442.532
1584 0 104.304 10.1722 1061 106.844 126.516 439.893
1585 0 106.404 6.38132 679 109.514 126.856 446.807
1586 0 113.201 13.7632 1558 101.005 127.044 443.78
1587 0 117.31 11.4995 1349 104.996 126.569 440.631
1588 0 119.197 10.1429 1209 106.83 127.68 444.974
1589 0 122.237 10.6596 1303 109.315 127.175 431.137
1590 0 127.407 12.9114 1645 105.254 126.937 439.867
1591 0 130.42 13.9396 1818 106.145 127.662 435.525
1592 0 133.374 10.7518 1434 111.628 127.695 434.073
1593 0 136.687 8.25245 1128 114.162 126.627 435.356
1594 0 143.415 14.4755 2076 104.62 127.472 437.361
1595 0 150.768 14.0149 2113 105.942 126.683 429.175
1596 0 149.554 11.5945 1734 110.719 124.918 422.615
1597 0 157.413 13.0866 2060 109.576 125.48 432.434
1598 0 159.511 13.3031 2122 110.133 125.689 432.551
1599 0 161.445 12.8713 2078 110.48 125.756 425.715
1600 0 162.309 9.50653 1543 114.657 125.882 431.899
1601 1 90.2604 9.11807 823 107.838 124.608 469.406
1602 0 93.257 10.5944 988 106.989 125.025 464.857
1603 1 174.52 10.6177 1853 115.95 122.67 422.758
1604 1 98.1884 12.476 1225 105.181 122.734 462.331
1605 0 101.319 11.143 1129 108.079 121.629 458.377
1606 0 102.458 12.9712 1329 106.686 120.935 458.135
1607 0 107.345 12.2595 1316 107.546 121.164 454.493
1608 0 112.334 13.4154 1507 105.971 120.702 451.578
1609 0 113.308 12.1703 1379 109.098 120.377 451.969
1610 0 113.329 9.95332 1128 113.567 120.458 444.436
1611 0 118.542 17.3356 2055 103.561 120.31 449.685
1612 0 120.246 13.1231 1578 110.77 119.758 443.399
1613 0 126.626 16.0789 2036 107.661 119.001 438.082
1614 0 129.439 17.5604 2273 104.513 119.092 445.643
1615 0 130.372 15.9697 2082 109.631 117.795 435.292
1616 0 130.372 15.8854 2071 141.615 115.813 435.236
1617 0 140.578 15.9912 2248 110.005 119.557 428.757
1618 0 141.458 14.7605 2088 112.664 120.121 430.365
1619 0 148.676 13.9767 2078 114.093 120.817 423.451
1620 0 151.322 13.957 2112 113.777 122.566 422.489
1621 0 158.734 14.1557 2247 113.905 122.43 418.789
1622 0 161.616 15.1346 2446 114.123 122.559 414.503
1623 0 164.335 14.1784 2330 116.411 122.106 410.762
1624 0 169.529 12.0098 2036 118.839 123.832 418.233
1625 0 173.422 19.5823 3396 109.384 124.734 407.382
1626 0 177.743 12.6587 2250 118.413 124.988 414.318
1627 0 175.639 13.2659 2330 119.042 125.596 406.72
1628 1 185.457 12.6499 2346 120.001 126.101 401.823
1629 0 193.733 17.4828 3387 112.893 126.29 399.569
1630 0 199.839 14.1314 2824 117.755 126.196 404.096
1631 0 203.618 13.1324 2674 121.214 126.949 389.37
1632 0 209.75 18.4553 3871 111.189 127.157 401.323
1633 0 215.675 14.2854 3081 117.819 127.049 398.541
1634 0 221.491 15.1022 3345 115.408 129.018 388.054
1635 1 163.607 16.0934 2633 111.03 127.203 425.624
1636 0 165.481 12.2189 2022 119.758 127.639 416.136
1637 0 174.43 17.9957 3139 108.673 126.359 414.158
1638 0 177.251 12.6092 2235 118.146 126.586 410.03
1639 0 185.981 17.3189 3221 109.873 125.573 410.118
1640 0 191.067 11.8807 2270 116.754 125.146 412.081
1641 0 199.822 16.5197 3301 110.792 124.638 404.786
1642 0 207.968 15.863 3299 112.606 124.016 405.927
1643 0 211.041 14.3195 3022 115.866 124.016 400.729
1644 0 219.126 14.7039 3222 114.851 123.448 395.035
1645 0 226.813 16.4497 3731 112.249 122.182 389.379
1646 1 59.0285 10.2154 603 106.244 121.272 476.94
1647 0 64.1431 16.3697 1050 99.141 120.219 479.122
1648 0 64.1813 10.3613 665 109.072 120.516 475.343
1649 0 67.1926 10.6411 715 106.492 120.832 477.748
1650 0 65.0613 11.3893 741 104.409 118.83 477.13
1651 0 66.1954 8.27852 548 109.991 119.595 472.714
1652 0 74.1758 20.1009 1491 93.1791 120.01 476.771
1653 0 72.0927 14.0513 1013 102.1 119.345 472.12
1654 0 73.2325 9.49033 695 108.56 117.61 469.724
1655 0 75.153 12.6675 952 103.274 118.279 467.282
1656 0 78.1819 13.0977 1024 103.6 117.36 459.984
1657 0 81.1321 11.2656 914 105.178 117.679 460.507
1658 0 83.1389 12.5573 1044 103.799 117.757 456.289
1659 0 91.1557 11.4858 1047 103.998 117.922 457.779
1660 0 92.2401 13.2264 1220 103.011 118.226 450.785
1661 0 95.3023 11.9409 1138 106.365 118.678 446.868
1662 0 98.56 17.0962 1685 102.106 120.329 445.052
1663 0 101.342 13.5581 1374 107.018 120.316 445.064
1664 0 105.308 13.3703 1408 107.167 119.04 442.974
1665 0 106.259 11.7919 1253 110.424 121.331 443.694
1666 0 104.205 8.54089 890 104 120.681 460.698
1667 1 79.6422 25.2002 2007 88.5436 121.424 451.334
1668 0 75.2775 17.0436 1283 99.7412 121.273 458.746
1669 0 69.0613 11.3812 786 111.69 122.569 458.141
1670 0 74.1981 13.5044 1002 107.645 123.846 463.758
1671 0 75.186 12.9412 973 110.859 123.588 456.41
1672 0 77.2225 12.2892 949 111.504 124.306 460.806
1673 0 80.226 16.2291 1302 105.715 125.796 458.638
1674 0 82.1951 12.3 1011 112.829 125.728 455.401
1675 0 82.2184 13.9142 1144 111.309 127.459 458.601
1676 0 88.1996 14.9207 1316 107.717 127.329 463.331
1677 0 90.1936 14.7571 1331 109.672 124.414 456.107
1678 0 89.1677 13.5699 1210 111.565 125.679 461.182
1679 0 88.1289 13.1285 1157 114.786 125.348 454.393
1680 0 95.3368 16.2267 1547 108.059 124.903 452.654
1681 0 99.1711 10.6785 1059 116.848 124.519 458.79
1682 0 100.158 15.4156 1544 110.537 124.929 455.928
1683 0 101.417 15.8454 1607 109.628 123.999 463.114
1684 0 103.526 12.0646 1249 119 124.789 452.975
1685 0 109.358 14.64 1601 113.943 124.034 454.276
1686 1 59.2618 11.0526 655 112.394 122.122 481.147
1687 0 61.2886 8.59866 527 115.985 122.12 479.044
1688 0 62.1821 9.40785 585 118.374 122.144 475.441
1689 0 66.048 11.2343 742 115.6 119.964 469.757
1690 0 68.1116 16.5904 1130 106.235 119.804 472.472
1691 0 70.546 12.8143 904 111.171 119.196 473.075
1692 0 70.2307 11.9891 842 113.033 118.03 471.732
1693 0 72.2944 11.5085 832 113.936 117.678 469.41
1694 0 76.1789 19.0867 1454 102.816 117.207 469.472
1695 0 77.156 14.2698 1101 109.01 117.304 466.644
1696 0 80.3937 13.2349 1064 112.822 117.17 461.662
1697 0 82.2868 14.5345 1196 110.124 116.999 462.803
1698 0 84.3698 13.0378 1100 112.149 117.004 462.563
1699 0 86.4236 13.2603 1146 113.305 117.554 457.628
1700 0 92.4761 18.5237 1713 103.954 119.531 457.473
1701 0 93.4784 13.2116 1235 112.662 120.411 455.728
1702 1 51.2143 10.954 561 113.979 119.845 473.624
1703 0 51.1172 11.9138 609 113.494 120.984 471.443
1704 0 54.2803 12.3802 672 111.997 119.506 472.278
1705 0 56.1153 11.5477 648 113.907 122.295 468.562
1706 0 56.102 13.7606 772 111.025 122.832 469.841
1707 0 57.1198 13.4279 767 111.992 123.941 464.673
1708 0 61.3077 10.7491 659 114.781 124.07 467.284
1709 0 63.342 14.7927 937 108.344 124.967 465.181
1710 0 66.3364 12.2557 813 111.063 125.205 467.466
1711 0 66.2543 19.8327 1314 101.072 125.451 468.647
1712 0 68.2488 11.6046 792 114.165 126.407 463.989
1713 0 69.3308 15.4621 1072 107.937 126.287 462.68
1714 0 70.2192 13.8993 976 110.512 126.768 460.075
1715 0 74.141 15.0119 1113 108.383 127.203 460.595
1716 0 79.3556 15.462 1227 106.165 128.46 463.098
1717 0 76.2825 12.0211 917 109.264 128.134 466.975
1718 0 78.1688 11.6287 909 109.195 127.747 466.49
1719 1 160.354 14.8547 2382 109.19 127.681 430.08
1720 1 86.1831 12.4154 1070 109.035 128.974 461.895
1721 0 90.238 13.5198 1220 107.37 128.316 460.419
1722 0 91.3847 14.8384 1356 106.712 127.586 457.546
1723 0 96.4081 14.7291 1420 107.335 127.613 460.329
1724 0 96.4563 15.437 1489 107.79 125.795 450.301
1725 0 100.492 22.8972 2301 97.8601 125.086 450.222
1726 1 57.1075 14.5165 829 105.002 125.42 475.431
1727 0 59.0863 13.5057 798 106.718 124.298 477.667
1728 0 59.1293 15.5929 922 104.295 123.485 479.067
1729 0 60.0649 13.6519 820 106.594 122.804 479.401
1730 0 63.1112 10.8697 686 110.19 120.184 478.835
1731 0 68.0605 14.2667 971 105.393 121.026 472.547
1732 0 70.1427 12.0754 847 109.908 120.488 472.686
1733 0 72.0533 12.8377 925 109.952 121.482 470.748
1734 0 73.2882 13.904 1019 106.806 121.945 476.434
1735 0 74.4918 10.0951 752 114.633 122.21 472.298
1736 0 80.3311 15.0627 1210 107.077 120.396 467.148
1737 0 81.3829 13.4058 1091 108.574 120.696 472.855
1738 0 84.4007 14.4075 1216 109.789 120.201 464.64
1739 0 84.3172 13.5678 1144 111.858 120.024 463.375
1740 0 88.3228 14.5489 1285 110.26 120.064 460.486
1741 0 89.2066 15.0774 1345 110.19 119.325 460.459
1742 0 91.3133 11.8055 1078 115.917 119.783 457.403
1743 0 93.3334 14.1107 1317 111.134 120.122 459.302
1744 0 100.413 14.1814 1424 112.978 120.114 452.246
1745 0 103.317 16.2026 1674 109.982 120.52 448.849
1746 0 104.506 15.023 1570 111.651 119.824 449.087
1747 1 57.142 10.0626 575 113.325 117.748 473.487
1748 0 59.2358 13.9274 825 109.333 120.091 458.646
1749 0 60.2023 14.4513 870 111.747 120.093 459.586
1750 0 64.122 14.7219 944 111.982 120.263 457.017
1751 0 64.1256 14.0506 901 113.629 120.92 460.438
1752 0 65.1761 16.9387 1104 110.852 121.908 456.013
1753 0 68.1322 15.0002 1022 113.263 121.883 456.182
1754 0 71.187 14.1458 1007 114.469 123.098 461.059
1755 0 73.2061 14.8621 1088 113.776 123.544 462.892
1756 0 75.1644 16.6036 1248 109.508 123.01 466.344
1757 0 78.1426 12.5796 983 117.77 123.679 463.257
1758 0 80.2009 15.2492 1223 114.848 124.129 462.265
1759 0 87.3864 16.2039 1416 111.907 126.207 458.822
1760 0 89.1986 15.8523 1414 113.009 126.411 460.658
1761 0 90.2211 16.781 1514 113.049 126.981 457.13
1762 0 94.2517 15.8512 1494 112.825 125.969 460.242
1763 1 48.0568 12.1731 585 116.421 125.756 479.622
1764 0 53.0992 14.52 771 111.532 125.894 481.868
1765 0 52.2612 15.1546 792 112.867 127.6 479.073
1766 0 54.35 12.9531 704 117.372 126.964 478.477
1767 0 60.3442 14.5167 876 112.713 125.93 478.534
1768 0 57.2429 12.9274 740 117.149 126.507 480.751
1769 0 60.3028 13.8302 834 116.688 126.277 478.173
1770 0 63.3092 14.3897 911 114.313 124.416 480.909
1771 0 68.4111 14.3398 981 112.712 124.716 479.059
1772 0 66.2411 15.1567 1004 114.051 123.173 474.931
1773 0 69.2179 13.5803 940 114.768 123.434 479.428
1774 0 71.2647 15.0846 1075 113.323 121.823 473.374
1775 0 73.2701 14.3715 1053 113.908 121.554 472.28
1776 0 77.2886 14.1936 1097 112.332 120.994 474.708
1777 0 79.428 14.126 1122 112.687 119.807 471.795
1778 0 82.4176 15.0332 1239 110.89 119.635 470.403
1779 0 84.3618 16.1922 1366 109.011 119.665 470.477
1780 0 90.554 16.388 1484 107.927 119.702 468.919
1781 0 88.2289 13.9297 1229 114.963 119.92 462.572
1782 1 48.0403 12.4063 596 114.562 120.572 481.045
1783 0 48.3596 13.6684 661 112.225 120.557 482.106
1784 0 49.1245 11.5014 565 115.419 119.942 481.943
1785 0 49.1267 11.6026 570 154.528 117.944 482.058
1786 0 54.0333 12.955 700 113.81 120.526 479.291
1787 0 55.1133 12.8463 708 112.586 119.859 473.333
1788 0 56.1524 12.9113 725 112.407 120.764 470.261
1789 0 56.0907 11.6775 655 114.837 120.93 471.609
1790 0 61.0769 13.835 845 109.837 120.779 471.792
1791 0 64.2038 15.9492 1024 105.889 121.688 470.495
1792 0 61.1665 12.9483 792 113.322 121.734 465.486
1793 0 65.1614 15.5307 1012 109.528 122.699 463.403
1794 0 68.1971 16.203 1105 107.637 122.889 464.86
1795 0 70.1419 16.3526 1147 106.901 123.916 465.282
1796 0 72.1762 14.6724 1059 109.531 123.703 463.719
1797 0 76.2458 14.7943 1128 109.68 124.967 463.527
1798 0 79.0825 13.1129 1037 112.275 124.765 459.036
1799 0 82.2203 12.6246 1038 110.955 125.398 463.025
1800 0 84.1024 13.8759 1167 111.037 125.602 457.161
1801 0 88.3172 14.9461 1320 109.105 125.766 458.268
1802 0 90.1014 13.0187 1173 112.748 126.381 452.782
1803 0 93.272 18.6444 1739 105.472 126.52 459.202
1804 1 51.0706 11.7484 600 113.687 127.155 481.25
1805 0 50.1268 14.4833 726 107.716 125.584 476.704
1806 0 51.2216 11.87 608 112.416 126.355 476.475
1807 0 53.3296 14.8323 791 110.03 126.09 476.198
1808 0 53.5116 11.2499 602 117.146 126.028 473.271
1809 0 57.2076 14.2638 816 112.208 125.245 471.831
1810 0 59.1639 13.9612 826 112.794 124.829 474.216
1811 0 58.2308 13.3263 776 114.522 124.534 474.916
1812 0 63.2831 12.8154 811 116.058 124.681 471.444
1813 0 64.3873 13.0616 841 116.735 124.656 473.067
1814 0 66.2401 12.8774 853 116.696 123.566 475.366
1815 0 69.4151 16.2212 1126 111.171 122.435 472.286
1816 0 73.2224 17.6312 1291 108.758 122.288 473.778
1817 0 75.0827 17.847 1340 109.578 120.96 468.107
1818 0 76.2522 13.7439 1048 115.308 121.278 472.546
1819 0 80.2969 16.5635 1330 111.582 120.377 466.176
1820 0 84.288 15.3165 1291 113.655 120.185 458.115
1821 0 85.1703 13.9603 1189 115.215 119.754 463.098
1822 0 88.2041 15.0673 1329 113.203 119.578 461.741
1823 1 45.1439 10.8985 492 113.488 117.705 484.506
1824 0 48.0987 14.7405 709 107.654 117.197 484.843
1825 0 51.215 12.3987 635 117.214 117.956 477.912
1826 0 50.0564 14.184 710 112.525 118.938 482.686
1827 0 53.2498 11.5681 616 119.487 118.459 476.281
1828 0 56.3032 14.2621 803 113.889 118.552 475.176
1829 0 58.3091 16.6012 968 111.114 119.307 473.683
1830 0 56.1769 13.5287 760 119.034 118.751 471.625
1831 0 59.1561 13.1516 778 118.293 118.077 475.447
1832 0 62.4317 12.0612 753 120.101 119.271 472.426
1833 0 64.2042 14.158 909 116.828 119.184 469.082
1834 0 67.1983 15.8337 1064 113.442 119.577 466.616
1835 0 67.3243 13.6503 919 118.607 120.174 462.258
1836 0 71.4844 14.8984 1065 114.604 119.576 463.224
1837 0 73.3098 15.7551 1155 112.292 121.719 463.915
1838 0 74.3826 15.2858 1137 114.811 121.753 459.114
1839 1 40.1839 10.9497 440 115.805 123.277 475.439
1840 0 45.6039 12.2577 559 114.047 122.857 471.894
1841 0 45.1585 13.6409 616 112.817 123.245 471.992
1842 0 50.25 13.6916 688 108.596 123.312 470.814
1843 0 48.28 14.2502 688 113.246 124.452 464.39
1844 0 47.3596 13.218 626 117.669 124.446 462.743
1845 0 50.3455 12.8313 646 115.875 124.995 472.305
1846 0 52.128 12.7763 666 117.841 124.929 465.291
1847 0 54.2578 14.6523 795 114.604 126.24 466.586
1848 0 55.0996 12.8676 709 117.209 125.725 473.963
1849 0 59.2275 16.884 1000 108.793 125.806 475.24
1850 0 59.4762 12.6773 754 115.568 125.447 474.52
1851 0 60.2306 14.0626 847 114.375 125.597 475.463
1852 0 63.3161 17.9417 1136 108.335 125.236 473.036
1853 0 65.1289 17.5345 1142 109.197 123.657 473.513
1854 0 67.1541 15.5314 1043 112.681 123.242 465.85
1855 0 69.2565 14.8145 1026 114.052 123.374 464.394
1856 0 71.216 14.126 1006 114.92 122.832 466.296
1857 0 77.7734 17.4096 1354 107.591 122.491 468.425
1858 0 80.4448 19.0566 1533 106.823 122.078 461.202
1859 0 83.5177 14.5957 1219 112.507 121.094 468.162
1860 1 43.2954 9.56222 414 113.377 121.046 474.027
1861 0 45.1817 15.5815 704 104.567 120.067 471.02
1862 0 46.385 12.9999 603 108.914 119.837 479.614
1863 0 50.2192 15.1137 759 104.256 117.628 481.188
1864 0 49.2727 12.8672 634 111.331 117.956 476.656
1865 0 50.2847 14.6566 737 108.597 118.117 475.782
1866 0 52.5198 13.9947 735 110.052 118.324 474.279
1867 0 56.4415 16.2469 917 104.718 118.068 479.059
1868 0 56.2386 14.314 805 111.395 117.783 481.59
1869 0 56.2276 12.9296 727 115.175 117.809 478.615
1870 0 57.2396 16.8939 967 109.284 117.938 475.525
1871 0 58.2352 13.0162 758 115.325 118.049 474.177
1872 0 59.2866 13.7974 818 114.612 117.582 472.43
1873 0 61.1988 13.8565 848 112.992 118.545 473.993
1874 0 63.1924 13.72 867 115.362 118.281 468.738
1875 0 59.3698 11.9253 708 117.346 118.103 471.136
1876 0 72.894 17.2442 1257 105.987 119.64 470.216
1877 0 69.2314 15.1954 1052 110.783 120.464 467.202
1878 0 70.2308 13.6692 960 113.193 120.331 452.867
1879 0 73.2259 15.4863 1134 111.164 120.707 455.595
1880 0 78.3747 13.8055 1082 112.142 120.926 461.933
1881 0 80.2199 15.3079 1228 109.804 122.349 459.155
1882 0 82.4362 15.1147 1246 109.522 121.863 452.032
1883 0 85.4645 13.5729 1160 112.259 122.566 443.327
1884 0 87.4622 13.1714 1152 111.497 123.338 448.67
1885 0 86.371 10.7907 932 118.715 123.694 447.23
1886 1 52.1445 11.2764 588 110.012 123.709 469.243
1887 0 52.338 12.1709 637 109.421 123.821 468.991
1888 0 54.2712 14.0959 765 107.213 124.575 472.184
1889 0 55.1414 12.5677 693 111.73 124.978 470.838
1890 0 58.3815 13.8229 807 109.539 125.264 472.502
1891 0 60.3574 13.0224 786 110.595 125.005 469.323
1892 0 63.2786 13.8119 874 109.629 125.879 470.025
1893 0 64.391 14.6449 943 109.04 125.579 469.806
1894 0 66.1566 18.1539 1201 104.874 125.847 465.898
1895 0 68.1994 13.4605 918 112.946 125.024 469.343
1896 0 69.5802 12.2161 850 114.839 124.354 469.153
1897 0 73.1648 11.6449 852 115.501 124.235 473.628
1898 0 77.3439 14.5196 1123 111.085 124.476 468.669
1899 0 79.2241 11.6505 923 115.068 124.237 468.01
1900 1 42.0672 10.4357 439 109.073 123.636 491.271
1901 0 44.0319 9.22058 406 110.167 123.522 492.034
1902 0 40.0251 8.51966 341 115.481 120.903 491.88
1903 0 43.0962 13.4815 581 110.976 121.83 488.8
1904 0 46.1242 12.5747 580 111.341 121.109 487.253
1905 0 48.1591 15.2204 733 105.937 119.877 485.381
1906 0 48.2538 13.3046 642 110.291 118.858 486.257
1907 0 49.2019 13.1905 649 110.994 117.82 482.943
1908 0 53.0751 14.7904 785 106.968 117.011 484.306
1909 0 53.1283 11.4816 610 112.951 117.716 483.341
1910 0 54.0666 15.074 815 109.076 116.02 478.247
1911 0 55.1812 12.5224 691 113.609 117.206 476.842
1912 0 58.3076 15.7784 920 107.893 116.895 479.217
1913 0 59.2885 13.156 780 112.754 116.906 476.974
1914 0 60.1691 12.4316 748 114.465 116.897 476.497
1915 0 60.0741 16.6794 1002 108.056 117.597 475.859
1916 0 62.0858 14.4639 898 113.248 117.356 470.679
1917 0 64.2709 15.3258 985 112.054 117.625 470.159
1918 0 66.3081 15.4431 1024 111.564 117.315 468.376
1919 0 67.2538 12.2521 824 117.711 118.726 467.989
1920 0 71.1781 16.3252 1162 110.814 119.636 466.559
1921 0 73.2784 13.8786 1017 116.056 119.749 461.468
1922 0 75.2463 13.9409 1049 115.613 120.215 462.111
1923 0 79.305 17.5525 1392 109.18 121.728 458.063
1924 0 79.099 13.8434 1095 116.268 120.773 456.007
1925 0 83.11 11.7916 980 118.53 122 456.568
1926 1 46.0589 13.3959 617 110.974 122.019 476.245
1927 0 45.0425 8.92491 402 116.391 122.6 470.968
1928 0 46.061 11.3328 522 115.753 122.385 470.939
1929 0 49.0709 12.268 602 116.344 123.434 473.948
1930 0 53.0261 13.0879 694 112.994 123.728 476.418
1931 0 54.1624 17.0229 922 108.272 124.264 470.536
1932 0 55.1205 12.0645 665 116.365 124.149 474.202
1933 0 57.1202 11.6771 667 117.627 124.454 473.64
1934 0 58.1233 13.6262 792 113.513 124.568 475.753
1935 0 59.295 12.8004 759 116.986 124.332 472.982
1936 0 64.1837 13.8664 890 114.765 124.706 473.147
1937 0 66.2038 13.6246 902 114.947 123.813 475.095
1938 0 67.2013 12.723 855 117.374 124.209 473.656
1939 0 68.1146 11.5687 788 120.36 123.322 472.183
1940 0 74.1388 13.8929 1030 115.251 126.289 467.418
1941 0 73.0635 12.6876 927 119.154 125.946 470.04
1942 0 79.1387 15.7319 1245 113.114 125.269 469.747
1943 0 84.4837 13.7068 1158 115.406 123.995 471.53
1944 0 83.1767 17.5891 1463 110.286 122.471 469.126
1945 0 86.321 15.4771 1336 113.919 122.859 464.874
1946 0 89.3236 14.2292 1271 116.116 121.729 461.832
1947 0 95.1462 19.223 1829 107.145 120.505 465.602
1948 1 50.0331 13.3911 670 111.482 118.71 485.263
1949 0 54.2798 10.7775 585 115.932 119.207 482.915
1950 0 53.0601 10.4787 556 114.223 118.583 485.766
1951 0 54.1615 11.3734 616 112.229 118.136 481.708
1952 0 57.1878 14.2513 815 105.971 117.728 484.442
1953 0 58.0392 11.8885 690 112.364 118.591 479.788
1954 0 62.1051 15.9246 989 105.311 118.914 477.6
1955 0 67.0915 11.5514 775 109.68 118.19 478.396
1956 0 65.1286 13.4196 874 107.109 118.659 475.465
1957 0 68.1463 14.9091 1016 103.373 118.481 477.877
1958 0 68.1541 12.9119 880 107.93 118.009 471.581
1959 0 72.2313 16.641 1202 101.453 118.328 470.098
1960 0 71.1221 13.4838 959 106.968 118.478 467.896
1961 0 75.2123 18.1486 1365 101.21 118.616 466.576
1962 0 75.2724 16.6861 1256 104.914 118.444 462.398
1963 0 78.2799 13.209 1034 110.057 118.437 459.194
1964 0 82.2475 16.5233 1359 105.866 119.269 454.18
1965 0 88.3637 15.606 1379 106.24 119.082 454.301
1966 0 90.2306 18.3086 1652 103.527 121.206 450.688
1967 1 46.0336 15.6842 722 107.382 122.677 476.134
1968 0 46.0809 12.0223 554 115.195 123.991 472.94
1969 0 49.0444 13.865 680 111.035 123.551 475.782
1970 0 50.2229 12.2852 617 112.417 122.989 472.47
1971 0 51.2881 17.2165 883 105.23 123.921 472.736
1972 0 53.108 14.1033 749 112.586 124.75 474.729
1973 0 53.2344 13.3748 712 115.334 125.954 473.169
1974 0 57.118 15.3192 875 109.903 126.027 476.201
1975 0 56.1761 13.5645 762 114.77 126.194 472.29
1976 0 60.0854 12.6819 762 115.013 127.297 474.963
1977 0 61.2572 17.0266 1043 108.831 127.377 470.842
1978 0 65.1225 18.0736 1177 106.338 127.793 472.72
1979 0 64.2778 14.6551 942 113.366 127.691 472.633
1980 0 68.0768 15.6735 1067 110.949 126.639 472.475
1981 0 70.2316 13.5836 954 115.557 125.856 472.192
1982 1 143.325 14.6241 2096 121.024 124.46 438.363
1983 1 73.2117 14.1917 1039 115.896 124.23 476.868
1984 0 74.2182 14.9828 1112 116.417 123.239 474.308
1985 0 76.1057 13.5864 1034 117.906 123.561 473.256
1986 1 39.1005 10.4858 410 123.315 122.456 491.656
1987 0 43.0866 10.1424 437 123.034 121.691 491.304
1988 0 44.1194 12.4888 551 122.731 119.267 487.851
1989 0 45.0784 13.2436 597 119.079 121.013 488.489
1990 0 45.0717 10.8938 491 122.035 119.09 485.819
1991 0 48.1365 12.6931 611 119.786 118.568 485.897
1992 0 50.2037 14.3615 721 116.383 119.478 483.614
1993 0 50.3075 12.682 638 121.108 118.961 483.436
1994 0 53.1653 13.3546 710 118.965 118.304 484.011
1995 0 54.1553 15.5479 842 117.257 119.023 481.045
1996 0 53.1484 13.5093 718 121.681 116.957 480.997
1997 0 55.0319 12.9925 715 122.65 118.236 481.345
1998 0 54.0601 11.1173 601 127.05 118.027 479.121
1999 0 59.1581 13.5569 802 119.234 119.264 481.283
2000 0 62.21 15.8013 983 118.168 118.831 471.908
2001 0 63.0556 13.7815 869 120.535 119.427 474.193
2002 0 64.0513 13.2394 848 122.435 118.881 472.086
2003 0 68.1832 14.6517 999 121.495 119.832 465.898
2004 0 71.2631 14.7762 1053 121.542 119.856 461.126
2005 0 72.227 15.3267 1107 121.688 120.789 462.222
2006 0 76.1218 15.4358 1175 119.951 121.586 464.676
2007 0 77.1413 16.2818 1256 119.085 121.635 463.323
2008 0 84.4179 18.4913 1561 113.871 122.071 458.409
2009 0 89.566 18.9693 1699 113.25 121.705 453.293
2010 1 65.4957 13.1459 861 123.257 123.052 468.344
2011 1 48.1009 13.2638 638 130.953 122.922 454.472
2012 0 48.0781 14.8508 714 127.692 123.31 444.346
2013 0 49.0474 13.4564 660 128.571 124.403 434.223
2014 0 52.1517 13.9593 728 125.518 123.266 436.165
2015 0 50.1387 11.189 561 134.506 124.588 434.513
2016 0 53.1358 14.3218 761 127.965 124.846 432.526
2017 0 55.2202 14.6323 808 125.881 125.099 435.512
2018 0 57.0577 13.4601 768 128.568 125.323 435.366
2019 0 57.1128 14.0774 804 127.959 125.443 435.955
2020 0 62.1541 15.4133 958 124.939 126.235 436.782
2021 0 65.2767 16.2386 1060 123.606 124.527 437.742
2022 0 68.0671 16.3662 1114 122.265 125.296 439.559
2023 0 69.0591 14.9292 1031 125.867 125.409 439.676
2024 0 69.1056 12.9223 893 131.653 125.214 442.88
2025 0 73.0727 16.3262 1193 124.354 124.212 443.01
2026 0 75.2051 16.6079 1249 123.887 124.04 442.93
2027 0 79.3294 19.0724 1513 121.11 124.596 436.449
2028 0 82.2337 16.2829 1339 125.969 124.241 436.856
2029 0 83.3054 15.4012 1283 128.101 123.818 437.623
2030 0 87.3282 17.0735 1491 124.647 123.837 432.869
2031 0 87.1996 16.2386 1416 127.038 122.719 427.496
2032 0 93.2864 16.6584 1554 125.856 121.891 424.066
2033 0 96.2118 17.8253 1715 124.324 121.493 422.788
2034 1 50.1279 12.4681 625 126.427 120.44 447.789
2035 0 52.1596 12.8644 671 122.218 120.228 449.641
2036 0 54.1469 14.1467 766 124.688 119.796 444.783
2037 0 56.2148 14.5513 818 124.295 119.071 442.256
2038 0 58.0684 13.9663 811 124.619 118.961 443.832
2039 0 60.3684 14.1962 857 123.272 118.792 446.634
2040 0 64.2482 18.4752 1187 114.826 119.167 442.73
2041 0 64.161 16.0534 1030 119.448 117.806 439.139
2042 0 66.271 17.1116 1134 117.086 118.938 441.364
2043 0 69.156 14.7637 1021 120.247 118.771 439.815
2044 0 69.2842 13.6828 948 123.65 118.331 437.247
2045 0 73.3722 15.6735 1150 118.63 118.863 436.736
2046 0 74.1905 15.1367 1123 119.985 119.584 436.402
2047 0 78.2782 14.4357 1130 119.704 119.763 437.01
2048 0 80.217 16.019 1285 118.29 120.581 435.03
2049 0 83.3068 16.9254 1410 114.726 120.396 437.843
2050 0 88.4764 15.7217 1391 116.936 120.933 434.252
2051 0 92.7612 13.8096 1281 119.025 121.397 434.623
2052 1 44.0988 10.4992 463 120.222 123.173 455.905
2053 0 49.2974 11.8465 584 117.361 123.079 455.783
2054 0 49.1596 13.6494 671 115.238 124.276 453.303
2055 0 48.3716 12.7968 619 120.11 123.12 463.228
2056 0 53.3444 14.1346 754 116.099 124.22 473.094
2057 0 55.155 13.036 719 120.028 124.764 472.142
2058 0 55.145 12.6575 698 122.702 125.03 467.504
2059 0 57.2258 14.5738 834 114.351 126.795 471.528
2060 0 59.3965 14.8494 882 114.409 126.43 469.908
2061 0 58.1555 11.5552 672 120.53 125.975 467.911
2062 0 63.397 12.54 795 116.126 126.258 470.455
2063 0 67.2977 13.8341 931 113.17 126.518 472.107
2064 0 68.3735 11.7297 802 117.501 125.234 466.946
2065 0 70.4576 13.682 964 114.588 126.649 466.222
2066 0 74.203 13.9213 1033 117.401 124.885 462.864
2067 0 78.5982 14.5678 1145 115.222 125.309 463.303
2068 0 80.2992 13.3501 1072 116.998 124.666 462.981
2069 0 84.4759 15.4837 1308 112.862 125.198 463.934
2070 0 88.4559 13.7809 1219 113.767 124.166 463.149
2071 1 45.3292 13.8321 627 108.394 122.841 484.648
2072 0 44.1654 9.26064 409 118.55 122.455 486.716
2073 0 49.1902 15.8975 782 103.647 121.57 489.499
2074 0 47.442 14.0803 668 109.469 120.654 484.56
2075 0 51.3479 13.3404 685 110.793 119.508 480.953
2076 0 52.4084 9.88391 518 116.226 118.969 481.718
2077 0 54.496 15.1754 827 108.103 118.842 482.557
2078 0 55.0786 14.3431 790 111.444 118.842 476.623
2079 0 55.6155 13.899 773 111.613 118.462 477.391
2080 0 59.4383 13.1397 781 112.248 118.024 473.443
2081 0 58.328 14.1613 826 111.939 118.372 473.617
2082 0 63.8708 13.9187 889 112.552 118.232 470.255
2083 0 65.4465 15.3866 1007 110.694 118.187 466.01
2084 0 66.4042 15.7219 1044 109.866 118.33 467.434
2085 0 69.3688 14.7473 1023 110.339 118.572 468.131
2086 0 70.5662 16.977 1198 107.052 118.417 465.361
2087 0 72.7616 13.0838 952 113.283 118.838 462.551
2088 0 75.619 12.8671 973 113.879 118.374 460.349
2089 1 37.2214 13.8093 514 106.696 119.319 478.802
2090 0 42.2947 13.0986 554 109.177 119.838 474.347
2091 0 41.3456 12.2141 505 111.145 120.01 476.36
2092 0 44.2452 14.7587 653 109.031 121.51 474.413
2093 0 44.1705 15.3949 680 112.079 121.501 471.638
2094 0 47.2727 14.6808 694 113.318 122.585 469.775
2095 0 49.8193 14.6128 728 112.828 122.791 472.128
2096 0 49.1793 12.4036 610 119.27 124.093 470.131
2097 0 49.2608 15.7732 777 114.937 124.315 469.174
2098 0 48.4929 13.6102 660 119.897 124.353 469.109
2099 0 51.4114 13.499 694 119.777 124.499 471.171
2100 0 51.0887 14.3476 733 119.873 125.787 471.536
2101 0 55.3468 12.7198 704 121.284 125.311 469.585
2102 0 58.3699 14.7679 862 117.501 127.282 470.64
2103 0 60.3492 17.9621 1084 111.577 127.234 473.027
2104 0 62.3559 13.9842 872 120.328 126.028 468.506
2105 0 62.3429 15.1902 947 119.413 126.579 469.693
2106 0 64.3709 14.3077 921 123.286 126.982 469.696
2107 0 68.4548 15.7914 1081 119.594 127.088 470.76
2108 0 70.2113 15.1685 1065 119.141 127.096 474.436
2109 0 72.404 16.7946 1216 118.998 125.882 468.153
2110 0 76.2551 15.1465 1155 121.233 125.81 470.015
2111 0 78.2749 14.2447 1115 122.784 124.917 469.545
2112 0 80.4463 15.501 1247 121.596 124.914 465.476
2113 0 81.26 13.7091 1114 124.993 124.127 466.908
2114 0 85.2364 16.4132 1399 120.528 123.428 464.317
2115 0 92.2776 15.8543 1463 118.999 122.245 466.008
2116 0 93.3997 17.3234 1618 116.163 122.005 468.439
2117 1 48.2 12.6141 608 125.577 121.942 484.051
2118 0 51.0822 12.2743 627 125.691 120.585 483.649
2119 0 53.1555 14.0343 746 121.7 120.582 481.598
2120 0 56.0662 14.8574 833 120.091 120.376 479.836
2121 0 56.1461 14.1773 796 122.504 119.626 477.496
2122 0 58.0257 14.3385 832 121.925 118.744 476.655
2123 0 60.1599 13.8464 833 122.197 118.685 474.809
2124 0 57.0777 12.5443 716 126.638 119.161 472.444
2125 0 64.1626 15.149 972 119.989 118.975 470.335
2126 0 67.1793 16.389 1101 116 118.822 470.015
2127 0 67.0416 15.5128 1040 119.089 119.726 470.614
2128 0 69.1407 16.6617 1152 117.882 119.231 465.76
2129 0 71.3155 14.541 1037 122.233 119.987 463.705
2130 0 72.2355 15.0203 1085 121.016 118.465 461.926
2131 0 75.2084 13.6687 1028 122.086 118.839 462.508
2132 0 76.4892 15.8192 1210 120.132 120.065 457.019
2133 0 79.0666 13.3811 1058 122.862 120.701 460.294
2134 0 83.2443 14.7878 1231 120.867 120.62 456.208
2135 0 83.2068 16.0444 1335 119.631 121.19 452.253
2136 0 85.2795 16.6511 1420 118.689 121.569 449.269
2137 0 88.2868 20.9091 1846 110.316 122.21 454.789
2138 0 92.1344 15.2929 1409 120.537 122.748 448.061
2139 0 92.3396 16.3635 1511 118.58 123.172 450.281
2140 0 97.2155 16.4583 1600 118.862 123.426 441.803
2141 0 98.332 18.3562 1805 115.422 124.642 445.964
2142 0 105.136 16.8354 1770 117.019 124.741 444.411
2143 1 58.1704 13.1854 767 116.549 123.786 465.108
2144 0 57.3307 15.7333 902 114.994 124.541 461.317
2145 0 58.2905 13.1582 767 120.123 123.434 459.296
2146 0 63.1017 13.4862 851 118.78 125.561 461.729
2147 0 64.1172 12.945 830 120.059 124.435 462.536
2148 0 68.186 14.4311 984 117.589 124.816 460.662
2149 0 71.0844 13.6317 969 118.142 124.797 461.56
2150 0 74.2928 18.104 1345 109.1 124.132 465.981
2151 0 76.2206 14.1956 1082 118.091 124.669 458.849
2152 0 77.2399 14.811 1144 118.655 123.75 457.691
2153 0 83.1866 14.75 1227 117.085 123.925 461.346
2154 0 85.2994 11.8641 1012 122.642 123.877 460.493
2155 1 43.1296 7.79048 336 114.768 122.298 484.414
2156 0 47.2312 12.5129 591 106.428 121.579 485.526
2157 0 50.2094 11.1732 561 111.014 120.547 484.752
2158 0 51.1838 8.75278 448 113.248 120.667 483.821
2159 0 56.2181 12.6827 713 105.903 119.982 486.031
2160 0 55.1173 12.4643 687 107.475 120.523 484.802
2161 0 55.2539 13.1755 728 108.328 119.214 479.301
2162 0 59.2945 13.3739 793 104.642 118.921 484.127
2163 0 59.342 12.3858 735 109.233 119.267 479.004
2164 0 62.3822 13.3371 832 105.874 118.591 480.145
2165 0 67.4843 13.4846 910 106.933 119.095 472.62
2166 0 64.353 12.2605 789 111.381 118.914 472.044
2167 0 66.5407 11.3915 758 112.982 119.392 469.832
2168 0 66.4358 12.8094 851 112.019 118.233 468.948
2169 0 69.4948 11.4253 794 113.547 118.914 468.406
2170 0 71.2747 10.2421 730 113.545 118.116 464.367
2171 0 75.2572 12.8227 965 109.147 118.049 464.911
2172 0 76.38 13.2757 1014 108.511 117.883 461.374
2173 0 78.1532 10.5818 827 111.198 117.38 459.329
2174 0 83.3933 9.95284 830 109.788 118.845 461.435
2175 1 47.0525 10.5202 495 103.56 119.287 477.158
2176 0 46.0538 11.7037 539 102.304 120.265 478.2
2177 0 44.1351 6.97857 308 110.279 120.386 474.773
2178 0 47.1105 9.55201 450 107.042 120.54 472.542
2179 0 49.1014 12.0363 591 110.641 122.401 472.272
2180 0 51.3226 9.48899 487 115.076 122.604 471.402
2181 0 52.2042 10.5547 551 114.41 122.584 468.849
2182 0 52.104 12.7438 664 110.539 123.598 470.342
2183 0 54.1641 8.91734 483 117.491 124.083 469.694
2184 0 57.0906 9.05578 517 117.188 124.662 466.781
2185 0 55.1596 13.887 766 110.413 124.961 469.858
2186 0 59.2671 11.6591 691 113.719 126.137 469.113
2187 0 66.1734 12.6788 839 112.16 125.634 465.26
2188 0 65.4936 10.5812 693 114.711 126.423 470.069
2189 0 67.2061 10.3116 693 115.83 127.016 469.563
2190 0 67.1128 10.5494 708 114.583 126.186 471.585
2191 0 70.1358 12.9321 907 110.588 127.033 469.096
2192 0 69.2249 9.63526 667 114.964 126.132 470.613
2193 0 72.2264 9.69175 700 113.189 125.553 475.676
2194 0 76.3983 9.75153 745 114.745 126.401 473.626
2195 1 39.0688 8.80498 344 110.012 124.331 492.055
2196 0 38.111 6.92713 264 113.799 123.678 493.375
2197 0 41.0776 12.026 494 107.727 122.729 489.638
2198 0 42.0561 11.6273 489 106.601 123.793 492.675
2199 0 43.1229 10.6904 461 108.618 122.475 492.416
2200 0 41.0337 8.38335 344 114.369 121.86 492.549
2201 0 39.0711 10.8264 423 112.272 119.806 492.262
2202 0 41.0719 10.2503 421 114.188 120.409 489.955
2203 0 45.0344 11.0804 499 110.848 120.291 489.693
2204 0 45.0482 9.38994 423 113.861 120.113 488.726
2205 0 43.1252 9.29851 401 113.88 119.411 486.15
2206 0 53.1092 8.45428 449 114.096 120.811 486.563
2207 0 53.0329 9.97493 529 110.18 119.49 487.76
2208 0 54.0385 11.5288 623 110.862 120.114 482.607
2209 0 57.1647 10.7934 617 110.966 119.212 481.705
2210 0 55.0682 11.3677 626 112.61 118.885 475.535
2211 0 59.1147 12.9409 765 107.081 119.026 479.532
2212 0 58.1372 11.4729 667 111.498 119.429 476.622
2213 0 60.1431 12.7529 767 109.375 119.996 472.223
2214 0 62.0618 14.2761 886 105.993 118.72 473.113
2215 0 63.1729 10.5583 667 113.049 120.618 472.619
2216 0 65.2719 11.0461 721 110.313 118.85 470.807
2217 0 67.242 11.2281 755 110.676 120.446 469.568
2218 0 67.2054 17.1117 1150 103.439 120.168 467.033
2219 0 70.245 13.5953 955 108.128 121.709 464.249
2220 0 71.0968 10.5912 753 112.59 121.754 465.521
2221 0 71.0987 10.2252 727 114.6 122.462 462.433
2222 0 79.1209 13.2708 1050 107.436 123.175 460.821
2223 0 79.0637 12.7492 1008 109.85 123.477 457.819
2224 1 42.1074 8.73956 368 114.984 124.236 475.685
2225 0 45.1785 15.0514 680 104.481 123.213 474.272
2226 0 43.0541 12.5424 540 105.443 124.759 475.159
2227 0 47.3113 12.217 578 104.924 123.484 474.324
2228 0 49.2261 14.8702 732 99.7486 123.406 473.913
2229 0 48.3489 10.7138 518 106.141 123.031 477.137
2230 0 52.1101 15.4289 804 99.7798 125.124 473.234
2231 0 50.2435 12.6583 636 105.097 125.013 473.8
2232 0 51.1899 12.8736 659 104.994 124.687 477.25
2233 0 55.2438 16.1466 892 100.213 125.483 474.975
2234 0 57.2307 12.6505 724 106.22 125.791 475.224
2235 0 59.3391 13.9874 830 104.233 124.825 476.108
2236 0 62.1763 13.8477 861 104.782 124.715 476.114
2237 0 63.3572 13.1477 833 106.252 122.959 477.264
2238 0 63.3361 15.5835 987 105.876 124.015 478.582
2239 0 67.1902 17.7853 1195 102.066 123.623 480.8
2240 0 70.2974 12.9308 909 109.476 123.399 479.244
2241 0 71.4201 12.9515 925 110.906 121.856 476.651
2242 0 74.169 14.2243 1055 108.497 122.412 475.723
2243 0 73.1915 15.4799 1133 105.966 120.733 473.707
2244 0 82.3382 20.6101 1697 96.5256 120.791 462.29
2245 0 81.4056 14.4216 1174 106.431 119.987 472.1
2246 0 81.3028 13.9602 1135 109.782 119.694 466.39
2247 0 85.3328 15.6095 1332 106.863 118.495 467.038
2248 1 44.0192 12.6536 557 110.278 117.395 488.774
2249 0 47.1488 12.556 592 110.848 117.157 485.492
2250 0 46.2493 11.8056 546 115.297 116.934 482.971
2251 0 46.0926 8.35275 385 120.377 116.813 482.678
2252 0 50.3457 13.0696 658 110.122 118.526 480.822
2253 0 50.266 10.6036 533 117.255 118.492 477.904
2254 0 49.2311 12.4515 613 114.742 118.33 477.708
2255 0 51.2334 12.7456 653 141.943 118.265 476.974
2256 0 57.2427 13.8533 793 110.559 118.242 474.653
2257 0 57.3057 16.0368 919 108.479 116.66 472.675
2258 0 57.1837 14.8119 847 111.42 116.068 470.087
2259 0 61.3161 15.5913 956 109.413 116.516 467.95
2260 0 61.1893 13.6789 837 113.843 117.674 468.939
2261 0 63.1733 14.0091 885 114.482 117.888 464.054
2262 0 61.0626 12.0041 733 119.853 118.775 464.829
2263 0 67.1378 14.7458 990 114.376 118.761 463.226
2264 0 69.2818 14.8091 1026 113.415 118.909 462.319
2265 0 69.0957 12.1426 839 118.309 120.466 459.093
2266 0 74.0944 18.0985 1341 106.454 120.58 464.379
2267 0 75.2298 15.3131 1152 112.379 121.898 459.722
2268 0 76.0717 13.4215 1021 117.187 121.7 456.222
2269 0 80.2031 13.7526 1103 115.714 122.051 456.36
2270 0 82.1845 12.0947 994 118.243 121.936 456.78
2271 0 84.1384 13.0975 1102 116.853 122.721 456.113
2272 0 86.2281 14.3457 1237 112.255 124.756 455.224
2273 0 92.1723 14.7116 1356 111.75 125.541 451.572
2274 0 94.217 13.6493 1286 113.205 126.619 454.178
2275 1 54.1496 10.7295 581 112.503 126.874 478.988
2276 0 57.1785 15.7052 898 103.726 126.676 478.647
2277 0 54.0489 11.3601 614 110.378 126.606 478.381
2278 0 59.1432 12.0386 712 109.022 126 478.736
2279 0 62.0388 14.7005 912 104.713 126.792 476.977
2280 0 66.0997 14.6748 970 103.2 125.76 479.668
2281 0 65.1617 12.0316 784 108.466 125.774 477.515
2282 0 67.1768 11.6707 784 109.635 123.994 474.364
2283 0 70.3202 13.3816 941 106.477 123.972 477.285
2284 0 74.2869 15.4536 1148 103.447 123.513 475.38
2285 0 78.2401 17.4974 1369 100.892 122.047 473.226
2286 0 78.4072 12.0525 945 109.268 121.968 471.877
2287 0 81.5154 13.5189 1102 106.476 121.109 464.318
2288 0 85.8074 13.6002 1167 106.086 119.053 464.257
2289 1 43.6108 9.58477 418 110.361 119.39 482.488
2290 0 45.4682 10.5788 481 107.917 117.191 481.229
2291 0 49.602 9.99959 496 106.833 118.161 482.058
2292 0 49.2735 13.7599 678 104.791 118.202 477.531
2293 0 53.1351 14.6607 779 102.489 119.715 480.345
2294 0 53.4896 14.171 758 103.726 118.364 479.042
2295 0 53.3342 15.1498 808 104.28 118.844 475.771
2296 0 54.3514 12.732 692 105.668 118.246 479.25
2297 0 58.2102 14.7053 856 101.547 118.447 479.801
2298 0 60.2418 12.0846 728 107.673 118 474.791
2299 0 59.2293 13.8107 818 106.488 118.276 472.727
2300 0 61.353 13.7565 844 106.576 118.563 468.855
2301 0 62.2428 12.8368 799 108.851 119.254 466.777
2302 0 65.3493 12.0583 788 109.344 119.698 469.047
2303 0 64.2606 11.749 755 110.96 120.313 465.433
2304 0 70.2593 15.9267 1119 104.231 119.669 462.761
2305 0 71.2554 12.1815 868 109.249 120.78 464.636
2306 0 74.4301 13.3414 993 108.238 120.814 462.039
2307 0 75.3868 12.7741 963 110.803 121.129 458.246
2308 0 77.3737 14.7595 1142 107.596 121.478 455.894
2309 0 80.355 13.2288 1063 109.054 122.921 458.743
2310 0 84.1317 13.9068 1170 106.851 123.191 461.072
2311 0 86.585 12.7043 1100 109.657 122.891 457.719
2312 1 42.152 11.672 492 108.004 124.53 475.238
2313 0 45.0682 10.9834 495 108.378 124.485 476.461
2314 0 47.1974 10.5514 498 108.424 124.506 473.934
2315 0 49.3063 10.7289 529 109.295 124.563 471.552
2316 0 49.4246 11.1281 550 106.307 123.871 470.709
2317 0 49.3613 9.66344 477 111.008 124.558 474.004
2318 0 54.3666 10.1349 551 109.777 124.457 476.142
2319 0 57.2535 12.925 740 106.42 125.066 473.304
2320 0 58.3516 12.1676 710 107.011 124.618 476.408
2321 0 59.2179 14.0836 834 104.134 124.504 475.496
2322 0 61.392 9.61038 590 110.812 123.829 475.463
2323 0 67.2623 14.2428 958 103.623 123.454 473.477
2324 0 68.2694 12.5532 857 106.044 122.903 475.663
2325 0 69.2416 13.1135 908 106.569 122.714 473.283
2326 0 72.3588 15.9621 1155 102.203 122.934 475.005
2327 0 76.3631 12.2048 932 106.65 121.903 474.379
2328 0 78.1644 11.962 935 107.253 120.112 472.558
2329 0 81.171 14.6235 1187 103.848 120.525 467.117
2330 0 85.3853 16.5602 1414 100.982 119.72 466.248
2331 0 87.275 14.5861 1273 103.709 118.877 465.987
2332 0 89.2664 15.0561 1344 102.377 118.135 468.772
2333 0 98.3201 23.0065 2262 91.9735 118 450.829
2334 0 103.689 23.2619 2412 91.8387 118.202 447.269
2335 0 100.455 13.7076 1377 105.277 116.857 446.269
2336 0 102.474 16.17 1657 102.453 117.593 442.231
2337 0 106.438 14.0739 1498 105.389 118.105 444.754
2338 0 107.227 13.2337 1419 106.537 117.803 446.569
2339 0 115.421 13.6803 1579 105.481 117.241 444.336
2340 1 61.2769 14.2305 872 101.208 119.291 472.611
2341 0 61.2098 13.9193 852 103.86 117.969 467.445
2342 0 68.6888 19.7412 1356 95.2596 118.368 467.409
2343 0 64.3604 14.3566 924 104.62 118.491 461.011
2344 0 66.282 13.0956 868 105.175 118.718 463.487
2345 0 71.3413 14.0311 1001 104.475 119.776 457.607
2346 0 70.1783 13.48 946 106.54 119.768 458.238
2347 0 76.4395 13.1476 1005 105.08 120.616 459.102
2348 0 77.2503 13.631 1053 105.892 119.689 455.418
2349 0 76.3334 12.6288 964 108.588 121.494 453.715
2350 0 81.3404 15.3306 1247 104.473 122.091 450.42
2351 0 87.3475 18.7527 1638 96.862 123.004 459.768
2352 0 89.4254 14.6379 1309 105.566 122.88 447.668
2353 0 90.1847 12.674 1143 107.75 124.654 453.416
2354 0 96.3526 16.367 1577 101.966 124.961 452.393
2355 0 98.2464 12.947 1272 108.009 125.432 446.418
2356 1 54.188 10.7404 582 106.753 126.493 472.244
2357 0 55.2775 11.9036 658 107.43 126.553 468.565
2358 0 58.101 11.4972 668 107.481 126.575 472.169
2359 0 59.1175 15.2747 903 104.416 127.748 471.529
2360 0 60.0592 13.0371 783 109.351 127.084 470.969
2361 0 67.3409 15.6963 1057 103.647 125.918 472.608
2362 0 66.0223 13.965 922 107.07 125.595 471.367
2363 0 68.1013 11.8059 804 111.072 126.09 472.041
2364 0 75.0992 17.2705 1297 102.185 125.596 471.359
2365 0 80.2845 22.2584 1787 95.5255 124.158 471.029
2366 0 79.0758 12.1403 960 111.128 124.766 470.451
2367 0 81.1459 11.9661 971 111.878 124.366 469.63
2368 0 83.1794 13.6813 1138 110.359 122.529 468.008
2369 1 45.0491 9.38975 423 110.905 122.421 492.43
2370 0 46.057 10.3133 475 111.84 121.145 488.947
2371 0 49.127 13.6381 670 104.048 119.842 493.039
2372 0 48.0856 12.1242 583 111.535 119.954 485.736
2373 0 51.1857 13.2068 676 109.432 118.941 483.547
2374 0 53.2946 15.8553 845 105.208 119.28 486.596
2375 0 55.3552 12.0495 667 113.172 117.864 482.229
2376 0 58.294 13.8436 807 109.745 117.709 481.647
2377 0 56.0797 11.876 666 115.622 115.431 480.911
2378 0 62.1205 17.9007 1112 105.284 114.415 477.011
2379 0 62.2374 16.3567 1018 105.381 114.521 479.53
2380 0 65.3149 15.5554 1016 109.481 114.698 472.804
2381 0 68.1963 14.2823 974 111.765 114.374 471.953
2382 0 70.1906 16.3412 1147 105.944 114.024 474.137
2383 0 71.1644 13.7709 980 110.604 115.302 473.024
2384 0 73.2053 16.1737 1184 108.819 115.878 466.731
2385 0 75.2003 15.2127 1144 110.356 115.948 466.331
2386 0 78.1019 13.3928 1046 114.918 116.651 465.689
2387 0 76.335 14.0958 1076 114.836 116.17 461.112
2388 0 80.1083 15.3667 1231 113.178 116.684 459.037
2389 0 84.2325 16.5138 1391 110.707 116.589 461.064
2390 0 86.3146 16.1386 1393 111.72 117.067 455.018
2391 0 90.3662 17.0639 1542 108.669 117.482 458.69
2392 0 92.334 15.6389 1444 112.146 118.961 456.238
2393 0 95.178 15.907 1514 112.034 118.506 451.775
2394 0 99.1068 13.2685 1315 116.973 120.243 449.221
2395 0 103.615 13.222 1370 113.499 120.018 458.292
2396 1 51.157 9.30469 476 119.628 120.468 473.815
2397 0 55.1006 11.6514 642 116.832 121.774 472.461
2398 0 60.0594 15.0684 905 109.125 123.936 476.082
2399 0 61.1055 15.7433 962 110.586 125.141 473.331
2400 0 63.0975 13.2335 835 115.019 124.945 475.869
2401 0 63.1315 11.5473 729 118.143 126.527 473.883
2402 0 68.1122 12.4941 851 116.372 126.237 472.828
2403 0 69.2832 14.3325 993 115.496 126.139 471.906
2404 0 74.172 14.9787 1111 113.674 124.869 474.557
2405 0 76.3094 14.1529 1080 115.536 124.192 471.394
2406 0 83.1943 13.3903 1114 116.839 123.443 469
2407 0 86.62 15.5853 1350 110.764 124.173 474.816
2408 0 86.1269 13.5846 1170 118.805 124.55 464.802
2409 0 90.5266 12.7918 1158 119.221 123.131 468.346
2410 1 47.0732 13.3622 629 116.051 122.281 483.828
2411 0 49.1632 12.0822 594 115.421 121.049 485.8
2412 0 52.2292 12.1962 637 111.452 118.443 488.108
2413 0 52.1851 12.3215 643 111.003 117.695 484.694
2414 0 56.3289 13.1726 742 107.322 117.322 484.255
2415 0 57.269 15.9772 915 104.751 116.802 482.334
2416 0 58.3566 11.2241 655 110.386 117.6 477.936
2417 0 61.3197 13.4704 826 106.464 116.529 477.949
2418 0 63.2334 14.66 927 104.92 115.811 474.711
2419 0 66.3036 12.5634 833 106.399 116.182 467.765
2420 0 68.2975 11.9477 816 105.81 115.463 472.482
2421 0 70.2684 13.4484 945 105.362 116.231 471.953
2422 0 73.4882 13.8662 1019 105.083 115.909 465.796
2423 0 73.2886 12.3075 902 107.78 115.72 470.917
2424 0 77.2911 17.9452 1387 100.798 115.624 465.721
2425 0 78.1824 15.1441 1184 105.704 115.745 462.093
2426 0 84.2735 12.6256 1064 107.837 116.063 452.01
2427 0 84.6179 15.3986 1303 104.078 116.865 457.055
2428 0 85.3107 13.2457 1130 107.365 116.793 456.041
2429 0 87.5108 10.7415 940 111.744 117.428 456.086
2430 0 92.5661 14.9947 1388 105.411 118.056 455.143
2431 0 93.3822 12.4328 1161 111.109 118.811 448.567
2432 1 51.1932 11.0171 564 111.589 119.516 477.736
2433 0 53.3449 13.9095 742 106.849 119.437 475.729
2434 0 55.6646 11.731 653 110.182 120.04 476.26
2435 0 56.3089 14.1896 799 108.327 121.563 470.756
2436 0 58.4114 14.3123 836 108.5 121.203 472.237
2437 0 59.2616 11.9639 709 111.426 121.224 471.966
2438 0 62.3508 17.2411 1075 103.54 122.33 472.502
2439 0 65.2279 17.1399 1118 104.308 123.623 469.918
2440 0 66.2133 14.9366 989 105.938 122.481 471.031
2441 0 68.0982 13.4071 913 107.8 124.505 472.824
2442 0 68.0982 13.3777 911 137.306 125.463 472.776
2443 0 72.0994 14.161 1021 111.873 124.828 470
2444 0 75.3593 13.5086 1018 111.811 122.464 470.381
2445 0 79.5224 18.171 1445 104.46 123.473 471.102
2446 0 81.4046 13.6602 1112 112.162 122.401 466.942
2447 0 83.2725 14.9029 1241 109.805 122.219 467.823
2448 1 46.0868 11.9774 552 112.569 123.429 491.967
2449 0 48.2572 12.1018 584 112.538 123.022 490.444
2450 0 48.1543 18.7107 901 101.766 120.152 487.188
2451 0 51.2453 14.2452 730 107.862 120.814 486.497
2452 0 52.2442 16.7483 875 104.757 118.71 488.666
2453 0 54.1799 15.9469 864 105.934 118.265 486.241
2454 0 55.1372 12.1696 671 111.426 118.119 483.99
2455 0 59.2263 16.9351 1003 102.3 116.679 487.303
2456 0 59.158 15.2811 904 106.616 117.052 482.138
2457 0 63.2683 15.7899 999 104.196 116.086 484.295
2458 0 65.2681 14.0651 918 107.938 116.309 480.481
2459 0 66.2988 14.4497 958 107.881 116.333 478.764
2460 0 66.2044 12.4916 827 110.53 115.768 480.144
2461 0 68.1785 13.5673 925 108.356 115.933 476.838
2462 0 71.1916 13.1055 933 109.599 115.975 474.673
2463 0 74.3021 12.5299 931 109.506 117.817 470.942
2464 0 78.2235 17.3349 1356 102.366 116.437 467.743
2465 0 79.2116 16.4117 1300 104.51 116.932 465.533
2466 0 80.1651 14.4701 1160 108.616 116.49 465.355
2467 0 81.1634 13.5652 1101 108.869 116.529 461.51
2468 0 88.9578 16.446 1463 106.241 117.036 468.01
2469 0 84.1935 12.2337 1030 117.812 117.089 460.927
2470 0 90.183 15.7347 1419 113.128 117.514 456.946
2471 1 49.1491 12.8181 630 118.711 117.143 475.122
2472 0 52.2586 16.1122 842 109.811 117.492 474.692
2473 0 54.2396 13.1269 712 114.664 118.274 475.292
2474 0 53.1663 13.5988 723 117.098 118.747 471.606
2475 0 53.2118 12.7227 677 120.366 119.99 471.137
2476 0 58.1863 14.2989 832 117.132 120.998 471.005
2477 0 57.3801 14.8135 850 116.125 120.687 472.329
2478 0 63.2919 15.3732 973 114.135 122.165 471.534
2479 0 65.255 17.6538 1152 110.443 121.052 468.584
2480 0 67.2301 14.4281 970 116.728 122.695 471.63
2481 0 64.2918 13.6409 877 122.47 122.977 467.921
2482 0 71.2008 17.4155 1240 113.592 123.423 470.607
2483 0 73.2962 14.1071 1034 121.005 122.671 469.427
2484 0 78.4569 16.0088 1256 116.715 123.546 471.859
2485 0 81.524 17.639 1438 114.261 121.873 469.959
2486 0 84.217 16.7425 1410 116.029 122.196 470.91
2487 0 83.1608 15.6083 1298 120.505 122.329 465.117
2488 1 46.2135 10.6462 492 123.667 120.972 489.091
2489 0 52.1397 12.6583 660 119.997 121.629 488.324
2490 0 49.162 15.5812 766 115.843 121.146 490.923
2491 0 53.3964 14.2894 763 117.942 121.296 487.284
2492 0 54.1228 14.1345 765 113.667 120.99 490.739
2493 0 57.4635 15.3837 884 115.031 119.973 488.34
2494 0 56.1261 12.1868 684 121.558 119.531 489.086
2495 0 59.2379 17.4382 1033 113.601 118.509 486.177
2496 0 62.1884 15.5978 970 115.763 118.016 484.435
2497 0 64.2612 14.0209 901 118.077 115.959 483.248
2498 0 63.2492 12.8381 812 123.303 117.304 480.23
2499 0 67.2826 14.1344 951 120.69 116.74 477.176
2500 0 69.1368 12.7718 883 121.578 116.221 477.957
2501 0 73.2017 14.18 1038 120.833 115.707 473.17
2502 0 76.261 14.2668 1088 120.29 116.142 473.255
2503 0 79.2766 18.1643 1440 113.963 116.069 469.411
2504 0 80.1632 13.3852 1073 122.749 115.966 468.858
2505 0 81.2292 13.6035 1105 124.171 115.529 464.663
2506 0 86.2853 14.2782 1232 122.698 115.542 466.164
2507 0 87.2063 14.2536 1243 124.634 116.298 461.366
2508 0 90.2052 15.6199 1409 122.209 115.395 460.775
2509 0 92.1243 14.3827 1325 125.34 116.725 456.039
2510 1 51.0846 13.0959 669 125.486 116.97 476.166
2511 0 50.13 10.8318 543 130.551 117.508 478.274
2512 0 51.1241 14.0834 720 125.861 117.485 474.69
2513 0 54.1296 13.209 715 127.436 118.144 473.55
2514 0 54.2429 12.3887 672 129.738 118.259 471.635
2515 0 56.1308 16.1943 909 122.233 119.161 472.791
2516 0 59.0675 13.6962 809 125.817 119.787 472.535
2517 0 60.1872 16.5484 996 120.415 120.191 471.092
2518 0 62.268 14.4376 899 125.08 120.647 469.958
2519 0 65.336 16.1473 1055 121.872 120.608 468.775
2520 0 64.1818 13.9915 898 126.16 121.285 470.333
2521 0 69.1095 15.1499 1047 124.107 121.309 468.393
2522 0 72.2751 15.69 1134 123.259 122.15 468.272
2523 0 73.5259 17.9529 1320 119.016 121.974 468.453
2524 0 74.1624 14.3469 1064 127.804 122.915 468.076
2525 0 79.2568 15.2668 1210 125.308 121.906 464.9
2526 0 79.2228 15.2481 1208 143.552 120.908 464.932
2527 0 79.2326 15.2589 1209 142.964 119.9 464.906
2528 0 89.3435 14.6737 1311 126.053 122.751 467.097
2529 0 92.4415 16.6051 1535 123.134 121.899 463.281
2530 0 97.5192 16.0071 1561 122.254 120.95 466.675
2531 1 50.3032 12.2259 615 123.093 121.094 487.964
2532 0 54.1337 11.878 643 123.381 119.401 488.191
2533 0 54.1337 11.9519 647 156.79 118.44 488.269
2534 0 55.157 13.0355 719 125.502 119.36 484.377
2535 0 58.1118 14.9711 870 121.199 119.044 482.03
2536 0 60.1275 11.4922 691 125.535 119.113 484.146
2537 0 61.0415 13.0731 798 123.924 117.242 479.304
2538 0 65.2626 14.4646 944 120.819 117.255 476.89
2539 0 69.0489 15.7859 1090 116.671 116.809 480.069
2540 0 70.2223 13.9557 980 116.921 116.644 481.948
2541 0 77.2754 18.4405 1425 107.97 115.731 472.628
2542 0 76.0754 16.2076 1233 112.747 115.819 469.596
2543 0 77.285 16.368 1265 113.439 115.428 471.483
2544 0 81.2299 15.5854 1266 112.559 115.986 474.289
2545 0 81.0905 12.9978 1054 120.407 116.595 467.167
2546 0 86.1276 14.316 1233 116.1 115.461 466.872
2547 0 88.1291 14.0589 1239 116.784 116.584 464.312
2548 0 90.127 15.2563 1375 115.98 116.185 458.34
2549 0 91.1338 14.3525 1308 119.771 116.37 457.379
2550 0 96.1593 13.1449 1264 120.979 117.244 457.468
2551 0 98.2592 13.0675 1284 121.141 117.555 454
2552 0 103.09 13.8132 1424 120.185 118.409 452.057
2553 0 107.256 15.8034 1695 115.303 117.179 448.851
2554 0 107.217 11.1736 1198 123.348 119.781 449.742
2555 1 57.092 11.8931 679 117.127 117.401 471.399
2556 0 59.4188 12.2352 727 115.105 119.717 460.102
2557 0 62.2427 14.0739 876 110.975 120.001 458.163
2558 0 61.1612 9.77743 598 120.483 122.075 457.423
2559 0 68.4539 12.8554 880 114.33 120.8 467.809
2560 0 72.3922 18.0821 1309 105.091 122.076 471.182
2561 0 72.4694 15.5928 1130 111.357 121.7 465.734
2562 0 77.6168 14.198 1102 111.487 122.328 466.545
2563 0 74.1462 11.7875 874 117.011 123.403 466.003
2564 0 81.1005 14.2293 1154 114.552 122.927 464.581
2565 0 85.187 14.0632 1198 115.108 123.043 463.544
2566 0 88.343 13.9456 1232 113.098 121.901 470.937
2567 0 89.1156 17.64 1572 107.375 121.618 470.606
2568 0 96.1384 14.6247 1406 113.605 121.309 464.803
2569 0 99.2649 14.5772 1447 115.028 122.496 462.052
2570 1 60.179 14.3406 863 108.92 122.365 483.742
2571 0 59.0984 12.4538 736 110.72 122.474 485.69
2572 0 65.2501 13.7624 898 108.199 121.885 484.349
2573 0 65.0367 12.1931 793 113.493 122.496 482.366
2574 0 67.2537 13.8877 934 109.81 120.56 479.4
2575 0 71.3663 13.1435 938 110.413 119.688 479.729
2576 0 71.5031 11.5659 827 113.473 118.249 476.692
2577 0 77.3256 17.1871 1329 105.227 118.913 474.823
2578 0 78.5466 14.8702 1168 109.928 117.533 466.265
2579 0 85.7161 15.4113 1321 108.181 117.242 468.357
2580 0 85.4019 12.1426 1037 113.15 117.421 465.077
2581 0 89.2086 15.1555 1352 105.088 117.033 463.482
2582 0 90.1994 14.2795 1288 106.431 116.703 463.247
2583 0 94.6263 14.795 1400 104.783 116.911 461.542
2584 1 52.3847 16.0543 841 92.7658 116.314 489.917
2585 0 53.1932 14.0996 750 98.8107 116.4 481.856
2586 0 55.1533 10.915 602 103.46 116.238 478.661
2587 0 54.2626 10.5045 570 104.549 114.642 474.744
2588 0 59.4432 12.4993 743 101.567 114.793 474.752
2589 0 60.3951 15.3158 925 98.4919 115.094 472.383
2590 0 59.2171 12.4288 736 102.693 115.596 475.482
2591 0 62.4019 11.1535 696 104.405 116.415 476.033
2592 0 65.3834 15.3862 1006 101.007 116.157 469.124
2593 0 69.6406 13.0097 906 101.726 117.226 471.964
2594 0 66.2741 15.2247 1009 102.21 117.321 463.234
2595 0 71.3557 14.6309 1044 102.586 117.112 464.252
2596 0 75.8054 12.4793 946 104.737 118.416 464.018
2597 0 77.3571 13.4829 1043 104.381 119.49 460.312
2598 0 78.3352 14.8592 1164 99.951 119.104 458.268
2599 0 80.6796 16.1255 1301 98.8716 121.156 455.924
2600 0 83.4725 14.6995 1227 100.259 120.954 457.353
2601 0 90.6265 12.1929 1105 103.315 121.251 458.214
2602 1 47.5527 15.0149 714 94.8824 120.943 480.592
2603 0 49.331 13.5209 667 98.6132 122.22 480.774
2604 0 51.2941 15.3234 786 98.201 122.836 478.621
2605 0 55.0898 11.3633 626 101.564 123.377 478.054
2606 0 58.5028 17.5376 1026 92.1218 123.243 476.879
2607 0 53.0867 10.5111 558 106.048 123.229 477.084
2608 0 58.1799 11.1894 651 104.541 122.424 479.475
2609 0 60.1307 15.2002 914 100.028 122.91 476.799
2610 0 64.3163 13.4958 868 102.183 122.861 480.111
2611 0 64.1348 12.8635 825 102.023 121.147 481.389
2612 0 67.3378 12.4299 837 104.897 120.804 480.366
2613 0 71.2999 14.979 1068 103.626 121.584 475.875
2614 0 74.3412 14.6756 1091 103.714 120.242 471.833
2615 0 75.5557 12.7323 962 106.338 119.793 475.702
2616 0 77.4865 14.4154 1117 101.323 118.044 470.149
2617 0 80.4232 12.7202 1023 102.733 117.478 472.667
2618 0 83.4498 17.879 1492 97.5342 116.944 469.243
2619 0 86.6566 14.494 1256 102.208 116.608 467.264
2620 0 91.5779 14.1519 1296 102.289 115.444 463.253
2621 1 46.5799 10.9489 510 105.751 115.671 482.027
2622 0 54.3597 12.9692 705 100.315 114.287 484.386
2623 0 52.2249 13.4036 700 100.981 114.039 482.973
2624 0 55.2823 14.9234 825 98.1782 114.756 483.728
2625 0 57.0916 12.6288 721 101.817 115.727 479.352
2626 0 57.1487 11.6713 667 102.606 115.763 481.026
2627 0 59.0766 12.8308 758 101.637 115.322 478.615
2628 0 61.1337 12.4972 764 101.749 115.755 478.119
2629 0 62.0531 17.2594 1071 95.1597 115.829 477.456
2630 0 65.1552 13.23 862 100.173 116.276 473.652
2631 0 66.1306 20.399 1349 92.275 116.451 469.017
2632 0 66.1676 10.8361 717 104.064 116.551 471.467
2633 0 72.3365 13.3957 969 99.0206 116.759 467.147
2634 0 72.1662 12.6098 910 102.664 117.102 466.951
2635 0 73.3163 13.8441 1015 101.177 117.25 462.943
2636 0 80.1898 19.6409 1575 93.313 117.888 461.619
2637 0 81.154 15.4398 1253 98.6848 119.39 460.443
2638 0 82.2346 13.7169 1128 101.439 120.574 463.777
2639 0 86.1803 11.1394 960 106.131 121.014 454.771
2640 0 90.1253 16.6657 1502 98.1365 120.633 452.256
2641 0 90.2921 13.0909 1182 104.024 120.827 451.104
2642 1 117.721 14.5599 1714 98.4907 123.217 448.274
2643 0 119.8 12.9132 1547 100.449 123.534 446.337
2644 0 123.738 16.3248 2020 97.3604 123.903 454.863
2645 0 130.702 11.706 1530 102.695 122.621 445.044
2646 1 71.7633 13.3494 958 95.2756 122.019 474.247
2647 0 71.4275 14.1962 1014 95.3639 121.218 473.862
2648 0 74.5776 13.2345 987 97.3252 121.605 470.462
2649 0 76.5113 12.8216 981 97.261 121.394 471.952
2650 0 77.3789 9.61503 744 100.547 119.238 473.22
2651 0 80.3912 13.1855 1060 97.3311 120.378 469.351
2652 0 87.3641 16.3797 1431 92.0888 118.411 468.858
2653 0 89.284 21.7732 1944 89.198 117.741 467.375
2654 0 89.2828 11.4132 1019 99.1874 115.273 469.806
2655 0 92.2364 19.6668 1814 90.909 114.524 464.123
2656 0 96.3812 13.1665 1269 97.5918 114.234 459.115
2657 1 52.3242 11.4861 601 92.8103 113.052 486.433
2658 0 56.2211 20.2771 1140 84.9202 112.647 485.542
2659 0 55.2065 11.7378 648 95.3796 111.873 479.182
2660 0 55.07 14.7449 812 91.4372 111.414 482.936
2661 0 59.2487 16.3717 970 91.0309 112.223 474.192
2662 0 60.3324 13.6577 824 93.0231 112.18 475.778
2663 0 64.2723 16.2745 1046 90.2199 111.146 475.895
2664 0 69.1931 12.7614 883 91.2197 111.88 476.094
2665 0 66.0766 17.3435 1146 90.5654 111.792 472.2
2666 0 72.1315 13.7527 992 94.7399 111.88 468.212
2667 0 73.2077 12.6353 925 92.5568 111.441 473.583
2668 0 75.1829 15.0832 1134 93.5829 111.908 462.973
2669 0 76.253 17.9796 1371 91.2334 113.199 467.923
2670 0 75.3423 12.0384 907 98.495 112.698 462.433
2671 0 80.531 16.7513 1349 93.7205 113.583 456.117
2672 0 82.224 14.1808 1166 94.7033 113.838 464.367
2673 0 87.315 22.9399 2003 86.6455 114.661 467.195
2674 0 88.1832 21.8182 1924 87.5156 114.8 466.176
2675 0 90.3308 18.3658 1659 93.6492 115.972 453.121
2676 0 96.3827 12.6371 1218 98.0624 116.071 458.717
2677 0 93.3251 11.0688 1033 103.018 116.123 452.588
2678 0 101.322 17.7455 1798 95.0089 117.378 456.027
2679 0 103.496 12.2903 1272 102.264 119.223 445.239
2680 0 106.654 16.3332 1742 98.3479 119.951 443.865
2681 0 109.36 18.91 2068 94.7713 119.816 450.852
2682 0 113.437 17.4988 1985 96.4912 119.363 445.973
2683 1 62.0991 12.9148 802 97.5686 121.834 474.858
2684 0 58.0771 10.2967 598 101.93 121.241 471.696
2685 0 62.1902 14.4717 900 96.43 121.829 474.91
2686 0 65.1651 12.2458 798 98.0915 121.489 478.252
2687 0 70.301 13.3142 936 97.3739 121.681 474.006
2688 0 69.0676 17.2729 1193 94.2003 121.308 475.816
2689 0 70.1901 18.2504 1281 93.1616 119.333 475.61
2690 0 73.2505 14.2252 1042 97.7342 120.606 471.312
2691 0 73.1519 11.2369 822 99.7141 121.035 476.47
2692 0 78.2314 15.4669 1210 95.3066 119.749 476.299
2693 0 79.3226 14.9012 1182 95.7107 119.581 473.495
2694 0 83.3093 13.1078 1092 97.7766 118.364 469.808
2695 0 85.4039 13.4537 1149 97.7563 117.92 470.438
2696 0 89.2252 12.4068 1107 97.7082 118.172 471.832
2697 0 94.6315 19.2642 1823 91.7713 117.318 471.414
2698 0 94.2931 15.823 1492 96.0241 117.702 465.793
2699 0 97.5328 15.2667 1489 95.1726 117.206 463.322
2700 1 55.2777 12.0844 668 92.6482 114.024 485.455
2701 0 51.2594 12.4855 640 97.9188 113.834 478.419
2702 0 55.3216 9.92378 549 89.031 112.435 482.789
2703 0 57.3443 8.92853 512 88.6426 112.879 483.346
2704 0 61.338 13.7924 846 84.2577 112.196 480.105
2705 0 62.4634 15.305 956 85.0502 112.582 477.88
2706 0 66.2763 19.9317 1321 81.9099 112.241 475.294
2707 0 68.2487 13.905 949 85.5838 112.36 467.609
2708 0 68.1612 21.1704 1443 81.8108 112.06 468.279
2709 0 73.3585 18.1029 1328 81.6408 112.165 477.178
2710 0 73.3411 17.5482 1287 84.2968 112.85 468.957
2711 0 74.3773 16.7524 1246 85.1581 113.442 472.079
2712 0 76.2783 11.7465 896 91.2188 114.109 466.249
2713 0 77.1766 14.1364 1091 88.7791 113.516 461.95
2714 0 77.4529 10.2256 792 93.9179 114.265 461.019
2715 0 84.3809 14.1264 1192 90.078 114.623 462.001
2716 1 161.608 14.2134 2297 91.5694 116.161 437.249
2717 1 90.3638 14.2535 1288 89.9224 115.533 459.564
2718 0 91.2982 12.5194 1143 90.6544 116.363 462.909
2719 0 96.2849 12.92 1244 92.0908 116.527 456.569
2720 0 97.3881 15.4947 1509 90.609 117.696 451.976
2721 0 101.376 16.2859 1651 88.5663 117.534 459.449
2722 0 107.605 23.0659 2482 85.4533 116.59 440.795
2723 0 108.415 24.4154 2647 83.629 117.487 446.209
2724 0 114.663 24.7421 2837 83.1399 118.156 441.631
2725 1 61.0725 12.4279 759 89.3847 119.059 470.462
2726 0 62.2907 17.0491 1062 86.8861 119.165 472.868
2727 0 69.1885 17.7775 1230 87.7968 118.476 468.576
2728 0 68.1192 18.0272 1228 87.1669 118.15 476.496
2729 0 69.462 13.5182 939 90.9755 119.688 472.239
2730 0 73.2005 15.8879 1163 89.4506 120.588 472.696
2731 0 78.6951 14.2957 1125 90.3813 121.508 474.498
2732 0 79.419 14.6313 1162 91.9122 120.04 474.984
2733 0 78.2636 14.7067 1151 92.0226 120.472 472.072
2734 0 82.3773 11.9936 988 94.9727 119.876 470.098
2735 0 89.4097 14.6628 1311 91.6667 119.645 473.451
2736 0 92.4274 13.9244 1287 90.927 119.86 478.447
2737 0 94.3944 18.2744 1725 89.3235 118.794 468.547
2738 0 98.2827 18.4163 1810 88.2453 118.423 473.755
2739 1 56.3665 21.3957 1206 83.4527 117.414 490.488
2740 0 52.104 27.0421 1409 82.939 117.346 486.818
2741 0 59.6009 12.332 735 91.7197 115.678 488.14
2742 0 56.1172 13.4183 753 89.6003 116.092 487.691
2743 0 61.3563 14.0002 859 93.0035 116.956 483.487
2744 0 61.2379 12.2636 751 94.4341 115.076 484.292
2745 0 64.6118 15.3532 992 90.5897 115.142 484.58
2746 0 70.0408 12.3214 863 94.4693 114.95 480.886
2747 0 69.2133 17.4966 1211 90.5607 114.068 476.738
2748 0 74.6685 15.0398 1123 90.9145 112.42 481.868
2749 0 72.304 13.139 950 94.7674 110.754 474.5
2750 0 75.5165 16.6983 1261 91.2427 112.765 474.462
2751 0 78.6044 13.956 1097 95.4913 112.477 468.405
2752 0 82.3216 26.0564 2145 85.4154 113.157 469.539
2753 0 84.2643 15.036 1267 95.0608 113.876 467.095
2754 0 83.3148 17.0318 1419 101.394 113.633 465.235
2755 0 90.2351 21.9981 1985 92.867 114.346 464.097
2756 0 93.3134 23.1156 2157 91.0663 114.753 468.784
2757 0 94.7495 17.446 1653 98.0024 115.352 457.802
2758 0 96.3058 15.0251 1447 101.205 116.083 454.978
2759 0 102.699 25.9593 2666 90.5405 116.676 456.068
2760 0 99.5339 13.1312 1307 102.354 116.929 458.923
2761 0 108.562 17.0686 1853 100.348 118.855 442.251
2762 0 113.615 18.2019 2068 98.6547 119.077 449.176
2763 1 59.0708 12.6458 747 100.866 119.811 474.23
2764 0 63.1296 13.1792 832 101.397 120.204 470.492
2765 0 66.2322 14.6153 968 99.5971 121.241 469.633
2766 0 67.147 13.6864 919 101.711 122.447 472.122
2767 0 68.3078 10.5112 718 104.111 121.383 473.837
2768 0 72.3479 15.6328 1131 98.2352 123.397 472.276
2769 0 74.1136 13.9381 1033 100.747 123.306 472.418
2770 0 78.1314 15.3587 1200 98.8417 122.868 471.079
2771 0 83.641 16.4513 1376 95.5749 122.863 474.116
2772 0 80.1957 12.2076 979 100.248 123.355 472.521
2773 0 85.6165 20.3582 1743 94.1899 122.563 463.98
2774 0 87.4012 16.6931 1459 97.0562 122.312 469.428
2775 1 51.8579 17.2201 893 90.7077 122.741 490.252
2776 0 44.2278 13.2044 584 95.2894 121.272 482.592
2777 0 47.0834 11.7876 555 95.9063 121.559 482.135
2778 0 53.7914 15.9319 857 90.7795 122.061 487.855
2779 0 51.4203 12.0964 622 98.7862 122.195 483.145
2780 0 52.398 12.7104 666 98.2958 120.17 482.131
2781 0 54.3053 16.7939 912 93.4572 120.465 484.222
2782 0 55.7106 13.9112 775 97.8116 120.262 479.603
2783 0 57.3237 14.3222 821 97.0329 119.155 477.933
2784 0 58.2344 14.476 843 96.1115 119.076 480.779
2785 0 61.1721 18.3254 1121 91.3185 118.316 482.353
2786 0 59.4599 10.3263 614 101.814 119.112 478.117
2787 0 65.2002 13.6349 889 98.216 117.314 473.476
2788 0 67.433 17.0688 1151 94.5352 117.719 475.315
2789 0 68.4016 19.4732 1332 93.3694 116.441 472.571
2790 0 70.3872 12.5875 886 101.731 116.194 468.447
2791 0 76.6508 14.3899 1103 98.2638 116.017 468.368
2792 0 73.6799 14.5087 1069 98.9196 114.833 464.941
2793 0 77.3588 17.6968 1369 93.1234 114.586 464.413
2794 0 80.3887 23.2371 1868 89.9925 113.725 459.084
2795 0 87.6774 17.7355 1555 93.6328 114.179 453.505
2796 1 41.0673 7.13464 293 103.775 113.334 472.782
2797 0 47.0473 15.6013 734 94.109 113.248 472.905
2798 0 49.1587 14.0362 690 94.6594 114.49 475.094
2799 0 48.231 12.5645 606 95.8003 115.584 473.35
2800 0 51.1028 12.7977 654 97.9236 115.422 470.02
2801 0 56.4766 15.5286 877 95.0479 116.371 470.591
2802 0 55.166 12.979 716 98.4386 116.571 469.62
2803 0 57.0959 14.7822 844 96.5296 117.57 468.847
2804 0 57.2739 11.2442 644 99.2702 118.186 471.217
2805 0 59.2482 9.08044 538 102.929 119.738 469.323
2806 0 59.2406 11.6474 690 101.854 119.878 466.793
2807 0 67.4757 16.2873 1099 95.4004 120.72 467.468
2808 0 62.4609 14.0248 876 100.667 120.814 465.471
2809 0 67.3235 19.2801 1298 92.9006 121.3 469.6
2810 0 68.3361 15.3067 1046 97.8021 121.883 468.251
2811 0 72.351 13.7939 998 100.409 122.308 462.809
2812 0 74.4147 13.8548 1031 100.234 122.146 465.359
2813 0 76.2767 12.9266 986 102.226 122.819 461.736
2814 0 78.2976 12.8867 1009 98.9941 122.56 470.544
2815 0 79.2764 11.9455 947 103.42 122.455 462.86
2816 0 85.3498 15.0908 1288 99.0613 123.323 466.526
2817 1 45.1985 10.642 481 99.5988 121.576 484.36
2818 0 45.232 10.1698 460 101.522 123.228 485.515
2819 0 50.1894 17.4937 878 92.328 122.146 486.144
2820 0 46.143 11.3777 525 101.223 121.295 480.088
2821 0 50.2097 14.6984 738 98.1653 119.978 483.893
2822 0 58.5887 22.4787 1317 88.1853 122.254 486.282
2823 0 52.0747 14.652 763 98.7523 121.334 485.453
2824 0 57.4384 13.3186 765 99.6 120.252 486.107
2825 0 57.2062 18.7218 1071 94.4426 120.853 487.175
2826 0 60.2697 14.6342 882 98.305 119.668 479.217
2827 0 58.1447 16.2182 943 98.5663 118.691 480.457
2828 0 60.1039 14.5581 875 100.893 117.362 482.192
2829 0 63.1813 14.6879 928 100.39 117.411 480.536
2830 0 63.3848 13.4259 851 101.25 116.53 481.142
2831 0 66.6517 21.0047 1400 93.7286 116.501 471.795
2832 0 72.2221 16.4493 1188 97.2096 116.404 475.316
2833 0 68.2107 18.0617 1232 95.4846 116.498 475.735
2834 0 73.2185 13.6577 1000 96.474 115.402 477.988
2835 0 76.2951 12.0322 918 100.732 115.636 467.975
2836 0 77.4368 15.8839 1230 97.8252 116.034 466.33
2837 1 42.2088 15.8261 668 91.8024 115.228 485.207
2838 0 43.3077 15.8863 688 91.7965 115.879 480.536
2839 0 43.2424 11.609 502 95.7092 116.273 474.978
2840 0 49.2549 14.3539 707 96.3904 116.775 478.852
2841 0 46.1652 9.44434 436 101.75 115.415 479.202
2842 0 49.0729 11.6154 570 99.5877 116.679 478.118
2843 0 53.2659 14.6623 781 97.1575 116.665 477.389
2844 0 56.6985 23.4927 1332 88.5218 116.237 472.941
2845 0 55.2166 17.0601 942 94.8376 117.178 472.902
2846 0 56.1016 14.848 833 96.0888 118.08 473.711
2847 0 54.3056 13.866 753 96.1514 119.631 471.294
2848 0 58.251 19.004 1107 91.1716 119.603 471.533
2849 0 57.2071 12.8481 735 97.1252 120.448 472.626
2850 0 63.077 18.4695 1165 91.1794 121.361 465.035
2851 0 63.5371 12.6068 801 97.3246 121.333 466.446
2852 0 67.3149 14.8556 1000 96.751 122.695 463.235
2853 0 70.4339 15.0638 1061 95.4581 122.9 464.992
2854 0 69.332 16.2119 1124 95.3772 122.531 464.337
2855 0 70.2783 10.1311 712 101.702 122.972 464.558
2856 0 77.6774 16.7488 1301 93.8739 122.776 463.37
2857 0 79.4738 14.7973 1176 96.5553 124.234 459.064
2858 0 81.3925 26.2309 2135 86.6492 123.693 463.768
2859 0 85.7965 18.6255 1598 92.6464 124.64 464.39
2860 0 86.5828 18.156 1572 94.278 123.994 461.515
2861 0 88.0671 12.0363 1060 101.856 123.838 458.575
2862 1 50.5004 10.2771 519 100.287 124.272 480.622
2863 0 51.6098 14.5515 751 97.241 124.266 478.775
2864 0 54.4761 14.2264 775 97.5536 123.955 481.204
2865 0 58.2702 22.001 1282 88.9376 123.837 487.899
2866 0 54.2698 12.5668 682 102.93 123.337 480.009
2867 0 60.0592 18.615 1118 94.5939 123.225 480.682
2868 0 60.2764 11.8786 716 103.203 123.024 483.622
2869 0 64.2303 13.7785 885 99.5458 122.259 485.312
2870 0 68.1493 17.7845 1212 96.217 121.466 479.545
2871 0 69.322 16.5171 1145 97.3703 120.075 478.71
2872 0 70.2797 14.5277 1021 100.26 120.432 477.69
2873 0 73.163 17.9326 1312 94.3255 118.986 479.245
2874 0 76.1258 14.0819 1072 99.431 118.89 473.586
2875 0 82.3656 17.0702 1406 96.2013 118.359 469.548
2876 0 80.271 12.4703 1001 101.689 118.147 470.334
2877 0 83.2408 17.6716 1471 97.5126 118.275 462.271
2878 0 88.5109 24.3699 2157 90.0478 117.362 466.805
2879 0 90.3269 13.8386 1250 101.522 116.945 458.262
2880 1 49.1966 24.8391 1222 86.874 117.602 484.085
2881 0 49.0289 14.2773 700 95.6329 116.297 482.9
2882 0 56.1856 14.7903 831 95.5427 116.844 479.023
2883 0 54.0899 17.0457 922 92.2918 116.031 477.578
2884 0 56.1288 17.6202 989 93.3458 118.169 475.258
2885 0 52.0891 11.7683 613 100.806 118.398 471.385
2886 0 57.1341 13.0745 747 99.1446 118.49 470.189
2887 0 61.1685 16.6589 1019 94.2836 118.29 467.429
2888 0 65.507 19.0514 1248 91.2564 118.954 467.647
2889 0 63.1894 15.0816 953 96.0126 119.274 469.33
2890 0 70.4009 21.335 1502 89.1039 120.575 462.349
2891 0 68.1747 20.2421 1380 91.1681 121.501 462.433
2892 0 72.1689 16.5307 1193 94.4619 122.35 465.93
2893 0 73.1699 12.6692 927 99.0561 123.184 463.704
2894 0 75.144 21.4521 1612 91.6365 122.906 451.682
2895 0 77.2054 16.4496 1270 95.4512 123.643 460.933
2896 0 83.8602 14.8342 1244 96.5096 125.4 460.8
2897 0 83.4097 16.401 1368 97.0205 124.597 457.179
2898 0 85.5617 15.4859 1325 98.0672 124.975 453.834
2899 0 90.1838 17.1871 1550 93.8555 125.204 463.482
2900 0 94.762 24.5246 2324 89.0572 124.391 453.908
2901 0 96.5123 18.5676 1792 93.8332 125.003 458.355
2902 0 101.867 20.5268 2091 91.626 123.488 459.142
2903 0 102.31 16.7139 1710 97.3994 124.819 455.186
2904 0 106.296 17.6112 1872 96.8109 124.577 456.462
2905 0 109.612 21.6764 2376 93.0859 122.87 457.799
2906 0 110.287 18.9233 2087 98.1466 124.4 446.764
2907 0 116.419 20.3145 2365 95.1488 123.876 444.636
2908 0 123.423 18.6513 2302 95.6394 123.359 453.029
2909 0 125.411 23.4428 2940 90.683 123.387 458.076
2910 1 68.2358 12.2077 833 100.108 122.974 470.854
2911 0 73.4867 23.7186 1743 89.3402 122.609 471.285
2912 0 73.979 15.3422 1135 97.4335 122.826 474.405
2913 0 72.4372 17.3254 1255 95.7052 122.191 477.177
2914 0 75.3986 17.8385 1345 96.087 121.013 473.044
2915 0 81.2822 16.4366 1336 96.1886 121.067 476.3
2916 0 78.3253 16.623 1302 99.8618 119.747 464.72
2917 0 84.5389 17.4121 1472 97.875 120.122 465.394
2918 0 85.4656 17.5275 1498 99.1222 118.324 460.075
2919 0 88.2661 17.3226 1529 98.4218 119.003 457.182
2920 0 93.3432 20.6335 1926 95.7394 118.356 449.88
2921 0 91.3074 12.9015 1178 104.649 119.335 454.201
2922 0 97.3994 13.306 1296 103.947 117.909 456.33
2923 0 100.311 16.5386 1659 101.392 118.559 455.593
2924 0 103.322 15.9502 1648 99.3319 119.405 452.632
2925 1 54.0898 14.439 781 94.9654 118.224 475.791
2926 0 55.1966 13.9864 772 100.315 119.561 474.092
2927 0 57.1724 12.9783 742 100.501 118.464 472.593
2928 0 57.2514 15.4407 884 98.5588 118.995 472.411
2929 0 61.2602 15.5729 954 98.718 119.123 469.154
2930 0 59.0771 10.6133 627 104.759 119.051 467.469
2931 0 64.1087 12.3852 794 101.938 119.802 467.46
2932 0 64.1446 13.2201 848 102.956 120.577 462.427
2933 0 71.4296 20.1737 1441 94.5614 119.809 463.743
2934 0 72.4289 17.2307 1248 135.366 118.673 464.909
2935 0 74.6127 17.812 1329 96.7848 120.878 467.525
2936 0 74.1115 13.5067 1001 103.286 120.445 465.357
2937 0 79.3032 22.8868 1815 93.5201 121.663 463.876
2938 0 78.0808 17.1233 1337 100.565 120.728 453.349
2939 0 78.0808 17.008 1328 147.009 118.689 453.4
2940 0 84.2527 15.4298 1300 102.184 122.921 456.333
2941 0 85.2141 13.3429 1137 104.573 123.711 458.834
2942 0 88.1068 15.3223 1350 101.887 124.398 458.44
2943 0 90.3323 11.6459 1052 107.484 123.97 455.858
2944 0 95.2697 17.0988 1629 100.023 124.597 457.271
2945 0 98.1196 18.9361 1858 97.3671 125.451 453.874
2946 0 99.3045 17.6629 1754 98.0314 124.723 459.023
2947 0 102.316 15.198 1555 99.7878 125.168 457.106
2948 0 108.312 20.0254 2169 94.2319 124.925 455.737
2949 0 114.171 17.3249 1978 96.4732 124.411 452.479
2950 0 115.302 16.2096 1869 97.8197 124.127 452.154
2951 0 119.403 25.6861 3067 89.8318 124.464 448.782
2952 0 123.377 16.4536 2030 97.3961 123.883 453.31
2953 0 127.535 17.3757 2216 97.1381 123.29 450.48
2954 0 126.329 11.2484 1421 105.236 123.126 447.588
2955 0 138.541 19.7559 2737 94.1973 122.154 453.338
2956 0 136.332 20.6262 2812 95.8094 122.666 436.428
2957 0 142.336 18.6601 2656 97.3012 120.622 443.921
2958 0 148.47 18.4346 2737 97.4231 121.469 424.629
2959 1 80.13 14.751 1182 98.8892 120.552 471.269
2960 0 87.3872 21.7309 1899 92.4987 119.889 470.612
2961 0 87.1247 13.6815 1192 101.628 119.578 468.033
2962 0 94.0418 19.4275 1827 94.1133 119.614 462.912
2963 0 89.2359 15.0612 1344 102.258 117.408 443.639
2964 0 98.4839 16.886 1663 99.623 118.792 438.819
2965 0 98.3433 16.3509 1608 100.795 117.547 442.771
2966 0 99.313 20.9439 2080 95.1659 117.316 449.736
2967 0 104.337 26.424 2757 91.9518 117.468 444.258
2968 0 109.612 18.529 2031 98.5593 117.692 447.057
2969 0 111.668 13.6656 1526 104.938 118.059 447.111
2970 0 113.461 16.9397 1922 102.174 117.545 446.63
2971 0 121.599 16.0527 1952 102.297 118.877 447.764
2972 0 126.895 20.5681 2610 96.89 118.495 447.561
2973 0 128.41 19.4611 2499 99.918 119.322 437.274
2974 0 126.43 16.0484 2029 101.356 119.691 443.473
2975 1 197.356 17.4963 3453 100.669 119.86 414.641
2976 0 208.452 24.9122 5193 95.3245 120.777 402.592
2977 0 210.733 17.0832 3600 103.198 121.563 405.35
2978 0 220.756 24.8464 5485 95.8263 122.046 398.503
2979 0 230.479 25.2301 5815 96.2033 122.012 393.929
2980 1 263.624 24.2884 6403 93.7603 121.419 382.122
2981 0 265.696 12.9659 3445 105.763 122.678 390.358
2982 0 264.006 20.0185 5285 100.126 123.01 383.659
2983 0 262.625 10.7111 2813 110.936 123.763 405.963
2984 0 264.715 13.1235 3474 104.369 123.424 421.232
2985 1 109.372 17.82 1949 104.904 124.922 442.497
2986 0 106.341 25.8133 2745 98.2189 124.4 443.926
2987 0 111.202 12.3199 1370 114.101 125.185 454.33
2988 0 115.933 20.3738 2362 102.614 124.845 455.122
2989 0 117.308 21.8911 2568 100.758 125.072 446.255
2990 0 126.259 30.683 3874 92.1193 124.663 443.79
2991 0 124.252 19.2029 2386 104.15 125.254 443.231
2992 0 128.358 23.8942 3067 99.6241 123.456 446.775
2993 0 127.536 16.6071 2118 109.114 124.002 445.032
2994 0 134.438 16.2826 2189 109.196 124.438 445.504
2995 0 134.235 16.1061 2162 111.231 122.872 443.295
2996 1 143.143 13.4132 1920 114.821 123.791 445.18
2997 0 148.404 13.1668 1954 113.103 122.487 451.949
2998 0 153.346 19.6288 3010 107.32 121.561 434.16
2999 0 159.422 20.9256 3336 105.385 121.617 433.933
3000 0 163.343 19.9335 3256 106.398 121.218 435.417
3001 0 168.175 21.3111 3584 104.545 119.981 435.459
3002 0 176.483 21.8095 3849 103.491 119.964 430.582
3003 0 178.57 18.3905 3284 108.52 120.72 422.276
3004 0 187.548 22.6235 4243 102.611 118.733 428.938
3005 1 92.2221 14.6169 1348 110.671 118.484 467.329
3006 0 100.345 17.9082 1797 108.244 117.989 461.009
3007 0 99.2011 21.4413 2127 105.31 116.4 455.144
3008 0 105.536 22.7411 2400 103.353 116.292 456.905
3009 0 115.385 20.2453 2336 103.804 115.994 455.149
3010 0 117.92 22.7188 2679 101.577 116.09 452.753
3011 0 117.467 18.2434 2143 106.913 115.808 453.386
3012 1 65.1723 13.5947 886 110.27 115.988 473.729
3013 0 67.2108 13.3014 894 107.526 116.767 474.255
3014 0 70.1095 16.7167 1172 105.22 116.974 474.476
3015 0 71.4156 17.8532 1275 104.97 117.108 471.393
3016 0 76.5233 16.0474 1228 106.524 117.883 470.349
3017 0 78.4078 15.4194 1209 107.639 118.292 466.456
3018 0 79.2427 16.1151 1277 109.742 118.652 462.919
3019 0 82.3001 20.6683 1701 103.581 117.465 460.155
3020 0 86.1716 13.7864 1188 110.069 119.495 461.746
3021 0 87.3266 16.57 1447 107.217 119.886 458.719
3022 0 90.079 13.2439 1193 111.522 120.7 458.44
3023 0 91.2838 13.5621 1238 111.657 121.47 452.85
3024 0 94.3714 12.4084 1171 111.827 121.632 454.345
3025 0 100.486 16.6591 1674 105.992 122.408 452.449
3026 1 111.376 23.2546 2590 96.7544 123.173 436.925
3027 0 113.355 30.8588 3498 91.8997 123.321 441.559
3028 0 112.338 15.2487 1713 107.013 123.242 445.24
3029 0 117.514 17.4617 2052 104.147 122.601 443.765
3030 0 124.817 14.9419 1865 106.701 124.465 441.904
3031 1 67.283 16.8393 1133 101.104 124.129 475.181
3032 0 66.4074 15.6157 1037 104.697 123.462 473.31
3033 0 69.1869 17.3588 1201 101.724 123.636 477.638
3034 0 78.6877 19.3804 1525 97.1252 122.986 469.235
3035 0 78.6877 19.3804 1525 118.614 121.986 469.235
3036 0 82.5995 23.7653 1963 93.3428 122.311 467.508
3037 0 79.4766 17.6907 1406 100.457 121.816 475.568
3038 0 83.1127 16.7844 1395 101.161 121.837 474.233
3039 0 86.5849 14.8294 1284 102.316 122.589 472.252
3040 0 82.2091 14.7064 1209 104.138 122.172 471.872
3041 0 86.2088 16.9008 1457 101.647 121.231 465.098
3042 0 90.6625 17.8685 1620 100.467 121.309 469.354
3043 0 94.3813 21.8369 2061 95.655 119.995 468.784
3044 0 98.7863 12.937 1278 103.221 120.318 467.458
3045 0 103.448 13.6784 1415 102.724 118.693 461.401
3046 1 54.3719 11.9547 650 101.165 119.042 486.043
3047 0 58.1199 20.8018 1209 94.0099 118.481 484.826
3048 0 60.3896 13.711 828 101.443 118.208 483.461
3049 0 61.4663 13.6498 839 101.754 118.688 481.721
3050 0 63.2416 12.7764 808 103.546 117.335 474.634
3051 0 69.5608 16.6761 1160 97.9017 117.796 475.998
3052 0 70.4067 21.7735 1533 92.3594 116.8 478.35
3053 0 75.2909 13.999 1054 99.9516 117.12 476.13
3054 0 78.4755 19.8661 1559 93.3182 117.253 475.812
3055 0 83.1602 21.6329 1799 93.0717 117.475 468.944
3056 0 84.7948 21.6523 1836 93.3431 117.551 468.926
3057 0 83.636 13.6664 1143 102.191 116.715 466.901
3058 0 91.5617 16.0875 1473 99.2498 117.861 466.22
3059 0 92.8261 18.4323 1711 98.0655 117.625 457.631
3060 0 101.552 25.3564 2575 91.0959 116.834 456.872
3061 0 100.531 17.6165 1771 99.7775 118.418 456.327
3062 0 102.508 16.0671 1647 102.564 117.681 448.192
3063 1 61.4888 20.6704 1271 91.4099 119.876 474.937
3064 0 58.0983 15.5254 902 102.541 118.351 411.545
3065 0 65.3269 17.3895 1136 96.7298 120.209 474.968
3066 1 124.505 16.9953 2116 101.009 121.638 442.844
3067 1 57.324 15.6305 896 105.184 121.996 477.326
3068 0 61.435 19.598 1204 98.9211 123.355 474.361
3069 0 62.1604 19.5301 1214 98.3394 122.956 478.922
3070 0 66.7265 25.3273 1690 93.4308 122.24 474.779
3071 0 62.3258 18.2268 1136 103.972 122.75 476.399
3072 0 64.2747 15.9005 1022 107.214 122.262 476.244
3073 0 64.2138 15.1058 970 108.905 123.886 477.731
3074 0 70.4832 21.9627 1548 98.416 123.591 481.816
3075 0 70.4384 13.0752 921 111.203 123.539 481.125
3076 0 72.2105 17.2966 1249 107.258 123.334 475.914
3077 0 77.1212 20.7206 1598 102.259 122.227 473.985
3078 0 78.176 14.7232 1151 109.813 123.594 481.119
3079 0 84.4703 23.9611 2024 97.5706 122.181 479.717
3080 0 81.4835 17.1323 1396 108.36 122.163 478.881
3081 0 84.2015 25.1896 2121 98.4366 121.847 483.682
3082 0 82.1627 15.3963 1265 113.07 123.25 479.934
3083 0 80.1937 17.9939 1443 110.546 121.719 475.533
3084 0 82.4895 15.8808 1310 116.44 120.614 480.825
3085 0 81.2033 16.8712 1370 117.961 120.29 476.469
3086 0 84.5169 15.2987 1293 121.477 120.373 477.319
3087 0 82.3837 16.6902 1375 121.236 118.931 474.287
3088 0 85.4687 18.0534 1543 118.779 117.637 474.526
3089 1 39.346 11.8945 468 129.051 119.361 497.524
3090 0 42.4214 16.4775 699 121.368 118.981 496.06
3091 0 41.3423 12.1667 503 133.501 118.883 494.119
3092 0 38.1875 11.2079 428 137.664 118.311 493.122
3093 0 39.2282 12.0067 471 136.518 117.423 492.214
3094 0 42.1293 13.4586 567 130.672 117.841 494.053
3095 0 41.057 13.9805 574 132.909 116.97 489.35
3096 0 43.192 13.6368 589 130.479 117.553 490.234
3097 0 39.0919 13.5322 529 135.212 115.975 489.951
3098 0 41.0835 12.3651 508 138.297 117.37 490.994
3099 0 42.2526 14.1056 596 137.139 117.359 486.557
3100 0 41.1728 13.0183 536 140.196 117.222 486.11
3101 0 39.5028 12.708 502 143.149 119.024 485.339
3102 0 43.2196 12.9802 561 139.982 119.282 486.143
3103 0 41.2463 12.6072 520 141.246 119.633 485.185
3104 0 39.1375 9.65826 378 147.254 119.267 482.415
3105 0 42.1598 12.6186 532 138.515 120.314 482.609
3106 0 42.1727 13.089 552 137.607 120.879 485.127
3107 0 40.1748 10.5539 424 144.057 121.196 485.46
3108 0 44.2321 12.7509 564 141.14 121.686 482.931
3109 0 41.2615 13.2569 547 141.596 122.715 482.574
3110 0 43.326 14.564 631 135.807 122.395 484.304
3111 0 44.4037 13.7601 611 136.612 122.895 484.617
3112 0 44.1442 15.2681 674 133.226 121.731 483.777
3113 0 43.1439 13.7679 594 138.237 123.704 484.633
3114 0 42.1359 13.4802 568 138.699 123.597 485.18
3115 0 44.2097 12.2145 540 140.756 123.496 486.48
3116 0 45.2159 14.5966 660 133.564 122.232 488.876
3117 0 42.2373 14.2054 600 136.647 124.273 486.66
3118 0 42.1051 12.7063 535 141.591 123.679 488.77
3119 0 45.1894 13.3217 602 136 123.05 491.643
3120 0 45.1752 13.5472 612 136.48 123.034 490.273
3121 0 44.1645 12.3176 544 140.039 123.101 491.116
3122 0 44.0981 15.9644 704 130.249 123.314 493.631
3123 0 44.1273 13.3477 589 135.194 122.99 493.535
3124 0 45.0394 13.2773 598 135.965 122.604 493.91
3125 0 46.2113 14.8881 688 131.506 120.737 494.304
3126 0 47.258 15.4683 731 130.212 121.695 493.639
3127 0 44.1488 13.4998 596 136.334 121.314 494.336
3128 0 44.2376 15.0551 666 132.278 120.85 493.314
3129 0 46.1087 13.6417 629 133.649 119.639 492.452
3130 0 44.1927 13.1017 579 136.967 119.737 492.896
3131 0 46.0691 13.5883 626 134.137 118.369 491.754
3132 0 47.1556 13.3176 628 133.492 117.99 492.597
3133 0 45.152 12.9119 583 134.163 117.602 493.197
3134 0 45.1001 14.6119 659 135.3 116.947 488.965
3135 0 48.1471 16.2419 782 127.499 116.104 489.416
3136 0 48.1299 15.1465 729 130.095 117.946 489.679
3137 0 49.1369 15.467 760 126.889 117.137 488.437
3138 0 46.1291 14.4378 666 130.853 117.498 487.065
3139 0 48.3225 19.3699 936 115.28 117.403 491.431
3140 0 47.4828 13.984 664 128.889 116.307 487.292
3141 0 46.2297 14.7957 684 127.779 116.643 484.436
3142 0 48.1187 16.2723 783 119.728 116.968 487.226
3143 0 48.2303 16.0273 773 122.133 117.365 483.454
3144 0 49.4006 17.3277 856 114.592 117.182 487.042
3145 0 46.2169 15.2542 705 122.46 118.401 481.721
3146 0 50.3024 11.5501 581 125.666 118.843 482.847
3147 0 49.1227 16.2247 797 118.452 118.873 482.73
3148 0 46.1857 12.7962 591 127.032 119.03 479.408
3149 0 51.3506 13.7291 705 121.287 119.44 482.277
3150 0 47.0751 13.4041 631 125.027 119.827 481.276
3151 0 48.1638 18.2917 881 116.602 120.443 482.434
3152 0 50.1135 15.844 794 118.268 120.647 483.106
3153 0 47.143 13.5545 639 124.207 121.103 483.659
